set title 'mp-1183590 - Density of States'
set xlabel 'Energy (eV)'
set ylabel 'DOS (states/eV)'
set grid
set xrange [-10:10]
set yrange [0:8.408]
set xzeroaxis lt -1
set terminal png size 800,600
set output 'mp-1183590_dos_gnuplot.png'
plot '-' using 1:2 with lines title 'DOS'
-41.264500 0.000000
-41.219700 0.000000
-41.174900 0.000000
-41.130000 0.000000
-41.085200 0.000000
-41.040300 0.000000
-40.995500 0.000000
-40.950700 0.000000
-40.905800 0.000000
-40.861000 0.000000
-40.816100 0.000000
-40.771300 0.000000
-40.726500 0.000000
-40.681600 0.000000
-40.636800 0.000000
-40.591900 0.000000
-40.547100 0.000000
-40.502300 0.000000
-40.457400 0.000000
-40.412600 0.000000
-40.367700 0.000000
-40.322900 0.000000
-40.278100 0.000000
-40.233200 0.000000
-40.188400 0.000000
-40.143500 0.000000
-40.098700 0.000000
-40.053900 0.000000
-40.009000 0.000000
-39.964200 0.000000
-39.919300 0.000000
-39.874500 0.000000
-39.829700 0.000000
-39.784800 0.000000
-39.740000 0.000000
-39.695100 0.000000
-39.650300 0.000000
-39.605500 0.000000
-39.560600 0.000000
-39.515800 0.000000
-39.471000 0.000000
-39.426100 0.000000
-39.381300 0.000000
-39.336400 0.000000
-39.291600 0.000000
-39.246800 0.000000
-39.201900 0.000000
-39.157100 0.000000
-39.112200 0.000000
-39.067400 0.000000
-39.022600 0.000000
-38.977700 0.000000
-38.932900 0.000000
-38.888000 0.000000
-38.843200 0.000000
-38.798400 0.000000
-38.753500 0.000000
-38.708700 0.000000
-38.663800 0.000000
-38.619000 0.000000
-38.574200 0.000000
-38.529300 0.000000
-38.484500 0.000000
-38.439600 0.000000
-38.394800 0.000000
-38.350000 0.000000
-38.305100 0.000000
-38.260300 0.000000
-38.215400 0.000000
-38.170600 0.000000
-38.125800 0.000000
-38.080900 0.000000
-38.036100 0.000000
-37.991200 0.000000
-37.946400 0.000000
-37.901600 0.000000
-37.856700 0.000000
-37.811900 0.000000
-37.767000 0.000000
-37.722200 0.000000
-37.677400 0.000000
-37.632500 0.000000
-37.587700 0.000000
-37.542900 0.000000
-37.498000 0.000000
-37.453200 0.000000
-37.408300 0.000000
-37.363500 0.000000
-37.318700 0.000000
-37.273800 0.000000
-37.229000 0.000000
-37.184100 5.061400
-37.139300 0.000000
-37.094500 0.000000
-37.049600 0.000000
-37.004800 0.000000
-36.959900 0.000000
-36.915100 0.000000
-36.870300 0.000000
-36.825400 0.000000
-36.780600 0.000000
-36.735700 0.000000
-36.690900 0.000000
-36.646100 0.000000
-36.601200 0.000000
-36.556400 0.000000
-36.511500 0.000000
-36.466700 0.000000
-36.421900 0.000000
-36.377000 0.000000
-36.332200 0.000000
-36.287300 0.000000
-36.242500 0.000000
-36.197700 0.000000
-36.152800 0.000000
-36.108000 0.000000
-36.063100 0.000000
-36.018300 0.000000
-35.973500 0.000000
-35.928600 0.000000
-35.883800 0.000000
-35.839000 0.000000
-35.794100 0.000000
-35.749300 0.000000
-35.704400 0.000000
-35.659600 0.000000
-35.614800 0.000000
-35.569900 0.000000
-35.525100 0.000000
-35.480200 0.000000
-35.435400 0.000000
-35.390600 0.000000
-35.345700 0.000000
-35.300900 0.000000
-35.256000 0.000000
-35.211200 0.000000
-35.166400 0.000000
-35.121500 0.000000
-35.076700 0.000000
-35.031800 0.000000
-34.987000 0.000000
-34.942200 0.000000
-34.897300 0.000000
-34.852500 0.000000
-34.807600 0.000000
-34.762800 0.000000
-34.718000 0.000000
-34.673100 0.000000
-34.628300 0.000000
-34.583400 0.000000
-34.538600 0.000000
-34.493800 0.000000
-34.448900 0.000000
-34.404100 0.000000
-34.359200 0.000000
-34.314400 0.000000
-34.269600 0.000000
-34.224700 0.000000
-34.179900 0.000000
-34.135000 0.000000
-34.090200 0.000000
-34.045400 0.000000
-34.000500 0.000000
-33.955700 0.000000
-33.910900 0.000000
-33.866000 0.000000
-33.821200 0.000000
-33.776300 0.000000
-33.731500 0.000000
-33.686700 0.000000
-33.641800 0.000000
-33.597000 0.000000
-33.552100 0.000000
-33.507300 0.000000
-33.462500 0.000000
-33.417600 0.000000
-33.372800 0.000000
-33.327900 0.000000
-33.283100 0.000000
-33.238300 0.000000
-33.193400 0.000000
-33.148600 0.000000
-33.103700 0.000000
-33.058900 0.000000
-33.014100 0.000000
-32.969200 0.000000
-32.924400 0.000000
-32.879500 0.000000
-32.834700 0.000000
-32.789900 0.000000
-32.745000 0.000000
-32.700200 0.000000
-32.655300 0.000000
-32.610500 0.000000
-32.565700 0.000000
-32.520800 0.000000
-32.476000 0.000000
-32.431100 0.000000
-32.386300 0.000000
-32.341500 0.000000
-32.296600 0.000000
-32.251800 0.000000
-32.207000 0.000000
-32.162100 0.000000
-32.117300 0.000000
-32.072400 0.000000
-32.027600 0.000000
-31.982800 0.000000
-31.937900 0.000000
-31.893100 0.000000
-31.848200 0.000000
-31.803400 0.000000
-31.758600 0.000000
-31.713700 0.000000
-31.668900 0.000000
-31.624000 0.000000
-31.579200 0.000000
-31.534400 0.000000
-31.489500 0.000000
-31.444700 0.000000
-31.399800 0.000000
-31.355000 0.000000
-31.310200 0.000000
-31.265300 0.000000
-31.220500 0.000000
-31.175600 0.000000
-31.130800 0.000000
-31.086000 0.000000
-31.041100 0.000000
-30.996300 0.000000
-30.951400 0.000000
-30.906600 0.000000
-30.861800 0.000000
-30.816900 0.000000
-30.772100 0.000000
-30.727200 0.000000
-30.682400 0.000000
-30.637600 0.000000
-30.592700 0.000000
-30.547900 0.000000
-30.503000 0.000000
-30.458200 0.000000
-30.413400 0.000000
-30.368500 0.000000
-30.323700 0.000000
-30.278900 0.000000
-30.234000 0.000000
-30.189200 0.000000
-30.144300 0.000000
-30.099500 0.000000
-30.054700 0.000000
-30.009800 0.000000
-29.965000 0.000000
-29.920100 0.000000
-29.875300 0.000000
-29.830500 0.000000
-29.785600 0.000000
-29.740800 0.000000
-29.695900 0.000000
-29.651100 0.000000
-29.606300 0.000000
-29.561400 0.000000
-29.516600 0.000000
-29.471700 0.000000
-29.426900 0.000000
-29.382100 0.000000
-29.337200 0.000000
-29.292400 0.000000
-29.247500 0.000000
-29.202700 0.000000
-29.157900 0.000000
-29.113000 0.000000
-29.068200 0.000000
-29.023300 0.000000
-28.978500 0.000000
-28.933700 0.000000
-28.888800 0.000000
-28.844000 0.000000
-28.799100 0.000000
-28.754300 0.000000
-28.709500 0.000000
-28.664600 0.000000
-28.619800 0.000000
-28.575000 0.000000
-28.530100 0.000000
-28.485300 0.000000
-28.440400 0.000000
-28.395600 0.000000
-28.350800 0.000000
-28.305900 0.000000
-28.261100 0.000000
-28.216200 0.000000
-28.171400 0.000000
-28.126600 0.000000
-28.081700 0.000000
-28.036900 0.000000
-27.992000 0.000000
-27.947200 0.000000
-27.902400 0.000000
-27.857500 0.000000
-27.812700 0.000000
-27.767800 0.000000
-27.723000 0.000000
-27.678200 0.000000
-27.633300 0.000000
-27.588500 0.000000
-27.543600 0.000000
-27.498800 0.000000
-27.454000 0.000000
-27.409100 0.000000
-27.364300 0.000000
-27.319400 0.000000
-27.274600 0.000000
-27.229800 0.000000
-27.184900 0.000000
-27.140100 0.000000
-27.095200 0.000000
-27.050400 0.000000
-27.005600 0.000000
-26.960700 0.000000
-26.915900 0.000000
-26.871000 0.000000
-26.826200 0.000000
-26.781400 0.000000
-26.736500 0.000000
-26.691700 0.000000
-26.646900 0.000000
-26.602000 0.000000
-26.557200 0.000000
-26.512300 0.000000
-26.467500 0.000000
-26.422700 0.000000
-26.377800 0.000000
-26.333000 0.000000
-26.288100 0.000000
-26.243300 0.000000
-26.198500 0.000000
-26.153600 0.000000
-26.108800 0.000000
-26.063900 0.000000
-26.019100 0.000000
-25.974300 0.000000
-25.929400 0.000000
-25.884600 0.000000
-25.839700 0.000000
-25.794900 0.000000
-25.750100 0.000000
-25.705200 0.000000
-25.660400 0.000000
-25.615500 0.000000
-25.570700 0.000000
-25.525900 0.000000
-25.481000 0.000000
-25.436200 0.000000
-25.391300 0.000000
-25.346500 0.000000
-25.301700 0.000000
-25.256800 0.000000
-25.212000 0.000000
-25.167100 0.000000
-25.122300 0.000000
-25.077500 0.000000
-25.032600 0.000000
-24.987800 0.000000
-24.943000 0.000000
-24.898100 0.000000
-24.853300 0.000000
-24.808400 0.000000
-24.763600 0.000000
-24.718800 0.000000
-24.673900 0.000000
-24.629100 0.000000
-24.584200 0.000000
-24.539400 0.000000
-24.494600 0.000000
-24.449700 0.000000
-24.404900 0.000000
-24.360000 0.000000
-24.315200 0.000000
-24.270400 0.000000
-24.225500 0.000000
-24.180700 0.000000
-24.135800 0.000000
-24.091000 0.000000
-24.046200 0.000000
-24.001300 0.000000
-23.956500 0.000000
-23.911600 0.000000
-23.866800 0.000000
-23.822000 0.000000
-23.777100 0.000000
-23.732300 0.000000
-23.687400 0.000000
-23.642600 0.000000
-23.597800 0.000000
-23.552900 0.000000
-23.508100 0.000000
-23.463200 0.000000
-23.418400 0.000000
-23.373600 0.000000
-23.328700 0.000000
-23.283900 0.000000
-23.239000 0.000000
-23.194200 0.000000
-23.149400 0.000000
-23.104500 0.000000
-23.059700 0.000000
-23.014900 0.000000
-22.970000 0.000000
-22.925200 0.000000
-22.880300 0.000000
-22.835500 0.000000
-22.790700 0.000000
-22.745800 0.000000
-22.701000 0.000000
-22.656100 0.000000
-22.611300 0.000000
-22.566500 0.000000
-22.521600 0.000000
-22.476800 0.000000
-22.431900 0.000000
-22.387100 0.000000
-22.342300 0.000000
-22.297400 0.000000
-22.252600 0.000000
-22.207700 0.000000
-22.162900 0.000000
-22.118100 0.000000
-22.073200 0.000000
-22.028400 0.000000
-21.983500 0.000000
-21.938700 0.000000
-21.893900 0.000000
-21.849000 0.000000
-21.804200 0.000000
-21.759300 0.353000
-21.714500 1.358700
-21.669700 1.731300
-21.624800 2.153800
-21.580000 3.252000
-21.535100 2.937300
-21.490300 2.739600
-21.445500 2.578700
-21.400600 2.461600
-21.355800 2.341300
-21.311000 0.445100
-21.266100 0.000000
-21.221300 0.000000
-21.176400 0.000000
-21.131600 0.000000
-21.086800 0.015900
-21.041900 0.119700
-20.997100 0.196800
-20.952200 0.277800
-20.907400 0.348200
-20.862600 0.437700
-20.817700 0.533700
-20.772900 0.795000
-20.728000 1.273200
-20.683200 1.743700
-20.638400 2.330100
-20.593500 2.861800
-20.548700 4.889500
-20.503800 4.922900
-20.459000 5.519900
-20.414200 5.831900
-20.369300 3.960000
-20.324500 2.883800
-20.279600 2.296800
-20.234800 1.537300
-20.190000 1.411100
-20.145100 0.849100
-20.100300 0.002500
-20.055400 0.000000
-20.010600 0.000000
-19.965800 0.000000
-19.920900 0.000000
-19.876100 0.000000
-19.831200 0.000000
-19.786400 0.000000
-19.741600 0.000000
-19.696700 0.000000
-19.651900 0.000000
-19.607100 0.000000
-19.562200 0.000000
-19.517400 0.000000
-19.472500 0.000000
-19.427700 0.000000
-19.382900 0.000000
-19.338000 0.000000
-19.293200 0.000000
-19.248300 0.000000
-19.203500 0.000000
-19.158700 0.000000
-19.113800 0.000000
-19.069000 0.000000
-19.024100 0.000000
-18.979300 0.000000
-18.934500 0.000000
-18.889600 0.000000
-18.844800 0.000000
-18.799900 0.000000
-18.755100 0.000000
-18.710300 0.000000
-18.665400 0.000000
-18.620600 0.000000
-18.575700 0.000000
-18.530900 0.000000
-18.486100 0.000000
-18.441200 0.000000
-18.396400 0.000000
-18.351500 0.000000
-18.306700 0.000000
-18.261900 0.901800
-18.217000 5.506300
-18.172200 43.315500
-18.127300 6.886100
-18.082500 5.107200
-18.037700 3.435100
-17.992800 3.010500
-17.948000 6.598200
-17.903100 5.866400
-17.858300 2.845500
-17.813500 0.791700
-17.768600 0.517200
-17.723800 0.277100
-17.679000 0.000000
-17.634100 0.000000
-17.589300 0.000000
-17.544400 0.000000
-17.499600 0.000000
-17.454800 0.000000
-17.409900 0.000000
-17.365100 0.000000
-17.320200 0.000000
-17.275400 0.000000
-17.230600 0.000000
-17.185700 0.000000
-17.140900 0.000000
-17.096000 0.000000
-17.051200 0.000000
-17.006400 0.000000
-16.961500 0.000000
-16.916700 0.000000
-16.871800 0.000000
-16.827000 0.000000
-16.782200 0.000000
-16.737300 0.000000
-16.692500 0.000000
-16.647600 0.000000
-16.602800 0.000000
-16.558000 0.000000
-16.513100 0.000000
-16.468300 0.000000
-16.423400 0.000000
-16.378600 0.000000
-16.333800 0.000000
-16.288900 0.000000
-16.244100 0.000000
-16.199200 0.000000
-16.154400 0.000000
-16.109600 0.000000
-16.064700 0.000000
-16.019900 0.000000
-15.975100 0.000000
-15.930200 0.000000
-15.885400 0.000000
-15.840500 0.000000
-15.795700 0.000000
-15.750900 0.000000
-15.706000 0.000000
-15.661200 0.000000
-15.616300 0.000000
-15.571500 0.000000
-15.526700 0.000000
-15.481800 0.000000
-15.437000 0.000000
-15.392100 0.000000
-15.347300 0.000000
-15.302500 0.000000
-15.257600 0.000000
-15.212800 0.000000
-15.167900 0.000000
-15.123100 0.000000
-15.078300 0.000000
-15.033400 0.000000
-14.988600 0.000000
-14.943700 0.000000
-14.898900 0.000000
-14.854100 0.000000
-14.809200 0.000000
-14.764400 0.000000
-14.719500 0.000000
-14.674700 0.000000
-14.629900 0.000000
-14.585000 0.000000
-14.540200 0.000000
-14.495300 0.000000
-14.450500 0.000000
-14.405700 0.000000
-14.360800 0.000000
-14.316000 0.000000
-14.271100 0.000000
-14.226300 0.000000
-14.181500 0.000000
-14.136600 0.000000
-14.091800 0.000000
-14.047000 0.000000
-14.002100 0.000000
-13.957300 0.000000
-13.912400 0.000000
-13.867600 0.000000
-13.822800 0.000000
-13.777900 0.000000
-13.733100 0.000000
-13.688200 0.000000
-13.643400 0.000000
-13.598600 0.000000
-13.553700 0.000000
-13.508900 0.000000
-13.464000 0.000000
-13.419200 0.000000
-13.374400 0.000000
-13.329500 0.000000
-13.284700 0.000000
-13.239800 0.000000
-13.195000 0.000000
-13.150200 0.000000
-13.105300 0.000000
-13.060500 0.000000
-13.015600 0.000000
-12.970800 0.000000
-12.926000 0.000000
-12.881100 0.000000
-12.836300 0.000000
-12.791400 0.000000
-12.746600 0.000000
-12.701800 0.000000
-12.656900 0.000000
-12.612100 0.000000
-12.567200 0.000000
-12.522400 0.000000
-12.477600 0.000000
-12.432700 0.000000
-12.387900 0.000000
-12.343100 0.000000
-12.298200 0.000000
-12.253400 0.000000
-12.208500 0.000000
-12.163700 0.000000
-12.118900 0.000000
-12.074000 0.000000
-12.029200 0.000000
-11.984300 0.000000
-11.939500 0.000000
-11.894700 0.000000
-11.849800 0.000000
-11.805000 0.000000
-11.760100 0.000000
-11.715300 0.000000
-11.670500 0.000000
-11.625600 0.000000
-11.580800 0.000000
-11.535900 0.000000
-11.491100 0.000000
-11.446300 0.000000
-11.401400 0.000000
-11.356600 0.000000
-11.311700 0.000000
-11.266900 0.000000
-11.222100 0.000000
-11.177200 0.000000
-11.132400 0.000000
-11.087500 0.000000
-11.042700 0.000000
-10.997900 0.000000
-10.953000 0.000000
-10.908200 0.000000
-10.863300 0.000000
-10.818500 0.000000
-10.773700 0.000000
-10.728800 0.000000
-10.684000 0.000000
-10.639100 0.000000
-10.594300 0.000000
-10.549500 0.000000
-10.504600 0.000000
-10.459800 0.000000
-10.415000 0.000000
-10.370100 0.000000
-10.325300 0.000000
-10.280400 0.000000
-10.235600 0.000000
-10.190800 0.000000
-10.145900 0.000000
-10.101100 0.000000
-10.056200 0.000000
-10.011400 0.000000
-9.966600 0.000000
-9.921700 0.000000
-9.876900 0.000000
-9.832000 0.000000
-9.787200 0.000000
-9.742400 0.000000
-9.697500 0.000000
-9.652700 0.000000
-9.607800 0.000000
-9.563000 0.000000
-9.518200 0.000000
-9.473300 0.000000
-9.428500 0.000000
-9.383600 0.000000
-9.338800 0.000000
-9.294000 0.000000
-9.249100 0.000000
-9.204300 0.000000
-9.159400 0.000000
-9.114600 0.000000
-9.069800 0.000000
-9.024900 0.000000
-8.980100 0.000000
-8.935200 0.000000
-8.890400 0.000000
-8.845600 0.000000
-8.800700 0.000000
-8.755900 0.000000
-8.711100 0.000000
-8.666200 0.000000
-8.621400 0.000000
-8.576500 0.000000
-8.531700 0.000000
-8.486900 0.000000
-8.442000 0.000000
-8.397200 0.000000
-8.352300 0.000000
-8.307500 0.000000
-8.262700 0.000000
-8.217800 0.000000
-8.173000 0.000000
-8.128100 0.000000
-8.083300 0.000000
-8.038500 0.000000
-7.993600 0.000000
-7.948800 0.000000
-7.903900 0.000000
-7.859100 0.000000
-7.814300 0.000000
-7.769400 0.000000
-7.724600 0.000000
-7.679700 0.000000
-7.634900 0.000000
-7.590100 0.000000
-7.545200 0.000000
-7.500400 0.000000
-7.455500 0.000000
-7.410700 0.000000
-7.365900 0.000000
-7.321000 0.000000
-7.276200 0.000000
-7.231300 0.000000
-7.186500 0.000000
-7.141700 0.000000
-7.096800 0.000000
-7.052000 0.000000
-7.007100 0.000000
-6.962300 0.000000
-6.917500 0.000000
-6.872600 0.000000
-6.827800 0.000000
-6.783000 0.000000
-6.738100 0.000000
-6.693300 0.000000
-6.648400 0.000000
-6.603600 0.000000
-6.558800 0.000000
-6.513900 0.000000
-6.469100 0.000000
-6.424200 0.000000
-6.379400 0.000000
-6.334600 0.000000
-6.289700 0.000000
-6.244900 0.000000
-6.200000 0.000000
-6.155200 0.000000
-6.110400 0.000000
-6.065500 0.000000
-6.020700 0.000000
-5.975800 0.000000
-5.931000 0.000000
-5.886200 0.000000
-5.841300 0.000000
-5.796500 0.000000
-5.751600 0.000000
-5.706800 0.000000
-5.662000 0.000000
-5.617100 0.000000
-5.572300 0.000000
-5.527400 0.000000
-5.482600 0.000000
-5.437800 0.000000
-5.392900 0.000000
-5.348100 0.000000
-5.303200 0.000000
-5.258400 0.000000
-5.213600 0.000000
-5.168700 0.000000
-5.123900 0.000000
-5.079100 0.000000
-5.034200 0.000000
-4.989400 0.000000
-4.944500 0.000000
-4.899700 0.000000
-4.854900 0.000000
-4.810000 0.000000
-4.765200 0.000000
-4.720300 0.000000
-4.675500 0.000000
-4.630700 0.000000
-4.585800 0.000000
-4.541000 0.000000
-4.496100 0.000000
-4.451300 0.000000
-4.406500 0.223100
-4.361600 0.376300
-4.316800 0.539600
-4.271900 0.860600
-4.227100 1.162500
-4.182300 1.101700
-4.137400 1.193100
-4.092600 1.282500
-4.047700 1.450300
-4.002900 1.766800
-3.958100 2.898600
-3.913200 1.913100
-3.868400 1.689100
-3.823500 1.689100
-3.778700 1.809900
-3.733900 1.883600
-3.689000 1.812400
-3.644200 2.011200
-3.599300 2.122800
-3.554500 2.287900
-3.509700 2.469000
-3.464800 2.694600
-3.420000 2.606200
-3.375200 2.157400
-3.330300 2.046900
-3.285500 1.993300
-3.240600 1.715100
-3.195800 2.612100
-3.151000 3.333300
-3.106100 3.316900
-3.061300 2.465300
-3.016400 2.162900
-2.971600 2.170800
-2.926800 2.185800
-2.881900 1.704800
-2.837100 0.952400
-2.792200 0.745000
-2.747400 0.436400
-2.702600 0.439700
-2.657700 0.538600
-2.612900 0.787300
-2.568000 1.138500
-2.523200 1.461600
-2.478400 1.784300
-2.433500 2.026000
-2.388700 1.829700
-2.343800 1.859700
-2.299000 1.906500
-2.254200 2.064000
-2.209300 2.312000
-2.164500 2.429300
-2.119600 1.625200
-2.074800 1.546100
-2.030000 1.776500
-1.985100 2.672500
-1.940300 2.592600
-1.895400 2.174400
-1.850600 3.179900
-1.805800 5.230100
-1.760900 4.699600
-1.716100 4.189000
-1.671200 3.711000
-1.626400 2.562900
-1.581600 2.590600
-1.536700 4.190800
-1.491900 2.107300
-1.447100 1.724700
-1.402200 1.852300
-1.357400 2.112600
-1.312500 3.353200
-1.267700 3.597300
-1.222900 4.310600
-1.178000 6.158500
-1.133200 5.840300
-1.088300 5.685200
-1.043500 6.203100
-0.998700 5.905400
-0.953800 5.312500
-0.909000 4.115200
-0.864100 3.466000
-0.819300 3.618300
-0.774500 3.655800
-0.729600 0.492000
-0.684800 0.000000
-0.639900 0.000000
-0.595100 0.000000
-0.550300 0.000000
-0.505400 0.000000
-0.460600 0.000000
-0.415700 0.000000
-0.370900 0.000000
-0.326100 0.000000
-0.281200 0.000000
-0.236400 0.000000
-0.191500 0.000000
-0.146700 0.000000
-0.101900 0.000000
-0.057000 0.000000
-0.012200 0.000000
0.032700 0.000000
0.077500 0.000000
0.122300 0.000000
0.167200 0.000000
0.212000 0.000000
0.256800 0.000000
0.301700 0.000000
0.346500 0.000000
0.391400 0.000000
0.436200 0.000000
0.481000 0.000000
0.525900 0.000000
0.570700 0.000000
0.615600 0.000000
0.660400 0.000000
0.705200 0.000000
0.750100 0.000000
0.794900 0.000000
0.839800 0.000000
0.884600 0.000000
0.929400 0.000000
0.974300 0.000000
1.019100 0.000000
1.064000 0.000000
1.108800 0.000000
1.153600 0.000000
1.198500 0.000000
1.243300 0.000000
1.288200 0.000000
1.333000 0.000000
1.377800 0.000000
1.422700 0.000000
1.467500 0.000000
1.512400 0.000000
1.557200 0.000000
1.602000 0.000000
1.646900 0.000000
1.691700 0.000000
1.736600 0.000000
1.781400 0.000000
1.826200 0.000000
1.871100 0.000000
1.915900 0.000000
1.960800 0.000000
2.005600 0.000000
2.050400 0.000000
2.095300 0.000000
2.140100 0.000000
2.184900 0.000000
2.229800 0.000000
2.274600 0.000000
2.319500 0.000000
2.364300 0.000000
2.409100 0.000000
2.454000 0.000000
2.498800 0.000000
2.543700 0.000000
2.588500 0.000000
2.633300 0.000000
2.678200 0.000000
2.723000 0.000000
2.767900 0.000000
2.812700 0.000000
2.857500 0.000000
2.902400 0.000000
2.947200 0.000000
2.992100 0.000000
3.036900 0.000000
3.081700 0.000000
3.126600 0.000000
3.171400 0.000000
3.216300 0.000000
3.261100 0.000000
3.305900 0.000000
3.350800 0.000000
3.395600 0.000000
3.440500 0.000000
3.485300 0.000000
3.530100 0.000000
3.575000 0.000000
3.619800 0.000000
3.664700 0.000000
3.709500 0.000000
3.754300 0.000000
3.799200 0.000000
3.844000 0.000000
3.888800 0.000000
3.933700 0.000000
3.978500 0.000000
4.023400 0.000000
4.068200 0.000000
4.113000 0.000000
4.157900 0.000000
4.202700 0.000000
4.247600 0.000000
4.292400 0.000000
4.337200 0.000000
4.382100 0.000000
4.426900 0.000000
4.471800 0.000000
4.516600 0.000000
4.561400 0.000000
4.606300 0.000000
4.651100 0.000000
4.696000 0.000000
4.740800 0.000000
4.785600 0.000000
4.830500 0.000000
4.875300 0.000000
4.920200 0.000000
4.965000 0.000000
5.009800 0.000000
5.054700 0.000000
5.099500 0.000000
5.144400 0.000000
5.189200 0.000000
5.234000 0.000000
5.278900 0.000000
5.323700 0.000000
5.368600 0.000000
5.413400 0.000000
5.458200 0.000000
5.503100 0.000000
5.547900 0.000000
5.592800 0.000000
5.637600 0.000000
5.682400 0.000000
5.727300 0.000000
5.772100 0.000000
5.816900 0.000000
5.861800 0.000000
5.906600 0.000000
5.951500 0.000000
5.996300 0.000000
6.041100 0.000000
6.086000 0.000000
6.130800 0.000000
6.175700 0.000000
6.220500 0.000000
6.265300 0.000000
6.310200 0.000000
6.355000 0.000000
6.399900 0.000000
6.444700 0.000000
6.489500 0.000000
6.534400 0.000000
6.579200 0.000000
6.624100 0.000000
6.668900 0.000000
6.713700 0.000000
6.758600 0.000000
6.803400 0.000000
6.848300 0.000000
6.893100 0.000000
6.937900 0.000000
6.982800 0.000000
7.027600 0.000000
7.072500 0.000000
7.117300 0.000000
7.162100 0.000000
7.207000 0.000000
7.251800 0.000000
7.296700 0.000000
7.341500 0.000000
7.386300 0.000000
7.431200 0.000200
7.476000 0.035400
7.520800 0.057600
7.565700 0.091800
7.610500 0.153600
7.655400 0.185800
7.700200 0.228400
7.745000 0.278000
7.789900 0.323600
7.834700 0.405100
7.879600 0.508500
7.924400 0.701300
7.969200 0.753100
8.014100 0.830300
8.058900 0.880100
8.103800 0.952700
8.148600 1.052300
8.193400 1.180200
8.238300 1.293500
8.283100 2.029700
8.328000 2.455600
8.372800 3.218100
8.417600 4.077100
8.462500 3.401700
8.507300 2.657200
8.552200 2.495800
8.597000 2.108200
8.641800 2.428300
8.686700 3.705800
8.731500 4.648200
8.776400 6.749100
8.821200 7.643500
8.866000 4.302900
8.910900 3.618700
8.955700 3.208100
9.000600 3.268800
9.045400 2.619100
9.090200 2.368500
9.135100 2.685400
9.179900 3.247000
9.224800 3.253100
9.269600 3.555300
9.314400 3.507400
9.359300 5.466100
9.404100 6.455200
9.448900 4.489800
9.493800 2.198500
9.538600 0.521600
9.583500 2.084400
9.628300 0.242100
9.673100 0.159600
9.718000 0.147300
9.762800 0.146700
9.807700 0.147100
9.852500 0.143500
9.897300 0.140400
9.942200 0.138000
9.987000 0.134400
10.031900 0.131500
10.076700 0.132100
10.121500 0.133300
10.166400 0.134800
10.211200 0.136600
10.256100 0.138500
10.300900 0.140500
10.345700 0.142800
10.390600 0.145200
10.435400 0.147200
10.480300 0.149300
10.525100 0.151700
10.569900 0.154200
10.614800 0.157600
10.659600 0.160600
10.704500 0.163700
10.749300 0.166700
10.794100 0.169600
10.839000 0.172500
10.883800 0.175400
10.928700 0.178400
10.973500 0.181500
11.018300 0.184500
11.063200 0.187600
11.108000 0.190900
11.152800 0.194500
11.197700 0.198200
11.242500 0.202100
11.287400 0.206000
11.332200 0.209900
11.377000 0.213800
11.421900 0.217800
11.466700 0.221900
11.511600 0.226000
11.556400 0.230200
11.601200 0.234400
11.646100 0.238600
11.690900 0.243700
11.735800 0.248600
11.780600 0.254500
11.825400 0.260600
11.870300 0.267300
11.915100 0.274300
11.960000 0.281700
12.004800 0.291400
12.049600 0.301500
12.094500 0.310900
12.139300 0.325500
12.184200 0.336600
12.229000 0.339700
12.273800 0.345800
12.318700 0.352700
12.363500 0.359600
12.408400 0.370400
12.453200 0.391300
12.498000 0.400000
12.542900 0.423900
12.587700 0.441200
12.632600 0.461800
12.677400 0.483800
12.722200 0.497700
12.767100 0.474800
12.811900 0.455100
12.856700 0.445500
12.901600 0.428400
12.946400 0.425500
12.991300 0.399400
13.036100 0.364600
13.080900 0.351200
13.125800 0.335200
13.170600 0.338100
13.215500 0.343100
13.260300 0.355200
13.305100 0.369100
13.350000 0.324700
13.394800 0.278300
13.439700 0.239700
13.484500 0.193700
13.529300 0.155600
13.574200 0.168100
13.619000 0.177000
13.663900 0.192000
13.708700 0.208100
13.753500 0.226100
13.798400 0.251300
13.843200 0.279900
13.888100 0.311600
13.932900 0.345400
13.977700 0.387400
14.022600 0.428000
14.067400 0.461900
14.112300 0.520400
14.157100 0.543700
14.201900 0.561900
14.246800 0.576200
14.291600 0.621100
14.336500 0.673400
14.381300 0.707000
14.426100 0.724000
14.471000 0.686000
14.515800 0.650000
14.560700 0.631000
14.605500 0.601400
14.650300 0.571300
14.695200 0.552000
14.740000 0.547100
14.784800 0.518800
14.829700 0.493100
14.874500 0.470500
14.919400 0.443300
14.964200 0.434800
15.009000 0.416600
15.053900 0.391100
15.098700 0.371500
15.143600 0.361400
15.188400 0.357500
15.233200 0.355500
15.278100 0.393100
15.322900 0.423700
15.367800 0.444500
15.412600 0.461100
15.457400 0.482400
15.502300 0.508200
15.547100 0.527300
15.592000 0.551800
15.636800 0.565000
15.681600 0.567600
15.726500 0.576000
15.771300 0.592300
15.816200 0.614600
15.861000 0.645800
15.905800 0.686200
15.950700 0.735500
15.995500 0.799100
16.040400 0.828800
16.085200 0.826400
16.130000 0.823100
16.174900 0.813500
16.219700 0.799000
16.264600 0.794300
16.309400 0.753300
16.354200 0.698900
16.399100 0.679500
16.443900 0.678200
16.488700 0.693300
16.533600 0.757000
16.578400 1.010300
16.623300 1.041300
16.668100 1.063700
16.712900 1.073200
16.757800 1.098700
16.802600 1.030100
16.847500 0.981000
16.892300 0.976200
16.937100 0.889100
16.982000 0.717600
17.026800 0.625200
17.071700 0.540400
17.116500 0.499300
17.161300 0.479600
17.206200 0.483100
17.251000 0.475700
17.295900 0.469000
17.340700 0.466000
17.385500 0.464000
17.430400 0.464100
17.475200 0.464500
17.520100 0.467600
17.564900 0.474900
17.609700 0.496500
17.654600 0.497600
17.699400 0.496900
17.744300 0.508200
17.789100 0.510900
17.833900 0.513200
17.878800 0.517100
17.923600 0.521900
17.968500 0.529200
18.013300 0.528800
18.058100 0.554100
18.103000 0.737000
18.147800 0.922300
18.192700 0.987500
18.237500 0.990700
18.282300 0.785300
18.327200 0.700000
18.372000 0.573100
18.416800 0.489700
18.461700 0.425300
18.506500 0.362000
18.551400 0.287500
18.596200 0.199900
18.641000 0.139500
18.685900 0.096900
18.730700 0.066300
18.775600 0.046000
18.820400 0.001400
18.865200 0.007200
18.910100 0.013400
18.954900 0.028700
18.999800 0.120500
19.044600 0.238200
19.089400 0.444500
19.134300 0.677900
19.179100 0.756600
19.224000 0.774900
19.268800 0.781300
19.313600 0.809200
19.358500 0.845600
19.403300 0.886900
19.448200 0.933700
19.493000 0.994900
19.537800 1.066800
19.582700 1.123300
19.627500 1.123000
19.672400 1.177800
19.717200 1.175700
19.762000 1.147200
19.806900 1.170700
19.851700 1.209000
19.896600 1.311500
19.941400 1.340000
19.986200 1.357100
20.031100 1.022600
20.075900 1.035600
20.120700 0.888600
20.165600 0.874900
20.210400 0.821600
20.255300 0.875700
20.300100 0.881300
20.344900 0.962200
20.389800 0.963300
20.434600 0.977900
20.479500 1.062500
20.524300 1.151800
20.569100 1.204700
20.614000 1.255200
20.658800 1.398600
20.703700 1.447300
20.748500 1.346500
20.793300 1.344600
20.838200 1.355700
20.883000 1.350000
20.927900 1.403000
20.972700 1.355900
21.017500 1.329100
21.062400 1.300700
21.107200 1.235000
21.152100 1.203100
21.196900 1.144100
21.241700 1.097800
21.286600 1.029200
21.331400 1.031900
21.376300 1.133300
21.421100 1.216800
21.465900 1.231000
21.510800 1.230100
21.555600 1.105800
21.600500 1.023600
21.645300 1.017900
21.690100 1.011700
21.735000 0.927400
21.779800 0.852400
21.824700 0.855300
21.869500 0.867000
21.914300 0.877400
21.959200 0.900100
22.004000 0.915400
22.048800 0.963600
22.093700 1.079200
22.138500 1.052400
22.183400 1.021400
22.228200 1.019300
22.273000 1.036500
22.317900 1.156800
22.362700 1.112500
22.407600 1.166300
22.452400 1.213000
22.497200 1.073700
22.542100 1.000800
22.586900 0.925200
22.631800 0.916000
22.676600 0.904400
22.721400 0.878400
22.766300 0.771900
22.811100 0.774800
22.856000 0.790000
22.900800 0.819500
22.945600 0.853900
22.990500 0.860400
23.035300 0.907300
23.080200 0.936100
23.125000 0.991600
23.169800 1.111400
23.214700 1.128300
23.259500 1.119700
23.304400 1.061000
23.349200 1.029900
23.394000 0.968800
23.438900 0.909200
23.483700 0.880600
23.528600 0.862100
23.573400 0.844100
23.618200 0.828000
23.663100 0.812400
23.707900 0.795900
23.752700 0.785500
23.797600 0.775200
23.842400 0.759800
23.887300 0.752700
23.932100 0.749200
23.976900 0.740300
24.021800 0.727700
24.066600 0.708300
24.111500 0.691100
24.156300 0.673100
24.201100 0.644900
24.246000 0.648400
24.290800 0.636600
24.335700 0.630300
24.380500 0.632400
24.425300 0.630200
24.470200 0.659600
24.515000 0.691500
24.559900 0.715000
24.604700 0.737800
24.649500 0.752200
24.694400 0.793200
24.739200 0.825600
24.784100 0.756700
24.828900 0.715300
24.873700 0.669200
24.918600 0.616300
24.963400 0.599000
25.008300 0.587800
25.053100 0.583200
25.097900 0.577100
25.142800 0.574400
25.187600 0.572600
25.232500 0.572400
25.277300 0.568300
25.322100 0.554100
25.367000 0.525100
25.411800 0.480600
25.456700 0.442800
25.501500 0.396000
25.546300 0.357100
25.591200 0.337600
25.636000 0.341500
25.680800 0.353600
25.725700 0.370200
25.770500 0.380100
25.815400 0.391600
25.860200 0.423400
25.905000 0.455200
25.949900 0.515100
25.994700 0.583700
26.039600 0.613800
26.084400 0.649100
26.129200 0.667800
26.174100 0.669100
26.218900 0.674500
26.263800 0.685300
26.308600 0.706800
26.353400 0.737500
26.398300 0.797900
26.443100 0.826900
26.488000 0.904100
26.532800 0.929900
26.577600 0.954300
26.622500 0.979700
26.667300 0.994400
26.712200 1.001800
26.757000 0.958300
26.801800 0.936900
26.846700 0.929500
26.891500 0.936100
26.936400 0.946700
26.981200 0.954900
27.026000 0.990900
27.070900 1.009300
27.115700 1.111300
27.160600 1.312300
27.205400 1.370000
27.250200 1.411900
27.295100 1.469000
27.339900 1.598700
27.384700 1.425600
27.429600 1.304500
27.474400 1.145400
27.519300 1.066800
27.564100 1.008900
27.608900 0.927500
27.653800 0.925700
27.698600 0.972100
27.743500 0.957600
27.788300 1.017800
27.833100 0.989000
27.878000 0.909800
27.922800 0.865700
27.967700 0.840400
28.012500 0.825500
28.057300 0.832300
28.102200 0.857100
28.147000 0.784700
28.191900 0.803300
28.236700 0.834300
28.281500 0.858500
28.326400 0.861200
28.371200 0.856600
28.416100 0.841900
28.460900 0.818400
28.505700 0.788300
28.550600 0.763300
28.595400 0.737100
28.640300 0.726800
28.685100 0.732500
28.729900 0.729300
28.774800 0.735500
28.819600 0.740600
28.864500 0.770100
28.909300 0.706400
28.954100 0.766300
28.999000 0.748400
29.043800 0.742700
29.088600 0.741500
29.133500 0.747000
29.178300 0.780700
29.223200 0.818800
29.268000 0.812700
29.312800 0.798300
29.357700 0.847300
29.402500 0.708900
29.447400 0.625200
29.492200 0.887700
29.537000 1.100900
29.581900 1.140200
29.626700 1.127300
29.671600 1.091400
29.716400 1.088800
29.761200 1.070100
29.806100 0.984300
29.850900 1.007800
29.895800 1.042800
29.940600 1.086700
29.985400 1.148500
30.030300 1.164000
30.075100 1.180200
30.120000 1.275200
30.164800 1.226100
30.209600 1.188600
30.254500 1.124900
30.299300 1.132700
30.344200 1.096700
30.389000 1.127800
30.433800 1.197400
30.478700 1.272300
30.523500 1.296400
30.568400 1.202000
30.613200 1.087700
30.658000 1.022400
30.702900 0.955100
30.747700 0.915900
30.792600 0.899400
30.837400 0.870100
30.882200 0.845600
30.927100 0.853800
30.971900 0.840500
31.016700 0.807000
31.061600 0.966900
31.106400 0.882800
31.151300 0.763700
31.196100 0.634800
31.240900 0.502400
31.285800 0.478300
31.330600 0.509100
31.375500 0.553200
31.420300 0.686300
31.465100 0.739000
31.510000 0.764200
31.554800 0.818400
31.599700 0.883200
31.644500 0.891500
31.689300 0.933700
31.734200 1.051900
31.779000 1.071300
31.823900 1.111200
31.868700 1.139000
31.913500 1.172100
31.958400 1.251200
32.003200 1.305600
32.048100 1.384000
32.092900 1.433000
32.137700 1.253300
32.182600 1.130000
32.227400 1.101700
32.272300 1.061600
32.317100 1.020500
32.361900 1.046900
32.406800 1.041500
32.451600 1.080300
32.496500 0.999900
32.541300 0.997800
32.586100 0.997500
32.631000 1.043400
32.675800 1.085300
32.720600 1.085600
32.765500 1.120000
32.810300 1.178900
32.855200 1.168300
32.900000 1.187100
32.944800 1.156700
32.989700 1.166400
33.034500 1.170700
33.079400 1.171500
33.124200 1.172000
33.169000 1.140200
33.213900 1.147200
33.258700 1.168700
33.303600 1.160500
33.348400 1.122000
33.393200 1.081000
33.438100 0.992800
33.482900 0.957700
33.527800 0.969100
33.572600 1.005300
33.617400 1.074000
33.662300 1.177500
33.707100 1.102300
33.752000 0.988400
33.796800 0.881700
33.841600 0.850400
33.886500 0.819100
33.931300 0.792900
33.976200 0.805200
34.021000 0.818200
34.065800 0.795400
34.110700 0.782900
34.155500 0.789000
34.200400 0.789700
34.245200 0.795200
34.290000 0.828000
34.334900 0.969000
34.379700 1.078100
34.424600 1.110000
34.469400 1.093000
34.514200 0.956600
34.559100 0.933500
34.603900 0.913900
34.648700 0.928200
34.693600 0.897100
34.738400 0.860600
34.783300 0.869100
34.828100 0.915600
34.872900 1.047900
34.917800 1.010400
34.962600 1.181300
35.007500 1.220600
35.052300 1.241000
35.097100 1.200100
35.142000 1.082500
35.186800 1.039000
35.231700 1.020500
35.276500 1.016200
35.321300 1.022600
35.366200 1.048200
35.411000 1.088800
35.455900 1.156600
35.500700 1.099700
35.545500 1.102200
35.590400 1.119000
35.635200 1.127500
35.680100 1.152300
35.724900 1.143600
35.769700 1.177200
35.814600 1.144700
35.859400 1.279100
35.904300 1.237800
35.949100 1.217500
35.993900 1.025100
36.038800 0.974200
36.083600 0.952200
36.128500 0.945500
36.173300 0.912900
36.218100 0.891700
36.263000 0.859900
36.307800 0.857900
36.352600 0.858100
36.397500 0.883800
36.442300 0.930100
36.487200 0.988400
36.532000 1.078200
36.576800 1.166600
36.621700 1.156100
36.666500 1.154500
36.711400 1.139500
36.756200 1.096600
36.801000 1.049600
36.845900 0.914400
36.890700 0.860100
36.935600 0.813400
36.980400 0.761000
37.025200 0.721500
37.070100 0.676800
37.114900 0.656500
37.159800 0.643700
37.204600 0.646600
37.249400 0.681600
37.294300 0.720200
37.339100 0.764600
37.384000 0.815600
37.428800 0.871500
37.473600 0.908100
37.518500 0.937700
37.563300 0.994300
37.608200 1.067900
37.653000 1.132600
37.697800 1.195700
37.742700 1.206000
37.787500 1.222300
37.832400 1.213900
37.877200 1.189600
37.922000 1.153000
37.966900 1.141500
38.011700 1.097400
38.056600 1.081900
38.101400 1.031300
38.146200 1.043400
38.191100 1.064000
38.235900 1.030700
38.280700 0.980300
38.325600 0.921800
38.370400 0.940200
38.415300 0.947000
38.460100 0.913500
38.504900 0.924000
38.549800 0.956900
38.594600 1.143500
38.639500 1.267500
38.684300 1.264200
38.729100 1.242900
38.774000 1.237500
38.818800 1.216700
38.863700 1.187800
38.908500 1.121600
38.953300 1.064900
38.998200 1.028600
39.043000 1.007400
39.087900 0.999100
39.132700 1.013400
39.177500 1.027000
39.222400 1.048200
39.267200 1.036800
39.312100 1.088700
39.356900 1.190400
39.401700 1.275700
39.446600 1.343900
39.491400 1.373600
39.536300 1.361900
39.581100 1.384300
39.625900 1.398000
39.670800 1.281900
39.715600 1.229400
39.760500 1.180900
39.805300 1.113800
39.850100 1.073200
39.895000 1.071900
39.939800 1.061100
39.984600 1.039300
40.029500 1.150500
40.074300 1.106600
40.119200 1.003600
40.164000 0.925100
40.208800 0.880100
40.253700 0.850300
40.298500 0.824500
40.343400 0.799000
40.388200 0.788100
40.433000 0.770000
40.477900 0.759600
40.522700 0.781200
40.567600 0.780300
40.612400 0.777300
40.657200 0.824000
40.702100 0.812500
40.746900 0.783600
40.791800 0.719100
40.836600 0.627400
40.881400 0.607500
40.926300 0.607600
40.971100 0.622800
41.016000 0.640900
41.060800 0.670200
41.105600 0.707100
41.150500 0.721300
41.195300 0.750400
41.240200 0.796600
41.285000 0.850400
41.329800 0.910900
41.374700 0.959400
41.419500 0.998700
41.464400 1.045200
41.509200 1.084100
41.554000 1.140700
41.598900 1.210800
41.643700 1.266900
41.688600 1.253500
41.733400 1.290400
41.778200 1.299600
41.823100 1.253600
41.867900 1.194000
41.912700 1.150000
41.957600 1.101000
42.002400 1.013800
42.047300 0.870000
42.092100 0.778400
42.136900 0.742400
42.181800 0.823800
42.226600 0.902300
42.271500 0.963300
42.316300 0.987400
42.361100 1.003600
42.406000 1.093200
42.450800 1.134100
42.495700 1.164800
42.540500 1.220700
42.585300 1.282200
42.630200 1.278300
42.675000 1.208700
42.719900 1.091200
42.764700 0.963100
42.809500 0.843100
42.854400 0.714700
42.899200 0.673000
42.944100 0.522000
42.988900 0.422300
43.033700 0.354100
43.078600 0.288600
43.123400 0.221900
43.168300 0.169600
43.213100 0.123600
43.257900 0.090000
43.302800 0.055100
43.347600 0.033100
43.392500 0.030200
43.437300 0.027800
43.482100 0.025700
43.527000 0.023000
43.571800 0.020000
43.616600 0.017200
43.661500 0.014800
43.706300 0.012700
43.751200 0.011200
43.796000 0.010400
43.840800 0.009700
43.885700 0.009000
43.930500 0.008300
43.975400 0.007600
44.020200 0.006800
44.065000 0.006000
44.109900 0.005300
44.154700 0.004400
44.199600 0.004700
44.244400 0.000000
44.289200 0.000000
44.334100 0.000000
44.378900 0.000000
44.423800 0.000000
44.468600 0.000000
44.513400 0.000000
44.558300 0.000000
44.603100 0.000000
44.648000 0.000000
44.692800 0.000000
44.737600 0.000000
44.782500 0.000000
44.827300 0.000000
44.872200 0.000000
44.917000 0.000000
44.961800 0.000000
45.006700 0.000000
45.051500 0.000000
45.096400 0.000000
45.141200 0.000000
45.186000 0.000000
45.230900 0.000000
45.275700 0.000000
45.320500 0.000000
45.365400 0.000000
45.410200 0.000000
45.455100 0.000000
45.499900 0.000000
45.544700 0.000000
45.589600 0.000000
45.634400 0.000000
45.679300 0.000000
45.724100 0.000000
45.768900 0.000000
45.813800 0.000000
45.858600 0.000000
45.903500 0.000000
45.948300 0.000000
45.993100 0.000000
46.038000 0.000000
46.082800 0.000000
46.127700 0.000000
46.172500 0.000000
46.217300 0.000000
46.262200 0.000000
46.307000 0.000000
46.351900 0.000000
46.396700 0.000000
46.441500 0.000000
46.486400 0.000000
46.531200 0.000000
46.576100 0.000000
46.620900 0.000000
46.665700 0.000000
46.710600 0.000000
46.755400 0.000000
46.800300 0.000000
46.845100 0.000000
46.889900 0.000000
46.934800 0.000000
46.979600 0.000000
47.024500 0.000000
47.069300 0.000000
47.114100 0.000000
47.159000 0.000000
47.203800 0.000000
47.248600 0.000000
47.293500 0.000000
47.338300 0.000000
47.383200 0.000000
47.428000 0.000000
47.472800 0.000000
47.517700 0.000000
47.562500 0.000000
47.607400 0.000000
47.652200 0.000000
47.697000 0.000000
47.741900 0.000000
47.786700 0.000000
47.831600 0.000000
47.876400 0.000000
47.921200 0.000000
47.966100 0.000000
48.010900 0.000000
48.055800 0.000000
48.100600 0.000000
48.145400 0.000000
48.190300 0.000000
48.235100 0.000000
48.280000 0.000000
48.324800 0.000000
48.369600 0.000000
48.414500 0.000000
e
