set title 'mp-1071768 - Density of States'
set xlabel 'Energy (eV)'
set ylabel 'DOS (states/eV)'
set grid
set xrange [-10:10]
set yrange [0:9.853]
set xzeroaxis lt -1
set terminal png size 800,600
set output 'mp-1071768_dos_gnuplot.png'
plot '-' using 1:2 with lines title 'DOS'
-22.319700 0.000000
-22.300700 0.000000
-22.281600 0.000000
-22.262600 0.000000
-22.243600 0.000000
-22.224600 0.000000
-22.205500 0.000000
-22.186500 0.000000
-22.167500 0.000000
-22.148500 0.000000
-22.129500 0.000000
-22.110400 0.000000
-22.091400 0.000000
-22.072400 0.000000
-22.053400 0.000000
-22.034300 0.000000
-22.015300 0.000000
-21.996300 0.000000
-21.977300 0.000000
-21.958300 0.000000
-21.939200 0.000000
-21.920200 0.000000
-21.901200 0.000000
-21.882200 0.000000
-21.863100 0.000000
-21.844100 0.000000
-21.825100 0.000000
-21.806100 0.000000
-21.787100 0.000000
-21.768000 0.000000
-21.749000 0.000000
-21.730000 0.000000
-21.711000 0.000000
-21.691900 0.000000
-21.672900 0.000000
-21.653900 0.000000
-21.634900 0.000000
-21.615900 0.000000
-21.596800 0.000000
-21.577800 0.000000
-21.558800 0.000000
-21.539800 0.000000
-21.520700 0.000000
-21.501700 0.000000
-21.482700 0.000000
-21.463700 0.000000
-21.444700 0.000000
-21.425600 0.000000
-21.406600 0.000000
-21.387600 0.000000
-21.368600 0.000000
-21.349500 0.000000
-21.330500 0.000000
-21.311500 0.000000
-21.292500 0.000000
-21.273500 0.000000
-21.254400 0.000000
-21.235400 0.000000
-21.216400 0.000000
-21.197400 0.000000
-21.178300 0.000000
-21.159300 0.000000
-21.140300 0.000000
-21.121300 0.000000
-21.102300 0.000000
-21.083200 0.000000
-21.064200 0.000000
-21.045200 0.000000
-21.026200 0.000000
-21.007100 0.000000
-20.988100 0.000000
-20.969100 0.000000
-20.950100 0.000000
-20.931100 0.000000
-20.912000 0.000000
-20.893000 0.000000
-20.874000 0.000000
-20.855000 0.000000
-20.835900 0.000000
-20.816900 0.000000
-20.797900 0.000000
-20.778900 0.000000
-20.759900 0.000000
-20.740800 0.000000
-20.721800 0.000000
-20.702800 0.000000
-20.683800 0.000000
-20.664700 0.000000
-20.645700 0.000000
-20.626700 0.000000
-20.607700 0.000000
-20.588700 228.054500
-20.569600 85.397000
-20.550600 74.629700
-20.531600 89.338200
-20.512600 91.016900
-20.493500 61.883300
-20.474500 36.588600
-20.455500 48.964400
-20.436500 413.092700
-20.417500 249.469900
-20.398400 44.983000
-20.379400 164.316200
-20.360400 98.465800
-20.341400 149.694100
-20.322300 533.230800
-20.303300 0.000000
-20.284300 0.000000
-20.265300 0.000000
-20.246300 0.000000
-20.227200 0.000000
-20.208200 0.000000
-20.189200 0.000000
-20.170200 0.000000
-20.151100 0.000000
-20.132100 0.000000
-20.113100 0.000000
-20.094100 0.000000
-20.075100 0.000000
-20.056000 0.000000
-20.037000 0.000000
-20.018000 0.000000
-19.999000 0.000000
-19.979900 0.000000
-19.960900 0.000000
-19.941900 0.000000
-19.922900 0.000000
-19.903900 0.000000
-19.884800 0.000000
-19.865800 0.000000
-19.846800 0.000000
-19.827800 0.000000
-19.808700 0.000000
-19.789700 0.000000
-19.770700 0.000000
-19.751700 0.000000
-19.732700 0.000000
-19.713600 0.000000
-19.694600 0.000000
-19.675600 0.000000
-19.656600 0.000000
-19.637500 0.000000
-19.618500 0.000000
-19.599500 0.000000
-19.580500 0.000000
-19.561500 0.000000
-19.542400 0.000000
-19.523400 0.000000
-19.504400 0.000000
-19.485400 0.000000
-19.466300 0.000000
-19.447300 0.000000
-19.428300 0.000000
-19.409300 0.000000
-19.390300 0.000000
-19.371200 0.000000
-19.352200 0.000000
-19.333200 0.000000
-19.314200 0.000000
-19.295100 0.000000
-19.276100 0.000000
-19.257100 0.000000
-19.238100 0.000000
-19.219100 0.000000
-19.200000 0.000000
-19.181000 0.000000
-19.162000 0.000000
-19.143000 0.000000
-19.123900 0.000000
-19.104900 0.000000
-19.085900 0.000000
-19.066900 0.000000
-19.047900 0.000000
-19.028800 0.000000
-19.009800 0.000000
-18.990800 0.000000
-18.971800 0.000000
-18.952700 0.000000
-18.933700 0.000000
-18.914700 0.000000
-18.895700 3.672100
-18.876700 25.239000
-18.857600 50.829200
-18.838600 106.424600
-18.819600 37.372200
-18.800600 45.996600
-18.781500 46.853700
-18.762500 33.530700
-18.743500 30.813800
-18.724500 31.805000
-18.705500 33.909900
-18.686400 46.424900
-18.667400 64.928500
-18.648400 44.435000
-18.629400 0.000000
-18.610300 0.000000
-18.591300 0.000000
-18.572300 0.000000
-18.553300 0.000000
-18.534300 0.000000
-18.515200 0.000000
-18.496200 0.000000
-18.477200 0.000000
-18.458200 0.000000
-18.439100 0.000000
-18.420100 0.000000
-18.401100 0.000000
-18.382100 0.000000
-18.363100 0.000000
-18.344000 0.000000
-18.325000 0.000000
-18.306000 0.000000
-18.287000 0.000000
-18.267900 0.000000
-18.248900 0.000000
-18.229900 0.000000
-18.210900 0.000000
-18.191900 0.000000
-18.172800 0.000000
-18.153800 0.000000
-18.134800 0.000000
-18.115800 0.000000
-18.096700 0.000000
-18.077700 0.000000
-18.058700 0.000000
-18.039700 0.000000
-18.020700 0.000000
-18.001600 0.000000
-17.982600 0.000000
-17.963600 0.000000
-17.944600 0.000000
-17.925500 0.000000
-17.906500 0.000000
-17.887500 0.000000
-17.868500 0.000000
-17.849500 0.000000
-17.830400 0.000000
-17.811400 0.000000
-17.792400 0.000000
-17.773400 0.000000
-17.754300 0.000000
-17.735300 0.000000
-17.716300 0.000000
-17.697300 0.000000
-17.678300 0.000000
-17.659200 0.000000
-17.640200 0.000000
-17.621200 0.000000
-17.602200 0.000000
-17.583100 0.000000
-17.564100 0.000000
-17.545100 0.000000
-17.526100 0.000000
-17.507100 0.000000
-17.488000 0.000000
-17.469000 0.000000
-17.450000 0.000000
-17.431000 0.000000
-17.411900 0.000000
-17.392900 0.000000
-17.373900 0.000000
-17.354900 0.000000
-17.335900 0.000000
-17.316800 0.000000
-17.297800 0.000000
-17.278800 0.000000
-17.259800 0.000000
-17.240700 0.000000
-17.221700 0.000000
-17.202700 0.000000
-17.183700 0.000000
-17.164700 0.000000
-17.145600 0.000000
-17.126600 0.000000
-17.107600 0.000000
-17.088600 0.000000
-17.069500 0.000000
-17.050500 0.000000
-17.031500 0.000000
-17.012500 0.000000
-16.993500 0.000000
-16.974400 0.000000
-16.955400 0.000000
-16.936400 0.000000
-16.917400 0.000000
-16.898300 0.000000
-16.879300 0.000000
-16.860300 0.000000
-16.841300 0.000000
-16.822300 0.000000
-16.803200 0.000000
-16.784200 0.000000
-16.765200 0.000000
-16.746200 0.000000
-16.727100 0.000000
-16.708100 0.000000
-16.689100 0.000000
-16.670100 0.000000
-16.651100 0.000000
-16.632000 0.000000
-16.613000 0.000000
-16.594000 0.000000
-16.575000 0.000000
-16.555900 0.000000
-16.536900 0.000000
-16.517900 0.000000
-16.498900 0.000000
-16.479900 0.000000
-16.460800 0.000000
-16.441800 0.000000
-16.422800 0.000000
-16.403800 0.000000
-16.384700 0.000000
-16.365700 0.000000
-16.346700 0.000000
-16.327700 0.000000
-16.308700 0.000000
-16.289600 0.000000
-16.270600 0.000000
-16.251600 0.000000
-16.232600 0.000000
-16.213500 0.000000
-16.194500 0.000000
-16.175500 0.000000
-16.156500 0.000000
-16.137500 0.000000
-16.118400 0.000000
-16.099400 0.000000
-16.080400 0.000000
-16.061400 0.000000
-16.042300 0.000000
-16.023300 0.000000
-16.004300 0.000000
-15.985300 0.000000
-15.966300 0.000000
-15.947200 0.000000
-15.928200 0.000000
-15.909200 0.000000
-15.890200 0.000000
-15.871100 0.000000
-15.852100 0.000000
-15.833100 0.000000
-15.814100 0.000000
-15.795100 0.000000
-15.776000 0.000000
-15.757000 0.000000
-15.738000 0.000000
-15.719000 0.000000
-15.699900 0.000000
-15.680900 0.000000
-15.661900 0.000000
-15.642900 0.000000
-15.623900 0.000000
-15.604800 0.000000
-15.585800 0.000000
-15.566800 0.000000
-15.547800 0.000000
-15.528700 0.000000
-15.509700 0.000000
-15.490700 0.000000
-15.471700 0.000000
-15.452700 0.000000
-15.433600 0.000000
-15.414600 0.000000
-15.395600 0.000000
-15.376600 0.000000
-15.357500 0.000000
-15.338500 0.000000
-15.319500 0.000000
-15.300500 0.000000
-15.281500 0.000000
-15.262400 0.000000
-15.243400 0.000000
-15.224400 0.000000
-15.205400 0.000000
-15.186300 0.000000
-15.167300 0.000000
-15.148300 0.000000
-15.129300 0.000000
-15.110300 0.000000
-15.091200 0.000000
-15.072200 0.000000
-15.053200 0.000000
-15.034200 0.000000
-15.015100 0.000000
-14.996100 0.000000
-14.977100 0.000000
-14.958100 0.000000
-14.939100 0.000000
-14.920000 0.000000
-14.901000 0.000000
-14.882000 0.000000
-14.863000 0.000000
-14.843900 0.000000
-14.824900 0.000000
-14.805900 0.000000
-14.786900 0.000000
-14.767900 0.000000
-14.748800 0.000000
-14.729800 0.000000
-14.710800 0.000000
-14.691800 0.000000
-14.672700 0.000000
-14.653700 0.000000
-14.634700 0.000000
-14.615700 0.000000
-14.596700 0.000000
-14.577600 0.000000
-14.558600 0.000000
-14.539600 0.000000
-14.520600 0.000000
-14.501500 0.000000
-14.482500 0.000000
-14.463500 0.000000
-14.444500 0.000000
-14.425500 0.000000
-14.406400 0.000000
-14.387400 0.000000
-14.368400 0.000000
-14.349400 0.000000
-14.330300 0.000000
-14.311300 0.000000
-14.292300 0.000000
-14.273300 0.000000
-14.254300 0.000000
-14.235200 0.000000
-14.216200 0.000000
-14.197200 0.000000
-14.178200 0.000000
-14.159100 0.000000
-14.140100 0.000000
-14.121100 0.000000
-14.102100 0.000000
-14.083100 0.000000
-14.064000 0.000000
-14.045000 0.000000
-14.026000 0.000000
-14.007000 0.000000
-13.987900 0.000000
-13.968900 0.000000
-13.949900 0.000000
-13.930900 0.000000
-13.911900 0.000000
-13.892800 0.000000
-13.873800 0.000000
-13.854800 0.000000
-13.835800 0.000000
-13.816700 0.000000
-13.797700 0.000000
-13.778700 0.000000
-13.759700 0.000000
-13.740700 0.000000
-13.721600 0.000000
-13.702600 0.000000
-13.683600 0.000000
-13.664600 0.000000
-13.645500 0.000000
-13.626500 0.000000
-13.607500 0.000000
-13.588500 0.000000
-13.569500 0.000000
-13.550400 0.000000
-13.531400 0.000000
-13.512400 0.000000
-13.493400 0.000000
-13.474300 0.000000
-13.455300 0.000000
-13.436300 0.000000
-13.417300 0.000000
-13.398300 0.000000
-13.379200 0.000000
-13.360200 0.000000
-13.341200 0.000000
-13.322200 0.000000
-13.303100 0.000000
-13.284100 0.000000
-13.265100 0.000000
-13.246100 0.000000
-13.227100 0.000000
-13.208000 0.000000
-13.189000 0.000000
-13.170000 0.000000
-13.151000 0.000000
-13.131900 0.000000
-13.112900 0.000000
-13.093900 0.000000
-13.074900 0.000000
-13.055900 0.000000
-13.036800 0.000000
-13.017800 0.000000
-12.998800 0.000000
-12.979800 0.000000
-12.960700 0.000000
-12.941700 0.000000
-12.922700 0.000000
-12.903700 0.000000
-12.884700 0.000000
-12.865600 0.000000
-12.846600 0.000000
-12.827600 0.000000
-12.808600 0.000000
-12.789500 0.000000
-12.770500 0.000000
-12.751500 0.000000
-12.732500 0.000000
-12.713500 0.000000
-12.694400 0.000000
-12.675400 0.000000
-12.656400 0.000000
-12.637400 0.000000
-12.618300 0.000000
-12.599300 0.000000
-12.580300 0.000000
-12.561300 0.000000
-12.542300 0.000000
-12.523200 0.000000
-12.504200 0.000000
-12.485200 0.000000
-12.466200 0.000000
-12.447100 0.000000
-12.428100 0.000000
-12.409100 0.000000
-12.390100 0.000000
-12.371100 0.000000
-12.352000 0.000000
-12.333000 0.000000
-12.314000 0.000000
-12.295000 0.000000
-12.275900 0.000000
-12.256900 0.000000
-12.237900 0.000000
-12.218900 0.000000
-12.199900 0.000000
-12.180800 0.000000
-12.161800 0.000000
-12.142800 0.000000
-12.123800 0.000000
-12.104700 0.000000
-12.085700 0.000000
-12.066700 0.000000
-12.047700 0.000000
-12.028700 0.000000
-12.009600 0.000000
-11.990600 0.000000
-11.971600 0.000000
-11.952600 0.000000
-11.933500 0.000000
-11.914500 0.000000
-11.895500 0.000000
-11.876500 0.000000
-11.857500 0.000000
-11.838400 0.000000
-11.819400 0.000000
-11.800400 0.000000
-11.781400 0.000000
-11.762300 0.000000
-11.743300 0.000000
-11.724300 0.000000
-11.705300 0.000000
-11.686300 0.000000
-11.667200 0.000000
-11.648200 0.000000
-11.629200 0.000000
-11.610200 0.000000
-11.591100 0.000000
-11.572100 0.000000
-11.553100 0.000000
-11.534100 0.000000
-11.515100 0.000000
-11.496000 0.000000
-11.477000 0.000000
-11.458000 0.000000
-11.439000 0.000000
-11.419900 0.000000
-11.400900 0.000000
-11.381900 0.000000
-11.362900 0.000000
-11.343900 0.000000
-11.324800 0.000000
-11.305800 0.000000
-11.286800 0.000000
-11.267800 0.000000
-11.248700 0.000000
-11.229700 0.000000
-11.210700 0.000000
-11.191700 0.000000
-11.172700 0.000000
-11.153600 0.000000
-11.134600 0.000000
-11.115600 0.000000
-11.096600 0.000000
-11.077500 0.000000
-11.058500 0.000000
-11.039500 0.000000
-11.020500 0.000000
-11.001500 0.000000
-10.982400 0.000000
-10.963400 0.000000
-10.944400 0.000000
-10.925400 0.000000
-10.906300 0.000000
-10.887300 0.000000
-10.868300 0.000000
-10.849300 0.000000
-10.830300 0.000000
-10.811200 0.000000
-10.792200 0.000000
-10.773200 0.000000
-10.754200 0.000000
-10.735100 0.000000
-10.716100 0.000000
-10.697100 0.000000
-10.678100 0.000000
-10.659100 0.000000
-10.640000 0.000000
-10.621000 0.000000
-10.602000 0.000000
-10.583000 0.000000
-10.563900 0.000000
-10.544900 0.000000
-10.525900 0.000000
-10.506900 0.000000
-10.487900 0.000000
-10.468800 0.000000
-10.449800 0.000000
-10.430800 0.000000
-10.411800 0.000000
-10.392700 0.000000
-10.373700 0.000000
-10.354700 0.000000
-10.335700 0.000000
-10.316700 0.000000
-10.297600 0.000000
-10.278600 0.000000
-10.259600 0.000000
-10.240600 0.000000
-10.221500 0.000000
-10.202500 0.000000
-10.183500 0.000000
-10.164500 0.000000
-10.145500 0.000000
-10.126400 0.000000
-10.107400 0.000000
-10.088400 0.000000
-10.069400 0.000000
-10.050300 0.000000
-10.031300 0.000000
-10.012300 0.000000
-9.993300 0.000000
-9.974300 0.000000
-9.955200 0.000000
-9.936200 0.000000
-9.917200 0.000000
-9.898200 0.000000
-9.879100 0.000000
-9.860100 0.000000
-9.841100 0.000000
-9.822100 0.000000
-9.803100 0.000000
-9.784000 0.000000
-9.765000 0.000000
-9.746000 0.000000
-9.727000 0.000000
-9.707900 0.000000
-9.688900 0.000000
-9.669900 0.000000
-9.650900 0.000000
-9.631900 0.000000
-9.612800 0.000000
-9.593800 0.000000
-9.574800 0.000000
-9.555800 0.000000
-9.536700 0.000000
-9.517700 0.000000
-9.498700 0.000000
-9.479700 0.000000
-9.460700 0.000000
-9.441600 0.000000
-9.422600 0.000000
-9.403600 0.000000
-9.384600 0.000000
-9.365500 0.000000
-9.346500 0.000000
-9.327500 0.000000
-9.308500 0.000000
-9.289500 0.000000
-9.270400 0.000000
-9.251400 0.000000
-9.232400 0.000000
-9.213400 0.000000
-9.194300 0.000000
-9.175300 0.000000
-9.156300 0.000000
-9.137300 0.000000
-9.118300 0.000000
-9.099200 0.000000
-9.080200 0.000000
-9.061200 0.000000
-9.042200 0.000000
-9.023100 0.000000
-9.004100 0.000000
-8.985100 0.000000
-8.966100 0.000000
-8.947100 0.000000
-8.928000 0.000000
-8.909000 0.000000
-8.890000 0.000000
-8.871000 0.000000
-8.851900 0.000000
-8.832900 0.000000
-8.813900 0.000000
-8.794900 0.000000
-8.775900 0.000000
-8.756800 0.000000
-8.737800 0.000000
-8.718800 0.000000
-8.699800 0.000000
-8.680700 0.000000
-8.661700 0.000000
-8.642700 0.000000
-8.623700 0.000000
-8.604700 0.000000
-8.585600 0.000000
-8.566600 0.000000
-8.547600 0.000000
-8.528600 0.000000
-8.509500 0.000000
-8.490500 0.000000
-8.471500 0.000000
-8.452500 0.000000
-8.433500 0.000000
-8.414400 0.000000
-8.395400 0.000000
-8.376400 0.000000
-8.357400 0.000000
-8.338300 0.000000
-8.319300 0.000000
-8.300300 0.000000
-8.281300 0.000000
-8.262300 0.000000
-8.243200 0.000000
-8.224200 0.000000
-8.205200 0.000000
-8.186200 0.000000
-8.167100 0.000000
-8.148100 0.000000
-8.129100 0.000000
-8.110100 0.000000
-8.091100 0.000000
-8.072000 0.000000
-8.053000 0.000000
-8.034000 0.000000
-8.015000 0.000000
-7.995900 0.000000
-7.976900 0.000000
-7.957900 0.000000
-7.938900 0.000000
-7.919900 0.000000
-7.900800 0.000000
-7.881800 0.000000
-7.862800 0.000000
-7.843800 0.000000
-7.824700 0.000000
-7.805700 0.000000
-7.786700 0.000000
-7.767700 0.000000
-7.748700 0.000000
-7.729600 0.000000
-7.710600 0.000000
-7.691600 0.000000
-7.672600 0.000000
-7.653500 0.001700
-7.634500 0.052400
-7.615500 0.167500
-7.596500 0.217400
-7.577500 0.235900
-7.558400 0.272300
-7.539400 0.311800
-7.520400 0.351900
-7.501400 0.383000
-7.482300 0.405900
-7.463300 0.426400
-7.444300 0.451700
-7.425300 0.475800
-7.406300 0.497000
-7.387200 0.521700
-7.368200 0.547800
-7.349200 0.575400
-7.330200 0.597900
-7.311100 0.620300
-7.292100 0.643100
-7.273100 0.666000
-7.254100 0.696500
-7.235100 0.730800
-7.216000 0.761900
-7.197000 0.789400
-7.178000 0.824300
-7.159000 0.816300
-7.139900 0.835300
-7.120900 0.850600
-7.101900 0.863400
-7.082900 0.874800
-7.063900 0.889200
-7.044800 0.917900
-7.025800 0.940600
-7.006800 0.969600
-6.987800 1.036300
-6.968700 1.062400
-6.949700 1.087000
-6.930700 1.114200
-6.911700 1.139100
-6.892700 1.173200
-6.873600 1.185700
-6.854600 1.229100
-6.835600 1.265400
-6.816600 1.298600
-6.797500 1.330300
-6.778500 1.370000
-6.759500 1.403500
-6.740500 1.438600
-6.721500 1.478100
-6.702400 1.518800
-6.683400 1.568200
-6.664400 1.629800
-6.645400 1.694600
-6.626300 1.761800
-6.607300 1.831300
-6.588300 1.902800
-6.569300 1.976400
-6.550300 2.054200
-6.531200 2.145600
-6.512200 2.325400
-6.493200 2.556600
-6.474200 2.851900
-6.455100 3.493700
-6.436100 3.398600
-6.417100 2.640200
-6.398100 2.533300
-6.379100 2.405000
-6.360000 2.191400
-6.341000 2.138400
-6.322000 2.115700
-6.303000 2.083800
-6.283900 2.044000
-6.264900 1.993300
-6.245900 1.909600
-6.226900 1.904100
-6.207900 1.900900
-6.188800 1.897200
-6.169800 1.893600
-6.150800 1.889900
-6.131800 1.881600
-6.112700 1.866800
-6.093700 1.846300
-6.074700 1.855000
-6.055700 1.869900
-6.036700 1.896800
-6.017600 1.962100
-5.998600 1.991700
-5.979600 1.962700
-5.960600 1.907700
-5.941500 1.876900
-5.922500 1.854100
-5.903500 1.851900
-5.884500 1.849100
-5.865500 1.807200
-5.846400 1.789700
-5.827400 1.775300
-5.808400 1.759500
-5.789400 1.744100
-5.770300 1.732700
-5.751300 1.725300
-5.732300 1.699900
-5.713300 1.664400
-5.694300 1.631900
-5.675200 1.618100
-5.656200 1.612000
-5.637200 1.601600
-5.618200 1.596900
-5.599100 1.602200
-5.580100 1.597100
-5.561100 1.476000
-5.542100 1.431400
-5.523100 1.410100
-5.504000 1.394200
-5.485000 1.380800
-5.466000 1.368000
-5.447000 1.356500
-5.427900 1.494900
-5.408900 1.548800
-5.389900 1.611600
-5.370900 1.677600
-5.351900 1.740000
-5.332800 1.806100
-5.313800 1.866000
-5.294800 1.877300
-5.275800 1.915100
-5.256700 1.945400
-5.237700 1.970700
-5.218700 1.981500
-5.199700 1.997600
-5.180700 2.013200
-5.161600 2.039600
-5.142600 2.110800
-5.123600 2.069200
-5.104600 2.160700
-5.085500 2.493500
-5.066500 1.855500
-5.047500 1.140300
-5.028500 0.935300
-5.009500 0.788700
-4.990400 0.675600
-4.971400 0.588400
-4.952400 0.495500
-4.933400 0.360600
-4.914300 0.221700
-4.895300 0.117600
-4.876300 0.038300
-4.857300 0.017700
-4.838300 0.016600
-4.819200 0.040500
-4.800200 0.060200
-4.781200 0.080100
-4.762200 0.101800
-4.743100 0.126400
-4.724100 0.173100
-4.705100 0.264800
-4.686100 0.416100
-4.667100 0.997200
-4.648000 1.134700
-4.629000 1.213000
-4.610000 1.333200
-4.591000 1.451900
-4.571900 1.598900
-4.552900 1.734500
-4.533900 1.783700
-4.514900 1.781200
-4.495900 1.826300
-4.476800 1.890900
-4.457800 2.016100
-4.438800 2.221400
-4.419800 2.560300
-4.400700 2.847300
-4.381700 2.631300
-4.362700 2.329800
-4.343700 2.166600
-4.324600 2.051900
-4.305600 1.974800
-4.286600 1.920900
-4.267600 1.871800
-4.248600 1.827900
-4.229500 1.778700
-4.210500 1.742500
-4.191500 1.715000
-4.172500 1.690200
-4.153400 1.665200
-4.134400 1.639900
-4.115400 1.614400
-4.096400 1.588500
-4.077400 1.562100
-4.058300 1.534600
-4.039300 1.514400
-4.020300 1.487400
-4.001300 1.458700
-3.982200 1.430200
-3.963200 1.402800
-3.944200 1.376400
-3.925200 1.351600
-3.906200 1.329400
-3.887100 1.308800
-3.868100 1.289200
-3.849100 1.272900
-3.830100 1.300500
-3.811000 1.236500
-3.792000 1.203700
-3.773000 1.168100
-3.754000 1.131200
-3.735000 1.093200
-3.715900 1.047900
-3.696900 1.001400
-3.677900 0.957900
-3.658900 0.916100
-3.639800 0.876000
-3.620800 0.837900
-3.601800 0.803400
-3.582800 0.769000
-3.563800 0.735000
-3.544700 0.714100
-3.525700 0.679200
-3.506700 0.671900
-3.487700 0.665500
-3.468600 0.660700
-3.449600 0.656500
-3.430600 0.651000
-3.411600 0.644300
-3.392600 0.637700
-3.373500 0.639500
-3.354500 0.646500
-3.335500 0.653000
-3.316500 0.660600
-3.297400 0.668500
-3.278400 0.680100
-3.259400 0.703800
-3.240400 0.705900
-3.221400 0.692600
-3.202300 0.683100
-3.183300 0.685700
-3.164300 0.839900
-3.145300 0.733000
-3.126200 0.753500
-3.107200 0.722700
-3.088200 0.637600
-3.069200 0.571100
-3.050200 0.523300
-3.031100 0.480900
-3.012100 0.446200
-2.993100 0.421100
-2.974100 0.413400
-2.955000 0.416400
-2.936000 0.425600
-2.917000 0.438800
-2.898000 0.451700
-2.879000 0.467100
-2.859900 0.485500
-2.840900 0.503300
-2.821900 0.520400
-2.802900 0.536900
-2.783800 0.551000
-2.764800 0.567900
-2.745800 0.595300
-2.726800 0.634300
-2.707800 0.683200
-2.688700 0.728500
-2.669700 0.767100
-2.650700 0.809000
-2.631700 0.864100
-2.612600 0.949800
-2.593600 1.001900
-2.574600 1.089600
-2.555600 1.174600
-2.536600 1.255200
-2.517500 1.329000
-2.498500 1.378200
-2.479500 1.413300
-2.460500 1.455600
-2.441400 1.493600
-2.422400 1.555100
-2.403400 1.617900
-2.384400 1.681100
-2.365400 1.753700
-2.346300 1.885500
-2.327300 2.035900
-2.308300 2.185000
-2.289300 2.339500
-2.270200 2.598500
-2.251200 3.141100
-2.232200 3.580100
-2.213200 5.437800
-2.194200 3.640200
-2.175100 1.926200
-2.156100 1.714300
-2.137100 1.566300
-2.118100 1.420600
-2.099000 1.249400
-2.080000 1.149700
-2.061000 1.069800
-2.042000 1.003800
-2.023000 0.957300
-2.003900 0.926000
-1.984900 0.897100
-1.965900 0.869800
-1.946900 0.843900
-1.927800 0.818000
-1.908800 0.793000
-1.889800 0.769400
-1.870800 0.745500
-1.851800 0.720900
-1.832700 0.695500
-1.813700 0.668700
-1.794700 0.641400
-1.775700 0.619200
-1.756600 0.596900
-1.737600 0.576400
-1.718600 0.556400
-1.699600 0.538600
-1.680600 0.525500
-1.661500 0.513300
-1.642500 0.501300
-1.623500 0.489700
-1.604500 0.478200
-1.585400 0.467000
-1.566400 0.456200
-1.547400 0.445900
-1.528400 0.436000
-1.509400 0.426400
-1.490300 0.417000
-1.471300 0.407400
-1.452300 0.397300
-1.433300 0.388000
-1.414200 0.378800
-1.395200 0.369400
-1.376200 0.360400
-1.357200 0.351600
-1.338200 0.341700
-1.319100 0.330900
-1.300100 0.319700
-1.281100 0.308900
-1.262100 0.298300
-1.243000 0.290800
-1.224000 0.283400
-1.205000 0.276300
-1.186000 0.269700
-1.167000 0.263400
-1.147900 0.257200
-1.128900 0.251100
-1.109900 0.245100
-1.090900 0.239100
-1.071800 0.233200
-1.052800 0.227500
-1.033800 0.221700
-1.014800 0.216000
-0.995800 0.210500
-0.976700 0.205100
-0.957700 0.199900
-0.938700 0.195000
-0.919700 0.190200
-0.900600 0.185700
-0.881600 0.181700
-0.862600 0.205300
-0.843600 0.265100
-0.824600 0.342600
-0.805500 0.396100
-0.786500 0.445800
-0.767500 0.500400
-0.748500 0.555900
-0.729400 0.600900
-0.710400 0.641400
-0.691400 0.680200
-0.672400 0.719600
-0.653400 0.752600
-0.634300 0.777700
-0.615300 0.807500
-0.596300 0.840900
-0.577300 0.878400
-0.558200 0.920100
-0.539200 0.968100
-0.520200 1.027200
-0.501200 1.081300
-0.482200 1.135300
-0.463100 1.187400
-0.444100 1.236500
-0.425100 1.288800
-0.406100 1.385400
-0.387000 1.407400
-0.368000 1.422300
-0.349000 1.421400
-0.330000 1.447500
-0.311000 1.479700
-0.291900 1.506800
-0.272900 1.559100
-0.253900 1.626200
-0.234900 1.739400
-0.215800 1.945700
-0.196800 2.237800
-0.177800 2.750500
-0.158800 3.678300
-0.139800 4.830700
-0.120700 8.760100
-0.101700 8.957700
-0.082700 6.289100
-0.063700 3.931500
-0.044600 3.146900
-0.025600 2.754600
-0.006600 2.589000
0.012400 2.456500
0.031400 2.442600
0.050500 2.415200
0.069500 2.391400
0.088500 2.728300
0.107500 2.933000
0.126600 2.988200
0.145600 2.907900
0.164600 2.805700
0.183600 2.716100
0.202600 2.670200
0.221700 2.684700
0.240700 2.580800
0.259700 2.432500
0.278700 2.397900
0.297800 2.363000
0.316800 2.336000
0.335800 2.375000
0.354800 2.388200
0.373800 2.309000
0.392900 2.233900
0.411900 2.207500
0.430900 2.208000
0.449900 2.226900
0.469000 2.258100
0.488000 2.250800
0.507000 2.328000
0.526000 2.551300
0.545000 2.530000
0.564100 2.461600
0.583100 3.328900
0.602100 3.944700
0.621100 3.637600
0.640200 3.474700
0.659200 3.349700
0.678200 3.320700
0.697200 3.274100
0.716200 3.335500
0.735300 3.432000
0.754300 3.471300
0.773300 3.360500
0.792300 3.400000
0.811400 3.486900
0.830400 3.771100
0.849400 3.220000
0.868400 3.040600
0.887400 2.854500
0.906500 2.729700
0.925500 2.686900
0.944500 2.545900
0.963500 2.408300
0.982600 2.324900
1.001600 2.288500
1.020600 2.349500
1.039600 2.366900
1.058600 2.173400
1.077700 2.145200
1.096700 2.092600
1.115700 2.064500
1.134700 2.019100
1.153800 1.988000
1.172800 1.963900
1.191800 1.940200
1.210800 1.917500
1.229800 1.943000
1.248900 1.925200
1.267900 1.906300
1.286900 1.871000
1.305900 1.835200
1.325000 1.826400
1.344000 1.831900
1.363000 1.839200
1.382000 1.894800
1.401000 1.961600
1.420100 2.058600
1.439100 2.184800
1.458100 2.266400
1.477100 2.376800
1.496200 2.520500
1.515200 2.693700
1.534200 2.962700
1.553200 3.352300
1.572200 3.305700
1.591300 3.417800
1.610300 3.533200
1.629300 3.800100
1.648300 3.818100
1.667400 3.885100
1.686400 3.875000
1.705400 4.317100
1.724400 3.972400
1.743400 3.961500
1.762500 3.983500
1.781500 3.986000
1.800500 4.059200
1.819500 4.121200
1.838600 4.124300
1.857600 4.110800
1.876600 4.113000
1.895600 4.051400
1.914600 4.211600
1.933700 4.206300
1.952700 4.226100
1.971700 4.159000
1.990700 4.521100
2.009800 4.857900
2.028800 4.988100
2.047800 5.047900
2.066800 4.950500
2.085800 5.245800
2.104900 4.983300
2.123900 4.957000
2.142900 4.704000
2.161900 4.303500
2.181000 3.994000
2.200000 3.830500
2.219000 3.827600
2.238000 3.862100
2.257000 3.772100
2.276100 3.762600
2.295100 3.781200
2.314100 3.820500
2.333100 3.820000
2.352200 3.556100
2.371200 3.504800
2.390200 3.500500
2.409200 3.509200
2.428200 3.492600
2.447300 3.456500
2.466300 3.443000
2.485300 3.346600
2.504300 3.363500
2.523400 3.549500
2.542400 3.671900
2.561400 4.030700
2.580400 3.821400
2.599400 4.014300
2.618500 4.193800
2.637500 4.818200
2.656500 4.087600
2.675500 4.008900
2.694600 4.003600
2.713600 4.025500
2.732600 4.083300
2.751600 4.150000
2.770600 4.224300
2.789700 4.262400
2.808700 4.289600
2.827700 4.470300
2.846700 4.124700
2.865800 3.911600
2.884800 3.730700
2.903800 3.660300
2.922800 3.596100
2.941800 3.838100
2.960900 3.958200
2.979900 3.979400
2.998900 4.038700
3.017900 3.566900
3.037000 3.216500
3.056000 3.003000
3.075000 2.820400
3.094000 2.677900
3.113000 2.601500
3.132100 2.527300
3.151100 2.440000
3.170100 2.353100
3.189100 2.282300
3.208200 2.233000
3.227200 2.127200
3.246200 2.091700
3.265200 2.033900
3.284200 1.994200
3.303300 1.979400
3.322300 1.977600
3.341300 1.982500
3.360300 2.066700
3.379400 2.092500
3.398400 2.181600
3.417400 2.196700
3.436400 2.208700
3.455400 2.321900
3.474500 2.397500
3.493500 2.401600
3.512500 2.463900
3.531500 2.503900
3.550600 2.539200
3.569600 2.579900
3.588600 2.668800
3.607600 2.735400
3.626600 2.896400
3.645700 2.993200
3.664700 3.047800
3.683700 3.034900
3.702700 2.933600
3.721800 2.888600
3.740800 2.930400
3.759800 2.964000
3.778800 2.908500
3.797800 2.878400
3.816900 2.875300
3.835900 2.799700
3.854900 2.721300
3.873900 2.658900
3.893000 2.585500
3.912000 2.520300
3.931000 2.460200
3.950000 2.427900
3.969000 2.423100
3.988100 2.441600
4.007100 2.384300
4.026100 2.335800
4.045100 2.313100
4.064200 2.265100
4.083200 2.205800
4.102200 2.166400
4.121200 2.178700
4.140200 2.068900
4.159300 1.935300
4.178300 1.840000
4.197300 1.745800
4.216300 1.644300
4.235400 1.576700
4.254400 1.531300
4.273400 1.517100
4.292400 1.514300
4.311400 1.537200
4.330500 1.572200
4.349500 1.609700
4.368500 1.604000
4.387500 1.624100
4.406600 1.580300
4.425600 1.542500
4.444600 1.518100
4.463600 1.545200
4.482600 1.634100
4.501700 1.720500
4.520700 1.831200
4.539700 2.034300
4.558700 2.441400
4.577800 2.592800
4.596800 2.768500
4.615800 2.886600
4.634800 2.774100
4.653800 2.711300
4.672900 2.650100
4.691900 2.596700
4.710900 2.452600
4.729900 2.381000
4.749000 2.425500
4.768000 2.444800
4.787000 2.558600
4.806000 2.565800
4.825000 2.625900
4.844100 2.797900
4.863100 2.857700
4.882100 2.970000
4.901100 2.937700
4.920200 2.964400
4.939200 3.072400
4.958200 3.087000
4.977200 3.173800
4.996200 2.858800
5.015300 2.728100
5.034300 2.638700
5.053300 2.653400
5.072300 2.810500
5.091400 3.029600
5.110400 3.278100
5.129400 3.606500
5.148400 3.920900
5.167400 4.144800
5.186500 4.222100
5.205500 4.229200
5.224500 4.055900
5.243500 3.612500
5.262600 3.369500
5.281600 3.273500
5.300600 3.194000
5.319600 3.161400
5.338600 3.199600
5.357700 3.261800
5.376700 3.252700
5.395700 3.216800
5.414700 3.083000
5.433800 2.939400
5.452800 2.939500
5.471800 2.948700
5.490800 2.967900
5.509800 3.024800
5.528900 3.311100
5.547900 3.549900
5.566900 3.933900
5.585900 4.204500
5.605000 4.388100
5.624000 4.464400
5.643000 4.294400
5.662000 4.249800
5.681000 4.233000
5.700100 4.201700
5.719100 4.281900
5.738100 4.270900
5.757100 4.239300
5.776200 4.281300
5.795200 4.245200
5.814200 4.223800
5.833200 4.346200
5.852200 4.490500
5.871300 4.525400
5.890300 4.437800
5.909300 4.621400
5.928300 4.768500
5.947400 4.436000
5.966400 4.222100
5.985400 4.081300
6.004400 4.480900
6.023400 4.671300
6.042500 4.667000
6.061500 4.451900
6.080500 4.354100
6.099500 4.475200
6.118600 4.697700
6.137600 5.024500
6.156600 5.241700
6.175600 5.187700
6.194600 5.236000
6.213700 5.511200
6.232700 6.033900
6.251700 6.654000
6.270700 6.781000
6.289800 6.587800
6.308800 6.181600
6.327800 5.742400
6.346800 5.616400
6.365800 5.613000
6.384900 5.728100
6.403900 5.959000
6.422900 6.272900
6.441900 6.718300
6.461000 7.279700
6.480000 7.687700
6.499000 7.562100
6.518000 7.663600
6.537000 7.993500
6.556100 8.429700
6.575100 8.389400
6.594100 7.877600
6.613100 7.212500
6.632200 6.596500
6.651200 6.218800
6.670200 6.047500
6.689200 6.013600
6.708200 5.778400
6.727300 5.582400
6.746300 5.478500
6.765300 5.507900
6.784300 5.467000
6.803400 5.422000
6.822400 5.824600
6.841400 5.639400
6.860400 5.483600
6.879400 5.355100
6.898500 5.178500
6.917500 4.841400
6.936500 4.534900
6.955500 4.281900
6.974600 4.578000
6.993600 5.035800
7.012600 5.325000
7.031600 5.498400
7.050600 6.189400
7.069700 5.931700
7.088700 5.602900
7.107700 5.282700
7.126700 5.131500
7.145800 5.163900
7.164800 5.169300
7.183800 5.181300
7.202800 5.338000
7.221800 5.783100
7.240900 5.764900
7.259900 5.838200
7.278900 5.867200
7.297900 5.775200
7.317000 5.503800
7.336000 5.403800
7.355000 5.444800
7.374000 5.270100
7.393000 5.069000
7.412100 4.701600
7.431100 4.569300
7.450100 4.533800
7.469100 4.576900
7.488200 4.623100
7.507200 4.622400
7.526200 4.517700
7.545200 4.504300
7.564200 4.449800
7.583300 4.579200
7.602300 4.737100
7.621300 4.912900
7.640300 5.154300
7.659400 5.573400
7.678400 5.709900
7.697400 5.551400
7.716400 5.345600
7.735400 5.124700
7.754500 4.869200
7.773500 4.767800
7.792500 4.678500
7.811500 4.650100
7.830600 4.518400
7.849600 4.520300
7.868600 4.551300
7.887600 4.613200
7.906600 4.856700
7.925700 5.263300
7.944700 5.563600
7.963700 5.688200
7.982700 5.805300
8.001800 5.919300
8.020800 5.819500
8.039800 5.739900
8.058800 5.697300
8.077800 5.683900
8.096900 5.563800
8.115900 5.611400
8.134900 5.656400
8.153900 5.824400
8.173000 5.694100
8.192000 5.476800
8.211000 5.251700
8.230000 5.109400
8.249000 5.078300
8.268100 5.040200
8.287100 5.060300
8.306100 4.954300
8.325100 4.860800
8.344200 4.740900
8.363200 4.709500
8.382200 4.593400
8.401200 4.536300
8.420200 4.635500
8.439300 4.656600
8.458300 4.731900
8.477300 4.967000
8.496300 6.642200
8.515400 5.145900
8.534400 4.424400
8.553400 4.338300
8.572400 4.480800
8.591400 4.605300
8.610500 4.525800
8.629500 4.544500
8.648500 3.832300
8.667500 3.630100
8.686600 3.719900
8.705600 3.879000
8.724600 4.128600
8.743600 4.450500
8.762600 4.845900
8.781700 5.539400
8.800700 6.035200
8.819700 5.879400
8.838700 5.536000
8.857800 5.031500
8.876800 4.902000
8.895800 4.846100
8.914800 4.709300
8.933800 4.514900
8.952900 4.324700
8.971900 4.306300
8.990900 4.557100
9.009900 4.510000
9.029000 4.583000
9.048000 4.838400
9.067000 5.202500
9.086000 5.168400
9.105000 5.180100
9.124100 5.200500
9.143100 5.188400
9.162100 5.143600
9.181100 4.941200
9.200200 4.762400
9.219200 4.614500
9.238200 4.495000
9.257200 4.450700
9.276200 4.485100
9.295300 4.559800
9.314300 4.636400
9.333300 4.696300
9.352300 4.715400
9.371400 4.650500
9.390400 4.553200
9.409400 4.539800
9.428400 4.708100
9.447400 4.829300
9.466500 4.954300
9.485500 5.041100
9.504500 4.921900
9.523500 4.888400
9.542600 4.763500
9.561600 4.596500
9.580600 4.318200
9.599600 3.931300
9.618600 3.835500
9.637700 3.904700
9.656700 4.156900
9.675700 4.466300
9.694700 4.777800
9.713800 4.925200
9.732800 4.734600
9.751800 4.677900
9.770800 4.510200
9.789800 4.450200
9.808900 4.908500
9.827900 4.542200
9.846900 4.430000
9.865900 4.370700
9.885000 4.475100
9.904000 4.368600
9.923000 4.417800
9.942000 4.521700
9.961000 4.540400
9.980100 4.550400
9.999100 4.542400
10.018100 4.572100
10.037100 4.684200
10.056200 4.794600
10.075200 4.956700
10.094200 4.907400
10.113200 4.876300
10.132200 4.906400
10.151300 5.005300
10.170300 5.044200
10.189300 5.046500
10.208300 5.042900
10.227400 5.074700
10.246400 5.175100
10.265400 5.226100
10.284400 5.196800
10.303400 4.963900
10.322500 4.815200
10.341500 4.690900
10.360500 4.571600
10.379500 4.304900
10.398600 4.136800
10.417600 4.007400
10.436600 3.862400
10.455600 3.845900
10.474600 3.848300
10.493700 3.873700
10.512700 3.948400
10.531700 4.033900
10.550700 4.185700
10.569800 4.417900
10.588800 4.509800
10.607800 4.439400
10.626800 4.420400
10.645800 4.421100
10.664900 4.475400
10.683900 4.576100
10.702900 4.636500
10.721900 4.626400
10.741000 4.538100
10.760000 4.289300
10.779000 4.103800
10.798000 3.882800
10.817000 3.692800
10.836100 3.499800
10.855100 3.313500
10.874100 3.141300
10.893100 3.002300
10.912200 2.858900
10.931200 2.767600
10.950200 2.743600
10.969200 2.693900
10.988200 2.586400
11.007300 2.527100
11.026300 2.557700
11.045300 2.601500
11.064300 2.684900
11.083400 2.598000
11.102400 2.513100
11.121400 2.464200
11.140400 2.496400
11.159400 2.577800
11.178500 2.673600
11.197500 2.597900
11.216500 2.615900
11.235500 2.726000
11.254600 2.879000
11.273600 3.031400
11.292600 3.143700
11.311600 3.252600
11.330600 3.405700
11.349700 3.517600
11.368700 3.557600
11.387700 3.628900
11.406700 3.723700
11.425800 3.782300
11.444800 3.841000
11.463800 3.921800
11.482800 3.880000
11.501800 3.786700
11.520900 3.681200
11.539900 3.600800
11.558900 3.527100
11.577900 3.380900
11.597000 3.267400
11.616000 3.217700
11.635000 3.177800
11.654000 3.184300
11.673000 3.161600
11.692100 3.176500
11.711100 3.217300
11.730100 3.222300
11.749100 3.210400
11.768200 3.289200
11.787200 3.422400
11.806200 3.776400
11.825200 4.289900
11.844200 4.765000
11.863300 5.308100
11.882300 5.218400
11.901300 4.914100
11.920300 4.591100
11.939400 4.515200
11.958400 4.373600
11.977400 4.388500
11.996400 4.453900
12.015400 4.437300
12.034500 4.365800
12.053500 4.377600
12.072500 4.207300
12.091500 4.128400
12.110600 4.023000
12.129600 3.894500
12.148600 3.782400
12.167600 3.750000
12.186600 3.664900
12.205700 3.540700
12.224700 3.471200
12.243700 3.445200
12.262700 3.459500
12.281800 3.506600
12.300800 3.577100
12.319800 3.518400
12.338800 3.376300
12.357800 3.270500
12.376900 3.127600
12.395900 2.959200
12.414900 2.819700
12.433900 2.710100
12.453000 2.583100
12.472000 2.443700
12.491000 2.390900
12.510000 2.429600
12.529000 2.504500
12.548100 2.440200
12.567100 2.307700
12.586100 2.308300
12.605100 2.348200
12.624200 2.468000
12.643200 2.600900
12.662200 2.940600
12.681200 3.462500
12.700200 3.652800
12.719300 3.640200
12.738300 3.695700
12.757300 3.511000
12.776300 3.393200
12.795400 3.262000
12.814400 3.239500
12.833400 3.240200
12.852400 3.174600
12.871400 3.145700
12.890500 3.075800
12.909500 2.957300
12.928500 2.798000
12.947500 2.617000
12.966600 2.483800
12.985600 2.295000
13.004600 2.120700
13.023600 1.953600
13.042600 1.783600
13.061700 1.624300
13.080700 1.495500
13.099700 1.334000
13.118700 1.176400
13.137800 1.082000
13.156800 1.016800
13.175800 0.973000
13.194800 0.943700
13.213800 0.921100
13.232900 0.903100
13.251900 0.885600
13.270900 0.867800
13.289900 0.854000
13.309000 0.847400
13.328000 0.834500
13.347000 0.814100
13.366000 0.799000
13.385000 0.779000
13.404100 0.752600
13.423100 0.722200
13.442100 0.690600
13.461100 0.662700
13.480200 0.637300
13.499200 0.607100
13.518200 0.567700
13.537200 0.521300
13.556200 0.464700
13.575300 0.410300
13.594300 0.357400
13.613300 0.288900
13.632300 0.234700
13.651400 0.189400
13.670400 0.152600
13.689400 0.123100
13.708400 0.098600
13.727400 0.075600
13.746500 0.053700
13.765500 0.034500
13.784500 0.024200
13.803500 0.017700
13.822600 0.012900
13.841600 0.009600
13.860600 0.007100
13.879600 0.004900
13.898600 0.003200
13.917700 0.001800
13.936700 0.000900
13.955700 0.000300
13.974700 0.000100
13.993800 0.000000
14.012800 0.000000
14.031800 0.000000
14.050800 0.000000
14.069800 0.000000
14.088900 0.000000
14.107900 0.000000
14.126900 0.000000
14.145900 0.000000
14.165000 0.000000
14.184000 0.000000
14.203000 0.000000
14.222000 0.000000
14.241000 0.000000
14.260100 0.000000
14.279100 0.000000
14.298100 0.000000
14.317100 0.000000
14.336200 0.000000
14.355200 0.000000
14.374200 0.000000
14.393200 0.000000
14.412200 0.000000
14.431300 0.000000
14.450300 0.000000
14.469300 0.000000
14.488300 0.000000
14.507400 0.000000
14.526400 0.000000
14.545400 0.000000
14.564400 0.000000
14.583400 0.000000
14.602500 0.000000
14.621500 0.000000
14.640500 0.000000
14.659500 0.000000
14.678600 0.000000
14.697600 0.000000
14.716600 0.000000
14.735600 0.000000
14.754600 0.000000
14.773700 0.000000
14.792700 0.000000
14.811700 0.000000
14.830700 0.000000
14.849800 0.000000
14.868800 0.000000
14.887800 0.000000
14.906800 0.000000
14.925800 0.000000
14.944900 0.000000
14.963900 0.000000
14.982900 0.000000
15.001900 0.000000
15.021000 0.000000
15.040000 0.000000
15.059000 0.000000
15.078000 0.000000
15.097000 0.000000
15.116100 0.000000
15.135100 0.000000
15.154100 0.000000
15.173100 0.000000
15.192200 0.000000
15.211200 0.000000
15.230200 0.000000
15.249200 0.000000
15.268200 0.000000
15.287300 0.000000
15.306300 0.000000
15.325300 0.000000
15.344300 0.000000
15.363400 0.000000
15.382400 0.000000
15.401400 0.000000
15.420400 0.000000
15.439400 0.000000
15.458500 0.000000
15.477500 0.000000
15.496500 0.000000
15.515500 0.000000
15.534600 0.000000
15.553600 0.000000
15.572600 0.000000
15.591600 0.000000
15.610600 0.000000
15.629700 0.000000
15.648700 0.000000
15.667700 0.000000
15.686700 0.000000
15.705800 0.000000
15.724800 0.000000
e
