set title 'mp-1187223 - Density of States'
set xlabel 'Energy (eV)'
set ylabel 'DOS (states/eV)'
set grid
set xrange [-10:10]
set yrange [0:11.950]
set xzeroaxis lt -1
set terminal png size 800,600
set output 'mp-1187223_dos_gnuplot.png'
plot '-' using 1:2 with lines title 'DOS'
-31.636500 0.000000
-31.606700 0.000000
-31.576800 0.000000
-31.546900 0.000000
-31.517100 0.000000
-31.487200 0.000000
-31.457300 0.000000
-31.427500 0.000000
-31.397600 0.000000
-31.367700 0.000000
-31.337900 0.000000
-31.308000 0.000000
-31.278100 0.000000
-31.248300 0.000000
-31.218400 0.000000
-31.188500 0.000000
-31.158700 0.000000
-31.128800 0.000000
-31.098900 0.000000
-31.069100 0.000000
-31.039200 0.000000
-31.009300 0.000000
-30.979500 0.000000
-30.949600 0.000000
-30.919700 0.000000
-30.889900 0.000000
-30.860000 0.000000
-30.830100 0.000000
-30.800300 0.000000
-30.770400 0.000000
-30.740500 0.000000
-30.710700 0.000000
-30.680800 0.000000
-30.650900 0.000000
-30.621100 0.000000
-30.591200 0.000000
-30.561300 0.000000
-30.531500 0.000000
-30.501600 0.000000
-30.471700 0.000000
-30.441900 0.000000
-30.412000 0.000000
-30.382100 0.000000
-30.352300 0.000000
-30.322400 0.000000
-30.292500 0.000000
-30.262700 0.000000
-30.232800 0.000000
-30.202900 0.000000
-30.173100 0.000000
-30.143200 0.000000
-30.113300 0.000000
-30.083500 0.000000
-30.053600 0.000000
-30.023700 0.000000
-29.993900 0.000000
-29.964000 0.000000
-29.934100 0.000000
-29.904300 0.000000
-29.874400 0.000000
-29.844500 0.000000
-29.814700 0.000000
-29.784800 0.000000
-29.754900 0.000000
-29.725100 0.000000
-29.695200 0.000000
-29.665300 0.000000
-29.635500 0.000000
-29.605600 0.000000
-29.575700 0.000000
-29.545900 0.000000
-29.516000 0.000000
-29.486100 0.000000
-29.456300 0.000000
-29.426400 0.000000
-29.396500 0.000000
-29.366700 0.000000
-29.336800 0.000000
-29.306900 0.000000
-29.277100 0.000000
-29.247200 0.000000
-29.217300 0.000000
-29.187500 0.000000
-29.157600 0.000000
-29.127700 0.000000
-29.097900 0.000000
-29.068000 0.000000
-29.038100 0.000500
-29.008300 0.008500
-28.978400 0.082700
-28.948500 0.444400
-28.918700 1.403700
-28.888800 2.932800
-28.858900 4.969100
-28.829100 8.262000
-28.799200 13.226600
-28.769300 18.537200
-28.739500 22.499200
-28.709600 24.292700
-28.679700 24.551500
-28.649900 24.404200
-28.620000 23.178200
-28.590100 19.729800
-28.560300 15.401000
-28.530400 12.589200
-28.500500 11.540700
-28.470700 11.436600
-28.440800 12.261500
-28.410900 14.418000
-28.381100 17.558700
-28.351200 20.287300
-28.321300 21.505700
-28.291500 21.130500
-28.261600 20.527000
-28.231700 20.820800
-28.201900 20.674100
-28.172000 18.625000
-28.142100 16.066000
-28.112300 15.148300
-28.082400 16.054700
-28.052500 17.256000
-28.022700 19.170200
-27.992800 22.545000
-27.962900 24.166600
-27.933100 21.103000
-27.903200 14.255800
-27.873300 6.935800
-27.843500 2.208500
-27.813600 0.421300
-27.783700 0.045200
-27.753900 0.002600
-27.724000 0.000100
-27.694100 0.000000
-27.664300 0.000000
-27.634400 0.000000
-27.604500 0.000000
-27.574700 0.000000
-27.544800 0.000000
-27.514900 0.000000
-27.485100 0.000000
-27.455200 0.000000
-27.425300 0.000000
-27.395500 0.000000
-27.365600 0.000000
-27.335700 0.000000
-27.305900 0.000000
-27.276000 0.000000
-27.246100 0.000000
-27.216300 0.000000
-27.186400 0.000000
-27.156500 0.000000
-27.126700 0.000000
-27.096800 0.000000
-27.066900 0.000000
-27.037100 0.000000
-27.007200 0.000000
-26.977300 0.000000
-26.947500 0.000000
-26.917600 0.000000
-26.887700 0.000000
-26.857900 0.000000
-26.828000 0.000000
-26.798100 0.000000
-26.768300 0.000000
-26.738400 0.000000
-26.708500 0.000000
-26.678700 0.000000
-26.648800 0.000000
-26.618900 0.000000
-26.589100 0.000000
-26.559200 0.000000
-26.529300 0.000000
-26.499500 0.000000
-26.469600 0.000000
-26.439700 0.000000
-26.409900 0.000000
-26.380000 0.000000
-26.350100 0.000000
-26.320300 0.000000
-26.290400 0.000000
-26.260500 0.000000
-26.230700 0.000000
-26.200800 0.000000
-26.170900 0.000000
-26.141100 0.000000
-26.111200 0.000000
-26.081300 0.000000
-26.051500 0.000000
-26.021600 0.000000
-25.991700 0.000000
-25.961900 0.000000
-25.932000 0.000000
-25.902100 0.000000
-25.872300 0.000000
-25.842400 0.000000
-25.812500 0.000000
-25.782700 0.000000
-25.752800 0.000000
-25.722900 0.000000
-25.693100 0.000000
-25.663200 0.000000
-25.633300 0.000000
-25.603500 0.000000
-25.573600 0.000000
-25.543700 0.000000
-25.513900 0.000000
-25.484000 0.000000
-25.454100 0.000000
-25.424300 0.000000
-25.394400 0.000000
-25.364500 0.000000
-25.334700 0.000000
-25.304800 0.000000
-25.274900 0.000000
-25.245100 0.000000
-25.215200 0.000000
-25.185300 0.000000
-25.155500 0.000000
-25.125600 0.000000
-25.095700 0.000000
-25.065900 0.000000
-25.036000 0.000000
-25.006100 0.000000
-24.976300 0.000000
-24.946400 0.000000
-24.916500 0.000000
-24.886700 0.000000
-24.856800 0.000000
-24.826900 0.000000
-24.797100 0.000000
-24.767200 0.000000
-24.737300 0.000000
-24.707500 0.000000
-24.677600 0.000000
-24.647700 0.000000
-24.617900 0.000000
-24.588000 0.000000
-24.558100 0.000000
-24.528300 0.000000
-24.498400 0.000000
-24.468500 0.000000
-24.438700 0.000000
-24.408800 0.000000
-24.378900 0.000000
-24.349100 0.000000
-24.319200 0.000000
-24.289300 0.000000
-24.259500 0.000000
-24.229600 0.000000
-24.199700 0.000000
-24.169900 0.000000
-24.140000 0.000000
-24.110100 0.000000
-24.080300 0.000000
-24.050400 0.000000
-24.020500 0.000000
-23.990700 0.000000
-23.960800 0.000000
-23.930900 0.000000
-23.901100 0.000000
-23.871200 0.000000
-23.841300 0.000000
-23.811500 0.000000
-23.781600 0.000000
-23.751700 0.000000
-23.721900 0.000000
-23.692000 0.000000
-23.662100 0.000000
-23.632300 0.000000
-23.602400 0.000000
-23.572500 0.000000
-23.542700 0.000000
-23.512800 0.000000
-23.482900 0.000000
-23.453100 0.000000
-23.423200 0.000000
-23.393300 0.000000
-23.363500 0.000000
-23.333600 0.000000
-23.303700 0.000000
-23.273900 0.000000
-23.244000 0.000000
-23.214100 0.000000
-23.184300 0.000000
-23.154400 0.000000
-23.124500 0.000000
-23.094700 0.000000
-23.064800 0.000000
-23.034900 0.000000
-23.005100 0.000000
-22.975200 0.000000
-22.945300 0.000000
-22.915500 0.000000
-22.885600 0.000000
-22.855700 0.000000
-22.825900 0.000000
-22.796000 0.000000
-22.766100 0.000000
-22.736300 0.000000
-22.706400 0.000000
-22.676500 0.000000
-22.646700 0.000000
-22.616800 0.000000
-22.586900 0.000000
-22.557100 0.000000
-22.527200 0.000000
-22.497300 0.000000
-22.467500 0.000000
-22.437600 0.000000
-22.407700 0.000000
-22.377900 0.000000
-22.348000 0.000000
-22.318100 0.000000
-22.288300 0.000000
-22.258400 0.000000
-22.228500 0.000000
-22.198700 0.000000
-22.168800 0.000000
-22.138900 0.000000
-22.109100 0.000000
-22.079200 0.000000
-22.049300 0.000000
-22.019500 0.000000
-21.989600 0.000000
-21.959700 0.000000
-21.929900 0.000000
-21.900000 0.000000
-21.870100 0.000000
-21.840300 0.000000
-21.810400 0.000000
-21.780500 0.000000
-21.750700 0.000000
-21.720800 0.000000
-21.690900 0.000000
-21.661100 0.000000
-21.631200 0.000000
-21.601300 0.000000
-21.571500 0.000000
-21.541600 0.000000
-21.511700 0.000000
-21.481900 0.000000
-21.452000 0.000000
-21.422100 0.000000
-21.392300 0.000000
-21.362400 0.000000
-21.332500 0.000000
-21.302700 0.000000
-21.272800 0.000000
-21.242900 0.000000
-21.213100 0.000000
-21.183200 0.000000
-21.153300 0.000000
-21.123500 0.000000
-21.093600 0.000000
-21.063700 0.000000
-21.033900 0.000000
-21.004000 0.000000
-20.974100 0.000000
-20.944300 0.000000
-20.914400 0.000000
-20.884500 0.000000
-20.854700 0.000000
-20.824800 0.000000
-20.794900 0.000000
-20.765100 0.000000
-20.735200 0.000000
-20.705300 0.000000
-20.675500 0.000000
-20.645600 0.000000
-20.615700 0.000000
-20.585900 0.000000
-20.556000 0.000000
-20.526100 0.000000
-20.496300 0.000000
-20.466400 0.000000
-20.436500 0.000000
-20.406700 0.000000
-20.376800 0.000000
-20.346900 0.000000
-20.317100 0.000000
-20.287200 0.000000
-20.257300 0.000000
-20.227500 0.000000
-20.197600 0.000000
-20.167700 0.000000
-20.137900 0.000000
-20.108000 0.000000
-20.078100 0.000000
-20.048300 0.000000
-20.018400 0.000000
-19.988500 0.000000
-19.958700 0.000000
-19.928800 0.000000
-19.898900 0.000000
-19.869100 0.000000
-19.839200 0.000000
-19.809300 0.000000
-19.779500 0.000000
-19.749600 0.000000
-19.719700 0.000000
-19.689900 0.000000
-19.660000 0.000000
-19.630100 0.000000
-19.600300 0.000000
-19.570400 0.000000
-19.540500 0.000000
-19.510700 0.000000
-19.480800 0.000000
-19.450900 0.000000
-19.421100 0.000000
-19.391200 0.000000
-19.361300 0.000000
-19.331500 0.000000
-19.301600 0.000000
-19.271700 0.000000
-19.241900 0.000000
-19.212000 0.000000
-19.182100 0.000000
-19.152300 0.000000
-19.122400 0.000000
-19.092500 0.000000
-19.062700 0.000000
-19.032800 0.000000
-19.002900 0.000000
-18.973100 0.000000
-18.943200 0.000000
-18.913300 0.000000
-18.883500 0.000000
-18.853600 0.000000
-18.823700 0.000000
-18.793900 0.000000
-18.764000 0.000000
-18.734100 0.000000
-18.704300 0.000000
-18.674400 0.000000
-18.644500 0.000000
-18.614700 0.000000
-18.584800 0.000000
-18.554900 0.000000
-18.525100 0.000000
-18.495200 0.000000
-18.465300 0.000000
-18.435500 0.000000
-18.405600 0.000000
-18.375700 0.000000
-18.345900 0.000000
-18.316000 0.000000
-18.286100 0.000000
-18.256300 0.000000
-18.226400 0.000000
-18.196500 0.000000
-18.166700 0.000000
-18.136800 0.000000
-18.106900 0.000000
-18.077100 0.000000
-18.047200 0.000000
-18.017300 0.000000
-17.987500 0.000000
-17.957600 0.000000
-17.927700 0.000000
-17.897900 0.000000
-17.868000 0.000000
-17.838100 0.000000
-17.808300 0.000000
-17.778400 0.000000
-17.748500 0.000000
-17.718700 0.000000
-17.688800 0.000000
-17.658900 0.000000
-17.629100 0.000000
-17.599200 0.000000
-17.569300 0.000000
-17.539500 0.000000
-17.509600 0.000000
-17.479700 0.000000
-17.449900 0.000000
-17.420000 0.000000
-17.390100 0.000000
-17.360300 0.000000
-17.330400 0.000000
-17.300500 0.000000
-17.270700 0.000000
-17.240800 0.000000
-17.210900 0.000000
-17.181100 0.000000
-17.151200 0.000000
-17.121300 0.000000
-17.091500 0.000000
-17.061600 0.000000
-17.031700 0.000000
-17.001900 0.000000
-16.972000 0.000000
-16.942100 0.000000
-16.912300 0.000000
-16.882400 0.000000
-16.852500 0.000000
-16.822700 0.000000
-16.792800 0.000000
-16.762900 0.000000
-16.733100 0.000000
-16.703200 0.000000
-16.673300 0.000000
-16.643500 0.000000
-16.613600 0.000000
-16.583700 0.000000
-16.553900 0.000000
-16.524000 0.000000
-16.494100 0.000000
-16.464300 0.000000
-16.434400 0.000000
-16.404500 0.000000
-16.374700 0.000000
-16.344800 0.000000
-16.314900 0.000000
-16.285100 0.000000
-16.255200 0.000000
-16.225300 0.000000
-16.195500 0.000000
-16.165600 0.000000
-16.135700 0.000000
-16.105900 0.000000
-16.076000 0.000000
-16.046100 0.000000
-16.016300 0.000000
-15.986400 0.000000
-15.956500 0.000000
-15.926700 0.000000
-15.896800 0.000000
-15.866900 0.000000
-15.837100 0.000000
-15.807200 0.000000
-15.777300 0.000000
-15.747500 0.000000
-15.717600 0.000000
-15.687700 0.000000
-15.657900 0.000000
-15.628000 0.000000
-15.598100 0.000000
-15.568300 0.000000
-15.538400 0.000000
-15.508500 0.000000
-15.478700 0.000000
-15.448800 0.000000
-15.418900 0.000000
-15.389100 0.000000
-15.359200 0.000000
-15.329300 0.000000
-15.299500 0.000000
-15.269600 0.000000
-15.239700 0.000000
-15.209900 0.000000
-15.180000 0.000000
-15.150100 0.000000
-15.120300 0.000000
-15.090400 0.000000
-15.060500 0.000000
-15.030700 0.000000
-15.000800 0.000000
-14.970900 0.000000
-14.941100 0.000000
-14.911200 0.000000
-14.881300 0.000000
-14.851500 0.000000
-14.821600 0.000000
-14.791700 0.000000
-14.761900 0.000000
-14.732000 0.000000
-14.702100 0.000000
-14.672300 0.000000
-14.642400 0.000000
-14.612500 0.000000
-14.582700 0.000000
-14.552800 0.000000
-14.522900 0.000000
-14.493100 0.000000
-14.463200 0.000000
-14.433300 0.000000
-14.403500 0.000000
-14.373600 0.000000
-14.343700 0.000000
-14.313900 0.000000
-14.284000 0.000000
-14.254100 0.000000
-14.224300 0.000000
-14.194400 0.000000
-14.164500 0.000000
-14.134700 0.000000
-14.104800 0.000000
-14.074900 0.000000
-14.045100 0.000000
-14.015200 0.000000
-13.985300 0.000000
-13.955500 0.000000
-13.925600 0.000000
-13.895700 0.000000
-13.865900 0.000000
-13.836000 0.000000
-13.806100 0.000000
-13.776300 0.000000
-13.746400 0.000000
-13.716500 0.000000
-13.686700 0.000000
-13.656800 0.000000
-13.626900 0.000000
-13.597100 0.000000
-13.567200 0.000000
-13.537300 0.000000
-13.507500 0.000000
-13.477600 0.000000
-13.447700 0.000000
-13.417900 0.000000
-13.388000 0.000000
-13.358100 0.000000
-13.328300 0.000000
-13.298400 0.000000
-13.268500 0.000000
-13.238700 0.000000
-13.208800 0.000000
-13.178900 0.000000
-13.149100 0.000000
-13.119200 0.000000
-13.089300 0.000000
-13.059500 0.000000
-13.029600 0.000000
-12.999700 0.000000
-12.969900 0.000000
-12.940000 0.000000
-12.910100 0.000000
-12.880300 0.000000
-12.850400 0.000000
-12.820500 0.000000
-12.790700 0.000000
-12.760800 0.000000
-12.730900 0.000000
-12.701100 0.000000
-12.671200 0.000000
-12.641300 0.000000
-12.611500 0.000000
-12.581600 0.000000
-12.551700 0.000000
-12.521900 0.000000
-12.492000 0.000000
-12.462100 0.000000
-12.432300 0.000000
-12.402400 0.000000
-12.372500 0.000000
-12.342700 0.000000
-12.312800 0.000000
-12.282900 0.000000
-12.253100 0.000000
-12.223200 0.000000
-12.193300 0.000000
-12.163500 0.000000
-12.133600 0.000000
-12.103700 0.000000
-12.073900 0.000000
-12.044000 0.000000
-12.014100 0.000000
-11.984300 0.000000
-11.954400 0.000000
-11.924500 0.000000
-11.894700 0.000000
-11.864800 0.000000
-11.834900 0.000000
-11.805100 0.000000
-11.775200 0.000000
-11.745300 0.000000
-11.715500 0.000000
-11.685600 0.000000
-11.655700 0.000000
-11.625900 0.000000
-11.596000 0.000000
-11.566100 0.000000
-11.536300 0.000000
-11.506400 0.000000
-11.476500 0.000000
-11.446700 0.000000
-11.416800 0.000000
-11.386900 0.000000
-11.357100 0.000000
-11.327200 0.000000
-11.297300 0.000000
-11.267500 0.000000
-11.237600 0.000000
-11.207700 0.000000
-11.177900 0.000000
-11.148000 0.000000
-11.118100 0.000000
-11.088300 0.000000
-11.058400 0.000000
-11.028500 0.000000
-10.998700 0.000000
-10.968800 0.000000
-10.938900 0.000000
-10.909100 0.000000
-10.879200 0.000000
-10.849300 0.000000
-10.819500 0.000000
-10.789600 0.000000
-10.759700 0.000000
-10.729900 0.000000
-10.700000 0.000000
-10.670100 0.000000
-10.640300 0.000000
-10.610400 0.000000
-10.580500 0.000000
-10.550700 0.000000
-10.520800 0.000000
-10.490900 0.000000
-10.461100 0.000000
-10.431200 0.000000
-10.401300 0.000000
-10.371500 0.000000
-10.341600 0.000000
-10.311700 0.000000
-10.281900 0.000000
-10.252000 0.000000
-10.222100 0.000000
-10.192300 0.000000
-10.162400 0.000000
-10.132500 0.000000
-10.102700 0.000000
-10.072800 0.000000
-10.042900 0.000000
-10.013100 0.000000
-9.983200 0.000000
-9.953300 0.000000
-9.923500 0.000000
-9.893600 0.000000
-9.863700 0.000000
-9.833900 0.000000
-9.804000 0.000000
-9.774100 0.000000
-9.744300 0.000000
-9.714400 0.000000
-9.684500 0.000000
-9.654700 0.000000
-9.624800 0.000000
-9.594900 0.000000
-9.565100 0.000000
-9.535200 0.000000
-9.505300 0.000000
-9.475500 0.000000
-9.445600 0.000000
-9.415700 0.000000
-9.385900 0.000000
-9.356000 0.000000
-9.326100 0.000000
-9.296300 0.000000
-9.266400 0.000000
-9.236500 0.000000
-9.206700 0.000000
-9.176800 0.000000
-9.146900 0.000000
-9.117100 0.000000
-9.087200 0.000000
-9.057300 0.000000
-9.027500 0.000000
-8.997600 0.000000
-8.967700 0.000000
-8.937900 0.000000
-8.908000 0.000000
-8.878100 0.000000
-8.848300 0.000000
-8.818400 0.000000
-8.788500 0.000000
-8.758700 0.000000
-8.728800 0.000000
-8.698900 0.000000
-8.669100 0.000000
-8.639200 0.000000
-8.609300 0.000000
-8.579500 0.000000
-8.549600 0.000000
-8.519700 0.000000
-8.489900 0.000000
-8.460000 0.000000
-8.430100 0.000000
-8.400300 0.000000
-8.370400 0.000000
-8.340500 0.000000
-8.310700 0.000000
-8.280800 0.000000
-8.250900 0.000000
-8.221100 0.000000
-8.191200 0.000000
-8.161300 0.000000
-8.131500 0.000000
-8.101600 0.000000
-8.071700 0.000000
-8.041900 0.000000
-8.012000 0.000000
-7.982100 0.000000
-7.952300 0.000000
-7.922400 0.000000
-7.892500 0.000000
-7.862700 0.000000
-7.832800 0.000000
-7.802900 0.000000
-7.773100 0.000000
-7.743200 0.000000
-7.713300 0.000000
-7.683500 0.000000
-7.653600 0.000000
-7.623700 0.000000
-7.593900 0.000000
-7.564000 0.000000
-7.534100 0.000000
-7.504300 0.000000
-7.474400 0.000000
-7.444500 0.000000
-7.414700 0.000000
-7.384800 0.000000
-7.354900 0.000000
-7.325100 0.000000
-7.295200 0.000000
-7.265300 0.000000
-7.235500 0.000000
-7.205600 0.000000
-7.175700 0.000000
-7.145900 0.000000
-7.116000 0.000000
-7.086100 0.000000
-7.056300 0.000000
-7.026400 0.000000
-6.996500 0.000000
-6.966700 0.000000
-6.936800 0.000000
-6.906900 0.000000
-6.877100 0.000000
-6.847200 0.000000
-6.817300 0.000000
-6.787500 0.000000
-6.757600 0.000000
-6.727700 0.000000
-6.697900 0.000000
-6.668000 0.000000
-6.638100 0.000000
-6.608300 0.000000
-6.578400 0.000000
-6.548500 0.000000
-6.518700 0.000000
-6.488800 0.000000
-6.458900 0.000000
-6.429100 0.000000
-6.399200 0.000000
-6.369300 0.000000
-6.339500 0.000000
-6.309600 0.000000
-6.279700 0.000000
-6.249900 0.000000
-6.220000 0.000000
-6.190100 0.000000
-6.160300 0.000000
-6.130400 0.000000
-6.100500 0.000000
-6.070700 0.000000
-6.040800 0.000000
-6.010900 0.000000
-5.981100 0.000000
-5.951200 0.000000
-5.921300 0.000000
-5.891500 0.000000
-5.861600 0.000000
-5.831700 0.000000
-5.801900 0.000000
-5.772000 0.000000
-5.742100 0.000000
-5.712300 0.000000
-5.682400 0.000000
-5.652500 0.000000
-5.622700 0.000000
-5.592800 0.000000
-5.562900 0.000000
-5.533100 0.000000
-5.503200 0.000000
-5.473300 0.000000
-5.443500 0.000000
-5.413600 0.000000
-5.383700 0.000000
-5.353900 0.000000
-5.324000 0.000000
-5.294100 0.000000
-5.264300 0.000000
-5.234400 0.000000
-5.204500 0.000000
-5.174700 0.000000
-5.144800 0.000000
-5.114900 0.000000
-5.085100 0.000000
-5.055200 0.000000
-5.025300 0.000000
-4.995500 0.000000
-4.965600 0.000000
-4.935700 0.000000
-4.905900 0.000000
-4.876000 0.000000
-4.846100 0.000000
-4.816300 0.000000
-4.786400 0.000000
-4.756500 0.000000
-4.726700 0.000000
-4.696800 0.000000
-4.666900 0.000000
-4.637100 0.000000
-4.607200 0.000000
-4.577300 0.000000
-4.547500 0.000000
-4.517600 0.000000
-4.487700 0.000000
-4.457900 0.000000
-4.428000 0.000000
-4.398100 0.000000
-4.368300 0.000000
-4.338400 0.000000
-4.308500 0.000000
-4.278700 0.000000
-4.248800 0.000000
-4.218900 0.000000
-4.189100 0.000000
-4.159200 0.000000
-4.129300 0.000000
-4.099500 0.000000
-4.069600 0.000000
-4.039700 0.000000
-4.009900 0.000000
-3.980000 0.000000
-3.950100 0.000000
-3.920300 0.000000
-3.890400 0.000000
-3.860500 0.000000
-3.830700 0.000000
-3.800800 0.000000
-3.770900 0.000000
-3.741100 0.000000
-3.711200 0.000000
-3.681300 0.000000
-3.651500 0.000000
-3.621600 0.000000
-3.591700 0.000000
-3.561900 0.000000
-3.532000 0.000000
-3.502100 0.000000
-3.472300 0.000000
-3.442400 0.000000
-3.412500 0.000000
-3.382700 0.000000
-3.352800 0.000000
-3.322900 0.000000
-3.293100 0.000000
-3.263200 0.000000
-3.233300 0.000000
-3.203500 0.000000
-3.173600 0.000000
-3.143700 0.000000
-3.113900 0.000000
-3.084000 0.000000
-3.054100 0.000000
-3.024300 0.000000
-2.994400 0.000000
-2.964500 0.000000
-2.934700 0.000000
-2.904800 0.000000
-2.874900 0.000000
-2.845100 0.000000
-2.815200 0.000000
-2.785300 0.000000
-2.755500 0.000000
-2.725600 0.000000
-2.695700 0.000000
-2.665900 0.000000
-2.636000 0.000000
-2.606100 0.000000
-2.576300 0.000000
-2.546400 0.000000
-2.516500 0.000000
-2.486700 0.000000
-2.456800 0.000000
-2.426900 0.000000
-2.397100 0.000000
-2.367200 0.000100
-2.337300 0.000800
-2.307500 0.005000
-2.277600 0.016100
-2.247700 0.029300
-2.217900 0.039700
-2.188000 0.053100
-2.158100 0.065000
-2.128300 0.091800
-2.098400 0.162600
-2.068500 0.212200
-2.038700 0.163600
-2.008800 0.071600
-1.978900 0.021300
-1.949100 0.030300
-1.919200 0.101600
-1.889300 0.210200
-1.859500 0.275400
-1.829600 0.265000
-1.799700 0.220200
-1.769900 0.207800
-1.740000 0.279000
-1.710100 0.327100
-1.680300 0.227000
-1.650400 0.089400
-1.620500 0.045000
-1.590700 0.086700
-1.560800 0.158500
-1.530900 0.237300
-1.501100 0.318400
-1.471200 0.348800
-1.441300 0.330800
-1.411500 0.343400
-1.381600 0.415200
-1.351700 0.450000
-1.321900 0.344000
-1.292000 0.176000
-1.262100 0.088800
-1.232300 0.118300
-1.202400 0.219400
-1.172500 0.324400
-1.142700 0.466200
-1.112800 0.614600
-1.082900 0.595000
-1.053100 0.426800
-1.023200 0.242400
-0.993300 0.140100
-0.963500 0.200300
-0.933600 0.366600
-0.903700 0.470400
-0.873900 0.454700
-0.844000 0.385900
-0.814100 0.323400
-0.784300 0.319800
-0.754400 0.388600
-0.724500 0.513200
-0.694700 0.548300
-0.664800 0.459600
-0.634900 0.442300
-0.605100 0.543300
-0.575200 0.718600
-0.545300 0.836800
-0.515500 0.737900
-0.485600 0.572400
-0.455700 0.520900
-0.425900 0.454000
-0.396000 0.306000
-0.366100 0.224400
-0.336300 0.259200
-0.306400 0.350800
-0.276500 0.519600
-0.246700 0.781400
-0.216800 0.980400
-0.186900 0.958600
-0.157100 0.846300
-0.127200 0.771000
-0.097300 0.751200
-0.067500 0.887200
-0.037600 1.047600
-0.007700 0.938100
0.022100 0.693400
0.052000 0.647700
0.081900 0.907400
0.111700 1.414100
0.141600 1.802700
0.171500 1.839500
0.201300 1.891200
0.231200 2.411700
0.261100 3.165800
0.290900 3.492800
0.320800 3.575900
0.350700 3.853800
0.380500 4.051300
0.410400 4.061500
0.440300 4.154600
0.470100 4.210400
0.500000 4.009000
0.529900 4.004000
0.559700 4.312900
0.589600 4.407100
0.619500 4.534300
0.649300 5.085000
0.679200 5.475600
0.709100 5.231100
0.738900 4.903600
0.768800 5.321300
0.798700 6.470300
0.828500 7.512000
0.858400 7.693500
0.888300 6.841000
0.918100 6.026800
0.948000 6.398000
0.977900 7.239700
1.007700 7.605800
1.037600 7.678800
1.067500 7.544200
1.097300 6.988600
1.127200 6.396800
1.157100 6.544300
1.186900 7.360500
1.216800 7.889900
1.246700 7.580600
1.276500 7.175100
1.306400 7.559300
1.336300 8.444600
1.366100 9.158600
1.396000 9.765100
1.425900 10.287400
1.455700 10.549200
1.485600 10.850300
1.515500 10.863300
1.545300 10.517900
1.575200 10.277900
1.605100 9.650000
1.634900 8.189600
1.664800 6.018800
1.694700 4.115800
1.724500 3.413300
1.754400 3.535100
1.784300 3.597900
1.814100 3.128100
1.844000 2.431100
1.873900 2.156400
1.903700 2.555700
1.933600 3.202400
1.963500 3.370200
1.993300 3.166400
2.023200 3.157300
2.053100 2.962400
2.082900 2.227300
2.112800 1.561100
2.142700 1.585000
2.172500 1.914200
2.202400 1.897200
2.232300 1.731300
2.262100 1.784800
2.292000 2.018600
2.321900 2.203100
2.351700 2.255700
2.381600 2.211100
2.411500 2.229300
2.441300 2.546300
2.471200 2.917500
2.501100 3.083400
2.530900 3.022300
2.560800 2.960700
2.590700 3.405500
2.620500 4.062800
2.650400 4.042800
2.680300 3.172800
2.710100 2.135700
2.740000 1.523700
2.769900 1.355300
2.799700 1.424100
2.829600 1.622400
2.859500 1.771900
2.889300 1.688300
2.919200 1.462300
2.949100 1.272400
2.978900 1.250100
3.008800 1.474700
3.038700 1.859600
3.068500 2.220300
3.098400 2.423100
3.128300 2.223300
3.158100 1.726100
3.188000 1.478700
3.217900 1.697900
3.247700 1.971800
3.277600 2.058100
3.307500 2.167700
3.337300 2.101100
3.367200 1.730300
3.397100 1.650300
3.426900 2.332200
3.456800 3.457400
3.486700 4.279700
3.516500 4.484400
3.546400 4.322600
3.576300 4.169500
3.606100 4.285600
3.636000 4.343600
3.665900 3.940500
3.695700 3.561800
3.725600 3.673400
3.755500 3.987700
3.785300 4.091100
3.815200 3.845600
3.845100 3.377500
3.874900 3.330800
3.904800 3.927400
3.934700 4.452100
3.964500 4.605000
3.994400 4.710200
4.024300 4.622200
4.054100 4.397300
4.084000 4.666800
4.113900 5.337500
4.143700 5.835200
4.173600 5.944500
4.203500 5.658800
4.233300 5.122000
4.263200 4.694000
4.293100 4.463100
4.322900 4.447400
4.352800 4.963100
4.382700 5.988300
4.412500 6.853400
4.442400 7.200000
4.472300 7.159800
4.502100 6.841400
4.532000 6.496200
4.561900 6.447400
4.591700 6.574400
4.621600 6.498600
4.651500 6.087500
4.681300 5.543700
4.711200 5.305800
4.741100 5.350000
4.770900 5.164600
4.800800 5.049500
4.830700 5.195700
4.860500 5.068900
4.890400 4.659700
4.920300 4.345400
4.950100 4.133300
4.980000 3.739400
5.009900 3.632100
5.039700 4.129300
5.069600 4.379500
5.099500 4.039500
5.129300 3.731100
5.159200 3.660000
5.189100 3.474400
5.218900 3.208900
5.248800 3.100500
5.278700 3.154200
5.308500 3.229000
5.338400 3.256700
5.368300 3.528500
5.398100 3.973100
5.428000 3.916500
5.457900 3.297100
5.487700 2.894100
5.517600 3.240500
5.547500 3.863700
5.577300 4.162500
5.607200 4.184000
5.637100 4.045500
5.666900 3.854500
5.696800 3.684100
5.726700 3.494000
5.756500 3.550900
5.786400 3.903200
5.816300 4.050700
5.846100 3.803300
5.876000 3.576700
5.905900 3.500200
5.935700 3.488300
5.965600 3.826700
5.995500 4.279400
6.025300 3.998000
6.055200 3.180800
6.085100 2.927000
6.114900 3.497300
6.144800 4.096500
6.174700 4.332100
6.204500 4.414100
6.234400 4.469300
6.264300 4.481200
6.294100 4.521400
6.324000 4.614200
6.353900 4.751200
6.383700 4.816100
6.413600 4.450800
6.443500 3.883900
6.473300 3.698500
6.503200 3.700000
6.533100 3.549500
6.562900 3.395100
6.592800 3.256000
6.622700 3.046800
6.652500 2.829400
6.682400 2.628400
6.712300 2.478300
6.742100 2.616600
6.772000 3.000000
6.801900 3.309400
6.831700 3.534400
6.861600 3.782900
6.891500 3.918300
6.921300 3.523500
6.951200 2.776300
6.981100 2.528200
7.010900 2.846100
7.040800 2.972300
7.070700 2.589200
7.100500 2.052200
7.130400 1.795300
7.160300 1.969000
7.190100 2.302500
7.220000 2.408700
7.249900 2.217500
7.279700 2.041700
7.309600 2.019300
7.339500 1.823700
7.369300 1.483000
7.399200 1.299900
7.429100 1.259200
7.458900 1.220600
7.488800 1.202400
7.518700 1.367400
7.548500 1.827400
7.578400 2.458300
7.608300 2.821000
7.638100 2.690100
7.668000 2.453600
7.697900 2.376100
7.727700 2.603700
7.757600 3.365700
7.787500 4.040400
7.817300 3.990200
7.847200 3.770100
7.877100 3.689200
7.906900 3.210800
7.936800 2.423600
7.966700 2.301800
7.996500 3.010300
8.026400 3.646400
8.056300 3.756800
8.086100 3.603700
8.116000 3.340700
8.145900 2.974800
8.175700 2.908200
8.205600 3.188600
8.235500 3.344200
8.265300 3.532400
8.295200 3.986100
8.325100 4.430200
8.354900 4.808100
8.384800 5.051800
8.414700 5.088100
8.444500 5.008500
8.474400 4.882700
8.504300 4.731300
8.534100 4.274100
8.564000 3.634900
8.593900 3.508000
8.623700 3.822200
8.653600 3.936800
8.683500 3.881300
8.713300 4.017400
8.743200 4.176500
8.773100 4.053100
8.802900 3.793000
8.832800 3.570900
8.862700 3.714400
8.892500 4.321500
8.922400 4.708700
8.952300 4.710400
8.982100 4.693900
9.012000 4.495100
9.041900 4.038100
9.071700 3.836300
9.101600 4.007600
9.131500 4.088300
9.161300 3.724900
9.191200 3.129900
9.221100 2.921000
9.250900 3.267800
9.280800 3.681300
9.310700 3.585100
9.340500 3.230200
9.370400 3.141400
9.400300 3.169900
9.430100 3.141900
9.460000 3.177600
9.489900 3.589700
9.519700 4.306800
9.549600 4.622100
9.579500 4.290700
9.609300 3.791400
9.639200 3.298600
9.669100 2.732600
9.698900 2.171300
9.728800 1.781300
9.758700 1.667000
9.788500 1.733900
9.818400 1.837200
9.848300 1.821300
9.878100 1.659800
9.908000 1.583100
9.937900 1.748900
9.967700 2.024900
9.997600 2.177700
10.027500 2.065600
10.057300 1.852500
10.087200 1.853100
10.117100 1.978900
10.146900 2.011300
10.176800 2.151400
10.206700 2.477700
10.236500 2.746000
10.266400 2.782100
10.296300 2.559500
10.326100 2.385000
10.356000 2.522100
10.385900 2.740400
10.415700 2.691000
10.445600 2.328700
10.475500 2.125000
10.505300 2.307200
10.535200 2.485400
10.565100 2.428600
10.594900 2.448600
10.624800 2.979900
10.654700 3.855300
10.684500 4.368500
10.714400 4.369800
10.744300 4.143500
10.774100 3.830400
10.804000 3.547400
10.833900 3.364900
10.863700 3.396800
10.893600 3.549500
10.923500 3.695300
10.953300 3.960600
10.983200 4.166600
11.013100 4.079800
11.042900 4.010600
11.072800 4.205900
11.102700 4.338500
11.132500 3.998200
11.162400 3.741800
11.192300 4.171600
11.222100 4.477500
11.252000 4.005200
11.281900 3.516400
11.311700 3.567900
11.341600 3.802600
11.371500 3.607500
11.401300 2.804700
11.431200 2.054900
11.461100 1.856100
11.490900 1.923000
11.520800 1.944900
11.550700 1.964700
11.580500 1.926600
11.610400 1.781800
11.640300 1.600000
11.670100 1.459800
11.700000 1.457500
11.729900 1.493600
11.759700 1.312800
11.789600 1.052800
11.819500 1.215100
11.849300 1.785900
11.879200 2.058600
11.909100 1.684900
11.938900 1.160600
11.968800 1.069900
11.998700 1.288600
12.028500 1.391900
12.058400 1.367000
12.088300 1.315300
12.118100 1.257100
12.148000 1.249300
12.177900 1.311200
12.207700 1.435600
12.237600 1.574700
12.267500 1.532100
12.297300 1.297500
12.327200 1.139200
12.357100 1.181700
12.386900 1.327400
12.416800 1.316600
12.446700 1.100300
12.476500 0.853200
12.506400 0.662600
12.536300 0.622300
12.566100 0.772100
12.596000 0.893600
12.625900 0.873800
12.655700 0.859600
12.685600 0.882500
12.715500 0.829100
12.745300 0.612200
12.775200 0.344700
12.805100 0.276500
12.834900 0.464800
12.864800 0.695400
12.894700 0.769300
12.924500 0.791600
12.954400 0.967900
12.984300 1.200700
13.014100 1.269600
13.044000 1.211600
13.073900 1.120400
13.103700 1.032800
13.133600 1.075700
13.163500 1.238100
13.193300 1.442100
13.223200 1.590600
13.253100 1.685600
13.282900 1.837300
13.312800 1.825100
13.342700 1.648300
13.372500 1.793500
13.402400 2.171600
13.432300 2.252100
13.462100 2.191600
13.492000 2.166100
13.521900 2.019200
13.551700 1.748200
13.581600 1.532000
13.611500 1.590800
13.641300 1.805000
13.671200 1.804500
13.701100 1.570100
13.730900 1.400100
13.760800 1.389700
13.790700 1.231300
13.820500 0.931100
13.850400 0.900600
13.880300 1.041800
13.910100 1.028400
13.940000 1.023500
13.969900 1.227200
13.999700 1.478400
14.029600 1.509500
14.059500 1.180600
14.089300 0.822400
14.119200 0.866000
14.149100 1.341800
14.178900 1.943900
14.208800 2.127200
14.238700 1.670800
14.268500 0.938500
14.298400 0.466500
14.328300 0.456000
14.358100 0.685000
14.388000 1.000300
14.417900 1.368200
14.447700 1.635100
14.477600 1.707400
14.507500 1.504100
14.537300 1.156000
14.567200 1.054300
14.597100 1.264700
14.626900 1.452800
14.656800 1.576000
14.686700 1.862600
14.716500 2.075200
14.746400 2.017200
14.776300 1.978600
14.806100 2.078900
14.836000 1.958100
14.865900 1.573800
14.895700 1.411400
14.925600 1.504200
14.955500 1.484600
14.985300 1.352600
15.015200 1.250400
15.045100 1.249300
15.074900 1.548600
15.104800 2.155500
15.134700 2.561700
15.164500 2.428400
15.194400 2.098600
15.224300 1.969400
15.254100 2.123300
15.284000 2.478200
15.313900 2.687200
15.343700 2.524200
15.373600 2.120800
15.403500 1.685100
15.433300 1.463600
15.463200 1.464200
15.493100 1.524200
15.522900 1.583600
15.552800 1.663500
15.582700 1.738100
15.612500 1.789400
15.642400 1.896400
15.672300 2.169500
15.702100 2.565100
15.732000 2.761300
15.761900 2.684600
15.791700 2.421200
15.821600 2.130400
15.851500 2.157300
15.881300 2.290500
15.911200 2.123200
15.941100 1.884300
15.970900 1.824900
16.000800 1.952400
16.030700 2.158700
16.060500 2.131000
16.090400 2.005700
16.120300 2.095900
16.150100 2.123300
16.180000 1.825400
16.209900 1.493800
16.239700 1.365500
16.269600 1.321200
16.299500 1.269800
16.329300 1.311000
16.359200 1.496600
16.389100 1.838900
16.418900 2.221900
16.448800 2.459800
16.478700 2.473600
16.508500 2.176000
16.538400 1.789000
16.568300 1.695200
16.598100 1.747800
16.628000 1.721400
16.657900 1.668300
16.687700 1.563300
16.717600 1.430600
16.747500 1.334900
16.777300 1.447700
16.807200 1.774500
16.837100 1.726800
16.866900 1.190200
16.896800 0.847700
16.926700 0.987500
16.956500 1.388100
16.986400 1.885800
17.016300 2.177100
17.046100 2.006000
17.076000 1.681000
17.105900 1.558200
17.135700 1.525500
17.165600 1.443600
17.195500 1.523000
17.225300 1.610700
17.255200 1.438700
17.285100 1.204500
17.314900 1.124600
17.344800 1.142400
17.374700 1.067900
17.404500 0.998100
17.434400 1.144000
17.464300 1.467000
17.494100 1.914700
17.524000 2.325500
17.553900 2.514700
17.583700 2.517300
17.613600 2.137500
17.643500 1.557700
17.673300 1.381400
17.703200 1.538500
17.733100 1.559200
17.762900 1.601100
17.792800 2.007400
17.822700 2.308300
17.852500 1.990800
17.882400 1.593200
17.912300 1.653200
17.942100 1.684700
17.972000 1.433900
18.001900 1.271600
18.031700 1.244900
18.061600 1.418900
18.091500 1.903900
18.121300 2.363900
18.151200 2.721700
18.181100 4.657000
18.210900 11.654400
18.240800 21.722900
18.270700 24.606200
18.300500 22.970300
18.330400 32.293300
18.360300 44.281400
18.390100 36.372400
18.420000 16.792900
18.449900 5.256600
18.479700 2.371900
18.509600 2.199100
18.539500 2.331500
18.569300 2.304000
18.599200 2.172000
18.629100 2.195500
18.658900 2.218600
18.688800 2.127200
18.718700 2.040900
18.748500 1.952500
18.778400 2.135200
18.808300 2.629300
18.838100 2.886000
18.868000 2.638400
18.897900 2.299300
18.927700 2.183500
18.957600 2.197500
18.987500 2.491100
19.017300 3.027300
19.047200 3.231000
19.077100 2.876400
19.106900 2.431100
19.136800 2.123300
19.166700 1.788200
19.196500 1.471300
19.226400 1.365000
19.256300 1.716300
19.286100 2.496000
19.316000 3.046000
19.345900 2.890500
19.375700 2.461200
19.405600 2.298900
19.435500 2.418300
19.465300 2.749000
19.495200 3.288700
19.525100 3.590300
19.554900 3.562900
19.584800 3.520000
19.614700 3.312600
19.644500 2.866200
19.674400 2.502500
19.704300 2.332300
19.734100 2.022500
19.764000 1.665200
19.793900 1.741000
19.823700 2.154600
19.853600 2.499300
19.883500 2.898900
19.913300 3.523400
19.943200 3.954900
19.973100 3.863500
20.002900 3.545900
20.032800 3.294200
20.062700 3.094700
20.092500 3.077300
20.122400 3.518700
20.152300 4.107800
20.182100 4.325800
20.212000 4.215500
20.241900 4.001300
20.271700 3.651900
20.301600 3.337700
20.331500 3.523300
20.361300 3.886800
20.391200 4.039100
20.421100 4.053600
20.450900 3.725400
20.480800 3.211000
20.510700 2.933800
20.540500 2.895800
20.570400 3.003000
20.600300 3.290500
20.630100 3.564100
20.660000 3.354800
20.689900 2.647500
20.719700 2.276400
20.749600 2.600500
20.779500 2.909900
20.809300 2.849300
20.839200 2.775600
20.869100 2.849800
20.898900 2.930600
20.928800 2.955700
20.958700 2.984800
20.988500 3.059700
21.018400 3.122000
21.048300 3.136300
21.078100 2.996600
21.108000 2.620400
21.137900 2.181300
21.167700 1.984300
21.197600 2.211200
21.227500 2.548900
21.257300 2.421200
21.287200 2.050100
21.317100 2.154100
21.346900 2.926700
21.376800 3.908500
21.406700 4.301400
21.436500 4.001000
21.466400 3.689200
21.496300 3.512700
21.526100 3.268500
21.556000 3.098500
21.585900 3.151700
21.615700 3.433100
21.645600 3.661600
21.675500 3.432400
21.705300 2.888000
21.735200 2.635500
21.765100 3.050500
21.794900 3.678800
21.824800 3.690400
21.854700 3.193300
21.884500 2.858500
21.914400 2.945900
21.944300 3.367800
21.974100 3.753100
22.004000 3.723400
22.033900 3.537300
22.063700 3.545900
22.093600 3.612900
22.123500 3.733700
22.153300 4.014300
22.183200 4.115100
22.213100 3.868700
22.242900 3.686900
22.272800 3.824900
22.302700 3.922300
22.332500 3.807900
22.362400 3.790000
22.392300 3.857600
22.422100 3.910400
22.452000 3.909900
22.481900 3.745800
22.511700 3.383400
22.541600 2.878900
22.571500 2.640600
22.601300 2.942200
22.631200 3.297800
22.661100 3.480100
22.690900 3.693700
22.720800 3.695500
22.750700 3.214700
22.780500 2.497800
22.810400 2.230900
22.840300 2.542700
22.870100 2.752600
22.900000 2.550200
22.929900 2.136600
22.959700 1.776000
22.989600 1.665400
23.019500 1.712900
23.049300 1.575200
23.079200 1.234000
23.109100 0.984100
23.138900 0.980300
23.168800 1.347800
23.198700 1.995900
23.228500 2.389800
23.258400 2.312900
23.288300 1.966500
23.318100 1.507600
23.348000 1.346600
23.377900 1.741900
23.407700 2.215600
23.437600 2.333800
23.467500 2.296800
23.497300 2.250000
23.527200 2.169300
23.557100 2.146100
23.586900 2.033600
23.616800 1.608200
23.646700 1.081000
23.676500 0.993600
23.706400 1.437700
23.736300 1.818000
23.766100 1.879200
23.796000 1.907600
23.825900 1.903700
23.855700 1.704100
23.885600 1.532600
23.915500 1.618000
23.945300 1.865200
23.975200 2.089300
24.005100 2.093500
24.034900 2.043500
24.064800 2.271700
24.094700 2.722000
24.124500 2.835000
24.154400 2.323200
24.184300 1.875500
24.214100 1.958900
24.244000 1.926800
24.273900 1.539000
24.303700 1.290000
24.333600 1.249400
24.363500 1.202900
24.393300 1.154900
24.423200 1.227500
24.453100 1.306800
24.482900 1.230200
24.512800 1.076900
24.542700 0.863700
24.572500 0.673600
24.602400 0.669800
24.632300 0.854100
24.662100 1.112500
24.692000 1.267200
24.721900 1.176000
24.751700 0.962800
24.781600 0.983300
24.811500 1.336800
24.841300 1.615100
24.871200 1.412500
24.901100 0.845400
24.930900 0.388200
24.960800 0.281200
24.990700 0.328300
25.020500 0.314300
25.050400 0.360100
25.080300 0.545000
25.110100 0.640400
25.140000 0.541700
25.169900 0.527300
25.199700 0.700800
25.229600 0.772700
25.259500 0.689600
25.289300 0.594700
25.319200 0.504100
25.349100 0.408300
25.378900 0.295700
25.408800 0.168500
25.438700 0.066300
25.468500 0.015900
25.498400 0.002100
25.528300 0.000100
25.558100 0.000000
25.588000 0.000000
25.617900 0.000000
25.647700 0.000000
25.677600 0.000000
25.707500 0.000000
25.737300 0.000000
25.767200 0.000000
25.797100 0.000000
25.826900 0.000000
25.856800 0.000000
25.886700 0.000000
25.916500 0.000000
25.946400 0.000000
25.976300 0.000000
26.006100 0.000000
26.036000 0.000000
26.065900 0.000000
26.095700 0.000000
26.125600 0.000000
26.155500 0.000000
26.185300 0.000000
26.215200 0.000000
26.245100 0.000000
26.274900 0.000000
26.304800 0.000000
26.334700 0.000000
26.364500 0.000000
26.394400 0.000000
26.424300 0.000000
26.454100 0.000000
26.484000 0.000000
26.513900 0.000000
26.543700 0.000000
26.573600 0.000000
26.603500 0.000000
26.633300 0.000000
26.663200 0.000000
26.693100 0.000000
26.722900 0.000000
26.752800 0.000000
26.782700 0.000000
26.812500 0.000000
26.842400 0.000000
26.872300 0.000000
26.902100 0.000000
26.932000 0.000000
26.961900 0.000000
26.991700 0.000000
27.021600 0.000000
27.051500 0.000000
27.081300 0.000000
27.111200 0.000000
27.141100 0.000000
27.170900 0.000000
27.200800 0.000000
27.230700 0.000000
27.260500 0.000000
27.290400 0.000000
27.320300 0.000000
27.350100 0.000000
27.380000 0.000000
27.409900 0.000000
27.439700 0.000000
27.469600 0.000000
27.499500 0.000000
27.529300 0.000000
27.559200 0.000000
27.589100 0.000000
27.618900 0.000000
27.648800 0.000000
27.678700 0.000000
27.708500 0.000000
27.738400 0.000000
27.768300 0.000000
27.798100 0.000000
27.828000 0.000000
27.857900 0.000000
27.887700 0.000000
27.917600 0.000000
27.947500 0.000000
27.977300 0.000000
28.007200 0.000000
28.037100 0.000000
28.066900 0.000000
28.096800 0.000000
e
