set title 'mp-995198 - Density of States'
set xlabel 'Energy (eV)'
set ylabel 'DOS (states/eV)'
set grid
set xrange [-10:10]
set yrange [0:29.872]
set xzeroaxis lt -1
set terminal png size 800,600
set output 'mp-995198_dos_gnuplot.png'
plot '-' using 1:2 with lines title 'DOS'
-27.084500 0.000000
-27.059900 0.000000
-27.035200 0.000000
-27.010600 0.000000
-26.986000 0.000000
-26.961400 0.000000
-26.936800 0.000000
-26.912200 0.000000
-26.887600 0.000000
-26.863000 0.000000
-26.838300 0.000000
-26.813700 0.000000
-26.789100 0.000000
-26.764500 0.000000
-26.739900 0.000000
-26.715300 0.000000
-26.690700 0.000000
-26.666100 0.000000
-26.641400 0.000000
-26.616800 0.000000
-26.592200 0.000000
-26.567600 0.000000
-26.543000 0.000000
-26.518400 0.000000
-26.493800 0.000000
-26.469200 0.000000
-26.444600 0.000000
-26.419900 0.000000
-26.395300 0.000000
-26.370700 0.000000
-26.346100 0.000000
-26.321500 0.000000
-26.296900 0.000000
-26.272300 0.000000
-26.247700 0.000000
-26.223000 0.000000
-26.198400 0.000000
-26.173800 0.000000
-26.149200 0.000000
-26.124600 0.000000
-26.100000 0.000000
-26.075400 0.000000
-26.050800 0.000000
-26.026100 0.000000
-26.001500 0.000000
-25.976900 0.000000
-25.952300 0.000000
-25.927700 0.000000
-25.903100 0.000000
-25.878500 0.000000
-25.853900 0.000000
-25.829300 0.000000
-25.804600 0.000000
-25.780000 0.000000
-25.755400 0.000000
-25.730800 0.000000
-25.706200 0.000000
-25.681600 0.000000
-25.657000 0.000000
-25.632400 0.000000
-25.607700 0.000000
-25.583100 0.000000
-25.558500 0.000000
-25.533900 0.000000
-25.509300 0.000000
-25.484700 0.000000
-25.460100 0.000000
-25.435500 0.000000
-25.410800 0.000000
-25.386200 0.000000
-25.361600 0.000000
-25.337000 0.000000
-25.312400 0.000000
-25.287800 0.000000
-25.263200 0.000000
-25.238600 0.000000
-25.213900 0.000000
-25.189300 0.000000
-25.164700 0.000000
-25.140100 0.000000
-25.115500 0.000000
-25.090900 0.000000
-25.066300 0.000000
-25.041700 0.000000
-25.017100 0.000000
-24.992400 0.000000
-24.967800 0.000000
-24.943200 0.000000
-24.918600 0.000000
-24.894000 0.000000
-24.869400 0.000000
-24.844800 0.033800
-24.820200 3.738300
-24.795500 7.853400
-24.770900 11.361300
-24.746300 11.362100
-24.721700 9.255900
-24.697100 6.426800
-24.672500 3.874100
-24.647900 3.874200
-24.623300 3.874200
-24.598600 3.874200
-24.574000 3.874300
-24.549400 3.874300
-24.524800 3.874300
-24.500200 3.874400
-24.475600 3.874400
-24.451000 3.874400
-24.426400 3.478500
-24.401800 2.918600
-24.377100 2.451100
-24.352500 2.451100
-24.327900 2.451100
-24.303300 2.451100
-24.278700 2.451100
-24.254100 2.451200
-24.229500 2.451200
-24.204900 2.451200
-24.180200 2.451200
-24.155600 2.451200
-24.131000 2.451200
-24.106400 2.451200
-24.081800 2.451200
-24.057200 2.451200
-24.032600 2.451200
-24.008000 2.451200
-23.983300 2.451200
-23.958700 14.092900
-23.934100 11.248100
-23.909500 0.000000
-23.884900 0.000000
-23.860300 0.000000
-23.835700 0.000000
-23.811100 0.000000
-23.786500 0.000000
-23.761800 0.000000
-23.737200 0.000000
-23.712600 0.000000
-23.688000 0.000000
-23.663400 0.000000
-23.638800 0.000000
-23.614200 0.000000
-23.589600 0.000000
-23.564900 0.000000
-23.540300 0.000000
-23.515700 0.000000
-23.491100 0.000000
-23.466500 0.000000
-23.441900 0.000000
-23.417300 0.000000
-23.392700 0.000000
-23.368000 12.952000
-23.343400 18.853400
-23.318800 1.858500
-23.294200 1.858500
-23.269600 1.858500
-23.245000 1.858500
-23.220400 1.858600
-23.195800 1.858600
-23.171200 1.858600
-23.146500 1.858600
-23.121900 1.858600
-23.097300 1.858600
-23.072700 1.858600
-23.048100 1.858600
-23.023500 1.858600
-22.998900 1.858600
-22.974300 1.858600
-22.949600 1.858600
-22.925000 1.858600
-22.900400 1.858600
-22.875800 1.858600
-22.851200 1.858600
-22.826600 1.858600
-22.802000 1.858600
-22.777400 1.859100
-22.752700 2.018200
-22.728100 2.337400
-22.703500 2.425200
-22.678900 2.425100
-22.654300 2.425100
-22.629700 2.425100
-22.605100 2.425000
-22.580500 2.425000
-22.555800 2.424900
-22.531200 2.424900
-22.506600 2.424900
-22.482000 2.424800
-22.457400 2.424800
-22.432800 2.424800
-22.408200 2.424800
-22.383600 2.424700
-22.359000 2.424700
-22.334300 2.424700
-22.309700 2.536800
-22.285100 3.768200
-22.260500 5.278400
-22.235900 6.948700
-22.211300 6.944600
-22.186700 6.940600
-22.162100 6.928100
-22.137400 6.010400
-22.112800 4.148400
-22.088200 1.837400
-22.063600 0.000000
-22.039000 0.000000
-22.014400 0.000000
-21.989800 0.000000
-21.965200 0.000000
-21.940500 0.000000
-21.915900 0.000000
-21.891300 0.000000
-21.866700 0.000000
-21.842100 0.000000
-21.817500 0.000000
-21.792900 0.000000
-21.768300 0.000000
-21.743700 0.000000
-21.719000 0.000000
-21.694400 0.000000
-21.669800 0.000000
-21.645200 0.000000
-21.620600 0.000000
-21.596000 0.000000
-21.571400 0.000000
-21.546800 0.000000
-21.522100 0.000000
-21.497500 0.000000
-21.472900 0.000000
-21.448300 0.000000
-21.423700 0.000000
-21.399100 0.000000
-21.374500 0.000000
-21.349900 0.000000
-21.325200 27.265600
-21.300600 83.376900
-21.276000 13.819700
-21.251400 13.835800
-21.226800 33.301900
-21.202200 5.514900
-21.177600 0.000000
-21.153000 0.000000
-21.128400 0.000000
-21.103700 80.399300
-21.079100 11.468600
-21.054500 11.467700
-21.029900 11.468200
-21.005300 14.972300
-20.980700 17.055800
-20.956100 22.948100
-20.931500 28.194500
-20.906800 11.753000
-20.882200 0.000000
-20.857600 0.000000
-20.833000 0.000000
-20.808400 0.000000
-20.783800 0.000000
-20.759200 0.000000
-20.734600 0.000000
-20.709900 0.000000
-20.685300 0.000000
-20.660700 0.000000
-20.636100 0.000000
-20.611500 0.000000
-20.586900 0.000000
-20.562300 0.000000
-20.537700 0.000000
-20.513100 0.000000
-20.488400 0.000000
-20.463800 0.000000
-20.439200 0.000000
-20.414600 0.000000
-20.390000 0.000000
-20.365400 0.000000
-20.340800 0.000000
-20.316200 0.000000
-20.291500 0.000000
-20.266900 0.000000
-20.242300 0.000000
-20.217700 0.000000
-20.193100 0.000000
-20.168500 0.000000
-20.143900 0.000000
-20.119300 0.000000
-20.094600 0.000000
-20.070000 0.000000
-20.045400 0.000000
-20.020800 0.000000
-19.996200 0.000000
-19.971600 0.000000
-19.947000 0.000000
-19.922400 0.000000
-19.897700 0.000000
-19.873100 0.000000
-19.848500 0.000000
-19.823900 0.000000
-19.799300 0.000000
-19.774700 0.000000
-19.750100 0.000000
-19.725500 0.000000
-19.700900 0.000000
-19.676200 0.000000
-19.651600 0.000000
-19.627000 0.000000
-19.602400 0.000000
-19.577800 0.000000
-19.553200 0.000000
-19.528600 0.000000
-19.504000 0.000000
-19.479300 0.000000
-19.454700 0.000000
-19.430100 0.000000
-19.405500 0.000000
-19.380900 0.000000
-19.356300 0.000000
-19.331700 0.000000
-19.307100 0.000000
-19.282400 0.000000
-19.257800 0.000000
-19.233200 0.000000
-19.208600 0.000000
-19.184000 0.000000
-19.159400 0.000000
-19.134800 0.000000
-19.110200 0.000000
-19.085600 0.000000
-19.060900 0.000000
-19.036300 0.000000
-19.011700 0.000000
-18.987100 0.000000
-18.962500 0.000000
-18.937900 0.000000
-18.913300 0.000000
-18.888700 0.000000
-18.864000 0.000000
-18.839400 0.000000
-18.814800 0.000000
-18.790200 0.000000
-18.765600 0.000000
-18.741000 0.000000
-18.716400 0.000000
-18.691800 0.000000
-18.667100 0.000000
-18.642500 0.000000
-18.617900 0.000000
-18.593300 0.000000
-18.568700 0.000000
-18.544100 0.000000
-18.519500 0.000000
-18.494900 0.000000
-18.470300 0.000000
-18.445600 0.000000
-18.421000 0.000000
-18.396400 0.000000
-18.371800 0.000000
-18.347200 0.000000
-18.322600 0.000000
-18.298000 0.000000
-18.273400 0.000000
-18.248700 0.000000
-18.224100 0.000000
-18.199500 0.000000
-18.174900 0.000000
-18.150300 0.000000
-18.125700 0.000000
-18.101100 0.000000
-18.076500 0.000000
-18.051800 0.000000
-18.027200 0.000000
-18.002600 0.000000
-17.978000 0.000000
-17.953400 0.000000
-17.928800 0.000000
-17.904200 0.000000
-17.879600 0.000000
-17.855000 0.000000
-17.830300 0.000000
-17.805700 0.000000
-17.781100 0.000000
-17.756500 0.000000
-17.731900 0.000000
-17.707300 0.000000
-17.682700 0.000000
-17.658100 0.000000
-17.633400 0.000000
-17.608800 0.000000
-17.584200 0.000000
-17.559600 0.000000
-17.535000 0.000000
-17.510400 0.000000
-17.485800 0.000000
-17.461200 0.000000
-17.436500 0.000000
-17.411900 0.000000
-17.387300 0.000000
-17.362700 0.000000
-17.338100 0.000000
-17.313500 0.000000
-17.288900 0.000000
-17.264300 0.000000
-17.239700 0.000000
-17.215000 0.000000
-17.190400 0.000000
-17.165800 0.000000
-17.141200 0.000000
-17.116600 0.000000
-17.092000 0.000000
-17.067400 0.000000
-17.042800 0.000000
-17.018100 0.000000
-16.993500 0.000000
-16.968900 0.000000
-16.944300 0.000000
-16.919700 0.000000
-16.895100 0.000000
-16.870500 0.000000
-16.845900 0.000000
-16.821200 0.000000
-16.796600 0.000000
-16.772000 0.000000
-16.747400 0.000000
-16.722800 0.000000
-16.698200 0.000000
-16.673600 0.000000
-16.649000 0.000000
-16.624300 0.000000
-16.599700 0.000000
-16.575100 0.000000
-16.550500 0.000000
-16.525900 0.000000
-16.501300 0.000000
-16.476700 0.000000
-16.452100 0.000000
-16.427500 0.000000
-16.402800 0.000000
-16.378200 0.000000
-16.353600 0.000000
-16.329000 0.000000
-16.304400 0.000000
-16.279800 0.000000
-16.255200 0.000000
-16.230600 0.000000
-16.205900 0.000000
-16.181300 0.000000
-16.156700 0.000000
-16.132100 0.000000
-16.107500 0.000000
-16.082900 0.000000
-16.058300 0.000000
-16.033700 0.000000
-16.009000 0.000000
-15.984400 0.000000
-15.959800 0.000000
-15.935200 0.000000
-15.910600 0.000000
-15.886000 0.000000
-15.861400 0.000000
-15.836800 0.000000
-15.812200 0.000000
-15.787500 0.000000
-15.762900 0.000000
-15.738300 0.000000
-15.713700 0.000000
-15.689100 0.000000
-15.664500 0.000000
-15.639900 0.000000
-15.615300 0.000000
-15.590600 0.000000
-15.566000 0.000000
-15.541400 0.000000
-15.516800 0.000000
-15.492200 0.000000
-15.467600 0.000000
-15.443000 0.000000
-15.418400 0.000000
-15.393700 0.000000
-15.369100 0.000000
-15.344500 0.000000
-15.319900 0.000000
-15.295300 0.000000
-15.270700 0.000000
-15.246100 0.000000
-15.221500 0.000000
-15.196900 0.000000
-15.172200 0.000000
-15.147600 0.000000
-15.123000 0.000000
-15.098400 0.000000
-15.073800 0.000000
-15.049200 0.000000
-15.024600 0.000000
-15.000000 0.000000
-14.975300 0.000000
-14.950700 0.000000
-14.926100 0.000000
-14.901500 0.000000
-14.876900 0.000000
-14.852300 0.000000
-14.827700 0.000000
-14.803100 0.000000
-14.778400 0.000000
-14.753800 0.000000
-14.729200 0.000000
-14.704600 0.000000
-14.680000 0.000000
-14.655400 0.000000
-14.630800 0.000000
-14.606200 0.000000
-14.581600 0.000000
-14.556900 0.000000
-14.532300 0.000000
-14.507700 0.000000
-14.483100 0.000000
-14.458500 0.000000
-14.433900 0.000000
-14.409300 0.000000
-14.384700 0.000000
-14.360000 0.000000
-14.335400 0.000000
-14.310800 0.910300
-14.286200 3.965600
-14.261600 3.965700
-14.237000 3.965700
-14.212400 3.965700
-14.187800 3.965800
-14.163100 3.965800
-14.138500 3.965800
-14.113900 3.965900
-14.089300 3.965900
-14.064700 3.965900
-14.040100 3.966000
-14.015500 2.756700
-13.990900 1.613400
-13.966200 1.613400
-13.941600 1.613400
-13.917000 1.613400
-13.892400 1.613400
-13.867800 1.613400
-13.843200 1.613400
-13.818600 1.613400
-13.794000 1.613400
-13.769400 1.613400
-13.744700 1.613400
-13.720100 1.613400
-13.695500 1.613400
-13.670900 1.613400
-13.646300 1.613400
-13.621700 1.613400
-13.597100 1.613400
-13.572500 1.613400
-13.547800 1.613400
-13.523200 1.613400
-13.498600 1.613400
-13.474000 1.613400
-13.449400 1.613400
-13.424800 1.613400
-13.400200 1.613400
-13.375600 1.613400
-13.350900 1.613400
-13.326300 1.613400
-13.301700 1.419500
-13.277100 1.390500
-13.252500 1.390500
-13.227900 1.390500
-13.203300 1.390500
-13.178700 1.390500
-13.154100 1.390500
-13.129400 1.390500
-13.104800 1.390500
-13.080200 1.390500
-13.055600 1.390500
-13.031000 1.390500
-13.006400 1.390500
-12.981800 1.390500
-12.957200 1.390500
-12.932500 1.390500
-12.907900 1.390500
-12.883300 1.390500
-12.858700 1.390500
-12.834100 1.390500
-12.809500 1.390500
-12.784900 1.390500
-12.760300 1.390500
-12.735600 1.390500
-12.711000 1.390500
-12.686400 1.390500
-12.661800 1.390500
-12.637200 1.390500
-12.612600 1.390500
-12.588000 1.390500
-12.563400 1.390500
-12.538800 1.390500
-12.514100 1.390500
-12.489500 17.783900
-12.464900 0.000000
-12.440300 0.000000
-12.415700 0.000000
-12.391100 0.000000
-12.366500 0.000000
-12.341900 0.000000
-12.317200 0.000000
-12.292600 0.000000
-12.268000 0.000000
-12.243400 0.000000
-12.218800 0.000000
-12.194200 0.000000
-12.169600 0.000000
-12.145000 0.000000
-12.120300 0.000000
-12.095700 0.000000
-12.071100 0.000000
-12.046500 0.000000
-12.021900 0.000000
-11.997300 0.000000
-11.972700 0.000000
-11.948100 0.000000
-11.923500 0.000000
-11.898800 0.000000
-11.874200 0.000000
-11.849600 0.000000
-11.825000 0.000000
-11.800400 1.694300
-11.775800 13.244900
-11.751200 4.811400
-11.726600 2.152700
-11.701900 2.152800
-11.677300 2.152800
-11.652700 2.152800
-11.628100 2.152800
-11.603500 2.152800
-11.578900 2.152800
-11.554300 2.152800
-11.529700 2.152800
-11.505000 2.152800
-11.480400 2.152800
-11.455800 2.152900
-11.431200 2.152900
-11.406600 2.152900
-11.382000 2.152900
-11.357400 2.152900
-11.332800 2.152900
-11.308100 2.152900
-11.283500 2.152900
-11.258900 2.230700
-11.234300 3.027600
-11.209700 3.221100
-11.185100 3.221200
-11.160500 3.221200
-11.135900 3.221200
-11.111300 3.221300
-11.086600 3.221300
-11.062000 3.221400
-11.037400 3.221500
-11.012800 3.221500
-10.988200 3.221600
-10.963600 3.221700
-10.939000 3.221800
-10.914400 3.221800
-10.889700 6.271800
-10.865100 8.627400
-10.840500 8.626500
-10.815900 8.625600
-10.791300 8.624700
-10.766700 8.375600
-10.742100 0.000000
-10.717500 0.000000
-10.692800 0.000000
-10.668200 0.000000
-10.643600 0.000000
-10.619000 0.000000
-10.594400 0.000000
-10.569800 0.000000
-10.545200 0.000000
-10.520600 0.000000
-10.496000 0.000000
-10.471300 0.000000
-10.446700 0.000000
-10.422100 0.000000
-10.397500 0.000000
-10.372900 0.000000
-10.348300 0.000000
-10.323700 0.000000
-10.299100 0.000000
-10.274400 0.000000
-10.249800 0.000000
-10.225200 0.000000
-10.200600 0.000000
-10.176000 0.000000
-10.151400 0.000000
-10.126800 0.000000
-10.102200 0.000000
-10.077500 0.000000
-10.052900 0.000000
-10.028300 0.000000
-10.003700 0.000000
-9.979100 0.000000
-9.954500 0.000000
-9.929900 0.000000
-9.905300 0.000000
-9.880700 0.000000
-9.856000 0.000000
-9.831400 0.000000
-9.806800 0.000000
-9.782200 0.000000
-9.757600 0.000000
-9.733000 0.000000
-9.708400 0.000000
-9.683800 0.000000
-9.659100 0.000000
-9.634500 0.000000
-9.609900 0.000000
-9.585300 0.000000
-9.560700 0.000000
-9.536100 0.000000
-9.511500 0.000000
-9.486900 0.000000
-9.462200 0.000000
-9.437600 0.000000
-9.413000 0.000000
-9.388400 0.000000
-9.363800 0.000000
-9.339200 0.000000
-9.314600 0.000000
-9.290000 0.000000
-9.265400 0.000000
-9.240700 0.000000
-9.216100 0.000000
-9.191500 0.000000
-9.166900 0.000000
-9.142300 0.000000
-9.117700 0.000000
-9.093100 0.000000
-9.068500 0.000000
-9.043800 0.000000
-9.019200 0.000000
-8.994600 0.000000
-8.970000 0.000000
-8.945400 0.000000
-8.920800 0.000000
-8.896200 0.000000
-8.871600 0.000000
-8.846900 0.000000
-8.822300 0.000000
-8.797700 0.000000
-8.773100 0.000000
-8.748500 0.000000
-8.723900 0.000000
-8.699300 0.000000
-8.674700 0.000000
-8.650000 0.000000
-8.625400 0.000000
-8.600800 0.000000
-8.576200 0.000000
-8.551600 0.000000
-8.527000 0.000000
-8.502400 0.000000
-8.477800 0.245000
-8.453200 0.671900
-8.428500 1.124300
-8.403900 1.664200
-8.379300 2.257300
-8.354700 2.354100
-8.330100 2.399600
-8.305500 2.432700
-8.280900 2.396900
-8.256300 2.398700
-8.231600 2.477500
-8.207000 2.539800
-8.182400 2.580800
-8.157800 2.609200
-8.133200 2.652500
-8.108600 2.710100
-8.084000 2.781100
-8.059400 2.867200
-8.034700 2.935000
-8.010100 2.971300
-7.985500 3.019400
-7.960900 3.114400
-7.936300 3.260500
-7.911700 3.485600
-7.887100 3.765900
-7.862500 4.050700
-7.837900 4.228900
-7.813200 4.262200
-7.788600 4.146800
-7.764000 3.897700
-7.739400 3.569500
-7.714800 3.275400
-7.690200 3.057800
-7.665600 2.911000
-7.641000 2.834000
-7.616300 2.800000
-7.591700 2.766500
-7.567100 2.730500
-7.542500 2.686100
-7.517900 3.613400
-7.493300 3.706400
-7.468700 3.579700
-7.444100 3.587500
-7.419400 2.770700
-7.394800 2.644400
-7.370200 2.532500
-7.345600 2.434200
-7.321000 2.276700
-7.296400 2.148900
-7.271800 2.035400
-7.247200 1.908500
-7.222600 2.792000
-7.197900 6.047600
-7.173300 8.135500
-7.148700 8.309700
-7.124100 9.117000
-7.099500 9.066000
-7.074900 12.420200
-7.050300 17.243900
-7.025700 11.389400
-7.001000 10.468000
-6.976400 8.982200
-6.951800 8.359600
-6.927200 7.689800
-6.902600 6.978200
-6.878000 6.306500
-6.853400 8.110500
-6.828800 5.927100
-6.804100 6.731300
-6.779500 7.120800
-6.754900 7.976700
-6.730300 8.753500
-6.705700 7.084900
-6.681100 6.727500
-6.656500 6.616900
-6.631900 10.199100
-6.607300 11.116600
-6.582600 9.886700
-6.558000 9.876400
-6.533400 10.420500
-6.508800 12.489300
-6.484200 11.324000
-6.459600 9.982900
-6.435000 9.701200
-6.410400 12.573700
-6.385700 14.759800
-6.361100 12.515600
-6.336500 11.549200
-6.311900 12.022400
-6.287300 10.175300
-6.262700 6.725500
-6.238100 4.377200
-6.213500 3.456400
-6.188800 2.902600
-6.164200 2.888200
-6.139600 2.860900
-6.115000 2.714800
-6.090400 2.619400
-6.065800 2.531300
-6.041200 2.435900
-6.016600 2.333200
-5.991900 2.261500
-5.967300 2.217200
-5.942700 2.185000
-5.918100 2.162200
-5.893500 2.150400
-5.868900 2.148900
-5.844300 2.149500
-5.819700 2.150300
-5.795100 2.164500
-5.770400 2.199700
-5.745800 2.244500
-5.721200 2.295600
-5.696600 2.341500
-5.672000 2.620500
-5.647400 2.987000
-5.622800 3.578200
-5.598200 5.495700
-5.573500 7.105700
-5.548900 7.903400
-5.524300 8.160900
-5.499700 10.321700
-5.475100 8.597600
-5.450500 8.338900
-5.425900 7.263200
-5.401300 7.287900
-5.376600 7.437500
-5.352000 11.174500
-5.327400 12.685700
-5.302800 11.902100
-5.278200 10.039400
-5.253600 9.219100
-5.229000 14.389600
-5.204400 12.826500
-5.179800 9.506000
-5.155100 8.523700
-5.130500 8.665200
-5.105900 15.155700
-5.081300 11.554200
-5.056700 9.160600
-5.032100 7.845900
-5.007500 7.052200
-4.982900 6.805100
-4.958200 6.334900
-4.933600 5.556600
-4.909000 4.582100
-4.884400 3.281300
-4.859800 2.300400
-4.835200 1.906900
-4.810600 1.836900
-4.786000 1.837000
-4.761300 1.837100
-4.736700 1.837100
-4.712100 1.837200
-4.687500 1.837300
-4.662900 1.837400
-4.638300 1.837500
-4.613700 1.842700
-4.589100 1.898900
-4.564500 2.048500
-4.539800 2.196500
-4.515200 2.213200
-4.490600 2.501200
-4.466000 2.583700
-4.441400 2.584000
-4.416800 2.584100
-4.392200 2.584200
-4.367600 2.584300
-4.342900 2.584500
-4.318300 2.584600
-4.293700 2.584700
-4.269100 2.584900
-4.244500 2.585000
-4.219900 2.585200
-4.195300 2.585300
-4.170700 2.585500
-4.146000 2.585600
-4.121400 3.432200
-4.096800 7.507300
-4.072200 9.932200
-4.047600 12.330300
-4.023000 10.685700
-3.998400 4.643600
-3.973800 2.047400
-3.949200 0.076100
-3.924500 0.000000
-3.899900 0.000000
-3.875300 0.000000
-3.850700 0.000000
-3.826100 0.220300
-3.801500 3.046000
-3.776900 4.905700
-3.752300 6.211500
-3.727600 7.508700
-3.703000 8.904200
-3.678400 10.354200
-3.653800 9.499000
-3.629200 8.066800
-3.604600 7.129200
-3.580000 6.575900
-3.555400 6.122100
-3.530700 5.816900
-3.506100 5.672000
-3.481500 5.555100
-3.456900 5.465700
-3.432300 5.903400
-3.407700 6.024500
-3.383100 6.105000
-3.358500 6.136400
-3.333800 6.096600
-3.309200 6.330700
-3.284600 5.897400
-3.260000 5.255100
-3.235400 4.495200
-3.210800 4.134200
-3.186200 2.772600
-3.161600 3.045400
-3.137000 3.094400
-3.112300 3.369300
-3.087700 4.831200
-3.063100 6.886600
-3.038500 7.743500
-3.013900 8.552800
-2.989300 8.634500
-2.964700 7.242700
-2.940100 6.846000
-2.915400 7.560400
-2.890800 8.389500
-2.866200 9.466700
-2.841600 9.990100
-2.817000 11.831800
-2.792400 14.766600
-2.767800 17.947800
-2.743200 18.929200
-2.718500 6.589500
-2.693900 0.018300
-2.669300 0.642000
-2.644700 1.531400
-2.620100 2.320300
-2.595500 2.906600
-2.570900 3.230700
-2.546300 3.564200
-2.521700 3.813000
-2.497000 3.919100
-2.472400 3.820100
-2.447800 3.793100
-2.423200 4.141900
-2.398600 5.513500
-2.374000 6.490300
-2.349400 7.386800
-2.324800 8.139100
-2.300100 8.935000
-2.275500 10.199900
-2.250900 10.560900
-2.226300 9.885200
-2.201700 9.443800
-2.177100 9.415800
-2.152500 16.197200
-2.127900 10.198100
-2.103200 8.148000
-2.078600 4.159200
-2.054000 4.822600
-2.029400 2.902500
-2.004800 6.184500
-1.980200 13.721000
-1.955600 14.556400
-1.931000 14.318400
-1.906400 16.335800
-1.881700 20.299100
-1.857100 27.156500
-1.832500 12.708800
-1.807900 12.845500
-1.783300 7.584800
-1.758700 4.062500
-1.734100 2.567500
-1.709500 1.825100
-1.684800 1.029300
-1.660200 0.302400
-1.635600 0.047400
-1.611000 0.000000
-1.586400 0.000000
-1.561800 0.000000
-1.537200 0.000000
-1.512600 0.000000
-1.487900 0.000000
-1.463300 0.000000
-1.438700 0.000000
-1.414100 0.000000
-1.389500 0.000000
-1.364900 0.000000
-1.340300 0.000000
-1.315700 0.000000
-1.291100 0.000000
-1.266400 0.000000
-1.241800 0.000000
-1.217200 0.000000
-1.192600 0.000000
-1.168000 0.000000
-1.143400 0.000000
-1.118800 0.000000
-1.094200 0.000000
-1.069500 0.000000
-1.044900 0.000000
-1.020300 0.000000
-0.995700 0.000000
-0.971100 0.000000
-0.946500 0.000000
-0.921900 0.000000
-0.897300 0.000000
-0.872600 0.000000
-0.848000 0.000000
-0.823400 0.000000
-0.798800 0.000000
-0.774200 0.000000
-0.749600 0.000000
-0.725000 0.000000
-0.700400 0.000000
-0.675700 0.000000
-0.651100 0.000000
-0.626500 0.000000
-0.601900 0.000000
-0.577300 0.000000
-0.552700 0.000000
-0.528100 0.000000
-0.503500 0.000000
-0.478900 0.000000
-0.454200 0.000000
-0.429600 0.000000
-0.405000 0.000000
-0.380400 0.000000
-0.355800 0.000000
-0.331200 0.000000
-0.306600 0.000000
-0.282000 0.000000
-0.257300 0.000000
-0.232700 0.000000
-0.208100 0.000000
-0.183500 0.000000
-0.158900 0.000000
-0.134300 0.000000
-0.109700 0.000000
-0.085100 0.000000
-0.060400 0.000000
-0.035800 0.000000
-0.011200 0.000000
0.013400 0.000000
0.038000 0.000000
0.062600 0.000000
0.087200 0.000000
0.111800 0.000000
0.136400 0.000000
0.161100 0.000000
0.185700 0.000000
0.210300 0.000000
0.234900 0.000000
0.259500 0.000000
0.284100 0.000000
0.308700 0.000000
0.333300 0.000000
0.358000 0.000000
0.382600 0.000000
0.407200 0.000000
0.431800 0.000000
0.456400 0.000000
0.481000 0.000000
0.505600 0.000000
0.530200 0.000000
0.554900 0.000000
0.579500 0.000000
0.604100 0.000000
0.628700 0.000000
0.653300 0.000000
0.677900 0.000000
0.702500 0.000000
0.727100 0.000000
0.751700 0.000000
0.776400 0.000000
0.801000 0.000000
0.825600 0.000000
0.850200 0.000000
0.874800 0.000000
0.899400 0.000000
0.924000 0.000000
0.948600 0.000000
0.973300 0.000000
0.997900 0.000000
1.022500 0.000000
1.047100 0.000000
1.071700 0.000000
1.096300 0.000000
1.120900 0.000000
1.145500 0.000000
1.170200 0.000000
1.194800 0.000000
1.219400 0.000000
1.244000 0.000000
1.268600 0.000000
1.293200 0.000000
1.317800 0.000000
1.342400 0.000000
1.367000 0.000000
1.391700 0.000000
1.416300 0.000000
1.440900 0.000000
1.465500 0.000000
1.490100 0.000000
1.514700 0.000000
1.539300 0.000000
1.563900 0.000000
1.588600 0.000000
1.613200 0.000000
1.637800 0.000000
1.662400 0.000000
1.687000 0.000000
1.711600 0.000000
1.736200 0.000000
1.760800 0.000000
1.785500 0.000000
1.810100 0.000000
1.834700 0.000000
1.859300 0.000000
1.883900 0.000000
1.908500 0.000000
1.933100 0.000000
1.957700 0.000000
1.982400 0.000000
2.007000 0.000000
2.031600 0.000000
2.056200 0.000000
2.080800 0.000000
2.105400 0.000000
2.130000 0.000000
2.154600 0.000000
2.179200 0.000000
2.203900 0.000000
2.228500 0.000000
2.253100 0.000000
2.277700 0.000000
2.302300 0.000000
2.326900 0.000000
2.351500 0.000000
2.376100 0.000000
2.400800 0.000000
2.425400 0.000000
2.450000 0.000000
2.474600 0.000000
2.499200 0.000000
2.523800 0.000000
2.548400 0.000000
2.573000 0.000000
2.597700 0.000000
2.622300 0.000000
2.646900 0.168300
2.671500 0.567200
2.696100 1.047700
2.720700 1.908900
2.745300 3.186500
2.769900 5.348300
2.794500 6.350300
2.819200 6.359500
2.843800 6.368900
2.868400 6.125200
2.893000 5.697900
2.917600 4.240000
2.942200 3.027700
2.966800 2.473500
2.991400 2.473300
3.016100 2.473100
3.040700 2.473000
3.065300 2.472800
3.089900 2.472700
3.114500 2.472600
3.139100 2.472500
3.163700 2.472300
3.188300 2.472200
3.213000 2.472100
3.237600 2.472000
3.262200 2.471900
3.286800 2.471800
3.311400 2.470800
3.336000 2.431900
3.360600 2.337500
3.385200 2.168500
3.409800 1.922400
3.434500 1.922000
3.459100 1.921600
3.483700 1.921200
3.508300 1.920800
3.532900 1.920300
3.557500 1.919900
3.582100 1.919500
3.606700 1.919100
3.631400 1.918700
3.656000 1.918300
3.680600 1.917900
3.705200 1.917500
3.729800 1.917100
3.754400 1.916700
3.779000 1.916300
3.803600 1.915800
3.828300 1.915400
3.852900 1.915000
3.877500 2.968800
3.902100 3.717400
3.926700 4.193000
3.951300 5.174200
3.975900 5.382500
4.000500 3.806900
4.025100 3.000700
4.049800 2.168900
4.074400 0.986400
4.099000 0.003400
4.123600 0.010900
4.148200 0.022800
4.172800 0.039100
4.197400 0.059600
4.222000 0.084500
4.246700 0.113700
4.271300 0.147200
4.295900 0.185100
4.320500 0.227300
4.345100 0.274800
4.369700 0.330000
4.394300 0.391200
4.418900 0.453800
4.443600 0.515100
4.468200 1.476300
4.492800 2.664600
4.517400 3.339600
4.542000 4.067600
4.566600 5.209100
4.591200 4.827700
4.615800 4.426500
4.640500 4.348500
4.665100 4.588900
4.689700 4.426300
4.714300 4.215200
4.738900 3.960900
4.763500 3.345400
4.788100 3.407800
4.812700 3.472500
4.837300 3.539600
4.862000 3.608300
4.886600 3.679100
4.911200 3.760600
4.935800 3.860900
4.960400 3.980100
4.985000 4.118200
5.009600 4.275200
5.034200 4.042300
5.058900 3.696900
5.083500 3.441200
5.108100 3.148400
5.132700 2.892600
5.157300 2.793000
5.181900 2.743800
5.206500 2.728800
5.231100 2.754000
5.255800 2.816100
5.280400 2.897100
5.305000 2.984800
5.329600 3.100200
5.354200 3.239600
5.378800 3.421100
5.403400 3.673700
5.428000 3.964800
5.452600 4.401400
5.477300 5.327900
5.501900 5.831000
5.526500 6.088400
5.551100 6.597300
5.575700 6.673900
5.600300 6.805500
5.624900 6.788400
5.649500 5.901400
5.674200 4.747500
5.698800 4.168700
5.723400 3.737100
5.748000 3.531000
5.772600 3.219500
5.797200 2.899400
5.821800 2.639700
5.846400 2.565500
5.871100 2.542300
5.895700 2.547300
5.920300 3.058000
5.944900 2.987200
5.969500 2.950500
5.994100 3.063800
6.018700 3.183500
6.043300 3.274700
6.067900 3.058200
6.092600 2.838900
6.117200 2.823400
6.141800 2.800700
6.166400 2.409000
6.191000 2.427400
6.215600 2.383800
6.240200 2.309800
6.264800 2.202200
6.289500 2.097200
6.314100 2.012100
6.338700 1.947900
6.363300 1.843400
6.387900 1.741900
6.412500 1.656200
6.437100 1.621400
6.461700 1.586700
6.486400 1.551900
6.511000 1.517100
6.535600 1.475500
6.560200 1.425400
6.584800 1.398400
6.609400 1.356100
6.634000 1.314600
6.658600 1.295500
6.683200 1.276300
6.707900 1.257100
6.732500 1.237800
6.757100 1.218500
6.781700 1.261100
6.806300 1.275000
6.830900 1.331100
6.855500 1.421600
6.880100 1.550300
6.904800 1.618200
6.929400 1.693800
6.954000 1.797500
6.978600 1.915200
7.003200 2.037700
7.027800 2.038800
7.052400 2.037900
7.077000 2.004000
7.101700 3.334800
7.126300 1.697100
7.150900 1.738900
7.175500 2.729000
7.200100 1.231600
7.224700 1.229000
7.249300 1.272600
7.273900 1.316400
7.298500 1.360300
7.323200 1.404400
7.347800 1.449000
7.372400 1.498900
7.397000 1.556300
7.421600 1.621200
7.446200 1.803800
7.470800 1.906300
7.495400 2.016200
7.520100 2.230300
7.544700 2.393800
7.569300 2.512100
7.593900 2.640200
7.618500 2.778300
7.643100 2.926200
7.667700 3.083900
7.692300 4.580400
7.717000 3.265100
7.741600 5.830900
7.766200 6.462500
7.790800 4.924700
7.815400 4.126100
7.840000 4.042000
7.864600 3.963800
7.889200 3.860700
7.913900 3.543800
7.938500 3.425000
7.963100 3.335200
7.987700 3.260600
8.012300 3.144300
8.036900 3.005600
8.061500 2.929600
8.086100 2.962500
8.110700 3.104100
8.135400 3.291300
8.160000 3.564700
8.184600 4.148400
8.209200 4.359800
8.233800 4.494900
8.258400 4.611200
8.283000 4.629800
8.307600 4.670300
8.332300 4.749100
8.356900 4.834000
8.381500 4.910700
8.406100 4.490900
8.430700 4.579600
8.455300 4.882000
8.479900 5.199200
8.504500 5.627400
8.529200 5.741500
8.553800 5.655100
8.578400 5.424700
8.603000 5.157300
8.627600 4.790600
8.652200 4.514400
8.676800 4.656400
8.701400 4.372900
8.726000 3.996000
8.750700 3.810100
8.775300 3.512400
8.799900 3.175400
8.824500 2.884700
8.849100 2.807600
8.873700 2.775400
8.898300 2.812300
8.922900 3.023600
8.947600 3.248400
8.972200 3.327100
8.996800 3.338600
9.021400 3.348300
9.046000 3.315400
9.070600 3.297500
9.095200 3.112300
9.119800 2.903600
9.144500 3.023300
9.169100 3.209400
9.193700 3.339300
9.218300 3.404200
9.242900 3.474100
9.267500 3.539200
9.292100 3.578300
9.316700 3.363800
9.341300 3.414700
9.366000 3.463500
9.390600 3.504500
9.415200 3.512600
9.439800 3.479200
9.464400 3.460600
9.489000 3.734700
9.513600 3.665500
9.538200 3.596900
9.562900 3.530400
9.587500 3.444800
9.612100 3.342600
9.636700 2.973100
9.661300 2.930100
9.685900 2.885900
9.710500 2.841900
9.735100 2.821600
9.759800 2.816600
9.784400 2.852300
9.809000 2.883500
9.833600 2.910300
9.858200 2.938400
9.882800 2.993100
9.907400 3.048600
9.932000 3.100100
9.956600 3.144100
9.981300 4.089200
10.005900 3.922100
10.030500 2.912100
10.055100 2.950200
10.079700 2.881700
10.104300 2.785600
10.128900 2.764900
10.153500 3.592600
10.178200 3.524000
10.202800 3.462200
10.227400 3.491600
10.252000 3.300400
10.276600 2.622300
10.301200 2.762700
10.325800 2.904600
10.350400 3.614100
10.375100 4.118300
10.399700 4.223100
10.424300 4.077300
10.448900 3.483700
10.473500 3.451200
10.498100 3.207200
10.522700 3.016100
10.547300 2.825100
10.572000 2.619000
10.596600 2.561900
10.621200 2.699400
10.645800 3.406000
10.670400 4.076300
10.695000 4.829700
10.719600 5.465400
10.744200 6.351700
10.768800 9.090000
10.793500 9.775600
10.818100 9.687000
10.842700 6.560200
10.867300 6.029800
10.891900 6.118200
10.916500 5.915600
10.941100 6.079000
10.965700 5.327700
10.990400 4.354900
11.015000 4.029300
11.039600 3.787800
11.064200 3.629100
11.088800 3.493300
11.113400 3.493300
11.138000 4.288700
11.162600 4.689400
11.187300 5.319200
11.211900 5.987900
11.236500 6.534400
11.261100 7.039500
11.285700 8.056100
11.310300 9.057600
11.334900 9.522400
11.359500 8.979200
11.384100 7.375900
11.408800 7.331200
11.433400 7.119600
11.458000 6.960700
11.482600 6.672200
11.507200 6.325000
11.531800 5.910600
11.556400 5.528000
11.581000 5.236900
11.605700 4.225700
11.630300 3.620900
11.654900 3.154700
11.679500 2.981100
11.704100 2.892000
11.728700 2.828800
11.753300 3.215100
11.777900 4.137900
11.802600 6.246700
11.827200 6.884300
11.851800 5.753200
11.876400 5.753500
11.901000 5.721500
11.925600 5.605100
11.950200 6.490000
11.974800 6.869800
11.999400 7.136100
12.024100 6.760800
12.048700 6.181100
12.073300 5.808500
12.097900 5.527600
12.122500 5.221600
12.147100 5.236300
12.171700 5.319700
12.196300 5.991400
12.221000 6.040800
12.245600 5.443200
12.270200 5.247200
12.294800 5.003300
12.319400 4.834700
12.344000 4.647700
12.368600 4.905500
12.393200 5.038900
12.417900 5.265800
12.442500 5.644600
12.467100 6.321700
12.491700 7.054600
12.516300 7.227400
12.540900 7.350800
12.565500 6.883400
12.590100 6.108800
12.614700 5.821600
12.639400 5.613000
12.664000 5.408300
12.688600 5.978400
12.713200 5.871100
12.737800 5.864100
12.762400 5.948600
12.787000 6.049000
12.811600 6.128600
12.836300 6.015300
12.860900 5.763100
12.885500 5.460600
12.910100 5.262900
12.934700 5.020200
12.959300 4.752500
12.983900 4.522200
13.008500 4.406700
13.033200 4.408400
13.057800 4.377600
13.082400 4.175500
13.107000 3.998700
13.131600 3.856000
13.156200 3.639400
13.180800 3.883500
13.205400 3.741300
13.230100 3.540100
13.254700 3.287000
13.279300 3.029000
13.303900 2.818300
13.328500 3.044400
13.353100 3.397600
13.377700 3.487800
13.402300 3.579000
13.426900 3.579600
13.451600 3.275000
13.476200 2.909400
13.500800 2.512100
13.525400 2.404500
13.550000 2.469700
13.574600 2.572000
13.599200 2.723600
13.623800 2.865900
13.648500 4.048000
13.673100 4.899800
13.697700 5.769700
13.722300 5.469200
13.746900 4.490000
13.771500 2.761400
13.796100 2.203400
13.820700 2.113000
13.845400 2.050400
13.870000 2.016400
13.894600 2.192600
13.919200 2.612700
13.943800 3.180200
13.968400 3.848600
13.993000 4.516500
14.017600 5.190700
14.042200 5.681000
14.066900 6.052700
14.091500 11.833800
14.116100 6.580800
14.140700 6.546500
14.165300 6.278700
14.189900 4.869200
14.214500 4.074300
14.239100 3.597900
14.263800 3.379200
14.288400 3.299300
14.313000 3.324700
14.337600 3.426700
14.362200 3.490100
14.386800 3.460800
14.411400 3.447000
14.436000 5.112800
14.460700 4.661000
14.485300 4.834300
14.509900 5.039500
14.534500 5.194700
14.559100 5.300100
14.583700 5.343800
14.608300 5.153100
14.632900 4.728600
14.657500 4.574500
14.682200 4.325700
14.706800 4.189600
14.731400 4.088700
14.756000 4.027600
14.780600 3.528000
14.805200 3.352900
14.829800 3.337600
14.854400 3.403500
14.879100 3.558000
14.903700 3.796900
14.928300 4.129500
14.952900 4.527500
14.977500 4.825300
15.002100 4.765000
15.026700 3.965500
15.051300 4.172500
15.076000 4.683200
15.100600 5.161400
15.125200 5.513900
15.149800 5.318700
15.174400 4.688800
15.199000 4.255300
15.223600 4.419400
15.248200 4.198400
15.272800 3.785900
15.297500 2.925400
15.322100 2.795400
15.346700 2.854400
15.371300 4.552200
15.395900 3.743200
15.420500 4.437900
15.445100 4.589800
15.469700 4.725600
15.494400 4.837700
15.519000 4.880900
15.543600 4.748200
15.568200 4.210900
15.592800 3.981000
15.617400 3.626000
15.642000 3.567700
15.666600 3.508600
15.691300 3.448500
15.715900 3.387200
15.740500 3.323400
15.765100 3.260800
15.789700 3.211900
15.814300 3.339200
15.838900 3.521700
15.863500 3.649100
15.888200 3.547700
15.912800 3.474700
15.937400 3.421400
15.962000 3.365500
15.986600 3.319500
16.011200 3.300100
16.035800 3.321100
16.060400 3.383700
16.085000 3.455700
16.109700 3.525300
16.134300 3.544300
16.158900 3.551900
16.183500 3.557000
16.208100 3.553900
16.232700 3.535500
16.257300 3.456000
16.281900 3.307700
16.306600 3.052900
16.331200 2.990800
16.355800 2.971700
16.380400 2.906700
16.405000 2.816100
16.429600 2.788900
16.454200 3.024700
16.478800 3.337200
16.503500 3.757000
16.528100 4.296900
16.552700 5.660800
16.577300 5.924900
16.601900 6.271700
16.626500 5.952500
16.651100 6.054000
16.675700 6.168600
16.700300 6.315600
16.725000 6.406400
16.749600 6.528000
16.774200 6.338800
16.798800 6.446800
16.823400 6.381300
16.848000 6.369600
16.872600 6.735700
16.897200 7.228400
16.921900 7.564000
16.946500 7.655200
16.971100 7.601100
16.995700 7.268000
17.020300 6.396800
17.044900 6.125500
17.069500 5.889500
17.094100 5.734200
17.118800 5.662300
17.143400 5.661200
17.168000 5.731500
17.192600 5.873800
17.217200 6.131200
17.241800 7.136400
17.266400 6.963500
17.291000 6.656200
17.315600 6.278100
17.340300 6.010100
17.364900 5.797300
17.389500 5.628900
17.414100 5.565100
17.438700 5.679100
17.463300 5.728000
17.487900 5.786500
17.512500 5.700100
17.537200 5.595000
17.561800 5.512700
17.586400 5.452000
17.611000 5.392500
17.635600 5.399900
17.660200 5.343600
17.684800 5.278400
17.709400 5.038900
17.734100 4.593300
17.758700 4.539300
17.783300 4.516000
17.807900 4.583300
17.832500 4.775700
17.857100 5.253100
17.881700 5.907900
17.906300 6.487100
17.930900 6.237900
17.955600 6.338100
17.980200 7.708200
18.004800 7.586700
18.029400 7.292000
18.054000 6.813200
18.078600 6.231800
18.103200 5.601600
18.127800 4.747200
18.152500 4.320300
18.177100 3.839800
18.201700 3.388100
18.226300 3.122200
18.250900 2.950000
18.275500 2.936500
18.300100 3.057800
18.324700 3.246500
18.349400 3.482100
18.374000 3.611700
18.398600 3.512300
18.423200 3.527500
18.447800 3.499600
18.472400 3.468000
18.497000 3.435100
18.521600 3.382800
18.546300 3.308900
18.570900 3.227100
18.595500 3.137600
18.620100 3.040200
18.644700 2.930300
18.669300 2.772800
18.693900 2.560400
18.718500 2.256600
18.743100 1.998400
18.767800 1.822100
18.792400 1.738100
18.817000 1.659300
18.841600 1.807600
18.866200 2.042100
18.890800 1.547500
18.915400 1.465800
18.940000 1.388200
18.964700 1.314600
18.989300 1.245200
19.013900 1.179800
19.038500 1.118600
19.063100 1.061400
19.087700 1.008300
19.112300 1.009800
19.136900 0.956900
19.161600 0.905600
19.186200 0.856100
19.210800 0.808200
19.235400 0.762100
19.260000 0.717600
19.284600 0.672400
19.309200 0.627100
19.333800 0.583700
19.358400 0.542100
19.383100 0.502300
19.407700 0.464200
19.432300 0.428000
19.456900 0.393600
19.481500 0.360700
19.506100 0.329100
19.530700 0.250000
19.555300 0.233300
19.580000 0.217200
19.604600 0.201600
19.629200 0.186500
19.653800 0.171800
19.678400 0.157600
19.703000 0.144000
19.727600 0.130800
19.752200 0.118100
19.776900 0.105900
19.801500 0.094200
19.826100 0.083000
19.850700 0.072300
19.875300 0.062000
19.899900 0.052300
19.924500 0.000000
19.949100 0.000000
19.973700 0.000000
19.998400 0.000000
20.023000 0.000000
20.047600 0.000000
20.072200 0.000000
20.096800 0.000000
20.121400 0.000000
20.146000 0.000000
20.170600 0.000000
20.195300 0.000000
20.219900 0.000000
20.244500 0.000000
20.269100 0.000000
20.293700 0.000000
20.318300 0.000000
20.342900 0.000000
20.367500 0.000000
20.392200 0.000000
20.416800 0.000000
20.441400 0.000000
20.466000 0.000000
20.490600 0.000000
20.515200 0.000000
20.539800 0.000000
20.564400 0.000000
20.589000 0.000000
20.613700 0.000000
20.638300 0.000000
20.662900 0.000000
20.687500 0.000000
20.712100 0.000000
20.736700 0.000000
20.761300 0.000000
20.785900 0.000000
20.810600 0.000000
20.835200 0.000000
20.859800 0.000000
20.884400 0.000000
20.909000 0.000000
20.933600 0.000000
20.958200 0.000000
20.982800 0.000000
21.007500 0.000000
21.032100 0.000000
21.056700 0.000000
21.081300 0.000000
21.105900 0.000000
21.130500 0.000000
21.155100 0.000000
21.179700 0.000000
21.204400 0.000000
21.229000 0.000000
21.253600 0.000000
21.278200 0.000000
21.302800 0.000000
21.327400 0.000000
21.352000 0.000000
21.376600 0.000000
21.401200 0.000000
21.425900 0.000000
21.450500 0.000000
21.475100 0.000000
21.499700 0.000000
21.524300 0.000000
21.548900 0.000000
21.573500 0.000000
21.598100 0.000000
21.622800 0.000000
21.647400 0.000000
21.672000 0.000000
21.696600 0.000000
21.721200 0.000000
21.745800 0.000000
21.770400 0.000000
21.795000 0.000000
21.819700 0.000000
21.844300 0.000000
21.868900 0.000000
21.893500 0.000000
21.918100 0.000000
21.942700 0.000000
21.967300 0.000000
21.991900 0.000000
22.016500 0.000000
22.041200 0.000000
22.065800 0.000000
22.090400 0.000000
22.115000 0.000000
22.139600 0.000000
e
