set title 'mp-13 - Density of States'
set xlabel 'Energy (eV)'
set ylabel 'DOS (states/eV)'
set grid
set xrange [-10:10]
set yrange [0:3.107]
set xzeroaxis lt -1
set terminal png size 800,600
set output 'mp-13_dos_gnuplot.png'
plot '-' using 1:2 with lines title 'DOS'
-54.106500 0.000000
-54.050300 0.000000
-53.994200 0.000000
-53.938100 0.000000
-53.881900 0.000000
-53.825800 0.000000
-53.769700 0.000000
-53.713500 0.000000
-53.657400 0.000000
-53.601200 0.000000
-53.545100 0.000000
-53.489000 0.000000
-53.432800 0.000000
-53.376700 0.000000
-53.320500 0.000000
-53.264400 0.000000
-53.208300 0.000000
-53.152100 0.000000
-53.096000 0.000000
-53.039900 0.000000
-52.983700 0.000000
-52.927600 0.000000
-52.871400 0.000000
-52.815300 0.000000
-52.759200 0.000000
-52.703000 0.000000
-52.646900 0.000000
-52.590800 0.000000
-52.534600 0.000000
-52.478500 0.000000
-52.422300 0.000000
-52.366200 0.000000
-52.310100 0.000000
-52.253900 0.000000
-52.197800 0.000000
-52.141600 0.000000
-52.085500 0.000000
-52.029400 0.000000
-51.973200 0.000000
-51.917100 0.000000
-51.861000 0.000000
-51.804800 0.000000
-51.748700 0.000000
-51.692500 0.000000
-51.636400 0.000000
-51.580300 0.000000
-51.524100 0.000000
-51.468000 0.000000
-51.411800 0.000000
-51.355700 0.000000
-51.299600 0.000000
-51.243400 0.000000
-51.187300 0.000000
-51.131200 0.000000
-51.075000 0.000000
-51.018900 0.000000
-50.962700 0.000000
-50.906600 0.000000
-50.850500 0.000000
-50.794300 0.000000
-50.738200 0.000000
-50.682000 0.000000
-50.625900 0.000000
-50.569800 0.000000
-50.513600 0.000000
-50.457500 0.000000
-50.401400 0.000000
-50.345200 0.000000
-50.289100 0.000000
-50.232900 0.000000
-50.176800 0.000000
-50.120700 0.000000
-50.064500 0.000000
-50.008400 0.000000
-49.952300 0.000000
-49.896100 0.000000
-49.840000 0.000000
-49.783800 0.000000
-49.727700 0.000000
-49.671600 0.000000
-49.615400 0.000000
-49.559300 0.000000
-49.503100 0.000000
-49.447000 0.000000
-49.390900 0.000000
-49.334700 0.000000
-49.278600 0.000000
-49.222500 0.000000
-49.166300 0.000000
-49.110200 0.000000
-49.054000 0.000000
-48.997900 1.219300
-48.941800 7.824300
-48.885600 5.132600
-48.829500 5.323400
-48.773300 7.900700
-48.717200 7.483600
-48.661100 10.057300
-48.604900 9.494100
-48.548800 0.000000
-48.492700 0.000000
-48.436500 0.000000
-48.380400 0.000000
-48.324200 0.000000
-48.268100 0.000000
-48.212000 0.000000
-48.155800 0.000000
-48.099700 0.000000
-48.043500 0.000000
-47.987400 0.000000
-47.931300 0.000000
-47.875100 0.000000
-47.819000 0.000000
-47.762900 0.000000
-47.706700 0.000000
-47.650600 0.000000
-47.594400 0.000000
-47.538300 0.000000
-47.482200 0.000000
-47.426000 0.000000
-47.369900 0.000000
-47.313700 0.000000
-47.257600 0.000000
-47.201500 0.000000
-47.145300 0.000000
-47.089200 0.000000
-47.033100 0.000000
-46.976900 0.000000
-46.920800 0.000000
-46.864600 0.000000
-46.808500 0.000000
-46.752400 0.000000
-46.696200 0.000000
-46.640100 0.000000
-46.584000 0.000000
-46.527800 0.000000
-46.471700 0.000000
-46.415500 0.000000
-46.359400 0.000000
-46.303300 0.000000
-46.247100 0.000000
-46.191000 0.000000
-46.134800 0.000000
-46.078700 0.000000
-46.022600 0.000000
-45.966400 0.000000
-45.910300 0.000000
-45.854200 0.000000
-45.798000 0.000000
-45.741900 0.000000
-45.685700 0.000000
-45.629600 0.000000
-45.573500 0.000000
-45.517300 0.000000
-45.461200 0.000000
-45.405000 0.000000
-45.348900 0.000000
-45.292800 0.000000
-45.236600 0.000000
-45.180500 0.000000
-45.124400 0.000000
-45.068200 0.000000
-45.012100 0.000000
-44.955900 0.000000
-44.899800 0.000000
-44.843700 0.000000
-44.787500 0.000000
-44.731400 0.000000
-44.675200 0.000000
-44.619100 0.000000
-44.563000 0.000000
-44.506800 0.000000
-44.450700 0.000000
-44.394600 0.000000
-44.338400 0.000000
-44.282300 0.000000
-44.226100 0.000000
-44.170000 0.000000
-44.113900 0.000000
-44.057700 0.000000
-44.001600 0.000000
-43.945500 0.000000
-43.889300 0.000000
-43.833200 0.000000
-43.777000 0.000000
-43.720900 0.000000
-43.664800 0.000000
-43.608600 0.000000
-43.552500 0.000000
-43.496300 0.000000
-43.440200 0.000000
-43.384100 0.000000
-43.327900 0.000000
-43.271800 0.000000
-43.215700 0.000000
-43.159500 0.000000
-43.103400 0.000000
-43.047200 0.000000
-42.991100 0.000000
-42.935000 0.000000
-42.878800 0.000000
-42.822700 0.000000
-42.766500 0.000000
-42.710400 0.000000
-42.654300 0.000000
-42.598100 0.000000
-42.542000 0.000000
-42.485900 0.000000
-42.429700 0.000000
-42.373600 0.000000
-42.317400 0.000000
-42.261300 0.000000
-42.205200 0.000000
-42.149000 0.000000
-42.092900 0.000000
-42.036700 0.000000
-41.980600 0.000000
-41.924500 0.000000
-41.868300 0.000000
-41.812200 0.000000
-41.756100 0.000000
-41.699900 0.000000
-41.643800 0.000000
-41.587600 0.000000
-41.531500 0.000000
-41.475400 0.000000
-41.419200 0.000000
-41.363100 0.000000
-41.307000 0.000000
-41.250800 0.000000
-41.194700 0.000000
-41.138500 0.000000
-41.082400 0.000000
-41.026300 0.000000
-40.970100 0.000000
-40.914000 0.000000
-40.857800 0.000000
-40.801700 0.000000
-40.745600 0.000000
-40.689400 0.000000
-40.633300 0.000000
-40.577200 0.000000
-40.521000 0.000000
-40.464900 0.000000
-40.408700 0.000000
-40.352600 0.000000
-40.296500 0.000000
-40.240300 0.000000
-40.184200 0.000000
-40.128000 0.000000
-40.071900 0.000000
-40.015800 0.000000
-39.959600 0.000000
-39.903500 0.000000
-39.847400 0.000000
-39.791200 0.000000
-39.735100 0.000000
-39.678900 0.000000
-39.622800 0.000000
-39.566700 0.000000
-39.510500 0.000000
-39.454400 0.000000
-39.398200 0.000000
-39.342100 0.000000
-39.286000 0.000000
-39.229800 0.000000
-39.173700 0.000000
-39.117600 0.000000
-39.061400 0.000000
-39.005300 0.000000
-38.949100 0.000000
-38.893000 0.000000
-38.836900 0.000000
-38.780700 0.000000
-38.724600 0.000000
-38.668400 0.000000
-38.612300 0.000000
-38.556200 0.000000
-38.500000 0.000000
-38.443900 0.000000
-38.387800 0.000000
-38.331600 0.000000
-38.275500 0.000000
-38.219300 0.000000
-38.163200 0.000000
-38.107100 0.000000
-38.050900 0.000000
-37.994800 0.000000
-37.938700 0.000000
-37.882500 0.000000
-37.826400 0.000000
-37.770200 0.000000
-37.714100 0.000000
-37.658000 0.000000
-37.601800 0.000000
-37.545700 0.000000
-37.489500 0.000000
-37.433400 0.000000
-37.377300 0.000000
-37.321100 0.000000
-37.265000 0.000000
-37.208900 0.000000
-37.152700 0.000000
-37.096600 0.000000
-37.040400 0.000000
-36.984300 0.000000
-36.928200 0.000000
-36.872000 0.000000
-36.815900 0.000000
-36.759700 0.000000
-36.703600 0.000000
-36.647500 0.000000
-36.591300 0.000000
-36.535200 0.000000
-36.479100 0.000000
-36.422900 0.000000
-36.366800 0.000000
-36.310600 0.000000
-36.254500 0.000000
-36.198400 0.000000
-36.142200 0.000000
-36.086100 0.000000
-36.029900 0.000000
-35.973800 0.000000
-35.917700 0.000000
-35.861500 0.000000
-35.805400 0.000000
-35.749300 0.000000
-35.693100 0.000000
-35.637000 0.000000
-35.580800 0.000000
-35.524700 0.000000
-35.468600 0.000000
-35.412400 0.000000
-35.356300 0.000000
-35.300200 0.000000
-35.244000 0.000000
-35.187900 0.000000
-35.131700 0.000000
-35.075600 0.000000
-35.019500 0.000000
-34.963300 0.000000
-34.907200 0.000000
-34.851000 0.000000
-34.794900 0.000000
-34.738800 0.000000
-34.682600 0.000000
-34.626500 0.000000
-34.570400 0.000000
-34.514200 0.000000
-34.458100 0.000000
-34.401900 0.000000
-34.345800 0.000000
-34.289700 0.000000
-34.233500 0.000000
-34.177400 0.000000
-34.121200 0.000000
-34.065100 0.000000
-34.009000 0.000000
-33.952800 0.000000
-33.896700 0.000000
-33.840600 0.000000
-33.784400 0.000000
-33.728300 0.000000
-33.672100 0.000000
-33.616000 0.000000
-33.559900 0.000000
-33.503700 0.000000
-33.447600 0.000000
-33.391400 0.000000
-33.335300 0.000000
-33.279200 0.000000
-33.223000 0.000000
-33.166900 0.000000
-33.110800 0.000000
-33.054600 0.000000
-32.998500 0.000000
-32.942300 0.000000
-32.886200 0.000000
-32.830100 0.000000
-32.773900 0.000000
-32.717800 0.000000
-32.661700 0.000000
-32.605500 0.000000
-32.549400 0.000000
-32.493200 0.000000
-32.437100 0.000000
-32.381000 0.000000
-32.324800 0.000000
-32.268700 0.000000
-32.212500 0.000000
-32.156400 0.000000
-32.100300 0.000000
-32.044100 0.000000
-31.988000 0.000000
-31.931900 0.000000
-31.875700 0.000000
-31.819600 0.000000
-31.763400 0.000000
-31.707300 0.000000
-31.651200 0.000000
-31.595000 0.000000
-31.538900 0.000000
-31.482700 0.000000
-31.426600 0.000000
-31.370500 0.000000
-31.314300 0.000000
-31.258200 0.000000
-31.202100 0.000000
-31.145900 0.000000
-31.089800 0.000000
-31.033600 0.000000
-30.977500 0.000000
-30.921400 0.000000
-30.865200 0.000000
-30.809100 0.000000
-30.752900 0.000000
-30.696800 0.000000
-30.640700 0.000000
-30.584500 0.000000
-30.528400 0.000000
-30.472300 0.000000
-30.416100 0.000000
-30.360000 0.000000
-30.303800 0.000000
-30.247700 0.000000
-30.191600 0.000000
-30.135400 0.000000
-30.079300 0.000000
-30.023100 0.000000
-29.967000 0.000000
-29.910900 0.000000
-29.854700 0.000000
-29.798600 0.000000
-29.742500 0.000000
-29.686300 0.000000
-29.630200 0.000000
-29.574000 0.000000
-29.517900 0.000000
-29.461800 0.000000
-29.405600 0.000000
-29.349500 0.000000
-29.293400 0.000000
-29.237200 0.000000
-29.181100 0.000000
-29.124900 0.000000
-29.068800 0.000000
-29.012700 0.000000
-28.956500 0.000000
-28.900400 0.000000
-28.844200 0.000000
-28.788100 0.000000
-28.732000 0.000000
-28.675800 0.000000
-28.619700 0.000000
-28.563600 0.000000
-28.507400 0.000000
-28.451300 0.000000
-28.395100 0.000000
-28.339000 0.000000
-28.282900 0.000000
-28.226700 0.000000
-28.170600 0.000000
-28.114400 0.000000
-28.058300 0.000000
-28.002200 0.000000
-27.946000 0.000000
-27.889900 0.000000
-27.833800 0.000000
-27.777600 0.000000
-27.721500 0.000000
-27.665300 0.000000
-27.609200 0.000000
-27.553100 0.000000
-27.496900 0.000000
-27.440800 0.000000
-27.384600 0.000000
-27.328500 0.000000
-27.272400 0.000000
-27.216200 0.000000
-27.160100 0.000000
-27.104000 0.000000
-27.047800 0.000000
-26.991700 0.000000
-26.935500 0.000000
-26.879400 0.000000
-26.823300 0.000000
-26.767100 0.000000
-26.711000 0.000000
-26.654900 0.000000
-26.598700 0.000000
-26.542600 0.000000
-26.486400 0.000000
-26.430300 0.000000
-26.374200 0.000000
-26.318000 0.000000
-26.261900 0.000000
-26.205700 0.000000
-26.149600 0.000000
-26.093500 0.000000
-26.037300 0.000000
-25.981200 0.000000
-25.925100 0.000000
-25.868900 0.000000
-25.812800 0.000000
-25.756600 0.000000
-25.700500 0.000000
-25.644400 0.000000
-25.588200 0.000000
-25.532100 0.000000
-25.475900 0.000000
-25.419800 0.000000
-25.363700 0.000000
-25.307500 0.000000
-25.251400 0.000000
-25.195300 0.000000
-25.139100 0.000000
-25.083000 0.000000
-25.026800 0.000000
-24.970700 0.000000
-24.914600 0.000000
-24.858400 0.000000
-24.802300 0.000000
-24.746100 0.000000
-24.690000 0.000000
-24.633900 0.000000
-24.577700 0.000000
-24.521600 0.000000
-24.465500 0.000000
-24.409300 0.000000
-24.353200 0.000000
-24.297000 0.000000
-24.240900 0.000000
-24.184800 0.000000
-24.128600 0.000000
-24.072500 0.000000
-24.016400 0.000000
-23.960200 0.000000
-23.904100 0.000000
-23.847900 0.000000
-23.791800 0.000000
-23.735700 0.000000
-23.679500 0.000000
-23.623400 0.000000
-23.567200 0.000000
-23.511100 0.000000
-23.455000 0.000000
-23.398800 0.000000
-23.342700 0.000000
-23.286600 0.000000
-23.230400 0.000000
-23.174300 0.000000
-23.118100 0.000000
-23.062000 0.000000
-23.005900 0.000000
-22.949700 0.000000
-22.893600 0.000000
-22.837400 0.000000
-22.781300 0.000000
-22.725200 0.000000
-22.669000 0.000000
-22.612900 0.000000
-22.556800 0.000000
-22.500600 0.000000
-22.444500 0.000000
-22.388300 0.000000
-22.332200 0.000000
-22.276100 0.000000
-22.219900 0.000000
-22.163800 0.000000
-22.107600 0.000000
-22.051500 0.000000
-21.995400 0.000000
-21.939200 0.000000
-21.883100 0.000000
-21.827000 0.000000
-21.770800 0.000000
-21.714700 0.000000
-21.658500 0.000000
-21.602400 0.000000
-21.546300 0.000000
-21.490100 0.000000
-21.434000 0.000000
-21.377800 0.000000
-21.321700 0.000000
-21.265600 0.000000
-21.209400 0.000000
-21.153300 0.000000
-21.097200 0.000000
-21.041000 0.000000
-20.984900 0.000000
-20.928700 0.000000
-20.872600 0.000000
-20.816500 0.000000
-20.760300 0.000000
-20.704200 0.000000
-20.648100 0.000000
-20.591900 0.000000
-20.535800 0.000000
-20.479600 0.000000
-20.423500 0.000000
-20.367400 0.000000
-20.311200 0.000000
-20.255100 0.000000
-20.198900 0.000000
-20.142800 0.000000
-20.086700 0.000000
-20.030500 0.000000
-19.974400 0.000000
-19.918300 0.000000
-19.862100 0.000000
-19.806000 0.000000
-19.749800 0.000000
-19.693700 0.000000
-19.637600 0.000000
-19.581400 0.000000
-19.525300 0.000000
-19.469100 0.000000
-19.413000 0.000000
-19.356900 0.000000
-19.300700 0.000000
-19.244600 0.000000
-19.188500 0.000000
-19.132300 0.000000
-19.076200 0.000000
-19.020000 0.000000
-18.963900 0.000000
-18.907800 0.000000
-18.851600 0.000000
-18.795500 0.000000
-18.739300 0.000000
-18.683200 0.000000
-18.627100 0.000000
-18.570900 0.000000
-18.514800 0.000000
-18.458700 0.000000
-18.402500 0.000000
-18.346400 0.000000
-18.290200 0.000000
-18.234100 0.000000
-18.178000 0.000000
-18.121800 0.000000
-18.065700 0.000000
-18.009600 0.000000
-17.953400 0.000000
-17.897300 0.000000
-17.841100 0.000000
-17.785000 0.000000
-17.728900 0.000000
-17.672700 0.000000
-17.616600 0.000000
-17.560400 0.000000
-17.504300 0.000000
-17.448200 0.000000
-17.392000 0.000000
-17.335900 0.000000
-17.279800 0.000000
-17.223600 0.000000
-17.167500 0.000000
-17.111300 0.000000
-17.055200 0.000000
-16.999100 0.000000
-16.942900 0.000000
-16.886800 0.000000
-16.830600 0.000000
-16.774500 0.000000
-16.718400 0.000000
-16.662200 0.000000
-16.606100 0.000000
-16.550000 0.000000
-16.493800 0.000000
-16.437700 0.000000
-16.381500 0.000000
-16.325400 0.000000
-16.269300 0.000000
-16.213100 0.000000
-16.157000 0.000000
-16.100800 0.000000
-16.044700 0.000000
-15.988600 0.000000
-15.932400 0.000000
-15.876300 0.000000
-15.820200 0.000000
-15.764000 0.000000
-15.707900 0.000000
-15.651700 0.000000
-15.595600 0.000000
-15.539500 0.000000
-15.483300 0.000000
-15.427200 0.000000
-15.371100 0.000000
-15.314900 0.000000
-15.258800 0.000000
-15.202600 0.000000
-15.146500 0.000000
-15.090400 0.000000
-15.034200 0.000000
-14.978100 0.000000
-14.921900 0.000000
-14.865800 0.000000
-14.809700 0.000000
-14.753500 0.000000
-14.697400 0.000000
-14.641300 0.000000
-14.585100 0.000000
-14.529000 0.000000
-14.472800 0.000000
-14.416700 0.000000
-14.360600 0.000000
-14.304400 0.000000
-14.248300 0.000000
-14.192100 0.000000
-14.136000 0.000000
-14.079900 0.000000
-14.023700 0.000000
-13.967600 0.000000
-13.911500 0.000000
-13.855300 0.000000
-13.799200 0.000000
-13.743000 0.000000
-13.686900 0.000000
-13.630800 0.000000
-13.574600 0.000000
-13.518500 0.000000
-13.462300 0.000000
-13.406200 0.000000
-13.350100 0.000000
-13.293900 0.000000
-13.237800 0.000000
-13.181700 0.000000
-13.125500 0.000000
-13.069400 0.000000
-13.013200 0.000000
-12.957100 0.000000
-12.901000 0.000000
-12.844800 0.000000
-12.788700 0.000000
-12.732500 0.000000
-12.676400 0.000000
-12.620300 0.000000
-12.564100 0.000000
-12.508000 0.000000
-12.451900 0.000000
-12.395700 0.000000
-12.339600 0.000000
-12.283400 0.000000
-12.227300 0.000000
-12.171200 0.000000
-12.115000 0.000000
-12.058900 0.000000
-12.002800 0.000000
-11.946600 0.000000
-11.890500 0.000000
-11.834300 0.000000
-11.778200 0.000000
-11.722100 0.000000
-11.665900 0.000000
-11.609800 0.000000
-11.553600 0.000000
-11.497500 0.000000
-11.441400 0.000000
-11.385200 0.000000
-11.329100 0.000000
-11.273000 0.000000
-11.216800 0.000000
-11.160700 0.000000
-11.104500 0.000000
-11.048400 0.000000
-10.992300 0.000000
-10.936100 0.000000
-10.880000 0.000000
-10.823800 0.000000
-10.767700 0.000000
-10.711600 0.000000
-10.655400 0.000000
-10.599300 0.000000
-10.543200 0.000000
-10.487000 0.000000
-10.430900 0.000000
-10.374700 0.000000
-10.318600 0.000000
-10.262500 0.000000
-10.206300 0.000000
-10.150200 0.000000
-10.094000 0.000000
-10.037900 0.000000
-9.981800 0.000000
-9.925600 0.000000
-9.869500 0.000000
-9.813400 0.000000
-9.757200 0.000000
-9.701100 0.000000
-9.644900 0.000000
-9.588800 0.000000
-9.532700 0.000000
-9.476500 0.000000
-9.420400 0.000000
-9.364300 0.000000
-9.308100 0.000000
-9.252000 0.000000
-9.195800 0.000000
-9.139700 0.000000
-9.083600 0.000000
-9.027400 0.000000
-8.971300 0.000000
-8.915100 0.000000
-8.859000 0.000000
-8.802900 0.000000
-8.746700 0.000000
-8.690600 0.000000
-8.634500 0.000000
-8.578300 0.000000
-8.522200 0.000000
-8.466000 0.000000
-8.409900 0.000000
-8.353800 0.000000
-8.297600 0.000000
-8.241500 0.000000
-8.185300 0.000000
-8.129200 0.000000
-8.073100 0.000000
-8.016900 0.000000
-7.960800 0.000000
-7.904700 0.000000
-7.848500 0.000000
-7.792400 0.000000
-7.736200 0.000000
-7.680100 0.000000
-7.624000 0.000000
-7.567800 0.000000
-7.511700 0.000000
-7.455500 0.000000
-7.399400 0.000000
-7.343300 0.000000
-7.287100 0.000000
-7.231000 0.000000
-7.174900 0.000000
-7.118700 0.000000
-7.062600 0.000000
-7.006400 0.000000
-6.950300 0.000000
-6.894200 0.000000
-6.838000 0.000000
-6.781900 0.000000
-6.725800 0.000000
-6.669600 0.000000
-6.613500 0.000000
-6.557300 0.000000
-6.501200 0.000000
-6.445100 0.000000
-6.388900 0.000000
-6.332800 0.000000
-6.276600 0.000000
-6.220500 0.000000
-6.164400 0.000000
-6.108200 0.000000
-6.052100 0.000000
-5.996000 0.000000
-5.939800 0.000000
-5.883700 0.000000
-5.827500 0.000000
-5.771400 0.000000
-5.715300 0.000000
-5.659100 0.000000
-5.603000 0.000000
-5.546800 0.000000
-5.490700 0.000000
-5.434600 0.000000
-5.378400 0.000000
-5.322300 0.000000
-5.266200 0.000000
-5.210000 0.000000
-5.153900 0.000000
-5.097700 0.000000
-5.041600 0.000000
-4.985500 0.000000
-4.929300 0.000000
-4.873200 0.000000
-4.817000 0.000000
-4.760900 0.000000
-4.704800 0.000000
-4.648600 0.000000
-4.592500 0.000000
-4.536400 0.000000
-4.480200 0.000000
-4.424100 0.000000
-4.367900 0.000000
-4.311800 0.000000
-4.255700 0.000000
-4.199500 0.000000
-4.143400 0.000000
-4.087200 0.000000
-4.031100 0.000000
-3.975000 0.000000
-3.918800 0.000000
-3.862700 0.000000
-3.806600 0.000000
-3.750400 0.000000
-3.694300 0.000000
-3.638100 0.000000
-3.582000 0.000000
-3.525900 0.000000
-3.469700 0.000000
-3.413600 0.000000
-3.357500 0.000000
-3.301300 0.000000
-3.245200 0.000000
-3.189000 0.000000
-3.132900 0.003800
-3.076800 0.008700
-3.020600 0.012700
-2.964500 0.014500
-2.908300 0.016900
-2.852200 0.019000
-2.796100 0.020600
-2.739900 0.022400
-2.683800 0.024000
-2.627700 0.025400
-2.571500 0.027400
-2.515400 0.028700
-2.459200 0.029800
-2.403100 0.031300
-2.347000 0.032600
-2.290800 0.034100
-2.234700 0.035700
-2.178500 0.037100
-2.122400 0.038100
-2.066300 0.039300
-2.010100 0.040700
-1.954000 0.042200
-1.897900 0.043800
-1.841700 0.045200
-1.785600 0.046400
-1.729400 0.047700
-1.673300 0.049000
-1.617200 0.050500
-1.561000 0.051900
-1.504900 0.053600
-1.448700 0.055400
-1.392600 0.056800
-1.336500 0.058200
-1.280300 0.059800
-1.224200 0.061600
-1.168100 0.063400
-1.111900 0.065300
-1.055800 0.067100
-0.999600 0.069200
-0.943500 0.071300
-0.887400 0.073400
-0.831200 0.075600
-0.775100 0.077900
-0.719000 0.080500
-0.662800 0.083300
-0.606700 0.086100
-0.550500 0.089100
-0.494400 0.092500
-0.438300 0.096100
-0.382100 0.099900
-0.326000 0.104000
-0.269800 0.108600
-0.213700 0.114000
-0.157600 0.119800
-0.101400 0.125900
-0.045300 0.133700
0.010800 0.141900
0.067000 0.152200
0.123100 0.165700
0.179300 0.183800
0.235400 0.206600
0.291500 0.240700
0.347700 0.443500
0.403800 0.458600
0.460000 0.449900
0.516100 0.502100
0.572200 0.534300
0.628400 0.569900
0.684500 0.603200
0.740600 0.622300
0.796800 0.658900
0.852900 0.700600
0.909100 0.741700
0.965200 0.791900
1.021300 0.879700
1.077500 1.082700
1.133600 1.178300
1.189800 0.902400
1.245900 0.757800
1.302000 0.681400
1.358200 0.654800
1.414300 0.616800
1.470400 0.557900
1.526600 0.433100
1.582700 0.384100
1.638900 0.344300
1.695000 0.323000
1.751100 0.713800
1.807300 1.389200
1.863400 1.798000
1.919500 1.899600
1.975700 1.586400
2.031800 1.242000
2.088000 1.139600
2.144100 1.054500
2.200200 1.059800
2.256400 1.075200
2.312500 1.058700
2.368700 1.035600
2.424800 1.016900
2.480900 1.086000
2.537100 1.250700
2.593200 1.434000
2.649300 1.844900
2.705500 1.625200
2.761600 1.571500
2.817800 1.292900
2.873900 0.809200
2.930000 0.609800
2.986200 0.543000
3.042300 0.493300
3.098500 0.460700
3.154600 0.431500
3.210700 0.427200
3.266900 0.423400
3.323000 0.428500
3.379100 0.442300
3.435300 0.455800
3.491400 0.471600
3.547600 0.506000
3.603700 0.551300
3.659800 0.625200
3.716000 0.708000
3.772100 0.830700
3.828300 1.140300
3.884400 1.250200
3.940500 1.383700
3.996700 1.635800
4.052800 1.814500
4.108900 1.846800
4.165100 1.838000
4.221200 1.991400
4.277400 2.381400
4.333500 2.277200
4.389600 2.267100
4.445800 2.824300
4.501900 1.682700
4.558100 1.357500
4.614200 1.168200
4.670300 1.053000
4.726500 0.967900
4.782600 0.913600
4.838700 0.878300
4.894900 0.848900
4.951000 0.825700
5.007200 0.825900
5.063300 0.821700
5.119400 0.824300
5.175600 0.813300
5.231700 0.848600
5.287800 0.610100
5.344000 0.469000
5.400100 0.355000
5.456300 0.219100
5.512400 0.153700
5.568500 0.153600
5.624700 0.153300
5.680800 0.150700
5.737000 0.150400
5.793100 0.150200
5.849200 0.150400
5.905400 0.150900
5.961500 0.151500
6.017600 0.152300
6.073800 0.152400
6.129900 0.151700
6.186100 0.150300
6.242200 0.148300
6.298300 0.147600
6.354500 0.147500
6.410600 0.147200
6.466800 0.146900
6.522900 0.146800
6.579000 0.146300
6.635200 0.146000
6.691300 0.145400
6.747400 0.145000
6.803600 0.144400
6.859700 0.143200
6.915900 0.142000
6.972000 0.141300
7.028100 0.140700
7.084300 0.139900
7.140400 0.139400
7.196600 0.138900
7.252700 0.138400
7.308800 0.137800
7.365000 0.137300
7.421100 0.136700
7.477200 0.135900
7.533400 0.135100
7.589500 0.133800
7.645700 0.132500
7.701800 0.131500
7.757900 0.130600
7.814100 0.129800
7.870200 0.128900
7.926300 0.128100
7.982500 0.127300
8.038600 0.126600
8.094800 0.125900
8.150900 0.125100
8.207000 0.124300
8.263200 0.123300
8.319300 0.122300
8.375500 0.121200
8.431600 0.119300
8.487700 0.118100
8.543900 0.117100
8.600000 0.116100
8.656100 0.115200
8.712300 0.114300
8.768400 0.113200
8.824600 0.112100
8.880700 0.111000
8.936800 0.110000
8.993000 0.108800
9.049100 0.107900
9.105300 0.106800
9.161400 0.105700
9.217500 0.104500
9.273700 0.103100
9.329800 0.101500
9.385900 0.100200
9.442100 0.098900
9.498200 0.097700
9.554400 0.096600
9.610500 0.095500
9.666600 0.094200
9.722800 0.093100
9.778900 0.091700
9.835100 0.090400
9.891200 0.088900
9.947300 0.087800
10.003500 0.086500
10.059600 0.085200
10.115700 0.083900
10.171900 0.082600
10.228000 0.081100
10.284200 0.079800
10.340300 0.078400
10.396400 0.077200
10.452600 0.075700
10.508700 0.074100
10.564800 0.072700
10.621000 0.071600
10.677100 0.069900
10.733300 0.068200
10.789400 0.066600
10.845500 0.065100
10.901700 0.063800
10.957800 0.062500
11.014000 0.060900
11.070100 0.059400
11.126200 0.057900
11.182400 0.057600
11.238500 0.056200
11.294600 0.053900
11.350800 0.053200
11.406900 0.050600
11.463100 0.048700
11.519200 0.045600
11.575300 0.040500
11.631500 0.038900
11.687600 0.037300
11.743800 0.035800
11.799900 0.034300
11.856000 0.032700
11.912200 0.031800
11.968300 0.030400
12.024400 0.029500
12.080600 0.028400
12.136700 0.026500
12.192900 0.025800
12.249000 0.024900
12.305100 0.024600
12.361300 0.023900
12.417400 0.022400
12.473600 0.023100
12.529700 0.055300
12.585800 0.141100
12.642000 0.176700
12.698100 0.194400
12.754200 0.216500
12.810400 0.250200
12.866500 0.255300
12.922700 0.250200
12.978800 0.249500
13.034900 0.258200
13.091100 0.241500
13.147200 0.230800
13.203400 0.220600
13.259500 0.216400
13.315600 0.212900
13.371800 0.208100
13.427900 0.202700
13.484000 0.198800
13.540200 0.194300
13.596300 0.192500
13.652500 0.191200
13.708600 0.185700
13.764700 0.181800
13.820900 0.178000
13.877000 0.175600
13.933100 0.171600
13.989300 0.169100
14.045400 0.164700
14.101600 0.161700
14.157700 0.158700
14.213800 0.156600
14.270000 0.154600
14.326100 0.152700
14.382300 0.151900
14.438400 0.150800
14.494500 0.148400
14.550700 0.146700
14.606800 0.145800
14.662900 0.148500
14.719100 0.161100
14.775200 0.171800
14.831400 0.176300
14.887500 0.187800
14.943600 0.186600
14.999800 0.186200
15.055900 0.188800
15.112100 0.190200
15.168200 0.196300
15.224300 0.193100
15.280500 0.194800
15.336600 0.196700
15.392700 0.200800
15.448900 0.198200
15.505000 0.196600
15.561200 0.195300
15.617300 0.194000
15.673400 0.193200
15.729600 0.192300
15.785700 0.191300
15.841900 0.193200
15.898000 0.191200
15.954100 0.190200
16.010300 0.189100
16.066400 0.188800
16.122500 0.188400
16.178700 0.189300
16.234800 0.189000
16.291000 0.188400
16.347100 0.187000
16.403200 0.186600
16.459400 0.187100
16.515500 0.186900
16.571600 0.186500
16.627800 0.186200
16.683900 0.185200
16.740100 0.185200
16.796200 0.185200
16.852300 0.185500
16.908500 0.185300
16.964600 0.185300
17.020800 0.185400
17.076900 0.185500
17.133000 0.184700
17.189200 0.184900
17.245300 0.184100
17.301400 0.183100
17.357600 0.182400
17.413700 0.181700
17.469900 0.181300
17.526000 0.181000
17.582100 0.180600
17.638300 0.180300
17.694400 0.180100
17.750600 0.179700
17.806700 0.179400
17.862800 0.178800
17.919000 0.178300
17.975100 0.178700
18.031200 0.178400
18.087400 0.177800
18.143500 0.177600
18.199700 0.177800
18.255800 0.177600
18.311900 0.177300
18.368100 0.176900
18.424200 0.176500
18.480400 0.176100
18.536500 0.175800
18.592600 0.175500
18.648800 0.175300
18.704900 0.174900
18.761000 0.174600
18.817200 0.174400
18.873300 0.174700
18.929500 0.174400
18.985600 0.173600
19.041700 0.173200
19.097900 0.172900
19.154000 0.172300
19.210100 0.171800
19.266300 0.171500
19.322400 0.171000
19.378600 0.170600
19.434700 0.170400
19.490800 0.170300
19.547000 0.170100
19.603100 0.170000
19.659300 0.169700
19.715400 0.169300
19.771500 0.168900
19.827700 0.169600
19.883800 0.168500
19.939900 0.167900
19.996100 0.167300
20.052200 0.166900
20.108400 0.166400
20.164500 0.166300
20.220600 0.166100
20.276800 0.166000
20.332900 0.165900
20.389100 0.165700
20.445200 0.165400
20.501300 0.164800
20.557500 0.164500
20.613600 0.164100
20.669700 0.163700
20.725900 0.163300
20.782000 0.164300
20.838200 0.164200
20.894300 0.165700
20.950400 0.169500
21.006600 0.174100
21.062700 0.177200
21.118900 0.179500
21.175000 0.180600
21.231100 0.182100
21.287300 0.186200
21.343400 0.185500
21.399500 0.186100
21.455700 0.187600
21.511800 0.189400
21.568000 0.193000
21.624100 0.194100
21.680200 0.195000
21.736400 0.196700
21.792500 0.198900
21.848700 0.200800
21.904800 0.202900
21.960900 0.203500
22.017100 0.205800
22.073200 0.207400
22.129300 0.211300
22.185500 0.214200
22.241600 0.215600
22.297800 0.214200
22.353900 0.216500
22.410000 0.219000
22.466200 0.222500
22.522300 0.225700
22.578400 0.228800
22.634600 0.230900
22.690700 0.230300
22.746900 0.232600
22.803000 0.234900
22.859100 0.236200
22.915300 0.238000
22.971400 0.240200
23.027600 0.242300
23.083700 0.245200
23.139800 0.247900
23.196000 0.249200
23.252100 0.251100
23.308200 0.253100
23.364400 0.257000
23.420500 0.261700
23.476700 0.259800
23.532800 0.258100
23.588900 0.252300
23.645100 0.248700
23.701200 0.245100
23.757400 0.243500
23.813500 0.242600
23.869600 0.241800
23.925800 0.242100
23.981900 0.239900
24.038000 0.239900
24.094200 0.239500
24.150300 0.239400
24.206500 0.239600
24.262600 0.240400
24.318700 0.241200
24.374900 0.242800
24.431000 0.241700
24.487200 0.243300
24.543300 0.244800
24.599400 0.247800
24.655600 0.249300
24.711700 0.252100
24.767800 0.256200
24.824000 0.261300
24.880100 0.268900
24.936300 0.276200
24.992400 0.278900
25.048500 0.278600
25.104700 0.277500
25.160800 0.276200
25.216900 0.274000
25.273100 0.271200
25.329200 0.267700
25.385400 0.265100
25.441500 0.262300
25.497600 0.259300
25.553800 0.254400
25.609900 0.250800
25.666100 0.248600
25.722200 0.245000
25.778300 0.241600
25.834500 0.238400
25.890600 0.236300
25.946700 0.236100
26.002900 0.234000
26.059000 0.231000
26.115200 0.228800
26.171300 0.225100
26.227400 0.224100
26.283600 0.220500
26.339700 0.218000
26.395900 0.215900
26.452000 0.214000
26.508100 0.212200
26.564300 0.211100
26.620400 0.207900
26.676500 0.204900
26.732700 0.201700
26.788800 0.199700
26.845000 0.197500
26.901100 0.195200
26.957200 0.193200
27.013400 0.190400
27.069500 0.188100
27.125700 0.186100
27.181800 0.185300
27.237900 0.183500
27.294100 0.182300
27.350200 0.180200
27.406300 0.178200
27.462500 0.174800
27.518600 0.171100
27.574800 0.165300
27.630900 0.159000
27.687000 0.152700
27.743200 0.148700
27.799300 0.144600
27.855400 0.142800
27.911600 0.141500
27.967700 0.140500
28.023900 0.139400
28.080000 0.138300
28.136100 0.138400
28.192300 0.135700
28.248400 0.133600
28.304600 0.132200
28.360700 0.131200
28.416800 0.131100
28.473000 0.130700
28.529100 0.133300
28.585200 0.137900
28.641400 0.142600
28.697500 0.147400
28.753700 0.153000
28.809800 0.159500
28.865900 0.162900
28.922100 0.167100
28.978200 0.171100
29.034400 0.173200
29.090500 0.176800
29.146600 0.179300
29.202800 0.182800
29.258900 0.185700
29.315000 0.190200
29.371200 0.195800
29.427300 0.202800
29.483500 0.208200
29.539600 0.217200
29.595700 0.228300
29.651900 0.242800
29.708000 0.256500
29.764200 0.274200
29.820300 0.302600
29.876400 0.342500
29.932600 0.358400
29.988700 0.367400
30.044800 0.370600
30.101000 0.361700
30.157100 0.337500
30.213300 0.311200
30.269400 0.294900
30.325500 0.281900
30.381700 0.270400
30.437800 0.261000
30.494000 0.255200
30.550100 0.248800
30.606200 0.239900
30.662400 0.232700
30.718500 0.226500
30.774600 0.221300
30.830800 0.216500
30.886900 0.212300
30.943100 0.210900
30.999200 0.209600
31.055300 0.208400
31.111500 0.203800
31.167600 0.197100
31.223700 0.190500
31.279900 0.186900
31.336000 0.182100
31.392200 0.176100
31.448300 0.173100
31.504400 0.170000
31.560600 0.167400
31.616700 0.165000
31.672900 0.161200
31.729000 0.154100
31.785100 0.150500
31.841300 0.147300
31.897400 0.144900
31.953500 0.143200
32.009700 0.141600
32.065800 0.139800
32.122000 0.138000
32.178100 0.138800
32.234200 0.140100
32.290400 0.141500
32.346500 0.147500
32.402700 0.161400
32.458800 0.181600
32.514900 0.203300
32.571100 0.226500
32.627200 0.260800
32.683300 0.282400
32.739500 0.306700
32.795600 0.333000
32.851800 0.347300
32.907900 0.354300
32.964000 0.357300
33.020200 0.366400
33.076300 0.352900
33.132500 0.343800
33.188600 0.333400
33.244700 0.324000
33.300900 0.310100
33.357000 0.299500
33.413100 0.290100
33.469300 0.281900
33.525400 0.274400
33.581600 0.267900
33.637700 0.262100
33.693800 0.257000
33.750000 0.252700
33.806100 0.245500
33.862200 0.238500
33.918400 0.235100
33.974500 0.230300
34.030700 0.227000
34.086800 0.223600
34.142900 0.220000
34.199100 0.219500
34.255200 0.220500
34.311400 0.218000
34.367500 0.219700
34.423600 0.211400
34.479800 0.211700
34.535900 0.213800
34.592000 0.216800
34.648200 0.221400
34.704300 0.222300
34.760500 0.224100
34.816600 0.225600
34.872700 0.227600
34.928900 0.232100
34.985000 0.235600
35.041200 0.240200
35.097300 0.247900
35.153400 0.262900
35.209600 0.268600
35.265700 0.265800
35.321800 0.263200
35.378000 0.263100
35.434100 0.266100
35.490300 0.261900
35.546400 0.263100
35.602500 0.263700
35.658700 0.265000
35.714800 0.257800
35.771000 0.255000
35.827100 0.253100
35.883200 0.250100
35.939400 0.249100
35.995500 0.249300
36.051600 0.248500
36.107800 0.250600
36.163900 0.257600
36.220100 0.264400
36.276200 0.273500
36.332300 0.281000
36.388500 0.286100
36.444600 0.290500
36.500700 0.291600
36.556900 0.290500
36.613000 0.290400
36.669200 0.290200
36.725300 0.288400
36.781400 0.285400
36.837600 0.282200
36.893700 0.276200
36.949900 0.270100
37.006000 0.267500
37.062100 0.266200
37.118300 0.265100
37.174400 0.265200
37.230500 0.262700
37.286700 0.260900
37.342800 0.260600
37.399000 0.256500
37.455100 0.254600
37.511200 0.252600
37.567400 0.251700
37.623500 0.249400
37.679700 0.248200
37.735800 0.248000
37.791900 0.247900
37.848100 0.245400
37.904200 0.244700
37.960300 0.245000
38.016500 0.244200
38.072600 0.247600
38.128800 0.241100
38.184900 0.239500
38.241000 0.238300
38.297200 0.237000
38.353300 0.237900
38.409500 0.236400
38.465600 0.236400
38.521700 0.236000
38.577900 0.234400
38.634000 0.233000
38.690100 0.232100
38.746300 0.231600
38.802400 0.229200
38.858600 0.228200
38.914700 0.231900
38.970800 0.231100
39.027000 0.231800
39.083100 0.228400
39.139300 0.227000
39.195400 0.226000
39.251500 0.224500
39.307700 0.225000
39.363800 0.226400
39.419900 0.231400
39.476100 0.232100
39.532200 0.233400
39.588400 0.237200
39.644500 0.238700
39.700600 0.234300
39.756800 0.229600
39.812900 0.226900
39.869000 0.225600
39.925200 0.226600
39.981300 0.228200
40.037500 0.231000
40.093600 0.225700
40.149700 0.221200
40.205900 0.221200
40.262000 0.222600
40.318200 0.223100
40.374300 0.224600
40.430400 0.226800
40.486600 0.229700
40.542700 0.234100
40.598800 0.238800
40.655000 0.244400
40.711100 0.251500
40.767300 0.244700
40.823400 0.241900
40.879500 0.241300
40.935700 0.240200
40.991800 0.239500
41.048000 0.238900
41.104100 0.237900
41.160200 0.237400
41.216400 0.237900
41.272500 0.239200
41.328600 0.236600
41.384800 0.235100
41.440900 0.234000
41.497100 0.233600
41.553200 0.233800
41.609300 0.233100
41.665500 0.232400
41.721600 0.231900
41.777800 0.230500
41.833900 0.229100
41.890000 0.228100
41.946200 0.231100
42.002300 0.225800
42.058400 0.224800
42.114600 0.224300
42.170700 0.223800
42.226900 0.223900
42.283000 0.224600
42.339100 0.222100
42.395300 0.220200
42.451400 0.217900
42.507500 0.216900
42.563700 0.215800
42.619800 0.215700
42.676000 0.215300
42.732100 0.215300
42.788200 0.215300
42.844400 0.214400
42.900500 0.213200
42.956700 0.212700
43.012800 0.212100
43.068900 0.212500
43.125100 0.212800
43.181200 0.215100
43.237300 0.216300
43.293500 0.215100
43.349600 0.215000
43.405800 0.214200
43.461900 0.217000
43.518000 0.220000
43.574200 0.224200
43.630300 0.229900
43.686500 0.233900
43.742600 0.238500
43.798700 0.245400
43.854900 0.246600
43.911000 0.237000
43.967100 0.220400
44.023300 0.204000
44.079400 0.187900
44.135600 0.176900
44.191700 0.162200
44.247800 0.149700
44.304000 0.137800
44.360100 0.130000
44.416300 0.123200
44.472400 0.116400
44.528500 0.111100
44.584700 0.105200
44.640800 0.100200
44.696900 0.094100
44.753100 0.088800
44.809200 0.084000
44.865400 0.080200
44.921500 0.077000
44.977600 0.075500
45.033800 0.069800
45.089900 0.064900
45.146000 0.061200
45.202200 0.058200
45.258300 0.055700
45.314500 0.053500
45.370600 0.051400
45.426700 0.049500
45.482900 0.047700
45.539000 0.046000
45.595200 0.044700
45.651300 0.043300
45.707400 0.042000
45.763600 0.041100
45.819700 0.041400
45.875800 0.041500
45.932000 0.038600
45.988100 0.036800
46.044300 0.034900
46.100400 0.033500
46.156500 0.031700
46.212700 0.030100
46.268800 0.028200
46.325000 0.026800
46.381100 0.025900
46.437200 0.024000
46.493400 0.021400
46.549500 0.020300
46.605600 0.019400
46.661800 0.018200
46.717900 0.017100
46.774100 0.016000
46.830200 0.015000
46.886300 0.013800
46.942500 0.012700
46.998600 0.012200
47.054800 0.011700
47.110900 0.011200
47.167000 0.010800
47.223200 0.010500
47.279300 0.010200
47.335400 0.010400
47.391600 0.011600
47.447700 0.011600
47.503900 0.010800
47.560000 0.009700
47.616100 0.008100
47.672300 0.007900
47.728400 0.007700
47.784600 0.007600
47.840700 0.007300
47.896800 0.007100
47.953000 0.006900
48.009100 0.006600
48.065200 0.006300
48.121400 0.006100
48.177500 0.005900
48.233700 0.005700
48.289800 0.005600
48.345900 0.005400
48.402100 0.005300
48.458200 0.005100
48.514300 0.005000
48.570500 0.004900
48.626600 0.004700
48.682800 0.004600
48.738900 0.004300
48.795000 0.004200
48.851200 0.004000
48.907300 0.003800
48.963500 0.003700
49.019600 0.003700
49.075700 0.003600
49.131900 0.003500
49.188000 0.003400
49.244100 0.003300
49.300300 0.003300
49.356400 0.003200
49.412600 0.003100
49.468700 0.003000
49.524800 0.002900
49.581000 0.002800
49.637100 0.002700
49.693300 0.002600
49.749400 0.002500
49.805500 0.002400
49.861700 0.002300
49.917800 0.002300
49.973900 0.002200
50.030100 0.002100
50.086200 0.002100
50.142400 0.002000
50.198500 0.002000
50.254600 0.001900
50.310800 0.001900
50.366900 0.001800
50.423100 0.001700
50.479200 0.001700
50.535300 0.001600
50.591500 0.001600
50.647600 0.001500
50.703700 0.001500
50.759900 0.001400
50.816000 0.001400
50.872200 0.001400
50.928300 0.001300
50.984400 0.001300
51.040600 0.001300
51.096700 0.001200
51.152800 0.001200
51.209000 0.001100
51.265100 0.001100
51.321300 0.001000
51.377400 0.000900
51.433500 0.000800
51.489700 0.000800
51.545800 0.000700
51.602000 0.000700
51.658100 0.000700
51.714200 0.000600
51.770400 0.000600
51.826500 0.000500
51.882600 0.000500
51.938800 0.000400
51.994900 0.000300
52.051100 0.001900
52.107200 0.000000
52.163300 0.000000
52.219500 0.000000
52.275600 0.000000
52.331800 0.000000
52.387900 0.000000
52.444000 0.000000
52.500200 0.000000
52.556300 0.000000
52.612400 0.000000
52.668600 0.000000
52.724700 0.000000
52.780900 0.000000
52.837000 0.000000
52.893100 0.000000
52.949300 0.000000
53.005400 0.000000
53.061600 0.000000
53.117700 0.000000
53.173800 0.000000
53.230000 0.000000
53.286100 0.000000
53.342200 0.000000
53.398400 0.000000
53.454500 0.000000
53.510700 0.000000
53.566800 0.000000
53.622900 0.000000
53.679100 0.000000
53.735200 0.000000
53.791400 0.000000
53.847500 0.000000
53.903600 0.000000
53.959800 0.000000
54.015900 0.000000
54.072000 0.000000
54.128200 0.000000
54.184300 0.000000
54.240500 0.000000
54.296600 0.000000
54.352700 0.000000
54.408900 0.000000
54.465000 0.000000
54.521100 0.000000
54.577300 0.000000
54.633400 0.000000
54.689600 0.000000
54.745700 0.000000
54.801800 0.000000
54.858000 0.000000
54.914100 0.000000
54.970300 0.000000
55.026400 0.000000
55.082500 0.000000
55.138700 0.000000
55.194800 0.000000
55.250900 0.000000
55.307100 0.000000
55.363200 0.000000
55.419400 0.000000
55.475500 0.000000
55.531600 0.000000
55.587800 0.000000
55.643900 0.000000
55.700100 0.000000
55.756200 0.000000
55.812300 0.000000
55.868500 0.000000
55.924600 0.000000
55.980700 0.000000
56.036900 0.000000
56.093000 0.000000
56.149200 0.000000
56.205300 0.000000
56.261400 0.000000
56.317600 0.000000
56.373700 0.000000
56.429900 0.000000
56.486000 0.000000
56.542100 0.000000
56.598300 0.000000
56.654400 0.000000
56.710500 0.000000
56.766700 0.000000
56.822800 0.000000
56.879000 0.000000
56.935100 0.000000
56.991200 0.000000
57.047400 0.000000
57.103500 0.000000
57.159600 0.000000
57.215800 0.000000
57.271900 0.000000
57.328100 0.000000
57.384200 0.000000
57.440300 0.000000
57.496500 0.000000
57.552600 0.000000
57.608800 0.000000
57.664900 0.000000
57.721000 0.000000
57.777200 0.000000
57.833300 0.000000
57.889400 0.000000
57.945600 0.000000
58.001700 0.000000
58.057900 0.000000
58.114000 0.000000
58.170100 0.000000
e
