set title 'mp-1044722 - Density of States'
set xlabel 'Energy (eV)'
set ylabel 'DOS (states/eV)'
set grid
set xrange [-10:10]
set yrange [0:29.288]
set xzeroaxis lt -1
set terminal png size 800,600
set output 'mp-1044722_dos_gnuplot.png'
plot '-' using 1:2 with lines title 'DOS'
-15.698800 0.000000
-15.679600 0.000000
-15.660400 0.000000
-15.641100 0.000000
-15.621900 0.000000
-15.602700 0.000000
-15.583500 0.000000
-15.564300 0.000000
-15.545100 0.000000
-15.525800 0.000000
-15.506600 0.000000
-15.487400 0.000000
-15.468200 0.000000
-15.449000 0.000000
-15.429800 0.000000
-15.410500 0.000000
-15.391300 0.000000
-15.372100 0.000000
-15.352900 0.000000
-15.333700 0.000000
-15.314500 0.000000
-15.295200 0.000000
-15.276000 0.000000
-15.256800 0.000000
-15.237600 0.000000
-15.218400 0.000000
-15.199200 0.000000
-15.179900 0.000000
-15.160700 0.000000
-15.141500 0.000000
-15.122300 0.000000
-15.103100 0.000000
-15.083800 0.000000
-15.064600 0.000000
-15.045400 0.000000
-15.026200 0.000000
-15.007000 0.000000
-14.987800 0.000000
-14.968500 0.000000
-14.949300 0.000000
-14.930100 0.000000
-14.910900 0.000000
-14.891700 0.000000
-14.872500 0.000000
-14.853200 0.000000
-14.834000 0.000000
-14.814800 0.000000
-14.795600 0.000000
-14.776400 0.000000
-14.757200 0.000000
-14.737900 0.000000
-14.718700 0.000000
-14.699500 0.000000
-14.680300 0.000000
-14.661100 0.000000
-14.641900 0.000000
-14.622600 0.000000
-14.603400 0.000000
-14.584200 0.000000
-14.565000 0.000000
-14.545800 0.000000
-14.526600 0.000000
-14.507300 0.000000
-14.488100 0.000000
-14.468900 0.000000
-14.449700 0.000000
-14.430500 0.000000
-14.411300 0.000000
-14.392000 0.000000
-14.372800 0.000000
-14.353600 0.000000
-14.334400 0.000000
-14.315200 0.000000
-14.296000 0.000000
-14.276700 0.000000
-14.257500 0.000000
-14.238300 0.000000
-14.219100 0.000000
-14.199900 0.000000
-14.180600 0.000000
-14.161400 0.000000
-14.142200 0.000000
-14.123000 0.000000
-14.103800 0.000000
-14.084600 0.000000
-14.065300 0.000000
-14.046100 0.000000
-14.026900 0.000000
-14.007700 0.000000
-13.988500 0.000000
-13.969300 0.000000
-13.950000 0.315800
-13.930800 0.482700
-13.911600 0.674400
-13.892400 0.890700
-13.873200 1.025900
-13.854000 1.102500
-13.834700 1.201700
-13.815500 1.291100
-13.796300 1.375900
-13.777100 1.490500
-13.757900 1.614600
-13.738700 1.747200
-13.719400 1.845600
-13.700200 1.954600
-13.681000 2.060200
-13.661800 2.162800
-13.642600 2.291100
-13.623400 2.423800
-13.604100 2.564100
-13.584900 2.711700
-13.565700 2.862000
-13.546500 3.606500
-13.527300 3.773000
-13.508100 3.921200
-13.488800 3.766700
-13.469600 3.658000
-13.450400 3.603600
-13.431200 3.539100
-13.412000 3.519800
-13.392800 3.491900
-13.373500 3.440700
-13.354300 3.428900
-13.335100 3.362900
-13.315900 3.320400
-13.296700 3.219800
-13.277400 3.097600
-13.258200 5.355600
-13.239000 2.653500
-13.219800 2.321400
-13.200600 1.839600
-13.181400 1.576600
-13.162100 1.328700
-13.142900 1.259700
-13.123700 1.866900
-13.104500 1.915800
-13.085300 2.027300
-13.066100 1.994000
-13.046800 1.997100
-13.027600 2.233800
-13.008400 2.487400
-12.989200 2.780200
-12.970000 3.104200
-12.950800 3.446200
-12.931500 4.075000
-12.912300 4.596800
-12.893100 5.162700
-12.873900 5.764500
-12.854700 6.368700
-12.835500 7.523400
-12.816200 7.588000
-12.797000 7.441900
-12.777800 6.249000
-12.758600 5.209900
-12.739400 4.168600
-12.720200 3.408400
-12.700900 2.979500
-12.681700 3.218400
-12.662500 3.794400
-12.643300 3.035600
-12.624100 3.570600
-12.604900 4.267200
-12.585600 4.742800
-12.566400 5.543200
-12.547200 8.793500
-12.528000 12.486300
-12.508800 11.300000
-12.489600 10.315700
-12.470300 10.725600
-12.451100 13.028200
-12.431900 10.114300
-12.412700 8.801000
-12.393500 10.848500
-12.374300 12.554200
-12.355000 12.244400
-12.335800 11.345000
-12.316600 10.471800
-12.297400 15.409200
-12.278200 8.829900
-12.258900 7.528100
-12.239700 6.345000
-12.220500 4.235900
-12.201300 3.331000
-12.182100 2.829800
-12.162900 0.841300
-12.143600 1.592300
-12.124400 2.495200
-12.105200 2.507200
-12.086000 3.937800
-12.066800 5.443000
-12.047600 7.176600
-12.028300 10.802500
-12.009100 10.590200
-11.989900 17.416100
-11.970700 15.165300
-11.951500 15.864900
-11.932300 12.453200
-11.913000 13.639900
-11.893800 16.788300
-11.874600 17.592400
-11.855400 15.798100
-11.836200 14.842100
-11.817000 14.152100
-11.797700 11.038800
-11.778500 10.613200
-11.759300 12.605200
-11.740100 16.197100
-11.720900 18.825200
-11.701700 21.600500
-11.682400 45.614900
-11.663200 22.097600
-11.644000 15.711800
-11.624800 19.930900
-11.605600 12.973000
-11.586400 10.127900
-11.567100 0.000000
-11.547900 0.000000
-11.528700 0.000000
-11.509500 0.000000
-11.490300 0.000000
-11.471100 0.000000
-11.451800 0.000000
-11.432600 0.000000
-11.413400 0.000000
-11.394200 0.000000
-11.375000 0.000000
-11.355700 0.000000
-11.336500 0.000000
-11.317300 0.000000
-11.298100 0.000000
-11.278900 0.000000
-11.259700 0.000000
-11.240400 0.000000
-11.221200 0.000000
-11.202000 0.000000
-11.182800 0.000000
-11.163600 0.000000
-11.144400 0.000000
-11.125100 0.000000
-11.105900 0.000000
-11.086700 0.000000
-11.067500 0.000000
-11.048300 0.000000
-11.029100 0.000000
-11.009800 0.000000
-10.990600 0.000000
-10.971400 0.000000
-10.952200 0.000000
-10.933000 0.000000
-10.913800 0.000000
-10.894500 0.000000
-10.875300 0.000000
-10.856100 0.000000
-10.836900 0.000000
-10.817700 0.000000
-10.798500 0.000000
-10.779200 0.000000
-10.760000 0.000000
-10.740800 0.000000
-10.721600 0.000000
-10.702400 0.000000
-10.683200 0.000000
-10.663900 0.000000
-10.644700 0.000000
-10.625500 0.000000
-10.606300 0.000000
-10.587100 0.000000
-10.567900 0.000000
-10.548600 0.000000
-10.529400 0.000000
-10.510200 0.000000
-10.491000 0.000000
-10.471800 0.000000
-10.452500 0.000000
-10.433300 0.000000
-10.414100 0.000000
-10.394900 0.000000
-10.375700 0.000000
-10.356500 0.000000
-10.337200 0.000000
-10.318000 0.000000
-10.298800 0.000000
-10.279600 0.000000
-10.260400 0.000000
-10.241200 0.000000
-10.221900 0.000000
-10.202700 0.000000
-10.183500 0.000000
-10.164300 0.000000
-10.145100 0.000000
-10.125900 0.000000
-10.106600 0.000000
-10.087400 0.000000
-10.068200 0.000000
-10.049000 0.000000
-10.029800 0.000000
-10.010600 0.000000
-9.991300 0.000000
-9.972100 0.000000
-9.952900 0.000000
-9.933700 0.000000
-9.914500 0.000000
-9.895300 0.000000
-9.876000 0.000000
-9.856800 0.000000
-9.837600 0.000000
-9.818400 0.000000
-9.799200 0.000000
-9.780000 0.000000
-9.760700 0.000000
-9.741500 0.000000
-9.722300 0.000000
-9.703100 0.000000
-9.683900 0.000000
-9.664700 0.000000
-9.645400 0.000000
-9.626200 0.000000
-9.607000 0.000000
-9.587800 0.000000
-9.568600 0.000000
-9.549300 0.000000
-9.530100 0.000000
-9.510900 0.000000
-9.491700 0.000000
-9.472500 0.000000
-9.453300 0.000000
-9.434000 0.000000
-9.414800 0.000000
-9.395600 0.000000
-9.376400 0.000000
-9.357200 0.000000
-9.338000 0.000000
-9.318700 0.000000
-9.299500 0.000000
-9.280300 0.000000
-9.261100 0.000000
-9.241900 0.000000
-9.222700 0.000000
-9.203400 0.000000
-9.184200 0.000000
-9.165000 0.000000
-9.145800 0.000000
-9.126600 0.000000
-9.107400 0.000000
-9.088100 0.000000
-9.068900 0.000000
-9.049700 0.000000
-9.030500 0.000000
-9.011300 0.000000
-8.992100 0.000000
-8.972800 0.000000
-8.953600 0.000000
-8.934400 0.000000
-8.915200 0.000000
-8.896000 0.000000
-8.876800 0.000000
-8.857500 0.000000
-8.838300 0.000000
-8.819100 0.000000
-8.799900 0.000000
-8.780700 0.000000
-8.761500 0.000000
-8.742200 0.000000
-8.723000 0.000000
-8.703800 0.000000
-8.684600 0.000000
-8.665400 0.000000
-8.646100 0.000000
-8.626900 0.000000
-8.607700 0.000000
-8.588500 0.000000
-8.569300 0.000000
-8.550100 0.000000
-8.530800 0.000000
-8.511600 0.000000
-8.492400 0.000000
-8.473200 0.000000
-8.454000 0.000000
-8.434800 0.000000
-8.415500 0.000000
-8.396300 0.000000
-8.377100 0.000000
-8.357900 0.000000
-8.338700 0.000000
-8.319500 0.000000
-8.300200 0.000000
-8.281000 0.000000
-8.261800 0.000000
-8.242600 0.000000
-8.223400 0.000000
-8.204200 0.000000
-8.184900 0.000000
-8.165700 0.000000
-8.146500 0.000000
-8.127300 0.000000
-8.108100 0.000000
-8.088900 0.000000
-8.069600 0.000000
-8.050400 0.000000
-8.031200 0.000000
-8.012000 0.000000
-7.992800 0.000000
-7.973600 0.000000
-7.954300 0.000000
-7.935100 0.000000
-7.915900 0.000000
-7.896700 0.000000
-7.877500 0.000000
-7.858300 0.000000
-7.839000 0.000000
-7.819800 0.000000
-7.800600 0.000000
-7.781400 0.000000
-7.762200 0.000000
-7.742900 0.000000
-7.723700 0.000000
-7.704500 0.000000
-7.685300 0.000000
-7.666100 0.000000
-7.646900 0.000000
-7.627600 0.000000
-7.608400 0.000000
-7.589200 0.000000
-7.570000 0.000000
-7.550800 0.000000
-7.531600 0.000000
-7.512300 0.000000
-7.493100 0.000000
-7.473900 0.000000
-7.454700 0.000000
-7.435500 0.000000
-7.416300 0.000000
-7.397000 0.000000
-7.377800 0.000000
-7.358600 0.000000
-7.339400 0.000000
-7.320200 0.000000
-7.301000 0.000000
-7.281700 0.000000
-7.262500 0.000000
-7.243300 0.000000
-7.224100 0.000000
-7.204900 0.000000
-7.185700 0.000000
-7.166400 0.000000
-7.147200 0.000000
-7.128000 0.000000
-7.108800 0.000000
-7.089600 0.000000
-7.070400 0.000000
-7.051100 0.000000
-7.031900 0.000000
-7.012700 0.000000
-6.993500 0.000000
-6.974300 0.000000
-6.955100 0.000000
-6.935800 0.000000
-6.916600 0.000000
-6.897400 0.000000
-6.878200 0.000000
-6.859000 0.000000
-6.839700 0.000000
-6.820500 0.000000
-6.801300 0.000000
-6.782100 0.000000
-6.762900 0.000000
-6.743700 0.000000
-6.724400 0.000000
-6.705200 0.000000
-6.686000 0.000000
-6.666800 0.000000
-6.647600 0.000000
-6.628400 0.000000
-6.609100 0.000000
-6.589900 0.000000
-6.570700 0.000000
-6.551500 0.000000
-6.532300 0.000000
-6.513100 0.000000
-6.493800 0.000000
-6.474600 0.000000
-6.455400 0.000000
-6.436200 0.000000
-6.417000 0.000000
-6.397800 0.000000
-6.378500 0.000000
-6.359300 0.000000
-6.340100 0.000000
-6.320900 0.000000
-6.301700 0.000000
-6.282500 0.000000
-6.263200 0.000000
-6.244000 0.000000
-6.224800 0.000000
-6.205600 0.000000
-6.186400 0.000000
-6.167200 0.000000
-6.147900 0.000000
-6.128700 0.000000
-6.109500 0.000000
-6.090300 0.000000
-6.071100 0.000000
-6.051900 0.000000
-6.032600 0.000000
-6.013400 0.000000
-5.994200 0.000000
-5.975000 0.000000
-5.955800 0.000000
-5.936500 0.000000
-5.917300 0.000000
-5.898100 0.000000
-5.878900 0.000000
-5.859700 0.000000
-5.840500 0.000000
-5.821200 0.000000
-5.802000 0.000000
-5.782800 0.000000
-5.763600 0.000000
-5.744400 0.000000
-5.725200 0.000000
-5.705900 0.000000
-5.686700 0.000000
-5.667500 0.000000
-5.648300 0.000000
-5.629100 0.000000
-5.609900 0.000000
-5.590600 0.000000
-5.571400 0.000000
-5.552200 0.000000
-5.533000 0.000000
-5.513800 0.000000
-5.494600 0.000000
-5.475300 0.000000
-5.456100 0.000000
-5.436900 0.000000
-5.417700 0.000000
-5.398500 0.000000
-5.379300 0.000000
-5.360000 0.000000
-5.340800 2.677200
-5.321600 4.117900
-5.302400 8.282700
-5.283200 10.131500
-5.264000 6.114200
-5.244700 5.778500
-5.225500 5.867900
-5.206300 6.627300
-5.187100 6.147400
-5.167900 6.145700
-5.148700 6.188600
-5.129400 6.191200
-5.110200 6.205600
-5.091000 6.848900
-5.071800 6.369200
-5.052600 5.943300
-5.033300 5.718800
-5.014100 5.688100
-4.994900 5.492900
-4.975700 5.176700
-4.956500 4.945500
-4.937300 4.900100
-4.918000 4.893800
-4.898800 4.885500
-4.879600 4.893700
-4.860400 4.915900
-4.841200 4.927300
-4.822000 4.967700
-4.802700 5.526600
-4.783500 5.411300
-4.764300 5.187700
-4.745100 5.205700
-4.725900 5.218700
-4.706700 5.113400
-4.687400 4.656400
-4.668200 4.545700
-4.649000 4.357900
-4.629800 4.233500
-4.610600 4.289400
-4.591400 4.568900
-4.572100 4.347100
-4.552900 3.649500
-4.533700 3.629600
-4.514500 4.155400
-4.495300 3.955100
-4.476100 3.955000
-4.456800 3.819400
-4.437600 3.808700
-4.418400 4.250000
-4.399200 3.979700
-4.380000 3.042200
-4.360800 3.304900
-4.341500 3.530200
-4.322300 3.822100
-4.303100 4.721100
-4.283900 4.679300
-4.264700 3.923800
-4.245500 3.481500
-4.226200 3.158400
-4.207000 2.819900
-4.187800 2.465000
-4.168600 2.115500
-4.149400 2.075300
-4.130200 2.078200
-4.110900 2.081800
-4.091700 2.001000
-4.072500 2.470900
-4.053300 2.915400
-4.034100 3.082800
-4.014800 2.874700
-3.995600 2.398100
-3.976400 2.160200
-3.957200 2.031100
-3.938000 2.158100
-3.918800 1.263000
-3.899500 1.266100
-3.880300 1.279100
-3.861100 1.298100
-3.841900 1.316300
-3.822700 1.333700
-3.803500 1.350400
-3.784200 1.366400
-3.765000 1.380800
-3.745800 1.329700
-3.726600 1.353800
-3.707400 1.366700
-3.688200 1.403700
-3.668900 1.426200
-3.649700 1.434900
-3.630500 1.432900
-3.611300 1.427500
-3.592100 1.420800
-3.572900 1.412800
-3.553600 1.403800
-3.534400 1.394600
-3.515200 1.396200
-3.496000 1.408600
-3.476800 1.420600
-3.457600 1.432400
-3.438300 1.442500
-3.419100 1.451000
-3.399900 1.496200
-3.380700 1.516200
-3.361500 1.491000
-3.342300 1.452100
-3.323000 1.412800
-3.303800 1.372700
-3.284600 1.332400
-3.265400 1.291800
-3.246200 2.303200
-3.227000 0.978800
-3.207700 0.958700
-3.188500 0.942800
-3.169300 0.927100
-3.150100 0.911600
-3.130900 0.896300
-3.111600 0.881000
-3.092400 0.866000
-3.073200 0.851000
-3.054000 0.836200
-3.034800 0.821500
-3.015600 0.807000
-2.996300 0.792600
-2.977100 0.777900
-2.957900 0.762500
-2.938700 0.747400
-2.919500 0.732700
-2.900300 0.718300
-2.881000 0.704200
-2.861800 0.690500
-2.842600 0.677000
-2.823400 0.664000
-2.804200 0.651200
-2.785000 0.629300
-2.765700 0.620400
-2.746500 0.611500
-2.727300 0.602500
-2.708100 0.593300
-2.688900 0.584000
-2.669700 0.574500
-2.650400 0.564800
-2.631200 0.554900
-2.612000 0.544900
-2.592800 0.534700
-2.573600 0.524300
-2.554400 0.515100
-2.535100 0.505900
-2.515900 0.492900
-2.496700 0.480300
-2.477500 0.467900
-2.458300 0.455800
-2.439100 0.444100
-2.419800 0.432700
-2.400600 0.421600
-2.381400 0.410900
-2.362200 0.400400
-2.343000 0.390300
-2.323800 0.380500
-2.304500 0.371100
-2.285300 0.361900
-2.266100 0.354300
-2.246900 0.347300
-2.227700 0.340500
-2.208400 0.333500
-2.189200 0.326500
-2.170000 0.319400
-2.150800 0.312300
-2.131600 0.305000
-2.112400 0.297700
-2.093100 0.290200
-2.073900 0.282700
-2.054700 0.275100
-2.035500 0.267400
-2.016300 0.259700
-1.997100 0.251800
-1.977800 0.243900
-1.958600 0.249200
-1.939400 0.236500
-1.920200 0.224100
-1.901000 0.212100
-1.881800 0.200200
-1.862500 0.188700
-1.843300 0.177500
-1.824100 0.166600
-1.804900 0.156000
-1.785700 0.145600
-1.766500 0.135600
-1.747200 0.125800
-1.728000 0.116400
-1.708800 0.107200
-1.689600 0.098400
-1.670400 0.089800
-1.651200 0.081500
-1.631900 0.073500
-1.612700 0.000000
-1.593500 0.000000
-1.574300 0.000000
-1.555100 0.000000
-1.535900 0.000000
-1.516600 0.000000
-1.497400 0.000000
-1.478200 0.000000
-1.459000 0.000000
-1.439800 0.000000
-1.420600 0.000000
-1.401300 0.000000
-1.382100 0.000000
-1.362900 0.000000
-1.343700 0.000000
-1.324500 0.000000
-1.305200 0.000000
-1.286000 0.000000
-1.266800 0.000000
-1.247600 0.000000
-1.228400 0.000000
-1.209200 0.000000
-1.189900 0.000000
-1.170700 0.000000
-1.151500 0.000000
-1.132300 0.000000
-1.113100 0.000000
-1.093900 0.000000
-1.074600 0.000000
-1.055400 0.000000
-1.036200 0.000000
-1.017000 0.000000
-0.997800 0.000000
-0.978600 0.000000
-0.959300 0.000000
-0.940100 0.000000
-0.920900 0.000000
-0.901700 0.000000
-0.882500 0.000000
-0.863300 0.000000
-0.844000 0.000000
-0.824800 0.000000
-0.805600 0.000000
-0.786400 0.000000
-0.767200 0.000000
-0.748000 0.000000
-0.728700 0.000000
-0.709500 0.000000
-0.690300 0.000000
-0.671100 0.000000
-0.651900 0.000000
-0.632700 0.000000
-0.613400 0.000000
-0.594200 0.000000
-0.575000 0.000000
-0.555800 0.000000
-0.536600 0.000000
-0.517400 0.000000
-0.498100 0.000000
-0.478900 0.000000
-0.459700 0.000000
-0.440500 0.000000
-0.421300 0.000000
-0.402000 0.000000
-0.382800 0.000000
-0.363600 0.000000
-0.344400 0.000000
-0.325200 1.091300
-0.306000 1.696900
-0.286700 2.642700
-0.267500 4.659100
-0.248300 8.698300
-0.229100 7.847700
-0.209900 6.052800
-0.190700 6.077000
-0.171400 9.468800
-0.152200 9.228000
-0.133000 9.072100
-0.113800 9.797300
-0.094600 9.566700
-0.075400 8.977500
-0.056100 8.191300
-0.036900 7.984800
-0.017700 7.868700
0.001500 7.642000
0.020700 7.563000
0.039900 7.310800
0.059200 7.226500
0.078400 7.416700
0.097600 9.322600
0.116800 8.825200
0.136000 9.484400
0.155200 9.207900
0.174500 9.046400
0.193700 8.824800
0.212900 8.754100
0.232100 8.737600
0.251300 11.410300
0.270500 9.175600
0.289800 9.080700
0.309000 9.715900
0.328200 9.676300
0.347400 9.455900
0.366600 9.043000
0.385800 8.522000
0.405100 8.011700
0.424300 7.654800
0.443500 7.434800
0.462700 7.146400
0.481900 7.090200
0.501200 6.742100
0.520400 6.345300
0.539600 6.193200
0.558800 6.047600
0.578000 5.807900
0.597200 5.529500
0.616500 5.436000
0.635700 5.485100
0.654900 5.426500
0.674100 5.289700
0.693300 5.058900
0.712500 4.879700
0.731800 4.769600
0.751000 5.143000
0.770200 4.606300
0.789400 5.040100
0.808600 6.075200
0.827800 6.046200
0.847100 7.731600
0.866300 12.259400
0.885500 12.859700
0.904700 15.656900
0.923900 10.787600
0.943100 9.347500
0.962400 9.201800
0.981600 8.910400
1.000800 8.867400
1.020000 10.197600
1.039200 9.822700
1.058400 9.154200
1.077700 8.172800
1.096900 7.872800
1.116100 7.377800
1.135300 8.740700
1.154500 6.914100
1.173700 4.978400
1.193000 3.535200
1.212200 2.406600
1.231400 1.873400
1.250600 1.548200
1.269800 2.481200
1.289000 5.334100
1.308300 5.694500
1.327500 6.094300
1.346700 7.327400
1.365900 10.604700
1.385100 17.293700
1.404400 15.386400
1.423600 13.966900
1.442800 19.144000
1.462000 17.385200
1.481200 17.679800
1.500400 12.423700
1.519700 10.371800
1.538900 9.963200
1.558100 8.541200
1.577300 10.361900
1.596500 10.970100
1.615700 7.640500
1.635000 6.014800
1.654200 5.046500
1.673400 4.838900
1.692600 4.307200
1.711800 3.805800
1.731000 3.726300
1.750300 3.649800
1.769500 3.697000
1.788700 3.749300
1.807900 4.096000
1.827100 4.168700
1.846300 4.177700
1.865600 4.223000
1.884800 4.285700
1.904000 4.476300
1.923200 4.723900
1.942400 5.116900
1.961600 5.793800
1.980900 6.149600
2.000100 6.571900
2.019300 6.559000
2.038500 6.837300
2.057700 7.151400
2.076900 6.708700
2.096200 6.677800
2.115400 8.093300
2.134600 7.969700
2.153800 8.365800
2.173000 8.711900
2.192200 8.868400
2.211500 8.858200
2.230700 8.324700
2.249900 7.862300
2.269100 7.569200
2.288300 8.380400
2.307600 7.145800
2.326800 7.264400
2.346000 8.322400
2.365200 7.965600
2.384400 7.581400
2.403600 6.415400
2.422900 6.090100
2.442100 5.646600
2.461300 5.438100
2.480500 6.278500
2.499700 5.871400
2.518900 5.838300
2.538200 5.770100
2.557400 5.731200
2.576600 5.702600
2.595800 5.684700
2.615000 5.983800
2.634200 6.030800
2.653500 5.475600
2.672700 5.018900
2.691900 4.953900
2.711100 5.149900
2.730300 5.564300
2.749500 6.194400
2.768800 7.911200
2.788000 13.577600
2.807200 11.245000
2.826400 14.464600
2.845600 11.706200
2.864800 13.972700
2.884100 17.672400
2.903300 12.448200
2.922500 9.127200
2.941700 8.825400
2.960900 8.387100
2.980100 9.361300
2.999400 8.312800
3.018600 8.062800
3.037800 8.821000
3.057000 10.767900
3.076200 11.181500
3.095400 10.232000
3.114700 10.597000
3.133900 14.982800
3.153100 11.556500
3.172300 11.909600
3.191500 13.060400
3.210800 14.159100
3.230000 15.242200
3.249200 18.616800
3.268400 14.886100
3.287600 14.220700
3.306800 13.495300
3.326100 14.349200
3.345300 14.258000
3.364500 14.833200
3.383700 17.863600
3.402900 20.604800
3.422100 20.204100
3.441400 20.632800
3.460600 17.253000
3.479800 17.233600
3.499000 24.191900
3.518200 26.625000
3.537400 17.787800
3.556700 15.909700
3.575900 15.804400
3.595100 17.031500
3.614300 20.364000
3.633500 18.533700
3.652700 18.196700
3.672000 13.367400
3.691200 11.981300
3.710400 12.926500
3.729600 16.509300
3.748800 16.002300
3.768000 16.445900
3.787300 17.100400
3.806500 16.200600
3.825700 15.167400
3.844900 16.843800
3.864100 12.875000
3.883300 12.236600
3.902600 11.278400
3.921800 10.554300
3.941000 11.462300
3.960200 8.247900
3.979400 1.917300
3.998600 0.000000
4.017900 6.766900
4.037100 4.048800
4.056300 2.635800
4.075500 2.433200
4.094700 2.373100
4.113900 2.308000
4.133200 2.237900
4.152400 2.162600
4.171600 2.057500
4.190800 2.055900
4.210000 2.055700
4.229300 2.056900
4.248500 2.059600
4.267700 2.063700
4.286900 2.082200
4.306100 2.087000
4.325300 2.084000
4.344600 2.079900
4.363800 2.074700
4.383000 2.075100
4.402200 2.081100
4.421400 2.087200
4.440600 2.093500
4.459900 2.099500
4.479100 2.115000
4.498300 2.130300
4.517500 2.141700
4.536700 2.166600
4.555900 2.657000
4.575200 2.785600
4.594400 2.922700
4.613600 3.068500
4.632800 3.222900
4.652000 3.385500
4.671200 3.567800
4.690500 3.800800
4.709700 4.198900
4.728900 4.605100
4.748100 4.953500
4.767300 5.337300
4.786500 6.404500
4.805800 6.961600
4.825000 9.014900
4.844200 8.283700
4.863400 8.372200
4.882600 7.644100
4.901800 6.687800
4.921100 6.443500
4.940300 6.805500
4.959500 8.342500
4.978700 7.153100
4.997900 8.370400
5.017100 9.708100
5.036400 11.345100
5.055600 13.876400
5.074800 15.847100
5.094000 15.468300
5.113200 15.292600
5.132500 12.012500
5.151700 4.197800
5.170900 3.526900
5.190100 2.636700
5.209300 1.754400
5.228500 1.107300
5.247800 0.410000
5.267000 0.000000
5.286200 0.000000
5.305400 0.000000
5.324600 0.000000
5.343800 0.000000
5.363100 0.000000
5.382300 0.000000
5.401500 0.000000
5.420700 0.000000
5.439900 0.000000
5.459100 0.000000
5.478400 0.000000
5.497600 0.000000
5.516800 0.000000
5.536000 0.000000
5.555200 2.482600
5.574400 1.427500
5.593700 2.054900
5.612900 2.632800
5.632100 3.764800
5.651300 5.144400
5.670500 9.412000
5.689700 8.440900
5.709000 6.673400
5.728200 5.678600
5.747400 5.901100
5.766600 4.532000
5.785800 4.548900
5.805000 4.640800
5.824300 4.564600
5.843500 4.448600
5.862700 4.296200
5.881900 3.756700
5.901100 3.573000
5.920300 3.251200
5.939600 2.969400
5.958800 2.889700
5.978000 2.828100
5.997200 2.440900
6.016400 2.944400
6.035700 0.000000
6.054900 0.000000
6.074100 0.000000
6.093300 0.000000
6.112500 0.000000
6.131700 0.000000
6.151000 0.000000
6.170200 0.000000
6.189400 0.000000
6.208600 0.000000
6.227800 0.000000
6.247000 0.000000
6.266300 0.000000
6.285500 0.000000
6.304700 0.000000
6.323900 0.000000
6.343100 0.000000
6.362300 0.000000
6.381600 0.000000
6.400800 0.000000
6.420000 0.000000
6.439200 0.000000
6.458400 0.000000
6.477600 0.000000
6.496900 0.000000
6.516100 0.000000
6.535300 0.000000
6.554500 0.000000
6.573700 0.000000
6.592900 0.000000
6.612200 0.000000
6.631400 0.000000
6.650600 0.000000
6.669800 0.000000
6.689000 0.000000
6.708200 0.000000
6.727500 0.000000
6.746700 0.000000
6.765900 0.000000
6.785100 0.000000
6.804300 0.000000
6.823500 0.000000
6.842800 0.000000
6.862000 0.000000
6.881200 0.000000
6.900400 0.000000
6.919600 0.000000
6.938900 0.000000
6.958100 0.000000
6.977300 0.000000
6.996500 0.000000
7.015700 0.000000
7.034900 0.000000
7.054200 0.000000
7.073400 0.000000
7.092600 0.000000
7.111800 0.000000
7.131000 0.000000
7.150200 0.000000
7.169500 0.000000
7.188700 0.000000
7.207900 0.000000
7.227100 0.000000
7.246300 0.000000
7.265500 0.000000
7.284800 0.000000
7.304000 0.000000
7.323200 0.000000
7.342400 0.000000
7.361600 0.000000
7.380800 0.000000
7.400100 0.000000
7.419300 0.000000
7.438500 0.000000
7.457700 0.000000
7.476900 0.000000
7.496100 0.000000
7.515400 0.000000
7.534600 0.000000
7.553800 0.000000
7.573000 0.000000
7.592200 0.000000
7.611400 0.000000
7.630700 0.000000
7.649900 0.000000
7.669100 0.000000
7.688300 0.000000
7.707500 0.000000
7.726700 0.000000
7.746000 0.000000
7.765200 0.000000
7.784400 0.000000
7.803600 0.000000
7.822800 0.000000
7.842100 0.000000
7.861300 0.000000
7.880500 0.000000
7.899700 0.000000
7.918900 0.000000
7.938100 0.000000
7.957400 0.000000
7.976600 0.000000
7.995800 0.000000
8.015000 0.000000
8.034200 0.000000
8.053400 0.000000
8.072700 0.000000
8.091900 0.000000
8.111100 0.000000
8.130300 0.000000
8.149500 0.000000
8.168700 0.000000
8.188000 0.000000
8.207200 0.000000
8.226400 0.000000
8.245600 0.000000
8.264800 0.000000
8.284000 0.000000
8.303300 0.000000
8.322500 0.000000
8.341700 0.000000
8.360900 0.000000
8.380100 0.000000
8.399300 0.000000
8.418600 5.001900
8.437800 1.499500
8.457000 1.922500
8.476200 3.250700
8.495400 3.487200
8.514600 2.677800
8.533900 2.697200
8.553100 2.770300
8.572300 3.082200
8.591500 3.248200
8.610700 3.327800
8.629900 3.066000
8.649200 2.906700
8.668400 2.810900
8.687600 2.787400
8.706800 2.791900
8.726000 2.824400
8.745300 2.891900
8.764500 2.935100
8.783700 3.037100
8.802900 3.039300
8.822100 3.042600
8.841300 3.024100
8.860600 2.998800
8.879800 2.973200
8.899000 2.989800
8.918200 3.039200
8.937400 3.099700
8.956600 3.170400
8.975900 3.244700
8.995100 3.321700
9.014300 3.239100
9.033500 3.271800
9.052700 3.313200
9.071900 3.382300
9.091200 3.530700
9.110400 3.632300
9.129600 3.696000
9.148800 3.741800
9.168000 3.783600
9.187200 3.821100
9.206500 3.854900
9.225700 3.855600
9.244900 3.855700
9.264100 3.987200
9.283300 4.016500
9.302500 5.113000
9.321800 6.013600
9.341000 4.769500
9.360200 4.404500
9.379400 3.928000
9.398600 3.817300
9.417800 3.672900
9.437100 3.514400
9.456300 3.487900
9.475500 3.461600
9.494700 3.436300
9.513900 3.416100
9.533100 3.396600
9.552400 3.378200
9.571600 3.359900
9.590800 3.327100
9.610000 3.296700
9.629200 3.280700
9.648500 3.270400
9.667700 3.264000
9.686900 3.276900
9.706100 3.459300
9.725300 3.566300
9.744500 3.662100
9.763800 3.734800
9.783000 3.809400
9.802200 5.575600
9.821400 5.547700
9.840600 6.200800
9.859800 6.175500
9.879100 5.759900
9.898300 5.567500
9.917500 5.757800
9.936700 7.274100
9.955900 5.843500
9.975100 5.738800
9.994400 5.451700
10.013600 5.745500
10.032800 6.221000
10.052000 5.049100
10.071200 4.955900
10.090400 9.315000
10.109700 3.156800
10.128900 2.540600
10.148100 2.697400
10.167300 2.874000
10.186500 2.933500
10.205700 2.954400
10.225000 2.994000
10.244200 3.078000
10.263400 3.188200
10.282600 3.378000
10.301800 4.216400
10.321000 4.768700
10.340300 5.061500
10.359500 5.042600
10.378700 5.111100
10.397900 5.357900
10.417100 4.833900
10.436300 8.482600
10.455600 8.643800
10.474800 9.408400
10.494000 12.223600
10.513200 11.384500
10.532400 7.777200
10.551700 8.078100
10.570900 7.502500
10.590100 7.258100
10.609300 7.604200
10.628500 7.194400
10.647700 5.956900
10.667000 5.508800
10.686200 5.046700
10.705400 4.911000
10.724600 4.787200
10.743800 4.719600
10.763000 4.703000
10.782300 4.940400
10.801500 5.634500
10.820700 8.226600
10.839900 9.394400
10.859100 9.871900
10.878300 10.739800
10.897600 10.859100
10.916800 11.466300
10.936000 8.996700
10.955200 7.036600
10.974400 5.472900
10.993600 4.283500
11.012900 3.312300
11.032100 2.862200
11.051300 2.574500
11.070500 2.779900
11.089700 3.101700
11.108900 4.787300
11.128200 5.291900
11.147400 6.898300
11.166600 7.457500
11.185800 7.668200
11.205000 8.345500
11.224200 8.342700
11.243500 8.117400
11.262700 7.648300
11.281900 7.368300
11.301100 7.007900
11.320300 6.490100
11.339500 6.388900
11.358800 6.694300
11.378000 7.219900
11.397200 7.755900
11.416400 7.849600
11.435600 7.733300
11.454900 7.271000
11.474100 6.734000
11.493300 6.693100
11.512500 6.030700
11.531700 8.951000
11.550900 5.066600
11.570200 4.626300
11.589400 6.389000
11.608600 6.214700
11.627800 8.422600
11.647000 9.484000
11.666200 9.272200
11.685500 8.218100
11.704700 7.381400
11.723900 6.408900
11.743100 5.760500
11.762300 5.204500
11.781500 4.619800
11.800800 4.195200
11.820000 3.798300
11.839200 3.562300
11.858400 3.548600
11.877600 4.857800
11.896800 6.929200
11.916100 6.917900
11.935300 7.668500
11.954500 9.235300
11.973700 15.494600
11.992900 8.268900
12.012100 6.454400
12.031400 6.314400
12.050600 6.209100
12.069800 6.260900
12.089000 7.863400
12.108200 9.595300
12.127400 8.166200
12.146700 7.143200
12.165900 7.255700
12.185100 8.418700
12.204300 8.978100
12.223500 8.572500
12.242700 8.910000
12.262000 6.632400
12.281200 5.743200
12.300400 5.208100
12.319600 5.089300
12.338800 4.975200
12.358000 4.869800
12.377300 4.766700
12.396500 4.665200
12.415700 4.598400
12.434900 4.556700
12.454100 4.489200
12.473400 4.456900
12.492600 4.435000
12.511800 4.430800
12.531000 4.408600
12.550200 4.350100
12.569400 4.341900
12.588700 4.223900
12.607900 4.203700
12.627100 4.200000
12.646300 4.130000
12.665500 4.059300
12.684700 3.992400
12.704000 3.934500
12.723200 3.903300
12.742400 3.870300
12.761600 3.836700
12.780800 3.804700
12.800000 3.974800
12.819300 4.105300
12.838500 4.138000
12.857700 4.205500
12.876900 4.201500
12.896100 4.294700
12.915300 4.077300
12.934600 3.780000
12.953800 3.281200
12.973000 3.437200
12.992200 4.210600
13.011400 5.493400
13.030600 1.589400
13.049900 0.000000
13.069100 0.000000
13.088300 0.000000
13.107500 0.000000
13.126700 0.000000
13.145900 0.000000
13.165200 0.000000
13.184400 0.000000
13.203600 0.000000
13.222800 0.000000
13.242000 0.260200
13.261200 1.452800
13.280500 2.304000
13.299700 3.040600
13.318900 3.170400
13.338100 4.577100
13.357300 2.986200
13.376600 3.101300
13.395800 3.219100
13.415000 5.913100
13.434200 3.511900
13.453400 3.410600
13.472600 3.372900
13.491900 3.374900
13.511100 3.382400
13.530300 3.383500
13.549500 3.375300
13.568700 3.353700
13.587900 3.302300
13.607200 3.246600
13.626400 3.227100
13.645600 3.211000
13.664800 3.117800
13.684000 3.023400
13.703200 2.900600
13.722500 2.850800
13.741700 2.812600
13.760900 3.095100
13.780100 2.864700
13.799300 2.852100
13.818500 2.842300
13.837800 2.835500
13.857000 2.833000
13.876200 2.833600
13.895400 2.836000
13.914600 2.840100
13.933800 2.846000
13.953100 2.854400
13.972300 2.828700
13.991500 2.829900
14.010700 2.838800
14.029900 2.836900
14.049100 2.843300
14.068400 2.848200
14.087600 2.851700
14.106800 2.853900
14.126000 2.856100
14.145200 2.869800
14.164400 2.778300
14.183700 2.754600
14.202900 2.742600
14.222100 2.732800
14.241300 2.724500
14.260500 2.717400
14.279800 2.708600
14.299000 2.700800
14.318200 2.694000
14.337400 2.686300
14.356600 2.677100
14.375800 2.726900
14.395100 2.981800
14.414300 2.639000
14.433500 2.573400
14.452700 2.530400
14.471900 2.486300
14.491100 2.435500
14.510400 3.109500
14.529600 2.397800
14.548800 2.357300
14.568000 2.332100
14.587200 2.301900
14.606400 2.266700
14.625700 2.227900
14.644900 2.189100
14.664100 2.150600
14.683300 2.096000
14.702500 2.047400
14.721700 2.023100
14.741000 2.004200
14.760200 1.988300
14.779400 1.970000
14.798600 1.936900
14.817800 1.923300
14.837000 1.919800
14.856300 1.923700
14.875500 1.928500
14.894700 1.934200
14.913900 1.996700
14.933100 2.009300
14.952300 2.022900
14.971600 2.037600
14.990800 2.053400
15.010000 2.070200
15.029200 2.858900
15.048400 3.075700
15.067600 3.311400
15.086900 3.283600
15.106100 3.356200
15.125300 3.427400
15.144500 3.865000
15.163700 3.942200
15.183000 7.088900
15.202200 2.681000
15.221400 2.516100
15.240600 2.360600
15.259800 2.212700
15.279000 1.997100
15.298300 1.885100
15.317500 1.773300
15.336700 1.667000
15.355900 1.564200
15.375100 1.434700
15.394300 1.366100
15.413600 1.301800
15.432800 1.241500
15.452000 1.185500
15.471200 1.137400
15.490400 1.107900
15.509600 1.078500
15.528900 1.048700
15.548100 1.018300
15.567300 0.987500
15.586500 0.956200
15.605700 0.924500
15.624900 0.892200
15.644200 0.855000
15.663400 0.815800
15.682600 0.958300
15.701800 0.899000
15.721000 0.733500
15.740200 0.632200
15.759500 0.624900
15.778700 0.619800
15.797900 1.653400
15.817100 1.637700
15.836300 2.802700
15.855500 2.711800
15.874800 3.147400
15.894000 3.343300
15.913200 3.330000
15.932400 3.717300
15.951600 4.138400
15.970800 4.412600
15.990100 3.542600
16.009300 3.456700
16.028500 3.424100
16.047700 3.365000
16.066900 3.271700
16.086200 3.146900
16.105400 2.996100
16.124600 2.858200
16.143800 2.688700
16.163000 2.582600
16.182200 2.490000
16.201500 2.390600
16.220700 2.283700
16.239900 2.169400
16.259100 2.047700
16.278300 1.918400
16.297500 1.781800
16.316800 1.648500
16.336000 1.538900
16.355200 1.499400
16.374400 1.653600
16.393600 1.588900
16.412800 1.385200
16.432100 1.039900
16.451300 0.907700
16.470500 0.819100
16.489700 0.736100
16.508900 0.657000
16.528100 0.587700
16.547400 0.531000
16.566600 0.477400
16.585800 0.426900
16.605000 0.379600
16.624200 0.335300
16.643400 0.294000
16.662700 0.255800
16.681900 0.220600
16.701100 0.188500
16.720300 0.159400
16.739500 0.133400
16.758700 0.110400
16.778000 0.282200
16.797200 0.011100
16.816400 0.004900
16.835600 0.001200
16.854800 0.000000
16.874000 0.000000
16.893300 0.000000
16.912500 0.000000
16.931700 0.000000
16.950900 0.267100
16.970100 0.848800
16.989400 0.996200
17.008600 1.098600
17.027800 1.213100
17.047000 1.419700
17.066200 1.716100
17.085400 2.179000
17.104700 2.584600
17.123900 2.800700
17.143100 2.605600
17.162300 2.674200
17.181500 3.052900
17.200700 3.443700
17.220000 3.834800
17.239200 4.122300
17.258400 5.261800
17.277600 4.090900
17.296800 4.017100
17.316000 3.725800
17.335300 4.032500
17.354500 4.489600
17.373700 4.707800
17.392900 4.740800
17.412100 4.860500
17.431300 4.975800
17.450600 5.499700
17.469800 6.016100
17.489000 6.096300
17.508200 6.443200
17.527400 6.097400
17.546600 6.075100
17.565900 6.274600
17.585100 6.608400
17.604300 6.856600
17.623500 6.505500
17.642700 5.825100
17.661900 5.360100
17.681200 5.182400
17.700400 5.083800
17.719600 5.024300
17.738800 5.022400
17.758000 5.331400
17.777200 5.581300
17.796500 5.744400
17.815700 6.320900
17.834900 11.765700
17.854100 8.029300
17.873300 8.082600
17.892600 8.282100
17.911800 8.633900
17.931000 8.927200
17.950200 9.199900
17.969400 9.050800
17.988600 8.790900
18.007900 7.752700
18.027100 7.039700
18.046300 6.903700
18.065500 6.794200
18.084700 6.707300
18.103900 6.782500
18.123200 6.565800
18.142400 6.414600
18.161600 6.341700
18.180800 6.392500
18.200000 7.265700
18.219200 6.205200
18.238500 6.423200
18.257700 6.889000
18.276900 6.639600
18.296100 6.897500
18.315300 7.097700
18.334500 7.326800
18.353800 7.542900
18.373000 7.654300
18.392200 7.556000
18.411400 7.397900
18.430600 7.312300
18.449800 7.519300
18.469100 7.594000
18.488300 7.827600
18.507500 7.133700
18.526700 6.831900
18.545900 6.955000
18.565100 7.016600
18.584400 6.926000
18.603600 6.510500
18.622800 6.097400
18.642000 5.428500
18.661200 5.002500
18.680400 4.698700
18.699700 4.720500
18.718900 4.842600
18.738100 3.105900
18.757300 2.397700
18.776500 2.419400
18.795800 2.633300
18.815000 2.969200
18.834200 3.370400
18.853400 3.806100
18.872600 4.241400
18.891800 4.722800
18.911100 5.806700
18.930300 5.591700
18.949500 5.291100
18.968700 5.219000
18.987900 5.634800
19.007100 5.883000
19.026400 5.813500
19.045600 6.819100
19.064800 6.927000
19.084000 6.853500
19.103200 6.601100
19.122400 7.836500
19.141700 7.373100
19.160900 6.587700
19.180100 6.518200
19.199300 5.958200
19.218500 5.309300
19.237700 5.007100
19.257000 5.269700
19.276200 5.527900
19.295400 5.815500
19.314600 6.181300
19.333800 6.690300
19.353000 7.934300
19.372300 8.726200
19.391500 8.928700
19.410700 8.951600
19.429900 9.066400
19.449100 9.379800
19.468300 10.480100
19.487600 8.589500
19.506800 7.859400
19.526000 7.499500
19.545200 7.378300
19.564400 7.588600
19.583600 8.090200
19.602900 8.816400
19.622100 8.844400
19.641300 8.799000
19.660500 8.478900
19.679700 8.299500
19.699000 8.192300
19.718200 7.757700
19.737400 8.099600
19.756600 8.008200
19.775800 8.940900
19.795000 12.098800
19.814300 12.747400
19.833500 11.302500
19.852700 12.423500
19.871900 11.048600
19.891100 10.087000
19.910300 8.864900
19.929600 7.450000
19.948800 6.544200
19.968000 5.823900
19.987200 5.927400
20.006400 6.132500
20.025600 6.719300
20.044900 7.427100
20.064100 8.523500
20.083300 8.379200
20.102500 8.595000
20.121700 8.980500
20.140900 7.338800
20.160200 5.586800
20.179400 5.826300
20.198600 4.940900
20.217800 4.776500
20.237000 5.376900
20.256200 5.381100
20.275500 5.925300
20.294700 6.711700
20.313900 7.937200
20.333100 11.084500
20.352300 7.581200
20.371500 6.369300
20.390800 5.265000
20.410000 4.517200
20.429200 3.997100
20.448400 3.456000
20.467600 3.015800
20.486800 4.163800
20.506100 2.622600
20.525300 2.633400
20.544500 3.526400
20.563700 4.599000
20.582900 4.550800
20.602100 4.889500
20.621400 5.123200
20.640600 5.319600
20.659800 5.515700
20.679000 5.761300
20.698200 5.938900
20.717500 5.964300
20.736700 5.637500
20.755900 5.428200
20.775100 4.928300
20.794300 3.726900
20.813500 2.695200
20.832800 2.029900
20.852000 1.483300
20.871200 1.189800
20.890400 0.910500
20.909600 0.548000
20.928800 0.244500
20.948100 0.044500
20.967300 0.012100
20.986500 0.000100
21.005700 0.000000
21.024900 0.000000
21.044100 0.000000
21.063400 0.000000
21.082600 0.000000
21.101800 0.000000
21.121000 0.000000
21.140200 0.000000
21.159400 0.000000
21.178700 0.000000
21.197900 0.000000
21.217100 0.000000
21.236300 0.000000
21.255500 0.000000
21.274700 0.000000
21.294000 0.000000
21.313200 0.000000
21.332400 0.000000
21.351600 0.000000
21.370800 0.000000
21.390000 0.000000
21.409300 0.000000
21.428500 0.000000
21.447700 0.000000
21.466900 0.000000
21.486100 0.000000
21.505300 0.000000
21.524600 0.000000
21.543800 0.000000
21.563000 0.000000
21.582200 0.000000
21.601400 0.000000
21.620700 0.000000
21.639900 0.000000
21.659100 0.000000
21.678300 0.000000
21.697500 0.000000
21.716700 0.000000
21.736000 0.000000
21.755200 0.000000
21.774400 0.000000
21.793600 0.000000
21.812800 0.000000
21.832000 0.000000
21.851300 0.000000
21.870500 0.000000
21.889700 0.000000
21.908900 0.000000
21.928100 0.000000
21.947300 0.000000
21.966600 0.000000
21.985800 0.000000
22.005000 0.000000
22.024200 0.000000
22.043400 0.000000
22.062600 0.000000
22.081900 0.000000
22.101100 0.000000
22.120300 0.000000
22.139500 0.000000
22.158700 0.000000
22.177900 0.000000
22.197200 0.000000
22.216400 0.000000
22.235600 0.000000
22.254800 0.000000
22.274000 0.000000
22.293200 0.000000
22.312500 0.000000
22.331700 0.000000
22.350900 0.000000
22.370100 0.000000
22.389300 0.000000
22.408500 0.000000
22.427800 0.000000
22.447000 0.000000
22.466200 0.000000
22.485400 0.000000
22.504600 0.000000
22.523900 0.000000
22.543100 0.000000
22.562300 0.000000
22.581500 0.000000
22.600700 0.000000
22.619900 0.000000
22.639200 0.000000
22.658400 0.000000
22.677600 0.000000
22.696800 0.000000
22.716000 0.000000
22.735200 0.000000
e
