set title 'mp-1039344 - Density of States'
set xlabel 'Energy (eV)'
set ylabel 'DOS (states/eV)'
set grid
set xrange [-10:10]
set yrange [0:4.534]
set xzeroaxis lt -1
set terminal png size 800,600
set output 'mp-1039344_dos_gnuplot.png'
plot '-' using 1:2 with lines title 'DOS'
-16.336300 0.000000
-16.314800 0.000000
-16.293300 0.000000
-16.271800 0.000000
-16.250300 0.000000
-16.228800 0.000000
-16.207300 0.000000
-16.185800 0.000000
-16.164300 0.000000
-16.142800 0.000000
-16.121300 0.000000
-16.099800 0.000000
-16.078300 0.000000
-16.056800 0.000000
-16.035300 0.000000
-16.013800 0.000000
-15.992300 0.000000
-15.970800 0.000000
-15.949300 0.000000
-15.927800 0.000000
-15.906200 0.000000
-15.884700 0.000000
-15.863200 0.000000
-15.841700 0.000000
-15.820200 0.000000
-15.798700 0.000000
-15.777200 0.000000
-15.755700 0.000000
-15.734200 0.000000
-15.712700 0.000000
-15.691200 0.000000
-15.669700 0.000000
-15.648200 0.000000
-15.626700 0.000000
-15.605200 0.000000
-15.583700 0.000000
-15.562200 0.000000
-15.540700 0.000000
-15.519200 0.000000
-15.497700 0.000000
-15.476200 0.000000
-15.454700 0.000000
-15.433200 0.000000
-15.411700 0.000000
-15.390200 0.000000
-15.368700 0.000000
-15.347200 0.000000
-15.325600 0.000000
-15.304100 0.000000
-15.282600 0.000000
-15.261100 0.000000
-15.239600 0.000000
-15.218100 0.000000
-15.196600 0.000000
-15.175100 0.000000
-15.153600 0.000000
-15.132100 0.000000
-15.110600 0.000000
-15.089100 0.000000
-15.067600 0.000000
-15.046100 0.000000
-15.024600 0.000000
-15.003100 0.000000
-14.981600 0.000000
-14.960100 0.000000
-14.938600 0.000000
-14.917100 0.000000
-14.895600 0.000000
-14.874100 0.000000
-14.852600 0.000000
-14.831100 0.000000
-14.809600 0.000000
-14.788100 0.000000
-14.766600 0.000000
-14.745000 0.000000
-14.723500 0.000000
-14.702000 0.000000
-14.680500 0.000000
-14.659000 0.000000
-14.637500 0.000000
-14.616000 0.000000
-14.594500 0.000000
-14.573000 0.000000
-14.551500 0.000000
-14.530000 0.000100
-14.508500 0.000800
-14.487000 0.008400
-14.465500 0.065000
-14.444000 0.376800
-14.422500 1.669500
-14.401000 5.786500
-14.379500 16.039100
-14.358000 36.169200
-14.336500 67.126500
-14.315000 103.480500
-14.293500 134.005100
-14.272000 148.131100
-14.250500 144.153200
-14.229000 132.845900
-14.207500 129.187000
-14.186000 134.446300
-14.164400 131.255900
-14.142900 105.051400
-14.121400 64.141000
-14.099900 28.943200
-14.078400 9.516900
-14.056900 2.265400
-14.035400 0.389300
-14.013900 0.048300
-13.992400 0.004300
-13.970900 0.000300
-13.949400 0.000000
-13.927900 0.000000
-13.906400 0.000000
-13.884900 0.000000
-13.863400 0.000000
-13.841900 0.000000
-13.820400 0.000000
-13.798900 0.000000
-13.777400 0.000000
-13.755900 0.000000
-13.734400 0.000000
-13.712900 0.000000
-13.691400 0.000000
-13.669900 0.000000
-13.648400 0.000000
-13.626900 0.000000
-13.605300 0.000000
-13.583800 0.000000
-13.562300 0.000000
-13.540800 0.000000
-13.519300 0.000000
-13.497800 0.000000
-13.476300 0.000000
-13.454800 0.000000
-13.433300 0.000000
-13.411800 0.000000
-13.390300 0.000000
-13.368800 0.000000
-13.347300 0.000000
-13.325800 0.000000
-13.304300 0.000000
-13.282800 0.000000
-13.261300 0.000000
-13.239800 0.000000
-13.218300 0.000000
-13.196800 0.000000
-13.175300 0.000000
-13.153800 0.000000
-13.132300 0.000000
-13.110800 0.000000
-13.089300 0.000000
-13.067800 0.000000
-13.046300 0.000000
-13.024700 0.000000
-13.003200 0.000000
-12.981700 0.000000
-12.960200 0.000000
-12.938700 0.000000
-12.917200 0.000000
-12.895700 0.000000
-12.874200 0.000000
-12.852700 0.000000
-12.831200 0.000000
-12.809700 0.000000
-12.788200 0.000000
-12.766700 0.000000
-12.745200 0.000000
-12.723700 0.000000
-12.702200 0.000000
-12.680700 0.000000
-12.659200 0.000000
-12.637700 0.000000
-12.616200 0.000000
-12.594700 0.000000
-12.573200 0.000000
-12.551700 0.000000
-12.530200 0.000000
-12.508700 0.000000
-12.487200 0.000000
-12.465700 0.000000
-12.444100 0.000000
-12.422600 0.000000
-12.401100 0.000000
-12.379600 0.000000
-12.358100 0.000000
-12.336600 0.000000
-12.315100 0.000000
-12.293600 0.000000
-12.272100 0.000000
-12.250600 0.000000
-12.229100 0.000000
-12.207600 0.000000
-12.186100 0.000000
-12.164600 0.000000
-12.143100 0.000000
-12.121600 0.000000
-12.100100 0.000000
-12.078600 0.000000
-12.057100 0.000000
-12.035600 0.000000
-12.014100 0.000000
-11.992600 0.000000
-11.971100 0.000000
-11.949600 0.000000
-11.928100 0.000000
-11.906600 0.000000
-11.885100 0.000000
-11.863500 0.000000
-11.842000 0.000000
-11.820500 0.000000
-11.799000 0.000000
-11.777500 0.000000
-11.756000 0.000000
-11.734500 0.000000
-11.713000 0.000000
-11.691500 0.000000
-11.670000 0.000000
-11.648500 0.000000
-11.627000 0.000000
-11.605500 0.000000
-11.584000 0.000000
-11.562500 0.000000
-11.541000 0.000000
-11.519500 0.000000
-11.498000 0.000000
-11.476500 0.000000
-11.455000 0.000000
-11.433500 0.000000
-11.412000 0.000000
-11.390500 0.000000
-11.369000 0.000000
-11.347500 0.000000
-11.326000 0.000000
-11.304500 0.000000
-11.282900 0.000000
-11.261400 0.000000
-11.239900 0.000000
-11.218400 0.000000
-11.196900 0.000000
-11.175400 0.000000
-11.153900 0.000000
-11.132400 0.000000
-11.110900 0.000000
-11.089400 0.000000
-11.067900 0.000000
-11.046400 0.000000
-11.024900 0.000000
-11.003400 0.000000
-10.981900 0.000000
-10.960400 0.000000
-10.938900 0.000000
-10.917400 0.000000
-10.895900 0.000000
-10.874400 0.000000
-10.852900 0.000000
-10.831400 0.000000
-10.809900 0.000000
-10.788400 0.000000
-10.766900 0.000000
-10.745400 0.000000
-10.723900 0.000000
-10.702300 0.000000
-10.680800 0.000000
-10.659300 0.000000
-10.637800 0.000000
-10.616300 0.000000
-10.594800 0.000000
-10.573300 0.000000
-10.551800 0.000000
-10.530300 0.000000
-10.508800 0.000000
-10.487300 0.000000
-10.465800 0.000000
-10.444300 0.000000
-10.422800 0.000000
-10.401300 0.000000
-10.379800 0.000000
-10.358300 0.000000
-10.336800 0.000000
-10.315300 0.000000
-10.293800 0.000000
-10.272300 0.000000
-10.250800 0.000000
-10.229300 0.000000
-10.207800 0.000000
-10.186300 0.000000
-10.164800 0.000000
-10.143200 0.000000
-10.121700 0.000000
-10.100200 0.000000
-10.078700 0.000000
-10.057200 0.000000
-10.035700 0.000000
-10.014200 0.000000
-9.992700 0.000000
-9.971200 0.000000
-9.949700 0.000000
-9.928200 0.000000
-9.906700 0.000000
-9.885200 0.000000
-9.863700 0.000000
-9.842200 0.000000
-9.820700 0.000000
-9.799200 0.000000
-9.777700 0.000000
-9.756200 0.000000
-9.734700 0.000000
-9.713200 0.000000
-9.691700 0.000000
-9.670200 0.000000
-9.648700 0.000000
-9.627200 0.000000
-9.605700 0.000000
-9.584200 0.000000
-9.562600 0.000000
-9.541100 0.000000
-9.519600 0.000000
-9.498100 0.000000
-9.476600 0.000000
-9.455100 0.000000
-9.433600 0.000000
-9.412100 0.000000
-9.390600 0.000000
-9.369100 0.000000
-9.347600 0.000000
-9.326100 0.000000
-9.304600 0.000000
-9.283100 0.000000
-9.261600 0.000000
-9.240100 0.000000
-9.218600 0.000000
-9.197100 0.000000
-9.175600 0.000000
-9.154100 0.000000
-9.132600 0.000000
-9.111100 0.000000
-9.089600 0.000000
-9.068100 0.000000
-9.046600 0.000000
-9.025100 0.000000
-9.003600 0.000000
-8.982000 0.000000
-8.960500 0.000000
-8.939000 0.000000
-8.917500 0.000000
-8.896000 0.000000
-8.874500 0.000000
-8.853000 0.000000
-8.831500 0.000000
-8.810000 0.000000
-8.788500 0.000000
-8.767000 0.000000
-8.745500 0.000000
-8.724000 0.000000
-8.702500 0.000000
-8.681000 0.000000
-8.659500 0.000000
-8.638000 0.000000
-8.616500 0.000000
-8.595000 0.000000
-8.573500 0.000000
-8.552000 0.000000
-8.530500 0.000000
-8.509000 0.000000
-8.487500 0.000000
-8.466000 0.000000
-8.444500 0.000000
-8.423000 0.000000
-8.401400 0.000000
-8.379900 0.000000
-8.358400 0.000000
-8.336900 0.000000
-8.315400 0.000000
-8.293900 0.000000
-8.272400 0.000000
-8.250900 0.000000
-8.229400 0.000000
-8.207900 0.000000
-8.186400 0.000000
-8.164900 0.000000
-8.143400 0.000000
-8.121900 0.000000
-8.100400 0.000000
-8.078900 0.000000
-8.057400 0.000000
-8.035900 0.000000
-8.014400 0.000000
-7.992900 0.000000
-7.971400 0.000000
-7.949900 0.000000
-7.928400 0.000000
-7.906900 0.000000
-7.885400 0.000000
-7.863900 0.000000
-7.842400 0.000000
-7.820800 0.000000
-7.799300 0.000000
-7.777800 0.000000
-7.756300 0.000000
-7.734800 0.000000
-7.713300 0.000000
-7.691800 0.000000
-7.670300 0.000000
-7.648800 0.000000
-7.627300 0.000000
-7.605800 0.000000
-7.584300 0.000000
-7.562800 0.000000
-7.541300 0.000000
-7.519800 0.000000
-7.498300 0.000000
-7.476800 0.000000
-7.455300 0.000000
-7.433800 0.000000
-7.412300 0.000000
-7.390800 0.000000
-7.369300 0.000000
-7.347800 0.000000
-7.326300 0.000000
-7.304800 0.000000
-7.283300 0.000000
-7.261700 0.000000
-7.240200 0.000000
-7.218700 0.000000
-7.197200 0.000000
-7.175700 0.000000
-7.154200 0.000000
-7.132700 0.000000
-7.111200 0.000000
-7.089700 0.000000
-7.068200 0.000000
-7.046700 0.000000
-7.025200 0.000000
-7.003700 0.000000
-6.982200 0.000000
-6.960700 0.000000
-6.939200 0.000000
-6.917700 0.000000
-6.896200 0.000000
-6.874700 0.000000
-6.853200 0.000000
-6.831700 0.000000
-6.810200 0.000000
-6.788700 0.000000
-6.767200 0.000000
-6.745700 0.000000
-6.724200 0.000000
-6.702700 0.000000
-6.681100 0.000000
-6.659600 0.000000
-6.638100 0.000000
-6.616600 0.000000
-6.595100 0.000000
-6.573600 0.000000
-6.552100 0.000000
-6.530600 0.000000
-6.509100 0.000000
-6.487600 0.000000
-6.466100 0.000000
-6.444600 0.000000
-6.423100 0.000000
-6.401600 0.000000
-6.380100 0.000000
-6.358600 0.000000
-6.337100 0.000000
-6.315600 0.000000
-6.294100 0.000000
-6.272600 0.000000
-6.251100 0.000000
-6.229600 0.000000
-6.208100 0.000000
-6.186600 0.000000
-6.165100 0.000000
-6.143600 0.000000
-6.122100 0.000000
-6.100500 0.000000
-6.079000 0.000000
-6.057500 0.000000
-6.036000 0.000000
-6.014500 0.000000
-5.993000 0.000000
-5.971500 0.000000
-5.950000 0.000000
-5.928500 0.000000
-5.907000 0.000000
-5.885500 0.000000
-5.864000 0.000000
-5.842500 0.000000
-5.821000 0.000000
-5.799500 0.000000
-5.778000 0.000000
-5.756500 0.000000
-5.735000 0.000000
-5.713500 0.000000
-5.692000 0.000000
-5.670500 0.000000
-5.649000 0.000000
-5.627500 0.000000
-5.606000 0.000000
-5.584500 0.000000
-5.563000 0.000000
-5.541500 0.000000
-5.519900 0.000000
-5.498400 0.000000
-5.476900 0.000000
-5.455400 0.000000
-5.433900 0.000000
-5.412400 0.000000
-5.390900 0.000000
-5.369400 0.000000
-5.347900 0.000000
-5.326400 0.000000
-5.304900 0.000000
-5.283400 0.000000
-5.261900 0.000000
-5.240400 0.000000
-5.218900 0.000000
-5.197400 0.000000
-5.175900 0.000000
-5.154400 0.000000
-5.132900 0.000000
-5.111400 0.000000
-5.089900 0.000000
-5.068400 0.000000
-5.046900 0.000000
-5.025400 0.000000
-5.003900 0.000000
-4.982400 0.000000
-4.960900 0.000000
-4.939300 0.000000
-4.917800 0.000000
-4.896300 0.000000
-4.874800 0.000000
-4.853300 0.000000
-4.831800 0.000000
-4.810300 0.000400
-4.788800 0.002100
-4.767300 0.008000
-4.745800 0.023100
-4.724300 0.051200
-4.702800 0.095300
-4.681300 0.161100
-4.659800 0.253400
-4.638300 0.355100
-4.616800 0.419200
-4.595300 0.410800
-4.573800 0.368600
-4.552300 0.383300
-4.530800 0.484700
-4.509300 0.595500
-4.487800 0.642800
-4.466300 0.665700
-4.444800 0.739800
-4.423300 0.838600
-4.401800 0.860400
-4.380300 0.784500
-4.358700 0.712400
-4.337200 0.739100
-4.315700 0.835900
-4.294200 0.900300
-4.272700 0.918400
-4.251200 0.997400
-4.229700 1.190600
-4.208200 1.398800
-4.186700 1.518400
-4.165200 1.554900
-4.143700 1.524500
-4.122200 1.400000
-4.100700 1.240200
-4.079200 1.224900
-4.057700 1.436800
-4.036200 1.693400
-4.014700 1.763300
-3.993200 1.687700
-3.971700 1.669100
-3.950200 1.756600
-3.928700 1.852700
-3.907200 1.910100
-3.885700 1.984700
-3.864200 2.116600
-3.842700 2.250900
-3.821200 2.364400
-3.799600 2.543300
-3.778100 2.838900
-3.756600 3.153000
-3.735100 3.264100
-3.713600 2.978800
-3.692100 2.415400
-3.670600 2.035500
-3.649100 2.138900
-3.627600 2.451000
-3.606100 2.462000
-3.584600 2.038700
-3.563100 1.490800
-3.541600 1.184400
-3.520100 1.262000
-3.498600 1.584000
-3.477100 1.814700
-3.455600 1.705600
-3.434100 1.357000
-3.412600 1.086300
-3.391100 1.080600
-3.369600 1.243900
-3.348100 1.313600
-3.326600 1.131800
-3.305100 0.790000
-3.283600 0.467100
-3.262100 0.240600
-3.240600 0.103900
-3.219000 0.035000
-3.197500 0.008700
-3.176000 0.001500
-3.154500 0.000200
-3.133000 0.000000
-3.111500 0.000000
-3.090000 0.000000
-3.068500 0.000000
-3.047000 0.000000
-3.025500 0.000000
-3.004000 0.000000
-2.982500 0.000000
-2.961000 0.000000
-2.939500 0.000000
-2.918000 0.000000
-2.896500 0.000000
-2.875000 0.000000
-2.853500 0.000000
-2.832000 0.000000
-2.810500 0.000000
-2.789000 0.000000
-2.767500 0.000000
-2.746000 0.000000
-2.724500 0.000000
-2.703000 0.000000
-2.681500 0.000000
-2.660000 0.000000
-2.638400 0.000000
-2.616900 0.000000
-2.595400 0.000000
-2.573900 0.000000
-2.552400 0.000000
-2.530900 0.000000
-2.509400 0.000000
-2.487900 0.000000
-2.466400 0.000000
-2.444900 0.000000
-2.423400 0.000000
-2.401900 0.000000
-2.380400 0.000000
-2.358900 0.000000
-2.337400 0.000000
-2.315900 0.000000
-2.294400 0.000000
-2.272900 0.000000
-2.251400 0.000000
-2.229900 0.000000
-2.208400 0.000000
-2.186900 0.000000
-2.165400 0.000000
-2.143900 0.000000
-2.122400 0.000100
-2.100900 0.000500
-2.079400 0.002700
-2.057800 0.010700
-2.036300 0.030900
-2.014800 0.066200
-1.993300 0.105200
-1.971800 0.124700
-1.950300 0.113100
-1.928800 0.091900
-1.907300 0.102000
-1.885800 0.162500
-1.864300 0.246000
-1.842800 0.299700
-1.821300 0.290500
-1.799800 0.233200
-1.778300 0.185800
-1.756800 0.204700
-1.735300 0.284000
-1.713800 0.353200
-1.692300 0.347200
-1.670800 0.274800
-1.649300 0.215000
-1.627800 0.246300
-1.606300 0.368500
-1.584800 0.487700
-1.563300 0.502200
-1.541800 0.420000
-1.520300 0.354500
-1.498800 0.386400
-1.477200 0.475800
-1.455700 0.520700
-1.434200 0.471600
-1.412700 0.387900
-1.391200 0.389100
-1.369700 0.538700
-1.348200 0.768900
-1.326700 0.965500
-1.305200 1.131800
-1.283700 1.361700
-1.262200 1.659300
-1.240700 1.904400
-1.219200 1.999400
-1.197700 1.988100
-1.176200 2.003300
-1.154700 2.109800
-1.133200 2.239700
-1.111700 2.294700
-1.090200 2.278100
-1.068700 2.280300
-1.047200 2.374400
-1.025700 2.554700
-1.004200 2.688100
-0.982700 2.585400
-0.961200 2.261000
-0.939700 1.981900
-0.918100 1.936200
-0.896600 2.010000
-0.875100 2.005300
-0.853600 1.971400
-0.832100 2.147900
-0.810600 2.624100
-0.789100 3.190700
-0.767600 3.491300
-0.746100 3.296400
-0.724600 2.691800
-0.703100 2.009500
-0.681600 1.547500
-0.660100 1.344500
-0.638600 1.267500
-0.617100 1.233400
-0.595600 1.231900
-0.574100 1.263200
-0.552600 1.338900
-0.531100 1.412700
-0.509600 1.349000
-0.488100 1.090100
-0.466600 0.752200
-0.445100 0.485900
-0.423600 0.367500
-0.402100 0.438100
-0.380600 0.734100
-0.359100 1.222100
-0.337500 1.717500
-0.316000 1.930200
-0.294500 1.701800
-0.273000 1.211500
-0.251500 0.808100
-0.230000 0.640100
-0.208500 0.605500
-0.187000 0.610500
-0.165500 0.698900
-0.144000 0.936700
-0.122500 1.277900
-0.101000 1.580600
-0.079500 1.720300
-0.058000 1.654300
-0.036500 1.438500
-0.015000 1.227900
0.006500 1.156600
0.028000 1.176100
0.049500 1.109200
0.071000 0.879800
0.092500 0.611200
0.114000 0.493200
0.135500 0.600900
0.157000 0.850400
0.178500 1.137300
0.200000 1.515000
0.221500 2.110600
0.243100 2.798700
0.264600 3.187900
0.286100 3.068000
0.307600 2.626300
0.329100 2.168300
0.350600 1.860300
0.372100 1.716200
0.393600 1.648600
0.415100 1.569800
0.436600 1.517300
0.458100 1.580700
0.479600 1.706200
0.501100 1.749800
0.522600 1.737400
0.544100 1.825700
0.565600 1.963600
0.587100 1.889800
0.608600 1.545500
0.630100 1.228200
0.651600 1.249500
0.673100 1.601300
0.694600 1.991700
0.716100 2.104400
0.737600 1.853600
0.759100 1.445800
0.780600 1.141900
0.802100 1.012700
0.823700 0.984300
0.845200 0.984400
0.866700 0.972800
0.888200 0.939600
0.909700 0.906100
0.931200 0.887100
0.952700 0.900700
0.974200 0.994000
0.995700 1.160500
1.017200 1.311300
1.038700 1.425900
1.060200 1.612000
1.081700 1.951100
1.103200 2.395300
1.124700 2.827100
1.146200 3.167800
1.167700 3.407400
1.189200 3.485800
1.210700 3.253100
1.232200 2.727200
1.253700 2.249700
1.275200 2.166200
1.296700 2.429800
1.318200 2.665900
1.339700 2.592200
1.361200 2.280900
1.382700 2.010500
1.404300 1.964600
1.425800 2.096400
1.447300 2.222300
1.468800 2.197200
1.490300 2.008800
1.511800 1.770000
1.533300 1.632500
1.554800 1.659000
1.576300 1.774500
1.597800 1.838400
1.619300 1.783200
1.640800 1.678200
1.662300 1.592800
1.683800 1.468100
1.705300 1.244100
1.726800 1.012400
1.748300 0.918900
1.769800 0.977400
1.791300 1.060500
1.812800 1.053000
1.834300 0.942700
1.855800 0.772400
1.877300 0.611500
1.898800 0.558900
1.920300 0.664500
1.941800 0.862200
1.963300 1.017900
1.984900 1.019500
2.006400 0.860600
2.027900 0.651500
2.049400 0.509300
2.070900 0.468500
2.092400 0.495500
2.113900 0.548100
2.135400 0.619700
2.156900 0.695200
2.178400 0.697800
2.199900 0.571300
2.221400 0.378100
2.242900 0.238400
2.264400 0.195200
2.285900 0.190100
2.307400 0.157100
2.328900 0.097400
2.350400 0.054600
2.371900 0.059000
2.393400 0.110400
2.414900 0.181100
2.436400 0.239000
2.457900 0.288300
2.479400 0.357300
2.500900 0.438300
2.522400 0.482600
2.544000 0.456400
2.565500 0.374400
2.587000 0.291400
2.608500 0.263900
2.630000 0.291400
2.651500 0.320100
2.673000 0.321100
2.694500 0.313700
2.716000 0.305300
2.737500 0.287300
2.759000 0.286400
2.780500 0.352400
2.802000 0.491900
2.823500 0.635000
2.845000 0.676800
2.866500 0.580600
2.888000 0.418800
2.909500 0.278800
2.931000 0.186000
2.952500 0.135200
2.974000 0.131500
2.995500 0.187400
3.017000 0.299900
3.038500 0.445600
3.060000 0.617300
3.081500 0.835200
3.103000 1.070500
3.124600 1.212100
3.146100 1.181900
3.167600 1.038800
3.189100 0.917000
3.210600 0.895800
3.232100 0.938600
3.253600 0.933000
3.275100 0.818700
3.296600 0.687000
3.318100 0.679900
3.339600 0.812000
3.361100 0.988700
3.382600 1.151600
3.404100 1.289700
3.425600 1.348800
3.447100 1.248500
3.468600 0.993600
3.490100 0.697800
3.511600 0.489600
3.533100 0.421600
3.554600 0.469300
3.576100 0.588800
3.597600 0.762700
3.619100 1.030400
3.640600 1.465600
3.662100 2.008400
3.683600 2.351700
3.705200 2.209300
3.726700 1.696000
3.748200 1.230100
3.769700 1.123700
3.791200 1.384400
3.812700 1.777500
3.834200 2.036100
3.855700 2.093500
3.877200 2.065200
3.898700 2.049700
3.920200 2.086600
3.941700 2.168100
3.963200 2.173400
3.984700 1.970500
4.006200 1.610900
4.027700 1.313000
4.049200 1.246000
4.070700 1.339500
4.092200 1.388400
4.113700 1.368200
4.135200 1.429700
4.156700 1.558800
4.178200 1.547300
4.199700 1.368300
4.221200 1.324000
4.242700 1.687800
4.264200 2.332800
4.285800 2.866900
4.307300 3.063300
4.328800 2.991500
4.350300 2.807900
4.371800 2.626100
4.393300 2.517600
4.414800 2.493200
4.436300 2.559700
4.457800 2.804800
4.479300 3.251900
4.500800 3.652200
4.522300 3.690700
4.543800 3.396400
4.565300 3.100500
4.586800 3.043100
4.608300 3.168800
4.629800 3.277100
4.651300 3.315400
4.672800 3.413500
4.694300 3.598400
4.715800 3.676600
4.737300 3.494500
4.758800 3.129200
4.780300 2.747600
4.801800 2.427100
4.823300 2.148900
4.844800 1.915300
4.866400 1.834500
4.887900 2.020800
4.909400 2.441900
4.930900 2.950600
4.952400 3.406900
4.973900 3.656800
4.995400 3.530400
5.016900 3.047000
5.038400 2.492600
5.059900 2.130400
5.081400 1.946700
5.102900 1.783000
5.124400 1.598200
5.145900 1.485100
5.167400 1.493200
5.188900 1.561800
5.210400 1.623600
5.231900 1.660300
5.253400 1.671400
5.274900 1.687500
5.296400 1.763400
5.317900 1.897800
5.339400 2.042100
5.360900 2.178100
5.382400 2.288000
5.403900 2.316700
5.425400 2.257900
5.447000 2.209100
5.468500 2.286300
5.490000 2.501000
5.511500 2.730200
5.533000 2.795400
5.554500 2.594200
5.576000 2.194300
5.597500 1.769000
5.619000 1.434500
5.640500 1.223000
5.662000 1.177000
5.683500 1.350200
5.705000 1.712200
5.726500 2.114500
5.748000 2.402700
5.769500 2.567900
5.791000 2.721200
5.812500 2.904900
5.834000 3.010100
5.855500 2.884200
5.877000 2.472300
5.898500 1.906300
5.920000 1.488700
5.941500 1.476800
5.963000 1.803300
5.984500 2.111100
6.006100 2.170100
6.027600 2.152300
6.049100 2.347900
6.070600 2.729300
6.092100 3.004000
6.113600 3.014900
6.135100 2.848400
6.156600 2.570400
6.178100 2.117200
6.199600 1.529300
6.221100 1.095000
6.242600 1.121400
6.264100 1.619800
6.285600 2.242200
6.307100 2.533000
6.328600 2.332800
6.350100 1.889200
6.371600 1.513400
6.393100 1.313000
6.414600 1.292100
6.436100 1.473300
6.457600 1.851100
6.479100 2.337700
6.500600 2.780600
6.522100 2.980800
6.543600 2.798200
6.565100 2.349200
6.586700 1.968800
6.608200 1.878000
6.629700 1.978100
6.651200 2.049900
6.672700 2.063600
6.694200 2.128600
6.715700 2.246000
6.737200 2.306600
6.758700 2.242100
6.780200 2.074800
6.801700 1.879400
6.823200 1.758500
6.844700 1.823900
6.866200 2.128800
6.887700 2.576100
6.909200 2.932700
6.930700 3.024100
6.952200 2.930400
6.973700 2.910000
6.995200 3.058200
7.016700 3.103900
7.038200 2.750900
7.059700 2.118300
7.081200 1.568000
7.102700 1.313900
7.124200 1.376700
7.145700 1.632500
7.167300 1.855600
7.188800 1.926000
7.210300 1.911900
7.231800 1.874400
7.253300 1.816600
7.274800 1.866300
7.296300 2.233200
7.317800 2.860800
7.339300 3.334400
7.360800 3.309800
7.382300 2.895800
7.403800 2.503100
7.425300 2.408500
7.446800 2.512900
7.468300 2.515300
7.489800 2.255400
7.511300 1.795600
7.532800 1.304200
7.554300 1.012000
7.575800 1.117000
7.597300 1.571000
7.618800 2.066500
7.640300 2.339800
7.661800 2.394700
7.683300 2.383700
7.704800 2.440300
7.726300 2.617400
7.747900 2.806300
7.769400 2.820700
7.790900 2.687300
7.812400 2.651300
7.833900 2.830500
7.855400 3.088200
7.876900 3.237100
7.898400 3.185800
7.919900 2.969800
7.941400 2.766500
7.962900 2.777600
7.984400 3.018500
8.005900 3.257100
8.027400 3.193500
8.048900 2.759900
8.070400 2.217100
8.091900 1.895400
8.113400 1.896900
8.134900 2.100800
8.156400 2.330300
8.177900 2.406400
8.199400 2.228400
8.220900 1.961100
8.242400 1.955500
8.263900 2.363000
8.285400 2.978900
8.306900 3.528700
8.328500 3.917700
8.350000 4.121800
8.371500 4.067100
8.393000 3.710900
8.414500 3.116200
8.436000 2.464200
8.457500 2.007600
8.479000 1.871900
8.500500 1.930000
8.522000 1.996200
8.543500 2.057500
8.565000 2.193800
8.586500 2.372500
8.608000 2.468900
8.629500 2.437700
8.651000 2.330100
8.672500 2.207800
8.694000 2.136900
8.715500 2.170900
8.737000 2.283700
8.758500 2.431800
8.780000 2.677100
8.801500 3.050800
8.823000 3.365500
8.844500 3.421900
8.866000 3.281200
8.887600 3.108700
8.909100 2.935800
8.930600 2.802300
8.952100 2.898600
8.973600 3.292900
8.995100 3.708600
9.016600 3.817000
9.038100 3.623400
9.059600 3.382700
9.081100 3.216300
9.102600 3.019700
9.124100 2.737400
9.145600 2.508000
9.167100 2.499500
9.188600 2.725800
9.210100 3.026500
9.231600 3.200000
9.253100 3.231400
9.274600 3.327800
9.296100 3.600700
9.317600 3.840100
9.339100 3.750100
9.360600 3.320300
9.382100 2.832100
9.403600 2.538500
9.425100 2.475800
9.446600 2.573000
9.468200 2.789700
9.489700 3.086900
9.511200 3.336300
9.532700 3.370700
9.554200 3.178400
9.575700 2.967000
9.597200 2.914500
9.618700 2.958500
9.640200 2.947900
9.661700 2.800900
9.683200 2.481300
9.704700 2.087100
9.726200 1.890800
9.747700 2.040900
9.769200 2.335400
9.790700 2.491900
9.812200 2.509900
9.833700 2.589600
9.855200 2.808000
9.876700 3.062000
9.898200 3.249800
9.919700 3.345400
9.941200 3.341800
9.962700 3.218500
9.984200 2.993800
10.005700 2.795300
10.027200 2.796800
10.048800 3.077300
10.070300 3.555900
10.091800 4.027700
10.113300 4.280100
10.134800 4.199400
10.156300 3.794900
10.177800 3.224900
10.199300 2.747900
10.220800 2.501100
10.242300 2.458800
10.263800 2.629300
10.285300 2.970400
10.306800 3.212800
10.328300 3.202000
10.349800 3.185700
10.371300 3.389400
10.392800 3.639400
10.414300 3.647700
10.435800 3.348400
10.457300 2.863400
10.478800 2.398100
10.500300 2.145300
10.521800 2.137400
10.543300 2.250600
10.564800 2.372600
10.586300 2.484500
10.607800 2.615200
10.629400 2.788400
10.650900 2.984300
10.672400 3.122100
10.693900 3.122900
10.715400 2.992700
10.736900 2.805700
10.758400 2.618100
10.779900 2.429000
10.801400 2.219000
10.822900 2.041700
10.844400 2.049500
10.865900 2.322700
10.887400 2.673100
10.908900 2.786500
10.930400 2.574900
10.951900 2.204800
10.973400 1.855000
10.994900 1.649500
11.016400 1.724700
11.037900 2.215000
11.059400 3.108200
11.080900 4.024500
11.102400 4.347200
11.123900 3.880000
11.145400 3.129600
11.166900 2.706100
11.188400 2.733600
11.210000 2.937100
11.231500 3.079400
11.253000 3.183900
11.274500 3.316100
11.296000 3.358300
11.317500 3.170400
11.339000 2.796800
11.360500 2.377700
11.382000 1.991200
11.403500 1.665300
11.425000 1.422500
11.446500 1.256400
11.468000 1.177500
11.489500 1.254900
11.511000 1.481000
11.532500 1.703800
11.554000 1.856600
11.575500 2.077500
11.597000 2.425400
11.618500 2.701400
11.640000 2.739000
11.661500 2.633400
11.683000 2.518800
11.704500 2.332400
11.726000 1.962400
11.747500 1.504900
11.769000 1.221500
11.790600 1.252100
11.812100 1.459300
11.833600 1.591100
11.855100 1.532200
11.876600 1.358800
11.898100 1.221100
11.919600 1.237800
11.941100 1.442600
11.962600 1.753200
11.984100 2.028100
12.005600 2.193800
12.027100 2.261000
12.048600 2.235300
12.070100 2.152000
12.091600 2.189800
12.113100 2.539000
12.134600 3.089300
12.156100 3.445500
12.177600 3.351900
12.199100 2.929300
12.220600 2.440900
12.242100 2.030700
12.263600 1.743200
12.285100 1.620800
12.306600 1.659300
12.328100 1.750000
12.349700 1.771000
12.371200 1.679300
12.392700 1.486900
12.414200 1.237200
12.435700 1.018200
12.457200 0.945100
12.478700 1.108600
12.500200 1.518900
12.521700 2.061400
12.543200 2.520000
12.564700 2.727100
12.586200 2.690800
12.607700 2.519300
12.629200 2.302700
12.650700 2.146600
12.672200 2.156000
12.693700 2.273500
12.715200 2.289500
12.736700 2.109000
12.758200 1.863400
12.779700 1.684400
12.801200 1.528400
12.822700 1.319700
12.844200 1.130100
12.865700 1.122300
12.887200 1.385400
12.908700 1.829600
12.930300 2.224000
12.951800 2.397300
12.973300 2.375200
12.994800 2.282700
13.016300 2.182800
13.037800 2.067800
13.059300 1.992900
13.080800 2.105600
13.102300 2.448300
13.123800 2.818500
13.145300 2.935500
13.166800 2.715200
13.188300 2.347300
13.209800 2.130800
13.231300 2.207800
13.252800 2.442400
13.274300 2.567100
13.295800 2.410000
13.317300 2.025100
13.338800 1.656300
13.360300 1.533600
13.381800 1.691800
13.403300 1.980200
13.424800 2.213400
13.446300 2.310800
13.467800 2.301300
13.489300 2.223100
13.510900 2.087800
13.532400 1.976900
13.553900 2.031400
13.575400 2.233000
13.596900 2.356300
13.618400 2.247500
13.639900 2.024300
13.661400 1.926100
13.682900 2.049700
13.704400 2.311500
13.725900 2.593700
13.747400 2.785300
13.768900 2.771000
13.790400 2.557800
13.811900 2.307400
13.833400 2.133100
13.854900 2.027200
13.876400 1.983200
13.897900 2.005500
13.919400 2.072000
13.940900 2.162500
13.962400 2.253600
13.983900 2.328000
14.005400 2.385400
14.026900 2.414300
14.048400 2.408300
14.069900 2.369000
14.091500 2.259300
14.113000 2.049700
14.134500 1.839700
14.156000 1.823600
14.177500 2.060400
14.199000 2.360400
14.220500 2.502300
14.242000 2.478900
14.263500 2.412400
14.285000 2.341900
14.306500 2.237600
14.328000 2.110300
14.349500 2.013500
14.371000 1.992900
14.392500 2.021200
14.414000 2.005800
14.435500 1.910100
14.457000 1.779400
14.478500 1.684700
14.500000 1.725400
14.521500 1.945700
14.543000 2.209200
14.564500 2.346700
14.586000 2.383100
14.607500 2.434500
14.629000 2.550000
14.650500 2.769000
14.672100 3.095000
14.693600 3.402800
14.715100 3.544100
14.736600 3.464600
14.758100 3.213300
14.779600 2.929800
14.801100 2.684200
14.822600 2.394500
14.844100 2.081800
14.865600 1.971600
14.887100 2.189600
14.908600 2.543600
14.930100 2.683600
14.951600 2.416500
14.973100 1.865100
14.994600 1.349300
15.016100 1.146500
15.037600 1.390300
15.059100 2.055000
15.080600 2.857200
15.102100 3.307300
15.123600 3.116600
15.145100 2.519300
15.166600 2.042200
15.188100 2.000900
15.209600 2.298100
15.231200 2.632300
15.252700 2.784000
15.274200 2.719300
15.295700 2.543800
15.317200 2.418100
15.338700 2.463100
15.360200 2.663700
15.381700 2.887700
15.403200 3.050100
15.424700 3.205700
15.446200 3.445200
15.467700 3.776400
15.489200 4.141200
15.510700 4.436500
15.532200 4.477200
15.553700 4.127800
15.575200 3.497500
15.596700 2.830100
15.618200 2.308300
15.639700 2.037100
15.661200 2.004000
15.682700 2.078200
15.704200 2.206500
15.725700 2.456900
15.747200 2.795600
15.768700 3.035300
15.790200 3.079300
15.811800 3.067300
15.833300 3.166700
15.854800 3.302500
15.876300 3.286400
15.897800 3.153900
15.919300 3.120000
15.940800 3.255400
15.962300 3.462000
15.983800 3.707600
16.005300 4.005900
16.026800 4.223600
16.048300 4.186200
16.069800 3.928900
16.091300 3.640500
16.112800 3.466200
16.134300 3.491000
16.155800 3.743800
16.177300 4.045000
16.198800 4.060500
16.220300 3.756400
16.241800 3.565000
16.263300 3.879000
16.284800 4.552900
16.306300 5.079000
16.327800 5.166200
16.349300 4.908200
16.370800 4.458800
16.392400 3.877100
16.413900 3.267800
16.435400 2.876200
16.456900 2.993500
16.478400 3.633200
16.499900 4.310400
16.521400 4.459600
16.542900 4.143000
16.564400 3.980700
16.585900 4.268100
16.607400 4.624100
16.628900 4.632700
16.650400 4.348900
16.671900 4.047300
16.693400 3.822200
16.714900 3.619400
16.736400 3.507700
16.757900 3.646900
16.779400 3.990500
16.800900 4.254100
16.822400 4.236600
16.843900 4.038600
16.865400 3.864700
16.886900 3.712700
16.908400 3.404400
16.929900 2.864600
16.951400 2.257800
16.973000 1.911100
16.994500 2.111300
17.016000 2.806900
17.037500 3.544900
17.059000 3.889900
17.080500 3.827300
17.102000 3.620700
17.123500 3.457300
17.145000 3.415800
17.166500 3.606200
17.188000 4.032400
17.209500 4.395500
17.231000 4.375900
17.252500 4.000900
17.274000 3.471900
17.295500 2.917500
17.317000 2.485300
17.338500 2.325300
17.360000 2.402600
17.381500 2.587600
17.403000 2.875800
17.424500 3.265800
17.446000 3.539300
17.467500 3.435300
17.489000 3.021200
17.510500 2.689200
17.532000 2.717100
17.553600 2.920600
17.575100 2.869200
17.596600 2.432600
17.618100 1.915100
17.639600 1.642900
17.661100 1.653200
17.682600 1.782700
17.704100 1.870600
17.725600 1.859200
17.747100 1.783800
17.768600 1.702500
17.790100 1.671800
17.811600 1.746900
17.833100 1.938600
17.854600 2.234700
17.876100 2.614800
17.897600 2.934100
17.919100 3.003200
17.940600 2.896000
17.962100 2.837800
17.983600 2.822900
18.005100 2.730300
18.026600 2.598500
18.048100 2.499000
18.069600 2.420400
18.091100 2.354000
18.112600 2.303600
18.134200 2.272000
18.155700 2.306000
18.177200 2.445800
18.198700 2.598600
18.220200 2.618100
18.241700 2.524000
18.263200 2.464900
18.284700 2.482200
18.306200 2.465000
18.327700 2.353900
18.349200 2.282500
18.370700 2.455700
18.392200 2.962700
18.413700 3.689900
18.435200 4.327300
18.456700 4.548100
18.478200 4.276000
18.499700 3.779800
18.521200 3.465000
18.542700 3.517600
18.564200 3.813000
18.585700 4.167200
18.607200 4.477200
18.628700 4.638400
18.650200 4.564400
18.671700 4.312100
18.693300 4.059000
18.714800 3.912700
18.736300 3.832600
18.757800 3.776400
18.779300 3.720200
18.800800 3.504900
18.822300 3.013000
18.843800 2.521900
18.865300 2.523500
18.886800 3.127900
18.908300 3.893200
18.929800 4.291800
18.951300 4.156400
18.972800 3.690500
18.994300 3.237000
19.015800 3.026500
19.037300 3.083600
19.058800 3.313700
19.080300 3.587100
19.101800 3.818200
19.123300 3.990100
19.144800 4.025100
19.166300 3.814700
19.187800 3.491500
19.209300 3.433600
19.230800 3.850700
19.252300 4.466600
19.273900 4.800400
19.295400 4.713300
19.316900 4.411900
19.338400 4.063000
19.359900 3.755900
19.381400 3.584000
19.402900 3.438700
19.424400 3.068700
19.445900 2.585800
19.467400 2.537600
19.488900 3.269000
19.510400 4.434700
19.531900 5.323900
19.553400 5.594700
19.574900 5.480500
19.596400 5.304900
19.617900 5.094600
19.639400 4.700700
19.660900 4.101000
19.682400 3.542600
19.703900 3.353000
19.725400 3.555800
19.746900 3.831600
19.768400 3.957100
19.789900 4.007400
19.811400 4.032400
19.832900 3.925900
19.854500 3.710500
19.876000 3.604200
19.897500 3.765900
19.919000 4.171200
19.940500 4.597400
19.962000 4.683100
19.983500 4.311200
20.005000 3.859700
20.026500 3.775200
20.048000 4.062100
20.069500 4.395800
20.091000 4.565800
20.112500 4.595500
20.134000 4.481200
20.155500 4.098800
20.177000 3.501100
20.198500 3.032000
20.220000 2.935100
20.241500 3.090800
20.263000 3.281300
20.284500 3.469400
20.306000 3.734100
20.327500 4.075400
20.349000 4.320100
20.370500 4.259900
20.392000 3.897200
20.413500 3.454400
20.435100 3.173200
20.456600 3.198300
20.478100 3.586400
20.499600 4.296500
20.521100 5.106100
20.542600 5.608600
20.564100 5.494300
20.585600 4.881400
20.607100 4.255000
20.628600 4.047600
20.650100 4.294200
20.671600 4.693100
20.693100 4.971600
20.714600 5.134500
20.736100 5.303100
20.757600 5.359600
20.779100 5.001100
20.800600 4.219300
20.822100 3.447900
20.843600 3.143400
20.865100 3.409100
20.886600 3.996100
20.908100 4.484100
20.929600 4.553200
20.951100 4.214600
20.972600 3.746900
20.994100 3.432200
21.015700 3.381300
21.037200 3.500100
21.058700 3.571400
21.080200 3.494600
21.101700 3.449400
21.123200 3.706600
21.144700 4.293500
21.166200 4.864600
21.187700 4.968100
21.209200 4.542400
21.230700 3.983400
21.252200 3.615200
21.273700 3.418100
21.295200 3.354100
21.316700 3.546300
21.338200 4.033700
21.359700 4.597600
21.381200 4.939600
21.402700 5.005500
21.424200 4.978600
21.445700 4.926000
21.467200 4.773900
21.488700 4.625200
21.510200 4.675500
21.531700 4.850900
21.553200 4.898800
21.574800 4.666600
21.596300 4.103000
21.617800 3.334100
21.639300 2.735300
21.660800 2.628700
21.682300 3.053100
21.703800 3.872000
21.725300 4.828700
21.746800 5.557400
21.768300 5.784200
21.789800 5.509800
21.811300 4.980800
21.832800 4.501500
21.854300 4.239500
21.875800 4.236600
21.897300 4.442800
21.918800 4.640800
21.940300 4.614000
21.961800 4.416100
21.983300 4.288100
22.004800 4.388600
22.026300 4.682500
22.047800 4.977100
22.069300 4.989000
22.090800 4.542900
22.112300 3.834400
22.133800 3.319900
22.155400 3.230300
22.176900 3.357400
22.198400 3.426600
22.219900 3.462700
22.241400 3.610500
22.262900 3.798800
22.284400 3.804400
22.305900 3.563600
22.327400 3.268800
22.348900 3.173100
22.370400 3.284400
22.391900 3.300000
22.413400 3.024000
22.434900 2.688200
22.456400 2.597500
22.477900 2.669300
22.499400 2.598900
22.520900 2.327200
22.542400 2.107900
22.563900 2.238200
22.585400 2.809900
22.606900 3.570500
22.628400 4.125600
22.649900 4.353900
22.671400 4.399500
22.692900 4.332000
22.714400 4.101200
22.736000 3.743900
22.757500 3.415900
22.779000 3.234900
22.800500 3.199500
22.822000 3.239000
22.843500 3.259100
22.865000 3.182400
22.886500 2.998700
22.908000 2.756400
22.929500 2.518200
22.951000 2.339800
22.972500 2.265000
22.994000 2.302500
23.015500 2.423500
23.037000 2.595200
23.058500 2.774200
23.080000 2.863200
23.101500 2.754700
23.123000 2.463600
23.144500 2.145700
23.166000 1.935400
23.187500 1.818500
23.209000 1.691800
23.230500 1.488700
23.252000 1.221400
23.273500 0.952000
23.295000 0.751500
23.316600 0.695400
23.338100 0.869800
23.359600 1.288800
23.381100 1.793600
23.402600 2.121400
23.424100 2.104800
23.445600 1.781800
23.467100 1.341300
23.488600 0.989300
23.510100 0.857000
23.531600 0.981600
23.553100 1.274400
23.574600 1.527700
23.596100 1.582700
23.617600 1.477100
23.639100 1.346200
23.660600 1.252400
23.682100 1.183200
23.703600 1.119300
23.725100 1.052600
23.746600 0.993200
23.768100 0.959300
23.789600 0.969700
23.811100 1.053600
23.832600 1.182100
23.854100 1.228900
23.875600 1.122100
23.897200 0.938000
23.918700 0.749200
23.940200 0.539000
23.961700 0.316000
23.983200 0.152000
24.004700 0.088000
24.026200 0.102000
24.047700 0.165500
24.069200 0.289300
24.090700 0.492600
24.112200 0.721200
24.133700 0.849400
24.155200 0.803600
24.176700 0.641300
24.198200 0.471600
24.219700 0.348200
24.241200 0.281500
24.262700 0.282500
24.284200 0.339400
24.305700 0.410600
24.327200 0.460400
24.348700 0.469100
24.370200 0.439000
24.391700 0.410600
24.413200 0.416900
24.434700 0.427600
24.456200 0.391200
24.477800 0.311400
24.499300 0.231500
24.520800 0.171900
24.542300 0.121800
24.563800 0.073100
24.585300 0.033800
24.606800 0.011600
24.628300 0.003800
24.649800 0.004900
24.671300 0.013400
24.692800 0.028200
24.714300 0.041800
24.735800 0.043100
24.757300 0.031100
24.778800 0.015700
24.800300 0.005500
24.821800 0.001400
24.843300 0.000200
24.864800 0.000000
24.886300 0.000000
24.907800 0.000000
24.929300 0.000000
24.950800 0.000000
24.972300 0.000000
24.993800 0.000000
25.015300 0.000000
25.036900 0.000000
25.058400 0.000000
25.079900 0.000000
25.101400 0.000000
25.122900 0.000000
25.144400 0.000000
25.165900 0.000000
25.187400 0.000000
25.208900 0.000000
25.230400 0.000000
25.251900 0.000000
25.273400 0.000000
25.294900 0.000000
25.316400 0.000000
25.337900 0.000000
25.359400 0.000000
25.380900 0.000000
25.402400 0.000000
25.423900 0.000000
25.445400 0.000000
25.466900 0.000000
25.488400 0.000000
25.509900 0.000000
25.531400 0.000000
25.552900 0.000000
25.574400 0.000000
25.595900 0.000000
25.617500 0.000000
25.639000 0.000000
25.660500 0.000000
25.682000 0.000000
25.703500 0.000000
25.725000 0.000000
25.746500 0.000000
25.768000 0.000000
25.789500 0.000000
25.811000 0.000000
25.832500 0.000000
25.854000 0.000000
25.875500 0.000000
25.897000 0.000000
25.918500 0.000000
25.940000 0.000000
25.961500 0.000000
25.983000 0.000000
26.004500 0.000000
26.026000 0.000000
26.047500 0.000000
26.069000 0.000000
26.090500 0.000000
26.112000 0.000000
26.133500 0.000000
26.155000 0.000000
26.176500 0.000000
26.198100 0.000000
26.219600 0.000000
26.241100 0.000000
26.262600 0.000000
26.284100 0.000000
26.305600 0.000000
26.327100 0.000000
26.348600 0.000000
26.370100 0.000000
26.391600 0.000000
26.413100 0.000000
26.434600 0.000000
26.456100 0.000000
26.477600 0.000000
26.499100 0.000000
26.520600 0.000000
26.542100 0.000000
26.563600 0.000000
26.585100 0.000000
26.606600 0.000000
26.628100 0.000000
26.649600 0.000000
26.671100 0.000000
e
