set title 'mp-976422 - Density of States'
set xlabel 'Energy (eV)'
set ylabel 'DOS (states/eV)'
set grid
set xrange [-10:10]
set yrange [0:8.247]
set xzeroaxis lt -1
set terminal png size 800,600
set output 'mp-976422_dos_gnuplot.png'
plot '-' using 1:2 with lines title 'DOS'
-28.373000 0.000000
-28.343600 0.000000
-28.314300 0.000000
-28.285000 0.000000
-28.255700 0.000000
-28.226400 0.000000
-28.197000 0.000000
-28.167700 0.000000
-28.138400 0.000000
-28.109100 0.000000
-28.079800 0.000000
-28.050400 0.000000
-28.021100 0.000000
-27.991800 0.000000
-27.962500 0.000000
-27.933200 0.000000
-27.903900 0.000000
-27.874500 0.000000
-27.845200 0.000000
-27.815900 0.000000
-27.786600 0.000000
-27.757300 0.000000
-27.727900 0.000000
-27.698600 0.000000
-27.669300 0.000000
-27.640000 0.000000
-27.610700 0.000000
-27.581300 0.000000
-27.552000 0.000000
-27.522700 0.000000
-27.493400 0.000000
-27.464100 0.000000
-27.434700 0.000000
-27.405400 0.000000
-27.376100 0.000000
-27.346800 0.000000
-27.317500 0.000000
-27.288200 0.000000
-27.258800 0.000000
-27.229500 0.000000
-27.200200 0.000000
-27.170900 0.000000
-27.141600 0.000000
-27.112200 0.000000
-27.082900 0.000000
-27.053600 0.000000
-27.024300 0.000000
-26.995000 0.000000
-26.965600 0.000000
-26.936300 0.000000
-26.907000 0.000000
-26.877700 0.000000
-26.848400 0.000000
-26.819000 0.000000
-26.789700 0.000000
-26.760400 0.000000
-26.731100 0.000000
-26.701800 0.000000
-26.672500 0.000000
-26.643100 0.000000
-26.613800 0.000000
-26.584500 0.000000
-26.555200 0.000000
-26.525900 0.000000
-26.496500 0.000000
-26.467200 0.000000
-26.437900 0.000000
-26.408600 0.000000
-26.379300 0.000000
-26.349900 0.000000
-26.320600 0.000000
-26.291300 0.000000
-26.262000 0.000000
-26.232700 0.000000
-26.203300 0.000000
-26.174000 0.000000
-26.144700 0.000000
-26.115400 0.000000
-26.086100 0.000000
-26.056800 0.000000
-26.027400 0.000000
-25.998100 0.000000
-25.968800 0.000000
-25.939500 0.000000
-25.910200 0.000000
-25.880800 0.000000
-25.851500 0.000000
-25.822200 0.000400
-25.792900 0.006300
-25.763600 0.055700
-25.734200 0.282100
-25.704900 0.843800
-25.675600 1.613700
-25.646300 2.282000
-25.617000 2.807400
-25.587600 3.409800
-25.558300 4.653300
-25.529000 6.952800
-25.499700 9.566700
-25.470400 11.545200
-25.441000 13.426600
-25.411700 16.203000
-25.382400 19.062800
-25.353100 20.248000
-25.323800 19.999500
-25.294500 19.896500
-25.265100 19.900200
-25.235800 18.674300
-25.206500 15.656300
-25.177200 11.862500
-25.147900 9.082100
-25.118500 7.910400
-25.089200 7.830700
-25.059900 8.602400
-25.030600 10.003300
-25.001300 10.941000
-24.971900 10.437500
-24.942600 9.261500
-24.913300 9.048900
-24.884000 10.405700
-24.854700 12.384000
-24.825300 13.634100
-24.796000 14.062600
-24.766700 14.820900
-24.737400 16.751000
-24.708100 19.032900
-24.678800 19.714300
-24.649400 17.991000
-24.620100 14.972400
-24.590800 12.154600
-24.561500 10.453200
-24.532200 10.198000
-24.502800 10.247900
-24.473500 8.732700
-24.444200 6.439800
-24.414900 5.259400
-24.385600 5.265000
-24.356200 5.573300
-24.326900 5.465500
-24.297600 5.030500
-24.268300 4.922100
-24.239000 5.633900
-24.209600 6.725000
-24.180300 7.240600
-24.151000 7.800000
-24.121700 8.981700
-24.092400 9.294700
-24.063100 8.121300
-24.033700 6.516500
-24.004400 4.628700
-23.975100 2.421400
-23.945800 0.810800
-23.916500 0.162100
-23.887100 0.018600
-23.857800 0.001200
-23.828500 0.000000
-23.799200 0.000000
-23.769900 0.000000
-23.740500 0.000000
-23.711200 0.000000
-23.681900 0.000000
-23.652600 0.000000
-23.623300 0.000000
-23.593900 0.000000
-23.564600 0.000000
-23.535300 0.000000
-23.506000 0.000000
-23.476700 0.000000
-23.447400 0.000000
-23.418000 0.000000
-23.388700 0.000000
-23.359400 0.000000
-23.330100 0.000000
-23.300800 0.000000
-23.271400 0.000000
-23.242100 0.000000
-23.212800 0.000000
-23.183500 0.000000
-23.154200 0.000000
-23.124800 0.000000
-23.095500 0.000000
-23.066200 0.000000
-23.036900 0.000000
-23.007600 0.000000
-22.978200 0.000000
-22.948900 0.000000
-22.919600 0.000000
-22.890300 0.000000
-22.861000 0.000000
-22.831600 0.000000
-22.802300 0.000000
-22.773000 0.000000
-22.743700 0.000000
-22.714400 0.000000
-22.685100 0.000000
-22.655700 0.000000
-22.626400 0.000000
-22.597100 0.000000
-22.567800 0.000000
-22.538500 0.000000
-22.509100 0.000000
-22.479800 0.000000
-22.450500 0.000000
-22.421200 0.000000
-22.391900 0.000000
-22.362500 0.000000
-22.333200 0.000000
-22.303900 0.000000
-22.274600 0.000000
-22.245300 0.000000
-22.215900 0.000000
-22.186600 0.000000
-22.157300 0.000000
-22.128000 0.000000
-22.098700 0.000000
-22.069400 0.000000
-22.040000 0.000000
-22.010700 0.000000
-21.981400 0.000000
-21.952100 0.000000
-21.922800 0.000000
-21.893400 0.000000
-21.864100 0.000000
-21.834800 0.000000
-21.805500 0.000000
-21.776200 0.000000
-21.746800 0.000000
-21.717500 0.000000
-21.688200 0.000000
-21.658900 0.000000
-21.629600 0.000000
-21.600200 0.000000
-21.570900 0.000000
-21.541600 0.000000
-21.512300 0.000000
-21.483000 0.000000
-21.453700 0.000000
-21.424300 0.000000
-21.395000 0.000000
-21.365700 0.000000
-21.336400 0.000000
-21.307100 0.000000
-21.277700 0.000000
-21.248400 0.000000
-21.219100 0.000000
-21.189800 0.000000
-21.160500 0.000000
-21.131100 0.000000
-21.101800 0.000000
-21.072500 0.000000
-21.043200 0.000000
-21.013900 0.000000
-20.984500 0.000000
-20.955200 0.000000
-20.925900 0.000000
-20.896600 0.000000
-20.867300 0.000000
-20.838000 0.000000
-20.808600 0.000000
-20.779300 0.000000
-20.750000 0.000000
-20.720700 0.000000
-20.691400 0.000000
-20.662000 0.000000
-20.632700 0.000000
-20.603400 0.000000
-20.574100 0.000000
-20.544800 0.000000
-20.515400 0.000000
-20.486100 0.000000
-20.456800 0.000000
-20.427500 0.000000
-20.398200 0.000000
-20.368800 0.000000
-20.339500 0.000000
-20.310200 0.000000
-20.280900 0.000000
-20.251600 0.000000
-20.222300 0.000000
-20.192900 0.000000
-20.163600 0.000000
-20.134300 0.000000
-20.105000 0.000000
-20.075700 0.000000
-20.046300 0.000000
-20.017000 0.000000
-19.987700 0.000000
-19.958400 0.000000
-19.929100 0.000000
-19.899700 0.000000
-19.870400 0.000000
-19.841100 0.000000
-19.811800 0.000000
-19.782500 0.000000
-19.753100 0.000000
-19.723800 0.000000
-19.694500 0.000000
-19.665200 0.000000
-19.635900 0.000000
-19.606500 0.000000
-19.577200 0.000000
-19.547900 0.000000
-19.518600 0.000000
-19.489300 0.000000
-19.460000 0.000000
-19.430600 0.000000
-19.401300 0.000000
-19.372000 0.000000
-19.342700 0.000000
-19.313400 0.000000
-19.284000 0.000000
-19.254700 0.000000
-19.225400 0.000000
-19.196100 0.000000
-19.166800 0.000000
-19.137400 0.000000
-19.108100 0.000000
-19.078800 0.000000
-19.049500 0.000000
-19.020200 0.000000
-18.990800 0.000000
-18.961500 0.000000
-18.932200 0.000000
-18.902900 0.000000
-18.873600 0.000000
-18.844300 0.000000
-18.814900 0.000000
-18.785600 0.000000
-18.756300 0.000000
-18.727000 0.000000
-18.697700 0.000000
-18.668300 0.000000
-18.639000 0.000000
-18.609700 0.000000
-18.580400 0.000000
-18.551100 0.000000
-18.521700 0.000000
-18.492400 0.000000
-18.463100 0.000000
-18.433800 0.000000
-18.404500 0.000000
-18.375100 0.000000
-18.345800 0.000000
-18.316500 0.000000
-18.287200 0.000000
-18.257900 0.000000
-18.228600 0.000000
-18.199200 0.000000
-18.169900 0.000000
-18.140600 0.000000
-18.111300 0.000000
-18.082000 0.000000
-18.052600 0.000000
-18.023300 0.000000
-17.994000 0.000000
-17.964700 0.000000
-17.935400 0.000000
-17.906000 0.000000
-17.876700 0.000000
-17.847400 0.000000
-17.818100 0.000000
-17.788800 0.000000
-17.759400 0.000000
-17.730100 0.000000
-17.700800 0.000000
-17.671500 0.000000
-17.642200 0.000000
-17.612900 0.000000
-17.583500 0.000000
-17.554200 0.000000
-17.524900 0.000000
-17.495600 0.000000
-17.466300 0.000000
-17.436900 0.000000
-17.407600 0.000000
-17.378300 0.000000
-17.349000 0.000000
-17.319700 0.000000
-17.290300 0.000000
-17.261000 0.000000
-17.231700 0.000000
-17.202400 0.000000
-17.173100 0.000000
-17.143700 0.000000
-17.114400 0.000000
-17.085100 0.000000
-17.055800 0.000000
-17.026500 0.000000
-16.997100 0.000000
-16.967800 0.000000
-16.938500 0.000000
-16.909200 0.000000
-16.879900 0.000000
-16.850600 0.000000
-16.821200 0.000000
-16.791900 0.000000
-16.762600 0.000000
-16.733300 0.000000
-16.704000 0.000000
-16.674600 0.000000
-16.645300 0.000000
-16.616000 0.000000
-16.586700 0.000000
-16.557400 0.000000
-16.528000 0.000000
-16.498700 0.000000
-16.469400 0.000000
-16.440100 0.000000
-16.410800 0.000000
-16.381400 0.000000
-16.352100 0.000000
-16.322800 0.000000
-16.293500 0.000000
-16.264200 0.000000
-16.234900 0.000000
-16.205500 0.000000
-16.176200 0.000000
-16.146900 0.000000
-16.117600 0.000000
-16.088300 0.000000
-16.058900 0.000000
-16.029600 0.000000
-16.000300 0.000000
-15.971000 0.000000
-15.941700 0.000000
-15.912300 0.000000
-15.883000 0.000000
-15.853700 0.000000
-15.824400 0.000000
-15.795100 0.000000
-15.765700 0.000000
-15.736400 0.000000
-15.707100 0.000000
-15.677800 0.000000
-15.648500 0.000000
-15.619200 0.000000
-15.589800 0.000000
-15.560500 0.000000
-15.531200 0.000000
-15.501900 0.000000
-15.472600 0.000000
-15.443200 0.000000
-15.413900 0.000000
-15.384600 0.000000
-15.355300 0.000000
-15.326000 0.000000
-15.296600 0.000000
-15.267300 0.000000
-15.238000 0.000000
-15.208700 0.000000
-15.179400 0.000000
-15.150000 0.000000
-15.120700 0.000000
-15.091400 0.000000
-15.062100 0.000000
-15.032800 0.000000
-15.003500 0.000000
-14.974100 0.000000
-14.944800 0.000000
-14.915500 0.000000
-14.886200 0.000000
-14.856900 0.000000
-14.827500 0.000000
-14.798200 0.000000
-14.768900 0.000000
-14.739600 0.000000
-14.710300 0.000000
-14.680900 0.000000
-14.651600 0.000000
-14.622300 0.000000
-14.593000 0.000000
-14.563700 0.000000
-14.534300 0.000000
-14.505000 0.000000
-14.475700 0.000000
-14.446400 0.000000
-14.417100 0.000000
-14.387800 0.000000
-14.358400 0.000000
-14.329100 0.000000
-14.299800 0.000000
-14.270500 0.000000
-14.241200 0.000000
-14.211800 0.000000
-14.182500 0.000000
-14.153200 0.000000
-14.123900 0.000000
-14.094600 0.000000
-14.065200 0.000000
-14.035900 0.000000
-14.006600 0.000000
-13.977300 0.000000
-13.948000 0.000000
-13.918600 0.000000
-13.889300 0.000000
-13.860000 0.000000
-13.830700 0.000000
-13.801400 0.000000
-13.772000 0.000000
-13.742700 0.000000
-13.713400 0.000000
-13.684100 0.000000
-13.654800 0.000000
-13.625500 0.000000
-13.596100 0.000000
-13.566800 0.000000
-13.537500 0.000000
-13.508200 0.000000
-13.478900 0.000000
-13.449500 0.000000
-13.420200 0.000000
-13.390900 0.000000
-13.361600 0.000000
-13.332300 0.000000
-13.302900 0.000000
-13.273600 0.000000
-13.244300 0.000000
-13.215000 0.000000
-13.185700 0.000000
-13.156300 0.000000
-13.127000 0.000000
-13.097700 0.000000
-13.068400 0.000000
-13.039100 0.000000
-13.009800 0.000000
-12.980400 0.000000
-12.951100 0.000000
-12.921800 0.000000
-12.892500 0.000000
-12.863200 0.000000
-12.833800 0.000000
-12.804500 0.000000
-12.775200 0.000000
-12.745900 0.000000
-12.716600 0.000000
-12.687200 0.000000
-12.657900 0.000000
-12.628600 0.000000
-12.599300 0.000000
-12.570000 0.000000
-12.540600 0.000000
-12.511300 0.000000
-12.482000 0.000000
-12.452700 0.000000
-12.423400 0.000000
-12.394100 0.000000
-12.364700 0.000000
-12.335400 0.000000
-12.306100 0.000000
-12.276800 0.000000
-12.247500 0.000000
-12.218100 0.000000
-12.188800 0.000000
-12.159500 0.000000
-12.130200 0.000000
-12.100900 0.000000
-12.071500 0.000000
-12.042200 0.000000
-12.012900 0.000000
-11.983600 0.000000
-11.954300 0.000000
-11.924900 0.000000
-11.895600 0.000000
-11.866300 0.000000
-11.837000 0.000000
-11.807700 0.000000
-11.778400 0.000000
-11.749000 0.000000
-11.719700 0.000000
-11.690400 0.000000
-11.661100 0.000000
-11.631800 0.000000
-11.602400 0.000000
-11.573100 0.000000
-11.543800 0.000000
-11.514500 0.000000
-11.485200 0.000000
-11.455800 0.000000
-11.426500 0.000000
-11.397200 0.000000
-11.367900 0.000000
-11.338600 0.000000
-11.309200 0.000000
-11.279900 0.000000
-11.250600 0.000000
-11.221300 0.000000
-11.192000 0.000000
-11.162600 0.000000
-11.133300 0.000000
-11.104000 0.000000
-11.074700 0.000000
-11.045400 0.000000
-11.016100 0.000000
-10.986700 0.000000
-10.957400 0.000000
-10.928100 0.000000
-10.898800 0.000000
-10.869500 0.000000
-10.840100 0.000000
-10.810800 0.000000
-10.781500 0.000000
-10.752200 0.000000
-10.722900 0.000000
-10.693500 0.000000
-10.664200 0.000000
-10.634900 0.000000
-10.605600 0.000000
-10.576300 0.000000
-10.546900 0.000000
-10.517600 0.000000
-10.488300 0.000000
-10.459000 0.000000
-10.429700 0.000000
-10.400400 0.000000
-10.371000 0.000000
-10.341700 0.000000
-10.312400 0.000000
-10.283100 0.000000
-10.253800 0.000000
-10.224400 0.000000
-10.195100 0.000000
-10.165800 0.000000
-10.136500 0.000000
-10.107200 0.000000
-10.077800 0.000000
-10.048500 0.000000
-10.019200 0.000000
-9.989900 0.000000
-9.960600 0.000000
-9.931200 0.000000
-9.901900 0.000000
-9.872600 0.000000
-9.843300 0.000000
-9.814000 0.000000
-9.784700 0.000000
-9.755300 0.000000
-9.726000 0.000000
-9.696700 0.000000
-9.667400 0.000000
-9.638100 0.000000
-9.608700 0.000000
-9.579400 0.000000
-9.550100 0.000000
-9.520800 0.000000
-9.491500 0.000000
-9.462100 0.000000
-9.432800 0.000000
-9.403500 0.000000
-9.374200 0.000000
-9.344900 0.000000
-9.315500 0.000000
-9.286200 0.000000
-9.256900 0.000000
-9.227600 0.000000
-9.198300 0.000000
-9.169000 0.000000
-9.139600 0.000000
-9.110300 0.000000
-9.081000 0.000000
-9.051700 0.000000
-9.022400 0.000000
-8.993000 0.000000
-8.963700 0.000000
-8.934400 0.000000
-8.905100 0.000000
-8.875800 0.000000
-8.846400 0.000000
-8.817100 0.000000
-8.787800 0.000000
-8.758500 0.000000
-8.729200 0.000000
-8.699800 0.000000
-8.670500 0.000000
-8.641200 0.000000
-8.611900 0.000000
-8.582600 0.000000
-8.553300 0.000000
-8.523900 0.000000
-8.494600 0.000000
-8.465300 0.000000
-8.436000 0.000000
-8.406700 0.000000
-8.377300 0.000000
-8.348000 0.000000
-8.318700 0.000000
-8.289400 0.000000
-8.260100 0.000000
-8.230700 0.000000
-8.201400 0.000000
-8.172100 0.000000
-8.142800 0.000000
-8.113500 0.000000
-8.084100 0.000000
-8.054800 0.000000
-8.025500 0.000000
-7.996200 0.000000
-7.966900 0.000000
-7.937500 0.000000
-7.908200 0.000000
-7.878900 0.000000
-7.849600 0.000000
-7.820300 0.000000
-7.791000 0.000000
-7.761600 0.000000
-7.732300 0.000000
-7.703000 0.000000
-7.673700 0.000000
-7.644400 0.000000
-7.615000 0.000000
-7.585700 0.000000
-7.556400 0.000000
-7.527100 0.000000
-7.497800 0.000000
-7.468400 0.000000
-7.439100 0.000000
-7.409800 0.000000
-7.380500 0.000000
-7.351200 0.000000
-7.321800 0.000000
-7.292500 0.000000
-7.263200 0.000000
-7.233900 0.000000
-7.204600 0.000000
-7.175300 0.000000
-7.145900 0.000000
-7.116600 0.000000
-7.087300 0.000000
-7.058000 0.000000
-7.028700 0.000000
-6.999300 0.000000
-6.970000 0.000000
-6.940700 0.000000
-6.911400 0.000000
-6.882100 0.000000
-6.852700 0.000000
-6.823400 0.000000
-6.794100 0.000000
-6.764800 0.000000
-6.735500 0.000000
-6.706100 0.000000
-6.676800 0.000000
-6.647500 0.000000
-6.618200 0.000000
-6.588900 0.000000
-6.559600 0.000000
-6.530200 0.000000
-6.500900 0.000000
-6.471600 0.000000
-6.442300 0.000000
-6.413000 0.000000
-6.383600 0.000000
-6.354300 0.000000
-6.325000 0.000000
-6.295700 0.000000
-6.266400 0.000000
-6.237000 0.000000
-6.207700 0.000000
-6.178400 0.000000
-6.149100 0.000000
-6.119800 0.000000
-6.090400 0.000000
-6.061100 0.000000
-6.031800 0.000000
-6.002500 0.000000
-5.973200 0.000000
-5.943900 0.000000
-5.914500 0.000000
-5.885200 0.000000
-5.855900 0.000000
-5.826600 0.000000
-5.797300 0.000000
-5.767900 0.000000
-5.738600 0.000000
-5.709300 0.000000
-5.680000 0.000000
-5.650700 0.000000
-5.621300 0.000000
-5.592000 0.000000
-5.562700 0.000000
-5.533400 0.000000
-5.504100 0.000000
-5.474700 0.000000
-5.445400 0.000000
-5.416100 0.000100
-5.386800 0.001400
-5.357500 0.007600
-5.328100 0.024200
-5.298800 0.054800
-5.269500 0.108400
-5.240200 0.184200
-5.210900 0.236300
-5.181600 0.228000
-5.152200 0.223700
-5.122900 0.282300
-5.093600 0.331000
-5.064300 0.353800
-5.035000 0.446400
-5.005600 0.553700
-4.976300 0.526100
-4.947000 0.449700
-4.917700 0.466900
-4.888400 0.501200
-4.859000 0.536400
-4.829700 0.686400
-4.800400 0.878400
-4.771100 0.948400
-4.741800 0.926000
-4.712400 0.935500
-4.683100 1.054500
-4.653800 1.215400
-4.624500 1.202400
-4.595200 1.047900
-4.565900 1.132500
-4.536500 1.511400
-4.507200 1.719300
-4.477900 1.687800
-4.448600 1.762700
-4.419300 1.883000
-4.389900 1.959900
-4.360600 2.023300
-4.331300 2.193400
-4.302000 3.029600
-4.272700 4.897800
-4.243300 6.945900
-4.214000 7.497100
-4.184700 6.355100
-4.155400 4.668900
-4.126100 2.881600
-4.096700 1.260200
-4.067400 0.338000
-4.038100 0.051500
-4.008800 0.004300
-3.979500 0.000200
-3.950200 0.000000
-3.920800 0.000000
-3.891500 0.000000
-3.862200 0.000000
-3.832900 0.000000
-3.803600 0.000000
-3.774200 0.000000
-3.744900 0.000000
-3.715600 0.000000
-3.686300 0.000000
-3.657000 0.000000
-3.627600 0.000000
-3.598300 0.000000
-3.569000 0.000000
-3.539700 0.000000
-3.510400 0.000000
-3.481000 0.000000
-3.451700 0.000000
-3.422400 0.000000
-3.393100 0.000000
-3.363800 0.000000
-3.334500 0.000000
-3.305100 0.000000
-3.275800 0.000000
-3.246500 0.000000
-3.217200 0.000000
-3.187900 0.000000
-3.158500 0.000000
-3.129200 0.000000
-3.099900 0.000000
-3.070600 0.000000
-3.041300 0.000000
-3.011900 0.000000
-2.982600 0.000000
-2.953300 0.000000
-2.924000 0.000000
-2.894700 0.000000
-2.865300 0.000000
-2.836000 0.000000
-2.806700 0.000000
-2.777400 0.000000
-2.748100 0.000000
-2.718800 0.000000
-2.689400 0.000000
-2.660100 0.000000
-2.630800 0.000000
-2.601500 0.000000
-2.572200 0.000000
-2.542800 0.000000
-2.513500 0.000000
-2.484200 0.000000
-2.454900 0.000000
-2.425600 0.000000
-2.396200 0.000000
-2.366900 0.000000
-2.337600 0.000000
-2.308300 0.000000
-2.279000 0.000000
-2.249600 0.000000
-2.220300 0.000000
-2.191000 0.000000
-2.161700 0.000000
-2.132400 0.000000
-2.103000 0.000000
-2.073700 0.000000
-2.044400 0.000000
-2.015100 0.000000
-1.985800 0.000000
-1.956500 0.000000
-1.927100 0.000000
-1.897800 0.000000
-1.868500 0.000000
-1.839200 0.000000
-1.809900 0.000000
-1.780500 0.000000
-1.751200 0.000000
-1.721900 0.000000
-1.692600 0.000000
-1.663300 0.000000
-1.633900 0.000000
-1.604600 0.000000
-1.575300 0.000000
-1.546000 0.000000
-1.516700 0.000000
-1.487300 0.000000
-1.458000 0.000000
-1.428700 0.000000
-1.399400 0.000000
-1.370100 0.000000
-1.340800 0.000000
-1.311400 0.000000
-1.282100 0.000000
-1.252800 0.000000
-1.223500 0.000000
-1.194200 0.000000
-1.164800 0.000000
-1.135500 0.000000
-1.106200 0.000000
-1.076900 0.000000
-1.047600 0.000000
-1.018200 0.000000
-0.988900 0.000000
-0.959600 0.000000
-0.930300 0.000000
-0.901000 0.000000
-0.871600 0.000000
-0.842300 0.000000
-0.813000 0.000000
-0.783700 0.000000
-0.754400 0.000000
-0.725100 0.000000
-0.695700 0.000000
-0.666400 0.000000
-0.637100 0.000000
-0.607800 0.000000
-0.578500 0.000000
-0.549100 0.000100
-0.519800 0.000800
-0.490500 0.004900
-0.461200 0.016800
-0.431900 0.035600
-0.402500 0.060400
-0.373200 0.103800
-0.343900 0.158500
-0.314600 0.190100
-0.285300 0.222900
-0.255900 0.281000
-0.226600 0.282800
-0.197300 0.193800
-0.168000 0.102700
-0.138700 0.116500
-0.109400 0.262000
-0.080000 0.432400
-0.050700 0.512000
-0.021400 0.484700
0.007900 0.385200
0.037200 0.340300
0.066600 0.392000
0.095900 0.422200
0.125200 0.445300
0.154500 0.562500
0.183800 0.815500
0.213200 1.167700
0.242500 1.521300
0.271800 1.874700
0.301100 2.073600
0.330400 1.879900
0.359800 1.655500
0.389100 1.993400
0.418400 2.819800
0.447700 3.522800
0.477000 3.753100
0.506400 3.533800
0.535700 3.129400
0.565000 2.789200
0.594300 2.409200
0.623600 2.015100
0.652900 1.798000
0.682300 1.873200
0.711600 2.146200
0.740900 2.226800
0.770200 1.882200
0.799500 1.252600
0.828900 0.729600
0.858200 0.529600
0.887500 0.581700
0.916800 0.714400
0.946100 0.779600
0.975500 0.757500
1.004800 0.689200
1.034100 0.675500
1.063400 0.795200
1.092700 0.923100
1.122100 0.932300
1.151400 0.932500
1.180700 0.965200
1.210000 0.904100
1.239300 0.786300
1.268600 0.739000
1.298000 0.804700
1.327300 0.934800
1.356600 1.037600
1.385900 1.098000
1.415200 1.134900
1.444600 1.060200
1.473900 0.918200
1.503200 1.011400
1.532500 1.472100
1.561800 1.801300
1.591200 1.702800
1.620500 1.698400
1.649800 1.995800
1.679100 2.121000
1.708400 2.117600
1.737800 2.412600
1.767100 2.726600
1.796400 2.741400
1.825700 2.872900
1.855000 3.390900
1.884300 3.768300
1.913700 3.609400
1.943000 3.180600
1.972300 2.837700
2.001600 2.940800
2.030900 3.274200
2.060300 3.254900
2.089600 3.078400
2.118900 2.823800
2.148200 2.279500
2.177500 1.925200
2.206900 2.067200
2.236200 2.309200
2.265500 2.390600
2.294800 2.541600
2.324100 2.819100
2.353500 2.824600
2.382800 2.389100
2.412100 1.904000
2.441400 1.769300
2.470700 2.115800
2.500000 2.773000
2.529400 3.494300
2.558700 4.186300
2.588000 4.831700
2.617300 5.279400
2.646600 5.111100
2.676000 4.136400
2.705300 3.070300
2.734600 2.704000
2.763900 2.818500
2.793200 2.869900
2.822600 2.802200
2.851900 2.692900
2.881200 2.680900
2.910500 2.838200
2.939800 3.065700
2.969200 3.285700
2.998500 3.447600
3.027800 3.471800
3.057100 3.488500
3.086400 3.807800
3.115700 4.422700
3.145100 5.006300
3.174400 5.475700
3.203700 5.607200
3.233000 4.851500
3.262300 3.487900
3.291700 2.516600
3.321000 2.378300
3.350300 2.794900
3.379600 3.191000
3.408900 3.193100
3.438300 2.761900
3.467600 2.125200
3.496900 1.962900
3.526200 2.637600
3.555500 3.399100
3.584900 3.337500
3.614200 2.554700
3.643500 1.819400
3.672800 1.592800
3.702100 1.840400
3.731500 2.530600
3.760800 3.225600
3.790100 3.285100
3.819400 2.853000
3.848700 2.486900
3.878000 2.472200
3.907400 2.702800
3.936700 3.034200
3.966000 3.445600
3.995300 4.047800
4.024600 4.476800
4.054000 4.052800
4.083300 3.216200
4.112600 2.834500
4.141900 3.011100
4.171200 3.167000
4.200600 2.779800
4.229900 2.214800
4.259200 2.247300
4.288500 2.892600
4.317800 3.594500
4.347200 4.009400
4.376500 3.890400
4.405800 3.212500
4.435100 2.513100
4.464400 2.256000
4.493700 2.351200
4.523100 2.724100
4.552400 3.214100
4.581700 3.346400
4.611000 2.959200
4.640300 2.383800
4.669700 2.034700
4.699000 2.182600
4.728300 2.934500
4.757600 3.790600
4.786900 3.877600
4.816300 3.283700
4.845600 2.677700
4.874900 2.329600
4.904200 2.417900
4.933500 2.969800
4.962900 3.675000
4.992200 4.222700
5.021500 4.469400
5.050800 4.296200
5.080100 3.550900
5.109400 2.675800
5.138800 2.479600
5.168100 2.880100
5.197400 3.137700
5.226700 3.044300
5.256000 2.847400
5.285400 2.587400
5.314700 2.437400
5.344000 2.649900
5.373300 2.936200
5.402600 2.768300
5.432000 2.307800
5.461300 2.224700
5.490600 2.672300
5.519900 3.084400
5.549200 3.228400
5.578600 3.315400
5.607900 3.266900
5.637200 3.191800
5.666500 3.366100
5.695800 3.691600
5.725100 4.096500
5.754500 4.548300
5.783800 4.981500
5.813100 5.286400
5.842400 5.425300
5.871700 5.705400
5.901100 5.999300
5.930400 5.663800
5.959700 4.721000
5.989000 3.850100
6.018300 3.428000
6.047700 3.405000
6.077000 3.704000
6.106300 4.044800
6.135600 3.827300
6.164900 3.200300
6.194300 2.833900
6.223600 2.723900
6.252900 2.787600
6.282200 3.077000
6.311500 3.473500
6.340900 3.831300
6.370200 3.803800
6.399500 3.371300
6.428800 3.070500
6.458100 3.119600
6.487400 3.293300
6.516800 3.467000
6.546100 3.603700
6.575400 3.392100
6.604700 2.801100
6.634000 2.176600
6.663400 1.893900
6.692700 2.194000
6.722000 2.712400
6.751300 2.882200
6.780600 2.763800
6.810000 2.732600
6.839300 2.974800
6.868600 3.251200
6.897900 3.132300
6.927200 2.662700
6.956600 2.423100
6.985900 2.607600
7.015200 2.809700
7.044500 2.855600
7.073800 2.872900
7.103100 2.930700
7.132500 2.798200
7.161800 2.286000
7.191100 1.811300
7.220400 1.793800
7.249700 1.993000
7.279100 1.918100
7.308400 1.555600
7.337700 1.323900
7.367000 1.509700
7.396300 2.078400
7.425700 2.758000
7.455000 3.268700
7.484300 3.624300
7.513600 3.676900
7.542900 3.171500
7.572300 2.528000
7.601600 2.366200
7.630900 2.588100
7.660200 2.815200
7.689500 3.157300
7.718800 3.630200
7.748200 3.784400
7.777500 3.668400
7.806800 3.729100
7.836100 3.973100
7.865400 4.134400
7.894800 4.211500
7.924100 4.474900
7.953400 4.877000
7.982700 4.933600
8.012000 4.517900
8.041400 4.196400
8.070700 4.285700
8.100000 4.298600
8.129300 3.819200
8.158600 3.103900
8.188000 2.806000
8.217300 3.042100
8.246600 3.373200
8.275900 3.533800
8.305200 3.438100
8.334500 3.206900
8.363900 3.174400
8.393200 3.401200
8.422500 3.790800
8.451800 4.229500
8.481100 4.217200
8.510500 3.794600
8.539800 3.576000
8.569100 3.558400
8.598400 3.619800
8.627700 3.772100
8.657100 3.623600
8.686400 3.108200
8.715700 2.910800
8.745000 3.293000
8.774300 3.579200
8.803700 3.427300
8.833000 3.257600
8.862300 3.174300
8.891600 3.065300
8.920900 3.222600
8.950200 3.603500
8.979600 3.640000
9.008900 3.350100
9.038200 3.228600
9.067500 3.227000
9.096800 3.196600
9.126200 3.504400
9.155500 4.094700
9.184800 4.330100
9.214100 4.253700
9.243400 4.291000
9.272800 4.161400
9.302100 3.661100
9.331400 3.317600
9.360700 3.311900
9.390000 3.390500
9.419400 3.719900
9.448700 4.236300
9.478000 4.338200
9.507300 4.018700
9.536600 3.622000
9.566000 3.123400
9.595300 2.896800
9.624600 3.585100
9.653900 4.487600
9.683200 4.542500
9.712500 4.138600
9.741900 3.833000
9.771200 3.558200
9.800500 3.513100
9.829800 3.932200
9.859100 4.524300
9.888500 4.944800
9.917800 5.067200
9.947100 4.798600
9.976400 4.409700
10.005700 4.336900
10.035100 4.554700
10.064400 4.541000
10.093700 4.078800
10.123000 3.717200
10.152300 3.694800
10.181700 3.633300
10.211000 3.447600
10.240300 3.406300
10.269600 3.676500
10.298900 4.001800
10.328200 4.147300
10.357600 4.145400
10.386900 4.078300
10.416200 4.176000
10.445500 4.630700
10.474800 5.137500
10.504200 5.283200
10.533500 5.113300
10.562800 4.756700
10.592100 4.215000
10.621400 3.702400
10.650800 3.362200
10.680100 3.420300
10.709400 3.948400
10.738700 4.417100
10.768000 4.415200
10.797400 4.118400
10.826700 3.854600
10.856000 3.925800
10.885300 4.493500
10.914600 5.203500
10.943900 5.514700
10.973300 5.487400
11.002600 5.726000
11.031900 6.194200
11.061200 5.986600
11.090500 4.843900
11.119900 3.585400
11.149200 3.058200
11.178500 3.349000
11.207800 4.043500
11.237100 4.682500
11.266500 4.924400
11.295800 4.808300
11.325100 4.634200
11.354400 4.779900
11.383700 5.441100
11.413100 6.046800
11.442400 5.825700
11.471700 5.045700
11.501000 4.439200
11.530300 3.977700
11.559600 3.619400
11.589000 3.809600
11.618300 4.275800
11.647600 4.093900
11.676900 3.340100
11.706200 2.712500
11.735600 2.371700
11.764900 2.240900
11.794200 2.197400
11.823500 2.042300
11.852800 1.867900
11.882200 1.871400
11.911500 2.016900
11.940800 2.038300
11.970100 1.888200
11.999400 1.988000
12.028800 2.534700
12.058100 3.085400
12.087400 3.018400
12.116700 2.418000
12.146000 2.061500
12.175400 2.388200
12.204700 2.914400
12.234000 2.898000
12.263300 2.746700
12.292600 3.240600
12.321900 3.881900
12.351300 4.005000
12.380600 3.870400
12.409900 3.716900
12.439200 3.506600
12.468500 3.291400
12.497900 3.110200
12.527200 2.901600
12.556500 2.676500
12.585800 2.474800
12.615100 2.167100
12.644500 1.796000
12.673800 1.623000
12.703100 1.629200
12.732400 1.681100
12.761700 1.790800
12.791100 1.711400
12.820400 1.268400
12.849700 0.755100
12.879000 0.555500
12.908300 0.777800
12.937600 1.131000
12.967000 1.301400
12.996300 1.267900
13.025600 1.183100
13.054900 1.143800
13.084200 1.050400
13.113600 0.995100
13.142900 1.152800
13.172200 1.215700
13.201500 0.983400
13.230800 0.762300
13.260200 0.760700
13.289500 0.770300
13.318800 0.644800
13.348100 0.601500
13.377400 0.797300
13.406800 1.012100
13.436100 0.950700
13.465400 0.693300
13.494700 0.554200
13.524000 0.739400
13.553300 1.077600
13.582700 1.158100
13.612000 0.954800
13.641300 0.750400
13.670600 0.664500
13.699900 0.678500
13.729300 0.756200
13.758600 0.810200
13.787900 0.776500
13.817200 0.677300
13.846500 0.661300
13.875900 0.918800
13.905200 1.277800
13.934500 1.316100
13.963800 1.120500
13.993100 1.133000
14.022500 1.286300
14.051800 1.250800
14.081100 1.024600
14.110400 0.773200
14.139700 0.631000
14.169000 0.612100
14.198400 0.670800
14.227700 0.724800
14.257000 0.636400
14.286300 0.426000
14.315600 0.266600
14.345000 0.278500
14.374300 0.442000
14.403600 0.654600
14.432900 0.787000
14.462200 0.838400
14.491600 0.938200
14.520900 1.078700
14.550200 1.179800
14.579500 1.174500
14.608800 1.058000
14.638200 0.896700
14.667500 0.740400
14.696800 0.773100
14.726100 1.147000
14.755400 1.534900
14.784700 1.509900
14.814100 1.234000
14.843400 1.017400
14.872700 0.991900
14.902000 1.314200
14.931300 1.776800
14.960700 1.782500
14.990000 1.348100
15.019300 1.038600
15.048600 1.087000
15.077900 1.448100
15.107300 1.954300
15.136600 2.376300
15.165900 2.541400
15.195200 2.475900
15.224500 2.348600
15.253900 2.084700
15.283200 1.557400
15.312500 1.028200
15.341800 0.733200
15.371100 0.574700
15.400500 0.565000
15.429800 0.867000
15.459100 1.449800
15.488400 1.887800
15.517700 1.815200
15.547000 1.513800
15.576400 1.450700
15.605700 1.576800
15.635000 1.506300
15.664300 1.292500
15.693600 1.359200
15.723000 1.534300
15.752300 1.440100
15.781600 1.241100
15.810900 1.245100
15.840200 1.361200
15.869600 1.249200
15.898900 0.954600
15.928200 0.781300
15.957500 0.828500
15.986800 1.071200
16.016200 1.310900
16.045500 1.390200
16.074800 1.413900
16.104100 1.425300
16.133400 1.375200
16.162700 1.334600
16.192100 1.341500
16.221400 1.443400
16.250700 1.678500
16.280000 1.799700
16.309300 1.778500
16.338700 1.860700
16.368000 2.008000
16.397300 2.093200
16.426600 2.072800
16.455900 1.913200
16.485300 1.807500
16.514600 2.003600
16.543900 2.534100
16.573200 3.169100
16.602500 3.557800
16.631900 3.418600
16.661200 2.881900
16.690500 2.419000
16.719800 2.287200
16.749100 2.437500
16.778400 2.622000
16.807800 2.671000
16.837100 2.661800
16.866400 2.511300
16.895700 2.294000
16.925000 3.192600
16.954400 8.182200
16.983700 17.729900
17.013000 22.560900
17.042300 15.878000
17.071600 6.599800
17.101000 2.647900
17.130300 2.089900
17.159600 1.916900
17.188900 1.865900
17.218200 2.220900
17.247600 2.578600
17.276900 2.995200
17.306200 5.084500
17.335500 12.618600
17.364800 27.794600
17.394100 40.380400
17.423500 34.942300
17.452800 18.053700
17.482100 6.882400
17.511400 3.726100
17.540700 3.359600
17.570100 3.346500
17.599400 3.419000
17.628700 3.459800
17.658000 3.090100
17.687300 2.357200
17.716700 1.806600
17.746000 1.673400
17.775300 2.009100
17.804600 2.630700
17.833900 3.017100
17.863300 3.019100
17.892600 2.993200
17.921900 3.111200
17.951200 3.135800
17.980500 2.931100
18.009900 2.475800
18.039200 1.892000
18.068500 1.519700
18.097800 1.655800
18.127100 2.252800
18.156400 2.676900
18.185800 2.473300
18.215100 1.939800
18.244400 1.470700
18.273700 1.291900
18.303000 1.349200
18.332400 1.372600
18.361700 1.305000
18.391000 1.327600
18.420300 1.483800
18.449600 1.631800
18.479000 1.689900
18.508300 1.581300
18.537600 1.434700
18.566900 1.475000
18.596200 1.532400
18.625600 1.352000
18.654900 1.049200
18.684200 0.883200
18.713500 0.918500
18.742800 1.039000
18.772100 1.203100
18.801500 1.386100
18.830800 1.419400
18.860100 1.226100
18.889400 0.960400
18.918700 0.838300
18.948100 0.937100
18.977400 1.209700
19.006700 1.429200
19.036000 1.401800
19.065300 1.220900
19.094700 1.096900
19.124000 1.218300
19.153300 1.558600
19.182600 1.885100
19.211900 2.042200
19.241300 2.059600
19.270600 2.165900
19.299900 2.417300
19.329200 2.501600
19.358500 2.385500
19.387800 2.382000
19.417200 2.506100
19.446500 2.488400
19.475800 2.289300
19.505100 2.187700
19.534400 2.289900
19.563800 2.401900
19.593100 2.268800
19.622400 1.839000
19.651700 1.298200
19.681000 0.950300
19.710400 0.964200
19.739700 1.129100
19.769000 1.330000
19.798300 1.725300
19.827600 2.158800
19.857000 2.284400
19.886300 2.179000
19.915600 2.198000
19.944900 2.394600
19.974200 2.570900
20.003500 2.726400
20.032900 2.977000
20.062200 3.121300
20.091500 2.985900
20.120800 2.846500
20.150100 2.863900
20.179500 2.746900
20.208800 2.340800
20.238100 2.013500
20.267400 1.994200
20.296700 2.056400
20.326100 2.112800
20.355400 2.344900
20.384700 2.780900
20.414000 3.169400
20.443300 3.196700
20.472700 2.908800
20.502000 2.735800
20.531300 2.834000
20.560600 3.054300
20.589900 3.272500
20.619200 3.488600
20.648600 3.741100
20.677900 3.800000
20.707200 3.628600
20.736500 3.333600
20.765800 3.018600
20.795200 2.987200
20.824500 3.121800
20.853800 2.900300
20.883100 2.404500
20.912400 2.168900
20.941800 2.217900
20.971100 2.225900
21.000400 2.185900
21.029700 2.201300
21.059000 2.456400
21.088400 3.081000
21.117700 3.671000
21.147000 3.664200
21.176300 3.256500
21.205600 2.916900
21.235000 2.626700
21.264300 2.334800
21.293600 2.199100
21.322900 2.274100
21.352200 2.429200
21.381500 2.622900
21.410900 2.762600
21.440200 2.609100
21.469500 2.129800
21.498800 1.721100
21.528100 1.809600
21.557500 2.325700
21.586800 2.762300
21.616100 2.833200
21.645400 2.635200
21.674700 2.340400
21.704100 2.176300
21.733400 2.340500
21.762700 2.684700
21.792000 2.961700
21.821300 3.006100
21.850700 2.768500
21.880000 2.495700
21.909300 2.348100
21.938600 2.355900
21.967900 2.515700
21.997200 2.677700
22.026600 2.852500
22.055900 3.007400
22.085200 2.955200
22.114500 2.679100
22.143800 2.224200
22.173200 1.842100
22.202500 1.969600
22.231800 2.739500
22.261100 3.572600
22.290400 3.629100
22.319800 2.939200
22.349100 2.282900
22.378400 2.001200
22.407700 1.885500
22.437000 1.935000
22.466400 2.116600
22.495700 2.280600
22.525000 2.729400
22.554300 3.377800
22.583600 3.612600
22.612900 3.376100
22.642300 3.022800
22.671600 2.995500
22.700900 3.491100
22.730200 3.905400
22.759500 3.877200
22.788900 3.916900
22.818200 4.049400
22.847500 3.863100
22.876800 3.556800
22.906100 3.257400
22.935500 2.807400
22.964800 2.478500
22.994100 2.588200
23.023400 2.822900
23.052700 2.825500
23.082100 2.769500
23.111400 2.763600
23.140700 2.988900
23.170000 3.441500
23.199300 3.602500
23.228600 3.328200
23.258000 2.789900
23.287300 2.327100
23.316600 2.413900
23.345900 2.915100
23.375200 3.267300
23.404600 3.269200
23.433900 3.033800
23.463200 2.802300
23.492500 2.774200
23.521800 2.851100
23.551200 2.849200
23.580500 2.884700
23.609800 2.968100
23.639100 2.895100
23.668400 2.708600
23.697800 2.660500
23.727100 2.842900
23.756400 3.115200
23.785700 3.354400
23.815000 3.337900
23.844400 3.028900
23.873700 2.831100
23.903000 2.866300
23.932300 2.990800
23.961600 3.234200
23.990900 3.370600
24.020300 3.129400
24.049600 2.758700
24.078900 2.364500
24.108200 1.988500
24.137500 1.850100
24.166900 1.860800
24.196200 1.824900
24.225500 1.694900
24.254800 1.652000
24.284100 1.785300
24.313500 1.891500
24.342800 2.031800
24.372100 2.521100
24.401400 3.202100
24.430700 3.702400
24.460100 3.948500
24.489400 4.033900
24.518700 3.885400
24.548000 3.299500
24.577300 2.586500
24.606600 2.365200
24.636000 2.610800
24.665300 2.732000
24.694600 2.468800
24.723900 2.233200
24.753200 2.343900
24.782600 2.736100
24.811900 3.256300
24.841200 3.626000
24.870500 3.718500
24.899800 3.802200
24.929200 3.987400
24.958500 3.966000
24.987800 3.620200
25.017100 3.185300
25.046400 2.987300
25.075800 3.116500
25.105100 3.409000
25.134400 3.495500
25.163700 3.108100
25.193000 2.561100
25.222300 2.550900
25.251700 3.338400
25.281000 4.139200
25.310300 4.156300
25.339600 3.664400
25.368900 3.277800
25.398300 3.247900
25.427600 3.399100
25.456900 3.643600
25.486200 3.837000
25.515500 3.582900
25.544900 2.970100
25.574200 2.468600
25.603500 2.663300
25.632800 3.581900
25.662100 4.178300
25.691500 3.829000
25.720800 3.244000
25.750100 3.168600
25.779400 3.486900
25.808700 3.838300
25.838000 3.993600
25.867400 3.760600
25.896700 3.309200
25.926000 2.884100
25.955300 2.445500
25.984600 1.998300
26.014000 1.681500
26.043300 1.629300
26.072600 1.661800
26.101900 1.711900
26.131200 1.825600
26.160600 1.853200
26.189900 1.751300
26.219200 1.583000
26.248500 1.508800
26.277800 1.621000
26.307200 1.735600
26.336500 1.467400
26.365800 0.915600
26.395100 0.619400
26.424400 0.773100
26.453700 1.154500
26.483100 1.439100
26.512400 1.474400
26.541700 1.371300
26.571000 1.256600
26.600300 1.114600
26.629700 1.067600
26.659000 1.270500
26.688300 1.589800
26.717600 1.805700
26.746900 1.779000
26.776300 1.461100
26.805600 1.076800
26.834900 0.839300
26.864200 0.747100
26.893500 0.731000
26.922900 0.633300
26.952200 0.409900
26.981500 0.222900
27.010800 0.143200
27.040100 0.133000
27.069500 0.163200
27.098800 0.183800
27.128100 0.193400
27.157400 0.249800
27.186700 0.308000
27.216000 0.242900
27.245400 0.106600
27.274700 0.025100
27.304000 0.003100
27.333300 0.000200
27.362600 0.000000
27.392000 0.000000
27.421300 0.000000
27.450600 0.000000
27.479900 0.000100
27.509200 0.001500
27.538600 0.011500
27.567900 0.044600
27.597200 0.090700
27.626500 0.096200
27.655800 0.053300
27.685200 0.015400
27.714500 0.002300
27.743800 0.000200
27.773100 0.000000
27.802400 0.000000
27.831700 0.000000
27.861100 0.000000
27.890400 0.000000
27.919700 0.000000
27.949000 0.000000
27.978300 0.000000
28.007700 0.000000
28.037000 0.000000
28.066300 0.000000
28.095600 0.000000
28.124900 0.000000
28.154300 0.000000
28.183600 0.000000
28.212900 0.000000
28.242200 0.000000
28.271500 0.000000
28.300900 0.000000
28.330200 0.000000
28.359500 0.000000
28.388800 0.000000
28.418100 0.000000
28.447400 0.000000
28.476800 0.000000
28.506100 0.000000
28.535400 0.000000
28.564700 0.000000
28.594000 0.000000
28.623400 0.000000
28.652700 0.000000
28.682000 0.000000
28.711300 0.000000
28.740600 0.000000
28.770000 0.000000
28.799300 0.000000
28.828600 0.000000
28.857900 0.000000
28.887200 0.000000
28.916600 0.000000
28.945900 0.000000
28.975200 0.000000
29.004500 0.000000
29.033800 0.000000
29.063100 0.000000
29.092500 0.000000
29.121800 0.000000
29.151100 0.000000
29.180400 0.000000
29.209700 0.000000
29.239100 0.000000
29.268400 0.000000
29.297700 0.000000
29.327000 0.000000
29.356300 0.000000
29.385700 0.000000
29.415000 0.000000
29.444300 0.000000
29.473600 0.000000
29.502900 0.000000
29.532300 0.000000
29.561600 0.000000
29.590900 0.000000
29.620200 0.000000
29.649500 0.000000
29.678900 0.000000
29.708200 0.000000
29.737500 0.000000
29.766800 0.000000
29.796100 0.000000
29.825400 0.000000
29.854800 0.000000
29.884100 0.000000
29.913400 0.000000
29.942700 0.000000
29.972000 0.000000
30.001400 0.000000
30.030700 0.000000
30.060000 0.000000
30.089300 0.000000
30.118600 0.000000
30.148000 0.000000
30.177300 0.000000
30.206600 0.000000
30.235900 0.000000
30.265200 0.000000
e
