set title 'mp-1184034 - Density of States'
set xlabel 'Energy (eV)'
set ylabel 'DOS (states/eV)'
set grid
set xrange [-10:10]
set yrange [0:28.732]
set xzeroaxis lt -1
set terminal png size 800,600
set output 'mp-1184034_dos_gnuplot.png'
plot '-' using 1:2 with lines title 'DOS'
-61.797700 0.000000
-61.734000 0.000000
-61.670400 0.000000
-61.606800 0.000000
-61.543100 0.000000
-61.479500 0.000000
-61.415800 0.000000
-61.352200 0.000000
-61.288500 0.000000
-61.224900 0.000000
-61.161300 0.000000
-61.097600 0.000000
-61.034000 0.000000
-60.970300 0.000000
-60.906700 0.000000
-60.843000 0.000000
-60.779400 0.000000
-60.715800 0.000000
-60.652100 0.000000
-60.588500 0.000000
-60.524800 0.000000
-60.461200 0.000000
-60.397600 0.000000
-60.333900 0.000000
-60.270300 0.000000
-60.206600 0.000000
-60.143000 0.000000
-60.079300 0.000000
-60.015700 0.000000
-59.952100 0.000000
-59.888400 0.000000
-59.824800 0.000000
-59.761100 0.000000
-59.697500 0.000000
-59.633800 0.000000
-59.570200 0.000000
-59.506600 0.000000
-59.442900 0.000000
-59.379300 0.000000
-59.315600 0.000000
-59.252000 0.000000
-59.188300 0.000000
-59.124700 0.000000
-59.061100 0.000000
-58.997400 0.000000
-58.933800 0.000000
-58.870100 0.000000
-58.806500 0.000000
-58.742800 0.000000
-58.679200 0.000000
-58.615600 0.000000
-58.551900 0.000000
-58.488300 0.000000
-58.424600 0.000000
-58.361000 0.000000
-58.297400 0.000000
-58.233700 0.000000
-58.170100 0.000000
-58.106400 0.000000
-58.042800 0.000000
-57.979100 0.000000
-57.915500 0.000000
-57.851900 0.000000
-57.788200 0.000000
-57.724600 0.000000
-57.660900 0.000000
-57.597300 0.000000
-57.533600 0.000000
-57.470000 0.000000
-57.406400 0.000000
-57.342700 0.000000
-57.279100 0.000000
-57.215400 0.000000
-57.151800 0.000000
-57.088100 0.000000
-57.024500 0.000000
-56.960900 0.000000
-56.897200 0.000000
-56.833600 0.000000
-56.769900 0.000000
-56.706300 0.000000
-56.642600 0.000000
-56.579000 0.000000
-56.515400 0.000000
-56.451700 0.000000
-56.388100 0.000000
-56.324400 0.000000
-56.260800 0.000000
-56.197200 0.000000
-56.133500 0.000000
-56.069900 0.000000
-56.006200 105.159600
-55.942600 27.116900
-55.878900 0.000000
-55.815300 0.000000
-55.751700 0.000000
-55.688000 0.000000
-55.624400 0.000000
-55.560700 0.000000
-55.497100 0.000000
-55.433400 0.000000
-55.369800 0.000000
-55.306200 0.000000
-55.242500 0.000000
-55.178900 0.000000
-55.115200 0.000000
-55.051600 0.000000
-54.987900 0.000000
-54.924300 0.000000
-54.860700 0.000000
-54.797000 0.000000
-54.733400 0.000000
-54.669700 0.000000
-54.606100 0.000000
-54.542500 0.000000
-54.478800 0.000000
-54.415200 0.000000
-54.351500 0.000000
-54.287900 0.000000
-54.224200 0.000000
-54.160600 0.000000
-54.097000 0.000000
-54.033300 0.000000
-53.969700 0.000000
-53.906000 0.000000
-53.842400 0.000000
-53.778700 0.000000
-53.715100 0.000000
-53.651500 0.000000
-53.587800 0.000000
-53.524200 0.000000
-53.460500 0.000000
-53.396900 0.000000
-53.333200 0.000000
-53.269600 0.000000
-53.206000 0.000000
-53.142300 0.000000
-53.078700 0.000000
-53.015000 0.000000
-52.951400 0.000000
-52.887700 0.000000
-52.824100 0.000000
-52.760500 0.000000
-52.696800 0.000000
-52.633200 0.000000
-52.569500 0.000000
-52.505900 0.000000
-52.442300 0.000000
-52.378600 0.000000
-52.315000 0.000000
-52.251300 0.000000
-52.187700 0.000000
-52.124000 0.000000
-52.060400 0.000000
-51.996800 0.000000
-51.933100 0.000000
-51.869500 0.000000
-51.805800 0.000000
-51.742200 0.000000
-51.678500 0.000000
-51.614900 0.000000
-51.551300 0.000000
-51.487600 0.000000
-51.424000 0.000000
-51.360300 0.000000
-51.296700 0.000000
-51.233000 0.000000
-51.169400 0.000000
-51.105800 0.000000
-51.042100 0.000000
-50.978500 0.000000
-50.914800 0.000000
-50.851200 0.000000
-50.787500 0.000000
-50.723900 0.000000
-50.660300 0.000000
-50.596600 0.000000
-50.533000 0.000000
-50.469300 0.000000
-50.405700 0.000000
-50.342100 0.000000
-50.278400 0.000000
-50.214800 0.000000
-50.151100 0.000000
-50.087500 0.000000
-50.023800 0.000000
-49.960200 0.000000
-49.896600 0.000000
-49.832900 0.000000
-49.769300 0.000000
-49.705600 0.000000
-49.642000 0.000000
-49.578300 0.000000
-49.514700 0.000000
-49.451100 0.000000
-49.387400 0.000000
-49.323800 0.000000
-49.260100 0.000000
-49.196500 0.000000
-49.132800 0.000000
-49.069200 0.000000
-49.005600 0.000000
-48.941900 0.000000
-48.878300 0.000000
-48.814600 0.000000
-48.751000 0.000000
-48.687400 0.000000
-48.623700 0.000000
-48.560100 0.000000
-48.496400 0.000000
-48.432800 0.000000
-48.369100 0.000000
-48.305500 0.000000
-48.241900 0.000000
-48.178200 0.000000
-48.114600 0.000000
-48.050900 0.000000
-47.987300 0.000000
-47.923600 0.000000
-47.860000 0.000000
-47.796400 0.000000
-47.732700 0.000000
-47.669100 0.000000
-47.605400 0.000000
-47.541800 0.000000
-47.478100 0.000000
-47.414500 0.000000
-47.350900 0.000000
-47.287200 0.000000
-47.223600 0.000000
-47.159900 0.000000
-47.096300 0.000000
-47.032600 0.000000
-46.969000 0.000000
-46.905400 0.000000
-46.841700 0.000000
-46.778100 0.000000
-46.714400 0.000000
-46.650800 0.000000
-46.587200 0.000000
-46.523500 0.000000
-46.459900 0.000000
-46.396200 0.000000
-46.332600 0.000000
-46.268900 0.000000
-46.205300 0.000000
-46.141700 0.000000
-46.078000 0.000000
-46.014400 0.000000
-45.950700 0.000000
-45.887100 0.000000
-45.823400 0.000000
-45.759800 0.000000
-45.696200 0.000000
-45.632500 0.000000
-45.568900 0.000000
-45.505200 0.000000
-45.441600 0.000000
-45.377900 0.000000
-45.314300 0.000000
-45.250700 0.000000
-45.187000 0.000000
-45.123400 0.000000
-45.059700 0.000000
-44.996100 0.000000
-44.932400 0.000000
-44.868800 0.000000
-44.805200 0.000000
-44.741500 0.000000
-44.677900 0.000000
-44.614200 0.000000
-44.550600 0.000000
-44.487000 0.000000
-44.423300 0.000000
-44.359700 0.000000
-44.296000 0.000000
-44.232400 0.000000
-44.168700 0.000000
-44.105100 0.000000
-44.041500 0.000000
-43.977800 0.000000
-43.914200 0.000000
-43.850500 0.000000
-43.786900 0.000000
-43.723200 0.000000
-43.659600 0.000000
-43.596000 0.000000
-43.532300 0.000000
-43.468700 0.000000
-43.405000 0.000000
-43.341400 0.000000
-43.277700 0.000000
-43.214100 0.000000
-43.150500 0.000000
-43.086800 0.000000
-43.023200 0.000000
-42.959500 0.000000
-42.895900 0.000000
-42.832300 0.000000
-42.768600 0.000000
-42.705000 0.000000
-42.641300 0.000000
-42.577700 0.000000
-42.514000 0.000000
-42.450400 0.000000
-42.386800 0.000000
-42.323100 0.000000
-42.259500 0.000000
-42.195800 0.000000
-42.132200 0.000000
-42.068500 0.000000
-42.004900 0.000000
-41.941300 0.000000
-41.877600 0.000000
-41.814000 0.000000
-41.750300 0.000000
-41.686700 0.000000
-41.623000 0.000000
-41.559400 0.000000
-41.495800 0.000000
-41.432100 0.000000
-41.368500 0.000000
-41.304800 0.000000
-41.241200 0.000000
-41.177500 0.000000
-41.113900 0.000000
-41.050300 0.000000
-40.986600 0.000000
-40.923000 0.000000
-40.859300 0.000000
-40.795700 0.000000
-40.732100 0.000000
-40.668400 0.000000
-40.604800 0.000000
-40.541100 0.000000
-40.477500 0.000000
-40.413800 0.000000
-40.350200 0.000000
-40.286600 0.000000
-40.222900 0.000000
-40.159300 0.000000
-40.095600 0.000000
-40.032000 0.000000
-39.968300 0.000000
-39.904700 0.000000
-39.841100 0.000000
-39.777400 0.000000
-39.713800 0.000000
-39.650100 0.000000
-39.586500 0.000000
-39.522800 0.000000
-39.459200 0.000000
-39.395600 0.000000
-39.331900 0.000000
-39.268300 0.000000
-39.204600 0.000000
-39.141000 0.000000
-39.077300 0.000000
-39.013700 0.000000
-38.950100 0.000000
-38.886400 0.000000
-38.822800 0.000000
-38.759100 0.000000
-38.695500 0.000000
-38.631900 0.000000
-38.568200 0.000000
-38.504600 0.000000
-38.440900 0.000000
-38.377300 0.000000
-38.313600 0.000000
-38.250000 0.000000
-38.186400 0.000000
-38.122700 0.000000
-38.059100 0.000000
-37.995400 0.000000
-37.931800 0.000000
-37.868100 0.000000
-37.804500 0.000000
-37.740900 0.000000
-37.677200 0.000000
-37.613600 0.000000
-37.549900 0.000000
-37.486300 0.000000
-37.422600 0.000000
-37.359000 0.000000
-37.295400 0.000000
-37.231700 0.000000
-37.168100 0.000000
-37.104400 0.000000
-37.040800 0.000000
-36.977200 0.000000
-36.913500 0.000000
-36.849900 0.000000
-36.786200 0.000000
-36.722600 0.000000
-36.658900 0.000000
-36.595300 0.000000
-36.531700 0.000000
-36.468000 0.000000
-36.404400 0.000000
-36.340700 0.000000
-36.277100 0.000000
-36.213400 0.000000
-36.149800 0.000000
-36.086200 0.000000
-36.022500 0.000000
-35.958900 0.000000
-35.895200 0.000000
-35.831600 0.000000
-35.767900 0.000000
-35.704300 0.000000
-35.640700 0.000000
-35.577000 0.000000
-35.513400 0.000000
-35.449700 0.000000
-35.386100 0.000000
-35.322400 0.000000
-35.258800 0.000000
-35.195200 0.000000
-35.131500 0.000000
-35.067900 0.000000
-35.004200 0.000000
-34.940600 0.000000
-34.877000 0.000000
-34.813300 0.000000
-34.749700 0.000000
-34.686000 0.000000
-34.622400 0.000000
-34.558700 0.000000
-34.495100 0.000000
-34.431500 0.000000
-34.367800 0.000000
-34.304200 0.000000
-34.240500 0.000000
-34.176900 0.000000
-34.113200 0.000000
-34.049600 0.000000
-33.986000 0.000000
-33.922300 0.000000
-33.858700 0.000000
-33.795000 0.000000
-33.731400 0.000000
-33.667700 0.000000
-33.604100 0.000000
-33.540500 0.000000
-33.476800 0.000000
-33.413200 0.000000
-33.349500 0.000000
-33.285900 0.000000
-33.222200 0.000000
-33.158600 0.000000
-33.095000 0.000000
-33.031300 0.000000
-32.967700 0.000000
-32.904000 0.000000
-32.840400 0.000000
-32.776800 0.000000
-32.713100 0.000000
-32.649500 0.000000
-32.585800 0.000000
-32.522200 0.000000
-32.458500 0.000000
-32.394900 0.000000
-32.331300 0.000000
-32.267600 0.000000
-32.204000 0.000000
-32.140300 0.000000
-32.076700 0.000000
-32.013000 0.000000
-31.949400 0.000000
-31.885800 0.000000
-31.822100 0.000000
-31.758500 0.000000
-31.694800 0.000000
-31.631200 0.000000
-31.567500 0.000000
-31.503900 0.000000
-31.440300 0.000000
-31.376600 0.000000
-31.313000 0.000000
-31.249300 0.000000
-31.185700 0.000000
-31.122100 0.000000
-31.058400 0.000000
-30.994800 0.000000
-30.931100 0.000000
-30.867500 0.000000
-30.803800 0.000000
-30.740200 0.000000
-30.676600 0.000000
-30.612900 0.000000
-30.549300 0.000000
-30.485600 0.000000
-30.422000 0.000000
-30.358300 0.000000
-30.294700 0.000000
-30.231100 0.000000
-30.167400 0.000000
-30.103800 0.000000
-30.040100 0.000000
-29.976500 0.000000
-29.912800 0.000000
-29.849200 0.000000
-29.785600 0.000000
-29.721900 0.000000
-29.658300 0.000000
-29.594600 0.000000
-29.531000 0.000000
-29.467300 0.000000
-29.403700 0.000000
-29.340100 0.000000
-29.276400 0.000000
-29.212800 0.000000
-29.149100 0.000000
-29.085500 0.000000
-29.021900 0.000000
-28.958200 0.000000
-28.894600 0.000000
-28.830900 0.000000
-28.767300 0.000000
-28.703600 0.000000
-28.640000 0.000000
-28.576400 0.000000
-28.512700 0.000000
-28.449100 0.000000
-28.385400 0.000000
-28.321800 0.000000
-28.258100 0.000000
-28.194500 0.000000
-28.130900 0.000000
-28.067200 0.000000
-28.003600 0.000000
-27.939900 0.000000
-27.876300 0.000000
-27.812600 0.000000
-27.749000 0.000000
-27.685400 0.000000
-27.621700 0.000000
-27.558100 0.000000
-27.494400 0.000000
-27.430800 0.000000
-27.367100 0.000000
-27.303500 0.000000
-27.239900 0.000000
-27.176200 0.000000
-27.112600 0.000000
-27.048900 0.000000
-26.985300 0.000000
-26.921700 0.000000
-26.858000 0.000000
-26.794400 0.000000
-26.730700 0.000000
-26.667100 0.000000
-26.603400 0.000000
-26.539800 0.000000
-26.476200 0.000000
-26.412500 0.000000
-26.348900 0.000000
-26.285200 0.000000
-26.221600 0.000000
-26.157900 0.000000
-26.094300 0.000000
-26.030700 0.000000
-25.967000 0.000000
-25.903400 0.000000
-25.839700 0.000000
-25.776100 0.000000
-25.712400 0.000000
-25.648800 0.000000
-25.585200 0.000000
-25.521500 0.000000
-25.457900 0.000000
-25.394200 0.000000
-25.330600 0.000000
-25.267000 0.000000
-25.203300 0.000000
-25.139700 0.000000
-25.076000 0.000000
-25.012400 0.000000
-24.948700 0.000000
-24.885100 0.000000
-24.821500 0.000000
-24.757800 0.000000
-24.694200 0.000000
-24.630500 0.000000
-24.566900 0.000000
-24.503200 0.000000
-24.439600 0.000000
-24.376000 0.000000
-24.312300 0.000000
-24.248700 0.000000
-24.185000 0.000000
-24.121400 0.000000
-24.057700 0.000000
-23.994100 0.000000
-23.930500 0.000000
-23.866800 0.000000
-23.803200 0.000000
-23.739500 0.000000
-23.675900 0.000000
-23.612200 0.000000
-23.548600 0.000000
-23.485000 0.000000
-23.421300 0.000000
-23.357700 0.000000
-23.294000 0.000000
-23.230400 0.000000
-23.166800 0.000000
-23.103100 0.000000
-23.039500 0.000000
-22.975800 0.000000
-22.912200 0.000000
-22.848500 0.000000
-22.784900 0.000000
-22.721300 0.000000
-22.657600 0.000000
-22.594000 0.000000
-22.530300 0.000000
-22.466700 0.000000
-22.403000 0.000000
-22.339400 0.000000
-22.275800 0.000000
-22.212100 0.000000
-22.148500 0.000000
-22.084800 0.000000
-22.021200 0.000000
-21.957500 0.000000
-21.893900 0.000000
-21.830300 0.000000
-21.766600 0.000000
-21.703000 0.000000
-21.639300 0.000000
-21.575700 0.000000
-21.512100 0.000000
-21.448400 0.000000
-21.384800 0.000000
-21.321100 0.000000
-21.257500 0.000000
-21.193800 0.000000
-21.130200 0.000000
-21.066600 0.000000
-21.002900 0.000000
-20.939300 0.000000
-20.875600 0.000000
-20.812000 0.000000
-20.748300 0.000000
-20.684700 0.000000
-20.621100 0.000000
-20.557400 0.000000
-20.493800 0.000000
-20.430100 0.000000
-20.366500 0.000000
-20.302800 0.000000
-20.239200 0.000000
-20.175600 0.000000
-20.111900 0.000000
-20.048300 0.000000
-19.984600 0.000000
-19.921000 0.000000
-19.857300 0.000000
-19.793700 0.000000
-19.730100 0.000000
-19.666400 0.000000
-19.602800 0.000000
-19.539100 0.000000
-19.475500 0.000000
-19.411900 0.000000
-19.348200 0.000000
-19.284600 0.000000
-19.220900 0.000000
-19.157300 0.000000
-19.093600 0.000000
-19.030000 0.000000
-18.966400 0.000000
-18.902700 0.000000
-18.839100 0.000000
-18.775400 0.000000
-18.711800 0.000000
-18.648100 0.000000
-18.584500 0.000000
-18.520900 0.000000
-18.457200 0.000000
-18.393600 0.000000
-18.329900 0.000000
-18.266300 0.000000
-18.202600 0.000000
-18.139000 0.000000
-18.075400 0.000000
-18.011700 0.000000
-17.948100 0.000000
-17.884400 0.000000
-17.820800 0.000000
-17.757100 0.000000
-17.693500 0.000000
-17.629900 0.000000
-17.566200 0.000000
-17.502600 0.000000
-17.438900 0.000000
-17.375300 0.000000
-17.311700 0.000000
-17.248000 0.000000
-17.184400 0.000000
-17.120700 0.000000
-17.057100 0.000000
-16.993400 0.000000
-16.929800 0.000000
-16.866200 0.000000
-16.802500 0.000000
-16.738900 0.000000
-16.675200 0.000000
-16.611600 0.000000
-16.547900 0.000000
-16.484300 0.000000
-16.420700 0.000000
-16.357000 0.000000
-16.293400 0.000000
-16.229700 0.000000
-16.166100 0.000000
-16.102400 0.000000
-16.038800 0.000000
-15.975200 0.000000
-15.911500 0.000000
-15.847900 0.000000
-15.784200 0.000000
-15.720600 0.000000
-15.657000 0.000000
-15.593300 0.000000
-15.529700 0.000000
-15.466000 0.000000
-15.402400 0.000000
-15.338700 0.000000
-15.275100 0.000000
-15.211500 0.000000
-15.147800 0.000000
-15.084200 0.000000
-15.020500 0.000000
-14.956900 0.000000
-14.893200 0.000000
-14.829600 0.000000
-14.766000 0.000000
-14.702300 0.000000
-14.638700 0.000000
-14.575000 0.000000
-14.511400 0.000000
-14.447700 0.000000
-14.384100 0.000000
-14.320500 0.000000
-14.256800 0.000000
-14.193200 0.000000
-14.129500 0.000000
-14.065900 0.000000
-14.002200 0.000000
-13.938600 0.000000
-13.875000 0.000000
-13.811300 0.000000
-13.747700 0.000000
-13.684000 0.000000
-13.620400 0.000000
-13.556800 0.000000
-13.493100 0.000000
-13.429500 0.000000
-13.365800 0.000000
-13.302200 0.000000
-13.238500 0.000000
-13.174900 0.000000
-13.111300 0.000000
-13.047600 0.000000
-12.984000 0.000000
-12.920300 0.000000
-12.856700 0.000000
-12.793000 0.000000
-12.729400 0.000000
-12.665800 0.000000
-12.602100 0.000000
-12.538500 0.000000
-12.474800 0.000000
-12.411200 0.000000
-12.347500 0.000000
-12.283900 0.000000
-12.220300 0.000000
-12.156600 0.000000
-12.093000 0.000000
-12.029300 0.000000
-11.965700 0.000000
-11.902000 0.000000
-11.838400 0.000000
-11.774800 0.000000
-11.711100 0.000000
-11.647500 0.000000
-11.583800 0.000000
-11.520200 0.000000
-11.456600 0.000000
-11.392900 0.000000
-11.329300 0.000000
-11.265600 0.000000
-11.202000 0.000000
-11.138300 0.000000
-11.074700 0.000000
-11.011100 0.000000
-10.947400 0.000000
-10.883800 0.000000
-10.820100 0.000000
-10.756500 0.000000
-10.692800 0.000000
-10.629200 0.000000
-10.565600 0.000000
-10.501900 0.000000
-10.438300 0.000000
-10.374600 0.000000
-10.311000 0.000000
-10.247300 0.000000
-10.183700 0.000000
-10.120100 0.000000
-10.056400 0.000000
-9.992800 0.000000
-9.929100 0.000000
-9.865500 0.000000
-9.801900 0.000000
-9.738200 0.000000
-9.674600 0.000000
-9.610900 0.000000
-9.547300 0.000000
-9.483600 0.000000
-9.420000 0.000000
-9.356400 0.000000
-9.292700 0.000000
-9.229100 0.000000
-9.165400 0.000000
-9.101800 0.000000
-9.038100 0.000000
-8.974500 0.000000
-8.910900 0.000000
-8.847200 0.000000
-8.783600 0.000000
-8.719900 0.000000
-8.656300 0.000000
-8.592600 0.000000
-8.529000 0.000000
-8.465400 0.000000
-8.401700 0.000000
-8.338100 0.000000
-8.274400 0.000000
-8.210800 0.000000
-8.147100 0.000000
-8.083500 0.000000
-8.019900 0.000000
-7.956200 0.000000
-7.892600 0.000000
-7.828900 0.000000
-7.765300 0.000000
-7.701700 0.000000
-7.638000 0.000000
-7.574400 0.000000
-7.510700 0.000000
-7.447100 0.000000
-7.383400 0.000000
-7.319800 0.000000
-7.256200 26.119700
-7.192500 0.000000
-7.128900 0.000000
-7.065200 0.000000
-7.001600 0.000000
-6.937900 0.000000
-6.874300 0.000000
-6.810700 0.000000
-6.747000 0.000000
-6.683400 0.000000
-6.619700 0.000000
-6.556100 0.000000
-6.492400 0.000000
-6.428800 0.000000
-6.365200 0.000000
-6.301500 0.000000
-6.237900 0.000000
-6.174200 0.000000
-6.110600 0.000000
-6.046900 0.000000
-5.983300 0.000000
-5.919700 0.000000
-5.856000 0.000000
-5.792400 0.000000
-5.728700 0.000000
-5.665100 0.000000
-5.601500 0.000000
-5.537800 0.000000
-5.474200 0.000000
-5.410500 0.000000
-5.346900 0.000000
-5.283200 0.000000
-5.219600 0.000000
-5.156000 0.000000
-5.092300 0.000000
-5.028700 0.000000
-4.965000 0.000000
-4.901400 0.000000
-4.837700 0.000000
-4.774100 0.000000
-4.710500 0.000000
-4.646800 0.000000
-4.583200 0.000000
-4.519500 0.000000
-4.455900 0.000000
-4.392200 0.000000
-4.328600 0.000000
-4.265000 0.000000
-4.201300 0.000000
-4.137700 0.000000
-4.074000 0.000000
-4.010400 0.000000
-3.946800 0.000000
-3.883100 0.000000
-3.819500 0.000000
-3.755800 0.000000
-3.692200 0.000000
-3.628500 0.000000
-3.564900 0.000000
-3.501300 0.000000
-3.437600 0.000000
-3.374000 0.000000
-3.310300 0.043500
-3.246700 0.090600
-3.183000 0.115900
-3.119400 0.144600
-3.055800 0.166600
-2.992100 0.178300
-2.928500 0.197100
-2.864800 0.213700
-2.801200 0.227600
-2.737500 0.244900
-2.673900 0.257500
-2.610300 0.269600
-2.546600 0.282400
-2.483000 0.294600
-2.419300 0.307800
-2.355700 0.321600
-2.292000 0.336200
-2.228400 0.347000
-2.164800 0.358800
-2.101100 0.370600
-2.037500 0.382400
-1.973800 0.395100
-1.910200 0.408400
-1.846600 0.421900
-1.782900 0.435600
-1.719300 0.450300
-1.655600 0.464100
-1.592000 0.478500
-1.528300 0.493800
-1.464700 0.509600
-1.401100 0.526000
-1.337400 0.543900
-1.273800 0.563700
-1.210100 0.585000
-1.146500 0.607900
-1.082800 0.635700
-1.019200 0.669400
-0.955600 0.715100
-0.891900 0.765400
-0.828300 0.810700
-0.764600 0.834500
-0.701000 0.877700
-0.637300 0.968600
-0.573700 1.042000
-0.510100 1.077900
-0.446400 1.104000
-0.382800 1.092500
-0.319100 1.036200
-0.255500 1.011400
-0.191800 0.932500
-0.128200 0.812200
-0.064600 0.730300
-0.000900 0.665600
0.062700 0.617400
0.126400 0.604600
0.190000 0.572500
0.253600 0.540600
0.317300 0.498600
0.380900 0.504300
0.444600 0.223300
0.508200 0.000000
0.571900 0.000000
0.635500 0.000000
0.699100 0.000000
0.762800 0.000000
0.826400 0.026700
0.890100 0.041800
0.953700 0.057600
1.017400 0.235000
1.081000 0.260900
1.144600 0.330000
1.208300 0.394400
1.271900 0.461900
1.335600 0.547900
1.399200 0.625600
1.462900 0.720800
1.526500 0.828500
1.590100 0.987300
1.653800 1.122200
1.717400 1.169100
1.781100 1.149900
1.844700 1.199000
1.908300 1.226100
1.972000 1.301300
2.035600 1.968100
2.099300 1.876400
2.162900 1.759000
2.226600 1.787900
2.290200 1.590600
2.353800 1.403700
2.417500 1.198900
2.481100 0.990600
2.544800 0.911500
2.608400 0.960600
2.672100 0.998100
2.735700 1.075600
2.799300 1.227700
2.863000 1.409400
2.926600 1.404500
2.990300 1.450600
3.053900 1.530300
3.117600 1.569000
3.181200 1.630100
3.244800 1.695700
3.308500 1.796800
3.372100 2.083400
3.435800 2.456000
3.499400 2.591600
3.563100 3.168100
3.626700 3.166000
3.690300 3.203600
3.754000 3.262300
3.817600 3.867200
3.881300 4.087700
3.944900 4.768100
4.008500 6.330100
4.072200 6.282000
4.135800 5.525800
4.199500 2.885300
4.263100 4.264200
4.326800 10.246800
4.390400 9.414600
4.454000 7.089200
4.517700 6.954200
4.581300 7.619800
4.645000 7.148900
4.708600 8.243900
4.772300 7.297000
4.835900 8.259000
4.899500 7.082100
4.963200 8.016600
5.026800 1.337300
5.090500 9.322300
5.154100 11.868900
5.217800 11.125900
5.281400 8.210700
5.345000 7.799700
5.408700 9.509400
5.472300 7.444200
5.536000 5.897900
5.599600 7.103700
5.663300 5.055700
5.726900 6.141300
5.790500 6.766300
5.854200 8.275500
5.917800 5.734100
5.981500 11.961100
6.045100 11.276700
6.108700 7.745900
6.172400 8.647500
6.236000 7.641700
6.299700 8.132400
6.363300 11.583000
6.427000 20.644100
6.490600 14.252400
6.554200 10.762600
6.617900 11.922000
6.681500 9.885700
6.745200 4.856800
6.808800 4.100200
6.872500 4.990400
6.936100 3.023500
6.999700 9.460700
7.063400 16.966400
7.127000 9.482800
7.190700 5.653800
7.254300 4.202200
7.318000 2.910100
7.381600 2.393800
7.445200 2.061400
7.508900 1.861300
7.572500 1.743500
7.636200 1.677200
7.699800 1.608700
7.763400 1.574400
7.827100 1.539100
7.890700 1.554400
7.954400 1.658200
8.018000 2.075300
8.081700 1.991300
8.145300 1.907500
8.208900 1.896300
8.272600 1.727500
8.336200 1.637400
8.399900 1.578700
8.463500 1.521200
8.527200 1.485100
8.590800 1.451200
8.654400 1.414600
8.718100 1.386500
8.781700 1.357700
8.845400 1.326300
8.909000 1.309700
8.972700 1.283800
9.036300 1.242200
9.099900 1.208600
9.163600 1.181000
9.227200 1.161100
9.290900 1.152300
9.354500 1.151400
9.418200 1.156200
9.481800 1.149600
9.545400 1.107800
9.609100 1.061700
9.672700 1.010300
9.736400 0.957000
9.800000 0.892400
9.863600 0.849300
9.927300 0.810900
9.990900 0.765700
10.054600 0.728300
10.118200 0.703000
10.181900 0.688800
10.245500 0.683200
10.309100 0.697300
10.372800 0.704200
10.436400 0.659000
10.500100 0.606600
10.563700 0.644700
10.627400 0.740200
10.691000 0.828700
10.754600 0.858300
10.818300 0.855700
10.881900 0.876200
10.945600 1.026100
11.009200 1.203100
11.072900 1.473000
11.136500 1.580500
11.200100 1.601500
11.263800 1.425300
11.327400 1.248400
11.391100 1.108400
11.454700 1.031500
11.518400 0.955100
11.582000 0.866600
11.645600 0.827900
11.709300 0.821400
11.772900 0.858100
11.836600 0.919800
11.900200 0.904100
11.963800 0.877100
12.027500 0.887600
12.091100 0.867000
12.154800 0.848700
12.218400 0.828900
12.282100 0.990700
12.345700 1.031900
12.409300 1.075700
12.473000 1.094300
12.536600 1.087300
12.600300 1.074400
12.663900 1.085500
12.727600 1.106500
12.791200 1.127100
12.854800 1.129000
12.918500 1.144200
12.982100 1.079200
13.045800 1.090000
13.109400 1.067000
13.173100 1.065900
13.236700 1.083300
13.300300 1.115200
13.364000 1.179900
13.427600 1.225600
13.491300 1.259800
13.554900 1.314600
13.618500 1.338000
13.682200 1.372600
13.745800 1.430800
13.809500 1.526200
13.873100 1.665300
13.936800 1.755200
14.000400 1.730300
14.064000 1.770900
14.127700 1.408800
14.191300 1.379200
14.255000 1.370300
14.318600 1.353300
14.382300 1.276000
14.445900 1.185900
14.509500 1.188100
14.573200 1.201500
14.636800 1.214000
14.700500 1.215400
14.764100 1.240900
14.827800 1.244600
14.891400 1.240900
14.955000 1.251500
15.018700 1.338900
15.082300 1.308400
15.146000 1.206800
15.209600 1.136900
15.273300 1.096000
15.336900 1.079300
15.400500 1.092200
15.464200 1.100800
15.527800 1.111100
15.591500 1.123700
15.655100 1.154600
15.718700 1.157700
15.782400 1.177500
15.846000 1.183400
15.909700 1.273400
15.973300 1.366300
16.037000 1.324700
16.100600 1.253600
16.164200 1.205400
16.227900 1.180900
16.291500 1.163000
16.355200 1.208500
16.418800 1.285700
16.482500 1.317000
16.546100 1.366300
16.609700 1.377100
16.673400 1.370900
16.737000 1.390400
16.800700 1.426500
16.864300 1.388700
16.928000 1.435400
16.991600 1.456000
17.055200 1.475300
17.118900 1.530300
17.182500 1.562500
17.246200 1.519800
17.309800 1.525700
17.373500 1.580800
17.437100 1.627100
17.500700 1.646600
17.564400 1.590700
17.628000 1.520200
17.691700 1.474200
17.755300 1.459500
17.818900 1.437500
17.882600 1.438300
17.946200 1.447000
18.009900 1.451400
18.073500 1.454500
18.137200 1.463300
18.200800 1.481900
18.264400 1.494600
18.328100 1.525000
18.391700 1.528900
18.455400 1.583700
18.519000 1.680400
18.582700 1.684600
18.646300 1.659900
18.709900 1.679600
18.773600 1.638800
18.837200 1.616300
18.900900 1.568400
18.964500 1.556700
19.028200 1.482000
19.091800 1.460000
19.155400 1.466900
19.219100 1.512700
19.282700 1.550100
19.346400 1.609600
19.410000 1.666000
19.473600 1.682300
19.537300 1.694000
19.600900 1.729500
19.664600 1.752300
19.728200 1.744400
19.791900 1.714800
19.855500 1.665600
19.919100 1.603100
19.982800 1.526400
20.046400 1.445300
20.110100 1.427100
20.173700 1.430600
20.237400 1.406400
20.301000 1.472000
20.364600 1.546200
20.428300 1.613900
20.491900 1.763400
20.555600 1.742100
20.619200 1.628300
20.682900 1.572000
20.746500 1.530800
20.810100 1.529300
20.873800 1.578700
20.937400 1.583000
21.001100 1.605300
21.064700 1.626600
21.128400 1.610100
21.192000 1.692100
21.255600 1.732300
21.319300 1.792300
21.382900 1.819100
21.446600 1.841500
21.510200 1.798000
21.573800 1.661400
21.637500 1.536800
21.701100 1.517000
21.764800 1.504200
21.828400 1.470000
21.892100 1.424800
21.955700 1.418600
22.019300 1.426000
22.083000 1.439700
22.146600 1.455000
22.210300 1.483000
22.273900 1.527600
22.337600 1.532800
22.401200 1.543600
22.464800 1.554800
22.528500 1.574400
22.592100 1.559000
22.655800 1.538600
22.719400 1.486200
22.783100 1.444400
22.846700 1.485300
22.910300 1.389500
22.974000 1.380200
23.037600 1.385700
23.101300 1.410900
23.164900 1.434700
23.228600 1.492700
23.292200 1.552200
23.355800 1.557100
23.419500 1.516800
23.483100 1.554500
23.546800 1.543300
23.610400 1.479600
23.674000 1.471800
23.737700 1.454300
23.801300 1.468500
23.865000 1.474800
23.928600 1.493800
23.992300 1.495400
24.055900 1.499000
24.119500 1.546700
24.183200 1.557500
24.246800 1.492300
24.310500 1.447600
24.374100 1.347600
24.437800 1.267300
24.501400 1.254800
24.565000 1.247900
24.628700 1.244900
24.692300 1.270700
24.756000 1.292100
24.819600 1.298400
24.883300 1.267100
24.946900 1.314600
25.010500 1.383500
25.074200 1.423400
25.137800 1.389300
25.201500 1.333100
25.265100 1.325000
25.328700 1.325500
25.392400 1.397200
25.456000 1.488800
25.519700 1.508600
25.583300 1.528100
25.647000 1.554600
25.710600 1.543700
25.774200 1.521100
25.837900 1.548700
25.901500 1.519200
25.965200 1.557200
26.028800 1.614200
26.092500 1.636600
26.156100 1.605000
26.219700 1.588100
26.283400 1.505500
26.347000 1.489000
26.410700 1.503500
26.474300 1.582900
26.538000 1.642800
26.601600 1.682700
26.665200 1.725100
26.728900 1.767300
26.792500 1.659200
26.856200 1.681400
26.919800 1.707300
26.983500 1.711600
27.047100 1.641500
27.110700 1.738300
27.174400 1.864700
27.238000 1.942600
27.301700 2.025600
27.365300 2.081000
27.428900 2.116900
27.492600 2.067900
27.556200 2.001300
27.619900 1.889500
27.683500 1.794500
27.747200 1.718400
27.810800 1.677300
27.874400 1.697900
27.938100 1.691900
28.001700 1.742800
28.065400 1.658900
28.129000 1.620300
28.192700 1.702200
28.256300 1.857900
28.319900 1.994900
28.383600 2.075500
28.447200 2.183600
28.510900 2.252200
28.574500 2.253000
28.638200 2.232900
28.701800 2.288000
28.765400 2.274200
28.829100 2.197200
28.892700 2.075500
28.956400 1.941900
29.020000 1.999600
29.083700 1.984700
29.147300 1.877500
29.210900 1.837400
29.274600 1.784500
29.338200 1.749000
29.401900 1.764400
29.465500 1.778900
29.529100 1.825500
29.592800 1.855600
29.656400 1.923600
29.720100 1.964200
29.783700 2.063500
29.847400 2.080200
29.911000 2.057500
29.974600 2.062900
30.038300 2.031000
30.101900 1.913100
30.165600 1.801100
30.229200 1.745400
30.292900 1.708900
30.356500 1.738700
30.420100 1.661500
30.483800 1.630100
30.547400 1.618700
30.611100 1.629900
30.674700 1.626000
30.738400 1.621500
30.802000 1.604000
30.865600 1.643200
30.929300 1.720800
30.992900 1.779900
31.056600 1.710600
31.120200 1.662400
31.183800 1.637900
31.247500 1.649900
31.311100 1.620600
31.374800 1.602600
31.438400 1.444200
31.502100 1.370300
31.565700 1.326300
31.629300 1.307700
31.693000 1.314000
31.756600 1.348700
31.820300 1.424800
31.883900 1.540300
31.947600 1.714100
32.011200 1.888300
32.074800 1.904300
32.138500 1.913800
32.202100 1.946100
32.265800 1.974800
32.329400 1.880600
32.393100 1.932400
32.456700 2.012500
32.520300 2.059200
32.584000 1.923300
32.647600 1.726500
32.711300 1.560100
32.774900 1.473000
32.838600 1.469600
32.902200 1.485300
32.965800 1.512100
33.029500 1.605800
33.093100 1.699700
33.156800 1.971400
33.220400 2.075400
33.284000 2.096700
33.347700 2.144300
33.411300 2.144800
33.475000 2.099200
33.538600 2.093000
33.602300 2.053900
33.665900 2.109700
33.729500 2.174100
33.793200 1.939500
33.856800 1.853900
33.920500 1.840100
33.984100 1.841500
34.047800 1.857000
34.111400 1.862800
34.175000 1.903200
34.238700 2.002900
34.302300 2.050300
34.366000 2.041000
34.429600 2.013900
34.493300 1.959600
34.556900 1.899900
34.620500 1.850900
34.684200 1.940000
34.747800 1.894500
34.811500 1.884100
34.875100 1.886600
34.938800 1.844700
35.002400 1.804600
35.066000 1.815500
35.129700 1.799500
35.193300 1.768100
35.257000 1.699000
35.320600 1.619000
35.384200 1.563200
35.447900 1.521400
35.511500 1.499700
35.575200 1.481500
35.638800 1.514000
35.702500 1.507000
35.766100 1.546300
35.829700 1.583700
35.893400 1.654600
35.957000 1.731700
36.020700 1.809200
36.084300 1.845000
36.148000 1.939500
36.211600 1.962700
36.275200 1.946100
36.338900 1.963500
36.402500 2.149700
36.466200 2.037800
36.529800 1.953000
36.593500 1.926800
36.657100 1.972600
36.720700 2.047900
36.784400 1.883300
36.848000 1.883400
36.911700 1.897700
36.975300 1.882000
37.038900 1.894200
37.102600 1.949200
37.166200 1.940900
37.229900 1.976900
37.293500 2.024600
37.357200 2.005500
37.420800 2.030500
37.484400 2.034900
37.548100 2.039200
37.611700 2.062800
37.675400 2.077200
37.739000 2.050400
37.802700 2.043300
37.866300 2.034500
37.929900 2.082900
37.993600 2.040500
38.057200 1.981500
38.120900 2.014700
38.184500 2.002700
38.248200 2.073800
38.311800 2.146800
38.375400 2.333700
38.439100 2.358100
38.502700 2.283300
38.566400 2.245400
38.630000 2.248500
38.693700 2.182300
38.757300 2.124000
38.820900 2.088200
38.884600 2.056800
38.948200 2.116900
39.011900 2.237000
39.075500 2.158900
39.139100 2.132000
39.202800 2.097600
39.266400 2.057800
39.330100 2.006800
39.393700 1.935500
39.457400 1.880100
39.521000 1.892300
39.584600 1.957500
39.648300 1.937600
39.711900 1.952800
39.775600 2.064300
39.839200 2.178300
39.902900 2.182600
39.966500 2.137700
40.030100 2.088800
40.093800 2.055300
40.157400 2.048200
40.221100 1.975900
40.284700 1.910500
40.348400 1.840300
40.412000 1.807800
40.475600 1.843000
40.539300 1.971400
40.602900 2.176100
40.666600 2.433900
40.730200 2.292200
40.793900 2.005100
40.857500 1.963900
40.921100 1.997000
40.984800 2.034900
41.048400 2.052000
41.112100 2.103800
41.175700 2.021500
41.239300 1.981400
41.303000 1.920700
41.366600 1.887600
41.430300 1.854200
41.493900 1.922900
41.557600 2.019900
41.621200 2.166200
41.684800 2.096500
41.748500 1.994200
41.812100 1.954700
41.875800 1.965700
41.939400 2.004500
42.003100 2.068400
42.066700 2.084600
42.130300 2.098900
42.194000 2.019600
42.257600 1.985900
42.321300 2.014300
42.384900 2.071400
42.448600 2.117400
42.512200 2.176900
42.575800 2.301100
42.639500 2.247900
42.703100 2.240100
42.766800 2.301000
42.830400 2.355500
42.894000 2.363100
42.957700 2.361800
43.021300 2.394300
43.085000 2.444900
43.148600 2.367600
43.212300 2.336600
43.275900 2.371300
43.339500 2.377000
43.403200 2.327000
43.466800 2.262600
43.530500 2.266400
43.594100 2.263800
43.657800 2.274200
43.721400 2.267700
43.785000 2.245200
43.848700 2.257400
43.912300 2.253300
43.976000 2.212700
44.039600 2.232700
44.103300 2.465500
44.166900 2.577600
44.230500 2.731300
44.294200 2.976200
44.357800 3.217000
44.421500 3.350600
44.485100 3.305600
44.548800 3.334000
44.612400 3.511500
44.676000 3.856500
44.739700 4.284600
44.803300 4.675200
44.867000 5.819300
44.930600 8.258600
44.994200 13.121900
45.057900 15.286600
45.121500 15.890700
45.185200 8.915200
45.248800 7.154800
45.312500 6.131000
45.376100 4.864100
45.439700 4.597100
45.503400 3.653000
45.567000 3.323100
45.630700 3.212100
45.694300 3.233800
45.758000 2.840000
45.821600 2.784300
45.885200 2.639900
45.948900 2.542100
46.012500 2.596600
46.076200 2.573600
46.139800 2.655200
46.203500 2.634700
46.267100 2.653200
46.330700 2.581100
46.394400 2.359000
46.458000 2.286100
46.521700 2.243600
46.585300 2.263000
46.649000 2.255200
46.712600 2.260900
46.776200 2.218000
46.839900 2.243600
46.903500 2.314700
46.967200 2.265800
47.030800 2.488700
47.094400 2.429400
47.158100 2.439200
47.221700 2.404500
47.285400 2.358300
47.349000 2.348700
47.412700 2.388100
47.476300 2.378400
47.539900 2.345300
47.603600 2.298500
47.667200 2.309600
47.730900 2.398200
47.794500 2.395300
47.858200 2.427000
47.921800 2.416300
47.985400 2.400600
48.049100 2.393800
48.112700 2.439600
48.176400 2.395700
48.240000 2.346300
48.303700 2.289400
48.367300 2.330300
48.430900 2.569200
48.494600 2.432000
48.558200 2.398700
48.621900 2.417700
48.685500 2.449600
48.749100 2.481400
48.812800 2.511800
48.876400 2.508600
48.940100 2.463900
49.003700 2.399700
49.067400 2.344700
49.131000 2.392400
49.194600 2.359800
49.258300 2.386900
49.321900 2.356400
49.385600 2.368700
49.449200 2.418900
49.512900 2.434800
49.576500 2.373700
49.640100 2.424800
49.703800 2.456300
49.767400 2.493500
49.831100 2.531200
49.894700 2.486400
49.958400 2.402800
50.022000 2.406900
50.085600 2.408600
50.149300 2.397400
50.212900 2.401400
50.276600 2.421400
50.340200 2.373100
50.403900 2.352700
50.467500 2.381600
50.531100 2.383600
50.594800 2.399000
50.658400 2.399000
50.722100 2.416200
50.785700 2.404500
50.849300 2.378400
50.913000 2.414500
50.976600 2.519800
51.040300 2.575500
51.103900 2.699900
51.167600 2.736900
51.231200 2.659600
51.294800 2.734800
51.358500 2.735500
51.422100 2.700000
51.485800 2.669000
51.549400 2.606800
51.613100 2.554500
51.676700 2.553300
51.740300 2.473800
51.804000 2.425900
51.867600 2.398400
51.931300 2.390800
51.994900 2.338500
52.058600 2.357600
52.122200 2.458300
52.185800 2.430100
52.249500 2.415800
52.313100 2.437800
52.376800 2.467700
52.440400 2.412100
52.504100 2.312300
52.567700 2.194200
52.631300 2.101800
52.695000 2.137700
52.758600 2.159700
52.822300 2.179100
52.885900 2.213100
52.949500 2.264800
53.013200 2.272000
53.076800 2.293100
53.140500 2.356000
53.204100 2.425100
53.267800 2.492100
53.331400 2.538300
53.395000 2.557900
53.458700 2.546900
53.522300 2.545000
53.586000 2.502800
53.649600 2.458300
53.713300 2.407200
53.776900 2.344200
53.840500 2.288700
53.904200 2.278700
53.967800 2.325000
54.031500 2.397500
54.095100 2.571000
54.158800 2.484700
54.222400 2.411900
54.286000 2.445600
54.349700 2.587200
54.413300 2.560200
54.477000 2.401400
54.540600 2.303000
54.604200 2.339900
54.667900 2.389400
54.731500 2.362400
54.795200 2.376600
54.858800 2.352900
54.922500 2.469800
54.986100 2.525900
55.049700 2.497400
55.113400 2.587300
55.177000 2.596000
55.240700 2.576200
55.304300 2.552900
55.368000 2.503700
55.431600 2.453300
55.495200 2.398800
55.558900 2.337200
55.622500 2.289100
55.686200 2.271000
55.749800 2.281900
55.813500 2.415900
55.877100 2.411000
55.940700 2.493800
56.004400 2.602200
56.068000 2.657300
56.131700 2.581200
56.195300 2.513100
56.259000 2.472900
56.322600 2.435200
56.386200 2.339700
56.449900 2.255800
56.513500 2.364100
56.577200 2.306500
56.640800 2.269400
56.704400 2.216900
56.768100 2.131500
56.831700 2.078500
56.895400 2.039600
56.959000 2.026600
57.022700 2.013300
57.086300 2.046000
57.149900 2.042600
57.213600 2.050200
57.277200 2.036400
57.340900 1.980600
57.404500 1.920000
57.468200 1.741500
57.531800 1.721100
57.595400 1.601100
57.659100 1.454500
57.722700 1.322000
57.786400 1.227200
57.850000 1.189300
57.913700 1.135900
57.977300 1.071600
58.040900 0.986700
58.104600 0.872600
58.168200 0.769800
58.231900 0.683200
58.295500 0.593800
58.359100 0.501700
58.422800 0.412000
58.486400 0.344700
58.550100 0.276700
58.613700 0.217300
58.677400 0.184100
58.741000 0.167300
58.804600 0.155200
58.868300 0.146500
58.931900 0.139200
58.995600 0.132100
59.059200 0.125500
59.122900 0.119200
59.186500 0.115100
59.250100 0.106100
59.313800 0.091000
59.377400 0.064300
59.441100 0.050900
59.504700 0.037400
59.568400 0.024500
59.632000 0.012400
59.695600 0.001000
59.759300 0.000000
59.822900 0.000000
59.886600 0.000000
59.950200 0.000000
60.013900 0.000000
60.077500 0.000000
60.141100 0.000000
60.204800 0.000000
60.268400 0.000000
60.332100 0.000000
60.395700 0.000000
60.459300 0.000000
60.523000 0.000000
60.586600 0.000000
60.650300 0.000000
60.713900 0.000000
60.777600 0.000000
60.841200 0.000000
60.904800 0.000000
60.968500 0.000000
61.032100 0.000000
61.095800 0.000000
61.159400 0.000000
61.223100 0.000000
61.286700 0.000000
61.350300 0.000000
61.414000 0.000000
61.477600 0.000000
61.541300 0.000000
61.604900 0.000000
61.668600 0.000000
61.732200 0.000000
61.795800 0.000000
61.859500 0.000000
61.923100 0.000000
61.986800 0.000000
62.050400 0.000000
62.114100 0.000000
62.177700 0.000000
62.241300 0.000000
62.305000 0.000000
62.368600 0.000000
62.432300 0.000000
62.495900 0.000000
62.559500 0.000000
62.623200 0.000000
62.686800 0.000000
62.750500 0.000000
62.814100 0.000000
62.877800 0.000000
62.941400 0.000000
63.005000 0.000000
63.068700 0.000000
63.132300 0.000000
63.196000 0.000000
63.259600 0.000000
63.323300 0.000000
63.386900 0.000000
63.450500 0.000000
63.514200 0.000000
63.577800 0.000000
63.641500 0.000000
63.705100 0.000000
63.768800 0.000000
63.832400 0.000000
63.896000 0.000000
63.959700 0.000000
64.023300 0.000000
64.087000 0.000000
64.150600 0.000000
64.214200 0.000000
64.277900 0.000000
64.341500 0.000000
64.405200 0.000000
64.468800 0.000000
64.532500 0.000000
64.596100 0.000000
64.659700 0.000000
64.723400 0.000000
64.787000 0.000000
64.850700 0.000000
64.914300 0.000000
64.978000 0.000000
65.041600 0.000000
65.105200 0.000000
65.168900 0.000000
65.232500 0.000000
65.296200 0.000000
65.359800 0.000000
65.423500 0.000000
65.487100 0.000000
e
