set title 'mp-568692 - Density of States'
set xlabel 'Energy (eV)'
set ylabel 'DOS (states/eV)'
set grid
set xrange [-10:10]
set yrange [0:118.691]
set xzeroaxis lt -1
set terminal png size 800,600
set output 'mp-568692_dos_gnuplot.png'
plot '-' using 1:2 with lines title 'DOS'
-15.317100 0.000000
-15.303400 0.000000
-15.289600 0.000000
-15.275900 0.000000
-15.262100 0.000000
-15.248400 0.000000
-15.234600 0.000000
-15.220900 0.000000
-15.207100 0.000000
-15.193400 0.000000
-15.179600 0.000000
-15.165900 0.000000
-15.152100 0.000000
-15.138300 0.000000
-15.124600 0.000000
-15.110800 0.000000
-15.097100 0.000000
-15.083300 0.000000
-15.069600 0.000000
-15.055800 0.000000
-15.042100 0.000000
-15.028300 0.000000
-15.014600 0.000000
-15.000800 0.000000
-14.987100 0.000000
-14.973300 0.000000
-14.959600 0.000000
-14.945800 0.000000
-14.932100 0.000000
-14.918300 0.000000
-14.904600 0.000000
-14.890800 0.000000
-14.877100 0.000000
-14.863300 0.000000
-14.849500 0.000000
-14.835800 0.000000
-14.822000 0.000000
-14.808300 0.000000
-14.794500 0.000000
-14.780800 0.000000
-14.767000 0.000000
-14.753300 0.000000
-14.739500 0.000000
-14.725800 0.000000
-14.712000 0.000000
-14.698300 0.000000
-14.684500 0.000000
-14.670800 0.000000
-14.657000 0.000000
-14.643300 0.000000
-14.629500 0.000000
-14.615800 0.000000
-14.602000 0.000000
-14.588300 0.000000
-14.574500 0.000000
-14.560700 0.000000
-14.547000 0.000000
-14.533200 0.000000
-14.519500 0.000000
-14.505700 0.000000
-14.492000 0.000000
-14.478200 0.000000
-14.464500 0.000000
-14.450700 0.000000
-14.437000 0.000000
-14.423200 0.000000
-14.409500 0.000000
-14.395700 0.000000
-14.382000 0.000000
-14.368200 0.000000
-14.354500 0.000000
-14.340700 0.000000
-14.327000 0.000000
-14.313200 0.000000
-14.299400 0.000000
-14.285700 0.000000
-14.271900 0.000000
-14.258200 0.000000
-14.244400 0.000000
-14.230700 0.000000
-14.216900 0.000000
-14.203200 0.000000
-14.189400 0.000000
-14.175700 0.000000
-14.161900 0.000000
-14.148200 0.000000
-14.134400 0.000000
-14.120700 0.000000
-14.106900 0.000000
-14.093200 0.000000
-14.079400 0.000000
-14.065700 22.449300
-14.051900 74.650500
-14.038200 40.347500
-14.024400 6.045500
-14.010600 102.266500
-13.996900 196.701000
-13.983100 0.000000
-13.969400 0.000000
-13.955600 0.000000
-13.941900 0.000000
-13.928100 0.000000
-13.914400 0.000000
-13.900600 0.000000
-13.886900 0.000000
-13.873100 0.000000
-13.859400 0.000000
-13.845600 0.000000
-13.831900 0.000000
-13.818100 0.000000
-13.804400 0.000000
-13.790600 0.000000
-13.776900 0.000000
-13.763100 0.000000
-13.749400 0.000000
-13.735600 0.000000
-13.721800 0.000000
-13.708100 0.000000
-13.694300 0.000000
-13.680600 0.000000
-13.666800 0.000000
-13.653100 0.000000
-13.639300 0.000000
-13.625600 0.000000
-13.611800 3.114900
-13.598100 11.109800
-13.584300 19.122300
-13.570600 27.152500
-13.556800 52.935800
-13.543100 3.145900
-13.529300 0.523300
-13.515600 3.821100
-13.501800 7.434000
-13.488100 11.068400
-13.474300 14.724200
-13.460600 42.680800
-13.446800 258.481800
-13.433000 65.773600
-13.419300 79.774200
-13.405500 77.153600
-13.391800 0.000000
-13.378000 0.000000
-13.364300 0.000000
-13.350500 0.000000
-13.336800 0.000000
-13.323000 0.000000
-13.309300 0.000000
-13.295500 0.000000
-13.281800 105.246600
-13.268000 1.382200
-13.254300 172.675500
-13.240500 112.305400
-13.226800 0.000000
-13.213000 0.000000
-13.199300 0.000000
-13.185500 0.000000
-13.171800 0.000000
-13.158000 0.000000
-13.144200 0.000000
-13.130500 0.000000
-13.116700 0.000000
-13.103000 0.000000
-13.089200 0.000000
-13.075500 0.000000
-13.061700 0.000000
-13.048000 0.000000
-13.034200 0.000000
-13.020500 0.000000
-13.006700 0.000000
-12.993000 0.000000
-12.979200 0.000000
-12.965500 0.000000
-12.951700 0.000000
-12.938000 0.000000
-12.924200 0.000000
-12.910500 66.607600
-12.896700 0.000000
-12.882900 357.716200
-12.869200 0.000000
-12.855400 1118.394400
-12.841700 209.458900
-12.827900 262.311100
-12.814200 0.000000
-12.800400 142.473800
-12.786700 122.234100
-12.772900 0.000000
-12.759200 0.000000
-12.745400 100.367700
-12.731700 91.675200
-12.717900 0.000000
-12.704200 33.273000
-12.690400 84.511400
-12.676700 52.887900
-12.662900 68.444100
-12.649200 24.612500
-12.635400 18.746500
-12.621700 12.879900
-12.607900 7.012600
-12.594100 164.587500
-12.580400 158.787000
-12.566600 203.466400
-12.552900 0.000000
-12.539100 0.000000
-12.525400 0.000000
-12.511600 102.035000
-12.497900 18.758100
-12.484100 39.505900
-12.470400 107.656900
-12.456600 0.000000
-12.442900 0.000000
-12.429100 0.000000
-12.415400 0.000000
-12.401600 0.000000
-12.387900 0.000000
-12.374100 0.000000
-12.360400 0.000000
-12.346600 0.000000
-12.332900 0.000000
-12.319100 0.000000
-12.305300 0.000000
-12.291600 0.000000
-12.277800 0.000000
-12.264100 0.000000
-12.250300 0.000000
-12.236600 0.000000
-12.222800 0.000000
-12.209100 0.000000
-12.195300 0.000000
-12.181600 0.000000
-12.167800 0.000000
-12.154100 0.000000
-12.140300 0.000000
-12.126600 0.000000
-12.112800 0.000000
-12.099100 0.000000
-12.085300 0.000000
-12.071600 0.000000
-12.057800 0.000000
-12.044100 0.000000
-12.030300 0.000000
-12.016500 0.000000
-12.002800 0.000000
-11.989000 0.000000
-11.975300 0.000000
-11.961500 0.000000
-11.947800 0.000000
-11.934000 0.000000
-11.920300 0.000000
-11.906500 0.000000
-11.892800 0.000000
-11.879000 0.000000
-11.865300 0.000000
-11.851500 0.000000
-11.837800 0.000000
-11.824000 0.000000
-11.810300 0.000000
-11.796500 0.000000
-11.782800 0.000000
-11.769000 0.000000
-11.755300 0.000000
-11.741500 0.000000
-11.727700 0.000000
-11.714000 0.000000
-11.700200 0.000000
-11.686500 0.000000
-11.672700 0.000000
-11.659000 0.000000
-11.645200 0.000000
-11.631500 0.000000
-11.617700 0.000000
-11.604000 0.000000
-11.590200 0.000000
-11.576500 0.000000
-11.562700 0.000000
-11.549000 0.000000
-11.535200 0.000000
-11.521500 0.000000
-11.507700 0.000000
-11.494000 0.000000
-11.480200 0.000000
-11.466500 0.000000
-11.452700 0.000000
-11.438900 0.000000
-11.425200 0.000000
-11.411400 0.000000
-11.397700 0.000000
-11.383900 0.000000
-11.370200 0.000000
-11.356400 0.000000
-11.342700 0.000000
-11.328900 0.000000
-11.315200 0.000000
-11.301400 0.000000
-11.287700 0.000000
-11.273900 0.000000
-11.260200 0.000000
-11.246400 0.000000
-11.232700 0.000000
-11.218900 0.000000
-11.205200 0.000000
-11.191400 0.000000
-11.177600 0.000000
-11.163900 0.000000
-11.150100 0.000000
-11.136400 0.000000
-11.122600 0.000000
-11.108900 0.000000
-11.095100 0.000000
-11.081400 0.000000
-11.067600 0.000000
-11.053900 0.000000
-11.040100 0.000000
-11.026400 0.000000
-11.012600 0.000000
-10.998900 0.000000
-10.985100 0.000000
-10.971400 0.000000
-10.957600 0.000000
-10.943900 0.000000
-10.930100 0.000000
-10.916400 0.000000
-10.902600 0.000000
-10.888800 0.000000
-10.875100 0.000000
-10.861300 0.000000
-10.847600 0.000000
-10.833800 0.000000
-10.820100 0.000000
-10.806300 0.000000
-10.792600 0.000000
-10.778800 0.000000
-10.765100 0.000000
-10.751300 0.000000
-10.737600 0.000000
-10.723800 0.000000
-10.710100 0.000000
-10.696300 0.000000
-10.682600 0.000000
-10.668800 0.000000
-10.655100 0.000000
-10.641300 0.000000
-10.627600 0.000000
-10.613800 0.000000
-10.600000 0.000000
-10.586300 0.000000
-10.572500 0.000000
-10.558800 0.000000
-10.545000 0.000000
-10.531300 0.000000
-10.517500 0.000000
-10.503800 0.000000
-10.490000 0.000000
-10.476300 0.000000
-10.462500 0.000000
-10.448800 0.000000
-10.435000 0.000000
-10.421300 0.000000
-10.407500 0.000000
-10.393800 0.000000
-10.380000 0.000000
-10.366300 0.000000
-10.352500 0.000000
-10.338800 0.000000
-10.325000 0.000000
-10.311200 0.000000
-10.297500 0.000000
-10.283700 0.000000
-10.270000 0.000000
-10.256200 0.000000
-10.242500 0.000000
-10.228700 0.000000
-10.215000 0.000000
-10.201200 0.000000
-10.187500 0.000000
-10.173700 0.000000
-10.160000 0.000000
-10.146200 0.000000
-10.132500 0.000000
-10.118700 0.000000
-10.105000 0.000000
-10.091200 0.000000
-10.077500 0.000000
-10.063700 0.000000
-10.050000 0.000000
-10.036200 0.000000
-10.022400 0.000000
-10.008700 0.000000
-9.994900 0.000000
-9.981200 0.000000
-9.967400 0.000000
-9.953700 0.000000
-9.939900 0.000000
-9.926200 0.000000
-9.912400 0.000000
-9.898700 0.000000
-9.884900 0.000000
-9.871200 0.000000
-9.857400 0.000000
-9.843700 0.000000
-9.829900 0.000000
-9.816200 0.000000
-9.802400 0.000000
-9.788700 0.000000
-9.774900 0.000000
-9.761100 0.000000
-9.747400 0.000000
-9.733600 0.000000
-9.719900 0.000000
-9.706100 0.000000
-9.692400 0.000000
-9.678600 0.000000
-9.664900 0.000000
-9.651100 0.000000
-9.637400 0.000000
-9.623600 0.000000
-9.609900 0.000000
-9.596100 0.000000
-9.582400 0.000000
-9.568600 0.000000
-9.554900 0.000000
-9.541100 0.000000
-9.527400 0.000000
-9.513600 0.000000
-9.499900 0.000000
-9.486100 0.000000
-9.472300 0.000000
-9.458600 0.000000
-9.444800 0.000000
-9.431100 0.000000
-9.417300 0.000000
-9.403600 0.000000
-9.389800 0.000000
-9.376100 0.000000
-9.362300 0.000000
-9.348600 0.000000
-9.334800 0.000000
-9.321100 0.000000
-9.307300 0.000000
-9.293600 0.000000
-9.279800 0.000000
-9.266100 0.000000
-9.252300 0.000000
-9.238600 0.000000
-9.224800 0.000000
-9.211100 0.000000
-9.197300 0.000000
-9.183500 0.000000
-9.169800 0.000000
-9.156000 0.000000
-9.142300 0.000000
-9.128500 0.000000
-9.114800 0.000000
-9.101000 0.000000
-9.087300 0.000000
-9.073500 0.000000
-9.059800 0.000000
-9.046000 0.000000
-9.032300 0.000000
-9.018500 0.000000
-9.004800 0.000000
-8.991000 0.000000
-8.977300 0.000000
-8.963500 0.000000
-8.949800 0.000000
-8.936000 0.000000
-8.922300 0.000000
-8.908500 0.000000
-8.894700 0.000000
-8.881000 0.000000
-8.867200 0.000000
-8.853500 0.000000
-8.839700 0.000000
-8.826000 0.000000
-8.812200 0.000000
-8.798500 0.000000
-8.784700 0.000000
-8.771000 0.000000
-8.757200 0.000000
-8.743500 0.000000
-8.729700 0.000000
-8.716000 0.000000
-8.702200 0.000000
-8.688500 0.000000
-8.674700 0.000000
-8.661000 0.000000
-8.647200 0.000000
-8.633500 0.000000
-8.619700 0.000000
-8.605900 0.000000
-8.592200 0.000000
-8.578400 0.000000
-8.564700 0.000000
-8.550900 0.000000
-8.537200 0.000000
-8.523400 0.000000
-8.509700 0.000000
-8.495900 0.000000
-8.482200 0.000000
-8.468400 0.000000
-8.454700 0.000000
-8.440900 0.000000
-8.427200 0.000000
-8.413400 0.000000
-8.399700 0.000000
-8.385900 0.000000
-8.372200 0.000000
-8.358400 0.000000
-8.344600 0.000000
-8.330900 0.000000
-8.317100 0.000000
-8.303400 0.000000
-8.289600 0.000000
-8.275900 0.000000
-8.262100 0.000000
-8.248400 0.000000
-8.234600 0.000000
-8.220900 0.000000
-8.207100 0.000000
-8.193400 0.000000
-8.179600 0.000000
-8.165900 0.000000
-8.152100 0.000000
-8.138400 0.000000
-8.124600 0.000000
-8.110900 0.000000
-8.097100 0.000000
-8.083400 0.000000
-8.069600 0.000000
-8.055800 0.000000
-8.042100 0.000000
-8.028300 0.000000
-8.014600 0.000000
-8.000800 0.000000
-7.987100 0.000000
-7.973300 0.000000
-7.959600 0.000000
-7.945800 0.000000
-7.932100 0.000000
-7.918300 0.000000
-7.904600 0.000000
-7.890800 0.000000
-7.877100 0.000000
-7.863300 0.000000
-7.849600 0.000000
-7.835800 0.000000
-7.822100 0.000000
-7.808300 0.000000
-7.794600 0.000000
-7.780800 0.000000
-7.767000 0.000000
-7.753300 0.000000
-7.739500 0.000000
-7.725800 0.000000
-7.712000 0.000000
-7.698300 0.000000
-7.684500 0.000000
-7.670800 0.000000
-7.657000 0.000000
-7.643300 0.000000
-7.629500 0.000000
-7.615800 0.000000
-7.602000 0.000000
-7.588300 0.000000
-7.574500 0.000000
-7.560800 0.000000
-7.547000 0.000000
-7.533300 0.000000
-7.519500 0.000000
-7.505800 0.000000
-7.492000 0.000000
-7.478200 0.000000
-7.464500 0.000000
-7.450700 0.000000
-7.437000 0.000000
-7.423200 0.000000
-7.409500 0.000000
-7.395700 0.000000
-7.382000 0.000000
-7.368200 0.000000
-7.354500 0.000000
-7.340700 0.000000
-7.327000 0.000000
-7.313200 0.000000
-7.299500 0.000000
-7.285700 0.000000
-7.272000 0.000000
-7.258200 0.000000
-7.244500 0.000000
-7.230700 0.000000
-7.217000 0.000000
-7.203200 0.000000
-7.189400 0.000000
-7.175700 0.000000
-7.161900 0.000000
-7.148200 0.000000
-7.134400 0.000000
-7.120700 0.000000
-7.106900 0.000000
-7.093200 0.000000
-7.079400 0.000000
-7.065700 0.000000
-7.051900 0.000000
-7.038200 0.000000
-7.024400 0.000000
-7.010700 0.000000
-6.996900 0.000000
-6.983200 0.000000
-6.969400 0.000000
-6.955700 0.000000
-6.941900 0.000000
-6.928200 0.000000
-6.914400 0.000000
-6.900600 0.000000
-6.886900 0.000000
-6.873100 0.000000
-6.859400 0.000000
-6.845600 0.000000
-6.831900 0.000000
-6.818100 0.000000
-6.804400 0.000000
-6.790600 0.000000
-6.776900 0.000000
-6.763100 0.000000
-6.749400 0.000000
-6.735600 0.000000
-6.721900 0.000000
-6.708100 0.000000
-6.694400 0.000000
-6.680600 0.000000
-6.666900 0.000000
-6.653100 0.000000
-6.639300 0.000000
-6.625600 0.000000
-6.611800 0.000000
-6.598100 0.000000
-6.584300 0.000000
-6.570600 0.000000
-6.556800 0.000000
-6.543100 0.000000
-6.529300 0.000000
-6.515600 0.000000
-6.501800 0.000000
-6.488100 0.000000
-6.474300 0.000000
-6.460600 0.000000
-6.446800 0.000000
-6.433100 0.000000
-6.419300 0.000000
-6.405600 0.000000
-6.391800 0.000000
-6.378100 0.000000
-6.364300 0.000000
-6.350500 0.000000
-6.336800 0.000000
-6.323000 0.000000
-6.309300 0.000000
-6.295500 0.000000
-6.281800 0.000000
-6.268000 0.000000
-6.254300 0.000000
-6.240500 0.000000
-6.226800 0.000000
-6.213000 0.000000
-6.199300 0.000000
-6.185500 0.000000
-6.171800 0.000000
-6.158000 0.000000
-6.144300 0.000000
-6.130500 0.000000
-6.116800 0.000000
-6.103000 0.000000
-6.089300 0.000000
-6.075500 0.000000
-6.061700 0.000000
-6.048000 0.000000
-6.034200 0.000000
-6.020500 0.000000
-6.006700 0.000000
-5.993000 0.000000
-5.979200 0.000000
-5.965500 0.000000
-5.951700 0.000000
-5.938000 0.000000
-5.924200 0.000000
-5.910500 0.000000
-5.896700 0.000000
-5.883000 0.000000
-5.869200 0.000000
-5.855500 0.000000
-5.841700 0.000000
-5.828000 0.000000
-5.814200 0.000000
-5.800500 0.000000
-5.786700 0.000000
-5.772900 0.000000
-5.759200 0.000000
-5.745400 0.000000
-5.731700 0.000000
-5.717900 0.000000
-5.704200 0.000000
-5.690400 0.000000
-5.676700 0.000000
-5.662900 0.000000
-5.649200 0.000000
-5.635400 0.000000
-5.621700 0.000000
-5.607900 0.000000
-5.594200 0.000000
-5.580400 0.000000
-5.566700 0.000000
-5.552900 0.000000
-5.539200 0.000000
-5.525400 0.000000
-5.511700 0.000000
-5.497900 0.000000
-5.484100 0.000000
-5.470400 0.000000
-5.456600 0.000000
-5.442900 0.000000
-5.429100 0.000000
-5.415400 0.000000
-5.401600 0.000000
-5.387900 0.000000
-5.374100 0.000000
-5.360400 0.000000
-5.346600 0.000000
-5.332900 0.000000
-5.319100 0.000000
-5.305400 0.000000
-5.291600 0.000000
-5.277900 0.000000
-5.264100 0.000000
-5.250400 0.000000
-5.236600 0.000000
-5.222800 0.000000
-5.209100 0.000000
-5.195300 0.000000
-5.181600 0.000000
-5.167800 0.000000
-5.154100 0.000000
-5.140300 0.000000
-5.126600 0.000000
-5.112800 0.000000
-5.099100 0.000000
-5.085300 0.000000
-5.071600 0.000000
-5.057800 0.000000
-5.044100 0.000000
-5.030300 0.000000
-5.016600 0.000000
-5.002800 0.000000
-4.989100 0.000000
-4.975300 0.000000
-4.961600 0.000000
-4.947800 0.000000
-4.934000 0.610100
-4.920300 1.300000
-4.906500 1.989900
-4.892800 2.679900
-4.879000 3.676700
-4.865300 4.971100
-4.851500 6.556500
-4.837800 8.141900
-4.824000 9.727400
-4.810300 11.312800
-4.796500 12.898400
-4.782800 35.434500
-4.769000 31.907500
-4.755300 28.380500
-4.741500 24.853500
-4.727800 21.326500
-4.714000 17.799600
-4.700300 14.272700
-4.686500 12.553300
-4.672800 31.921900
-4.659000 37.277200
-4.645200 32.353900
-4.631500 27.430600
-4.617700 22.507200
-4.604000 17.583800
-4.590200 12.660400
-4.576500 7.737000
-4.562700 2.813600
-4.549000 0.000000
-4.535200 0.000000
-4.521500 0.000000
-4.507700 0.000000
-4.494000 0.000000
-4.480200 0.000000
-4.466500 0.000000
-4.452700 0.000000
-4.439000 0.000000
-4.425200 0.000000
-4.411500 0.000000
-4.397700 0.000000
-4.384000 0.000000
-4.370200 0.000000
-4.356400 0.000000
-4.342700 0.000000
-4.328900 0.000000
-4.315200 0.000000
-4.301400 0.000000
-4.287700 0.000000
-4.273900 0.000000
-4.260200 0.000000
-4.246400 0.000000
-4.232700 0.000000
-4.218900 0.000000
-4.205200 0.000000
-4.191400 0.000000
-4.177700 0.000000
-4.163900 0.000000
-4.150200 0.000000
-4.136400 0.000000
-4.122700 0.000000
-4.108900 0.000000
-4.095200 0.000000
-4.081400 0.000000
-4.067600 0.000000
-4.053900 0.000000
-4.040100 0.000000
-4.026400 0.000000
-4.012600 0.000000
-3.998900 0.000000
-3.985100 0.000000
-3.971400 0.000000
-3.957600 0.000000
-3.943900 0.000000
-3.930100 0.000000
-3.916400 0.000000
-3.902600 0.000000
-3.888900 0.000000
-3.875100 0.000000
-3.861400 0.000000
-3.847600 0.000000
-3.833900 0.000000
-3.820100 0.061000
-3.806400 0.420100
-3.792600 0.779300
-3.778800 1.138500
-3.765100 1.497700
-3.751300 1.868300
-3.737600 2.481600
-3.723800 3.511600
-3.710100 4.598000
-3.696300 5.685400
-3.682600 6.773800
-3.668800 7.863200
-3.655100 8.953700
-3.641300 10.045200
-3.627600 11.137700
-3.613800 12.231200
-3.600100 14.028800
-3.586300 18.063600
-3.572600 18.070800
-3.558800 17.105500
-3.545100 16.140100
-3.531300 15.174600
-3.517500 14.209100
-3.503800 13.243500
-3.490000 12.277800
-3.476300 11.312200
-3.462500 10.346400
-3.448800 9.380600
-3.435000 8.414700
-3.421300 7.448800
-3.407500 6.482800
-3.393800 5.516800
-3.380000 4.550700
-3.366300 3.584500
-3.352500 2.618300
-3.338800 1.652000
-3.325000 1.028200
-3.311300 0.594000
-3.297500 0.159800
-3.283800 0.000000
-3.270000 0.122000
-3.256300 1.635800
-3.242500 3.148900
-3.228700 4.661600
-3.215000 6.173600
-3.201200 7.685100
-3.187500 9.196100
-3.173700 10.706500
-3.160000 12.216300
-3.146200 13.725600
-3.132500 15.234400
-3.118700 16.742500
-3.105000 18.250200
-3.091200 34.756100
-3.077500 23.845000
-3.063700 6.866600
-3.050000 6.665100
-3.036200 7.079900
-3.022500 7.494600
-3.008700 9.266300
-2.995000 11.058100
-2.981200 11.094000
-2.967500 11.108000
-2.953700 10.528100
-2.939900 11.658800
-2.926200 12.769700
-2.912400 13.860700
-2.898700 14.931800
-2.884900 15.195900
-2.871200 13.555900
-2.857400 10.600900
-2.843700 9.151900
-2.829900 7.691200
-2.816200 6.207300
-2.802400 5.263900
-2.788700 4.948100
-2.774900 4.632300
-2.761200 4.316600
-2.747400 4.000800
-2.733700 3.685100
-2.719900 3.369300
-2.706200 3.053600
-2.692400 2.737800
-2.678700 2.422100
-2.664900 2.106400
-2.651100 1.790700
-2.637400 1.527800
-2.623600 1.343100
-2.609900 5.359100
-2.596100 14.827100
-2.582400 24.070100
-2.568600 33.088000
-2.554900 32.747200
-2.541100 37.630200
-2.527400 46.850100
-2.513600 56.779300
-2.499900 16.657300
-2.486100 22.636800
-2.472400 28.573400
-2.458600 34.467000
-2.444900 40.317800
-2.431100 43.507600
-2.417400 36.913900
-2.403600 32.762000
-2.389900 27.979600
-2.376100 23.126400
-2.362300 15.876700
-2.348600 13.147900
-2.334800 11.805100
-2.321100 13.242400
-2.307300 16.639000
-2.293600 24.653400
-2.279800 29.841300
-2.266100 21.689000
-2.252300 14.385000
-2.238600 9.012800
-2.224800 1.014300
-2.211100 4.478200
-2.197300 15.531900
-2.183600 36.751700
-2.169800 41.442400
-2.156100 38.534800
-2.142300 32.892700
-2.128600 9.598200
-2.114800 13.068800
-2.101000 14.221000
-2.087300 13.177900
-2.073500 12.732700
-2.059800 11.503900
-2.046000 11.112700
-2.032300 12.076800
-2.018500 14.396200
-2.004800 26.137600
-1.991000 35.929800
-1.977300 34.053000
-1.963500 33.704400
-1.949800 34.178900
-1.936000 34.005200
-1.922300 33.040200
-1.908500 30.312900
-1.894800 25.617600
-1.881000 20.979900
-1.867300 18.118700
-1.853500 10.821600
-1.839800 10.834000
-1.826000 12.856300
-1.812200 15.411600
-1.798500 13.950300
-1.784700 12.500700
-1.771000 11.062700
-1.757200 9.636300
-1.743500 8.221600
-1.729700 6.824500
-1.716000 5.532600
-1.702200 4.240800
-1.688500 2.949200
-1.674700 1.657800
-1.661000 1.616300
-1.647200 1.845700
-1.633500 2.077000
-1.619700 2.310100
-1.606000 2.545100
-1.592200 2.781900
-1.578500 3.020500
-1.564700 6.734300
-1.551000 10.833700
-1.537200 14.908600
-1.523400 18.959100
-1.509700 22.985100
-1.495900 26.986600
-1.482200 16.425400
-1.468400 4.090800
-1.454700 64.389100
-1.440900 81.301900
-1.427200 6.137500
-1.413400 24.638500
-1.399700 33.735900
-1.385900 33.665300
-1.372200 29.875600
-1.358400 21.596400
-1.344700 12.673900
-1.330900 20.096800
-1.317200 28.706600
-1.303400 32.950400
-1.289700 32.261600
-1.275900 37.685600
-1.262200 37.116000
-1.248400 30.553000
-1.234600 44.343900
-1.220900 57.227900
-1.207100 40.190800
-1.193400 26.972700
-1.179600 27.058600
-1.165900 54.934400
-1.152100 39.385400
-1.138400 29.312100
-1.124600 36.849000
-1.110900 43.207600
-1.097100 46.523900
-1.083400 20.668200
-1.069600 42.779100
-1.055900 48.648100
-1.042100 28.532200
-1.028400 8.850500
-1.014600 60.310700
-1.000900 52.611800
-0.987100 21.104600
-0.973400 25.075800
-0.959600 29.036900
-0.945800 32.987800
-0.932100 36.928600
-0.918300 40.859300
-0.904600 36.633900
-0.890800 33.532200
-0.877100 45.576800
-0.863300 51.889500
-0.849600 47.833700
-0.835800 44.708800
-0.822100 77.622100
-0.808300 72.229600
-0.794600 50.517300
-0.780800 46.460300
-0.767100 49.698100
-0.753300 47.102400
-0.739600 54.407900
-0.725800 30.198200
-0.712100 96.100700
-0.698300 69.783600
-0.684500 74.245900
-0.670800 60.775800
-0.657000 45.520000
-0.643300 45.519700
-0.629500 55.094600
-0.615800 59.813100
-0.602000 78.066600
-0.588300 68.253300
-0.574500 45.584900
-0.560800 44.384000
-0.547000 86.341600
-0.533300 57.145400
-0.519500 41.154600
-0.505800 46.955000
-0.492000 54.156600
-0.478300 63.093800
-0.464500 62.684300
-0.450800 41.010800
-0.437000 17.625700
-0.423300 31.008300
-0.409500 23.805300
-0.395700 10.657600
-0.382000 9.871900
-0.368200 21.100800
-0.354500 34.536000
-0.340700 24.082300
-0.327000 21.820300
-0.313200 19.558300
-0.299500 17.296100
-0.285700 15.033900
-0.272000 12.771600
-0.258200 10.509200
-0.244500 8.246700
-0.230700 19.013900
-0.217000 90.913800
-0.203200 32.185400
-0.189500 17.062300
-0.175700 2.811700
-0.162000 0.000000
-0.148200 0.000000
-0.134500 0.172500
-0.120700 2.789300
-0.106900 5.381900
-0.093200 8.523600
-0.079400 12.945600
-0.065700 17.878100
-0.051900 23.321100
-0.038200 29.274600
-0.024400 23.889100
-0.010700 17.798700
0.003100 10.431200
0.016800 5.345900
0.030600 6.797300
0.044300 8.247900
0.058100 9.972000
0.071800 13.516600
0.085600 18.175200
0.099300 23.947800
0.113100 38.535700
0.126800 15.880600
0.140600 0.000000
0.154300 0.000000
0.168100 0.000000
0.181900 0.000000
0.195600 0.000000
0.209400 0.000000
0.223100 0.000000
0.236900 0.000000
0.250600 0.000000
0.264400 0.000000
0.278100 0.000000
0.291900 0.000000
0.305600 0.000000
0.319400 0.000000
0.333100 0.000000
0.346900 0.000000
0.360600 0.000000
0.374400 0.000000
0.388100 0.000000
0.401900 0.000000
0.415600 0.000000
0.429400 0.000000
0.443100 0.000000
0.456900 0.000000
0.470700 0.000000
0.484400 0.000000
0.498200 0.000000
0.511900 0.000000
0.525700 0.000000
0.539400 0.000000
0.553200 0.000000
0.566900 0.000000
0.580700 0.000000
0.594400 0.000000
0.608200 0.000000
0.621900 0.000000
0.635700 0.000000
0.649400 0.000000
0.663200 0.000000
0.676900 0.000000
0.690700 0.000000
0.704400 0.000000
0.718200 0.000000
0.731900 0.000000
0.745700 0.000000
0.759500 0.000000
0.773200 0.000000
0.787000 0.000000
0.800700 0.000000
0.814500 0.000000
0.828200 0.000000
0.842000 0.000000
0.855700 0.000000
0.869500 0.000000
0.883200 0.000000
0.897000 0.000000
0.910700 0.000000
0.924500 0.000000
0.938200 0.000000
0.952000 0.000000
0.965700 0.000000
0.979500 0.000000
0.993200 0.000000
1.007000 0.000000
1.020800 0.000000
1.034500 0.000000
1.048300 0.000000
1.062000 0.000000
1.075800 0.000000
1.089500 0.000000
1.103300 0.000000
1.117000 0.000000
1.130800 0.000000
1.144500 0.000000
1.158300 0.000000
1.172000 0.000000
1.185800 0.000000
1.199500 0.000000
1.213300 0.000000
1.227000 0.000000
1.240800 0.000000
1.254500 0.000000
1.268300 0.000000
1.282000 0.000000
1.295800 0.000000
1.309600 0.000000
1.323300 0.000000
1.337100 0.000000
1.350800 0.000000
1.364600 0.000000
1.378300 0.000000
1.392100 0.000000
1.405800 0.000000
1.419600 0.000000
1.433300 0.000000
1.447100 0.000000
1.460800 0.000000
1.474600 0.000000
1.488300 0.000000
1.502100 0.000000
1.515800 0.000000
1.529600 0.000000
1.543300 0.000000
1.557100 0.000000
1.570800 0.000000
1.584600 0.000000
1.598400 0.000000
1.612100 0.000000
1.625900 0.000000
1.639600 0.000000
1.653400 0.000000
1.667100 0.000000
1.680900 0.000000
1.694600 0.000000
1.708400 0.000000
1.722100 0.000000
1.735900 0.000000
1.749600 0.000000
1.763400 0.000000
1.777100 0.000000
1.790900 0.000000
1.804600 0.000000
1.818400 0.000000
1.832100 0.000000
1.845900 0.000000
1.859600 0.000000
1.873400 0.000000
1.887200 0.000000
1.900900 0.000000
1.914700 0.000000
1.928400 0.000000
1.942200 0.000000
1.955900 0.000000
1.969700 0.000000
1.983400 0.000000
1.997200 0.000000
2.010900 0.000000
2.024700 0.000000
2.038400 0.000000
2.052200 0.000000
2.065900 0.000000
2.079700 0.000000
2.093400 0.000000
2.107200 0.000000
2.120900 0.000000
2.134700 0.000000
2.148400 0.000000
2.162200 0.000000
2.176000 0.000000
2.189700 0.000000
2.203500 0.000000
2.217200 0.000000
2.231000 0.000000
2.244700 0.000000
2.258500 0.000000
2.272200 0.000000
2.286000 0.000000
2.299700 0.000000
2.313500 0.000000
2.327200 0.000000
2.341000 0.000000
2.354700 0.000000
2.368500 0.000000
2.382200 0.000000
2.396000 0.000000
2.409700 0.012600
2.423500 0.051900
2.437300 0.105600
2.451000 0.173900
2.464800 0.255400
2.478500 0.339600
2.492300 0.423800
2.506000 0.508100
2.519800 0.592400
2.533500 0.678900
2.547300 0.770500
2.561000 0.867200
2.574800 0.969100
2.588500 1.078500
2.602300 1.199600
2.616000 1.332700
2.629800 1.477700
2.643500 1.645000
2.657300 1.833500
2.671000 2.040700
2.684800 2.260000
2.698500 2.479500
2.712300 2.699200
2.726100 2.919300
2.739800 3.139600
2.753600 3.360100
2.767300 3.580900
2.781100 3.802000
2.794800 4.023400
2.808600 4.245000
2.822300 4.466800
2.836100 4.689000
2.849800 4.911300
2.863600 5.134000
2.877300 5.356900
2.891100 17.241900
2.904800 16.254100
2.918600 15.266500
2.932300 14.279000
2.946100 13.291700
2.959800 12.304600
2.973600 11.317700
2.987300 10.331000
3.001100 9.344400
3.014900 8.358000
3.028600 7.371700
3.042400 6.385600
3.056100 5.399700
3.069900 4.498600
3.083600 4.975300
3.097400 5.843100
3.111100 6.878200
3.124900 8.080700
3.138600 10.274300
3.152400 11.114400
3.166100 15.396800
3.179900 15.169300
3.193600 14.374600
3.207400 13.579600
3.221100 12.784400
3.234900 11.988800
3.248600 11.193000
3.262400 10.396900
3.276100 9.600500
3.289900 8.803800
3.303700 8.006800
3.317400 7.209500
3.331200 6.411900
3.344900 5.614100
3.358700 4.815900
3.372400 4.017500
3.386200 3.218800
3.399900 2.419700
3.413700 1.620400
3.427400 0.820800
3.441200 0.279300
3.454900 0.000000
3.468700 0.000000
3.482400 0.000000
3.496200 0.000000
3.509900 0.000000
3.523700 0.000000
3.537400 0.000000
3.551200 0.000000
3.564900 0.000000
3.578700 0.000000
3.592500 0.000000
3.606200 0.000000
3.620000 0.000000
3.633700 0.000000
3.647500 2.458200
3.661200 5.602300
3.675000 10.165200
3.688700 13.258200
3.702500 14.881400
3.716200 15.034800
3.730000 13.836500
3.743700 12.679300
3.757500 10.714200
3.771200 8.468600
3.785000 7.717400
3.798700 6.869300
3.812500 6.012400
3.826200 5.146900
3.840000 4.272600
3.853700 3.389600
3.867500 2.497900
3.881300 1.597400
3.895000 0.688300
3.908800 0.000000
3.922500 0.000000
3.936300 0.000000
3.950000 0.053000
3.963800 1.493800
3.977500 15.980100
3.991300 38.222600
4.005000 35.249600
4.018800 34.531700
4.032500 42.285700
4.046300 48.203000
4.060000 62.289600
4.073800 64.526800
4.087500 39.147300
4.101300 40.951500
4.115000 8.811200
4.128800 4.423200
4.142600 6.473800
4.156300 8.476600
4.170100 10.431400
4.183800 12.697200
4.197600 15.884400
4.211300 23.346400
4.225100 31.300300
4.238800 44.017800
4.252600 44.373400
4.266300 53.253500
4.280100 71.743800
4.293800 22.391100
4.307600 24.030200
4.321300 14.588900
4.335100 6.775100
4.348800 6.207400
4.362600 5.639800
4.376300 5.072400
4.390100 4.505100
4.403800 3.938000
4.417600 5.072800
4.431400 46.120700
4.445100 49.850800
4.458900 24.848500
4.472600 13.335600
4.486400 7.661200
4.500100 6.933000
4.513900 7.835600
4.527600 9.483100
4.541400 11.752500
4.555100 14.880000
4.568900 19.167000
4.582600 31.591200
4.596400 36.093900
4.610100 10.814200
4.623900 0.000000
4.637600 0.000000
4.651400 1.472800
4.665100 3.657700
4.678900 5.824000
4.692600 7.971800
4.706400 10.101000
4.720200 12.211500
4.733900 14.303500
4.747700 14.824200
4.761400 13.529100
4.775200 11.114300
4.788900 7.224400
4.802700 3.179800
4.816400 3.058700
4.830200 2.937600
4.843900 2.816500
4.857700 2.695600
4.871400 2.574700
4.885200 2.453800
4.898900 6.900700
4.912700 13.914300
4.926400 23.783500
4.940200 24.455400
4.953900 21.293400
4.967700 18.122200
4.981400 29.357300
4.995200 38.812200
5.009000 36.297100
5.022700 27.253500
5.036500 19.786700
5.050200 13.372400
5.064000 6.871400
5.077700 5.516400
5.091500 4.924700
5.105200 9.297000
5.119000 15.563000
5.132700 21.784800
5.146500 27.980200
5.160200 34.216400
5.174000 10.611600
5.187700 5.705100
5.201500 5.315300
5.215200 4.926400
5.229000 4.538300
5.242700 4.151100
5.256500 3.764800
5.270200 3.387000
5.284000 3.079700
5.297800 2.785000
5.311500 2.502900
5.325300 2.233200
5.339000 1.976200
5.352800 1.731600
5.366500 9.027100
5.380300 17.499600
5.394000 22.370800
5.407800 24.977500
5.421500 27.183300
5.435300 28.069400
5.449000 21.311300
5.462800 18.967900
5.476500 5.348100
5.490300 6.109200
5.504000 6.869700
5.517800 7.629700
5.531500 8.389200
5.545300 9.148000
5.559100 9.906400
5.572800 10.664200
5.586600 12.811200
5.600300 16.896900
5.614100 21.409900
5.627800 11.558300
5.641600 1.277200
5.655300 0.000000
5.669100 0.000000
5.682800 0.000000
5.696600 0.000000
5.710300 0.000000
5.724100 0.000000
5.737800 0.000000
5.751600 0.000000
5.765300 0.000000
5.779100 0.000000
5.792800 0.000000
5.806600 0.000000
5.820300 0.000000
5.834100 0.000000
5.847900 0.000000
5.861600 0.000000
5.875400 0.000000
5.889100 0.000000
5.902900 0.000000
5.916600 0.000000
5.930400 0.000000
5.944100 0.000000
5.957900 0.000000
5.971600 0.000000
5.985400 2.336500
5.999100 6.973200
6.012900 11.737400
6.026600 15.686400
6.040400 18.522800
6.054100 21.238000
6.067900 23.829400
6.081600 32.332300
6.095400 29.890800
6.109100 27.328400
6.122900 24.865300
6.136700 22.791100
6.150400 17.946600
6.164200 14.589400
6.177900 13.953800
6.191700 13.329800
6.205400 12.714700
6.219200 12.105400
6.232900 11.501800
6.246700 10.903900
6.260400 10.311700
6.274200 11.010800
6.287900 26.113100
6.301700 32.835900
6.315400 34.691200
6.329200 31.679000
6.342900 6.979200
6.356700 89.891500
6.370400 55.221300
6.384200 24.066600
6.397900 3.702500
6.411700 4.088200
6.425500 4.482700
6.439200 4.885900
6.453000 5.298000
6.466700 5.718700
6.480500 9.493000
6.494200 18.852800
6.508000 29.927900
6.521700 27.865300
6.535500 20.933600
6.549200 13.527000
6.563000 5.884600
6.576700 42.608500
6.590500 47.222800
6.604200 32.867800
6.618000 6.847900
6.631700 10.423800
6.645500 14.357200
6.659200 15.030100
6.673000 13.340000
6.686700 13.844400
6.700500 14.591200
6.714300 15.580500
6.728000 14.562600
6.741800 13.477500
6.755500 12.379800
6.769300 11.269700
6.783000 10.147000
6.796800 9.011800
6.810500 9.389800
6.824300 22.226300
6.838000 32.351000
6.851800 26.070200
6.865500 15.455400
6.879300 3.832400
6.893000 0.000000
6.906800 0.000000
6.920500 0.000000
6.934300 0.000000
6.948000 0.000000
6.961800 8.108200
6.975600 14.133000
6.989300 18.690600
7.003100 30.862200
7.016800 28.200100
7.030600 18.759000
7.044300 14.159200
7.058100 9.270000
7.071800 4.091400
7.085600 0.000000
7.099300 0.000000
7.113100 0.000000
7.126800 0.000000
7.140600 0.000000
7.154300 0.000000
7.168100 0.000000
7.181800 0.000000
7.195600 0.000000
7.209300 0.002200
7.223100 0.014300
7.236800 0.036800
7.250600 0.076900
7.264400 0.128400
7.278100 0.179800
7.291900 0.231200
7.305600 0.282700
7.319400 0.334100
7.333100 0.385500
7.346900 0.437000
7.360600 0.488500
7.374400 0.539900
7.388100 0.591400
7.401900 0.642900
7.415600 0.694400
7.429400 0.745800
7.443100 0.797300
7.456900 0.848800
7.470600 0.900400
7.484400 0.951900
7.498100 1.003400
7.511900 1.054900
7.525600 1.106400
7.539400 1.158000
7.553200 1.209500
7.566900 1.261100
7.580700 1.312600
7.594400 1.364200
7.608200 1.415800
7.621900 1.467300
7.635700 1.518900
7.649400 1.570500
7.663200 1.622100
7.676900 1.673700
7.690700 1.809100
7.704400 2.308100
7.718200 2.925000
7.731900 3.538300
7.745700 4.148100
7.759400 4.754300
7.773200 5.357000
7.786900 5.956100
7.800700 6.551700
7.814400 65.302700
7.828200 43.980900
7.842000 6.023900
7.855700 6.553600
7.869500 8.085900
7.883200 14.350800
7.897000 24.729700
7.910700 33.728700
7.924500 29.400800
7.938200 2.172000
7.952000 2.285100
7.965700 2.397200
7.979500 2.508300
7.993200 3.186900
8.007000 8.491900
8.020700 11.568600
8.034500 12.664400
8.048200 13.272000
8.062000 13.136700
8.075700 12.258400
8.089500 10.637200
8.103200 8.590800
8.117000 7.503000
8.130800 6.246800
8.144500 4.822200
8.158300 3.472700
8.172000 2.688900
8.185800 2.720800
8.199500 4.742600
8.213300 7.286600
8.227000 59.777400
8.240800 37.941000
8.254500 14.214600
8.268300 2.369000
8.282000 22.081600
8.295800 53.729900
8.309500 33.951500
8.323300 8.300400
8.337000 7.287700
8.350800 11.398500
8.364500 14.592800
8.378300 16.791100
8.392000 17.993300
8.405800 18.551600
8.419600 19.372900
8.433300 20.253600
8.447100 19.747900
8.460800 15.258300
8.474600 15.808900
8.488300 11.608400
8.502100 7.766200
8.515800 10.304200
8.529600 12.810900
8.543300 15.286300
8.557100 17.730400
8.570800 22.610500
8.584600 32.056500
8.598300 38.303100
8.612100 21.677400
8.625800 25.293300
8.639600 31.865100
8.653300 32.048800
8.667100 25.844400
8.680900 6.472300
8.694600 9.864300
8.708400 15.575700
8.722100 23.178800
8.735900 30.360600
8.749600 33.350600
8.763400 31.913600
8.777100 33.774600
8.790900 35.215800
8.804600 30.810100
8.818400 22.589100
8.832100 16.643200
8.845900 8.690100
8.859600 3.718000
8.873400 4.106400
8.887100 4.492100
8.900900 4.874800
8.914600 6.650200
8.928400 16.021600
8.942100 31.846900
8.955900 50.214500
8.969700 47.099900
8.983400 37.342500
8.997200 33.306600
9.010900 30.170900
9.024700 31.299200
9.038400 34.807900
9.052200 40.093400
9.065900 37.881300
9.079700 28.514100
9.093400 18.952800
9.107200 13.858100
9.120900 14.496700
9.134700 15.561700
9.148400 29.117700
9.162200 30.452100
9.175900 14.576800
9.189700 18.137600
9.203400 30.786500
9.217200 24.574400
9.230900 20.378000
9.244700 15.996300
9.258500 11.429200
9.272200 6.604300
9.286000 9.196000
9.299700 107.900900
9.313500 0.372400
9.327200 0.678200
9.341000 1.075000
9.354700 1.562800
9.368500 2.141500
9.382200 2.811200
9.396000 3.571800
9.409700 11.708000
9.423500 35.408800
9.437200 49.519900
9.451000 54.966100
9.464700 18.998600
9.478500 26.620500
9.492200 22.259600
9.506000 24.005300
9.519700 24.578200
9.533500 26.861000
9.547300 34.823500
9.561000 34.806800
9.574800 37.154400
9.588500 33.936100
9.602300 34.653200
9.616000 34.068200
9.629800 35.045100
9.643500 35.960400
9.657300 30.784400
9.671000 26.346200
9.684800 23.090600
9.698500 21.095900
9.712300 20.825100
9.726000 21.349100
9.739800 22.867200
9.753500 22.050600
9.767300 17.271800
9.781000 10.683200
9.794800 11.418300
9.808500 15.215700
9.822300 19.937900
9.836100 23.074200
9.849800 26.830400
9.863600 21.904500
9.877300 19.633800
9.891100 23.088800
9.904800 23.025500
9.918600 22.533200
9.932300 21.611700
9.946100 17.538900
9.959800 16.691400
9.973600 15.537900
9.987300 15.032600
10.001100 15.188900
10.014800 16.312700
10.028600 18.623700
10.042300 21.252800
10.056100 22.340400
10.069800 26.242800
10.083600 26.180200
10.097400 27.076000
10.111100 32.052700
10.124900 34.150900
10.138600 25.239500
10.152400 17.820500
10.166100 14.772000
10.179900 11.754600
10.193600 9.271600
10.207400 6.891300
10.221100 5.671600
10.234900 5.064900
10.248600 4.498900
10.262400 4.065900
10.276100 4.516000
10.289900 5.161100
10.303600 5.972600
10.317400 6.924300
10.331100 8.015800
10.344900 9.247000
10.358600 28.889000
10.372400 32.792800
10.386200 32.175600
10.399900 26.375600
10.413700 18.105800
10.427400 17.809000
10.441200 19.980800
10.454900 25.961200
10.468700 29.742600
10.482400 14.839000
10.496200 11.608300
10.509900 8.014300
10.523700 4.057000
10.537400 26.892800
10.551200 30.768200
10.564900 27.581100
10.578700 26.459400
10.592400 31.296100
10.606200 24.935600
10.619900 22.866800
10.633700 20.049900
10.647400 21.187900
10.661200 20.391600
10.675000 17.660800
10.688700 11.924700
10.702500 6.070400
10.716200 2.758000
10.730000 29.095900
10.743700 36.009400
10.757500 22.463000
10.771200 17.117900
10.785000 24.976100
10.798700 17.108200
10.812500 15.998400
10.826200 14.703500
10.840000 13.223400
10.853700 13.862900
10.867500 15.604600
10.881200 20.276900
10.895000 25.845200
10.908700 16.442400
10.922500 5.153100
10.936200 0.144000
10.950000 0.000000
10.963800 0.000000
10.977500 0.000000
10.991300 0.000000
11.005000 0.000000
11.018800 0.000000
11.032500 0.000000
11.046300 0.000000
11.060000 0.000000
11.073800 0.000000
11.087500 0.000000
11.101300 0.000000
11.115000 0.000000
11.128800 0.000000
11.142500 0.000000
11.156300 0.000000
11.170000 0.000000
11.183800 0.000000
11.197500 0.000000
11.211300 0.000000
11.225000 0.000000
11.238800 0.000000
11.252600 0.000000
11.266300 0.000000
11.280100 0.000000
11.293800 0.000000
11.307600 0.000000
11.321300 0.000000
11.335100 0.000000
11.348800 0.000000
11.362600 0.000000
11.376300 0.000000
11.390100 0.000000
11.403800 0.000000
11.417600 0.000000
11.431300 0.000000
11.445100 0.000000
11.458800 0.000000
11.472600 0.000000
11.486300 0.000000
11.500100 0.000000
11.513800 0.000000
11.527600 0.000000
11.541400 0.000000
11.555100 0.000000
11.568900 0.000000
11.582600 0.000000
11.596400 0.000000
11.610100 0.000000
11.623900 0.000000
11.637600 0.000000
11.651400 0.000000
11.665100 0.000000
11.678900 0.000000
11.692600 0.000000
11.706400 0.000000
11.720100 0.000000
11.733900 0.000000
11.747600 0.000000
11.761400 0.000000
11.775100 0.000000
11.788900 0.000000
11.802700 0.000000
11.816400 0.000000
11.830200 0.000000
11.843900 0.000000
11.857700 0.000000
11.871400 0.000000
11.885200 0.000000
11.898900 0.000000
11.912700 0.000000
11.926400 0.000000
11.940200 0.000000
11.953900 0.000000
11.967700 0.000000
11.981400 0.000000
11.995200 0.000000
12.008900 0.000000
12.022700 0.000000
12.036400 0.000000
12.050200 0.000000
12.063900 0.000000
12.077700 0.000000
12.091500 0.000000
12.105200 0.000000
12.119000 0.000000
12.132700 0.000000
12.146500 0.000000
12.160200 0.000000
12.174000 0.000000
12.187700 0.000000
e
