set title 'mp-999391 - Density of States'
set xlabel 'Energy (eV)'
set ylabel 'DOS (states/eV)'
set grid
set xrange [-10:10]
set yrange [0:8.722]
set xzeroaxis lt -1
set terminal png size 800,600
set output 'mp-999391_dos_gnuplot.png'
plot '-' using 1:2 with lines title 'DOS'
-54.104300 0.000000
-54.047600 0.000000
-53.990800 0.000000
-53.934100 0.000000
-53.877400 0.000000
-53.820600 0.000000
-53.763900 0.000000
-53.707200 0.000000
-53.650400 0.000000
-53.593700 0.000000
-53.537000 0.000000
-53.480200 0.000000
-53.423500 0.000000
-53.366800 0.000000
-53.310000 0.000000
-53.253300 0.000000
-53.196600 0.000000
-53.139800 0.000000
-53.083100 0.000000
-53.026400 0.000000
-52.969700 0.000000
-52.912900 0.000000
-52.856200 0.000000
-52.799500 0.000000
-52.742700 0.000000
-52.686000 0.000000
-52.629300 0.000000
-52.572500 0.000000
-52.515800 0.000000
-52.459100 0.000000
-52.402300 0.000000
-52.345600 0.000000
-52.288900 0.000000
-52.232100 0.000000
-52.175400 0.000000
-52.118700 0.000000
-52.061900 0.000000
-52.005200 0.000000
-51.948500 0.000000
-51.891800 0.000000
-51.835000 0.000000
-51.778300 0.000000
-51.721600 0.000000
-51.664800 0.000000
-51.608100 0.000000
-51.551400 0.000000
-51.494600 0.000000
-51.437900 0.000000
-51.381200 0.000000
-51.324400 0.000000
-51.267700 0.000000
-51.211000 0.000000
-51.154200 0.000000
-51.097500 0.000000
-51.040800 0.000000
-50.984000 0.000000
-50.927300 0.000000
-50.870600 0.000000
-50.813900 0.000000
-50.757100 0.000000
-50.700400 0.000000
-50.643700 0.000000
-50.586900 0.000000
-50.530200 0.000000
-50.473500 0.000000
-50.416700 0.000000
-50.360000 0.000000
-50.303300 0.000000
-50.246500 0.000000
-50.189800 0.000000
-50.133100 0.000000
-50.076300 0.000000
-50.019600 0.000000
-49.962900 0.000000
-49.906200 0.000000
-49.849400 0.000000
-49.792700 0.000000
-49.736000 0.000000
-49.679200 0.000000
-49.622500 0.000000
-49.565800 0.000000
-49.509000 0.000000
-49.452300 0.000000
-49.395600 0.000000
-49.338800 0.000000
-49.282100 0.000000
-49.225400 0.000000
-49.168600 0.000000
-49.111900 0.000000
-49.055200 0.000000
-48.998400 0.000000
-48.941700 10.372600
-48.885000 54.338500
-48.828300 0.125000
-48.771500 14.583100
-48.714800 11.062600
-48.658100 0.000000
-48.601300 0.000000
-48.544600 97.080100
-48.487900 0.000000
-48.431100 0.000000
-48.374400 0.000000
-48.317700 0.000000
-48.260900 0.000000
-48.204200 0.000000
-48.147500 0.000000
-48.090700 0.000000
-48.034000 0.000000
-47.977300 0.000000
-47.920500 0.000000
-47.863800 0.000000
-47.807100 0.000000
-47.750400 0.000000
-47.693600 0.000000
-47.636900 0.000000
-47.580200 0.000000
-47.523400 0.000000
-47.466700 0.000000
-47.410000 0.000000
-47.353200 0.000000
-47.296500 0.000000
-47.239800 0.000000
-47.183000 0.000000
-47.126300 0.000000
-47.069600 0.000000
-47.012800 0.000000
-46.956100 0.000000
-46.899400 0.000000
-46.842600 0.000000
-46.785900 0.000000
-46.729200 0.000000
-46.672500 0.000000
-46.615700 0.000000
-46.559000 0.000000
-46.502300 0.000000
-46.445500 0.000000
-46.388800 0.000000
-46.332100 0.000000
-46.275300 0.000000
-46.218600 0.000000
-46.161900 0.000000
-46.105100 0.000000
-46.048400 0.000000
-45.991700 0.000000
-45.934900 0.000000
-45.878200 0.000000
-45.821500 0.000000
-45.764800 0.000000
-45.708000 0.000000
-45.651300 0.000000
-45.594600 0.000000
-45.537800 0.000000
-45.481100 0.000000
-45.424400 0.000000
-45.367600 0.000000
-45.310900 0.000000
-45.254200 0.000000
-45.197400 0.000000
-45.140700 0.000000
-45.084000 0.000000
-45.027200 0.000000
-44.970500 0.000000
-44.913800 0.000000
-44.857000 0.000000
-44.800300 0.000000
-44.743600 0.000000
-44.686900 0.000000
-44.630100 0.000000
-44.573400 0.000000
-44.516700 0.000000
-44.459900 0.000000
-44.403200 0.000000
-44.346500 0.000000
-44.289700 0.000000
-44.233000 0.000000
-44.176300 0.000000
-44.119500 0.000000
-44.062800 0.000000
-44.006100 0.000000
-43.949300 0.000000
-43.892600 0.000000
-43.835900 0.000000
-43.779100 0.000000
-43.722400 0.000000
-43.665700 0.000000
-43.609000 0.000000
-43.552200 0.000000
-43.495500 0.000000
-43.438800 0.000000
-43.382000 0.000000
-43.325300 0.000000
-43.268600 0.000000
-43.211800 0.000000
-43.155100 0.000000
-43.098400 0.000000
-43.041600 0.000000
-42.984900 0.000000
-42.928200 0.000000
-42.871400 0.000000
-42.814700 0.000000
-42.758000 0.000000
-42.701200 0.000000
-42.644500 0.000000
-42.587800 0.000000
-42.531100 0.000000
-42.474300 0.000000
-42.417600 0.000000
-42.360900 0.000000
-42.304100 0.000000
-42.247400 0.000000
-42.190700 0.000000
-42.133900 0.000000
-42.077200 0.000000
-42.020500 0.000000
-41.963700 0.000000
-41.907000 0.000000
-41.850300 0.000000
-41.793500 0.000000
-41.736800 0.000000
-41.680100 0.000000
-41.623400 0.000000
-41.566600 0.000000
-41.509900 0.000000
-41.453200 0.000000
-41.396400 0.000000
-41.339700 0.000000
-41.283000 0.000000
-41.226200 0.000000
-41.169500 0.000000
-41.112800 0.000000
-41.056000 0.000000
-40.999300 0.000000
-40.942600 0.000000
-40.885800 0.000000
-40.829100 0.000000
-40.772400 0.000000
-40.715600 0.000000
-40.658900 0.000000
-40.602200 0.000000
-40.545500 0.000000
-40.488700 0.000000
-40.432000 0.000000
-40.375300 0.000000
-40.318500 0.000000
-40.261800 0.000000
-40.205100 0.000000
-40.148300 0.000000
-40.091600 0.000000
-40.034900 0.000000
-39.978100 0.000000
-39.921400 0.000000
-39.864700 0.000000
-39.807900 0.000000
-39.751200 0.000000
-39.694500 0.000000
-39.637700 0.000000
-39.581000 0.000000
-39.524300 0.000000
-39.467600 0.000000
-39.410800 0.000000
-39.354100 0.000000
-39.297400 0.000000
-39.240600 0.000000
-39.183900 0.000000
-39.127200 0.000000
-39.070400 0.000000
-39.013700 0.000000
-38.957000 0.000000
-38.900200 0.000000
-38.843500 0.000000
-38.786800 0.000000
-38.730000 0.000000
-38.673300 0.000000
-38.616600 0.000000
-38.559800 0.000000
-38.503100 0.000000
-38.446400 0.000000
-38.389700 0.000000
-38.332900 0.000000
-38.276200 0.000000
-38.219500 0.000000
-38.162700 0.000000
-38.106000 0.000000
-38.049300 0.000000
-37.992500 0.000000
-37.935800 0.000000
-37.879100 0.000000
-37.822300 0.000000
-37.765600 0.000000
-37.708900 0.000000
-37.652100 0.000000
-37.595400 0.000000
-37.538700 0.000000
-37.482000 0.000000
-37.425200 0.000000
-37.368500 0.000000
-37.311800 0.000000
-37.255000 0.000000
-37.198300 0.000000
-37.141600 0.000000
-37.084800 0.000000
-37.028100 0.000000
-36.971400 0.000000
-36.914600 0.000000
-36.857900 0.000000
-36.801200 0.000000
-36.744400 0.000000
-36.687700 0.000000
-36.631000 0.000000
-36.574200 0.000000
-36.517500 0.000000
-36.460800 0.000000
-36.404100 0.000000
-36.347300 0.000000
-36.290600 0.000000
-36.233900 0.000000
-36.177100 0.000000
-36.120400 0.000000
-36.063700 0.000000
-36.006900 0.000000
-35.950200 0.000000
-35.893500 0.000000
-35.836700 0.000000
-35.780000 0.000000
-35.723300 0.000000
-35.666500 0.000000
-35.609800 0.000000
-35.553100 0.000000
-35.496300 0.000000
-35.439600 0.000000
-35.382900 0.000000
-35.326200 0.000000
-35.269400 0.000000
-35.212700 0.000000
-35.156000 0.000000
-35.099200 0.000000
-35.042500 0.000000
-34.985800 0.000000
-34.929000 0.000000
-34.872300 0.000000
-34.815600 0.000000
-34.758800 0.000000
-34.702100 0.000000
-34.645400 0.000000
-34.588600 0.000000
-34.531900 0.000000
-34.475200 0.000000
-34.418400 0.000000
-34.361700 0.000000
-34.305000 0.000000
-34.248300 0.000000
-34.191500 0.000000
-34.134800 0.000000
-34.078100 0.000000
-34.021300 0.000000
-33.964600 0.000000
-33.907900 0.000000
-33.851100 0.000000
-33.794400 0.000000
-33.737700 0.000000
-33.680900 0.000000
-33.624200 0.000000
-33.567500 0.000000
-33.510700 0.000000
-33.454000 0.000000
-33.397300 0.000000
-33.340600 0.000000
-33.283800 0.000000
-33.227100 0.000000
-33.170400 0.000000
-33.113600 0.000000
-33.056900 0.000000
-33.000200 0.000000
-32.943400 0.000000
-32.886700 0.000000
-32.830000 0.000000
-32.773200 0.000000
-32.716500 0.000000
-32.659800 0.000000
-32.603000 0.000000
-32.546300 0.000000
-32.489600 0.000000
-32.432800 0.000000
-32.376100 0.000000
-32.319400 0.000000
-32.262700 0.000000
-32.205900 0.000000
-32.149200 0.000000
-32.092500 0.000000
-32.035700 0.000000
-31.979000 0.000000
-31.922300 0.000000
-31.865500 0.000000
-31.808800 0.000000
-31.752100 0.000000
-31.695300 0.000000
-31.638600 0.000000
-31.581900 0.000000
-31.525100 0.000000
-31.468400 0.000000
-31.411700 0.000000
-31.354900 0.000000
-31.298200 0.000000
-31.241500 0.000000
-31.184800 0.000000
-31.128000 0.000000
-31.071300 0.000000
-31.014600 0.000000
-30.957800 0.000000
-30.901100 0.000000
-30.844400 0.000000
-30.787600 0.000000
-30.730900 0.000000
-30.674200 0.000000
-30.617400 0.000000
-30.560700 0.000000
-30.504000 0.000000
-30.447200 0.000000
-30.390500 0.000000
-30.333800 0.000000
-30.277100 0.000000
-30.220300 0.000000
-30.163600 0.000000
-30.106900 0.000000
-30.050100 0.000000
-29.993400 0.000000
-29.936700 0.000000
-29.879900 0.000000
-29.823200 0.000000
-29.766500 0.000000
-29.709700 0.000000
-29.653000 0.000000
-29.596300 0.000000
-29.539500 0.000000
-29.482800 0.000000
-29.426100 0.000000
-29.369300 0.000000
-29.312600 0.000000
-29.255900 0.000000
-29.199200 0.000000
-29.142400 0.000000
-29.085700 0.000000
-29.029000 0.000000
-28.972200 0.000000
-28.915500 0.000000
-28.858800 0.000000
-28.802000 0.000000
-28.745300 0.000000
-28.688600 0.000000
-28.631800 0.000000
-28.575100 0.000000
-28.518400 0.000000
-28.461600 0.000000
-28.404900 0.000000
-28.348200 0.000000
-28.291400 0.000000
-28.234700 0.000000
-28.178000 0.000000
-28.121300 0.000000
-28.064500 0.000000
-28.007800 0.000000
-27.951100 0.000000
-27.894300 0.000000
-27.837600 0.000000
-27.780900 0.000000
-27.724100 0.000000
-27.667400 0.000000
-27.610700 0.000000
-27.553900 0.000000
-27.497200 0.000000
-27.440500 0.000000
-27.383700 0.000000
-27.327000 0.000000
-27.270300 0.000000
-27.213500 0.000000
-27.156800 0.000000
-27.100100 0.000000
-27.043400 0.000000
-26.986600 0.000000
-26.929900 0.000000
-26.873200 0.000000
-26.816400 0.000000
-26.759700 0.000000
-26.703000 0.000000
-26.646200 0.000000
-26.589500 0.000000
-26.532800 0.000000
-26.476000 0.000000
-26.419300 0.000000
-26.362600 0.000000
-26.305800 0.000000
-26.249100 0.000000
-26.192400 0.000000
-26.135700 0.000000
-26.078900 0.000000
-26.022200 0.000000
-25.965500 0.000000
-25.908700 0.000000
-25.852000 0.000000
-25.795300 0.000000
-25.738500 0.000000
-25.681800 0.000000
-25.625100 0.000000
-25.568300 0.000000
-25.511600 13.321300
-25.454900 11.087800
-25.398100 14.425100
-25.341400 0.000000
-25.284700 0.000000
-25.227900 0.000000
-25.171200 0.000000
-25.114500 0.000000
-25.057800 0.000000
-25.001000 0.000000
-24.944300 0.000000
-24.887600 0.000000
-24.830800 0.000000
-24.774100 0.000000
-24.717400 0.000000
-24.660600 0.000000
-24.603900 0.000000
-24.547200 0.000000
-24.490400 0.000000
-24.433700 0.000000
-24.377000 0.000000
-24.320200 0.000000
-24.263500 0.000000
-24.206800 0.000000
-24.150000 0.000000
-24.093300 0.000000
-24.036600 0.000000
-23.979900 0.000000
-23.923100 0.000000
-23.866400 0.000000
-23.809700 0.000000
-23.752900 0.000000
-23.696200 0.000000
-23.639500 0.000000
-23.582700 0.000000
-23.526000 0.000000
-23.469300 0.000000
-23.412500 0.000000
-23.355800 0.000000
-23.299100 0.000000
-23.242300 0.000000
-23.185600 0.000000
-23.128900 0.000000
-23.072100 0.000000
-23.015400 0.000000
-22.958700 0.000000
-22.902000 0.000000
-22.845200 0.000000
-22.788500 0.000000
-22.731800 0.000000
-22.675000 0.000000
-22.618300 0.000000
-22.561600 0.000000
-22.504800 0.000000
-22.448100 0.000000
-22.391400 0.000000
-22.334600 0.000000
-22.277900 0.000000
-22.221200 0.000000
-22.164400 0.000000
-22.107700 0.000000
-22.051000 0.000000
-21.994300 0.000000
-21.937500 0.000000
-21.880800 0.000000
-21.824100 0.000000
-21.767300 0.000000
-21.710600 0.000000
-21.653900 0.000000
-21.597100 0.000000
-21.540400 0.000000
-21.483700 0.000000
-21.426900 0.000000
-21.370200 0.000000
-21.313500 0.000000
-21.256700 0.000000
-21.200000 0.000000
-21.143300 0.000000
-21.086500 0.000000
-21.029800 0.000000
-20.973100 0.000000
-20.916400 0.000000
-20.859600 0.000000
-20.802900 0.000000
-20.746200 0.000000
-20.689400 0.000000
-20.632700 0.000000
-20.576000 0.000000
-20.519200 0.000000
-20.462500 0.000000
-20.405800 0.000000
-20.349000 0.000000
-20.292300 0.000000
-20.235600 0.000000
-20.178800 0.000000
-20.122100 0.000000
-20.065400 0.000000
-20.008600 0.000000
-19.951900 0.000000
-19.895200 0.000000
-19.838500 0.000000
-19.781700 0.000000
-19.725000 0.000000
-19.668300 0.000000
-19.611500 0.000000
-19.554800 0.000000
-19.498100 0.000000
-19.441300 0.000000
-19.384600 0.000000
-19.327900 0.000000
-19.271100 0.000000
-19.214400 0.000000
-19.157700 0.000000
-19.100900 0.000000
-19.044200 0.000000
-18.987500 0.000000
-18.930700 0.000000
-18.874000 0.000000
-18.817300 0.000000
-18.760600 0.000000
-18.703800 0.000000
-18.647100 0.000000
-18.590400 0.000000
-18.533600 0.000000
-18.476900 0.000000
-18.420200 0.000000
-18.363400 0.000000
-18.306700 0.000000
-18.250000 0.000000
-18.193200 0.000000
-18.136500 0.000000
-18.079800 0.000000
-18.023000 0.000000
-17.966300 0.000000
-17.909600 0.000000
-17.852900 0.000000
-17.796100 0.000000
-17.739400 0.000000
-17.682700 0.000000
-17.625900 0.000000
-17.569200 0.000000
-17.512500 0.000000
-17.455700 0.000000
-17.399000 0.000000
-17.342300 0.000000
-17.285500 0.000000
-17.228800 0.000000
-17.172100 0.000000
-17.115300 0.000000
-17.058600 0.000000
-17.001900 0.000000
-16.945100 0.000000
-16.888400 0.000000
-16.831700 0.000000
-16.775000 0.000000
-16.718200 0.000000
-16.661500 0.000000
-16.604800 0.000000
-16.548000 0.000000
-16.491300 0.000000
-16.434600 0.000000
-16.377800 0.000000
-16.321100 0.000000
-16.264400 0.000000
-16.207600 0.000000
-16.150900 0.000000
-16.094200 0.000000
-16.037400 0.000000
-15.980700 0.000000
-15.924000 0.000000
-15.867200 0.000000
-15.810500 0.000000
-15.753800 0.000000
-15.697100 0.000000
-15.640300 0.000000
-15.583600 0.000000
-15.526900 0.000000
-15.470100 0.000000
-15.413400 0.000000
-15.356700 0.000000
-15.299900 0.000000
-15.243200 0.000000
-15.186500 0.000000
-15.129700 0.000000
-15.073000 0.000000
-15.016300 0.000000
-14.959500 0.000000
-14.902800 0.000000
-14.846100 0.000000
-14.789300 0.000000
-14.732600 0.000000
-14.675900 0.000000
-14.619200 0.000000
-14.562400 0.000000
-14.505700 0.000000
-14.449000 0.000000
-14.392200 0.000000
-14.335500 0.000000
-14.278800 0.000000
-14.222000 0.000000
-14.165300 0.000000
-14.108600 0.000000
-14.051800 0.000000
-13.995100 0.000000
-13.938400 0.000000
-13.881600 0.000000
-13.824900 0.000000
-13.768200 0.000000
-13.711500 0.000000
-13.654700 0.000000
-13.598000 0.000000
-13.541300 0.000000
-13.484500 0.000000
-13.427800 0.000000
-13.371100 0.000000
-13.314300 0.000000
-13.257600 0.000000
-13.200900 0.000000
-13.144100 0.000000
-13.087400 0.000000
-13.030700 0.000000
-12.973900 0.000000
-12.917200 0.000000
-12.860500 0.000000
-12.803700 0.000000
-12.747000 0.000000
-12.690300 0.000000
-12.633600 0.000000
-12.576800 0.000000
-12.520100 0.000000
-12.463400 0.000000
-12.406600 0.000000
-12.349900 0.000000
-12.293200 0.000000
-12.236400 0.000000
-12.179700 0.000000
-12.123000 0.000000
-12.066200 0.000000
-12.009500 0.000000
-11.952800 0.000000
-11.896000 0.000000
-11.839300 0.000000
-11.782600 0.000000
-11.725800 0.000000
-11.669100 0.000000
-11.612400 0.000000
-11.555700 0.000000
-11.498900 0.000000
-11.442200 0.000000
-11.385500 0.000000
-11.328700 0.000000
-11.272000 0.000000
-11.215300 0.000000
-11.158500 0.000000
-11.101800 0.000000
-11.045100 0.000000
-10.988300 0.000000
-10.931600 0.000000
-10.874900 0.000000
-10.818100 0.000000
-10.761400 0.000000
-10.704700 0.000000
-10.647900 0.000000
-10.591200 0.000000
-10.534500 0.000000
-10.477800 0.000000
-10.421000 0.000000
-10.364300 0.000000
-10.307600 0.000000
-10.250800 0.000000
-10.194100 0.000000
-10.137400 0.000000
-10.080600 0.000000
-10.023900 0.000000
-9.967200 0.000000
-9.910400 0.000000
-9.853700 0.000000
-9.797000 0.000000
-9.740200 0.000000
-9.683500 0.000000
-9.626800 0.000000
-9.570100 0.000000
-9.513300 0.000000
-9.456600 0.000000
-9.399900 0.000000
-9.343100 0.000000
-9.286400 0.000000
-9.229700 0.000000
-9.172900 0.000000
-9.116200 0.000000
-9.059500 0.000000
-9.002700 0.000000
-8.946000 0.000000
-8.889300 0.000000
-8.832500 0.000000
-8.775800 0.000000
-8.719100 0.000000
-8.662300 0.000000
-8.605600 0.000000
-8.548900 0.000000
-8.492200 0.000000
-8.435400 0.000000
-8.378700 0.000000
-8.322000 0.000000
-8.265200 0.000000
-8.208500 0.000000
-8.151800 0.000000
-8.095000 0.000000
-8.038300 0.000000
-7.981600 0.000000
-7.924800 0.000000
-7.868100 0.000000
-7.811400 0.000000
-7.754600 0.000000
-7.697900 0.000000
-7.641200 0.000000
-7.584400 0.000000
-7.527700 0.000000
-7.471000 0.000000
-7.414300 0.000000
-7.357500 0.000000
-7.300800 0.000000
-7.244100 0.000000
-7.187300 0.000000
-7.130600 0.000000
-7.073900 0.000000
-7.017100 0.000000
-6.960400 0.000000
-6.903700 0.000000
-6.846900 0.000000
-6.790200 0.000000
-6.733500 0.000000
-6.676700 0.000000
-6.620000 0.000000
-6.563300 0.000000
-6.506500 0.000000
-6.449800 0.000000
-6.393100 0.000000
-6.336400 0.000000
-6.279600 0.000000
-6.222900 0.000000
-6.166200 0.000000
-6.109400 0.000000
-6.052700 0.000000
-5.996000 0.000000
-5.939200 0.000000
-5.882500 0.000000
-5.825800 0.000000
-5.769000 0.000000
-5.712300 0.000000
-5.655600 0.000000
-5.598800 0.000000
-5.542100 0.000000
-5.485400 0.000000
-5.428700 0.000000
-5.371900 0.000000
-5.315200 0.000000
-5.258500 0.000000
-5.201700 0.000000
-5.145000 0.000000
-5.088300 0.000000
-5.031500 0.000000
-4.974800 0.000000
-4.918100 0.000000
-4.861300 0.000000
-4.804600 0.000000
-4.747900 0.000000
-4.691100 0.000000
-4.634400 0.000000
-4.577700 0.000000
-4.520900 0.000000
-4.464200 0.000000
-4.407500 0.000000
-4.350800 0.000000
-4.294000 0.000000
-4.237300 0.000000
-4.180600 0.000000
-4.123800 0.000000
-4.067100 0.000000
-4.010400 0.000000
-3.953600 0.000000
-3.896900 0.000000
-3.840200 0.000000
-3.783400 0.000000
-3.726700 0.000000
-3.670000 0.000000
-3.613200 0.000000
-3.556500 0.000000
-3.499800 0.000000
-3.443000 0.000000
-3.386300 0.000000
-3.329600 0.000000
-3.272900 0.000000
-3.216100 0.000000
-3.159400 0.000000
-3.102700 0.000000
-3.045900 0.000000
-2.989200 0.000000
-2.932500 0.000000
-2.875700 0.000000
-2.819000 0.000000
-2.762300 0.000000
-2.705500 0.000000
-2.648800 0.000000
-2.592100 0.000000
-2.535300 0.000000
-2.478600 0.000200
-2.421900 0.017700
-2.365100 0.041900
-2.308400 0.050100
-2.251700 0.057900
-2.195000 0.068200
-2.138200 0.079600
-2.081500 0.086300
-2.024800 0.092100
-1.968000 0.098100
-1.911300 0.104200
-1.854600 0.111200
-1.797800 0.118500
-1.741100 0.126700
-1.684400 0.132800
-1.627600 0.137700
-1.570900 0.143500
-1.514200 0.149400
-1.457400 0.155300
-1.400700 0.161900
-1.344000 0.168800
-1.287300 0.176000
-1.230500 0.183300
-1.173800 0.190300
-1.117100 0.196500
-1.060300 0.203000
-1.003600 0.210000
-0.946900 0.217500
-0.890100 0.225600
-0.833400 0.233900
-0.776700 0.242400
-0.719900 0.251200
-0.663200 0.260300
-0.606500 0.269700
-0.549700 0.280200
-0.493000 0.293100
-0.436300 0.307400
-0.379500 0.323800
-0.322800 0.339000
-0.266100 0.346400
-0.209400 0.352600
-0.152600 0.368800
-0.095900 0.387400
-0.039200 0.415000
0.017600 0.436200
0.074300 0.470200
0.131000 0.499200
0.187800 0.531300
0.244500 0.595100
0.301200 0.716100
0.358000 0.847200
0.414700 1.017500
0.471400 1.678600
0.528200 1.635300
0.584900 1.955100
0.641600 1.496200
0.698400 1.343200
0.755100 1.270800
0.811800 1.697100
0.868500 2.253300
0.925300 2.705300
0.982000 2.196900
1.038700 2.042400
1.095500 2.039300
1.152200 2.209000
1.208900 2.674300
1.265700 2.878100
1.322400 3.447900
1.379100 3.274400
1.435900 3.041700
1.492600 3.194100
1.549300 3.350500
1.606100 3.962900
1.662800 4.074100
1.719500 3.862600
1.776300 3.671000
1.833000 3.750100
1.889700 3.698400
1.946400 2.805100
2.003200 2.859300
2.059900 3.162900
2.116600 3.701600
2.173400 3.767200
2.230100 4.676400
2.286800 4.409800
2.343600 4.053100
2.400300 3.704100
2.457000 3.544900
2.513800 3.101300
2.570500 3.043200
2.627200 3.843000
2.684000 3.953400
2.740700 4.872100
2.797400 4.758700
2.854100 4.993500
2.910900 4.722100
2.967600 5.993000
3.024300 5.019400
3.081100 6.724000
3.137800 4.685900
3.194500 4.412800
3.251300 3.014900
3.308000 2.998000
3.364700 4.548200
3.421500 4.392100
3.478200 3.461300
3.534900 4.021200
3.591700 4.533100
3.648400 4.748500
3.705100 6.798000
3.761900 7.929300
3.818600 6.637100
3.875300 5.336800
3.932000 4.603400
3.988800 4.851600
4.045500 3.754100
4.102200 3.387800
4.159000 3.284800
4.215700 5.427800
4.272400 4.940200
4.329200 4.186200
4.385900 3.927000
4.442600 3.461000
4.499400 3.355100
4.556100 2.926600
4.612800 5.096400
4.669600 2.701900
4.726300 1.641800
4.783000 1.507900
4.839800 1.354000
4.896500 1.334600
4.953200 1.069300
5.009900 0.985300
5.066700 0.906100
5.123400 0.857800
5.180100 0.844000
5.236900 0.857400
5.293600 0.733500
5.350300 0.578000
5.407100 0.575100
5.463800 0.579400
5.520500 0.591000
5.577300 0.598500
5.634000 0.601700
5.690700 0.625700
5.747500 0.660000
5.804200 0.744900
5.860900 0.840900
5.917700 0.829000
5.974400 0.831900
6.031100 0.916400
6.087800 1.087100
6.144600 1.389000
6.201300 1.613000
6.258000 1.611700
6.314800 1.461600
6.371500 1.394000
6.428200 1.376400
6.485000 1.382500
6.541700 1.517200
6.598400 1.525200
6.655200 1.202700
6.711900 0.996500
6.768600 1.249200
6.825400 2.986500
6.882100 2.684900
6.938800 3.200300
6.995500 4.032200
7.052300 3.757400
7.109000 3.432100
7.165700 4.293600
7.222500 3.264200
7.279200 2.161800
7.335900 1.681800
7.392700 1.555900
7.449400 1.225200
7.506100 0.954500
7.562900 0.767200
7.619600 0.603900
7.676300 0.465000
7.733100 0.400100
7.789800 0.416700
7.846500 0.529300
7.903300 0.619200
7.960000 0.971600
8.016700 1.003300
8.073400 0.911500
8.130200 0.865200
8.186900 0.994300
8.243600 1.079500
8.300400 1.537300
8.357100 1.419300
8.413800 1.468300
8.470600 1.504300
8.527300 1.528200
8.584000 1.287400
8.640800 1.184800
8.697500 1.110200
8.754200 1.045500
8.811000 0.957100
8.867700 0.905800
8.924400 0.880900
8.981200 0.827400
9.037900 0.782200
9.094600 0.737900
9.151300 0.696400
9.208100 0.662600
9.264800 0.648800
9.321500 0.540400
9.378300 0.483700
9.435000 0.431700
9.491700 0.389300
9.548500 0.364400
9.605200 0.331000
9.661900 0.307100
9.718700 0.290700
9.775400 0.276400
9.832100 0.263100
9.888900 0.250800
9.945600 0.261200
10.002300 0.265300
10.059100 0.273700
10.115800 0.276100
10.172500 0.279600
10.229200 0.282400
10.286000 0.289600
10.342700 0.300900
10.399400 0.309600
10.456200 0.336900
10.512900 0.361500
10.569600 0.387400
10.626400 0.431100
10.683100 0.469900
10.739800 0.538700
10.796600 0.553300
10.853300 0.543000
10.910000 0.467700
10.966800 0.455500
11.023500 0.442800
11.080200 0.430500
11.136900 0.423000
11.193700 0.416700
11.250400 0.411000
11.307100 0.404900
11.363900 0.399600
11.420600 0.395800
11.477300 0.388500
11.534100 0.390600
11.590800 0.395900
11.647500 0.460400
11.704300 0.506300
11.761000 0.545600
11.817700 0.572400
11.874500 0.596000
11.931200 0.616000
11.987900 0.597800
12.044700 0.626000
12.101400 0.534800
12.158100 0.481700
12.214800 0.448800
12.271600 0.423400
12.328300 0.399800
12.385000 0.381200
12.441800 0.363800
12.498500 0.351100
12.555200 0.333700
12.612000 0.314400
12.668700 0.286200
12.725400 0.260900
12.782200 0.243600
12.838900 0.225000
12.895600 0.207300
12.952400 0.208800
13.009100 0.178300
13.065800 0.153300
13.122600 0.134500
13.179300 0.122200
13.236000 0.095900
13.292700 0.082800
13.349500 0.105900
13.406200 0.142800
13.462900 0.202300
13.519700 0.362300
13.576400 0.553600
13.633100 1.028100
13.689900 1.426800
13.746600 1.395200
13.803300 1.285600
13.860100 1.142300
13.916800 1.026300
13.973500 0.990900
14.030300 0.898800
14.087000 0.855400
14.143700 0.820100
14.200400 0.795300
14.257200 0.771300
14.313900 0.739800
14.370600 0.732300
14.427400 0.747300
14.484100 0.782900
14.540800 0.807700
14.597600 0.825400
14.654300 0.935400
14.711000 0.962000
14.767800 0.959700
14.824500 0.975900
14.881200 0.979100
14.938000 0.989000
14.994700 0.975300
15.051400 0.939400
15.108200 0.904200
15.164900 0.884600
15.221600 0.870300
15.278300 0.863200
15.335100 0.832500
15.391800 0.817800
15.448500 0.817900
15.505300 0.816300
15.562000 0.819100
15.618700 0.823700
15.675500 0.882000
15.732200 0.880400
15.788900 0.869700
15.845700 0.863300
15.902400 0.858500
15.959100 0.857600
16.015900 0.861700
16.072600 0.871200
16.129300 0.879400
16.186100 0.886200
16.242800 0.891200
16.299500 0.857300
16.356200 0.858800
16.413000 0.867500
16.469700 0.865000
16.526400 0.844900
16.583200 0.835700
16.639900 0.818700
16.696600 0.807700
16.753400 0.825200
16.810100 0.840300
16.866800 0.847400
16.923600 0.843900
16.980300 0.843300
17.037000 0.879100
17.093800 0.982200
17.150500 0.992100
17.207200 0.779800
17.264000 0.737800
17.320700 0.745700
17.377400 0.812000
17.434100 0.814000
17.490900 0.798900
17.547600 0.802500
17.604300 0.642800
17.661100 0.588100
17.717800 0.579000
17.774500 0.537800
17.831300 0.610200
17.888000 0.678600
17.944700 0.752200
18.001500 0.808500
18.058200 0.827100
18.114900 0.876700
18.171700 1.010700
18.228400 0.926300
18.285100 0.830700
18.341800 0.795800
18.398600 0.822700
18.455300 0.830000
18.512000 0.824600
18.568800 0.832800
18.625500 0.846900
18.682200 0.869000
18.739000 0.881700
18.795700 0.891900
18.852400 0.943500
18.909200 0.939100
18.965900 1.005200
19.022600 1.046500
19.079400 1.085100
19.136100 1.027000
19.192800 0.959800
19.249600 0.887400
19.306300 0.787600
19.363000 0.781100
19.419700 0.839800
19.476500 0.875400
19.533200 0.851300
19.589900 0.852800
19.646700 0.882800
19.703400 0.931200
19.760100 0.990500
19.816900 1.037000
19.873600 1.037400
19.930300 1.018900
19.987100 1.071200
20.043800 1.090000
20.100500 1.151700
20.157300 1.151800
20.214000 1.115700
20.270700 1.091100
20.327500 1.106900
20.384200 1.092000
20.440900 0.935900
20.497600 0.836700
20.554400 0.788900
20.611100 0.774500
20.667800 0.801100
20.724600 0.856200
20.781300 0.902700
20.838000 0.934100
20.894800 0.954100
20.951500 0.975400
21.008200 1.005700
21.065000 1.087500
21.121700 1.075900
21.178400 1.067600
21.235200 1.026700
21.291900 1.035100
21.348600 1.016500
21.405400 1.016400
21.462100 1.019500
21.518800 1.002900
21.575500 0.989000
21.632300 0.962700
21.689000 0.948500
21.745700 0.950600
21.802500 0.931300
21.859200 0.916000
21.915900 0.905200
21.972700 0.881000
22.029400 0.851900
22.086100 0.829400
22.142900 0.812300
22.199600 0.785900
22.256300 0.696100
22.313100 0.707200
22.369800 0.726500
22.426500 0.749100
22.483200 0.797300
22.540000 0.811800
22.596700 0.862600
22.653400 0.949600
22.710200 1.001700
22.766900 1.099200
22.823600 1.095300
22.880400 1.042200
22.937100 1.081100
22.993800 1.149100
23.050600 1.259600
23.107300 1.222600
23.164000 1.235800
23.220800 1.253400
23.277500 1.184900
23.334200 1.134200
23.391000 1.015700
23.447700 0.924100
23.504400 0.865300
23.561100 0.846500
23.617900 0.824200
23.674600 0.779900
23.731300 0.796000
23.788100 0.795200
23.844800 0.825000
23.901500 0.873900
23.958300 0.833600
24.015000 0.879300
24.071700 0.947600
24.128500 0.938600
24.185200 0.897700
24.241900 0.861200
24.298700 0.826600
24.355400 0.797100
24.412100 0.779200
24.468900 0.743900
24.525600 0.724800
24.582300 0.729700
24.639000 0.793900
24.695800 0.867400
24.752500 0.941300
24.809200 1.053900
24.866000 1.264600
24.922700 1.401100
24.979400 1.284900
25.036200 1.145900
25.092900 1.004400
25.149600 0.940300
25.206400 0.943200
25.263100 0.951100
25.319800 0.957700
25.376600 0.968100
25.433300 0.920000
25.490000 0.884500
25.546800 0.905200
25.603500 0.936600
25.660200 0.932700
25.716900 0.985100
25.773700 1.153100
25.830400 1.146400
25.887100 1.017400
25.943900 0.969100
26.000600 0.951800
26.057300 0.945300
26.114100 0.965300
26.170800 1.022100
26.227500 0.925700
26.284300 0.867500
26.341000 0.841400
26.397700 0.813400
26.454500 0.806700
26.511200 0.838200
26.567900 0.958400
26.624600 1.056300
26.681400 1.193000
26.738100 1.350100
26.794800 1.348100
26.851600 1.329100
26.908300 1.263400
26.965000 1.291300
27.021800 1.195900
27.078500 1.103600
27.135200 1.038000
27.192000 1.029400
27.248700 1.069200
27.305400 1.063600
27.362200 1.080600
27.418900 1.096600
27.475600 1.098000
27.532400 1.099500
27.589100 1.096000
27.645800 1.049000
27.702500 1.025000
27.759300 1.070100
27.816000 1.036700
27.872700 1.002400
27.929500 0.948700
27.986200 0.922300
28.042900 0.901300
28.099700 0.904200
28.156400 0.930100
28.213100 0.849000
28.269900 0.855200
28.326600 0.864000
28.383300 0.806800
28.440100 0.784700
28.496800 0.770600
28.553500 0.770300
28.610300 0.785300
28.667000 0.788500
28.723700 0.718600
28.780400 0.779300
28.837200 0.834500
28.893900 0.869700
28.950600 0.988000
29.007400 1.157300
29.064100 1.238400
29.120800 1.295900
29.177600 1.363000
29.234300 1.367100
29.291000 1.417700
29.347800 1.379600
29.404500 1.247500
29.461200 1.171000
29.518000 1.099900
29.574700 1.021400
29.631400 1.146900
29.688200 0.996400
29.744900 1.002100
29.801600 1.068300
29.858300 1.042100
29.915100 1.140600
29.971800 1.233600
30.028500 1.381500
30.085300 1.372100
30.142000 1.351100
30.198700 1.294900
30.255500 1.271700
30.312200 1.102600
30.368900 1.049100
30.425700 0.977400
30.482400 0.940300
30.539100 0.934300
30.595900 0.888500
30.652600 0.864400
30.709300 0.869100
30.766000 0.900300
30.822800 0.838300
30.879500 0.810700
30.936200 0.855700
30.993000 0.912100
31.049700 0.958900
31.106400 0.995600
31.163200 1.114500
31.219900 1.170700
31.276600 1.152800
31.333400 1.164900
31.390100 1.127800
31.446800 1.081700
31.503600 1.038700
31.560300 1.044100
31.617000 0.951600
31.673800 0.920800
31.730500 0.944700
31.787200 0.987700
31.843900 1.007800
31.900700 0.966500
31.957400 0.982500
32.014100 1.034900
32.070900 0.990400
32.127600 0.949600
32.184300 0.929500
32.241100 0.918900
32.297800 0.909400
32.354500 0.909600
32.411300 0.937600
32.468000 0.903500
32.524700 0.877600
32.581500 0.872400
32.638200 0.807100
32.694900 0.785000
32.751700 0.796000
32.808400 0.868900
32.865100 0.887300
32.921800 0.932100
32.978600 1.006200
33.035300 1.044000
33.092000 1.101000
33.148800 1.116300
33.205500 1.152700
33.262200 1.225800
33.319000 1.273200
33.375700 1.255700
33.432400 1.218000
33.489200 1.110800
33.545900 0.969100
33.602600 0.885900
33.659400 0.914200
33.716100 0.975500
33.772800 1.022700
33.829600 1.098200
33.886300 1.165400
33.943000 1.226800
33.999700 1.253500
34.056500 1.299000
34.113200 1.331800
34.169900 1.300500
34.226700 1.253400
34.283400 1.130500
34.340100 1.023000
34.396900 0.959800
34.453600 0.937600
34.510300 0.887500
34.567100 0.844700
34.623800 0.916700
34.680500 1.069000
34.737300 1.198100
34.794000 1.367000
34.850700 1.451500
34.907400 1.426500
34.964200 1.485600
35.020900 1.528100
35.077600 1.314100
35.134400 1.143800
35.191100 1.009000
35.247800 0.934200
35.304600 0.867200
35.361300 0.861800
35.418000 0.900900
35.474800 0.952900
35.531500 1.066800
35.588200 1.220800
35.645000 1.205300
35.701700 1.264300
35.758400 1.369200
35.815200 1.454800
35.871900 1.439200
35.928600 1.292400
35.985300 1.152300
36.042100 1.038100
36.098800 0.964000
36.155500 0.930300
36.212300 0.948300
36.269000 0.959200
36.325700 0.995800
36.382500 1.025600
36.439200 1.096700
36.495900 1.144500
36.552700 1.217900
36.609400 1.345600
36.666100 1.491800
36.722900 1.455800
36.779600 1.397800
36.836300 1.389200
36.893100 1.285700
36.949800 1.206700
37.006500 1.175500
37.063200 1.134700
37.120000 1.092200
37.176700 1.150800
37.233400 1.211400
37.290200 1.626100
37.346900 1.691300
37.403600 1.577900
37.460400 1.447100
37.517100 1.345700
37.573800 1.254600
37.630600 1.274100
37.687300 1.224800
37.744000 1.204100
37.800800 1.152100
37.857500 1.293200
37.914200 1.225600
37.971000 1.186400
38.027700 1.263700
38.084400 1.296700
38.141100 1.334200
38.197900 1.337100
38.254600 1.292800
38.311300 1.231200
38.368100 1.170500
38.424800 1.163300
38.481500 1.128500
38.538300 1.115000
38.595000 1.113400
38.651700 1.105600
38.708500 1.172600
38.765200 1.154700
38.821900 1.141400
38.878700 1.228300
38.935400 1.194800
38.992100 1.138900
39.048800 1.123000
39.105600 1.161100
39.162300 1.053900
39.219000 1.036700
39.275800 1.075500
39.332500 1.157200
39.389200 1.259500
39.446000 1.302000
39.502700 1.303500
39.559400 1.345800
39.616200 1.244500
39.672900 1.160200
39.729600 1.098200
39.786400 1.057800
39.843100 1.052900
39.899800 1.094800
39.956600 1.199100
40.013300 1.329700
40.070000 1.455800
40.126700 1.561800
40.183500 1.603600
40.240200 1.658300
40.296900 1.792100
40.353700 1.888600
40.410400 1.976400
40.467100 2.194300
40.523900 2.947100
40.580600 3.429700
40.637300 3.381900
40.694100 2.850300
40.750800 2.220900
40.807500 2.055600
40.864300 1.736600
40.921000 1.465600
40.977700 1.341600
41.034500 1.265400
41.091200 1.153100
41.147900 1.104000
41.204600 1.108100
41.261400 1.170900
41.318100 1.128700
41.374800 1.177300
41.431600 1.292900
41.488300 1.376000
41.545000 1.508700
41.601800 1.495200
41.658500 1.372300
41.715200 1.330600
41.772000 1.298000
41.828700 1.259700
41.885400 1.229100
41.942200 1.175400
41.998900 1.140500
42.055600 1.121300
42.112400 1.129600
42.169100 1.164600
42.225800 1.205400
42.282500 1.226800
42.339300 1.220800
42.396000 1.197900
42.452700 1.235200
42.509500 1.226500
42.566200 1.200700
42.622900 1.165600
42.679700 1.108500
42.736400 1.064300
42.793100 1.135300
42.849900 1.192500
42.906600 1.275400
42.963300 1.359200
43.020100 1.439300
43.076800 1.373100
43.133500 1.368300
43.190200 1.465900
43.247000 1.600100
43.303700 1.561000
43.360400 1.677600
43.417200 1.657500
43.473900 1.591700
43.530600 1.473500
43.587400 1.247900
43.644100 1.056400
43.700800 0.954900
43.757600 0.918200
43.814300 0.976900
43.871000 1.003600
43.927800 1.110300
43.984500 1.179000
44.041200 1.208100
44.098000 1.256100
44.154700 1.310100
44.211400 1.358800
44.268100 1.375200
44.324900 1.367200
44.381600 1.328700
44.438300 1.360300
44.495100 1.419700
44.551800 1.439000
44.608500 1.440400
44.665300 1.437900
44.722000 1.389000
44.778700 1.341600
44.835500 1.322000
44.892200 1.270200
44.948900 1.215400
45.005700 1.237500
45.062400 1.133600
45.119100 1.169900
45.175900 1.207500
45.232600 1.218500
45.289300 1.254000
45.346000 1.262100
45.402800 1.260200
45.459500 1.303100
45.516200 1.324300
45.573000 1.358600
45.629700 1.475900
45.686400 1.521300
45.743200 1.499000
45.799900 1.468500
45.856600 1.365300
45.913400 1.299900
45.970100 1.219300
46.026800 1.137900
46.083600 1.055800
46.140300 1.092100
46.197000 1.177800
46.253800 1.209700
46.310500 1.160700
46.367200 1.088500
46.423900 1.070600
46.480700 1.046700
46.537400 1.055400
46.594100 1.082000
46.650900 1.142200
46.707600 1.255300
46.764300 1.427900
46.821100 1.509000
46.877800 1.639000
46.934500 1.536200
46.991300 1.426800
47.048000 1.310500
47.104700 1.250500
47.161500 1.229300
47.218200 1.267800
47.274900 1.367300
47.331600 1.502900
47.388400 1.548500
47.445100 1.555700
47.501800 1.521200
47.558600 1.435200
47.615300 1.263700
47.672000 1.090700
47.728800 1.054000
47.785500 1.057000
47.842200 1.083200
47.899000 1.174700
47.955700 1.299100
48.012400 1.308700
48.069200 1.357500
48.125900 1.405400
48.182600 1.499900
48.239400 1.572900
48.296100 1.470500
48.352800 1.361100
48.409500 1.283300
48.466300 1.232200
48.523000 1.175800
48.579700 1.192200
48.636500 1.281500
48.693200 1.464900
48.749900 1.543700
48.806700 1.607500
48.863400 1.604300
48.920100 1.487100
48.976900 1.369100
49.033600 1.294500
49.090300 1.299800
49.147100 1.318200
49.203800 1.492900
49.260500 1.563800
49.317300 1.685800
49.374000 1.666400
49.430700 1.484000
49.487400 1.334700
49.544200 1.254300
49.600900 1.273600
49.657600 1.354500
49.714400 1.418600
49.771100 1.472800
49.827800 1.467100
49.884600 1.479800
49.941300 1.545700
49.998000 1.456000
50.054800 1.471900
50.111500 1.617400
50.168200 1.667900
50.225000 1.625100
50.281700 1.517800
50.338400 1.430000
50.395200 1.436700
50.451900 1.481300
50.508600 1.528500
50.565300 1.438100
50.622100 1.328200
50.678800 1.235400
50.735500 1.205800
50.792300 1.214300
50.849000 1.227200
50.905700 1.222700
50.962500 1.190500
51.019200 1.191700
51.075900 1.200900
51.132700 1.286000
51.189400 1.448400
51.246100 1.554700
51.302900 1.585500
51.359600 1.696300
51.416300 1.792800
51.473000 1.715700
51.529800 1.593300
51.586500 1.496800
51.643200 1.450100
51.700000 1.472100
51.756700 1.546200
51.813400 1.629100
51.870200 1.611800
51.926900 1.490900
51.983600 1.494800
52.040400 1.414800
52.097100 1.461600
52.153800 1.239100
52.210600 1.025900
52.267300 0.857100
52.324000 0.581500
52.380800 0.341700
52.437500 0.149800
52.494200 0.081100
52.550900 0.028700
52.607700 0.005500
52.664400 0.001800
52.721100 0.000400
52.777900 0.000000
52.834600 0.000000
52.891300 0.000000
52.948100 0.000000
53.004800 0.000000
53.061500 0.000000
53.118300 0.000000
53.175000 0.000000
53.231700 0.000000
53.288500 0.000000
53.345200 0.000000
53.401900 0.000000
53.458700 0.000000
53.515400 0.000000
53.572100 0.000000
53.628800 0.000000
53.685600 0.000000
53.742300 0.000000
53.799000 0.000000
53.855800 0.000000
53.912500 0.000000
53.969200 0.000000
54.026000 0.000000
54.082700 0.000000
54.139400 0.000000
54.196200 0.000000
54.252900 0.000000
54.309600 0.000000
54.366400 0.000000
54.423100 0.000000
54.479800 0.000000
54.536600 0.000000
54.593300 0.000000
54.650000 0.000000
54.706700 0.000000
54.763500 0.000000
54.820200 0.000000
54.876900 0.000000
54.933700 0.000000
54.990400 0.000000
55.047100 0.000000
55.103900 0.000000
55.160600 0.000000
55.217300 0.000000
55.274100 0.000000
55.330800 0.000000
55.387500 0.000000
55.444300 0.000000
55.501000 0.000000
55.557700 0.000000
55.614400 0.000000
55.671200 0.000000
55.727900 0.000000
55.784600 0.000000
55.841400 0.000000
55.898100 0.000000
55.954800 0.000000
56.011600 0.000000
56.068300 0.000000
56.125000 0.000000
56.181800 0.000000
56.238500 0.000000
56.295200 0.000000
56.352000 0.000000
56.408700 0.000000
56.465400 0.000000
56.522200 0.000000
56.578900 0.000000
56.635600 0.000000
56.692300 0.000000
56.749100 0.000000
56.805800 0.000000
56.862500 0.000000
56.919300 0.000000
56.976000 0.000000
57.032700 0.000000
57.089500 0.000000
57.146200 0.000000
57.202900 0.000000
57.259700 0.000000
57.316400 0.000000
57.373100 0.000000
57.429900 0.000000
57.486600 0.000000
57.543300 0.000000
57.600100 0.000000
57.656800 0.000000
57.713500 0.000000
57.770200 0.000000
57.827000 0.000000
57.883700 0.000000
57.940400 0.000000
57.997200 0.000000
58.053900 0.000000
58.110600 0.000000
58.167400 0.000000
58.224100 0.000000
58.280800 0.000000
58.337600 0.000000
58.394300 0.000000
58.451000 0.000000
58.507800 0.000000
58.564500 0.000000
58.621200 0.000000
58.677900 0.000000
58.734700 0.000000
58.791400 0.000000
58.848100 0.000000
58.904900 0.000000
58.961600 0.000000
59.018300 0.000000
59.075100 0.000000
59.131800 0.000000
59.188500 0.000000
59.245300 0.000000
59.302000 0.000000
59.358700 0.000000
e
