set title 'mp-542846 - Density of States'
set xlabel 'Energy (eV)'
set ylabel 'DOS (states/eV)'
set grid
set xrange [-10:10]
set yrange [0:97.624]
set xzeroaxis lt -1
set terminal png size 800,600
set output 'mp-542846_dos_gnuplot.png'
plot '-' using 1:2 with lines title 'DOS'
-14.834800 0.000000
-14.821700 0.000000
-14.808600 0.000000
-14.795500 0.000000
-14.782300 0.000000
-14.769200 0.000000
-14.756100 0.000000
-14.743000 0.000000
-14.729800 0.000000
-14.716700 0.000000
-14.703600 0.000000
-14.690500 0.000000
-14.677400 0.000000
-14.664200 0.000000
-14.651100 0.000000
-14.638000 0.000000
-14.624900 0.000000
-14.611700 0.000000
-14.598600 0.000000
-14.585500 0.000000
-14.572400 0.000000
-14.559200 0.000000
-14.546100 0.000000
-14.533000 0.000000
-14.519900 0.000000
-14.506800 0.000000
-14.493600 0.000000
-14.480500 0.000000
-14.467400 0.000000
-14.454300 0.000000
-14.441100 0.000000
-14.428000 0.000000
-14.414900 0.000000
-14.401800 0.000000
-14.388600 0.000000
-14.375500 0.000000
-14.362400 0.000000
-14.349300 0.000000
-14.336200 0.000000
-14.323000 0.000000
-14.309900 0.000000
-14.296800 0.000000
-14.283700 0.000000
-14.270500 0.000000
-14.257400 0.000000
-14.244300 0.000000
-14.231200 0.000000
-14.218000 0.000000
-14.204900 0.000000
-14.191800 0.000000
-14.178700 0.000000
-14.165500 0.000000
-14.152400 0.000000
-14.139300 0.000000
-14.126200 0.000000
-14.113100 0.000000
-14.099900 0.000000
-14.086800 0.000000
-14.073700 0.000000
-14.060600 0.000000
-14.047400 0.000000
-14.034300 0.000000
-14.021200 0.000000
-14.008100 0.000000
-13.994900 0.000000
-13.981800 0.000000
-13.968700 0.000000
-13.955600 0.000000
-13.942500 0.000000
-13.929300 0.000000
-13.916200 0.000000
-13.903100 0.000000
-13.890000 0.000000
-13.876800 0.000000
-13.863700 0.000000
-13.850600 0.000000
-13.837500 0.000000
-13.824300 0.000000
-13.811200 0.000000
-13.798100 0.000000
-13.785000 0.000000
-13.771900 0.000000
-13.758700 0.000000
-13.745600 0.000000
-13.732500 0.000000
-13.719400 0.000000
-13.706200 0.000000
-13.693100 0.000000
-13.680000 0.000000
-13.666900 0.000000
-13.653700 0.000000
-13.640600 0.019200
-13.627500 2.763800
-13.614400 10.230900
-13.601200 25.111100
-13.588100 38.621400
-13.575000 50.704300
-13.561900 25.846300
-13.548800 80.852400
-13.535600 92.796300
-13.522500 1.563700
-13.509400 0.000000
-13.496300 0.000000
-13.483100 0.000000
-13.470000 0.000000
-13.456900 0.000000
-13.443800 0.000000
-13.430600 0.000000
-13.417500 0.000000
-13.404400 0.000000
-13.391300 0.000000
-13.378200 0.000000
-13.365000 0.000000
-13.351900 0.000000
-13.338800 0.000000
-13.325700 0.000000
-13.312500 0.000000
-13.299400 0.000000
-13.286300 0.000000
-13.273200 0.000000
-13.260000 0.000000
-13.246900 0.000000
-13.233800 0.000000
-13.220700 0.000000
-13.207600 0.000000
-13.194400 0.000000
-13.181300 0.000000
-13.168200 0.000000
-13.155100 0.000000
-13.141900 0.000000
-13.128800 0.000000
-13.115700 0.000000
-13.102600 0.000000
-13.089400 0.000000
-13.076300 0.000000
-13.063200 0.000000
-13.050100 0.000000
-13.036900 0.000000
-13.023800 0.000000
-13.010700 0.000000
-12.997600 0.000000
-12.984500 0.000000
-12.971300 0.000000
-12.958200 0.000000
-12.945100 0.000000
-12.932000 0.000000
-12.918800 0.000000
-12.905700 0.000000
-12.892600 0.000000
-12.879500 0.000000
-12.866300 0.000000
-12.853200 0.000000
-12.840100 0.000000
-12.827000 0.000000
-12.813900 0.000000
-12.800700 0.000000
-12.787600 0.000000
-12.774500 0.000000
-12.761400 0.000000
-12.748200 0.000000
-12.735100 0.000000
-12.722000 0.000000
-12.708900 0.000000
-12.695700 0.000000
-12.682600 0.000000
-12.669500 0.000000
-12.656400 0.000000
-12.643300 0.000000
-12.630100 0.000000
-12.617000 0.000000
-12.603900 0.000000
-12.590800 0.000000
-12.577600 0.000000
-12.564500 0.000000
-12.551400 0.000000
-12.538300 0.000000
-12.525100 0.000000
-12.512000 0.000000
-12.498900 0.000000
-12.485800 0.000000
-12.472600 0.000000
-12.459500 0.000000
-12.446400 0.000000
-12.433300 0.000000
-12.420200 0.000000
-12.407000 0.000000
-12.393900 0.000000
-12.380800 0.000000
-12.367700 0.000000
-12.354500 0.000000
-12.341400 0.000000
-12.328300 0.000000
-12.315200 0.000000
-12.302000 2.012400
-12.288900 17.408700
-12.275800 67.068500
-12.262700 43.539700
-12.249600 19.316100
-12.236400 91.696300
-12.223300 104.259500
-12.210200 55.136900
-12.197100 115.080000
-12.183900 75.629000
-12.170800 0.000000
-12.157700 0.000000
-12.144600 0.000000
-12.131400 0.000000
-12.118300 0.000000
-12.105200 0.000000
-12.092100 0.000000
-12.079000 0.000000
-12.065800 0.000000
-12.052700 0.000000
-12.039600 0.000000
-12.026500 0.000000
-12.013300 0.000000
-12.000200 0.000000
-11.987100 0.000000
-11.974000 0.000000
-11.960800 0.000000
-11.947700 0.000000
-11.934600 0.000000
-11.921500 0.000000
-11.908300 0.000000
-11.895200 0.000000
-11.882100 0.000000
-11.869000 0.000000
-11.855900 0.000000
-11.842700 0.000000
-11.829600 0.000000
-11.816500 0.000000
-11.803400 0.000000
-11.790200 0.000000
-11.777100 0.000000
-11.764000 0.000000
-11.750900 0.000000
-11.737700 0.000000
-11.724600 0.000000
-11.711500 0.000000
-11.698400 0.000000
-11.685300 0.000000
-11.672100 0.000000
-11.659000 0.000000
-11.645900 0.000000
-11.632800 0.000000
-11.619600 0.000000
-11.606500 0.000000
-11.593400 0.000000
-11.580300 0.000000
-11.567100 0.000000
-11.554000 0.000000
-11.540900 0.000000
-11.527800 0.000000
-11.514700 0.000000
-11.501500 0.000000
-11.488400 0.000000
-11.475300 0.000000
-11.462200 0.000000
-11.449000 0.000000
-11.435900 0.000000
-11.422800 0.000000
-11.409700 0.000000
-11.396500 0.000000
-11.383400 0.000000
-11.370300 0.000000
-11.357200 0.000000
-11.344000 0.000000
-11.330900 0.000000
-11.317800 0.000000
-11.304700 0.000000
-11.291600 0.000000
-11.278400 0.000000
-11.265300 0.000000
-11.252200 0.000000
-11.239100 0.000000
-11.225900 0.000000
-11.212800 0.000000
-11.199700 0.000000
-11.186600 0.000000
-11.173400 0.000000
-11.160300 0.000000
-11.147200 0.000000
-11.134100 0.000000
-11.121000 0.000000
-11.107800 0.000000
-11.094700 0.000000
-11.081600 0.000000
-11.068500 0.000000
-11.055300 0.000000
-11.042200 0.000000
-11.029100 0.000000
-11.016000 1.325100
-11.002800 10.534000
-10.989700 21.790900
-10.976600 31.945900
-10.963500 37.311800
-10.950400 36.060000
-10.937200 38.236000
-10.924100 55.045300
-10.911000 64.924500
-10.897900 0.000000
-10.884700 0.000000
-10.871600 0.000000
-10.858500 0.000000
-10.845400 0.000000
-10.832200 0.000000
-10.819100 0.000000
-10.806000 0.000000
-10.792900 0.000000
-10.779700 0.000000
-10.766600 0.000000
-10.753500 0.000000
-10.740400 0.000000
-10.727300 0.000000
-10.714100 0.000000
-10.701000 0.000000
-10.687900 0.000000
-10.674800 0.000000
-10.661600 0.000000
-10.648500 0.000000
-10.635400 0.000000
-10.622300 0.000000
-10.609100 0.000000
-10.596000 0.000000
-10.582900 0.000000
-10.569800 0.000000
-10.556700 0.000000
-10.543500 0.000000
-10.530400 0.000000
-10.517300 0.000000
-10.504200 0.000000
-10.491000 0.000000
-10.477900 0.000000
-10.464800 0.000000
-10.451700 0.000000
-10.438500 0.000000
-10.425400 0.000000
-10.412300 0.000000
-10.399200 0.000000
-10.386100 0.000000
-10.372900 0.000000
-10.359800 0.000000
-10.346700 0.000000
-10.333600 0.000000
-10.320400 0.000000
-10.307300 0.000000
-10.294200 0.000000
-10.281100 0.094200
-10.267900 2.775800
-10.254800 9.152000
-10.241700 17.890100
-10.228600 29.476000
-10.215400 35.454300
-10.202300 46.848400
-10.189200 10.037800
-10.176100 0.464600
-10.163000 10.091900
-10.149800 23.740500
-10.136700 47.635800
-10.123600 36.202300
-10.110500 30.850500
-10.097300 2.866900
-10.084200 0.000000
-10.071100 0.000000
-10.058000 0.000000
-10.044800 0.000000
-10.031700 0.000000
-10.018600 0.000000
-10.005500 0.000000
-9.992400 0.000000
-9.979200 0.000000
-9.966100 0.000000
-9.953000 0.000000
-9.939900 0.000000
-9.926700 0.000000
-9.913600 0.000000
-9.900500 0.000000
-9.887400 0.000000
-9.874200 0.000000
-9.861100 0.000000
-9.848000 0.000000
-9.834900 0.000000
-9.821800 0.000000
-9.808600 0.000000
-9.795500 0.000000
-9.782400 0.000000
-9.769300 0.000000
-9.756100 0.000000
-9.743000 0.000000
-9.729900 0.000000
-9.716800 0.000000
-9.703600 0.000000
-9.690500 0.000000
-9.677400 0.000000
-9.664300 0.000000
-9.651100 0.000000
-9.638000 0.000000
-9.624900 0.000000
-9.611800 0.000000
-9.598700 0.000000
-9.585500 0.000000
-9.572400 0.000000
-9.559300 0.000000
-9.546200 0.000000
-9.533000 0.000000
-9.519900 0.000000
-9.506800 0.000000
-9.493700 0.000000
-9.480500 0.000000
-9.467400 0.000000
-9.454300 0.000000
-9.441200 0.000000
-9.428100 0.000000
-9.414900 0.000000
-9.401800 0.000000
-9.388700 0.000000
-9.375600 0.000000
-9.362400 0.000000
-9.349300 0.000000
-9.336200 0.000000
-9.323100 0.000000
-9.309900 0.000000
-9.296800 0.000000
-9.283700 0.000000
-9.270600 0.000000
-9.257500 0.000000
-9.244300 0.000000
-9.231200 0.000000
-9.218100 0.000000
-9.205000 0.000000
-9.191800 0.000000
-9.178700 0.000000
-9.165600 0.000000
-9.152500 0.000000
-9.139300 0.000000
-9.126200 0.000000
-9.113100 0.000000
-9.100000 0.000000
-9.086800 0.000000
-9.073700 0.000000
-9.060600 0.000000
-9.047500 0.000000
-9.034400 0.000000
-9.021200 0.000000
-9.008100 0.000000
-8.995000 0.000000
-8.981900 0.000000
-8.968700 0.000000
-8.955600 0.000000
-8.942500 0.000000
-8.929400 0.000000
-8.916200 0.000000
-8.903100 0.000000
-8.890000 0.000000
-8.876900 0.000000
-8.863800 0.000000
-8.850600 0.000000
-8.837500 0.000000
-8.824400 0.000000
-8.811300 0.000000
-8.798100 0.000000
-8.785000 0.000000
-8.771900 0.000000
-8.758800 0.000000
-8.745600 0.000000
-8.732500 0.000000
-8.719400 0.000000
-8.706300 0.000000
-8.693200 0.000000
-8.680000 0.000000
-8.666900 0.000000
-8.653800 0.000000
-8.640700 0.000000
-8.627500 0.000000
-8.614400 0.000000
-8.601300 0.000000
-8.588200 0.000000
-8.575000 0.000000
-8.561900 0.000000
-8.548800 0.000000
-8.535700 0.000000
-8.522500 0.000000
-8.509400 0.000000
-8.496300 0.000000
-8.483200 0.000000
-8.470100 0.000000
-8.456900 0.000000
-8.443800 0.000000
-8.430700 0.000000
-8.417600 0.000000
-8.404400 0.000000
-8.391300 0.000000
-8.378200 0.000000
-8.365100 0.000000
-8.351900 0.000000
-8.338800 0.000000
-8.325700 0.000000
-8.312600 0.000000
-8.299500 0.000000
-8.286300 0.000000
-8.273200 0.000000
-8.260100 0.000000
-8.247000 0.000000
-8.233800 0.000000
-8.220700 0.000000
-8.207600 0.000000
-8.194500 0.000000
-8.181300 0.000000
-8.168200 0.000000
-8.155100 0.000000
-8.142000 0.000000
-8.128900 0.000000
-8.115700 0.000000
-8.102600 0.000000
-8.089500 0.000000
-8.076400 0.000000
-8.063200 0.000000
-8.050100 0.000000
-8.037000 0.000000
-8.023900 0.000000
-8.010700 0.000000
-7.997600 0.000000
-7.984500 0.000000
-7.971400 0.000000
-7.958200 0.000000
-7.945100 0.000000
-7.932000 0.000000
-7.918900 0.000000
-7.905800 0.000000
-7.892600 0.000000
-7.879500 0.000000
-7.866400 0.000000
-7.853300 0.000000
-7.840100 0.000000
-7.827000 0.000000
-7.813900 0.000000
-7.800800 0.000000
-7.787600 0.000000
-7.774500 0.000000
-7.761400 0.000000
-7.748300 0.000000
-7.735200 0.000000
-7.722000 0.000000
-7.708900 0.000000
-7.695800 0.027300
-7.682700 0.676500
-7.669500 2.189700
-7.656400 6.481700
-7.643300 10.080000
-7.630200 15.372200
-7.617000 28.835800
-7.603900 38.082500
-7.590800 37.433200
-7.577700 5.872200
-7.564600 3.618500
-7.551400 6.740600
-7.538300 10.289700
-7.525200 15.974900
-7.512100 22.026000
-7.498900 27.675100
-7.485800 23.747800
-7.472700 17.546900
-7.459600 19.680500
-7.446400 29.630500
-7.433300 62.826600
-7.420200 47.970700
-7.407100 30.507900
-7.393900 88.749100
-7.380800 30.219700
-7.367700 4.281800
-7.354600 2.810500
-7.341500 45.136600
-7.328300 47.537200
-7.315200 35.492300
-7.302100 41.797000
-7.289000 64.310500
-7.275800 38.156000
-7.262700 8.796800
-7.249600 1.536800
-7.236500 0.000000
-7.223300 0.000000
-7.210200 0.000000
-7.197100 0.000000
-7.184000 0.000000
-7.170900 0.000000
-7.157700 0.000000
-7.144600 0.000000
-7.131500 0.000000
-7.118400 0.000000
-7.105200 0.000000
-7.092100 0.000000
-7.079000 0.000000
-7.065900 0.000000
-7.052700 0.000000
-7.039600 0.000000
-7.026500 0.000000
-7.013400 0.000000
-7.000300 0.000000
-6.987100 0.000000
-6.974000 0.000000
-6.960900 0.000000
-6.947800 0.000000
-6.934600 0.000000
-6.921500 0.000000
-6.908400 0.000000
-6.895300 0.000000
-6.882100 0.000000
-6.869000 0.000000
-6.855900 0.000000
-6.842800 0.000000
-6.829600 0.000000
-6.816500 0.000000
-6.803400 0.000000
-6.790300 0.000000
-6.777200 0.000000
-6.764000 0.000000
-6.750900 0.000000
-6.737800 0.000000
-6.724700 0.000000
-6.711500 0.000000
-6.698400 0.000000
-6.685300 0.000000
-6.672200 0.000000
-6.659000 0.000000
-6.645900 0.000000
-6.632800 0.000000
-6.619700 0.000000
-6.606600 0.000000
-6.593400 0.000000
-6.580300 0.000000
-6.567200 0.000000
-6.554100 0.000000
-6.540900 0.000000
-6.527800 0.000000
-6.514700 0.000000
-6.501600 0.000000
-6.488400 0.000000
-6.475300 0.000000
-6.462200 0.000000
-6.449100 0.000000
-6.436000 0.000000
-6.422800 0.000000
-6.409700 0.000000
-6.396600 0.000000
-6.383500 0.000000
-6.370300 0.000000
-6.357200 0.000000
-6.344100 0.000000
-6.331000 0.000000
-6.317800 0.000000
-6.304700 0.000000
-6.291600 0.000000
-6.278500 0.000000
-6.265300 0.000000
-6.252200 0.000000
-6.239100 0.000000
-6.226000 0.000000
-6.212900 0.000000
-6.199700 0.000000
-6.186600 0.000000
-6.173500 0.000000
-6.160400 0.000000
-6.147200 0.000000
-6.134100 0.000000
-6.121000 0.000000
-6.107900 0.000000
-6.094700 0.000000
-6.081600 0.000000
-6.068500 0.000000
-6.055400 0.000000
-6.042300 0.000000
-6.029100 0.000000
-6.016000 0.000000
-6.002900 0.000000
-5.989800 0.000000
-5.976600 0.000000
-5.963500 0.000000
-5.950400 0.000000
-5.937300 0.000000
-5.924100 0.000000
-5.911000 0.000000
-5.897900 0.000000
-5.884800 0.000000
-5.871700 0.000000
-5.858500 0.000000
-5.845400 0.000000
-5.832300 0.000000
-5.819200 0.000000
-5.806000 0.000000
-5.792900 0.000000
-5.779800 0.000000
-5.766700 0.000000
-5.753500 0.000000
-5.740400 0.000000
-5.727300 0.000000
-5.714200 0.000000
-5.701000 0.000000
-5.687900 0.000000
-5.674800 0.000000
-5.661700 0.000000
-5.648600 0.000000
-5.635400 0.000000
-5.622300 0.000000
-5.609200 0.000000
-5.596100 0.000000
-5.582900 0.000000
-5.569800 0.000000
-5.556700 0.000000
-5.543600 0.000000
-5.530400 0.000000
-5.517300 0.000000
-5.504200 0.000000
-5.491100 0.000000
-5.478000 0.000000
-5.464800 0.000000
-5.451700 0.000000
-5.438600 0.000000
-5.425500 0.000000
-5.412300 0.000000
-5.399200 0.000000
-5.386100 0.000000
-5.373000 0.000000
-5.359800 0.000000
-5.346700 0.000000
-5.333600 0.000000
-5.320500 0.000000
-5.307400 0.000000
-5.294200 0.000000
-5.281100 0.000000
-5.268000 0.000000
-5.254900 0.000000
-5.241700 0.000000
-5.228600 0.000000
-5.215500 0.000000
-5.202400 0.000000
-5.189200 0.000000
-5.176100 0.000000
-5.163000 0.000000
-5.149900 0.000000
-5.136700 0.000000
-5.123600 0.000000
-5.110500 0.000000
-5.097400 0.000000
-5.084300 0.000000
-5.071100 0.000000
-5.058000 0.000000
-5.044900 0.000000
-5.031800 0.000000
-5.018600 0.000000
-5.005500 0.000000
-4.992400 0.000000
-4.979300 0.000000
-4.966100 0.000000
-4.953000 0.000000
-4.939900 0.000000
-4.926800 0.000000
-4.913700 0.000000
-4.900500 0.000000
-4.887400 0.000000
-4.874300 0.000000
-4.861200 0.000000
-4.848000 0.000000
-4.834900 0.000000
-4.821800 0.000000
-4.808700 0.000000
-4.795500 0.000000
-4.782400 0.000000
-4.769300 0.000000
-4.756200 0.000000
-4.743100 0.000000
-4.729900 0.000000
-4.716800 0.000000
-4.703700 0.000000
-4.690600 0.000000
-4.677400 0.000000
-4.664300 0.000000
-4.651200 0.000000
-4.638100 0.000000
-4.624900 0.000000
-4.611800 0.000000
-4.598700 0.000000
-4.585600 0.000000
-4.572400 0.000000
-4.559300 0.000000
-4.546200 0.000000
-4.533100 0.000000
-4.520000 0.000000
-4.506800 0.000000
-4.493700 0.000000
-4.480600 0.000000
-4.467500 0.000000
-4.454300 0.000000
-4.441200 0.000000
-4.428100 0.000000
-4.415000 0.000000
-4.401800 0.000000
-4.388700 0.000000
-4.375600 0.000000
-4.362500 0.000000
-4.349400 0.000000
-4.336200 0.000000
-4.323100 0.000000
-4.310000 0.000000
-4.296900 0.000000
-4.283700 0.000000
-4.270600 0.000000
-4.257500 0.000000
-4.244400 0.000000
-4.231200 0.000000
-4.218100 0.000000
-4.205000 0.000000
-4.191900 0.000000
-4.178800 0.000000
-4.165600 0.000000
-4.152500 0.000000
-4.139400 0.000000
-4.126300 0.000000
-4.113100 0.000000
-4.100000 0.000000
-4.086900 0.000000
-4.073800 0.000000
-4.060600 0.000000
-4.047500 0.000000
-4.034400 0.000000
-4.021300 0.000000
-4.008100 0.000000
-3.995000 0.000000
-3.981900 0.000000
-3.968800 0.000000
-3.955700 0.000000
-3.942500 0.000000
-3.929400 0.000000
-3.916300 0.000000
-3.903200 0.000000
-3.890000 0.000000
-3.876900 0.000000
-3.863800 0.000000
-3.850700 0.000000
-3.837500 0.000000
-3.824400 0.000000
-3.811300 0.000000
-3.798200 0.000000
-3.785100 0.000000
-3.771900 0.000000
-3.758800 0.000000
-3.745700 0.000000
-3.732600 0.000000
-3.719400 0.000000
-3.706300 0.000000
-3.693200 0.000000
-3.680100 0.193300
-3.666900 0.771300
-3.653800 1.733900
-3.640700 3.081100
-3.627600 4.581700
-3.614500 7.093200
-3.601300 10.284500
-3.588200 13.489700
-3.575100 15.015800
-3.562000 14.373600
-3.548800 13.271900
-3.535700 12.037000
-3.522600 10.649000
-3.509500 9.509700
-3.496300 9.630700
-3.483200 10.621700
-3.470100 9.374600
-3.457000 10.226400
-3.443800 11.517000
-3.430700 12.981000
-3.417600 23.706900
-3.404500 26.173300
-3.391400 25.863900
-3.378200 21.434800
-3.365100 13.128800
-3.352000 9.251600
-3.338900 7.705300
-3.325700 3.401600
-3.312600 19.272600
-3.299500 33.130800
-3.286400 46.711100
-3.273200 48.985400
-3.260100 8.268100
-3.247000 1.749500
-3.233900 1.185300
-3.220800 2.941400
-3.207600 14.584300
-3.194500 29.292100
-3.181400 39.538600
-3.168300 23.695000
-3.155100 14.777500
-3.142000 11.949100
-3.128900 10.594200
-3.115800 7.901100
-3.102600 5.976500
-3.089500 4.852000
-3.076400 4.728300
-3.063300 4.828500
-3.050200 4.979100
-3.037000 5.180000
-3.023900 5.431200
-3.010800 5.701000
-2.997700 5.962200
-2.984500 6.497200
-2.971400 6.767300
-2.958300 7.071100
-2.945200 7.408500
-2.932000 7.779500
-2.918900 8.184100
-2.905800 8.640700
-2.892700 8.643500
-2.879500 6.787100
-2.866400 6.820700
-2.853300 15.163600
-2.840200 16.211800
-2.827100 18.778300
-2.813900 20.663900
-2.800800 24.624000
-2.787700 38.701400
-2.774600 21.107900
-2.761400 11.856800
-2.748300 5.450100
-2.735200 1.900400
-2.722100 0.228600
-2.708900 0.808700
-2.695800 7.548000
-2.682700 32.321100
-2.669600 23.822200
-2.656500 26.126400
-2.643300 23.592400
-2.630200 20.600700
-2.617100 20.457600
-2.604000 22.501000
-2.590800 53.852800
-2.577700 37.057300
-2.564600 17.044500
-2.551500 15.779000
-2.538300 42.196900
-2.525200 45.467900
-2.512100 35.762100
-2.499000 20.704600
-2.485900 16.899500
-2.472700 25.411300
-2.459600 45.749400
-2.446500 44.832500
-2.433400 29.998600
-2.420200 6.955200
-2.407100 1.375800
-2.394000 0.726300
-2.380900 0.282500
-2.367700 0.044500
-2.354600 0.000000
-2.341500 0.000000
-2.328400 0.000000
-2.315200 0.000000
-2.302100 0.000000
-2.289000 0.000000
-2.275900 0.000000
-2.262800 0.000000
-2.249600 0.000000
-2.236500 0.000000
-2.223400 0.000000
-2.210300 0.000000
-2.197100 0.000000
-2.184000 0.000000
-2.170900 0.000000
-2.157800 0.000000
-2.144600 0.000000
-2.131500 0.000000
-2.118400 0.000000
-2.105300 0.000000
-2.092200 0.000000
-2.079000 0.000000
-2.065900 0.000000
-2.052800 0.000000
-2.039700 0.000000
-2.026500 0.000000
-2.013400 0.000000
-2.000300 0.000000
-1.987200 0.000000
-1.974000 0.000000
-1.960900 0.000000
-1.947800 0.000000
-1.934700 0.000000
-1.921600 0.000000
-1.908400 0.000000
-1.895300 0.000000
-1.882200 0.000000
-1.869100 0.000000
-1.855900 0.000000
-1.842800 0.000000
-1.829700 0.000000
-1.816600 0.000000
-1.803400 0.000000
-1.790300 0.000000
-1.777200 0.000000
-1.764100 0.000000
-1.750900 0.000000
-1.737800 0.000000
-1.724700 0.000000
-1.711600 0.000000
-1.698500 0.000000
-1.685300 0.000000
-1.672200 0.000000
-1.659100 2.101900
-1.646000 3.933500
-1.632800 5.514100
-1.619700 8.520900
-1.606600 15.967700
-1.593500 20.332700
-1.580300 25.518200
-1.567200 27.103900
-1.554100 21.512600
-1.541000 18.267300
-1.527900 14.982100
-1.514700 13.252800
-1.501600 12.067400
-1.488500 11.167200
-1.475400 11.066800
-1.462200 11.179800
-1.449100 11.770900
-1.436000 12.352500
-1.422900 12.367500
-1.409700 12.247600
-1.396600 12.007400
-1.383500 9.909600
-1.370400 5.753200
-1.357300 1.043700
-1.344100 0.332300
-1.331000 0.661600
-1.317900 1.103100
-1.304800 1.656800
-1.291600 16.214000
-1.278500 24.224800
-1.265400 45.210600
-1.252300 40.435900
-1.239100 33.979400
-1.226000 22.090500
-1.212900 21.698500
-1.199800 30.550800
-1.186600 35.072700
-1.173500 23.951600
-1.160400 8.533900
-1.147300 3.129900
-1.134200 0.574700
-1.121000 0.000000
-1.107900 0.024800
-1.094800 0.482300
-1.081700 1.533900
-1.068500 6.624100
-1.055400 14.216200
-1.042300 16.367600
-1.029200 19.982700
-1.016000 16.968900
-1.002900 14.796500
-0.989800 13.902900
-0.976700 13.563200
-0.963600 13.664700
-0.950400 13.665000
-0.937300 13.485600
-0.924200 13.061500
-0.911100 13.006200
-0.897900 13.099600
-0.884800 12.975500
-0.871700 12.599800
-0.858600 11.201800
-0.845400 10.063000
-0.832300 9.223000
-0.819200 8.680900
-0.806100 8.442900
-0.793000 8.521900
-0.779800 8.599000
-0.766700 8.665900
-0.753600 4.346800
-0.740500 1.101400
-0.727300 17.792000
-0.714200 32.198500
-0.701100 72.229800
-0.688000 40.349800
-0.674800 28.888800
-0.661700 44.023900
-0.648600 37.997600
-0.635500 29.925900
-0.622300 15.533300
-0.609200 20.874400
-0.596100 36.309600
-0.583000 40.921400
-0.569900 29.907100
-0.556700 17.996900
-0.543600 15.097900
-0.530500 22.164100
-0.517400 29.824100
-0.504200 45.999200
-0.491100 25.860800
-0.478000 4.523700
-0.464900 3.483300
-0.451700 4.286400
-0.438600 5.925100
-0.425500 7.217000
-0.412400 8.149500
-0.399300 8.722300
-0.386100 9.370900
-0.373000 10.763000
-0.359900 13.547800
-0.346800 15.125400
-0.333600 14.606900
-0.320500 17.080800
-0.307400 16.762100
-0.294300 17.140300
-0.281100 15.424800
-0.268000 13.589100
-0.254900 12.108100
-0.241800 11.322300
-0.228700 11.289300
-0.215500 10.037000
-0.202400 9.311700
-0.189300 9.253700
-0.176200 9.438300
-0.163000 9.666300
-0.149900 10.194100
-0.136800 10.895200
-0.123700 11.382600
-0.110500 11.870800
-0.097400 12.428000
-0.084300 13.048500
-0.071200 13.742500
-0.058000 14.354300
-0.044900 15.340000
-0.031800 17.084000
-0.018700 19.644000
-0.005600 20.367500
0.007600 19.634900
0.020700 18.240900
0.033800 13.952100
0.046900 10.668800
0.060100 9.672200
0.073200 9.093800
0.086300 8.927400
0.099400 8.888600
0.112600 8.860700
0.125700 8.843800
0.138800 8.847800
0.151900 8.882800
0.165000 8.948800
0.178200 10.526000
0.191300 8.098000
0.204400 5.421600
0.217500 3.745500
0.230700 2.804700
0.243800 1.449900
0.256900 0.000000
0.270000 0.000000
0.283200 0.000000
0.296300 0.000000
0.309400 0.000000
0.322500 0.000000
0.335600 0.000000
0.348800 0.000000
0.361900 0.422000
0.375000 1.019800
0.388100 1.605200
0.401300 2.178300
0.414400 3.108800
0.427500 3.888600
0.440600 3.801400
0.453800 3.894900
0.466900 4.169000
0.480000 4.604100
0.493100 5.148600
0.506300 5.835600
0.519400 7.698500
0.532500 11.373800
0.545600 15.516900
0.558700 16.570300
0.571900 16.045000
0.585000 15.893400
0.598100 16.546100
0.611200 18.164800
0.624400 18.727500
0.637500 19.168800
0.650600 19.022500
0.663700 19.507600
0.676900 20.813000
0.690000 23.397100
0.703100 27.843900
0.716200 25.855300
0.729300 22.087200
0.742500 19.840200
0.755600 16.453800
0.768700 13.447300
0.781800 11.480300
0.795000 10.378800
0.808100 9.699800
0.821200 10.304900
0.834300 11.454700
0.847500 12.534500
0.860600 14.307100
0.873700 16.465000
0.886800 17.818500
0.899900 17.868800
0.913100 13.925200
0.926200 12.162000
0.939300 9.450200
0.952400 7.759500
0.965600 6.822100
0.978700 6.022600
0.991800 5.190700
1.004900 3.088900
1.018100 2.170400
1.031200 1.649100
1.044300 1.199300
1.057400 0.820900
1.070600 0.514100
1.083700 0.278700
1.096800 0.114800
1.109900 0.022400
1.123000 0.000000
1.136200 0.000000
1.149300 0.000000
1.162400 0.000000
1.175500 0.000000
1.188700 0.000000
1.201800 0.000000
1.214900 0.000000
1.228000 0.000000
1.241200 0.000000
1.254300 0.000000
1.267400 0.000000
1.280500 0.000000
1.293600 0.000000
1.306800 0.000000
1.319900 0.000000
1.333000 0.000000
1.346100 0.000000
1.359300 0.000000
1.372400 0.000000
1.385500 0.000000
1.398600 0.000000
1.411800 0.000000
1.424900 0.000000
1.438000 0.000000
1.451100 0.000000
1.464200 0.000000
1.477400 0.000000
1.490500 0.000000
1.503600 0.000000
1.516700 0.000000
1.529900 0.000000
1.543000 0.000000
1.556100 0.000000
1.569200 0.000000
1.582400 0.000000
1.595500 0.000000
1.608600 0.000000
1.621700 0.000000
1.634900 0.000000
1.648000 0.000000
1.661100 0.000000
1.674200 0.000000
1.687300 0.000000
1.700500 0.000000
1.713600 0.000000
1.726700 0.000000
1.739800 0.000000
1.753000 0.000000
1.766100 0.000000
1.779200 0.000000
1.792300 0.000000
1.805500 0.000000
1.818600 0.000000
1.831700 0.000000
1.844800 0.000000
1.857900 0.000000
1.871100 0.000000
1.884200 0.000000
1.897300 0.000000
1.910400 0.000000
1.923600 0.000000
1.936700 0.000000
1.949800 0.000000
1.962900 0.000000
1.976100 0.000000
1.989200 0.000000
2.002300 0.000000
2.015400 0.000000
2.028500 0.000000
2.041700 0.000000
2.054800 0.000000
2.067900 0.000000
2.081000 0.000000
2.094200 0.000000
2.107300 0.000000
2.120400 0.000000
2.133500 0.000000
2.146700 0.000000
2.159800 0.000000
2.172900 0.000000
2.186000 0.000000
2.199200 0.000000
2.212300 0.000000
2.225400 0.000000
2.238500 0.000000
2.251600 0.000000
2.264800 0.000000
2.277900 0.000000
2.291000 0.000000
2.304100 0.000000
2.317300 0.000000
2.330400 0.000000
2.343500 0.000000
2.356600 0.000000
2.369800 0.000000
2.382900 0.000000
2.396000 0.000000
2.409100 0.000000
2.422200 0.000000
2.435400 0.000000
2.448500 0.000000
2.461600 0.000000
2.474700 0.000000
2.487900 0.000000
2.501000 0.000000
2.514100 0.000000
2.527200 0.000000
2.540400 0.000000
2.553500 0.000000
2.566600 0.000000
2.579700 0.000000
2.592800 0.000000
2.606000 0.000000
2.619100 0.000000
2.632200 0.000000
2.645300 0.000000
2.658500 0.000000
2.671600 0.000000
2.684700 0.000000
2.697800 0.000000
2.711000 0.000000
2.724100 0.000000
2.737200 0.000000
2.750300 0.000000
2.763500 0.000000
2.776600 0.000000
2.789700 0.000000
2.802800 0.000000
2.815900 0.000000
2.829100 0.000000
2.842200 0.000000
2.855300 0.000000
2.868400 0.000000
2.881600 0.000000
2.894700 0.000000
2.907800 0.000000
2.920900 0.000000
2.934100 0.000000
2.947200 0.000000
2.960300 0.000000
2.973400 0.000000
2.986500 0.000000
2.999700 0.000000
3.012800 0.000000
3.025900 0.000000
3.039000 0.000000
3.052200 0.000000
3.065300 0.000000
3.078400 0.000000
3.091500 0.000000
3.104700 0.000000
3.117800 0.000000
3.130900 0.000000
3.144000 0.000000
3.157100 0.000000
3.170300 0.000000
3.183400 7.557500
3.196500 12.927000
3.209600 27.092700
3.222800 27.940400
3.235900 31.736400
3.249000 22.495900
3.262100 12.507500
3.275300 11.439300
3.288400 9.923900
3.301500 10.915900
3.314600 13.302800
3.327800 15.949600
3.340900 16.809200
3.354000 19.861800
3.367100 22.549200
3.380200 17.918100
3.393400 11.982600
3.406500 6.674200
3.419600 2.797300
3.432700 1.992000
3.445900 2.181800
3.459000 2.922600
3.472100 4.214500
3.485200 6.016300
3.498400 10.449100
3.511500 16.623600
3.524600 20.419600
3.537700 19.555500
3.550800 23.015100
3.564000 24.562400
3.577100 18.714200
3.590200 7.116100
3.603300 1.971600
3.616500 2.693300
3.629600 4.824600
3.642700 7.741100
3.655800 12.185900
3.669000 18.445500
3.682100 22.879600
3.695200 23.523600
3.708300 18.366800
3.721400 14.706900
3.734600 11.299800
3.747700 11.293300
3.760800 4.919400
3.773900 2.843000
3.787100 3.732000
3.800200 4.827200
3.813300 6.141600
3.826400 7.828400
3.839600 17.398200
3.852700 22.086800
3.865800 16.442200
3.878900 14.143400
3.892100 11.615200
3.905200 9.261400
3.918300 8.036400
3.931400 10.064300
3.944500 11.745300
3.957700 13.957200
3.970800 15.150600
3.983900 15.436600
3.997000 15.195300
4.010200 15.014200
4.023300 14.888600
4.036400 14.903700
4.049500 11.886600
4.062700 11.348700
4.075800 13.240500
4.088900 14.380300
4.102000 13.029700
4.115100 17.617600
4.128300 18.737100
4.141400 19.572200
4.154500 15.723400
4.167600 12.115600
4.180800 9.699800
4.193900 8.363200
4.207000 7.701200
4.220100 7.459900
4.233300 7.208500
4.246400 7.091700
4.259500 7.835400
4.272600 10.931400
4.285700 13.083300
4.298900 14.908500
4.312000 17.644900
4.325100 17.676700
4.338200 20.062400
4.351400 24.277700
4.364500 11.038500
4.377600 4.613600
4.390700 5.160700
4.403900 7.843000
4.417000 14.096500
4.430100 19.756900
4.443200 19.974700
4.456400 19.931600
4.469500 19.911700
4.482600 20.170700
4.495700 12.994900
4.508800 9.935100
4.522000 8.700900
4.535100 13.664600
4.548200 29.257600
4.561300 32.967200
4.574500 26.882500
4.587600 17.231800
4.600700 9.250900
4.613800 9.120800
4.627000 9.550800
4.640100 10.684300
4.653200 12.589500
4.666300 15.273700
4.679400 18.104400
4.692600 12.475100
4.705700 11.056400
4.718800 10.222300
4.731900 14.862200
4.745100 17.160700
4.758200 18.711900
4.771300 20.279400
4.784400 21.758700
4.797600 22.897800
4.810700 21.780600
4.823800 15.933300
4.836900 17.730000
4.850000 20.539000
4.863200 21.555600
4.876300 22.394500
4.889400 24.337100
4.902500 24.073500
4.915700 22.713600
4.928800 21.272700
4.941900 18.849600
4.955000 15.970800
4.968200 13.523100
4.981300 11.802600
4.994400 10.319900
5.007500 8.861200
5.020700 9.015900
5.033800 19.186500
5.046900 27.305400
5.060000 20.604200
5.073100 17.675700
5.086300 16.097300
5.099400 12.400700
5.112500 16.655100
5.125600 15.239300
5.138800 23.052800
5.151900 24.919800
5.165000 25.368600
5.178100 18.359700
5.191300 11.134200
5.204400 7.693800
5.217500 8.867300
5.230600 13.920000
5.243700 17.640200
5.256900 18.824600
5.270000 18.299200
5.283100 18.282200
5.296200 17.015200
5.309400 17.370500
5.322500 15.990000
5.335600 6.212600
5.348700 3.234100
5.361900 4.067300
5.375000 6.298700
5.388100 8.544300
5.401200 10.377300
5.414300 11.808800
5.427500 12.822900
5.440600 12.756200
5.453700 12.440400
5.466800 11.137400
5.480000 9.840600
5.493100 8.753800
5.506200 7.888800
5.519300 8.588900
5.532500 11.608600
5.545600 4.619400
5.558700 5.292300
5.571800 5.572600
5.585000 5.821900
5.598100 6.004100
5.611200 6.243900
5.624300 6.509600
5.637400 6.712900
5.650600 6.865200
5.663700 7.023000
5.676800 7.288700
5.689900 7.722800
5.703100 8.434800
5.716200 9.624900
5.729300 11.265700
5.742400 13.033700
5.755600 11.762100
5.768700 13.207100
5.781800 11.056400
5.794900 8.438000
5.808000 5.437100
5.821200 1.550200
5.834300 0.322800
5.847400 0.000000
5.860500 0.000000
5.873700 0.000000
5.886800 0.000000
5.899900 0.000000
5.913000 0.000000
5.926200 0.000000
5.939300 0.000000
5.952400 0.000000
5.965500 0.000000
5.978600 0.000000
5.991800 0.000000
6.004900 0.000000
6.018000 0.000000
6.031100 0.000000
6.044300 0.000000
6.057400 0.000000
6.070500 0.000000
6.083600 0.000000
6.096800 0.000000
6.109900 1.309500
6.123000 6.021200
6.136100 10.799000
6.149300 18.229700
6.162400 19.375100
6.175500 21.818200
6.188600 20.047100
6.201700 16.062800
6.214900 12.464300
6.228000 9.727700
6.241100 7.410000
6.254200 5.055100
6.267400 3.617900
6.280500 0.000000
6.293600 0.000000
6.306700 0.000000
6.319900 0.000000
6.333000 0.000000
6.346100 0.002600
6.359200 0.096300
6.372300 0.244500
6.385500 0.447000
6.398600 0.703900
6.411700 1.015200
6.424800 1.380900
6.438000 1.801000
6.451100 2.275400
6.464200 4.396200
6.477300 8.562800
6.490500 12.247400
6.503600 15.718400
6.516700 13.327000
6.529800 12.006000
6.542900 11.668600
6.556100 11.243200
6.569200 10.412300
6.582300 9.638900
6.595400 9.879000
6.608600 6.857200
6.621700 6.309600
6.634800 5.400200
6.647900 3.948800
6.661100 2.340300
6.674200 0.651900
6.687300 0.000000
6.700400 0.000000
6.713600 0.000000
6.726700 0.000000
6.739800 0.000000
6.752900 0.000000
6.766000 0.000000
6.779200 0.000000
6.792300 0.000000
6.805400 0.000000
6.818500 0.000000
6.831700 0.000000
6.844800 0.000100
6.857900 0.002000
6.871000 0.006400
6.884200 0.013200
6.897300 0.022600
6.910400 0.034400
6.923500 0.048600
6.936600 0.065400
6.949800 0.084600
6.962900 0.106200
6.976000 0.130400
6.989100 0.157000
7.002300 0.186000
7.015400 0.217600
7.028500 0.251600
7.041600 0.288100
7.054800 0.327000
7.067900 0.368500
7.081000 0.412400
7.094100 0.458700
7.107200 0.507500
7.120400 0.558800
7.133500 0.612600
7.146600 0.668800
7.159700 0.727500
7.172900 0.788700
7.186000 1.010900
7.199100 1.510500
7.212200 2.014800
7.225400 2.401600
7.238500 2.767500
7.251600 3.166400
7.264700 3.613000
7.277900 4.151800
7.291000 4.948700
7.304100 5.541600
7.317200 6.117900
7.330300 6.692500
7.343500 7.265500
7.356600 7.836900
7.369700 8.406700
7.382800 8.619200
7.396000 8.232900
7.409100 7.375200
7.422200 6.407300
7.435300 6.130900
7.448500 5.994100
7.461600 5.993000
7.474700 6.139100
7.487800 6.631300
7.500900 7.647300
7.514100 6.634900
7.527200 6.547900
7.540300 6.476900
7.553400 6.431100
7.566600 6.465700
7.579700 6.589700
7.592800 6.802300
7.605900 6.765200
7.619100 6.754800
7.632200 6.730300
7.645300 6.755000
7.658400 6.837300
7.671500 7.111000
7.684700 7.664200
7.697800 7.951100
7.710900 7.939000
7.724000 7.635000
7.737200 7.141800
7.750300 6.729800
7.763400 6.549100
7.776500 6.501100
7.789700 6.544300
7.802800 6.716700
7.815900 6.982800
7.829000 7.306400
7.842200 7.658200
7.855300 8.030700
7.868400 8.426900
7.881500 8.876000
7.894600 9.410100
7.907800 9.886300
7.920900 10.567900
7.934000 12.904500
7.947100 12.059000
7.960300 13.347000
7.973400 13.077100
7.986500 12.687100
7.999600 12.176900
8.012800 10.521200
8.025900 10.014200
8.039000 9.955400
8.052100 9.936000
8.065200 11.696100
8.078400 12.868300
8.091500 11.311500
8.104600 11.804600
8.117700 11.790700
8.130900 10.989600
8.144000 10.375400
8.157100 10.285600
8.170200 10.096000
8.183400 9.934200
8.196500 10.201200
8.209600 11.586600
8.222700 12.668100
8.235800 12.645100
8.249000 11.959200
8.262100 10.917200
8.275200 10.171100
8.288300 9.982200
8.301500 10.067000
8.314600 10.452800
8.327700 11.020500
8.340800 11.413300
8.354000 11.608700
8.367100 11.613700
8.380200 11.622800
8.393300 11.590800
8.406500 11.332400
8.419600 10.431600
8.432700 10.194900
8.445800 9.999000
8.458900 9.685800
8.472100 9.515900
8.485200 8.877800
8.498300 7.971100
8.511400 7.792900
8.524600 7.735800
8.537700 7.182200
8.550800 6.730400
8.563900 7.410900
8.577100 9.696600
8.590200 11.694500
8.603300 13.173500
8.616400 14.003400
8.629500 14.501600
8.642700 15.008800
8.655800 14.361400
8.668900 13.566000
8.682000 11.776100
8.695200 11.260400
8.708300 9.819000
8.721400 10.254500
8.734500 13.412600
8.747700 18.109500
8.760800 17.246000
8.773900 18.012400
8.787000 17.167000
8.800100 15.201100
8.813300 13.388200
8.826400 12.223900
8.839500 11.087400
8.852600 11.332200
8.865800 12.926900
8.878900 15.686800
8.892000 16.140600
8.905100 18.276800
8.918300 19.138200
8.931400 18.143500
8.944500 20.925000
8.957600 19.572400
8.970800 18.682600
8.983900 17.771900
8.997000 16.889400
9.010100 16.316200
9.023200 16.083000
9.036400 15.852700
9.049500 15.565600
9.062600 15.072200
9.075700 14.749000
9.088900 15.528700
9.102000 15.291800
9.115100 13.690400
9.128200 12.653600
9.141400 11.595100
9.154500 14.195500
9.167600 13.241900
9.180700 13.291700
9.193800 12.793800
9.207000 11.837200
9.220100 10.913900
9.233200 10.789500
9.246300 9.855100
9.259500 9.446900
9.272600 9.687100
9.285700 9.988200
9.298800 10.326900
9.312000 10.706300
9.325100 11.126400
9.338200 11.560200
9.351300 11.496300
9.364400 11.599700
9.377600 11.741900
9.390700 11.988100
9.403800 12.296100
9.416900 12.665700
9.430100 12.710800
9.443200 11.780500
9.456300 11.588200
9.469400 13.531900
9.482600 12.056500
9.495700 11.439100
9.508800 11.372200
9.521900 11.414100
9.535100 11.477000
9.548200 11.508200
9.561300 11.490700
9.574400 12.109300
9.587500 11.063400
9.600700 11.864100
9.613800 13.830500
9.626900 21.505600
9.640000 22.712100
9.653200 22.102400
9.666300 20.971300
9.679400 16.442800
9.692500 12.559400
9.705700 11.476900
9.718800 12.096500
9.731900 12.194600
9.745000 12.460700
9.758100 12.783900
9.771300 13.180700
9.784400 14.011500
9.797500 15.362800
9.810600 19.878600
9.823800 12.684100
9.836900 11.405800
9.850000 10.438600
9.863100 9.303100
9.876300 7.641300
9.889400 7.046700
9.902500 6.868100
9.915600 7.196400
9.928700 7.724000
9.941900 8.661100
9.955000 9.700000
9.968100 11.716800
9.981200 12.172400
9.994400 13.380600
10.007500 17.964900
10.020600 21.316700
10.033700 17.638600
10.046900 10.274400
10.060000 6.577900
10.073100 3.995100
10.086200 2.064700
10.099400 1.083500
10.112500 0.703100
10.125600 0.540100
10.138700 0.398500
10.151800 0.278400
10.165000 0.179800
10.178100 0.102600
10.191200 0.047000
10.204300 0.012800
10.217500 0.000100
10.230600 0.000000
10.243700 0.000000
10.256800 0.000000
10.270000 0.000000
10.283100 0.000000
10.296200 0.000000
10.309300 0.000000
10.322400 0.000000
10.335600 0.000000
10.348700 0.000000
10.361800 0.000000
10.374900 0.000000
10.388100 0.000000
10.401200 0.000000
10.414300 0.000000
10.427400 0.000000
10.440600 0.000000
10.453700 0.000000
10.466800 0.000000
10.479900 0.000000
10.493000 0.000000
10.506200 0.000000
10.519300 0.000000
10.532400 0.000000
10.545500 0.000000
10.558700 0.000000
10.571800 0.000000
10.584900 0.000000
10.598000 0.000000
10.611200 0.000000
10.624300 0.000000
10.637400 0.000000
10.650500 0.000000
10.663700 0.000000
10.676800 0.000000
10.689900 0.000000
10.703000 0.000000
10.716100 0.000000
10.729300 0.000000
10.742400 0.000000
10.755500 0.000000
10.768600 0.000000
10.781800 0.000000
10.794900 0.000000
10.808000 0.000000
10.821100 0.000000
10.834300 0.000000
10.847400 0.000000
10.860500 0.000000
10.873600 0.000000
10.886700 0.000000
10.899900 0.000000
10.913000 0.000000
10.926100 0.000000
10.939200 0.000000
10.952400 0.000000
10.965500 0.000000
10.978600 0.000000
10.991700 0.000000
11.004900 0.000000
11.018000 0.000000
11.031100 0.000000
11.044200 0.000000
11.057300 0.000000
11.070500 0.000000
11.083600 0.000000
11.096700 0.000000
11.109800 0.000000
11.123000 0.000000
11.136100 0.000000
11.149200 0.000000
11.162300 0.000000
11.175500 0.000000
11.188600 0.000000
11.201700 0.000000
11.214800 0.000000
11.228000 0.000000
11.241100 0.000000
11.254200 0.000000
11.267300 0.000000
11.280400 0.000000
11.293600 0.000000
11.306700 0.000000
11.319800 0.000000
11.332900 0.000000
11.346100 0.000000
11.359200 0.000000
11.372300 0.000000
11.385400 0.000000
11.398600 0.000000
11.411700 0.000000
e
