set title 'mp-1009460 - Density of States'
set xlabel 'Energy (eV)'
set ylabel 'DOS (states/eV)'
set grid
set xrange [-10:10]
set yrange [0:7.541]
set xzeroaxis lt -1
set terminal png size 800,600
set output 'mp-1009460_dos_gnuplot.png'
plot '-' using 1:2 with lines title 'DOS'
-28.912100 0.000000
-28.881100 0.000000
-28.850000 0.000000
-28.818900 0.000000
-28.787800 0.000000
-28.756700 0.000000
-28.725600 0.000000
-28.694600 0.000000
-28.663500 0.000000
-28.632400 0.000000
-28.601300 0.000000
-28.570200 0.000000
-28.539100 0.000000
-28.508000 0.000000
-28.477000 0.000000
-28.445900 0.000000
-28.414800 0.000000
-28.383700 0.000000
-28.352600 0.000000
-28.321500 0.000000
-28.290400 0.000000
-28.259400 0.000000
-28.228300 0.000000
-28.197200 0.000000
-28.166100 0.000000
-28.135000 0.000000
-28.103900 0.000000
-28.072900 0.000000
-28.041800 0.000000
-28.010700 0.000000
-27.979600 0.000000
-27.948500 0.000000
-27.917400 0.000000
-27.886300 0.000000
-27.855300 0.000000
-27.824200 0.000000
-27.793100 0.000000
-27.762000 0.000000
-27.730900 0.000000
-27.699800 0.000000
-27.668700 0.000000
-27.637700 0.000000
-27.606600 0.000000
-27.575500 0.000000
-27.544400 0.000000
-27.513300 0.000000
-27.482200 0.000000
-27.451200 0.000000
-27.420100 0.000000
-27.389000 0.000000
-27.357900 0.000000
-27.326800 0.000000
-27.295700 0.000000
-27.264600 0.000000
-27.233600 0.000000
-27.202500 0.000000
-27.171400 0.000000
-27.140300 0.000000
-27.109200 0.000000
-27.078100 0.000000
-27.047000 0.000000
-27.016000 0.000000
-26.984900 0.000000
-26.953800 0.000000
-26.922700 0.000000
-26.891600 0.000000
-26.860500 0.000000
-26.829500 0.000000
-26.798400 0.000000
-26.767300 0.000000
-26.736200 0.000000
-26.705100 0.000000
-26.674000 0.000000
-26.642900 0.000000
-26.611900 0.000000
-26.580800 0.000000
-26.549700 0.000000
-26.518600 0.000000
-26.487500 0.000000
-26.456400 0.000000
-26.425300 0.000000
-26.394300 0.000000
-26.363200 0.000000
-26.332100 0.000000
-26.301000 0.000000
-26.269900 0.000000
-26.238800 0.000000
-26.207800 0.000000
-26.176700 0.000000
-26.145600 0.000000
-26.114500 0.000000
-26.083400 0.395600
-26.052300 5.339800
-26.021200 10.198000
-25.990200 15.496900
-25.959100 20.446000
-25.928000 22.115000
-25.896900 22.555800
-25.865800 24.600000
-25.834700 21.960500
-25.803600 13.920100
-25.772600 10.578000
-25.741500 18.273700
-25.710400 21.093600
-25.679300 24.463600
-25.648200 21.679500
-25.617100 19.518000
-25.586100 21.856300
-25.555000 25.265200
-25.523900 19.869700
-25.492800 19.730000
-25.461700 16.623400
-25.430600 15.591600
-25.399500 5.833200
-25.368500 8.453900
-25.337400 11.492200
-25.306300 16.483100
-25.275200 20.069700
-25.244100 19.034900
-25.213000 11.770700
-25.181900 13.320100
-25.150900 8.590800
-25.119800 5.421000
-25.088700 130.038900
-25.057600 24.609700
-25.026500 6.051100
-24.995400 0.000000
-24.964400 0.000000
-24.933300 0.000000
-24.902200 0.000000
-24.871100 0.000000
-24.840000 0.000000
-24.808900 0.000000
-24.777800 0.000000
-24.746800 0.000000
-24.715700 0.000000
-24.684600 0.000000
-24.653500 0.000000
-24.622400 0.000000
-24.591300 0.000000
-24.560200 0.000000
-24.529200 0.000000
-24.498100 0.000000
-24.467000 0.000000
-24.435900 0.000000
-24.404800 0.000000
-24.373700 0.000000
-24.342700 0.000000
-24.311600 0.000000
-24.280500 0.000000
-24.249400 0.000000
-24.218300 0.000000
-24.187200 0.000000
-24.156100 0.000000
-24.125100 0.000000
-24.094000 0.000000
-24.062900 0.000000
-24.031800 0.000000
-24.000700 0.000000
-23.969600 0.000000
-23.938500 0.000000
-23.907500 0.000000
-23.876400 0.000000
-23.845300 0.000000
-23.814200 0.000000
-23.783100 0.000000
-23.752000 0.000000
-23.721000 0.000000
-23.689900 0.000000
-23.658800 0.000000
-23.627700 0.000000
-23.596600 0.000000
-23.565500 0.000000
-23.534400 0.000000
-23.503400 0.000000
-23.472300 0.000000
-23.441200 0.000000
-23.410100 0.000000
-23.379000 0.000000
-23.347900 0.000000
-23.316800 0.000000
-23.285800 0.000000
-23.254700 0.000000
-23.223600 0.000000
-23.192500 0.000000
-23.161400 0.000000
-23.130300 0.000000
-23.099300 0.000000
-23.068200 0.000000
-23.037100 0.000000
-23.006000 0.000000
-22.974900 0.000000
-22.943800 0.000000
-22.912700 0.000000
-22.881700 0.000000
-22.850600 0.000000
-22.819500 0.000000
-22.788400 0.000000
-22.757300 0.000000
-22.726200 0.000000
-22.695100 0.000000
-22.664100 0.000000
-22.633000 0.000000
-22.601900 0.000000
-22.570800 0.000000
-22.539700 0.000000
-22.508600 0.000000
-22.477600 0.000000
-22.446500 0.000000
-22.415400 0.000000
-22.384300 0.000000
-22.353200 0.000000
-22.322100 0.000000
-22.291000 0.000000
-22.260000 0.000000
-22.228900 0.000000
-22.197800 0.000000
-22.166700 0.000000
-22.135600 0.000000
-22.104500 0.000000
-22.073400 0.000000
-22.042400 0.000000
-22.011300 0.000000
-21.980200 0.000000
-21.949100 0.000000
-21.918000 0.000000
-21.886900 0.000000
-21.855900 0.000000
-21.824800 0.000000
-21.793700 0.000000
-21.762600 0.000000
-21.731500 0.000000
-21.700400 0.000000
-21.669300 0.000000
-21.638300 0.000000
-21.607200 0.000000
-21.576100 0.000000
-21.545000 0.000000
-21.513900 0.000000
-21.482800 0.000000
-21.451700 0.000000
-21.420700 0.000000
-21.389600 0.000000
-21.358500 0.000000
-21.327400 0.000000
-21.296300 0.000000
-21.265200 0.000000
-21.234200 0.000000
-21.203100 0.000000
-21.172000 0.000000
-21.140900 0.000000
-21.109800 0.000000
-21.078700 0.000000
-21.047600 0.000000
-21.016600 0.000000
-20.985500 0.000000
-20.954400 0.000000
-20.923300 0.000000
-20.892200 0.000000
-20.861100 0.000000
-20.830000 0.000000
-20.799000 0.000000
-20.767900 0.000000
-20.736800 0.000000
-20.705700 0.000000
-20.674600 0.000000
-20.643500 0.000000
-20.612500 0.000000
-20.581400 0.000000
-20.550300 0.000000
-20.519200 0.000000
-20.488100 0.000000
-20.457000 0.000000
-20.425900 0.000000
-20.394900 0.000000
-20.363800 0.000000
-20.332700 0.000000
-20.301600 0.000000
-20.270500 0.000000
-20.239400 0.000000
-20.208300 0.000000
-20.177300 0.000000
-20.146200 0.000000
-20.115100 0.000000
-20.084000 0.000000
-20.052900 0.000000
-20.021800 0.000000
-19.990800 0.000000
-19.959700 0.000000
-19.928600 0.000000
-19.897500 0.000000
-19.866400 0.000000
-19.835300 0.000000
-19.804200 0.000000
-19.773200 0.000000
-19.742100 0.000000
-19.711000 0.000000
-19.679900 0.000000
-19.648800 0.000000
-19.617700 0.000000
-19.586600 0.000000
-19.555600 0.000000
-19.524500 0.000000
-19.493400 0.000000
-19.462300 0.000000
-19.431200 0.000000
-19.400100 0.000000
-19.369000 0.000000
-19.338000 0.000000
-19.306900 0.000000
-19.275800 0.000000
-19.244700 0.000000
-19.213600 0.000000
-19.182500 0.000000
-19.151500 0.000000
-19.120400 0.000000
-19.089300 0.000000
-19.058200 0.000000
-19.027100 0.000000
-18.996000 0.000000
-18.964900 0.000000
-18.933900 0.000000
-18.902800 0.000000
-18.871700 0.000000
-18.840600 0.000000
-18.809500 0.000000
-18.778400 0.000000
-18.747300 0.000000
-18.716300 0.000000
-18.685200 0.000000
-18.654100 0.000000
-18.623000 0.000000
-18.591900 0.000000
-18.560800 0.000000
-18.529800 0.000000
-18.498700 0.000000
-18.467600 0.000000
-18.436500 0.000000
-18.405400 0.000000
-18.374300 0.000000
-18.343200 0.000000
-18.312200 0.000000
-18.281100 0.000000
-18.250000 0.000000
-18.218900 0.000000
-18.187800 0.000000
-18.156700 0.000000
-18.125600 0.000000
-18.094600 0.000000
-18.063500 0.000000
-18.032400 0.000000
-18.001300 0.000000
-17.970200 0.000000
-17.939100 0.000000
-17.908100 0.000000
-17.877000 0.000000
-17.845900 0.000000
-17.814800 0.000000
-17.783700 0.000000
-17.752600 0.000000
-17.721500 0.000000
-17.690500 0.000000
-17.659400 0.000000
-17.628300 0.000000
-17.597200 0.000000
-17.566100 0.000000
-17.535000 0.000000
-17.503900 0.000000
-17.472900 0.000000
-17.441800 0.000000
-17.410700 0.000000
-17.379600 0.000000
-17.348500 0.000000
-17.317400 0.000000
-17.286400 0.000000
-17.255300 0.000000
-17.224200 0.000000
-17.193100 0.000000
-17.162000 0.000000
-17.130900 0.000000
-17.099800 0.000000
-17.068800 0.000000
-17.037700 0.000000
-17.006600 0.000000
-16.975500 0.000000
-16.944400 0.000000
-16.913300 0.000000
-16.882200 0.000000
-16.851200 0.000000
-16.820100 0.000000
-16.789000 0.000000
-16.757900 0.000000
-16.726800 0.000000
-16.695700 0.000000
-16.664700 0.000000
-16.633600 0.000000
-16.602500 0.000000
-16.571400 0.000000
-16.540300 0.000000
-16.509200 0.000000
-16.478100 0.000000
-16.447100 0.000000
-16.416000 0.000000
-16.384900 0.000000
-16.353800 0.000000
-16.322700 0.000000
-16.291600 0.000000
-16.260500 0.000000
-16.229500 0.000000
-16.198400 0.000000
-16.167300 0.000000
-16.136200 0.000000
-16.105100 0.000000
-16.074000 0.000000
-16.043000 0.000000
-16.011900 0.000000
-15.980800 0.000000
-15.949700 0.000000
-15.918600 0.000000
-15.887500 0.000000
-15.856400 0.000000
-15.825400 0.000000
-15.794300 0.000000
-15.763200 0.000000
-15.732100 0.000000
-15.701000 0.000000
-15.669900 0.000000
-15.638800 0.000000
-15.607800 0.000000
-15.576700 0.000000
-15.545600 0.000000
-15.514500 0.000000
-15.483400 0.000000
-15.452300 0.000000
-15.421300 0.000000
-15.390200 0.000000
-15.359100 0.000000
-15.328000 0.000000
-15.296900 0.000000
-15.265800 0.000000
-15.234700 0.000000
-15.203700 0.000000
-15.172600 0.000000
-15.141500 0.000000
-15.110400 0.000000
-15.079300 0.000000
-15.048200 0.000000
-15.017100 0.000000
-14.986100 0.000000
-14.955000 0.000000
-14.923900 0.000000
-14.892800 0.000000
-14.861700 0.000000
-14.830600 0.000000
-14.799600 0.000000
-14.768500 0.000000
-14.737400 0.000000
-14.706300 0.000000
-14.675200 0.000000
-14.644100 0.000000
-14.613000 0.000000
-14.582000 0.000000
-14.550900 0.000000
-14.519800 0.000000
-14.488700 0.000000
-14.457600 0.000000
-14.426500 0.000000
-14.395400 0.000000
-14.364400 0.000000
-14.333300 0.000000
-14.302200 0.000000
-14.271100 0.000000
-14.240000 0.000000
-14.208900 0.000000
-14.177900 0.000000
-14.146800 0.000000
-14.115700 0.000000
-14.084600 0.000000
-14.053500 0.000000
-14.022400 0.000000
-13.991300 0.000000
-13.960300 0.000000
-13.929200 0.000000
-13.898100 0.000000
-13.867000 0.000000
-13.835900 0.000000
-13.804800 0.000000
-13.773700 0.000000
-13.742700 0.000000
-13.711600 0.000000
-13.680500 0.000000
-13.649400 0.000000
-13.618300 0.000000
-13.587200 0.000000
-13.556200 0.000000
-13.525100 0.000000
-13.494000 0.000000
-13.462900 0.000000
-13.431800 0.000000
-13.400700 0.000000
-13.369600 0.000000
-13.338600 0.000000
-13.307500 0.000000
-13.276400 0.000000
-13.245300 0.000000
-13.214200 0.000000
-13.183100 0.000000
-13.152000 0.000000
-13.121000 0.000000
-13.089900 0.000000
-13.058800 0.000000
-13.027700 0.000000
-12.996600 0.000000
-12.965500 0.000000
-12.934500 0.000000
-12.903400 0.000000
-12.872300 0.000000
-12.841200 0.000000
-12.810100 0.000000
-12.779000 0.000000
-12.747900 0.000000
-12.716900 0.000000
-12.685800 0.000000
-12.654700 0.000000
-12.623600 0.000000
-12.592500 0.000000
-12.561400 0.000000
-12.530300 0.000000
-12.499300 0.000000
-12.468200 0.000000
-12.437100 0.000000
-12.406000 0.000000
-12.374900 0.000000
-12.343800 0.000000
-12.312800 0.000000
-12.281700 0.000000
-12.250600 0.000000
-12.219500 0.000000
-12.188400 0.000000
-12.157300 0.000000
-12.126200 0.000000
-12.095200 0.000000
-12.064100 0.000000
-12.033000 0.000000
-12.001900 0.000000
-11.970800 0.000000
-11.939700 0.000000
-11.908600 0.000000
-11.877600 0.000000
-11.846500 0.000000
-11.815400 0.000000
-11.784300 0.000000
-11.753200 0.000000
-11.722100 0.000000
-11.691100 0.000000
-11.660000 0.000000
-11.628900 0.000000
-11.597800 0.000000
-11.566700 0.000000
-11.535600 0.000000
-11.504500 0.000000
-11.473500 0.000000
-11.442400 0.000000
-11.411300 0.000000
-11.380200 0.000000
-11.349100 0.000000
-11.318000 0.000000
-11.286900 0.000000
-11.255900 0.000000
-11.224800 0.000000
-11.193700 0.000000
-11.162600 0.000000
-11.131500 0.000000
-11.100400 0.000000
-11.069400 0.000000
-11.038300 0.000000
-11.007200 0.000000
-10.976100 0.000000
-10.945000 0.000000
-10.913900 0.000000
-10.882800 0.000000
-10.851800 0.000000
-10.820700 0.000000
-10.789600 0.000000
-10.758500 0.000000
-10.727400 0.000000
-10.696300 0.000000
-10.665200 0.000000
-10.634200 0.000000
-10.603100 0.000000
-10.572000 0.000000
-10.540900 0.000000
-10.509800 0.000000
-10.478700 0.000000
-10.447700 0.000000
-10.416600 0.000000
-10.385500 0.000000
-10.354400 0.000000
-10.323300 0.000000
-10.292200 0.000000
-10.261100 0.000000
-10.230100 0.000000
-10.199000 0.000000
-10.167900 0.000000
-10.136800 0.000000
-10.105700 0.000000
-10.074600 0.000000
-10.043500 0.000000
-10.012500 0.000000
-9.981400 0.000000
-9.950300 0.000000
-9.919200 0.000000
-9.888100 0.000000
-9.857000 0.000000
-9.826000 0.000000
-9.794900 0.000000
-9.763800 0.000000
-9.732700 0.000000
-9.701600 0.000000
-9.670500 0.000000
-9.639400 0.000000
-9.608400 0.000000
-9.577300 0.000000
-9.546200 0.000000
-9.515100 0.000000
-9.484000 0.000000
-9.452900 0.000000
-9.421800 0.000000
-9.390800 0.000000
-9.359700 0.000000
-9.328600 0.000000
-9.297500 0.000000
-9.266400 0.000000
-9.235300 0.000000
-9.204300 0.000000
-9.173200 0.000000
-9.142100 0.000000
-9.111000 0.000000
-9.079900 0.000000
-9.048800 0.000000
-9.017700 0.000000
-8.986700 0.000000
-8.955600 0.000000
-8.924500 0.000000
-8.893400 0.000000
-8.862300 0.000000
-8.831200 0.000000
-8.800100 0.000000
-8.769100 0.000000
-8.738000 0.000000
-8.706900 0.000000
-8.675800 0.000000
-8.644700 0.000000
-8.613600 0.000000
-8.582600 0.000000
-8.551500 0.000000
-8.520400 0.000000
-8.489300 0.000000
-8.458200 0.000000
-8.427100 0.000000
-8.396000 0.000000
-8.365000 0.000000
-8.333900 0.000000
-8.302800 0.000000
-8.271700 0.000000
-8.240600 0.000000
-8.209500 0.000000
-8.178400 0.000000
-8.147400 0.000000
-8.116300 0.000000
-8.085200 0.000000
-8.054100 0.000000
-8.023000 0.000000
-7.991900 0.000000
-7.960900 0.000000
-7.929800 0.000000
-7.898700 0.000000
-7.867600 0.000000
-7.836500 0.000000
-7.805400 0.000000
-7.774300 0.000000
-7.743300 0.000000
-7.712200 0.000000
-7.681100 0.000000
-7.650000 0.000000
-7.618900 0.000000
-7.587800 0.000000
-7.556700 0.000000
-7.525700 0.000000
-7.494600 0.000000
-7.463500 0.000000
-7.432400 0.000000
-7.401300 0.000000
-7.370200 0.000000
-7.339200 0.000000
-7.308100 0.000000
-7.277000 0.000000
-7.245900 0.000000
-7.214800 0.000000
-7.183700 0.000000
-7.152600 0.000000
-7.121600 0.000000
-7.090500 0.000000
-7.059400 0.000000
-7.028300 0.000000
-6.997200 0.000000
-6.966100 0.000000
-6.935000 0.000000
-6.904000 0.000000
-6.872900 0.000000
-6.841800 0.000000
-6.810700 0.000000
-6.779600 0.000000
-6.748500 0.000000
-6.717400 0.000000
-6.686400 0.000000
-6.655300 0.000000
-6.624200 0.000000
-6.593100 0.000000
-6.562000 0.000000
-6.530900 0.000000
-6.499900 0.000000
-6.468800 0.000000
-6.437700 0.000000
-6.406600 0.000000
-6.375500 0.000000
-6.344400 0.000000
-6.313300 0.000000
-6.282300 0.000000
-6.251200 0.000000
-6.220100 0.000000
-6.189000 0.000000
-6.157900 0.000000
-6.126800 0.000000
-6.095700 0.000000
-6.064700 0.000000
-6.033600 0.000000
-6.002500 0.000000
-5.971400 0.000000
-5.940300 0.000000
-5.909200 0.000000
-5.878200 0.000000
-5.847100 0.000000
-5.816000 0.000000
-5.784900 0.000000
-5.753800 0.000000
-5.722700 0.000000
-5.691600 0.000000
-5.660600 0.000000
-5.629500 0.000000
-5.598400 0.000000
-5.567300 0.000000
-5.536200 0.000000
-5.505100 0.000000
-5.474000 0.000000
-5.443000 0.000000
-5.411900 0.000000
-5.380800 0.000000
-5.349700 0.000000
-5.318600 0.000000
-5.287500 0.000000
-5.256500 0.000000
-5.225400 0.000000
-5.194300 0.000000
-5.163200 0.000000
-5.132100 0.000000
-5.101000 0.000000
-5.069900 0.000000
-5.038900 0.000000
-5.007800 0.000000
-4.976700 0.000000
-4.945600 0.000000
-4.914500 0.000000
-4.883400 0.000000
-4.852300 0.000000
-4.821300 0.000000
-4.790200 0.000000
-4.759100 0.000000
-4.728000 0.000000
-4.696900 0.000000
-4.665800 0.000000
-4.634800 0.000000
-4.603700 0.000000
-4.572600 0.000000
-4.541500 0.000000
-4.510400 0.000000
-4.479300 0.000000
-4.448200 0.000000
-4.417200 0.000000
-4.386100 0.000000
-4.355000 0.000000
-4.323900 0.000000
-4.292800 0.000000
-4.261700 0.000000
-4.230600 0.000000
-4.199600 0.000000
-4.168500 0.000000
-4.137400 0.000000
-4.106300 0.000000
-4.075200 0.000000
-4.044100 0.000000
-4.013100 0.000000
-3.982000 0.000000
-3.950900 0.000000
-3.919800 0.000000
-3.888700 0.000000
-3.857600 0.000000
-3.826500 0.000000
-3.795500 0.000000
-3.764400 0.000000
-3.733300 0.000000
-3.702200 0.000000
-3.671100 0.000000
-3.640000 0.000000
-3.608900 0.000000
-3.577900 0.000000
-3.546800 0.000000
-3.515700 0.000000
-3.484600 0.000000
-3.453500 0.000000
-3.422400 0.000000
-3.391400 0.000000
-3.360300 0.000000
-3.329200 0.000000
-3.298100 0.000000
-3.267000 0.000000
-3.235900 0.000000
-3.204800 0.000000
-3.173800 0.000000
-3.142700 0.000000
-3.111600 0.000000
-3.080500 0.000000
-3.049400 0.000000
-3.018300 0.000000
-2.987200 0.000000
-2.956200 0.000000
-2.925100 0.000000
-2.894000 0.000000
-2.862900 0.000000
-2.831800 0.000000
-2.800700 0.000000
-2.769700 0.000000
-2.738600 0.000000
-2.707500 0.000000
-2.676400 0.000000
-2.645300 0.000000
-2.614200 0.000000
-2.583100 0.000000
-2.552100 0.000000
-2.521000 0.000000
-2.489900 0.000000
-2.458800 0.000000
-2.427700 0.000000
-2.396600 0.000000
-2.365500 0.002600
-2.334500 0.014600
-2.303400 0.036300
-2.272300 0.066400
-2.241200 0.084700
-2.210100 0.091800
-2.179000 0.093300
-2.148000 0.099100
-2.116900 0.109100
-2.085800 0.119500
-2.054700 0.130200
-2.023600 0.141200
-1.992500 0.151600
-1.961400 0.159300
-1.930400 0.164300
-1.899300 0.167100
-1.868200 0.171400
-1.837100 0.176800
-1.806000 0.183100
-1.774900 0.189700
-1.743800 0.196300
-1.712800 0.203000
-1.681700 0.209600
-1.650600 0.216300
-1.619500 0.223100
-1.588400 0.230400
-1.557300 0.237900
-1.526300 0.244000
-1.495200 0.249100
-1.464100 0.253300
-1.433000 0.258700
-1.401900 0.264200
-1.370800 0.269600
-1.339700 0.275000
-1.308700 0.280300
-1.277600 0.285700
-1.246500 0.291200
-1.215400 0.296900
-1.184300 0.303200
-1.153200 0.309500
-1.122100 0.315900
-1.091100 0.322400
-1.060000 0.328900
-1.028900 0.335500
-0.997800 0.342200
-0.966700 0.348700
-0.935600 0.354700
-0.904600 0.360400
-0.873500 0.366200
-0.842400 0.372100
-0.811300 0.378100
-0.780200 0.384400
-0.749100 0.391000
-0.718000 0.397600
-0.687000 0.404200
-0.655900 0.411000
-0.624800 0.417800
-0.593700 0.424800
-0.562600 0.431700
-0.531500 0.438600
-0.500400 0.445700
-0.469400 0.452800
-0.438300 0.460000
-0.407200 0.467200
-0.376100 0.474400
-0.345000 0.482300
-0.313900 0.491500
-0.282900 0.502200
-0.251800 0.512600
-0.220700 0.523000
-0.189600 0.533800
-0.158500 0.544800
-0.127400 0.574900
-0.096300 0.611200
-0.065300 0.641800
-0.034200 0.648300
-0.003100 0.652800
0.028000 0.655400
0.059100 0.656100
0.090200 0.654900
0.121300 0.651800
0.152300 0.646700
0.183400 0.638300
0.214500 0.662200
0.245600 0.723900
0.276700 0.719600
0.307800 0.658200
0.338800 0.612900
0.369900 0.609100
0.401000 0.610600
0.432100 0.614200
0.463200 0.627000
0.494300 0.651900
0.525400 0.686500
0.556400 0.715600
0.587500 0.759500
0.618600 0.810700
0.649700 0.866500
0.680800 0.899700
0.711900 0.944300
0.743000 0.938300
0.774000 0.950000
0.805100 0.944400
0.836200 0.963600
0.867300 0.981400
0.898400 1.046700
0.929500 1.089800
0.960500 1.133400
0.991600 1.140900
1.022700 1.163500
1.053800 1.185300
1.084900 1.216800
1.116000 1.265700
1.147100 1.336700
1.178100 1.435300
1.209200 1.534900
1.240300 1.655400
1.271400 1.838800
1.302500 1.937100
1.333600 2.017100
1.364700 2.030000
1.395700 2.095600
1.426800 2.247300
1.457900 2.755100
1.489000 3.355300
1.520100 3.145100
1.551200 2.477900
1.582200 2.236500
1.613300 2.081700
1.644400 1.801500
1.675500 1.493700
1.706600 1.338300
1.737700 1.342700
1.768800 1.533700
1.799800 1.847000
1.830900 2.199100
1.862000 2.622600
1.893100 2.531000
1.924200 2.562000
1.955300 2.676900
1.986400 2.636000
2.017400 2.549700
2.048500 2.499500
2.079600 2.346400
2.110700 2.205600
2.141800 2.096600
2.172900 2.029000
2.203900 1.995300
2.235000 1.976500
2.266100 1.961100
2.297200 2.005800
2.328300 2.197700
2.359400 2.067800
2.390500 1.915000
2.421500 1.868900
2.452600 1.850000
2.483700 1.863800
2.514800 1.876900
2.545900 1.904300
2.577000 1.918600
2.608100 2.020900
2.639100 2.154300
2.670200 2.264600
2.701300 2.411100
2.732400 2.595500
2.763500 2.826400
2.794600 3.173700
2.825600 3.742600
2.856700 3.986200
2.887800 3.709900
2.918900 3.597900
2.950000 3.568900
2.981100 3.203600
3.012200 2.933700
3.043200 2.616000
3.074300 2.421300
3.105400 2.286100
3.136500 2.023700
3.167600 1.868700
3.198700 1.944800
3.229800 2.113500
3.260800 2.355400
3.291900 2.753700
3.323000 3.400300
3.354100 5.946700
3.385200 4.994800
3.416300 3.220900
3.447300 2.824400
3.478400 2.939300
3.509500 4.228400
3.540600 3.504200
3.571700 3.539000
3.602800 3.456700
3.633900 3.775700
3.664900 3.658300
3.696000 3.732900
3.727100 3.816800
3.758200 3.860800
3.789300 4.026200
3.820400 4.192000
3.851500 4.393500
3.882500 4.516100
3.913600 4.623100
3.944700 4.694100
3.975800 4.721800
4.006900 4.761400
4.038000 4.825800
4.069000 5.007500
4.100100 5.394500
4.131200 5.105900
4.162300 4.926100
4.193400 4.941600
4.224500 4.791500
4.255600 4.023800
4.286600 4.012200
4.317700 3.566200
4.348800 3.410700
4.379900 2.997400
4.411000 2.808200
4.442100 2.113100
4.473200 1.895800
4.504200 1.655400
4.535300 1.663800
4.566400 2.187500
4.597500 2.619600
4.628600 2.710100
4.659700 2.498100
4.690700 2.459400
4.721800 2.230300
4.752900 2.116500
4.784000 2.125100
4.815100 2.249100
4.846200 2.524000
4.877300 2.618000
4.908300 2.855000
4.939400 2.739700
4.970500 3.003500
5.001600 3.250900
5.032700 3.398600
5.063800 3.370500
5.094900 3.582700
5.125900 3.590100
5.157000 3.754200
5.188100 4.148000
5.219200 3.722100
5.250300 3.372000
5.281400 3.436100
5.312400 3.525400
5.343500 3.582000
5.374600 3.785400
5.405700 3.862700
5.436800 3.801900
5.467900 3.531600
5.499000 3.301700
5.530000 3.128900
5.561100 3.346800
5.592200 3.377900
5.623300 3.532800
5.654400 3.905400
5.685500 4.606800
5.716600 4.133900
5.747600 3.551300
5.778700 3.315700
5.809800 3.411500
5.840900 3.319500
5.872000 3.300300
5.903100 3.279600
5.934200 3.195000
5.965200 3.044900
5.996300 3.274700
6.027400 3.347800
6.058500 3.400900
6.089600 3.287300
6.120700 3.214500
6.151700 4.020200
6.182800 4.929200
6.213900 4.984700
6.245000 5.186100
6.276100 5.464900
6.307200 6.219100
6.338300 6.855900
6.369300 6.055500
6.400400 6.135700
6.431500 5.749600
6.462600 5.876700
6.493700 5.389400
6.524800 5.282100
6.555900 5.462200
6.586900 5.183000
6.618000 4.979000
6.649100 4.137100
6.680200 3.395600
6.711300 2.921000
6.742400 2.741100
6.773400 2.034000
6.804500 1.755500
6.835600 1.571900
6.866700 1.586400
6.897800 1.719400
6.928900 1.799400
6.960000 2.096200
6.991000 3.122200
7.022100 3.187200
7.053200 3.401400
7.084300 3.689100
7.115400 3.086700
7.146500 2.908200
7.177600 2.874400
7.208600 2.992200
7.239700 2.990800
7.270800 2.930800
7.301900 2.602900
7.333000 2.229200
7.364100 2.065800
7.395100 1.920900
7.426200 1.816600
7.457300 1.729600
7.488400 1.591800
7.519500 1.715800
7.550600 1.532900
7.581700 1.440000
7.612700 1.415300
7.643800 1.427900
7.674900 1.450900
7.706000 1.451200
7.737100 1.473000
7.768200 1.484800
7.799300 1.490800
7.830300 1.477300
7.861400 1.540000
7.892500 1.683100
7.923600 1.870400
7.954700 2.108000
7.985800 2.208600
8.016800 2.470400
8.047900 2.839700
8.079000 2.931400
8.110100 2.580800
8.141200 2.357900
8.172300 2.256800
8.203400 2.302400
8.234400 2.331700
8.265500 2.291500
8.296600 2.130500
8.327700 2.031300
8.358800 1.843100
8.389900 1.655000
8.421000 1.577300
8.452000 1.602600
8.483100 1.780600
8.514200 2.067600
8.545300 2.578600
8.576400 2.719000
8.607500 2.762100
8.638500 2.933100
8.669600 2.956200
8.700700 2.966000
8.731800 2.848300
8.762900 2.743200
8.794000 2.706200
8.825100 2.713100
8.856100 2.878700
8.887200 2.914000
8.918300 3.046800
8.949400 2.975600
8.980500 2.965600
9.011600 2.785200
9.042700 2.597400
9.073700 2.465300
9.104800 2.475800
9.135900 2.295800
9.167000 2.334200
9.198100 2.243900
9.229200 2.307600
9.260200 2.363300
9.291300 2.429900
9.322400 2.533500
9.353500 2.656700
9.384600 2.785400
9.415700 2.917400
9.446800 3.125300
9.477800 3.388300
9.508900 3.686900
9.540000 4.156200
9.571100 4.761200
9.602200 5.151800
9.633300 5.174800
9.664400 5.691500
9.695400 5.053300
9.726500 4.899500
9.757600 4.722200
9.788700 4.645500
9.819800 4.437900
9.850900 4.116500
9.881900 3.907500
9.913000 3.427700
9.944100 3.219000
9.975200 3.134300
10.006300 2.883400
10.037400 2.767500
10.068500 2.705400
10.099500 2.642500
10.130600 2.539400
10.161700 2.603800
10.192800 2.607900
10.223900 2.362300
10.255000 2.286400
10.286100 2.285600
10.317100 2.581300
10.348200 2.493600
10.379300 2.438400
10.410400 2.478000
10.441500 2.367900
10.472600 2.805000
10.503600 2.371000
10.534700 2.735400
10.565800 3.548800
10.596900 4.013000
10.628000 4.693100
10.659100 7.091000
10.690200 7.985300
10.721200 7.609400
10.752300 4.984600
10.783400 4.049500
10.814500 3.509400
10.845600 3.173300
10.876700 2.995000
10.907800 2.857300
10.938800 2.764900
10.969900 2.681200
11.001000 2.589800
11.032100 2.462500
11.063200 2.354300
11.094300 2.272300
11.125300 2.237400
11.156400 2.250500
11.187500 2.315300
11.218600 2.390300
11.249700 2.329400
11.280800 2.335800
11.311900 2.347600
11.342900 2.472100
11.374000 2.511300
11.405100 2.519200
11.436200 2.654500
11.467300 2.518000
11.498400 2.547500
11.529500 2.586200
11.560500 2.622100
11.591600 2.654900
11.622700 2.648500
11.653800 2.664300
11.684900 2.646400
11.716000 2.668300
11.747000 2.705400
11.778100 2.603300
11.809200 2.441100
11.840300 2.028300
11.871400 1.983000
11.902500 1.987200
11.933600 2.003400
11.964600 2.032700
11.995700 1.852100
12.026800 1.731500
12.057900 1.668800
12.089000 1.657000
12.120100 1.647600
12.151200 1.641600
12.182200 1.579900
12.213300 1.584000
12.244400 1.697300
12.275500 1.604000
12.306600 1.639800
12.337700 1.737400
12.368700 1.863200
12.399800 1.961600
12.430900 2.012000
12.462000 2.012100
12.493100 1.954600
12.524200 1.822900
12.555300 1.719100
12.586300 1.616600
12.617400 1.679600
12.648500 1.678400
12.679600 1.715200
12.710700 1.730700
12.741800 1.719400
12.772900 1.669900
12.803900 1.476100
12.835000 1.284500
12.866100 1.138000
12.897200 1.048600
12.928300 1.099400
12.959400 1.242800
12.990400 1.588700
13.021500 1.390300
13.052600 1.322700
13.083700 1.428200
13.114800 1.521400
13.145900 1.644200
13.177000 1.756200
13.208000 1.968200
13.239100 2.224500
13.270200 2.309200
13.301300 2.403300
13.332400 2.407100
13.363500 2.368400
13.394600 2.257000
13.425600 2.069100
13.456700 1.952500
13.487800 1.914900
13.518900 1.883500
13.550000 1.834300
13.581100 1.775400
13.612100 1.786600
13.643200 1.846500
13.674300 1.715800
13.705400 1.711600
13.736500 1.385000
13.767600 1.338500
13.798700 1.339900
13.829700 1.446800
13.860800 1.582200
13.891900 1.749400
13.923000 1.794300
13.954100 1.699500
13.985200 1.623400
14.016300 1.561000
14.047300 1.553900
14.078400 1.566300
14.109500 1.615200
14.140600 1.645700
14.171700 1.696100
14.202800 1.733100
14.233800 1.747100
14.264900 1.750300
14.296000 1.770400
14.327100 1.803700
14.358200 1.839800
14.389300 1.941400
14.420400 1.927000
14.451400 1.867200
14.482500 1.777500
14.513600 1.613400
14.544700 1.594700
14.575800 1.583000
14.606900 1.572400
14.638000 1.568000
14.669000 1.570900
14.700100 1.570500
14.731200 1.560300
14.762300 1.533300
14.793400 1.503300
14.824500 1.476100
14.855500 1.452300
14.886600 1.432200
14.917700 1.411800
14.948800 1.381900
14.979900 1.342300
15.011000 1.313400
15.042100 1.289600
15.073100 1.273500
15.104200 1.268300
15.135300 1.258800
15.166400 1.247700
15.197500 1.232200
15.228600 1.228500
15.259700 1.199500
15.290700 1.182900
15.321800 1.186500
15.352900 1.191800
15.384000 1.198400
15.415100 1.206100
15.446200 1.219100
15.477200 1.234400
15.508300 1.255200
15.539400 1.278900
15.570500 1.305600
15.601600 1.335900
15.632700 1.373000
15.663800 1.466000
15.694800 1.550000
15.725900 1.646300
15.757000 1.755000
15.788100 1.842200
15.819200 1.945100
15.850300 2.197300
15.881400 2.421000
15.912400 2.559700
15.943500 2.549700
15.974600 2.632900
16.005700 2.769800
16.036800 2.980200
16.067900 3.206400
16.098900 3.465300
16.130000 3.812800
16.161100 4.551100
16.192200 6.469200
16.223300 27.658200
16.254400 5.407800
16.285500 5.050300
16.316500 4.770100
16.347600 4.610200
16.378700 4.528900
16.409800 4.536200
16.440900 4.753300
16.472000 5.301700
16.503100 5.880200
16.534100 6.685300
16.565200 8.127300
16.596300 20.110000
16.627400 46.254100
16.658500 8.357800
16.689600 6.787800
16.720600 5.788400
16.751700 5.028100
16.782800 4.499800
16.813900 4.103300
16.845000 3.985400
16.876100 3.559600
16.907200 3.291700
16.938200 3.247400
16.969300 3.184300
17.000400 2.928200
17.031500 2.759800
17.062600 2.644300
17.093700 2.535600
17.124800 2.424000
17.155800 2.343200
17.186900 2.312600
17.218000 2.274100
17.249100 2.260300
17.280200 2.273000
17.311300 2.331600
17.342300 2.357600
17.373400 2.345200
17.404500 2.341900
17.435600 2.341500
17.466700 2.341600
17.497800 2.305500
17.528900 2.233400
17.559900 2.108700
17.591000 2.030600
17.622100 1.915900
17.653200 1.781900
17.684300 1.543900
17.715400 1.531400
17.746500 1.564300
17.777500 1.599700
17.808600 1.635000
17.839700 1.651500
17.870800 1.663900
17.901900 1.665200
17.933000 1.643000
17.964000 1.650500
17.995100 1.668200
18.026200 1.729800
18.057300 1.918100
18.088400 1.896300
18.119500 1.926900
18.150600 1.847400
18.181600 1.799000
18.212700 1.761600
18.243800 1.743300
18.274900 1.702300
18.306000 1.661200
18.337100 1.654400
18.368200 1.692400
18.399200 1.730200
18.430300 1.787600
18.461400 1.899000
18.492500 2.399400
18.523600 2.291500
18.554700 2.254800
18.585700 2.440300
18.616800 2.919500
18.647900 3.253600
18.679000 3.199200
18.710100 3.266500
18.741200 3.360700
18.772300 3.321100
18.803300 3.140800
18.834400 3.158700
18.865500 3.177800
18.896600 3.233700
18.927700 3.176200
18.958800 3.188400
18.989900 3.043300
19.020900 2.875800
19.052000 3.028900
19.083100 3.134000
19.114200 3.310400
19.145300 3.577600
19.176400 4.239400
19.207500 4.542600
19.238500 4.951400
19.269600 5.016800
19.300700 4.927400
19.331800 4.945000
19.362900 4.742700
19.394000 4.380300
19.425000 4.231300
19.456100 4.171700
19.487200 4.073400
19.518300 4.027800
19.549400 3.756200
19.580500 3.586100
19.611600 3.867800
19.642600 4.157500
19.673700 4.253100
19.704800 3.996400
19.735900 3.446700
19.767000 3.180700
19.798100 2.962700
19.829200 2.952700
19.860200 2.838500
19.891300 2.854100
19.922400 2.812700
19.953500 2.735300
19.984600 2.662900
20.015700 2.619000
20.046700 2.605900
20.077800 2.565300
20.108900 2.417500
20.140000 2.148300
20.171100 1.978200
20.202200 1.881600
20.233300 1.802800
20.264300 1.749400
20.295400 1.663800
20.326500 1.605700
20.357600 1.547300
20.388700 1.488200
20.419800 1.427100
20.450900 1.370300
20.481900 1.307600
20.513000 1.257000
20.544100 1.366200
20.575200 1.434300
20.606300 1.531200
20.637400 1.512500
20.668400 1.463600
20.699500 1.650100
20.730600 2.274000
20.761700 3.105600
20.792800 2.824200
20.823900 2.529200
20.855000 2.320200
20.886000 2.204800
20.917100 2.175400
20.948200 2.147500
20.979300 2.091000
21.010400 2.035300
21.041500 1.967900
21.072600 1.980800
21.103600 2.056400
21.134700 2.072900
21.165800 2.092600
21.196900 2.145800
21.228000 2.129200
21.259100 2.103900
21.290100 2.111100
21.321200 2.059100
21.352300 2.087200
21.383400 2.086600
21.414500 2.056800
21.445600 2.055100
21.476700 2.014800
21.507700 2.051200
21.538800 2.131100
21.569900 2.204500
21.601000 2.224200
21.632100 2.197800
21.663200 2.223000
21.694300 2.098200
21.725300 1.961700
21.756400 1.877900
21.787500 1.881900
21.818600 1.855000
21.849700 1.894500
21.880800 1.937600
21.911800 1.986000
21.942900 2.031900
21.974000 2.075900
22.005100 2.269900
22.036200 2.451000
22.067300 2.434900
22.098400 2.430000
22.129400 3.515000
22.160500 2.353800
22.191600 2.325500
22.222700 2.246600
22.253800 2.198200
22.284900 2.087800
22.316000 2.025100
22.347000 1.975100
22.378100 1.933400
22.409200 1.928300
22.440300 1.881800
22.471400 1.835400
22.502500 1.778200
22.533500 1.773400
22.564600 1.771500
22.595700 1.753000
22.626800 1.729200
22.657900 1.695100
22.689000 1.692900
22.720100 1.767700
22.751100 2.015000
22.782200 1.810800
22.813300 1.689600
22.844400 1.626000
22.875500 1.650500
22.906600 1.711700
22.937700 1.778500
22.968700 1.759700
22.999800 1.688900
23.030900 1.666800
23.062000 1.683600
23.093100 1.714300
23.124200 1.820000
23.155200 1.940900
23.186300 2.056600
23.217400 2.178400
23.248500 2.311600
23.279600 2.444000
23.310700 2.710200
23.341800 2.533700
23.372800 2.516800
23.403900 2.506900
23.435000 2.506000
23.466100 2.544100
23.497200 2.565200
23.528300 2.587200
23.559400 2.632200
23.590400 2.671000
23.621500 2.665700
23.652600 2.616300
23.683700 2.548200
23.714800 2.476400
23.745900 2.346500
23.776900 2.213300
23.808000 2.336800
23.839100 2.502500
23.870200 2.573100
23.901300 2.635500
23.932400 2.640300
23.963500 2.679400
23.994500 2.563100
24.025600 2.449400
24.056700 2.408900
24.087800 2.387400
24.118900 2.424300
24.150000 2.352300
24.181100 2.368700
24.212100 2.383900
24.243200 2.379000
24.274300 2.365600
24.305400 2.391200
24.336500 2.420800
24.367600 2.436900
24.398600 2.453100
24.429700 2.512900
24.460800 2.550500
24.491900 2.565400
24.523000 2.514300
24.554100 2.431000
24.585200 2.393200
24.616200 2.277800
24.647300 2.243700
24.678400 2.287200
24.709500 2.051100
24.740600 1.959500
24.771700 1.871700
24.802800 1.779500
24.833800 1.706300
24.864900 1.634100
24.896000 1.588300
24.927100 1.587100
24.958200 1.742900
24.989300 1.832300
25.020300 1.634200
25.051400 1.666500
25.082500 1.708500
25.113600 1.836100
25.144700 2.035100
25.175800 2.249600
25.206900 2.453600
25.237900 2.571400
25.269000 2.634400
25.300100 2.603200
25.331200 2.561200
25.362300 2.559600
25.393400 2.582600
25.424500 2.633000
25.455500 2.610700
25.486600 2.605800
25.517700 2.564900
25.548800 2.686900
25.579900 2.876600
25.611000 2.946200
25.642000 2.926800
25.673100 2.780400
25.704200 2.692400
25.735300 2.619300
25.766400 2.620100
25.797500 2.595200
25.828600 2.580800
25.859600 2.571600
25.890700 2.537900
25.921800 2.488600
25.952900 2.457300
25.984000 2.403500
26.015100 2.358700
26.046200 2.325000
26.077200 2.340000
26.108300 2.409100
26.139400 2.505600
26.170500 2.642000
26.201600 2.842600
26.232700 3.039000
26.263700 3.253000
26.294800 3.408300
26.325900 3.564200
26.357000 3.653300
26.388100 3.807100
26.419200 3.887400
26.450300 3.920200
26.481300 3.234200
26.512400 2.776500
26.543500 2.179800
26.574600 1.840400
26.605700 1.776300
26.636800 2.129800
26.667900 2.253200
26.698900 2.234600
26.730000 2.359700
26.761100 2.418800
26.792200 2.529000
26.823300 2.686900
26.854400 2.742700
26.885400 2.744000
26.916500 2.757900
26.947600 2.810100
26.978700 2.791400
27.009800 2.716800
27.040900 2.648300
27.072000 2.333100
27.103000 2.340800
27.134100 2.430800
27.165200 2.472400
27.196300 2.340100
27.227400 2.446000
27.258500 2.566100
27.289600 2.583000
27.320600 2.705400
27.351700 2.811800
27.382800 2.846600
27.413900 2.834400
27.445000 2.860400
27.476100 2.788700
27.507100 2.764400
27.538200 2.743600
27.569300 2.719500
27.600400 2.684400
27.631500 2.658500
27.662600 2.645900
27.693700 2.638500
27.724700 2.597000
27.755800 2.555700
27.786900 2.529000
27.818000 2.483000
27.849100 2.451700
27.880200 2.432600
27.911300 2.397700
27.942300 2.278700
27.973400 2.198000
28.004500 2.159200
28.035600 2.181200
28.066700 2.118700
28.097800 2.100700
28.128800 2.052000
28.159900 1.967200
28.191000 1.886200
28.222100 1.825900
28.253200 1.791400
28.284300 1.759900
28.315400 1.791200
28.346400 1.636000
28.377500 1.676100
28.408600 1.736500
28.439700 1.812100
28.470800 1.909500
28.501900 1.901800
28.533000 1.858200
28.564000 1.903300
28.595100 1.972900
28.626200 1.988700
28.657300 1.844500
28.688400 1.777500
28.719500 1.756800
28.750500 1.749800
28.781600 1.781500
28.812700 1.766600
28.843800 1.788200
28.874900 1.768600
28.906000 1.753300
28.937100 1.744000
28.968100 1.657500
28.999200 1.678500
29.030300 1.721700
29.061400 1.728900
29.092500 1.710400
29.123600 1.681400
29.154700 1.663300
29.185700 1.652000
29.216800 1.585300
29.247900 1.453600
29.279000 1.354600
29.310100 1.286800
29.341200 1.324400
29.372200 1.111200
29.403300 0.947000
29.434400 0.803900
29.465500 0.690800
29.496600 0.588400
29.527700 0.429800
29.558800 0.313700
29.589800 0.216400
29.620900 0.179500
29.652000 0.206600
29.683100 0.191800
29.714200 0.132600
29.745300 0.118800
29.776400 0.106000
29.807400 0.091900
29.838500 0.077500
29.869600 0.064900
29.900700 0.054200
29.931800 0.045300
29.962900 0.038100
29.993900 0.032200
30.025000 0.027200
30.056100 0.023000
30.087200 0.019700
30.118300 0.017300
30.149400 0.015500
30.180500 0.013700
30.211500 0.011900
30.242600 0.010100
30.273700 0.008400
30.304800 0.006600
30.335900 0.005000
30.367000 0.003300
30.398100 0.001700
30.429100 0.000100
30.460200 0.000000
30.491300 0.000000
30.522400 0.000000
30.553500 0.000000
30.584600 0.000000
30.615600 0.000000
30.646700 0.000000
30.677800 0.000000
30.708900 0.000000
30.740000 0.000000
30.771100 0.000000
30.802200 0.000000
30.833200 0.000000
30.864300 0.000000
30.895400 0.000000
30.926500 0.000000
30.957600 0.000000
30.988700 0.000000
31.019800 0.000000
31.050800 0.000000
31.081900 0.000000
31.113000 0.000000
31.144100 0.000000
31.175200 0.000000
31.206300 0.000000
31.237300 0.000000
31.268400 0.000000
31.299500 0.000000
31.330600 0.000000
31.361700 0.000000
31.392800 0.000000
31.423900 0.000000
31.454900 0.000000
31.486000 0.000000
31.517100 0.000000
31.548200 0.000000
31.579300 0.000000
31.610400 0.000000
31.641500 0.000000
31.672500 0.000000
31.703600 0.000000
31.734700 0.000000
31.765800 0.000000
31.796900 0.000000
31.828000 0.000000
31.859100 0.000000
31.890100 0.000000
31.921200 0.000000
31.952300 0.000000
31.983400 0.000000
32.014500 0.000000
32.045600 0.000000
32.076600 0.000000
32.107700 0.000000
32.138800 0.000000
32.169900 0.000000
32.201000 0.000000
32.232100 0.000000
32.263200 0.000000
32.294200 0.000000
32.325300 0.000000
32.356400 0.000000
32.387500 0.000000
32.418600 0.000000
32.449700 0.000000
32.480800 0.000000
32.511800 0.000000
32.542900 0.000000
32.574000 0.000000
32.605100 0.000000
32.636200 0.000000
32.667300 0.000000
32.698300 0.000000
32.729400 0.000000
32.760500 0.000000
32.791600 0.000000
32.822700 0.000000
32.853800 0.000000
32.884900 0.000000
32.915900 0.000000
32.947000 0.000000
32.978100 0.000000
33.009200 0.000000
33.040300 0.000000
33.071400 0.000000
33.102500 0.000000
33.133500 0.000000
33.164600 0.000000
33.195700 0.000000
33.226800 0.000000
33.257900 0.000000
e
