set title 'mp-1187887 - Density of States'
set xlabel 'Energy (eV)'
set ylabel 'DOS (states/eV)'
set grid
set xrange [-10:10]
set yrange [0:78.849]
set xzeroaxis lt -1
set terminal png size 800,600
set output 'mp-1187887_dos_gnuplot.png'
plot '-' using 1:2 with lines title 'DOS'
-35.382500 0.000000
-35.343300 0.000000
-35.304000 0.000000
-35.264700 0.000000
-35.225500 0.000000
-35.186200 0.000000
-35.146900 0.000000
-35.107700 0.000000
-35.068400 0.000000
-35.029100 0.000000
-34.989900 0.000000
-34.950600 0.000000
-34.911300 0.000000
-34.872100 0.000000
-34.832800 0.000000
-34.793500 0.000000
-34.754300 0.000000
-34.715000 0.000000
-34.675700 0.000000
-34.636500 0.000000
-34.597200 0.000000
-34.557900 0.000000
-34.518700 0.000000
-34.479400 0.000000
-34.440100 0.000000
-34.400900 0.000000
-34.361600 0.000000
-34.322300 0.000000
-34.283100 0.000000
-34.243800 0.000000
-34.204500 0.000000
-34.165300 0.000000
-34.126000 0.000000
-34.086700 0.000000
-34.047500 0.000000
-34.008200 0.000000
-33.968900 0.000000
-33.929700 0.000000
-33.890400 0.000000
-33.851100 0.000000
-33.811900 0.000000
-33.772600 0.000000
-33.733300 0.000000
-33.694100 0.000000
-33.654800 0.000000
-33.615500 0.000000
-33.576300 0.000000
-33.537000 0.000000
-33.497800 0.000000
-33.458500 0.000000
-33.419200 0.000000
-33.380000 0.000000
-33.340700 0.000000
-33.301400 0.000000
-33.262200 0.000000
-33.222900 0.000000
-33.183600 0.000000
-33.144400 0.000000
-33.105100 0.000000
-33.065800 0.000000
-33.026600 0.000000
-32.987300 0.000000
-32.948000 0.000000
-32.908800 0.000000
-32.869500 0.000000
-32.830200 0.000000
-32.791000 0.000000
-32.751700 0.000000
-32.712400 0.000000
-32.673200 0.000000
-32.633900 0.000000
-32.594600 0.000000
-32.555400 0.000000
-32.516100 0.000000
-32.476800 0.000000
-32.437600 0.000000
-32.398300 0.000000
-32.359000 0.000000
-32.319800 0.000000
-32.280500 0.000000
-32.241200 0.000000
-32.202000 0.000000
-32.162700 0.000000
-32.123400 0.000000
-32.084200 0.000000
-32.044900 0.000000
-32.005600 0.000000
-31.966400 0.000000
-31.927100 0.000000
-31.887800 0.000000
-31.848600 0.000000
-31.809300 5.635300
-31.770000 9.142600
-31.730800 14.622900
-31.691500 11.332300
-31.652200 8.335400
-31.613000 0.000000
-31.573700 0.000000
-31.534400 0.000000
-31.495200 0.000000
-31.455900 0.000000
-31.416600 0.000000
-31.377400 0.000000
-31.338100 0.000000
-31.298800 0.000000
-31.259600 0.000000
-31.220300 0.000000
-31.181100 0.000000
-31.141800 0.000000
-31.102500 0.000000
-31.063300 0.000000
-31.024000 0.000000
-30.984700 0.000000
-30.945500 0.000000
-30.906200 0.000000
-30.866900 0.000000
-30.827700 0.000000
-30.788400 0.000000
-30.749100 0.000000
-30.709900 0.000000
-30.670600 0.000000
-30.631300 0.000000
-30.592100 0.000000
-30.552800 0.000000
-30.513500 0.000000
-30.474300 0.000000
-30.435000 0.000000
-30.395700 0.000000
-30.356500 0.000000
-30.317200 0.000000
-30.277900 0.000000
-30.238700 0.000000
-30.199400 0.000000
-30.160100 0.000000
-30.120900 0.000000
-30.081600 0.000000
-30.042300 0.000000
-30.003100 0.000000
-29.963800 0.000000
-29.924500 0.000000
-29.885300 0.000000
-29.846000 0.000000
-29.806700 0.000000
-29.767500 0.000000
-29.728200 0.000000
-29.688900 0.000000
-29.649700 0.000000
-29.610400 0.000000
-29.571100 0.000000
-29.531900 0.000000
-29.492600 0.000000
-29.453300 0.000000
-29.414100 0.000000
-29.374800 0.000000
-29.335500 0.000000
-29.296300 0.000000
-29.257000 0.000000
-29.217700 0.000000
-29.178500 0.000000
-29.139200 0.000000
-29.099900 0.000000
-29.060700 0.000000
-29.021400 0.000000
-28.982100 0.000000
-28.942900 0.000000
-28.903600 0.000000
-28.864300 0.000000
-28.825100 0.000000
-28.785800 0.000000
-28.746600 0.000000
-28.707300 0.000000
-28.668000 0.000000
-28.628800 0.000000
-28.589500 0.000000
-28.550200 0.000000
-28.511000 0.000000
-28.471700 0.000000
-28.432400 0.000000
-28.393200 0.000000
-28.353900 0.000000
-28.314600 0.000000
-28.275400 0.000000
-28.236100 0.000000
-28.196800 0.000000
-28.157600 0.000000
-28.118300 0.000000
-28.079000 0.000000
-28.039800 0.000000
-28.000500 0.000000
-27.961200 0.000000
-27.922000 0.000000
-27.882700 0.000000
-27.843400 0.000000
-27.804200 0.000000
-27.764900 0.000000
-27.725600 0.000000
-27.686400 0.000000
-27.647100 0.000000
-27.607800 0.000000
-27.568600 0.000000
-27.529300 0.000000
-27.490000 0.000000
-27.450800 0.000000
-27.411500 0.000000
-27.372200 0.000000
-27.333000 0.000000
-27.293700 0.000000
-27.254400 0.000000
-27.215200 0.000000
-27.175900 0.000000
-27.136600 0.000000
-27.097400 0.000000
-27.058100 0.000000
-27.018800 0.000000
-26.979600 0.000000
-26.940300 0.000000
-26.901000 0.000000
-26.861800 0.000000
-26.822500 0.000000
-26.783200 0.000000
-26.744000 0.000000
-26.704700 0.000000
-26.665400 0.000000
-26.626200 0.000000
-26.586900 0.000000
-26.547600 0.000000
-26.508400 0.000000
-26.469100 0.000000
-26.429900 0.000000
-26.390600 0.000000
-26.351300 0.000000
-26.312100 0.000000
-26.272800 0.000000
-26.233500 0.000000
-26.194300 0.000000
-26.155000 0.000000
-26.115700 0.000000
-26.076500 0.000000
-26.037200 0.000000
-25.997900 0.000000
-25.958700 0.000000
-25.919400 0.000000
-25.880100 0.000000
-25.840900 0.000000
-25.801600 0.000000
-25.762300 0.000000
-25.723100 0.000000
-25.683800 0.000000
-25.644500 0.000000
-25.605300 0.000000
-25.566000 0.000000
-25.526700 0.000000
-25.487500 0.000000
-25.448200 0.000000
-25.408900 0.000000
-25.369700 0.000000
-25.330400 0.000000
-25.291100 0.000000
-25.251900 0.000000
-25.212600 0.000000
-25.173300 0.000000
-25.134100 0.000000
-25.094800 0.000000
-25.055500 0.000000
-25.016300 0.000000
-24.977000 0.000000
-24.937700 0.000000
-24.898500 0.000000
-24.859200 0.000000
-24.819900 0.000000
-24.780700 0.000000
-24.741400 0.000000
-24.702100 0.000000
-24.662900 0.000000
-24.623600 0.000000
-24.584300 0.000000
-24.545100 0.000000
-24.505800 0.000000
-24.466500 0.000000
-24.427300 0.000000
-24.388000 0.000000
-24.348700 0.000000
-24.309500 0.000000
-24.270200 0.000000
-24.230900 0.000000
-24.191700 0.000000
-24.152400 0.000000
-24.113200 0.000000
-24.073900 0.000000
-24.034600 0.000000
-23.995400 0.000000
-23.956100 0.000000
-23.916800 0.000000
-23.877600 0.000000
-23.838300 0.000000
-23.799000 0.000000
-23.759800 0.000000
-23.720500 0.000000
-23.681200 0.000000
-23.642000 0.000000
-23.602700 0.000000
-23.563400 0.000000
-23.524200 0.000000
-23.484900 0.000000
-23.445600 0.000000
-23.406400 0.000000
-23.367100 0.000000
-23.327800 0.000000
-23.288600 0.000000
-23.249300 0.000000
-23.210000 0.000000
-23.170800 0.000000
-23.131500 0.000000
-23.092200 0.000000
-23.053000 0.000000
-23.013700 0.000000
-22.974400 0.000000
-22.935200 0.000000
-22.895900 0.000000
-22.856600 0.000000
-22.817400 0.000000
-22.778100 0.000000
-22.738800 0.000000
-22.699600 0.000000
-22.660300 0.000000
-22.621000 0.000000
-22.581800 0.000000
-22.542500 0.000000
-22.503200 0.000000
-22.464000 0.000000
-22.424700 0.000000
-22.385400 0.000000
-22.346200 0.000000
-22.306900 0.000000
-22.267600 0.000000
-22.228400 0.000000
-22.189100 0.000000
-22.149800 0.000000
-22.110600 0.000000
-22.071300 0.000000
-22.032000 0.000000
-21.992800 0.000000
-21.953500 0.000000
-21.914200 0.000000
-21.875000 0.000000
-21.835700 0.000000
-21.796400 0.000000
-21.757200 0.000000
-21.717900 0.000000
-21.678700 0.000000
-21.639400 0.000000
-21.600100 0.000000
-21.560900 0.000000
-21.521600 0.000000
-21.482300 0.000000
-21.443100 0.000000
-21.403800 0.000000
-21.364500 0.000000
-21.325300 0.000000
-21.286000 0.000000
-21.246700 0.000000
-21.207500 0.000000
-21.168200 0.000000
-21.128900 0.000000
-21.089700 0.000000
-21.050400 0.000000
-21.011100 0.000000
-20.971900 0.000000
-20.932600 0.000000
-20.893300 0.000000
-20.854100 0.000000
-20.814800 0.000000
-20.775500 0.000000
-20.736300 0.000000
-20.697000 0.000000
-20.657700 0.000000
-20.618500 0.000000
-20.579200 0.000000
-20.539900 0.000000
-20.500700 0.000000
-20.461400 0.000000
-20.422100 0.000000
-20.382900 0.000000
-20.343600 0.000000
-20.304300 0.000000
-20.265100 0.000000
-20.225800 0.000000
-20.186500 0.000000
-20.147300 0.000000
-20.108000 0.000000
-20.068700 0.000000
-20.029500 0.000000
-19.990200 0.000000
-19.950900 0.000000
-19.911700 0.000000
-19.872400 0.000000
-19.833100 0.000000
-19.793900 0.000000
-19.754600 0.000000
-19.715300 0.000000
-19.676100 0.000000
-19.636800 0.000000
-19.597500 0.000000
-19.558300 0.000000
-19.519000 0.000000
-19.479700 0.000000
-19.440500 0.000000
-19.401200 0.000000
-19.362000 0.000000
-19.322700 0.000000
-19.283400 0.000000
-19.244200 0.000000
-19.204900 0.000000
-19.165600 0.000000
-19.126400 0.000000
-19.087100 0.000000
-19.047800 0.000000
-19.008600 0.000000
-18.969300 0.000000
-18.930000 0.000000
-18.890800 0.000000
-18.851500 0.000000
-18.812200 0.000000
-18.773000 0.000000
-18.733700 0.000000
-18.694400 0.000000
-18.655200 0.000000
-18.615900 0.000000
-18.576600 0.000000
-18.537400 0.000000
-18.498100 0.000000
-18.458800 0.000000
-18.419600 0.000000
-18.380300 0.000000
-18.341000 0.000000
-18.301800 0.000000
-18.262500 0.000000
-18.223200 0.000000
-18.184000 0.000000
-18.144700 0.000000
-18.105400 0.000000
-18.066200 0.000000
-18.026900 0.000000
-17.987600 0.000000
-17.948400 0.000000
-17.909100 0.000000
-17.869800 0.000000
-17.830600 0.000000
-17.791300 0.000000
-17.752000 0.000000
-17.712800 0.000000
-17.673500 0.000000
-17.634200 0.000000
-17.595000 0.000000
-17.555700 0.000000
-17.516400 0.000000
-17.477200 0.000000
-17.437900 0.000000
-17.398600 0.000000
-17.359400 0.000000
-17.320100 0.000000
-17.280800 0.000000
-17.241600 0.000000
-17.202300 0.000000
-17.163000 0.000000
-17.123800 0.000000
-17.084500 0.000000
-17.045300 0.000000
-17.006000 0.000000
-16.966700 0.000000
-16.927500 0.000000
-16.888200 0.000000
-16.848900 0.000000
-16.809700 0.000000
-16.770400 0.000000
-16.731100 0.000000
-16.691900 0.000000
-16.652600 0.000000
-16.613300 0.000000
-16.574100 0.000000
-16.534800 0.000000
-16.495500 0.000000
-16.456300 0.000000
-16.417000 0.000000
-16.377700 0.000000
-16.338500 0.000000
-16.299200 0.000000
-16.259900 0.000000
-16.220700 0.000000
-16.181400 0.000000
-16.142100 0.000000
-16.102900 0.000000
-16.063600 0.000000
-16.024300 0.000000
-15.985100 0.000000
-15.945800 0.000000
-15.906500 0.000000
-15.867300 0.000000
-15.828000 0.000000
-15.788700 0.000000
-15.749500 0.000000
-15.710200 0.000000
-15.670900 0.000000
-15.631700 0.000000
-15.592400 0.000000
-15.553100 0.000000
-15.513900 0.000000
-15.474600 0.000000
-15.435300 0.000000
-15.396100 0.000000
-15.356800 0.000000
-15.317500 0.000000
-15.278300 0.000000
-15.239000 0.000000
-15.199700 0.000000
-15.160500 0.000000
-15.121200 0.000000
-15.081900 0.000000
-15.042700 0.000000
-15.003400 0.000000
-14.964100 0.000000
-14.924900 0.000000
-14.885600 0.000000
-14.846300 0.000000
-14.807100 0.000000
-14.767800 0.000000
-14.728600 0.000000
-14.689300 0.000000
-14.650000 0.000000
-14.610800 0.000000
-14.571500 0.000000
-14.532200 0.000000
-14.493000 0.000000
-14.453700 0.000000
-14.414400 0.000000
-14.375200 0.000000
-14.335900 0.000000
-14.296600 0.000000
-14.257400 0.000000
-14.218100 0.000000
-14.178800 0.000000
-14.139600 0.000000
-14.100300 0.000000
-14.061000 0.000000
-14.021800 0.000000
-13.982500 0.000000
-13.943200 0.000000
-13.904000 0.000000
-13.864700 0.000000
-13.825400 0.000000
-13.786200 0.000000
-13.746900 0.000000
-13.707600 0.000000
-13.668400 0.000000
-13.629100 0.000000
-13.589800 0.000000
-13.550600 0.000000
-13.511300 0.000000
-13.472000 0.000000
-13.432800 0.000000
-13.393500 0.000000
-13.354200 0.000000
-13.315000 0.000000
-13.275700 0.000000
-13.236400 0.000000
-13.197200 0.000000
-13.157900 0.000000
-13.118600 0.000000
-13.079400 0.000000
-13.040100 0.000000
-13.000800 0.000000
-12.961600 0.000000
-12.922300 0.000000
-12.883000 0.000000
-12.843800 0.000000
-12.804500 0.000000
-12.765200 0.000000
-12.726000 0.000000
-12.686700 0.000000
-12.647400 0.000000
-12.608200 0.000000
-12.568900 0.000000
-12.529600 0.000000
-12.490400 0.000000
-12.451100 0.000000
-12.411800 0.000000
-12.372600 0.000000
-12.333300 0.000000
-12.294100 0.000000
-12.254800 0.000000
-12.215500 0.000000
-12.176300 0.000000
-12.137000 0.000000
-12.097700 0.000000
-12.058500 0.000000
-12.019200 0.000000
-11.979900 0.000000
-11.940700 0.000000
-11.901400 0.000000
-11.862100 0.000000
-11.822900 0.000000
-11.783600 0.000000
-11.744300 0.000000
-11.705100 0.000000
-11.665800 0.000000
-11.626500 0.000000
-11.587300 0.000000
-11.548000 0.000000
-11.508700 0.000000
-11.469500 0.000000
-11.430200 0.000000
-11.390900 0.000000
-11.351700 0.000000
-11.312400 0.000000
-11.273100 0.000000
-11.233900 0.000000
-11.194600 0.000000
-11.155300 0.000000
-11.116100 0.000000
-11.076800 0.000000
-11.037500 0.000000
-10.998300 0.000000
-10.959000 0.000000
-10.919700 0.000000
-10.880500 0.000000
-10.841200 0.000000
-10.801900 0.000000
-10.762700 0.000000
-10.723400 0.000000
-10.684100 0.000000
-10.644900 1.512900
-10.605600 2.533600
-10.566300 2.745200
-10.527100 3.176000
-10.487800 3.516300
-10.448500 4.947200
-10.409300 3.395700
-10.370000 3.110400
-10.330700 2.652500
-10.291500 2.372800
-10.252200 2.298300
-10.212900 2.247200
-10.173700 2.853200
-10.134400 3.004900
-10.095100 3.566400
-10.055900 4.166100
-10.016600 4.244400
-9.977400 6.376700
-9.938100 7.304400
-9.898800 9.766300
-9.859600 9.361900
-9.820300 7.051700
-9.781000 13.176100
-9.741800 4.417000
-9.702500 3.785600
-9.663200 3.048500
-9.624000 3.039700
-9.584700 1.796400
-9.545400 1.907000
-9.506200 1.935900
-9.466900 1.991200
-9.427600 1.995700
-9.388400 2.000100
-9.349100 2.170700
-9.309800 2.487500
-9.270600 2.725700
-9.231300 2.990800
-9.192000 6.256500
-9.152800 3.611400
-9.113500 2.889600
-9.074200 2.546300
-9.035000 1.453600
-8.995700 0.000000
-8.956400 0.000000
-8.917200 0.000000
-8.877900 0.000000
-8.838600 0.000000
-8.799400 0.000000
-8.760100 0.000000
-8.720800 0.000000
-8.681600 0.000000
-8.642300 0.000000
-8.603000 0.000000
-8.563800 0.000000
-8.524500 0.000000
-8.485200 0.000000
-8.446000 0.000000
-8.406700 0.000000
-8.367400 0.000000
-8.328200 0.000000
-8.288900 0.000000
-8.249600 0.000000
-8.210400 0.000000
-8.171100 0.000000
-8.131800 0.000000
-8.092600 0.000000
-8.053300 0.000000
-8.014000 0.000000
-7.974800 0.000000
-7.935500 0.000000
-7.896200 0.000000
-7.857000 0.000000
-7.817700 0.000000
-7.778400 0.000000
-7.739200 0.000000
-7.699900 0.000000
-7.660700 0.000000
-7.621400 0.000000
-7.582100 0.000000
-7.542900 0.000000
-7.503600 0.000000
-7.464300 0.000000
-7.425100 0.000000
-7.385800 0.000000
-7.346500 0.000000
-7.307300 0.000000
-7.268000 0.000000
-7.228700 0.000000
-7.189500 0.000000
-7.150200 0.000000
-7.110900 0.000000
-7.071700 0.000000
-7.032400 0.000000
-6.993100 0.000000
-6.953900 0.000000
-6.914600 0.000000
-6.875300 0.000000
-6.836100 0.000000
-6.796800 0.000000
-6.757500 0.000000
-6.718300 0.000000
-6.679000 0.000000
-6.639700 0.000000
-6.600500 0.000000
-6.561200 0.000000
-6.521900 0.000000
-6.482700 5.236900
-6.443400 8.968100
-6.404100 23.927800
-6.364900 34.731100
-6.325600 71.680800
-6.286300 40.543900
-6.247100 17.177700
-6.207800 20.714100
-6.168500 0.000000
-6.129300 0.000000
-6.090000 0.000000
-6.050700 0.000000
-6.011500 0.000000
-5.972200 0.000000
-5.932900 0.000000
-5.893700 0.000000
-5.854400 0.000000
-5.815100 0.000000
-5.775900 0.000000
-5.736600 0.000000
-5.697300 0.000000
-5.658100 0.000000
-5.618800 0.000000
-5.579500 0.000000
-5.540300 0.000000
-5.501000 0.000000
-5.461700 0.000000
-5.422500 0.000000
-5.383200 0.000000
-5.343900 0.000000
-5.304700 0.000000
-5.265400 0.000000
-5.226200 0.000000
-5.186900 0.000000
-5.147600 0.000000
-5.108400 0.000000
-5.069100 0.000000
-5.029800 0.000000
-4.990600 0.000000
-4.951300 0.000000
-4.912000 0.000000
-4.872800 0.000000
-4.833500 0.000000
-4.794200 0.000000
-4.755000 0.000000
-4.715700 0.000000
-4.676400 0.000000
-4.637200 0.000000
-4.597900 0.000000
-4.558600 0.000000
-4.519400 0.000000
-4.480100 0.000000
-4.440800 0.000000
-4.401600 0.000000
-4.362300 0.000000
-4.323000 0.000000
-4.283800 0.000000
-4.244500 0.000000
-4.205200 0.000000
-4.166000 0.000000
-4.126700 0.000000
-4.087400 0.000000
-4.048200 0.000000
-4.008900 0.000000
-3.969600 0.000000
-3.930400 0.000000
-3.891100 0.000000
-3.851800 0.000000
-3.812600 0.000000
-3.773300 0.000000
-3.734000 0.000000
-3.694800 0.000000
-3.655500 0.000000
-3.616200 0.000000
-3.577000 0.000000
-3.537700 0.000000
-3.498400 0.000000
-3.459200 0.000000
-3.419900 0.000000
-3.380600 0.000000
-3.341400 0.000000
-3.302100 0.000000
-3.262800 0.000000
-3.223600 0.000000
-3.184300 0.000000
-3.145000 0.000000
-3.105800 0.000000
-3.066500 0.000000
-3.027200 0.000000
-2.988000 0.000000
-2.948700 0.000000
-2.909500 0.000000
-2.870200 0.000000
-2.830900 0.000000
-2.791700 0.000000
-2.752400 0.000000
-2.713100 0.000000
-2.673900 0.000000
-2.634600 0.000000
-2.595300 0.000000
-2.556100 0.000000
-2.516800 0.000000
-2.477500 0.000000
-2.438300 0.000000
-2.399000 0.000000
-2.359700 0.000000
-2.320500 0.000000
-2.281200 0.000000
-2.241900 0.000000
-2.202700 0.000000
-2.163400 0.000000
-2.124100 0.000000
-2.084900 0.000000
-2.045600 0.000000
-2.006300 0.000000
-1.967100 0.000000
-1.927800 0.000000
-1.888500 0.000000
-1.849300 0.000000
-1.810000 0.000000
-1.770700 0.000000
-1.731500 0.000000
-1.692200 0.000000
-1.652900 0.000000
-1.613700 0.000000
-1.574400 0.000000
-1.535100 0.000000
-1.495900 0.000000
-1.456600 0.000000
-1.417300 0.000000
-1.378100 0.000000
-1.338800 0.000000
-1.299500 0.000000
-1.260300 0.000000
-1.221000 0.000000
-1.181700 0.000000
-1.142500 0.000000
-1.103200 0.000000
-1.063900 0.000000
-1.024700 0.000000
-0.985400 0.000000
-0.946100 0.000000
-0.906900 0.000000
-0.867600 0.000000
-0.828300 0.000000
-0.789100 0.000000
-0.749800 0.000000
-0.710500 0.000000
-0.671300 0.000000
-0.632000 0.000000
-0.592800 0.000000
-0.553500 0.000000
-0.514200 0.000000
-0.475000 0.000000
-0.435700 0.000000
-0.396400 0.000000
-0.357200 0.000000
-0.317900 0.000000
-0.278600 0.000000
-0.239400 0.000000
-0.200100 0.000000
-0.160800 0.000000
-0.121600 0.000000
-0.082300 0.000000
-0.043000 0.000000
-0.003800 0.000000
0.035500 0.000000
0.074800 0.000000
0.114000 0.000000
0.153300 0.033700
0.192600 0.046700
0.231800 0.061400
0.271100 0.077600
0.310400 0.095300
0.349600 0.101100
0.388900 0.109300
0.428200 0.117700
0.467400 0.125500
0.506700 0.132600
0.546000 0.140100
0.585200 0.149100
0.624500 0.159500
0.663800 0.170700
0.703000 0.177100
0.742300 0.185900
0.781600 0.194300
0.820800 0.202500
0.860100 0.208900
0.899400 0.216600
0.938600 0.225600
0.977900 0.235100
1.017200 0.245100
1.056400 0.255600
1.095700 0.266300
1.135000 0.277100
1.174200 0.285300
1.213500 0.294500
1.252800 0.303700
1.292000 0.315900
1.331300 0.329200
1.370600 0.342700
1.409800 0.356700
1.449100 0.371600
1.488400 0.386800
1.527600 0.402600
1.566900 0.418800
1.606200 0.437000
1.645400 0.460800
1.684700 0.487900
1.724000 0.517400
1.763200 0.546100
1.802500 0.575900
1.841700 0.607100
1.881000 0.639800
1.920300 0.688900
1.959500 0.888700
1.998800 1.018400
2.038100 1.085900
2.077300 1.208400
2.116600 1.389500
2.155900 1.420400
2.195100 1.367000
2.234400 1.296200
2.273700 1.202000
2.312900 1.143900
2.352200 1.083900
2.391500 1.038800
2.430700 1.009600
2.470000 0.986800
2.509300 0.949000
2.548500 0.917500
2.587800 0.878300
2.627100 0.851600
2.666300 0.838100
2.705600 0.823200
2.744900 0.807800
2.784100 0.788000
2.823400 0.765700
2.862700 0.748300
2.901900 0.751100
2.941200 0.751000
2.980500 0.747300
3.019700 0.739700
3.059000 0.731000
3.098300 0.733300
3.137500 0.757700
3.176800 0.743400
3.216100 0.734400
3.255300 0.769600
3.294600 0.830900
3.333900 1.430500
3.373100 0.692000
3.412400 0.466300
3.451700 0.341400
3.490900 0.293600
3.530200 0.251900
3.569500 0.217600
3.608700 0.192800
3.648000 0.169800
3.687300 0.144400
3.726500 0.124900
3.765800 0.113300
3.805100 0.103700
3.844300 0.115100
3.883600 0.105100
3.922900 0.097000
3.962100 0.090800
4.001400 0.088500
4.040700 0.090000
4.079900 0.091900
4.119200 0.085100
4.158400 0.085300
4.197700 0.085800
4.237000 0.086700
4.276200 0.087800
4.315500 0.140700
4.354800 0.157800
4.394000 0.165100
4.433300 0.187900
4.472600 0.211300
4.511800 0.203400
4.551100 0.215000
4.590400 0.229200
4.629600 0.244000
4.668900 0.258800
4.708200 0.275300
4.747400 0.293200
4.786700 0.311700
4.826000 0.330800
4.865200 0.415300
4.904500 0.465500
4.943800 0.477400
4.983000 0.521700
5.022300 0.570200
5.061600 0.617700
5.100800 0.666800
5.140100 0.708900
5.179400 0.792800
5.218600 0.861300
5.257900 0.947400
5.297200 1.047600
5.336400 1.117000
5.375700 1.219500
5.415000 1.333800
5.454200 1.466400
5.493500 1.583200
5.532800 1.688500
5.572000 1.750500
5.611300 1.788900
5.650600 1.819400
5.689800 1.860700
5.729100 1.906100
5.768400 2.050100
5.807600 2.197800
5.846900 2.173500
5.886200 2.163800
5.925400 2.146700
5.964700 2.133800
6.004000 2.136800
6.043200 1.941300
6.082500 1.842500
6.121800 1.769900
6.161000 1.734600
6.200300 1.730500
6.239600 1.526500
6.278800 1.564900
6.318100 1.607600
6.357400 1.614400
6.396600 1.588200
6.435900 1.557300
6.475100 1.545900
6.514400 1.540100
6.553700 1.493400
6.592900 1.465200
6.632200 1.442900
6.671500 1.633600
6.710700 1.715100
6.750000 1.804500
6.789300 1.848900
6.828500 1.902200
6.867800 1.950900
6.907100 1.964000
6.946300 2.039200
6.985600 2.007500
7.024900 1.963200
7.064100 1.995700
7.103400 1.637700
7.142700 1.634200
7.181900 1.678000
7.221200 1.764400
7.260500 2.125100
7.299700 2.413100
7.339000 1.912600
7.378300 1.702100
7.417500 1.540900
7.456800 1.526600
7.496100 1.602400
7.535300 1.979200
7.574600 2.167800
7.613900 2.263000
7.653100 2.401000
7.692400 2.447400
7.731700 2.472900
7.770900 2.483100
7.810200 2.563400
7.849500 2.423900
7.888700 2.147300
7.928000 1.911300
7.967300 1.808500
8.006500 1.748000
8.045800 1.714400
8.085100 1.785500
8.124300 1.734500
8.163600 1.572600
8.202900 1.304500
8.242100 1.230800
8.281400 1.300200
8.320700 1.196900
8.359900 1.244800
8.399200 1.431800
8.438500 1.600800
8.477700 1.732900
8.517000 1.818800
8.556300 1.903700
8.595500 2.021800
8.634800 2.465300
8.674100 3.125000
8.713300 3.575900
8.752600 3.946200
8.791800 4.654900
8.831100 4.787000
8.870400 4.576300
8.909600 4.645100
8.948900 4.782300
8.988200 5.029600
9.027400 5.184600
9.066700 5.633700
9.106000 6.371600
9.145200 5.909500
9.184500 6.458600
9.223800 6.431400
9.263000 5.975000
9.302300 6.220400
9.341600 6.338800
9.380800 8.926700
9.420100 9.651500
9.459400 9.129800
9.498600 5.951700
9.537900 7.910800
9.577200 9.509500
9.616400 9.517700
9.655700 9.059200
9.695000 16.181700
9.734200 10.801600
9.773500 7.598400
9.812800 5.209200
9.852000 5.740400
9.891300 6.673200
9.930600 7.762900
9.969800 6.896600
10.009100 8.993600
10.048400 8.127200
10.087600 6.954900
10.126900 5.230200
10.166200 3.143700
10.205400 3.903200
10.244700 4.705800
10.284000 5.976200
10.323200 9.704800
10.362500 16.128200
10.401800 11.378700
10.441000 7.941500
10.480300 4.901400
10.519600 4.045900
10.558800 3.542700
10.598100 3.027600
10.637400 2.490000
10.676600 2.348000
10.715900 4.427800
10.755200 4.482100
10.794400 4.554000
10.833700 4.518800
10.873000 4.902300
10.912200 5.516400
10.951500 5.393100
10.990800 4.687700
11.030000 4.032500
11.069300 3.530600
11.108600 3.409000
11.147800 3.375300
11.187100 3.510300
11.226300 3.520400
11.265600 3.330700
11.304900 2.804000
11.344100 2.716500
11.383400 2.639100
11.422700 2.661500
11.461900 2.727100
11.501200 2.727500
11.540500 2.863900
11.579700 2.953600
11.619000 3.141300
11.658300 2.557200
11.697500 2.715500
11.736800 2.270700
11.776100 2.153800
11.815300 1.958400
11.854600 1.918900
11.893900 1.908800
11.933100 1.984400
11.972400 2.029000
12.011700 1.948200
12.050900 1.879200
12.090200 1.816300
12.129500 1.737700
12.168700 1.705200
12.208000 1.520900
12.247300 1.573700
12.286500 1.695900
12.325800 1.481500
12.365100 1.449100
12.404300 1.505500
12.443600 1.546600
12.482900 1.624000
12.522100 1.631600
12.561400 1.668300
12.600700 1.705400
12.639900 1.767400
12.679200 1.749300
12.718500 1.761300
12.757700 1.746900
12.797000 1.748400
12.836300 1.694100
12.875500 1.594400
12.914800 1.491000
12.954100 1.395900
12.993300 1.328300
13.032600 1.278800
13.071900 1.239900
13.111100 1.218300
13.150400 1.305900
13.189700 1.674500
13.228900 1.453200
13.268200 1.476000
13.307500 1.484200
13.346700 1.456100
13.386000 1.472600
13.425300 1.473400
13.464500 1.445800
13.503800 1.430700
13.543000 1.431800
13.582300 1.430500
13.621600 1.418700
13.660800 1.423100
13.700100 1.378500
13.739400 1.371700
13.778600 1.160400
13.817900 1.146600
13.857200 1.132100
13.896400 1.121000
13.935700 1.106900
13.975000 1.101400
14.014200 1.104800
14.053500 1.140400
14.092800 1.175400
14.132000 1.210300
14.171300 1.251800
14.210600 1.330900
14.249800 1.308900
14.289100 1.265500
14.328400 1.179800
14.367600 1.205700
14.406900 1.076700
14.446200 0.989200
14.485400 0.940800
14.524700 0.921700
14.564000 1.937500
14.603200 0.816600
14.642500 0.820000
14.681800 0.849400
14.721000 0.858500
14.760300 0.875200
14.799600 0.899600
14.838800 0.933300
14.878100 0.971300
14.917400 1.020000
14.956600 1.101200
14.995900 1.197000
15.035200 1.625700
15.074400 1.748000
15.113700 1.816600
15.153000 1.680200
15.192200 1.689600
15.231500 1.654700
15.270800 1.613500
15.310000 1.572200
15.349300 1.550400
15.388600 1.543900
15.427800 1.524600
15.467100 1.513400
15.506400 1.395900
15.545600 1.384800
15.584900 1.419900
15.624200 1.533100
15.663400 1.673100
15.702700 1.714400
15.742000 1.631900
15.781200 1.592400
15.820500 1.554000
15.859700 1.564700
15.899000 1.602600
15.938300 1.395000
15.977500 1.388800
16.016800 1.391900
16.056100 1.383800
16.095300 1.407800
16.134600 1.493800
16.173900 1.470600
16.213100 1.477000
16.252400 1.512300
16.291700 1.376900
16.330900 1.336600
16.370200 1.298400
16.409500 1.383800
16.448700 1.370700
16.488000 1.386100
16.527300 1.464100
16.566500 1.554800
16.605800 1.740700
16.645100 1.664500
16.684300 1.786700
16.723600 1.983500
16.762900 2.335200
16.802100 2.322600
16.841400 2.412100
16.880700 2.621000
16.919900 2.428000
16.959200 2.075100
16.998500 1.838200
17.037700 1.477400
17.077000 1.511400
17.116300 1.360000
17.155500 1.390800
17.194800 1.450000
17.234100 1.901000
17.273300 1.684300
17.312600 1.764200
17.351900 1.940800
17.391100 1.859500
17.430400 1.628900
17.469700 1.471500
17.508900 1.348800
17.548200 1.379400
17.587500 1.379200
17.626700 1.466600
17.666000 1.524400
17.705300 1.546600
17.744500 1.576900
17.783800 1.885200
17.823100 1.682300
17.862300 1.725900
17.901600 1.785000
17.940900 1.716500
17.980100 1.717100
18.019400 1.734800
18.058700 1.706200
18.097900 1.758100
18.137200 1.704700
18.176500 1.595200
18.215700 1.546700
18.255000 1.503600
18.294200 1.497500
18.333500 1.489800
18.372800 1.507900
18.412000 1.545900
18.451300 1.561500
18.490600 1.591400
18.529800 1.586000
18.569100 1.518500
18.608400 1.422000
18.647600 1.354900
18.686900 1.309900
18.726200 1.352100
18.765400 1.368800
18.804700 1.378300
18.844000 1.556500
18.883200 1.634800
18.922500 1.668500
18.961800 1.590600
19.001000 1.511600
19.040300 1.447300
19.079600 1.379200
19.118800 1.276100
19.158100 1.183000
19.197400 1.162400
19.236600 1.179400
19.275900 1.213700
19.315200 1.202100
19.354400 1.183300
19.393700 1.199400
19.433000 1.205200
19.472200 1.222200
19.511500 1.297200
19.550800 1.345500
19.590000 1.358300
19.629300 1.356600
19.668600 1.360300
19.707800 1.410400
19.747100 2.065200
19.786400 1.374500
19.825600 1.380300
19.864900 1.336100
19.904200 1.300200
19.943400 1.242800
19.982700 1.159700
20.022000 1.077900
20.061200 1.002300
20.100500 0.993100
20.139800 0.993400
20.179000 1.072300
20.218300 1.087700
20.257600 1.136300
20.296800 1.196000
20.336100 1.283500
20.375400 1.339600
20.414600 1.393900
20.453900 1.372900
20.493200 1.373300
20.532400 1.422100
20.571700 1.495700
20.610900 1.586400
20.650200 1.690800
20.689500 1.634400
20.728700 1.594600
20.768000 1.588700
20.807300 1.623500
20.846500 1.683400
20.885800 1.767700
20.925100 1.774800
20.964300 1.829100
21.003600 1.634100
21.042900 1.629000
21.082100 1.653000
21.121400 1.652000
21.160700 1.684500
21.199900 1.720300
21.239200 1.784200
21.278500 1.869900
21.317700 2.096600
21.357000 2.316500
21.396300 2.486200
21.435500 2.767500
21.474800 2.884700
21.514100 2.904600
21.553300 2.767700
21.592600 2.405500
21.631900 2.204700
21.671100 2.019500
21.710400 1.955800
21.749700 1.710300
21.788900 1.529100
21.828200 1.429100
21.867500 1.398500
21.906700 1.402300
21.946000 1.470700
21.985300 1.508400
22.024500 1.549600
22.063800 1.652200
22.103100 1.777700
22.142300 1.876400
22.181600 1.925600
22.220900 1.987200
22.260100 2.101100
22.299400 2.086200
22.338700 2.114400
22.377900 2.139400
22.417200 2.174700
22.456500 2.462200
22.495700 2.915500
22.535000 2.670800
22.574300 2.638400
22.613500 2.553600
22.652800 2.308200
22.692100 2.187500
22.731300 1.927500
22.770600 1.735200
22.809900 1.676700
22.849100 1.717500
22.888400 1.907700
22.927600 1.841100
22.966900 1.852000
23.006200 1.825500
23.045400 1.805500
23.084700 1.853400
23.124000 1.881700
23.163200 1.891100
23.202500 1.887700
23.241800 1.834500
23.281000 1.793500
23.320300 1.752600
23.359600 1.712800
23.398800 1.698100
23.438100 1.791900
23.477400 1.784000
23.516600 1.784100
23.555900 1.775900
23.595200 1.698900
23.634400 1.739400
23.673700 1.801500
23.713000 1.764900
23.752200 1.820900
23.791500 1.999900
23.830800 2.111300
23.870000 2.209200
23.909300 2.269700
23.948600 2.068600
23.987800 1.986300
24.027100 2.011100
24.066400 2.017700
24.105600 2.142400
24.144900 2.076000
24.184200 1.997300
24.223400 2.001500
24.262700 1.992000
24.302000 1.974700
24.341200 1.947700
24.380500 2.198500
24.419800 2.012700
24.459000 1.968900
24.498300 1.939800
24.537600 1.990000
24.576800 1.926300
24.616100 1.963100
24.655400 2.039000
24.694600 2.151700
24.733900 2.167300
24.773200 2.037700
24.812400 2.036500
24.851700 2.198500
24.891000 2.400700
24.930200 2.290400
24.969500 2.256800
25.008800 2.220300
25.048000 2.221600
25.087300 2.141600
25.126600 2.099400
25.165800 2.071000
25.205100 1.980900
25.244300 1.994100
25.283600 1.976200
25.322900 1.962000
25.362100 1.907800
25.401400 1.929800
25.440700 2.094000
25.479900 2.182400
25.519200 2.178600
25.558500 2.116400
25.597700 2.103900
25.637000 2.072200
25.676300 2.089400
25.715500 2.096200
25.754800 2.031000
25.794100 1.987500
25.833300 1.944200
25.872600 1.943200
25.911900 2.028000
25.951100 2.016000
25.990400 1.990800
26.029700 1.972400
26.068900 1.954500
26.108200 1.953000
26.147500 2.016000
26.186700 2.198400
26.226000 2.012800
26.265300 1.750600
26.304500 1.640300
26.343800 1.806800
26.383100 1.800600
26.422300 1.820700
26.461600 1.875600
26.500900 1.761300
26.540100 1.674700
26.579400 1.831900
26.618700 1.911700
26.657900 1.939200
26.697200 1.935600
26.736500 1.978100
26.775700 2.006300
26.815000 2.207200
26.854300 2.349300
26.893500 2.200200
26.932800 2.282500
26.972100 1.662600
27.011300 1.529600
27.050600 1.595700
27.089900 1.565600
27.129100 1.604600
27.168400 1.674500
27.207700 1.714000
27.246900 1.727400
27.286200 1.675700
27.325500 1.739600
27.364700 1.782800
27.404000 1.837300
27.443300 1.923700
27.482500 2.026600
27.521800 2.061300
27.561100 2.038200
27.600300 2.019000
27.639600 2.167800
27.678800 2.364000
27.718100 2.069100
27.757400 1.947000
27.796600 1.928400
27.835900 1.925700
27.875200 1.944600
27.914400 1.961400
27.953700 2.030800
27.993000 1.986100
28.032200 2.001800
28.071500 2.036800
28.110800 2.026100
28.150000 1.933400
28.189300 1.901300
28.228600 1.850900
28.267800 1.916200
28.307100 1.896200
28.346400 1.922000
28.385600 2.011000
28.424900 2.096100
28.464200 2.028000
28.503400 2.105500
28.542700 2.186700
28.582000 2.235300
28.621200 2.272400
28.660500 2.353300
28.699800 2.513700
28.739000 2.558700
28.778300 2.466200
28.817600 2.682400
28.856800 2.619100
28.896100 2.796500
28.935400 2.914500
28.974600 2.919800
29.013900 2.913800
29.053200 2.871800
29.092400 3.033400
29.131700 3.649800
29.171000 3.361900
29.210200 3.144100
29.249500 2.948100
29.288800 2.837500
29.328000 2.663100
29.367300 2.502100
29.406600 2.339000
29.445800 2.307100
29.485100 2.161300
29.524400 2.164900
29.563600 2.499800
29.602900 2.366400
29.642200 2.455500
29.681400 2.599000
29.720700 2.510200
29.760000 2.329000
29.799200 2.509100
29.838500 2.350800
29.877800 2.343600
29.917000 2.247600
29.956300 2.222000
29.995500 2.311800
30.034800 2.398600
30.074100 2.515400
30.113300 2.750800
30.152600 2.899700
30.191900 2.679300
30.231100 2.634100
30.270400 2.614400
30.309700 2.523000
30.348900 2.368700
30.388200 2.295600
30.427500 2.335800
30.466700 2.236500
30.506000 2.154800
30.545300 2.090400
30.584500 2.027200
30.623800 1.962900
30.663100 1.946800
30.702300 1.990700
30.741600 2.074400
30.780900 2.152000
30.820100 2.100400
30.859400 2.095100
30.898700 2.020200
30.937900 1.877500
30.977200 1.852900
31.016500 1.891800
31.055700 1.875200
31.095000 1.961400
31.134300 1.990300
31.173500 1.990300
31.212800 1.881400
31.252100 1.840500
31.291300 1.739600
31.330600 1.699300
31.369900 1.683800
31.409100 1.765800
31.448400 1.594700
31.487700 1.576300
31.526900 1.562100
31.566200 1.580800
31.605500 1.656700
31.644700 1.642300
31.684000 1.679800
31.723300 1.847900
31.762500 2.090800
31.801800 2.223900
31.841100 2.782200
31.880300 2.530000
31.919600 2.706000
31.958900 2.806200
31.998100 2.833700
32.037400 2.834400
32.076700 2.723000
32.115900 2.925200
32.155200 2.531500
32.194500 2.346300
32.233700 2.182900
32.273000 2.114800
32.312200 2.116000
32.351500 2.137700
32.390800 2.104000
32.430000 2.206500
32.469300 2.404800
32.508600 2.642400
32.547800 2.607300
32.587100 2.579700
32.626400 2.558900
32.665600 2.533600
32.704900 2.532800
32.744200 2.573600
32.783400 2.641100
32.822700 2.608800
32.862000 2.480100
32.901200 2.398800
32.940500 2.372000
32.979800 2.366900
33.019000 2.277100
33.058300 2.291600
33.097600 2.242700
33.136800 2.263900
33.176100 2.280100
33.215400 2.525800
33.254600 2.435100
33.293900 2.267700
33.333200 2.320600
33.372400 2.319900
33.411700 2.306000
33.451000 2.350800
33.490200 2.231700
33.529500 2.226100
33.568800 2.323400
33.608000 2.285900
33.647300 2.455900
33.686600 2.448000
33.725800 2.434000
33.765100 2.439500
33.804400 2.367000
33.843600 2.412500
33.882900 2.461700
33.922200 2.579200
33.961400 2.646600
34.000700 2.591400
34.040000 2.600300
34.079200 2.624400
34.118500 2.677500
34.157800 3.311700
34.197000 2.812800
34.236300 2.839700
34.275600 2.878600
34.314800 2.810700
34.354100 2.694700
34.393400 2.723300
34.432600 2.812200
34.471900 2.859200
34.511200 2.984700
34.550400 3.050400
34.589700 3.186400
34.629000 3.010200
34.668200 2.788900
34.707500 2.515800
34.746700 2.370800
34.786000 2.234200
34.825300 2.138900
34.864500 2.073300
34.903800 2.103100
34.943100 2.118500
34.982300 2.128700
35.021600 2.216200
35.060900 2.289300
35.100100 2.586900
35.139400 2.583300
35.178700 2.638400
35.217900 2.631500
35.257200 2.658100
35.296500 2.632600
35.335700 2.605200
35.375000 2.616900
35.414300 2.610600
35.453500 2.677100
35.492800 2.794900
35.532100 2.742900
35.571300 2.813000
35.610600 2.919900
35.649900 2.868500
35.689100 2.859300
35.728400 2.829300
35.767700 2.723700
35.806900 2.725500
35.846200 2.734500
35.885500 2.794700
35.924700 2.841700
35.964000 2.622500
36.003300 2.840200
36.042500 2.710100
36.081800 2.456400
36.121100 2.382900
36.160300 2.347700
36.199600 2.386900
36.238900 2.379300
36.278100 2.337700
36.317400 2.466400
36.356700 2.549600
36.395900 2.557300
36.435200 2.527200
36.474500 2.207900
36.513700 2.117600
36.553000 2.044400
36.592300 2.035600
36.631500 2.043600
36.670800 2.035200
36.710100 2.057500
36.749300 2.241500
36.788600 2.040900
36.827900 2.115200
36.867100 2.239500
36.906400 2.349300
36.945700 2.332000
36.984900 2.243300
37.024200 2.204000
37.063400 2.204800
37.102700 2.114900
37.142000 2.181700
37.181200 2.109200
37.220500 2.091200
37.259800 2.177200
37.299000 2.221000
37.338300 2.245600
37.377600 2.220500
37.416800 2.266700
37.456100 2.499000
37.495400 2.539600
37.534600 2.366100
37.573900 2.339200
37.613200 2.634500
37.652400 2.270500
37.691700 2.274500
37.731000 2.165100
37.770200 2.131800
37.809500 2.073600
37.848800 1.981200
37.888000 1.879900
37.927300 1.709300
37.966600 1.623200
38.005800 1.555200
38.045100 1.493600
38.084400 1.429900
38.123600 1.418400
38.162900 1.419300
38.202200 1.210700
38.241400 1.057200
38.280700 0.938800
38.320000 0.828000
38.359200 0.779600
38.398500 0.725500
38.437800 0.698400
38.477000 0.642100
38.516300 0.605300
38.555600 0.596000
38.594800 0.586900
38.634100 0.578700
38.673400 0.583100
38.712600 0.602600
38.751900 0.533500
38.791200 0.405500
38.830400 0.377700
38.869700 0.351300
38.909000 0.326300
38.948200 0.290900
38.987500 0.285100
39.026800 0.266900
39.066000 0.240800
39.105300 0.217100
39.144600 0.194500
39.183800 0.172800
39.223100 0.152100
39.262400 0.132300
39.301600 0.102000
39.340900 0.090700
39.380100 0.079800
39.419400 0.054300
39.458700 0.040900
39.497900 0.028800
39.537200 0.017900
39.576500 0.000700
39.615700 0.000000
39.655000 0.000000
39.694300 0.000000
39.733500 0.000000
39.772800 0.000000
39.812100 0.000000
39.851300 0.000000
39.890600 0.000000
39.929900 0.000000
39.969100 0.000000
40.008400 0.000000
40.047700 0.000000
40.086900 0.000000
40.126200 0.000000
40.165500 0.000000
40.204700 0.000000
40.244000 0.000000
40.283300 0.000000
40.322500 0.000000
40.361800 0.000000
40.401100 0.000000
40.440300 0.000000
40.479600 0.000000
40.518900 0.000000
40.558100 0.000000
40.597400 0.000000
40.636700 0.000000
40.675900 0.000000
40.715200 0.000000
40.754500 0.000000
40.793700 0.000000
40.833000 0.000000
40.872300 0.000000
40.911500 0.000000
40.950800 0.000000
40.990100 0.000000
41.029300 0.000000
41.068600 0.000000
41.107900 0.000000
41.147100 0.000000
41.186400 0.000000
41.225700 0.000000
41.264900 0.000000
41.304200 0.000000
41.343500 0.000000
41.382700 0.000000
41.422000 0.000000
41.461300 0.000000
41.500500 0.000000
41.539800 0.000000
41.579100 0.000000
41.618300 0.000000
41.657600 0.000000
41.696900 0.000000
41.736100 0.000000
41.775400 0.000000
41.814600 0.000000
41.853900 0.000000
41.893200 0.000000
41.932400 0.000000
41.971700 0.000000
42.011000 0.000000
42.050200 0.000000
42.089500 0.000000
42.128800 0.000000
42.168000 0.000000
42.207300 0.000000
42.246600 0.000000
42.285800 0.000000
42.325100 0.000000
42.364400 0.000000
42.403600 0.000000
42.442900 0.000000
42.482200 0.000000
42.521400 0.000000
42.560700 0.000000
42.600000 0.000000
42.639200 0.000000
42.678500 0.000000
42.717800 0.000000
42.757000 0.000000
42.796300 0.000000
42.835600 0.000000
42.874800 0.000000
42.914100 0.000000
42.953400 0.000000
42.992600 0.000000
43.031900 0.000000
43.071200 0.000000
43.110400 0.000000
43.149700 0.000000
e
