set title 'mp-1077147 - Density of States'
set xlabel 'Energy (eV)'
set ylabel 'DOS (states/eV)'
set grid
set xrange [-10:10]
set yrange [0:6.720]
set xzeroaxis lt -1
set terminal png size 800,600
set output 'mp-1077147_dos_gnuplot.png'
plot '-' using 1:2 with lines title 'DOS'
-18.960900 0.000000
-18.943100 0.000000
-18.925300 0.000000
-18.907400 0.000000
-18.889600 0.000000
-18.871800 0.000000
-18.854000 0.000000
-18.836200 0.000000
-18.818400 0.000000
-18.800500 0.000000
-18.782700 0.000000
-18.764900 0.000000
-18.747100 0.000000
-18.729300 0.000000
-18.711400 0.000000
-18.693600 0.000000
-18.675800 0.000000
-18.658000 0.000000
-18.640200 0.000000
-18.622400 0.000000
-18.604500 0.000000
-18.586700 0.000000
-18.568900 0.000000
-18.551100 0.000000
-18.533300 0.000000
-18.515500 0.000000
-18.497600 0.000000
-18.479800 0.000000
-18.462000 0.000000
-18.444200 0.000000
-18.426400 0.000000
-18.408500 0.000000
-18.390700 0.000000
-18.372900 0.000000
-18.355100 0.000000
-18.337300 0.000000
-18.319500 0.000000
-18.301600 0.000000
-18.283800 0.000000
-18.266000 0.000000
-18.248200 0.000000
-18.230400 0.000000
-18.212600 0.000000
-18.194700 0.000000
-18.176900 0.000000
-18.159100 0.000000
-18.141300 0.000000
-18.123500 0.000000
-18.105600 0.000000
-18.087800 0.000000
-18.070000 0.000000
-18.052200 0.000000
-18.034400 0.000000
-18.016600 0.000000
-17.998700 0.000000
-17.980900 0.000000
-17.963100 0.000000
-17.945300 0.000000
-17.927500 0.000000
-17.909700 0.000000
-17.891800 0.000000
-17.874000 0.000000
-17.856200 0.000000
-17.838400 0.000000
-17.820600 0.000000
-17.802700 0.000000
-17.784900 0.000000
-17.767100 0.000000
-17.749300 0.000000
-17.731500 0.000000
-17.713700 0.000000
-17.695800 0.000000
-17.678000 0.000000
-17.660200 0.000000
-17.642400 0.000000
-17.624600 0.000000
-17.606800 0.000000
-17.588900 0.000000
-17.571100 0.000000
-17.553300 0.000000
-17.535500 0.000000
-17.517700 0.000000
-17.499900 0.000000
-17.482000 0.000000
-17.464200 0.000000
-17.446400 0.000000
-17.428600 0.000000
-17.410800 0.000000
-17.392900 0.000000
-17.375100 0.000000
-17.357300 0.000000
-17.339500 2.669600
-17.321700 22.587800
-17.303900 64.909200
-17.286000 122.256600
-17.268200 86.530200
-17.250400 48.381000
-17.232600 99.371700
-17.214800 68.047100
-17.197000 49.061600
-17.179100 49.188500
-17.161300 82.511200
-17.143500 34.559800
-17.125700 0.000000
-17.107900 0.000000
-17.090000 0.000000
-17.072200 0.000000
-17.054400 0.000000
-17.036600 0.000000
-17.018800 0.000000
-17.001000 0.000000
-16.983100 0.000000
-16.965300 0.000000
-16.947500 0.000000
-16.929700 0.000000
-16.911900 0.000000
-16.894100 0.000000
-16.876200 0.000000
-16.858400 0.000000
-16.840600 0.000000
-16.822800 0.000000
-16.805000 0.000000
-16.787100 0.000000
-16.769300 0.000000
-16.751500 0.000000
-16.733700 0.000000
-16.715900 0.000000
-16.698100 0.000000
-16.680200 0.000000
-16.662400 0.000000
-16.644600 0.000000
-16.626800 0.000000
-16.609000 0.000000
-16.591200 0.000000
-16.573300 0.000000
-16.555500 0.000000
-16.537700 0.000000
-16.519900 0.000000
-16.502100 0.000000
-16.484200 0.000000
-16.466400 0.000000
-16.448600 0.000000
-16.430800 0.000000
-16.413000 0.000000
-16.395200 0.000000
-16.377300 0.000000
-16.359500 0.000000
-16.341700 0.000000
-16.323900 0.000000
-16.306100 0.000000
-16.288300 0.000000
-16.270400 0.000000
-16.252600 0.000000
-16.234800 0.000000
-16.217000 0.000000
-16.199200 0.000000
-16.181300 0.000000
-16.163500 0.000000
-16.145700 0.000000
-16.127900 0.000000
-16.110100 0.000000
-16.092300 0.000000
-16.074400 0.000000
-16.056600 0.000000
-16.038800 0.000000
-16.021000 0.000000
-16.003200 0.000000
-15.985400 0.000000
-15.967500 0.000000
-15.949700 0.000000
-15.931900 0.000000
-15.914100 0.000000
-15.896300 0.000000
-15.878400 0.000000
-15.860600 0.000000
-15.842800 0.000000
-15.825000 0.000000
-15.807200 0.000000
-15.789400 0.000000
-15.771500 0.000000
-15.753700 0.000000
-15.735900 0.000000
-15.718100 0.000000
-15.700300 0.000000
-15.682500 0.000000
-15.664600 0.000000
-15.646800 0.000000
-15.629000 0.000000
-15.611200 0.000000
-15.593400 0.000000
-15.575500 0.000000
-15.557700 0.000000
-15.539900 0.000000
-15.522100 0.000000
-15.504300 0.000000
-15.486500 0.000000
-15.468600 0.000000
-15.450800 0.000000
-15.433000 0.000000
-15.415200 0.000000
-15.397400 0.000000
-15.379600 0.000000
-15.361700 0.000000
-15.343900 0.000000
-15.326100 0.000000
-15.308300 0.000000
-15.290500 0.000000
-15.272600 0.000000
-15.254800 0.000000
-15.237000 0.000000
-15.219200 0.000000
-15.201400 0.000000
-15.183600 0.000000
-15.165700 0.000000
-15.147900 0.000000
-15.130100 0.000000
-15.112300 0.000000
-15.094500 0.000000
-15.076700 0.000000
-15.058800 0.000000
-15.041000 0.000000
-15.023200 0.000000
-15.005400 0.000000
-14.987600 0.000000
-14.969700 0.000000
-14.951900 0.000000
-14.934100 0.000000
-14.916300 0.000000
-14.898500 0.000000
-14.880700 0.000000
-14.862800 0.000000
-14.845000 0.000000
-14.827200 0.000000
-14.809400 0.000000
-14.791600 0.000000
-14.773800 0.000000
-14.755900 0.000000
-14.738100 0.000000
-14.720300 0.000000
-14.702500 0.000000
-14.684700 0.000000
-14.666800 0.000000
-14.649000 0.000000
-14.631200 0.000000
-14.613400 0.000000
-14.595600 0.000000
-14.577800 0.000000
-14.559900 0.000000
-14.542100 0.000000
-14.524300 0.000000
-14.506500 0.000000
-14.488700 0.000000
-14.470900 0.000000
-14.453000 0.000000
-14.435200 0.000000
-14.417400 0.000000
-14.399600 0.000000
-14.381800 0.000000
-14.364000 0.000000
-14.346100 0.000000
-14.328300 0.000000
-14.310500 0.000000
-14.292700 0.000000
-14.274900 0.000000
-14.257000 0.000000
-14.239200 0.000000
-14.221400 0.000000
-14.203600 0.000000
-14.185800 0.000000
-14.168000 0.000000
-14.150100 0.000000
-14.132300 0.000000
-14.114500 0.000000
-14.096700 0.000000
-14.078900 0.000000
-14.061100 0.000000
-14.043200 0.000000
-14.025400 0.000000
-14.007600 0.000000
-13.989800 0.000000
-13.972000 0.000000
-13.954100 0.000000
-13.936300 0.000000
-13.918500 0.000000
-13.900700 0.000000
-13.882900 0.000000
-13.865100 0.000000
-13.847200 0.000000
-13.829400 0.000000
-13.811600 0.000000
-13.793800 0.000000
-13.776000 0.000000
-13.758200 0.000000
-13.740300 0.000000
-13.722500 0.000000
-13.704700 0.000000
-13.686900 0.000000
-13.669100 0.000000
-13.651200 0.000000
-13.633400 0.000000
-13.615600 0.000000
-13.597800 0.000000
-13.580000 0.000000
-13.562200 0.000000
-13.544300 0.000000
-13.526500 0.000000
-13.508700 0.000000
-13.490900 0.000000
-13.473100 0.000000
-13.455300 0.000000
-13.437400 0.000000
-13.419600 0.000000
-13.401800 0.000000
-13.384000 0.000000
-13.366200 0.000000
-13.348300 0.000000
-13.330500 0.000000
-13.312700 0.000000
-13.294900 0.000000
-13.277100 0.000000
-13.259300 0.000000
-13.241400 0.000000
-13.223600 0.000000
-13.205800 0.000000
-13.188000 0.000000
-13.170200 0.000000
-13.152400 0.000000
-13.134500 0.000000
-13.116700 0.000000
-13.098900 0.000000
-13.081100 0.000000
-13.063300 0.000000
-13.045400 0.000000
-13.027600 0.000000
-13.009800 0.000000
-12.992000 0.000000
-12.974200 0.000000
-12.956400 0.000000
-12.938500 0.000000
-12.920700 0.000000
-12.902900 0.000000
-12.885100 0.000000
-12.867300 0.000000
-12.849500 0.000000
-12.831600 0.000000
-12.813800 0.000000
-12.796000 0.000000
-12.778200 0.000000
-12.760400 0.000000
-12.742500 0.000000
-12.724700 0.000000
-12.706900 0.000000
-12.689100 0.000000
-12.671300 0.000000
-12.653500 0.000000
-12.635600 0.000000
-12.617800 0.000000
-12.600000 0.000000
-12.582200 0.000000
-12.564400 0.000000
-12.546600 0.000000
-12.528700 0.000000
-12.510900 0.000000
-12.493100 0.000000
-12.475300 0.000000
-12.457500 0.000000
-12.439600 0.000000
-12.421800 0.000000
-12.404000 0.000000
-12.386200 0.000000
-12.368400 0.000000
-12.350600 0.000000
-12.332700 0.000000
-12.314900 0.000000
-12.297100 0.000000
-12.279300 0.000000
-12.261500 0.000000
-12.243700 0.000000
-12.225800 0.000000
-12.208000 0.000000
-12.190200 0.000000
-12.172400 0.000000
-12.154600 0.000000
-12.136700 0.000000
-12.118900 0.000000
-12.101100 0.000000
-12.083300 0.000000
-12.065500 0.000000
-12.047700 0.000000
-12.029800 0.000000
-12.012000 0.000000
-11.994200 0.000000
-11.976400 0.000000
-11.958600 0.000000
-11.940800 0.000000
-11.922900 0.000000
-11.905100 0.000000
-11.887300 0.000000
-11.869500 0.000000
-11.851700 0.000000
-11.833800 0.000000
-11.816000 0.000000
-11.798200 0.000000
-11.780400 0.000000
-11.762600 0.000000
-11.744800 0.000000
-11.726900 0.000000
-11.709100 0.000000
-11.691300 0.000000
-11.673500 0.000000
-11.655700 0.000000
-11.637900 0.000000
-11.620000 0.000000
-11.602200 0.000000
-11.584400 0.000000
-11.566600 0.000000
-11.548800 0.000000
-11.530900 0.000000
-11.513100 0.000000
-11.495300 0.000000
-11.477500 0.000000
-11.459700 0.000000
-11.441900 0.000000
-11.424000 0.000000
-11.406200 0.000000
-11.388400 0.000000
-11.370600 0.000000
-11.352800 0.000000
-11.335000 0.000000
-11.317100 0.000000
-11.299300 0.000000
-11.281500 0.000000
-11.263700 0.000000
-11.245900 0.000000
-11.228100 0.000000
-11.210200 0.000000
-11.192400 0.000000
-11.174600 0.000000
-11.156800 0.000000
-11.139000 0.000000
-11.121100 0.000000
-11.103300 0.000000
-11.085500 0.000000
-11.067700 0.000000
-11.049900 0.000000
-11.032100 0.000000
-11.014200 0.000000
-10.996400 0.000000
-10.978600 0.000000
-10.960800 0.000000
-10.943000 0.000000
-10.925200 0.000000
-10.907300 0.000000
-10.889500 0.000000
-10.871700 0.000000
-10.853900 0.000000
-10.836100 0.000000
-10.818200 0.000000
-10.800400 0.000000
-10.782600 0.000000
-10.764800 0.000000
-10.747000 0.000000
-10.729200 0.000000
-10.711300 0.000000
-10.693500 0.000000
-10.675700 0.000000
-10.657900 0.000000
-10.640100 0.000000
-10.622300 0.000000
-10.604400 0.000000
-10.586600 0.000000
-10.568800 0.000000
-10.551000 0.000000
-10.533200 0.000000
-10.515300 0.000000
-10.497500 0.000000
-10.479700 0.000000
-10.461900 0.000000
-10.444100 0.000000
-10.426300 0.000000
-10.408400 0.000000
-10.390600 0.000000
-10.372800 0.000000
-10.355000 0.000000
-10.337200 0.000000
-10.319400 0.000000
-10.301500 0.000000
-10.283700 0.000000
-10.265900 0.000000
-10.248100 0.000000
-10.230300 0.000000
-10.212400 0.000000
-10.194600 0.000000
-10.176800 0.000000
-10.159000 0.000000
-10.141200 0.000000
-10.123400 0.000000
-10.105500 0.000000
-10.087700 0.000000
-10.069900 0.000000
-10.052100 0.000000
-10.034300 0.000000
-10.016500 0.000000
-9.998600 0.000000
-9.980800 0.000000
-9.963000 0.000000
-9.945200 0.000000
-9.927400 0.000000
-9.909500 0.000000
-9.891700 0.000000
-9.873900 0.000000
-9.856100 0.000000
-9.838300 0.000000
-9.820500 0.000000
-9.802600 0.000000
-9.784800 0.000000
-9.767000 0.000000
-9.749200 0.000000
-9.731400 0.000000
-9.713600 0.000000
-9.695700 0.000000
-9.677900 0.000000
-9.660100 0.000000
-9.642300 0.000000
-9.624500 0.000000
-9.606600 0.000000
-9.588800 0.000000
-9.571000 0.000000
-9.553200 0.000000
-9.535400 0.000000
-9.517600 0.000000
-9.499700 0.000000
-9.481900 0.000000
-9.464100 0.000000
-9.446300 0.000000
-9.428500 0.000000
-9.410700 0.000000
-9.392800 0.000000
-9.375000 0.000000
-9.357200 0.000000
-9.339400 0.000000
-9.321600 0.000000
-9.303700 0.000000
-9.285900 0.000000
-9.268100 0.000000
-9.250300 0.000000
-9.232500 0.000000
-9.214700 0.000000
-9.196800 0.000000
-9.179000 0.000000
-9.161200 0.000000
-9.143400 0.000000
-9.125600 0.000000
-9.107800 0.000000
-9.089900 0.000000
-9.072100 0.000000
-9.054300 0.000000
-9.036500 0.000000
-9.018700 0.000000
-9.000800 0.000000
-8.983000 0.000000
-8.965200 0.000000
-8.947400 0.000000
-8.929600 0.000000
-8.911800 0.000000
-8.893900 0.000000
-8.876100 0.000000
-8.858300 0.000000
-8.840500 0.000000
-8.822700 0.000000
-8.804900 0.000000
-8.787000 0.000000
-8.769200 0.000000
-8.751400 0.000000
-8.733600 0.000000
-8.715800 0.000000
-8.697900 0.000000
-8.680100 0.000000
-8.662300 0.000000
-8.644500 0.000000
-8.626700 0.000000
-8.608900 0.000000
-8.591000 0.000000
-8.573200 0.000000
-8.555400 0.000000
-8.537600 0.000000
-8.519800 0.000000
-8.502000 0.000000
-8.484100 0.000000
-8.466300 0.000000
-8.448500 0.000000
-8.430700 0.000000
-8.412900 0.000000
-8.395000 0.000000
-8.377200 0.000000
-8.359400 0.000000
-8.341600 0.000000
-8.323800 0.000000
-8.306000 0.000000
-8.288100 0.000000
-8.270300 0.000000
-8.252500 0.000000
-8.234700 0.000000
-8.216900 0.000000
-8.199100 0.000000
-8.181200 0.000000
-8.163400 0.000000
-8.145600 0.000000
-8.127800 0.000000
-8.110000 0.000000
-8.092200 0.000000
-8.074300 0.000000
-8.056500 0.000000
-8.038700 0.000000
-8.020900 0.000000
-8.003100 0.000000
-7.985200 0.000000
-7.967400 0.000000
-7.949600 0.000000
-7.931800 0.000000
-7.914000 0.000000
-7.896200 0.000000
-7.878300 0.000000
-7.860500 0.000000
-7.842700 0.000000
-7.824900 0.000000
-7.807100 0.000000
-7.789300 0.000000
-7.771400 0.000000
-7.753600 0.000000
-7.735800 0.000000
-7.718000 0.000000
-7.700200 0.000000
-7.682300 0.000000
-7.664500 0.000000
-7.646700 0.000000
-7.628900 0.000000
-7.611100 0.000000
-7.593300 0.000000
-7.575400 0.000000
-7.557600 0.000000
-7.539800 0.000000
-7.522000 0.000000
-7.504200 0.000000
-7.486400 0.000000
-7.468500 0.000000
-7.450700 0.000000
-7.432900 0.000000
-7.415100 0.000000
-7.397300 0.000000
-7.379400 0.000000
-7.361600 0.000000
-7.343800 0.000000
-7.326000 0.000000
-7.308200 0.000000
-7.290400 0.000000
-7.272500 0.000000
-7.254700 0.000000
-7.236900 0.000000
-7.219100 0.000000
-7.201300 0.000000
-7.183500 0.000000
-7.165600 0.000000
-7.147800 0.000000
-7.130000 0.000000
-7.112200 0.000000
-7.094400 0.000000
-7.076500 0.000000
-7.058700 0.000000
-7.040900 0.000000
-7.023100 0.000000
-7.005300 0.000000
-6.987500 0.000000
-6.969600 0.000000
-6.951800 0.000000
-6.934000 0.000000
-6.916200 0.000000
-6.898400 0.000000
-6.880600 0.000000
-6.862700 0.000000
-6.844900 0.000000
-6.827100 0.000000
-6.809300 0.000000
-6.791500 0.000000
-6.773600 0.000000
-6.755800 0.000000
-6.738000 0.000000
-6.720200 0.000000
-6.702400 0.000000
-6.684600 0.000000
-6.666700 0.000000
-6.648900 0.000000
-6.631100 0.000000
-6.613300 0.000000
-6.595500 0.000000
-6.577700 0.000000
-6.559800 0.000000
-6.542000 0.000000
-6.524200 0.000000
-6.506400 0.000000
-6.488600 0.000000
-6.470700 0.000000
-6.452900 0.000000
-6.435100 0.000000
-6.417300 0.000000
-6.399500 0.000000
-6.381700 0.000000
-6.363800 0.000000
-6.346000 0.000000
-6.328200 0.000000
-6.310400 0.000000
-6.292600 0.000000
-6.274800 0.000000
-6.256900 0.000000
-6.239100 0.000000
-6.221300 0.000000
-6.203500 0.000000
-6.185700 0.000000
-6.167800 0.000000
-6.150000 0.000000
-6.132200 0.000000
-6.114400 0.000000
-6.096600 0.000000
-6.078800 0.000000
-6.060900 0.000000
-6.043100 0.000000
-6.025300 0.000000
-6.007500 0.000000
-5.989700 0.000000
-5.971900 0.000000
-5.954000 0.000000
-5.936200 0.000000
-5.918400 0.000000
-5.900600 0.000000
-5.882800 0.000000
-5.864900 0.000000
-5.847100 0.000000
-5.829300 0.000000
-5.811500 0.000000
-5.793700 0.000000
-5.775900 0.000000
-5.758000 0.000000
-5.740200 0.000000
-5.722400 0.000000
-5.704600 0.000000
-5.686800 0.000000
-5.669000 0.000000
-5.651100 0.000000
-5.633300 0.000000
-5.615500 0.000000
-5.597700 0.000000
-5.579900 0.000000
-5.562000 0.000000
-5.544200 0.000000
-5.526400 0.000000
-5.508600 0.000000
-5.490800 0.000000
-5.473000 0.000000
-5.455100 0.000000
-5.437300 0.000000
-5.419500 0.000000
-5.401700 0.000000
-5.383900 0.000000
-5.366100 0.000000
-5.348200 0.000000
-5.330400 0.000000
-5.312600 0.000000
-5.294800 0.000000
-5.277000 0.000000
-5.259100 0.000000
-5.241300 0.106500
-5.223500 0.127300
-5.205700 0.166700
-5.187900 0.209400
-5.170100 0.244100
-5.152200 0.265500
-5.134400 0.277200
-5.116600 0.293100
-5.098800 0.312300
-5.081000 0.335500
-5.063200 0.359900
-5.045300 0.384900
-5.027500 0.405800
-5.009700 0.420100
-4.991900 0.431700
-4.974100 0.443800
-4.956300 0.458600
-4.938400 0.475500
-4.920600 0.492400
-4.902800 0.509400
-4.885000 0.526800
-4.867200 0.544900
-4.849300 0.562400
-4.831500 0.579400
-4.813700 0.593500
-4.795900 0.609100
-4.778100 0.623500
-4.760300 0.638900
-4.742400 0.655400
-4.724600 0.672700
-4.706800 0.697300
-4.689000 0.726300
-4.671200 0.747400
-4.653400 0.760700
-4.635500 0.768100
-4.617700 0.783700
-4.599900 0.797800
-4.582100 0.835700
-4.564300 0.821300
-4.546400 0.833600
-4.528600 0.844100
-4.510800 0.852300
-4.493000 0.873100
-4.475200 0.890700
-4.457400 0.890900
-4.439500 0.920000
-4.421700 0.953000
-4.403900 0.995900
-4.386100 1.046100
-4.368300 1.040700
-4.350500 1.053200
-4.332600 1.062300
-4.314800 1.080200
-4.297000 1.104300
-4.279200 1.129600
-4.261400 1.155500
-4.243500 1.187400
-4.225700 1.206500
-4.207900 1.236000
-4.190100 1.270000
-4.172300 1.307700
-4.154500 1.340100
-4.136600 1.372800
-4.118800 1.408400
-4.101000 1.442600
-4.083200 1.478100
-4.065400 1.513600
-4.047600 1.564800
-4.029700 1.625000
-4.011900 1.686500
-3.994100 1.749000
-3.976300 1.815200
-3.958500 1.886600
-3.940600 1.964300
-3.922800 2.046900
-3.905000 2.141200
-3.887200 2.382200
-3.869400 3.012400
-3.851600 3.111600
-3.833700 2.763600
-3.815900 2.409000
-3.798100 2.185300
-3.780300 2.099300
-3.762500 2.053300
-3.744700 1.983200
-3.726800 1.887400
-3.709000 1.812900
-3.691200 1.785200
-3.673400 1.766000
-3.655600 1.741300
-3.637700 1.723300
-3.619900 1.690900
-3.602100 1.649000
-3.584300 1.618400
-3.566500 1.603000
-3.548700 1.596400
-3.530800 1.589100
-3.513000 1.581100
-3.495200 1.572900
-3.477400 1.563700
-3.459600 1.549700
-3.441800 1.535700
-3.423900 1.524600
-3.406100 1.516100
-3.388300 1.517700
-3.370500 1.518500
-3.352700 1.519600
-3.334800 1.520300
-3.317000 1.520400
-3.299200 1.523100
-3.281400 1.524300
-3.263600 1.525700
-3.245800 1.525600
-3.227900 1.526400
-3.210100 1.527200
-3.192300 1.535200
-3.174500 1.552000
-3.156700 1.572800
-3.138900 1.609300
-3.121000 1.649600
-3.103200 1.666100
-3.085400 1.663700
-3.067600 1.698900
-3.049800 1.711100
-3.031900 1.641100
-3.014100 1.609600
-2.996300 1.592700
-2.978500 1.644700
-2.960700 1.680100
-2.942900 1.622200
-2.925000 1.493200
-2.907200 1.453400
-2.889400 1.422000
-2.871600 1.413800
-2.853800 1.443100
-2.836000 1.463100
-2.818100 1.490300
-2.800300 1.535100
-2.782500 1.587000
-2.764700 1.654000
-2.746900 1.740300
-2.729000 1.869900
-2.711200 1.902000
-2.693400 1.916700
-2.675600 1.912800
-2.657800 1.897300
-2.640000 1.889700
-2.622100 1.901800
-2.604300 1.934600
-2.586500 1.977300
-2.568700 2.026800
-2.550900 2.134800
-2.533100 2.234400
-2.515200 2.334800
-2.497400 2.275600
-2.479600 2.080700
-2.461800 1.832800
-2.444000 1.618300
-2.426100 1.456700
-2.408300 1.349600
-2.390500 1.261100
-2.372700 1.176500
-2.354900 1.093600
-2.337100 1.000000
-2.319200 0.898700
-2.301400 0.797700
-2.283600 0.695100
-2.265800 0.582000
-2.248000 0.446300
-2.230200 0.312600
-2.212300 0.258800
-2.194500 0.207600
-2.176700 0.159800
-2.158900 0.089900
-2.141100 0.054900
-2.123200 0.037900
-2.105400 0.042500
-2.087600 0.074600
-2.069800 0.098500
-2.052000 0.128000
-2.034200 0.163000
-2.016300 0.201300
-1.998500 0.246400
-1.980700 0.300800
-1.962900 0.366500
-1.945100 0.444500
-1.927300 0.544000
-1.909400 0.712600
-1.891600 0.886100
-1.873800 1.071200
-1.856000 1.140500
-1.838200 1.254200
-1.820400 1.302700
-1.802500 1.325600
-1.784700 1.356800
-1.766900 1.370500
-1.749100 1.413200
-1.731300 1.445500
-1.713400 1.470500
-1.695600 1.491600
-1.677800 1.519100
-1.660000 1.555900
-1.642200 1.599500
-1.624400 1.638600
-1.606500 1.677900
-1.588700 1.733700
-1.570900 1.837800
-1.553100 1.976600
-1.535300 2.159300
-1.517500 2.326800
-1.499600 2.207300
-1.481800 2.075200
-1.464000 1.927300
-1.446200 1.849400
-1.428400 1.785400
-1.410500 1.722000
-1.392700 1.678700
-1.374900 1.643300
-1.357100 1.611600
-1.339300 1.582700
-1.321500 1.553700
-1.303600 1.525000
-1.285800 1.496200
-1.268000 1.468400
-1.250200 1.441500
-1.232400 1.415600
-1.214600 1.397100
-1.196700 1.380400
-1.178900 1.353900
-1.161100 1.325300
-1.143300 1.294700
-1.125500 1.262500
-1.107600 1.252900
-1.089800 1.245200
-1.072000 1.240600
-1.054200 1.218800
-1.036400 1.186700
-1.018600 1.126900
-1.000700 1.056200
-0.982900 1.010600
-0.965100 0.971400
-0.947300 0.935100
-0.929500 0.898400
-0.911700 0.868700
-0.893800 0.841000
-0.876000 0.806400
-0.858200 0.759800
-0.840400 0.739800
-0.822600 0.721100
-0.804700 0.705100
-0.786900 0.694700
-0.769100 0.688100
-0.751300 0.682700
-0.733500 0.680000
-0.715700 0.680900
-0.697800 0.685700
-0.680000 0.694800
-0.662200 0.731300
-0.644400 0.761800
-0.626600 0.753400
-0.608800 0.734300
-0.590900 0.713200
-0.573100 0.696400
-0.555300 0.700200
-0.537500 0.712200
-0.519700 0.725800
-0.501800 0.718000
-0.484000 0.705500
-0.466200 0.699900
-0.448400 0.698100
-0.430600 0.698100
-0.412800 0.697300
-0.394900 0.695800
-0.377100 0.692900
-0.359300 0.688800
-0.341500 0.685600
-0.323700 0.689200
-0.305900 0.712100
-0.288000 0.717300
-0.270200 0.710000
-0.252400 0.706800
-0.234600 0.704600
-0.216800 0.702400
-0.198900 0.700000
-0.181100 0.697900
-0.163300 0.698300
-0.145500 0.698900
-0.127700 0.699100
-0.109900 0.699800
-0.092000 0.701300
-0.074200 0.704100
-0.056400 0.707400
-0.038600 0.710700
-0.020800 0.714000
-0.003000 0.723600
0.014900 0.735000
0.032700 0.745100
0.050500 0.754100
0.068300 0.764000
0.086100 0.775000
0.104000 0.819100
0.121800 0.861700
0.139600 0.831300
0.157400 0.813500
0.175200 0.812200
0.193000 0.815000
0.210900 0.817900
0.228700 0.814400
0.246500 0.809500
0.264300 0.801100
0.282100 0.801200
0.299900 0.806600
0.317800 0.816300
0.335600 0.830600
0.353400 0.850600
0.371200 0.884300
0.389000 1.022100
0.406900 1.185200
0.424700 1.376900
0.442500 2.228100
0.460300 3.336800
0.478100 4.501400
0.495900 4.094600
0.513800 3.482300
0.531600 3.041900
0.549400 2.556800
0.567200 2.338100
0.585000 2.117300
0.602800 1.963300
0.620700 1.880700
0.638500 1.850300
0.656300 1.829000
0.674100 1.818400
0.691900 1.814500
0.709800 1.819000
0.727600 1.816500
0.745400 1.816200
0.763200 1.834400
0.781000 1.739500
0.798800 1.627000
0.816700 1.447100
0.834500 1.201300
0.852300 1.063700
0.870100 0.949700
0.887900 0.836800
0.905700 0.748400
0.923600 0.711700
0.941400 0.683000
0.959200 0.657400
0.977000 0.634100
0.994800 0.613500
1.012700 0.594600
1.030500 0.577200
1.048300 0.562800
1.066100 0.553400
1.083900 0.544400
1.101700 0.531200
1.119600 0.504600
1.137400 0.481200
1.155200 0.472200
1.173000 0.463100
1.190800 0.453700
1.208600 0.444800
1.226500 0.436600
1.244300 0.428400
1.262100 0.420100
1.279900 0.411900
1.297700 0.408700
1.315500 0.415400
1.333400 0.443700
1.351200 0.476300
1.369000 0.509800
1.386800 0.553100
1.404600 0.594000
1.422500 0.634200
1.440300 0.670200
1.458100 0.711900
1.475900 0.754700
1.493700 0.793000
1.511500 0.829000
1.529400 0.872500
1.547200 0.893000
1.565000 0.911600
1.582800 0.937900
1.600600 0.987500
1.618400 1.052100
1.636300 1.126300
1.654100 1.211300
1.671900 1.306700
1.689700 1.412500
1.707500 1.709200
1.725400 1.701600
1.743200 1.842500
1.761000 2.006100
1.778800 2.219100
1.796600 2.364800
1.814400 2.566000
1.832300 2.835200
1.850100 3.041400
1.867900 3.194000
1.885700 3.341200
1.903500 3.473200
1.921300 3.683600
1.939200 3.891500
1.957000 4.117400
1.974800 4.259700
1.992600 4.183600
2.010400 4.860900
2.028300 4.139400
2.046100 3.645300
2.063900 3.653800
2.081700 3.245200
2.099500 3.032200
2.117300 2.540200
2.135200 3.303400
2.153000 4.203100
2.170800 3.622800
2.188600 3.432600
2.206400 3.269700
2.224200 3.128600
2.242100 2.981200
2.259900 2.930000
2.277700 2.767300
2.295500 2.634300
2.313300 2.570500
2.331200 2.610900
2.349000 2.504400
2.366800 2.460400
2.384600 2.451200
2.402400 2.436600
2.420200 2.448800
2.438100 2.465200
2.455900 2.465100
2.473700 2.503800
2.491500 2.442500
2.509300 2.404700
2.527100 2.373600
2.545000 2.329000
2.562800 2.237200
2.580600 2.237700
2.598400 2.266500
2.616200 2.481400
2.634100 2.629300
2.651900 2.694100
2.669700 2.785100
2.687500 2.882000
2.705300 2.971000
2.723100 3.079300
2.741000 3.163000
2.758800 3.274100
2.776600 3.469200
2.794400 3.728200
2.812200 3.976800
2.830000 4.267200
2.847900 4.477900
2.865700 4.391700
2.883500 4.477600
2.901300 4.650200
2.919100 4.292800
2.937000 4.101300
2.954800 4.209300
2.972600 3.993400
2.990400 3.971800
3.008200 3.974200
3.026000 3.958100
3.043900 3.891200
3.061700 3.759600
3.079500 3.633700
3.097300 3.493500
3.115100 3.447800
3.132900 3.300400
3.150800 3.218900
3.168600 3.177700
3.186400 3.146500
3.204200 3.124700
3.222000 3.107200
3.239900 4.120900
3.257700 3.222200
3.275500 2.963400
3.293300 2.865800
3.311100 2.764200
3.328900 2.692900
3.346800 2.624300
3.364600 2.498400
3.382400 2.499300
3.400200 2.547600
3.418000 2.721800
3.435800 3.753800
3.453700 5.204500
3.471500 1.584400
3.489300 1.447100
3.507100 1.258900
3.524900 1.155600
3.542800 1.138100
3.560600 1.175000
3.578400 1.205800
3.596200 1.215800
3.614000 1.223300
3.631800 1.262000
3.649700 1.308000
3.667500 1.380800
3.685300 1.467400
3.703100 1.645600
3.720900 1.720300
3.738700 1.730300
3.756600 1.662900
3.774400 1.816300
3.792200 1.523900
3.810000 1.550500
3.827800 1.550600
3.845700 1.626300
3.863500 1.658900
3.881300 1.720500
3.899100 1.828300
3.916900 2.366400
3.934700 2.080000
3.952600 2.112500
3.970400 2.139700
3.988200 2.151500
4.006000 2.072800
4.023800 2.180900
4.041600 2.322700
4.059500 2.524400
4.077300 2.438400
4.095100 2.542800
4.112900 2.769600
4.130700 2.813500
4.148600 2.724900
4.166400 2.837900
4.184200 2.929400
4.202000 3.047900
4.219800 3.099700
4.237600 3.198200
4.255500 3.229000
4.273300 3.239000
4.291100 3.297600
4.308900 3.326100
4.326700 3.378400
4.344500 3.367000
4.362400 3.473200
4.380200 3.746900
4.398000 3.743300
4.415800 3.823300
4.433600 3.848600
4.451400 3.855100
4.469300 3.823200
4.487100 3.800600
4.504900 3.809900
4.522700 3.841900
4.540500 4.267000
4.558400 4.395000
4.576200 4.554700
4.594000 4.543300
4.611800 5.135800
4.629600 4.093600
4.647400 4.036100
4.665300 3.860600
4.683100 3.711400
4.700900 3.613300
4.718700 3.549500
4.736500 3.477000
4.754300 3.401800
4.772200 3.240200
4.790000 3.141100
4.807800 2.951300
4.825600 2.908300
4.843400 2.813200
4.861300 2.656200
4.879100 2.637700
4.896900 2.742600
4.914700 2.844900
4.932500 3.009100
4.950300 3.165400
4.968200 3.339100
4.986000 3.428100
5.003800 3.469500
5.021600 3.494700
5.039400 3.455900
5.057200 3.213600
5.075100 2.703000
5.092900 2.583700
5.110700 2.411200
5.128500 2.323900
5.146300 2.251900
5.164200 2.181200
5.182000 2.118200
5.199800 2.065400
5.217600 2.018900
5.235400 1.982900
5.253200 1.956200
5.271100 1.935300
5.288900 1.864000
5.306700 1.824900
5.324500 1.841600
5.342300 1.859300
5.360100 1.870000
5.378000 1.882100
5.395800 1.883500
5.413600 1.902000
5.431400 2.209100
5.449200 1.852400
5.467100 1.825100
5.484900 1.801200
5.502700 1.782400
5.520500 1.793800
5.538300 1.790800
5.556100 1.702100
5.574000 1.678700
5.591800 1.681500
5.609600 1.720900
5.627400 1.743400
5.645200 1.749400
5.663000 1.756000
5.680900 1.786800
5.698700 1.685900
5.716500 1.675500
5.734300 1.653700
5.752100 1.625000
5.770000 1.639600
5.787800 1.711800
5.805600 1.793500
5.823400 1.815200
5.841200 1.725200
5.859000 1.639000
5.876900 1.650900
5.894700 1.637400
5.912500 1.602100
5.930300 1.556700
5.948100 1.533600
5.965900 1.625200
5.983800 1.784100
6.001600 1.888200
6.019400 1.909100
6.037200 1.948200
6.055000 2.094100
6.072900 2.197600
6.090700 2.273900
6.108500 2.341800
6.126300 2.432500
6.144100 2.482600
6.161900 2.418800
6.179800 2.403600
6.197600 2.373000
6.215400 2.333800
6.233200 2.330700
6.251000 2.451900
6.268800 2.639300
6.286700 2.742200
6.304500 3.055700
6.322300 3.273900
6.340100 3.446000
6.357900 3.348600
6.375800 3.273000
6.393600 3.243400
6.411400 3.111400
6.429200 2.980500
6.447000 2.864800
6.464800 2.715600
6.482700 2.627900
6.500500 2.597700
6.518300 2.593100
6.536100 2.578900
6.553900 2.492300
6.571700 2.383700
6.589600 2.213800
6.607400 1.973600
6.625200 1.634700
6.643000 1.609200
6.660800 1.579300
6.678700 1.522500
6.696500 1.462600
6.714300 1.441000
6.732100 1.451400
6.749900 1.485200
6.767700 1.544000
6.785600 1.637500
6.803400 1.765000
6.821200 1.895400
6.839000 2.165400
6.856800 2.480700
6.874600 2.717400
6.892500 3.142800
6.910300 3.510500
6.928100 3.141300
6.945900 2.957000
6.963700 2.942300
6.981600 2.935600
6.999400 2.852400
7.017200 2.834800
7.035000 2.810400
7.052800 2.781400
7.070600 2.774300
7.088500 2.790900
7.106300 2.847600
7.124100 2.876500
7.141900 2.924200
7.159700 2.892100
7.177500 2.912800
7.195400 2.956800
7.213200 2.971800
7.231000 2.987700
7.248800 3.071900
7.266600 3.130200
7.284500 3.177500
7.302300 3.260500
7.320100 3.377200
7.337900 3.489200
7.355700 3.568000
7.373500 3.594400
7.391400 3.566600
7.409200 3.495300
7.427000 3.419800
7.444800 3.330600
7.462600 3.222600
7.480400 3.099900
7.498300 2.972700
7.516100 2.937600
7.533900 2.783200
7.551700 2.708700
7.569500 2.667500
7.587300 2.606800
7.605200 2.570100
7.623000 2.592500
7.640800 2.660100
7.658600 2.758700
7.676400 2.847600
7.694300 2.908800
7.712100 2.945700
7.729900 3.019200
7.747700 3.144400
7.765500 3.248400
7.783300 3.350700
7.801200 3.388500
7.819000 3.376500
7.836800 3.545200
7.854600 3.556000
7.872400 3.635800
7.890200 3.757600
7.908100 3.881000
7.925900 3.949000
7.943700 3.971000
7.961500 4.012100
7.979300 3.865100
7.997200 3.834900
8.015000 3.788100
8.032800 3.721500
8.050600 3.323800
8.068400 3.194000
8.086200 3.166200
8.104100 3.091900
8.121900 3.030900
8.139700 2.961600
8.157500 2.907700
8.175300 2.901500
8.193100 2.927100
8.211000 2.914200
8.228800 2.952100
8.246600 2.997800
8.264400 2.981300
8.282200 2.990700
8.300100 2.978800
8.317900 2.996400
8.335700 3.121000
8.353500 3.121600
8.371300 3.100800
8.389100 2.943800
8.407000 2.811300
8.424800 2.778600
8.442600 2.829200
8.460400 3.007700
8.478200 3.306600
8.496000 3.452600
8.513900 3.408100
8.531700 3.393100
8.549500 3.379800
8.567300 3.358300
8.585100 3.397800
8.603000 3.540600
8.620800 3.716700
8.638600 3.815500
8.656400 3.859500
8.674200 3.921900
8.692000 3.934400
8.709900 4.042400
8.727700 4.395000
8.745500 4.751800
8.763300 5.143500
8.781100 5.584800
8.798900 5.729400
8.816800 5.837700
8.834600 6.023000
8.852400 6.108800
8.870200 5.961400
8.888000 5.610000
8.905900 5.154600
8.923700 4.702000
8.941500 4.468600
8.959300 4.235300
8.977100 4.040900
8.994900 3.926900
9.012800 3.965200
9.030600 4.052800
9.048400 4.322300
9.066200 4.337800
9.084000 4.429000
9.101800 4.421100
9.119700 4.409900
9.137500 4.208800
9.155300 4.003500
9.173100 3.879300
9.190900 3.859500
9.208800 3.915900
9.226600 4.037900
9.244400 4.333100
9.262200 4.520600
9.280000 4.655900
9.297800 4.744900
9.315700 4.705500
9.333500 4.601500
9.351300 4.426200
9.369100 4.223600
9.386900 4.028300
9.404700 3.955800
9.422600 3.915200
9.440400 3.938000
9.458200 4.021900
9.476000 4.079200
9.493800 4.133900
9.511700 4.240600
9.529500 4.345600
9.547300 4.418100
9.565100 4.516400
9.582900 4.640500
9.600700 4.721200
9.618600 4.770700
9.636400 5.029900
9.654200 4.997800
9.672000 4.824400
9.689800 4.598700
9.707600 4.359600
9.725500 4.253800
9.743300 4.212500
9.761100 4.240200
9.778900 4.492300
9.796700 4.885200
9.814600 5.161900
9.832400 5.119100
9.850200 5.118200
9.868000 5.063400
9.885800 5.115800
9.903600 5.068200
9.921500 4.862200
9.939300 4.738400
9.957100 4.675900
9.974900 4.605300
9.992700 4.590700
10.010500 4.694000
10.028400 4.903000
10.046200 5.065100
10.064000 5.137300
10.081800 5.158900
10.099600 5.157500
10.117500 5.209300
10.135300 4.875900
10.153100 4.944700
10.170900 5.033000
10.188700 5.012600
10.206500 4.917200
10.224400 4.916200
10.242200 4.918000
10.260000 5.123600
10.277800 5.287900
10.295600 5.468600
10.313400 5.473500
10.331300 5.404000
10.349100 5.298800
10.366900 5.214900
10.384700 5.166900
10.402500 5.128500
10.420400 5.149100
10.438200 5.306600
10.456000 5.380900
10.473800 5.598800
10.491600 5.718000
10.509400 5.809000
10.527300 5.669200
10.545100 5.765000
10.562900 5.960000
10.580700 5.958000
10.598500 6.018100
10.616300 6.415400
10.634200 7.126200
10.652000 8.062500
10.669800 8.460200
10.687600 7.960900
10.705400 7.607800
10.723200 7.363400
10.741100 6.636600
10.758900 6.393300
10.776700 6.305300
10.794500 6.319200
10.812300 6.221100
10.830200 6.204500
10.848000 6.413000
10.865800 6.530500
10.883600 6.610000
10.901400 6.796800
10.919200 6.648600
10.937100 7.000500
10.954900 7.115700
10.972700 7.115000
10.990500 7.210200
11.008300 7.022600
11.026100 7.030400
11.044000 6.802400
11.061800 6.873500
11.079600 6.738600
11.097400 7.788900
11.115200 7.900000
11.133100 6.470600
11.150900 5.010200
11.168700 4.734000
11.186500 4.881100
11.204300 4.941700
11.222100 4.839800
11.240000 4.875100
11.257800 4.904700
11.275600 4.790800
11.293400 4.757300
11.311200 4.632300
11.329000 4.661500
11.346900 4.681100
11.364700 4.720000
11.382500 4.846000
11.400300 5.000200
11.418100 4.904400
11.436000 4.844800
11.453800 4.858600
11.471600 4.871200
11.489400 5.213900
11.507200 5.046400
11.525000 4.478000
11.542900 4.166600
11.560700 4.113800
11.578500 4.145000
11.596300 4.145500
11.614100 4.192700
11.631900 4.204100
11.649800 4.034800
11.667600 4.508500
11.685400 5.038400
11.703200 5.887200
11.721000 5.775200
11.738900 4.784500
11.756700 4.873900
11.774500 4.884400
11.792300 4.934300
11.810100 4.983100
11.827900 4.963700
11.845800 4.892900
11.863600 4.884700
11.881400 4.830600
11.899200 4.801300
11.917000 4.894700
11.934800 5.126300
11.952700 5.291500
11.970500 5.423300
11.988300 5.518300
12.006100 5.522700
12.023900 5.283800
12.041800 4.972300
12.059600 4.555300
12.077400 4.243000
12.095200 4.306500
12.113000 4.607000
12.130800 4.436800
12.148700 4.687200
12.166500 5.251900
12.184300 5.122400
12.202100 4.930300
12.219900 4.880400
12.237700 4.628000
12.255600 4.382000
12.273400 4.385700
12.291200 4.502000
12.309000 4.528800
12.326800 4.554000
12.344700 4.603200
12.362500 4.656700
12.380300 4.728500
12.398100 4.687200
12.415900 4.635100
12.433700 4.512300
12.451600 4.401100
12.469400 4.234900
12.487200 4.220500
12.505000 4.236000
12.522800 4.261500
12.540600 4.382200
12.558500 4.454800
12.576300 4.575700
12.594100 4.506100
12.611900 4.378800
12.629700 4.176400
12.647600 3.995200
12.665400 3.864800
12.683200 3.830600
12.701000 3.861900
12.718800 3.865300
12.736600 3.887500
12.754500 3.900000
12.772300 3.988200
12.790100 4.061500
12.807900 4.105600
12.825700 4.085900
12.843500 3.985100
12.861400 3.986400
12.879200 4.036800
12.897000 4.230900
12.914800 4.067600
12.932600 4.038700
12.950500 4.023300
12.968300 3.977400
12.986100 3.954700
13.003900 3.957600
13.021700 3.967400
13.039500 3.639800
13.057400 3.631800
13.075200 3.708100
13.093000 3.996000
13.110800 3.869400
13.128600 3.848000
13.146400 3.958400
13.164300 4.045000
13.182100 4.104400
13.199900 4.107400
13.217700 4.106900
13.235500 4.139500
13.253400 4.064900
13.271200 4.049200
13.289000 3.931400
13.306800 3.780300
13.324600 3.592100
13.342400 3.518800
13.360300 3.495700
13.378100 3.208400
13.395900 3.116300
13.413700 3.098500
13.431500 3.124300
13.449300 3.064800
13.467200 2.959800
13.485000 2.921800
13.502800 2.938300
13.520600 2.885500
13.538400 2.876900
13.556300 3.370500
13.574100 2.437500
13.591900 2.273100
13.609700 2.158000
13.627500 2.055900
13.645300 1.952300
13.663200 1.913400
13.681000 1.881400
13.698800 1.863400
13.716600 1.906000
13.734400 1.980600
13.752200 2.166100
13.770100 2.299000
13.787900 2.491000
13.805700 2.554800
13.823500 2.437400
13.841300 2.283300
13.859100 1.949100
13.877000 1.624500
13.894800 1.427600
13.912600 1.245200
13.930400 1.095000
13.948200 0.970800
13.966100 0.793100
13.983900 0.643900
14.001700 0.539600
14.019500 0.460900
14.037300 0.392300
14.055100 0.339700
14.073000 0.293200
14.090800 0.254300
14.108600 0.221300
14.126400 0.194000
14.144200 0.172400
14.162000 0.160700
14.179900 0.151500
14.197700 0.143300
14.215500 0.135500
14.233300 0.128200
14.251100 0.121200
14.269000 0.114600
14.286800 0.108400
14.304600 0.102800
14.322400 0.098100
14.340200 0.093700
14.358000 0.089700
14.375900 0.085900
14.393700 0.082200
14.411500 0.078700
14.429300 0.075300
14.447100 0.072100
14.464900 0.069000
14.482800 0.066000
14.500600 0.063200
14.518400 0.060500
14.536200 0.057900
14.554000 0.055500
14.571900 0.053200
14.589700 0.051000
14.607500 0.048800
14.625300 0.046700
14.643100 0.044500
14.660900 0.042400
14.678800 0.040300
14.696600 0.038100
14.714400 0.036000
14.732200 0.033800
14.750000 0.031700
14.767800 0.029500
14.785700 0.027400
14.803500 0.025300
14.821300 0.023300
14.839100 0.021200
14.856900 0.019200
14.874800 0.017200
14.892600 0.015200
14.910400 0.013200
14.928200 0.011200
14.946000 0.009000
14.963800 0.006300
14.981700 0.004000
14.999500 0.002300
15.017300 0.001100
15.035100 0.000300
15.052900 0.000000
15.070700 0.000000
15.088600 0.000000
15.106400 0.000000
15.124200 0.000000
15.142000 0.000000
15.159800 0.000000
15.177700 0.000000
15.195500 0.000000
15.213300 0.000000
15.231100 0.000000
15.248900 0.000000
15.266700 0.000000
15.284600 0.000000
15.302400 0.000000
15.320200 0.000000
15.338000 0.000000
15.355800 0.000000
15.373600 0.000000
15.391500 0.000000
15.409300 0.000000
15.427100 0.000000
15.444900 0.000000
15.462700 0.000000
15.480600 0.000000
15.498400 0.000000
15.516200 0.000000
15.534000 0.000000
15.551800 0.000000
15.569600 0.000000
15.587500 0.000000
15.605300 0.000000
15.623100 0.000000
15.640900 0.000000
15.658700 0.000000
15.676500 0.000000
15.694400 0.000000
15.712200 0.000000
15.730000 0.000000
15.747800 0.000000
15.765600 0.000000
15.783500 0.000000
15.801300 0.000000
15.819100 0.000000
15.836900 0.000000
15.854700 0.000000
15.872500 0.000000
15.890400 0.000000
15.908200 0.000000
15.926000 0.000000
15.943800 0.000000
15.961600 0.000000
15.979400 0.000000
15.997300 0.000000
16.015100 0.000000
16.032900 0.000000
16.050700 0.000000
16.068500 0.000000
16.086400 0.000000
16.104200 0.000000
16.122000 0.000000
16.139800 0.000000
16.157600 0.000000
16.175400 0.000000
16.193300 0.000000
16.211100 0.000000
16.228900 0.000000
16.246700 0.000000
16.264500 0.000000
16.282300 0.000000
16.300200 0.000000
16.318000 0.000000
16.335800 0.000000
16.353600 0.000000
16.371400 0.000000
16.389300 0.000000
16.407100 0.000000
16.424900 0.000000
16.442700 0.000000
16.460500 0.000000
16.478300 0.000000
16.496200 0.000000
16.514000 0.000000
16.531800 0.000000
16.549600 0.000000
16.567400 0.000000
16.585200 0.000000
16.603100 0.000000
16.620900 0.000000
16.638700 0.000000
16.656500 0.000000
16.674300 0.000000
e
