set title 'mp-979261 - Density of States'
set xlabel 'Energy (eV)'
set ylabel 'DOS (states/eV)'
set grid
set xrange [-10:10]
set yrange [0:14.014]
set xzeroaxis lt -1
set terminal png size 800,600
set output 'mp-979261_dos_gnuplot.png'
plot '-' using 1:2 with lines title 'DOS'
-30.274900 0.000000
-30.244800 0.000000
-30.214800 0.000000
-30.184800 0.000000
-30.154800 0.000000
-30.124800 0.000000
-30.094700 0.000000
-30.064700 0.000000
-30.034700 0.000000
-30.004700 0.000000
-29.974700 0.000000
-29.944600 0.000000
-29.914600 0.000000
-29.884600 0.000000
-29.854600 0.000000
-29.824600 0.000000
-29.794500 0.000000
-29.764500 0.000000
-29.734500 0.000000
-29.704500 0.000000
-29.674500 0.000000
-29.644400 0.000000
-29.614400 0.000000
-29.584400 0.000000
-29.554400 0.000000
-29.524300 0.000000
-29.494300 0.000000
-29.464300 0.000000
-29.434300 0.000000
-29.404300 0.000000
-29.374200 0.000000
-29.344200 0.000000
-29.314200 0.000000
-29.284200 0.000000
-29.254200 0.000000
-29.224100 0.000000
-29.194100 0.000000
-29.164100 0.000000
-29.134100 0.000000
-29.104100 0.000000
-29.074000 0.000000
-29.044000 0.000000
-29.014000 0.000000
-28.984000 0.000000
-28.954000 0.000000
-28.923900 0.000000
-28.893900 0.000000
-28.863900 0.000000
-28.833900 0.000000
-28.803900 0.000000
-28.773800 0.000000
-28.743800 0.000000
-28.713800 0.000000
-28.683800 0.000000
-28.653700 0.000000
-28.623700 0.000000
-28.593700 0.000000
-28.563700 0.000000
-28.533700 0.000000
-28.503600 0.000000
-28.473600 0.000000
-28.443600 0.000000
-28.413600 0.000000
-28.383600 0.000000
-28.353500 0.000000
-28.323500 0.000000
-28.293500 0.000000
-28.263500 0.000000
-28.233500 0.000000
-28.203400 0.000000
-28.173400 0.000000
-28.143400 0.000000
-28.113400 0.000000
-28.083400 0.000000
-28.053300 0.000000
-28.023300 0.000000
-27.993300 0.000000
-27.963300 0.000000
-27.933200 0.000000
-27.903200 0.000000
-27.873200 0.000000
-27.843200 0.000000
-27.813200 0.000000
-27.783100 0.000000
-27.753100 0.000000
-27.723100 0.000000
-27.693100 0.000000
-27.663100 0.000000
-27.633000 0.000000
-27.603000 0.000000
-27.573000 0.000000
-27.543000 8.901800
-27.513000 52.889900
-27.482900 81.338800
-27.452900 22.420300
-27.422900 18.156100
-27.392900 74.456700
-27.362900 79.479500
-27.332800 9.801600
-27.302800 5.623300
-27.272800 5.623300
-27.242800 5.613500
-27.212700 5.654500
-27.182700 5.654700
-27.152700 6.729200
-27.122700 6.729400
-27.092700 8.574300
-27.062600 10.114000
-27.032600 16.033300
-27.002600 0.000000
-26.972600 0.000000
-26.942600 0.000000
-26.912500 0.000000
-26.882500 0.000000
-26.852500 0.000000
-26.822500 0.000000
-26.792500 0.000000
-26.762400 0.000000
-26.732400 0.000000
-26.702400 0.000000
-26.672400 0.000000
-26.642400 0.000000
-26.612300 0.000000
-26.582300 0.000000
-26.552300 0.000000
-26.522300 0.000000
-26.492200 0.000000
-26.462200 0.000000
-26.432200 0.000000
-26.402200 0.000000
-26.372200 0.000000
-26.342100 0.000000
-26.312100 0.000000
-26.282100 0.000000
-26.252100 0.000000
-26.222100 0.000000
-26.192000 0.000000
-26.162000 0.000000
-26.132000 0.000000
-26.102000 0.000000
-26.072000 0.000000
-26.041900 0.000000
-26.011900 0.000000
-25.981900 0.000000
-25.951900 0.000000
-25.921900 0.000000
-25.891800 0.000000
-25.861800 0.000000
-25.831800 0.000000
-25.801800 0.000000
-25.771700 0.000000
-25.741700 0.000000
-25.711700 0.000000
-25.681700 0.000000
-25.651700 0.000000
-25.621600 0.000000
-25.591600 0.000000
-25.561600 0.000000
-25.531600 0.000000
-25.501600 0.000000
-25.471500 0.000000
-25.441500 0.000000
-25.411500 0.000000
-25.381500 0.000000
-25.351500 0.000000
-25.321400 0.000000
-25.291400 0.000000
-25.261400 0.000000
-25.231400 0.000000
-25.201400 0.000000
-25.171300 0.000000
-25.141300 0.000000
-25.111300 0.000000
-25.081300 0.000000
-25.051300 0.000000
-25.021200 0.000000
-24.991200 0.000000
-24.961200 0.000000
-24.931200 0.000000
-24.901100 0.000000
-24.871100 0.000000
-24.841100 0.000000
-24.811100 0.000000
-24.781100 0.000000
-24.751000 0.000000
-24.721000 0.000000
-24.691000 0.000000
-24.661000 0.000000
-24.631000 0.000000
-24.600900 0.000000
-24.570900 0.000000
-24.540900 0.000000
-24.510900 0.000000
-24.480900 0.000000
-24.450800 0.000000
-24.420800 0.000000
-24.390800 0.000000
-24.360800 0.000000
-24.330800 0.000000
-24.300700 0.000000
-24.270700 0.000000
-24.240700 0.000000
-24.210700 0.000000
-24.180600 0.000000
-24.150600 0.000000
-24.120600 0.000000
-24.090600 0.000000
-24.060600 0.000000
-24.030500 0.000000
-24.000500 0.000000
-23.970500 0.000000
-23.940500 0.000000
-23.910500 0.000000
-23.880400 0.000000
-23.850400 0.000000
-23.820400 0.000000
-23.790400 0.000000
-23.760400 0.000000
-23.730300 0.000000
-23.700300 0.000000
-23.670300 0.000000
-23.640300 0.000000
-23.610300 0.000000
-23.580200 0.000000
-23.550200 0.000000
-23.520200 0.000000
-23.490200 0.000000
-23.460100 0.000000
-23.430100 0.000000
-23.400100 0.000000
-23.370100 0.000000
-23.340100 0.000000
-23.310000 0.000000
-23.280000 0.000000
-23.250000 0.000000
-23.220000 0.000000
-23.190000 0.000000
-23.159900 0.000000
-23.129900 0.000000
-23.099900 0.000000
-23.069900 0.000000
-23.039900 0.000000
-23.009800 0.000000
-22.979800 0.000000
-22.949800 0.000000
-22.919800 0.000000
-22.889800 0.000000
-22.859700 0.000000
-22.829700 0.000000
-22.799700 0.000000
-22.769700 0.000000
-22.739600 0.000000
-22.709600 0.000000
-22.679600 0.000000
-22.649600 0.000000
-22.619600 0.000000
-22.589500 0.000000
-22.559500 0.000000
-22.529500 0.000000
-22.499500 0.000000
-22.469500 0.000000
-22.439400 0.000000
-22.409400 0.000000
-22.379400 0.000000
-22.349400 0.000000
-22.319400 0.000000
-22.289300 0.000000
-22.259300 0.000000
-22.229300 0.000000
-22.199300 0.000000
-22.169300 0.000000
-22.139200 0.000000
-22.109200 0.000000
-22.079200 0.000000
-22.049200 0.000000
-22.019100 0.000000
-21.989100 0.000000
-21.959100 0.000000
-21.929100 0.000000
-21.899100 0.000000
-21.869000 0.000000
-21.839000 0.000000
-21.809000 0.000000
-21.779000 0.000000
-21.749000 0.000000
-21.718900 0.000000
-21.688900 0.000000
-21.658900 0.000000
-21.628900 0.000000
-21.598900 0.000000
-21.568800 0.000000
-21.538800 0.000000
-21.508800 0.000000
-21.478800 0.000000
-21.448800 0.000000
-21.418700 0.000000
-21.388700 0.000000
-21.358700 0.000000
-21.328700 0.000000
-21.298700 0.000000
-21.268600 0.000000
-21.238600 0.000000
-21.208600 0.000000
-21.178600 0.000000
-21.148500 0.000000
-21.118500 0.000000
-21.088500 0.000000
-21.058500 0.000000
-21.028500 0.000000
-20.998400 0.000000
-20.968400 0.000000
-20.938400 0.000000
-20.908400 0.000000
-20.878400 0.000000
-20.848300 0.000000
-20.818300 0.000000
-20.788300 0.000000
-20.758300 0.000000
-20.728300 0.000000
-20.698200 0.000000
-20.668200 0.000000
-20.638200 0.000000
-20.608200 0.000000
-20.578200 0.000000
-20.548100 0.000000
-20.518100 0.000000
-20.488100 0.000000
-20.458100 0.000000
-20.428000 0.000000
-20.398000 0.000000
-20.368000 0.000000
-20.338000 0.000000
-20.308000 0.000000
-20.277900 0.000000
-20.247900 0.000000
-20.217900 0.000000
-20.187900 0.000000
-20.157900 0.000000
-20.127800 0.000000
-20.097800 0.000000
-20.067800 0.000000
-20.037800 0.000000
-20.007800 0.000000
-19.977700 0.000000
-19.947700 0.000000
-19.917700 0.000000
-19.887700 0.000000
-19.857700 0.000000
-19.827600 0.000000
-19.797600 0.000000
-19.767600 0.000000
-19.737600 0.000000
-19.707500 0.000000
-19.677500 0.000000
-19.647500 0.000000
-19.617500 0.000000
-19.587500 0.000000
-19.557400 0.000000
-19.527400 0.000000
-19.497400 0.000000
-19.467400 0.000000
-19.437400 0.000000
-19.407300 0.000000
-19.377300 0.000000
-19.347300 0.000000
-19.317300 0.000000
-19.287300 0.000000
-19.257200 0.000000
-19.227200 0.000000
-19.197200 0.000000
-19.167200 0.000000
-19.137200 0.000000
-19.107100 0.000000
-19.077100 0.000000
-19.047100 0.000000
-19.017100 0.000000
-18.987000 0.000000
-18.957000 0.000000
-18.927000 0.000000
-18.897000 0.000000
-18.867000 0.000000
-18.836900 0.000000
-18.806900 0.000000
-18.776900 0.000000
-18.746900 0.000000
-18.716900 0.000000
-18.686800 0.000000
-18.656800 0.000000
-18.626800 0.000000
-18.596800 0.000000
-18.566800 0.000000
-18.536700 0.000000
-18.506700 0.000000
-18.476700 0.000000
-18.446700 0.000000
-18.416700 0.000000
-18.386600 0.000000
-18.356600 0.000000
-18.326600 0.000000
-18.296600 0.000000
-18.266500 0.000000
-18.236500 0.000000
-18.206500 0.000000
-18.176500 0.000000
-18.146500 0.000000
-18.116400 0.000000
-18.086400 0.000000
-18.056400 0.000000
-18.026400 0.000000
-17.996400 0.000000
-17.966300 0.000000
-17.936300 0.000000
-17.906300 0.000000
-17.876300 0.000000
-17.846300 0.000000
-17.816200 0.000000
-17.786200 0.000000
-17.756200 0.000000
-17.726200 0.000000
-17.696200 0.000000
-17.666100 0.000000
-17.636100 0.000000
-17.606100 0.000000
-17.576100 0.000000
-17.546100 0.000000
-17.516000 0.000000
-17.486000 0.000000
-17.456000 0.000000
-17.426000 0.000000
-17.395900 0.000000
-17.365900 0.000000
-17.335900 0.000000
-17.305900 0.000000
-17.275900 0.000000
-17.245800 0.000000
-17.215800 0.000000
-17.185800 0.000000
-17.155800 0.000000
-17.125800 0.000000
-17.095700 0.000000
-17.065700 0.000000
-17.035700 0.000000
-17.005700 0.000000
-16.975700 0.000000
-16.945600 0.000000
-16.915600 0.000000
-16.885600 0.000000
-16.855600 0.000000
-16.825600 0.000000
-16.795500 0.000000
-16.765500 0.000000
-16.735500 0.000000
-16.705500 0.000000
-16.675400 0.000000
-16.645400 0.000000
-16.615400 0.000000
-16.585400 0.000000
-16.555400 0.000000
-16.525300 0.000000
-16.495300 0.000000
-16.465300 0.000000
-16.435300 0.000000
-16.405300 0.000000
-16.375200 0.000000
-16.345200 0.000000
-16.315200 0.000000
-16.285200 0.000000
-16.255200 0.000000
-16.225100 0.000000
-16.195100 0.000000
-16.165100 0.000000
-16.135100 0.000000
-16.105100 0.000000
-16.075000 0.000000
-16.045000 0.000000
-16.015000 0.000000
-15.985000 0.000000
-15.954900 0.000000
-15.924900 0.000000
-15.894900 0.000000
-15.864900 0.000000
-15.834900 0.000000
-15.804800 0.000000
-15.774800 0.000000
-15.744800 0.000000
-15.714800 0.000000
-15.684800 0.000000
-15.654700 0.000000
-15.624700 0.000000
-15.594700 0.000000
-15.564700 0.000000
-15.534700 0.000000
-15.504600 0.000000
-15.474600 0.000000
-15.444600 0.000000
-15.414600 0.000000
-15.384600 0.000000
-15.354500 0.000000
-15.324500 0.000000
-15.294500 0.000000
-15.264500 0.000000
-15.234400 0.000000
-15.204400 0.000000
-15.174400 0.000000
-15.144400 0.000000
-15.114400 0.000000
-15.084300 0.000000
-15.054300 0.000000
-15.024300 0.000000
-14.994300 0.000000
-14.964300 0.000000
-14.934200 0.000000
-14.904200 0.000000
-14.874200 0.000000
-14.844200 0.000000
-14.814200 0.000000
-14.784100 0.000000
-14.754100 0.000000
-14.724100 0.000000
-14.694100 0.000000
-14.664100 0.000000
-14.634000 0.000000
-14.604000 0.000000
-14.574000 0.000000
-14.544000 0.000000
-14.514000 0.000000
-14.483900 0.000000
-14.453900 0.000000
-14.423900 0.000000
-14.393900 0.000000
-14.363800 0.000000
-14.333800 0.000000
-14.303800 0.000000
-14.273800 0.000000
-14.243800 0.000000
-14.213700 0.000000
-14.183700 0.000000
-14.153700 0.000000
-14.123700 0.000000
-14.093700 0.000000
-14.063600 0.000000
-14.033600 0.000000
-14.003600 0.000000
-13.973600 0.000000
-13.943600 0.000000
-13.913500 0.000000
-13.883500 0.000000
-13.853500 0.000000
-13.823500 0.000000
-13.793500 0.000000
-13.763400 0.000000
-13.733400 0.000000
-13.703400 0.000000
-13.673400 0.000000
-13.643300 0.000000
-13.613300 0.000000
-13.583300 0.000000
-13.553300 0.000000
-13.523300 0.000000
-13.493200 0.000000
-13.463200 0.000000
-13.433200 0.000000
-13.403200 0.000000
-13.373200 0.000000
-13.343100 0.000000
-13.313100 0.000000
-13.283100 0.000000
-13.253100 0.000000
-13.223100 0.000000
-13.193000 0.000000
-13.163000 0.000000
-13.133000 0.000000
-13.103000 0.000000
-13.073000 0.000000
-13.042900 0.000000
-13.012900 0.000000
-12.982900 0.000000
-12.952900 0.000000
-12.922800 0.000000
-12.892800 0.000000
-12.862800 0.000000
-12.832800 0.000000
-12.802800 0.000000
-12.772700 0.000000
-12.742700 0.000000
-12.712700 0.000000
-12.682700 0.000000
-12.652700 0.000000
-12.622600 0.000000
-12.592600 0.000000
-12.562600 0.000000
-12.532600 0.000000
-12.502600 0.000000
-12.472500 0.000000
-12.442500 0.000000
-12.412500 0.000000
-12.382500 0.000000
-12.352500 0.000000
-12.322400 0.000000
-12.292400 0.000000
-12.262400 0.000000
-12.232400 0.000000
-12.202300 0.000000
-12.172300 0.000000
-12.142300 0.000000
-12.112300 0.000000
-12.082300 0.000000
-12.052200 0.000000
-12.022200 0.000000
-11.992200 0.000000
-11.962200 0.000000
-11.932200 0.000000
-11.902100 0.000000
-11.872100 0.000000
-11.842100 0.000000
-11.812100 0.000000
-11.782100 0.000000
-11.752000 0.000000
-11.722000 0.000000
-11.692000 0.000000
-11.662000 0.000000
-11.632000 0.000000
-11.601900 0.000000
-11.571900 0.000000
-11.541900 0.000000
-11.511900 0.000000
-11.481800 0.000000
-11.451800 0.000000
-11.421800 0.000000
-11.391800 0.000000
-11.361800 0.000000
-11.331700 0.000000
-11.301700 0.000000
-11.271700 0.000000
-11.241700 0.000000
-11.211700 0.000000
-11.181600 0.000000
-11.151600 0.000000
-11.121600 0.000000
-11.091600 0.000000
-11.061600 0.000000
-11.031500 0.000000
-11.001500 0.000000
-10.971500 0.000000
-10.941500 0.000000
-10.911500 0.000000
-10.881400 0.000000
-10.851400 0.000000
-10.821400 0.000000
-10.791400 0.000000
-10.761400 0.000000
-10.731300 0.000000
-10.701300 0.000000
-10.671300 0.000000
-10.641300 0.000000
-10.611200 0.000000
-10.581200 0.000000
-10.551200 0.000000
-10.521200 0.000000
-10.491200 0.000000
-10.461100 0.000000
-10.431100 0.000000
-10.401100 0.000000
-10.371100 0.000000
-10.341100 0.000000
-10.311000 0.000000
-10.281000 0.000000
-10.251000 0.000000
-10.221000 0.000000
-10.191000 0.000000
-10.160900 0.000000
-10.130900 0.000000
-10.100900 0.000000
-10.070900 0.000000
-10.040900 0.000000
-10.010800 0.000000
-9.980800 0.000000
-9.950800 0.000000
-9.920800 0.000000
-9.890700 0.000000
-9.860700 0.000000
-9.830700 0.000000
-9.800700 0.000000
-9.770700 0.000000
-9.740600 0.000000
-9.710600 0.000000
-9.680600 0.000000
-9.650600 0.000000
-9.620600 0.000000
-9.590500 0.000000
-9.560500 0.000000
-9.530500 0.000000
-9.500500 0.000000
-9.470500 0.000000
-9.440400 0.000000
-9.410400 0.000000
-9.380400 0.000000
-9.350400 0.000000
-9.320400 0.000000
-9.290300 0.000000
-9.260300 0.000000
-9.230300 0.000000
-9.200300 0.000000
-9.170200 0.000000
-9.140200 0.000000
-9.110200 0.000000
-9.080200 0.000000
-9.050200 0.000000
-9.020100 0.000000
-8.990100 0.000000
-8.960100 0.000000
-8.930100 0.000000
-8.900100 0.000000
-8.870000 0.000000
-8.840000 0.000000
-8.810000 0.000000
-8.780000 0.000000
-8.750000 0.000000
-8.719900 0.000000
-8.689900 0.000000
-8.659900 0.000000
-8.629900 0.000000
-8.599900 0.000000
-8.569800 0.000000
-8.539800 0.000000
-8.509800 0.000000
-8.479800 0.000000
-8.449700 0.000000
-8.419700 0.000000
-8.389700 0.000000
-8.359700 0.000000
-8.329700 0.000000
-8.299600 0.000000
-8.269600 0.000000
-8.239600 0.000000
-8.209600 0.000000
-8.179600 0.000000
-8.149500 0.000000
-8.119500 0.000000
-8.089500 0.000000
-8.059500 0.000000
-8.029500 0.000000
-7.999400 0.000000
-7.969400 0.000000
-7.939400 0.000000
-7.909400 0.000000
-7.879400 0.000000
-7.849300 0.000000
-7.819300 0.000000
-7.789300 0.000000
-7.759300 0.000000
-7.729200 0.000000
-7.699200 0.000000
-7.669200 0.000000
-7.639200 0.000000
-7.609200 0.000000
-7.579100 0.000000
-7.549100 0.000000
-7.519100 0.000000
-7.489100 0.000000
-7.459100 0.000000
-7.429000 0.000000
-7.399000 0.000000
-7.369000 0.000000
-7.339000 0.000000
-7.309000 0.000000
-7.278900 0.000000
-7.248900 0.000000
-7.218900 0.000000
-7.188900 0.000000
-7.158900 0.000000
-7.128800 0.000000
-7.098800 0.000000
-7.068800 0.000000
-7.038800 0.000000
-7.008800 0.000000
-6.978700 0.000000
-6.948700 0.000000
-6.918700 0.000000
-6.888700 0.000000
-6.858600 0.000000
-6.828600 0.000000
-6.798600 0.000000
-6.768600 0.000000
-6.738600 0.000000
-6.708500 0.000000
-6.678500 0.000000
-6.648500 0.000000
-6.618500 0.000000
-6.588500 0.000000
-6.558400 0.000000
-6.528400 0.000000
-6.498400 0.000000
-6.468400 0.000000
-6.438400 0.000000
-6.408300 0.000000
-6.378300 0.000000
-6.348300 0.000000
-6.318300 0.000000
-6.288300 0.000000
-6.258200 0.000000
-6.228200 0.000000
-6.198200 0.000000
-6.168200 0.000000
-6.138100 0.000000
-6.108100 0.000000
-6.078100 0.000000
-6.048100 0.000000
-6.018100 0.000000
-5.988000 0.000000
-5.958000 0.000000
-5.928000 0.000000
-5.898000 0.000000
-5.868000 0.000000
-5.837900 0.000000
-5.807900 0.000000
-5.777900 0.000000
-5.747900 0.000000
-5.717900 0.000000
-5.687800 0.000000
-5.657800 0.000000
-5.627800 0.000000
-5.597800 0.000000
-5.567800 0.000000
-5.537700 0.000000
-5.507700 0.000000
-5.477700 0.000000
-5.447700 0.000000
-5.417600 0.000000
-5.387600 0.000000
-5.357600 0.000000
-5.327600 0.000000
-5.297600 0.000000
-5.267500 0.000000
-5.237500 0.000000
-5.207500 0.000000
-5.177500 0.000000
-5.147500 0.000000
-5.117400 0.000000
-5.087400 0.000000
-5.057400 0.000000
-5.027400 0.000000
-4.997400 0.000000
-4.967300 0.000000
-4.937300 0.000000
-4.907300 0.000000
-4.877300 0.000000
-4.847300 0.000000
-4.817200 0.000000
-4.787200 0.000000
-4.757200 0.000000
-4.727200 0.000000
-4.697100 0.000000
-4.667100 0.000000
-4.637100 0.000000
-4.607100 0.000000
-4.577100 0.000000
-4.547000 0.000000
-4.517000 0.000000
-4.487000 0.000000
-4.457000 0.000000
-4.427000 0.000000
-4.396900 0.000000
-4.366900 0.000000
-4.336900 0.000000
-4.306900 0.000000
-4.276900 0.000000
-4.246800 0.000000
-4.216800 0.000000
-4.186800 0.000000
-4.156800 0.000000
-4.126800 0.000000
-4.096700 0.000000
-4.066700 0.000000
-4.036700 0.000000
-4.006700 0.000000
-3.976600 0.000000
-3.946600 0.000000
-3.916600 0.000000
-3.886600 0.000000
-3.856600 0.000000
-3.826500 0.000000
-3.796500 0.000000
-3.766500 0.000000
-3.736500 0.000000
-3.706500 0.000000
-3.676400 0.000000
-3.646400 0.000000
-3.616400 0.000000
-3.586400 0.000000
-3.556400 0.000000
-3.526300 0.000000
-3.496300 0.000000
-3.466300 0.000000
-3.436300 0.000000
-3.406300 0.000000
-3.376200 0.000000
-3.346200 0.000000
-3.316200 0.000000
-3.286200 0.000000
-3.256200 0.000000
-3.226100 0.000000
-3.196100 0.000000
-3.166100 0.000000
-3.136100 0.000000
-3.106000 0.000000
-3.076000 0.000000
-3.046000 0.000000
-3.016000 0.000000
-2.986000 0.000000
-2.955900 0.000000
-2.925900 0.000000
-2.895900 0.000000
-2.865900 0.000000
-2.835900 0.000000
-2.805800 0.000000
-2.775800 0.000000
-2.745800 0.000000
-2.715800 0.000000
-2.685800 0.000000
-2.655700 0.000000
-2.625700 0.000000
-2.595700 0.000000
-2.565700 0.000000
-2.535700 0.000000
-2.505600 0.000000
-2.475600 0.000000
-2.445600 0.000000
-2.415600 0.000000
-2.385500 0.000000
-2.355500 0.000000
-2.325500 0.000000
-2.295500 0.000000
-2.265500 0.000000
-2.235400 0.000000
-2.205400 0.000000
-2.175400 0.000000
-2.145400 0.000000
-2.115400 0.000000
-2.085300 0.000000
-2.055300 0.000000
-2.025300 0.000000
-1.995300 0.000000
-1.965300 0.000000
-1.935200 0.000000
-1.905200 0.000000
-1.875200 0.000000
-1.845200 0.000000
-1.815200 0.000000
-1.785100 0.000000
-1.755100 0.000000
-1.725100 0.000000
-1.695100 0.000000
-1.665000 0.000000
-1.635000 0.000000
-1.605000 0.000000
-1.575000 0.000000
-1.545000 0.000000
-1.514900 0.000000
-1.484900 0.000000
-1.454900 0.000000
-1.424900 0.000000
-1.394900 0.000000
-1.364800 0.000000
-1.334800 0.000000
-1.304800 0.000000
-1.274800 0.000000
-1.244800 0.000000
-1.214700 0.000000
-1.184700 0.000000
-1.154700 0.000000
-1.124700 0.000000
-1.094700 0.000000
-1.064600 0.000000
-1.034600 0.000000
-1.004600 0.000000
-0.974600 0.000000
-0.944500 0.000000
-0.914500 0.000000
-0.884500 0.000000
-0.854500 0.000000
-0.824500 0.000000
-0.794400 0.000000
-0.764400 0.000000
-0.734400 0.000000
-0.704400 0.005900
-0.674400 0.028100
-0.644300 0.065700
-0.614300 0.099300
-0.584300 0.117000
-0.554300 0.121900
-0.524300 0.129400
-0.494200 0.142200
-0.464200 0.158700
-0.434200 0.175900
-0.404200 0.192400
-0.374200 0.205800
-0.344100 0.214300
-0.314100 0.221100
-0.284100 0.229900
-0.254100 0.240900
-0.224000 0.252500
-0.194000 0.264200
-0.164000 0.275900
-0.134000 0.287700
-0.104000 0.300000
-0.073900 0.313300
-0.043900 0.327700
-0.013900 0.342700
0.016100 0.357500
0.046100 0.372100
0.076200 0.387300
0.106200 0.402900
0.136200 0.419000
0.166200 0.435900
0.196200 0.455100
0.226300 0.476000
0.256300 0.611000
0.286300 0.924700
0.316300 1.089100
0.346300 1.297500
0.376400 1.452700
0.406400 1.618000
0.436400 1.788500
0.466400 2.071500
0.496400 2.805100
0.526500 3.423600
0.556500 4.040100
0.586500 4.915400
0.616500 5.615400
0.646600 6.163100
0.676600 6.765400
0.706600 7.282700
0.736600 7.715400
0.766600 7.822100
0.796700 7.832900
0.826700 8.023500
0.856700 8.476200
0.886700 9.509700
0.916700 9.476800
0.946800 9.048700
0.976800 9.389200
1.006800 8.710100
1.036800 9.093400
1.066800 9.577500
1.096900 10.638300
1.126900 12.740000
1.156900 12.384100
1.186900 10.681900
1.216900 9.212200
1.247000 8.563200
1.277000 8.807900
1.307000 9.082500
1.337000 9.312300
1.367100 9.747700
1.397100 11.597100
1.427100 11.606600
1.457100 10.312500
1.487100 10.961100
1.517200 10.127800
1.547200 8.238900
1.577200 8.089000
1.607200 8.427800
1.637200 8.099100
1.667300 8.889900
1.697300 10.131700
1.727300 8.629100
1.757300 8.101400
1.787300 8.123900
1.817400 6.807100
1.847400 5.701300
1.877400 4.835900
1.907400 4.690600
1.937400 7.994500
1.967500 8.608700
1.997500 7.067900
2.027500 5.546500
2.057500 6.977700
2.087600 7.379300
2.117600 6.778300
2.147600 6.435500
2.177600 6.263000
2.207600 6.372200
2.237700 7.365400
2.267700 8.090900
2.297700 9.047400
2.327700 7.578900
2.357700 6.333300
2.387800 7.388600
2.417800 7.973000
2.447800 7.590900
2.477800 7.634800
2.507800 8.259300
2.537900 8.176200
2.567900 7.997400
2.597900 7.358600
2.627900 6.740500
2.657900 6.292700
2.688000 6.266700
2.718000 5.746300
2.748000 5.697300
2.778000 5.443400
2.808100 5.530100
2.838100 5.613100
2.868100 5.774700
2.898100 6.503500
2.928100 7.112600
2.958200 7.332500
2.988200 6.649200
3.018200 5.352400
3.048200 4.988800
3.078200 5.485600
3.108300 4.744700
3.138300 3.821000
3.168300 2.940100
3.198300 2.716600
3.228300 2.611100
3.258400 2.540500
3.288400 2.520400
3.318400 2.490200
3.348400 2.496200
3.378400 2.222000
3.408500 1.657200
3.438500 1.442600
3.468500 1.351300
3.498500 1.318900
3.528600 1.294100
3.558600 1.272900
3.588600 1.257600
3.618600 1.247000
3.648600 1.291700
3.678700 1.259400
3.708700 1.233900
3.738700 1.212300
3.768700 1.206000
3.798700 1.223000
3.828800 1.265800
3.858800 1.298800
3.888800 1.317500
3.918800 1.335000
3.948800 1.341900
3.978900 1.359900
4.008900 1.391800
4.038900 1.426800
4.068900 1.463600
4.098900 1.503700
4.129000 1.549700
4.159000 1.593100
4.189000 1.640400
4.219000 1.822300
4.249000 2.075400
4.279100 1.956200
4.309100 1.776000
4.339100 1.579400
4.369100 1.454700
4.399200 1.392200
4.429200 1.364700
4.459200 1.362100
4.489200 1.359400
4.519200 1.412800
4.549300 1.489000
4.579300 1.566700
4.609300 1.632500
4.639300 1.680400
4.669300 1.648400
4.699400 1.673100
4.729400 1.934800
4.759400 1.909800
4.789400 1.828300
4.819400 1.781600
4.849500 1.824700
4.879500 1.971200
4.909500 2.015600
4.939500 2.048200
4.969500 2.095900
4.999600 2.123400
5.029600 2.189000
5.059600 2.284300
5.089600 2.401300
5.119700 2.524300
5.149700 2.745300
5.179700 2.978400
5.209700 3.119000
5.239700 3.132200
5.269800 3.139000
5.299800 3.171100
5.329800 3.249700
5.359800 3.341300
5.389800 3.423600
5.419900 3.583100
5.449900 3.962800
5.479900 4.375700
5.509900 4.447700
5.539900 4.467600
5.570000 4.534900
5.600000 4.502800
5.630000 4.576300
5.660000 4.673800
5.690000 4.776000
5.720100 4.885400
5.750100 4.923000
5.780100 4.992100
5.810100 5.109900
5.840200 5.307000
5.870200 5.484700
5.900200 5.281700
5.930200 4.952800
5.960200 4.735400
5.990300 4.465200
6.020300 4.336600
6.050300 4.411600
6.080300 4.669200
6.110300 4.933200
6.140400 5.346800
6.170400 5.518900
6.200400 5.928300
6.230400 6.544600
6.260400 6.903200
6.290500 6.396800
6.320500 6.710000
6.350500 6.490800
6.380500 6.456200
6.410500 5.899900
6.440600 5.811600
6.470600 5.438600
6.500600 5.400900
6.530600 5.021500
6.560700 4.696100
6.590700 4.560400
6.620700 4.426700
6.650700 4.669500
6.680700 4.734500
6.710800 4.830800
6.740800 4.977100
6.770800 5.305500
6.800800 5.658500
6.830800 5.567900
6.860900 5.902700
6.890900 6.528500
6.920900 5.881300
6.950900 5.796400
6.980900 6.193500
7.011000 5.535900
7.041000 4.857600
7.071000 4.165400
7.101000 3.758600
7.131000 3.598500
7.161100 3.852300
7.191100 4.171100
7.221100 4.329600
7.251100 4.346000
7.281200 4.480500
7.311200 4.533600
7.341200 4.410300
7.371200 4.547900
7.401200 4.598500
7.431300 4.172500
7.461300 4.646800
7.491300 4.352300
7.521300 4.208300
7.551300 4.261300
7.581400 4.502200
7.611400 4.711500
7.641400 3.954300
7.671400 3.645300
7.701400 3.851800
7.731500 4.130600
7.761500 4.411200
7.791500 4.850700
7.821500 6.025300
7.851500 7.637100
7.881600 9.215700
7.911600 8.663200
7.941600 8.533200
7.971600 8.264500
8.001600 8.639800
8.031700 9.359600
8.061700 9.406700
8.091700 9.384200
8.121700 9.511500
8.151800 9.935500
8.181800 9.459600
8.211800 8.973500
8.241800 8.635100
8.271800 8.120300
8.301900 7.492800
8.331900 6.973200
8.361900 6.157800
8.391900 5.157800
8.421900 4.516300
8.452000 3.912600
8.482000 3.197200
8.512000 3.006600
8.542000 3.070100
8.572000 3.146700
8.602100 2.968500
8.632100 2.670400
8.662100 2.481300
8.692100 2.454400
8.722100 2.440500
8.752200 2.407300
8.782200 2.383300
8.812200 2.274800
8.842200 2.183200
8.872300 2.129400
8.902300 2.174200
8.932300 2.165600
8.962300 2.058600
8.992300 1.994900
9.022400 1.926200
9.052400 2.324600
9.082400 1.407300
9.112400 1.389300
9.142400 1.376300
9.172500 1.367700
9.202500 1.365200
9.232500 1.458800
9.262500 1.440800
9.292500 1.447200
9.322600 1.449400
9.352600 1.448800
9.382600 1.437800
9.412600 1.398300
9.442600 1.369200
9.472700 1.354900
9.502700 1.340400
9.532700 1.329500
9.562700 1.320900
9.592800 1.313500
9.622800 1.307700
9.652800 1.302800
9.682800 1.297800
9.712800 1.292900
9.742900 1.290400
9.772900 1.289400
9.802900 1.283600
9.832900 1.276900
9.862900 1.270400
9.893000 1.265200
9.923000 1.261000
9.953000 1.255400
9.983000 1.248500
10.013000 1.246800
10.043100 1.249600
10.073100 1.251400
10.103100 1.241000
10.133100 1.225500
10.163100 1.215400
10.193200 1.210200
10.223200 1.205700
10.253200 1.203200
10.283200 1.203300
10.313300 1.205900
10.343300 1.213800
10.373300 1.223700
10.403300 1.233100
10.433300 1.245700
10.463400 1.265000
10.493400 1.280800
10.523400 1.298000
10.553400 1.316400
10.583400 1.375900
10.613500 1.551000
10.643500 1.737400
10.673500 1.222700
10.703500 1.218900
10.733500 1.213600
10.763600 1.219400
10.793600 1.223400
10.823600 1.220100
10.853600 1.206500
10.883600 1.190500
10.913700 1.179500
10.943700 1.177400
10.973700 1.184700
11.003700 1.195300
11.033800 1.205500
11.063800 1.150400
11.093800 1.114100
11.123800 1.106300
11.153800 1.104000
11.183900 1.102300
11.213900 1.104700
11.243900 1.126900
11.273900 1.124800
11.303900 1.129300
11.334000 1.125100
11.364000 1.120000
11.394000 1.115000
11.424000 1.088900
11.454000 1.084900
11.484100 1.081100
11.514100 1.075700
11.544100 1.070200
11.574100 1.067100
11.604100 1.067500
11.634200 1.065600
11.664200 1.060400
11.694200 1.055100
11.724200 1.048700
11.754200 1.041400
11.784300 1.034300
11.814300 1.028700
11.844300 1.024100
11.874300 1.019900
11.904400 1.018000
11.934400 1.036700
11.964400 1.011100
11.994400 0.988400
12.024400 0.972300
12.054500 0.957800
12.084500 0.943800
12.114500 0.932700
12.144500 0.921500
12.174500 0.909500
12.204600 0.913300
12.234600 0.970100
12.264600 0.954700
12.294600 0.940300
12.324600 0.921800
12.354700 0.900600
12.384700 0.875600
12.414700 0.848100
12.444700 0.817300
12.474700 0.782900
12.504800 0.740200
12.534800 0.694000
12.564800 0.646800
12.594800 0.594500
12.624900 0.556300
12.654900 0.525900
12.684900 0.501900
12.714900 0.482900
12.744900 0.462600
12.775000 0.441800
12.805000 0.423600
12.835000 0.411200
12.865000 0.401300
12.895000 0.392700
12.925100 0.385100
12.955100 0.378300
12.985100 0.372100
13.015100 0.367600
13.045100 0.367100
13.075200 0.367500
13.105200 0.364400
13.135200 0.352500
13.165200 0.336600
13.195200 0.327400
13.225300 0.326100
13.255300 0.325800
13.285300 0.318700
13.315300 0.304500
13.345400 0.292100
13.375400 0.286200
13.405400 0.285400
13.435400 0.293100
13.465400 0.292900
13.495500 0.292600
13.525500 0.294700
13.555500 0.313700
13.585500 0.368000
13.615500 0.440300
13.645600 0.659200
13.675600 0.852600
13.705600 0.934400
13.735600 0.994700
13.765600 1.048300
13.795700 1.113000
13.825700 1.180500
13.855700 1.220200
13.885700 1.253900
13.915700 1.289700
13.945800 1.325100
13.975800 1.356500
14.005800 1.370900
14.035800 1.368700
14.065900 1.357500
14.095900 1.376300
14.125900 1.417600
14.155900 1.433600
14.185900 1.431200
14.216000 1.379100
14.246000 1.304400
14.276000 1.277000
14.306000 1.266700
14.336000 1.269200
14.366100 1.306500
14.396100 1.410000
14.426100 1.751700
14.456100 1.971200
14.486100 2.109600
14.516200 2.168400
14.546200 2.182400
14.576200 2.141400
14.606200 2.120000
14.636200 2.101200
14.666300 2.103700
14.696300 2.079700
14.726300 2.069200
14.756300 2.108100
14.786400 2.071600
14.816400 2.054900
14.846400 2.070600
14.876400 2.095600
14.906400 2.137700
14.936500 2.352900
14.966500 2.358600
14.996500 2.258500
15.026500 2.220000
15.056500 2.186700
15.086600 2.161900
15.116600 2.140500
15.146600 2.115500
15.176600 2.098200
15.206600 2.102400
15.236700 2.093700
15.266700 2.068300
15.296700 2.027800
15.326700 1.981400
15.356700 1.938500
15.386800 1.941100
15.416800 1.915200
15.446800 1.879700
15.476800 1.836500
15.506800 1.790600
15.536900 1.795200
15.566900 1.814100
15.596900 1.803900
15.626900 1.809700
15.657000 1.816000
15.687000 1.817700
15.717000 1.820500
15.747000 1.833200
15.777000 1.857400
15.807100 1.886400
15.837100 1.942200
15.867100 2.030100
15.897100 2.067000
15.927100 2.110000
15.957200 2.176700
15.987200 2.203700
16.017200 2.172600
16.047200 2.122100
16.077200 2.084500
16.107300 2.034200
16.137300 1.981000
16.167300 1.942500
16.197300 1.931900
16.227300 1.919400
16.257400 1.919400
16.287400 1.909900
16.317400 1.905700
16.347400 1.915600
16.377500 1.937800
16.407500 1.990500
16.437500 2.084400
16.467500 2.094100
16.497500 2.076000
16.527600 2.014500
16.557600 1.963400
16.587600 1.972200
16.617600 1.962800
16.647600 1.933400
16.677700 1.887900
16.707700 1.864800
16.737700 1.859400
16.767700 1.829200
16.797700 1.749800
16.827800 1.722300
16.857800 1.703000
16.887800 1.680000
16.917800 1.646400
16.947800 1.613300
16.977900 1.591000
17.007900 1.560800
17.037900 1.556900
17.067900 1.603000
17.098000 1.626400
17.128000 1.623400
17.158000 1.618600
17.188000 1.621400
17.218000 1.621600
17.248100 1.624300
17.278100 1.631600
17.308100 1.641600
17.338100 1.638900
17.368100 1.638100
17.398200 1.632600
17.428200 1.621100
17.458200 1.598200
17.488200 1.580400
17.518200 1.570300
17.548300 1.570000
17.578300 1.559200
17.608300 1.559100
17.638300 1.568000
17.668300 1.589300
17.698400 1.623000
17.728400 1.639600
17.758400 1.643400
17.788400 1.631800
17.818500 1.614000
17.848500 1.594200
17.878500 1.588900
17.908500 1.578000
17.938500 1.568000
17.968600 1.558500
17.998600 1.561000
18.028600 1.558300
18.058600 1.545700
18.088600 1.527400
18.118700 1.530500
18.148700 1.529200
18.178700 1.542900
18.208700 1.567600
18.238700 1.583500
18.268800 1.592900
18.298800 1.589000
18.328800 1.591600
18.358800 1.607400
18.388800 1.617500
18.418900 1.640900
18.448900 1.681500
18.478900 1.720200
18.508900 1.755400
18.539000 1.773500
18.569000 1.790900
18.599000 1.810300
18.629000 1.840100
18.659000 1.872300
18.689100 1.903900
18.719100 1.930900
18.749100 1.941700
18.779100 1.944700
18.809100 1.949500
18.839200 1.952200
18.869200 1.958800
18.899200 1.965500
18.929200 1.971500
18.959200 1.968800
18.989300 1.954000
19.019300 1.944500
19.049300 1.950600
19.079300 1.964800
19.109300 1.989900
19.139400 2.005700
19.169400 2.032600
19.199400 2.074700
19.229400 2.124000
19.259400 2.184400
19.289500 2.245400
19.319500 2.278800
19.349500 2.321800
19.379500 2.465300
19.409600 2.436400
19.439600 2.488900
19.469600 2.533100
19.499600 2.563400
19.529600 2.605600
19.559700 2.645000
19.589700 2.698900
19.619700 2.716600
19.649700 2.714100
19.679700 2.703700
19.709800 2.670000
19.739800 2.626900
19.769800 2.607000
19.799800 2.590900
19.829800 2.568000
19.859900 2.544400
19.889900 2.528900
19.919900 2.514800
19.949900 2.486500
19.979900 2.473000
20.010000 2.468000
20.040000 2.472100
20.070000 2.490600
20.100000 2.509200
20.130100 2.521600
20.160100 2.544300
20.190100 2.577700
20.220100 2.594000
20.250100 2.601100
20.280200 2.584600
20.310200 2.530700
20.340200 2.490900
20.370200 2.484200
20.400200 2.522400
20.430300 2.539800
20.460300 2.531900
20.490300 2.524400
20.520300 2.541100
20.550300 2.550600
20.580400 2.545900
20.610400 2.560400
20.640400 2.572600
20.670400 2.523800
20.700400 2.504400
20.730500 2.489100
20.760500 2.475500
20.790500 2.469900
20.820500 2.468300
20.850600 2.444300
20.880600 2.447300
20.910600 2.454500
20.940600 2.467400
20.970600 2.487800
21.000700 2.519800
21.030700 2.642400
21.060700 2.516300
21.090700 2.538300
21.120700 2.584000
21.150800 2.639700
21.180800 2.679200
21.210800 2.648800
21.240800 2.639300
21.270800 2.636300
21.300900 2.608000
21.330900 2.584800
21.360900 2.586200
21.390900 2.589800
21.420900 2.584200
21.451000 2.600400
21.481000 2.592800
21.511000 2.591400
21.541000 2.612300
21.571100 2.636200
21.601100 2.533900
21.631100 2.478300
21.661100 2.459000
21.691100 2.459900
21.721200 2.460200
21.751200 2.478300
21.781200 2.520000
21.811200 2.551000
21.841200 2.577200
21.871300 2.570300
21.901300 2.585100
21.931300 2.636000
21.961300 2.722100
21.991300 2.657400
22.021400 2.581200
22.051400 2.500300
22.081400 2.471200
22.111400 2.455900
22.141400 2.441300
22.171500 2.413400
22.201500 2.437500
22.231500 2.474900
22.261500 2.496800
22.291600 2.505900
22.321600 2.525400
22.351600 2.553300
22.381600 2.573300
22.411600 2.584200
22.441700 2.586800
22.471700 2.557900
22.501700 2.514900
22.531700 2.499800
22.561700 2.501200
22.591800 2.513600
22.621800 2.525000
22.651800 2.543900
22.681800 2.567000
22.711800 2.600800
22.741900 2.647600
22.771900 2.698000
22.801900 2.740400
22.831900 2.776000
22.861900 2.840800
22.892000 2.903700
22.922000 2.945900
22.952000 2.983100
22.982000 3.046200
23.012000 2.897500
23.042100 2.744300
23.072100 2.606700
23.102100 2.517400
23.132100 2.480900
23.162200 2.467600
23.192200 2.447100
23.222200 2.365300
23.252200 2.347200
23.282200 2.338300
23.312300 2.353000
23.342300 2.390500
23.372300 2.416100
23.402300 2.490900
23.432300 2.528300
23.462400 2.497100
23.492400 2.483800
23.522400 2.519200
23.552400 2.490200
23.582400 2.399500
23.612500 2.362900
23.642500 2.341800
23.672500 2.299200
23.702500 2.257800
23.732500 2.203100
23.762600 2.183400
23.792600 2.201100
23.822600 2.190800
23.852600 2.174300
23.882700 2.171900
23.912700 2.181900
23.942700 2.199000
23.972700 2.222400
24.002700 2.237600
24.032800 2.246200
24.062800 2.236700
24.092800 2.205000
24.122800 2.166900
24.152800 2.155100
24.182900 2.147500
24.212900 2.132700
24.242900 2.141900
24.272900 2.160800
24.302900 2.155500
24.333000 2.110800
24.363000 2.101800
24.393000 2.102200
24.423000 2.071300
24.453000 2.034500
24.483100 1.979800
24.513100 1.884600
24.543100 1.795000
24.573100 1.758600
24.603200 1.704600
24.633200 1.702800
24.663200 1.716100
24.693200 1.731500
24.723200 1.715500
24.753300 1.680000
24.783300 1.652400
24.813300 1.652100
24.843300 1.670100
24.873300 1.721800
24.903400 1.742300
24.933400 1.771900
24.963400 1.810700
24.993400 1.825800
25.023400 1.856900
25.053500 1.910800
25.083500 1.978200
25.113500 2.051900
25.143500 2.161600
25.173500 2.210100
25.203600 2.251700
25.233600 2.262500
25.263600 2.231500
25.293600 2.238600
25.323700 2.238500
25.353700 2.223600
25.383700 2.220800
25.413700 2.209100
25.443700 2.213700
25.473800 2.206200
25.503800 2.284600
25.533800 2.366900
25.563800 2.368200
25.593800 2.361900
25.623900 2.367900
25.653900 2.364100
25.683900 2.389400
25.713900 2.443800
25.743900 2.437600
25.774000 2.479900
25.804000 2.502300
25.834000 2.550600
25.864000 2.595500
25.894000 2.631300
25.924100 2.775300
25.954100 2.938900
25.984100 3.090900
26.014100 3.260800
26.044200 3.326800
26.074200 3.439300
26.104200 3.641700
26.134200 4.000200
26.164200 4.391100
26.194300 5.189400
26.224300 5.976900
26.254300 6.905900
26.284300 8.990900
26.314300 14.171900
26.344400 25.659500
26.374400 51.895800
26.404400 95.856200
26.434400 70.546700
26.464400 5.956300
26.494500 2.206500
26.524500 1.386600
26.554500 0.846500
26.584500 0.614800
26.614500 0.437400
26.644600 0.263500
26.674600 0.194700
26.704600 0.147400
26.734600 0.127100
26.764600 0.100500
26.794700 0.076800
26.824700 0.055700
26.854700 0.035900
26.884700 0.022100
26.914800 0.014300
26.944800 0.008100
26.974800 0.003700
27.004800 0.001000
27.034800 0.000000
27.064900 0.000000
27.094900 0.000000
27.124900 0.000000
27.154900 0.000000
27.184900 0.000000
27.215000 0.000000
27.245000 0.000000
27.275000 0.000000
27.305000 0.000000
27.335000 0.000000
27.365100 0.000000
27.395100 0.000000
27.425100 0.000000
27.455100 0.000000
27.485100 0.000000
27.515200 0.000000
27.545200 0.000000
27.575200 0.000000
27.605200 0.000000
27.635300 0.000000
27.665300 0.000000
27.695300 0.000000
27.725300 0.000000
27.755300 0.000000
27.785400 0.000000
27.815400 0.000000
27.845400 0.000000
27.875400 0.000000
27.905400 0.000000
27.935500 0.000000
27.965500 0.000000
27.995500 0.000000
28.025500 0.000000
28.055500 0.000000
28.085600 0.000000
28.115600 0.000000
28.145600 0.000000
28.175600 0.000000
28.205600 0.000000
28.235700 0.000000
28.265700 0.000000
28.295700 0.000000
28.325700 0.000000
28.355800 0.000000
28.385800 0.000000
28.415800 0.000000
28.445800 0.000000
28.475800 0.000000
28.505900 0.000000
28.535900 0.000000
28.565900 0.000000
28.595900 0.000000
28.625900 0.000000
28.656000 0.000000
28.686000 0.000000
28.716000 0.000000
28.746000 0.000000
28.776000 0.000000
28.806100 0.000000
28.836100 0.000000
28.866100 0.000000
28.896100 0.000000
28.926100 0.000000
28.956200 0.000000
28.986200 0.000000
29.016200 0.000000
29.046200 0.000000
29.076300 0.000000
29.106300 0.000000
29.136300 0.000000
29.166300 0.000000
29.196300 0.000000
29.226400 0.000000
29.256400 0.000000
29.286400 0.000000
29.316400 0.000000
29.346400 0.000000
29.376500 0.000000
29.406500 0.000000
29.436500 0.000000
29.466500 0.000000
29.496500 0.000000
29.526600 0.000000
29.556600 0.000000
29.586600 0.000000
29.616600 0.000000
29.646600 0.000000
29.676700 0.000000
29.706700 0.000000
29.736700 0.000000
29.766700 0.000000
e
