set title 'mp-571514 - Density of States'
set xlabel 'Energy (eV)'
set ylabel 'DOS (states/eV)'
set grid
set xrange [-10:10]
set yrange [0:1168.106]
set xzeroaxis lt -1
set terminal png size 800,600
set output 'mp-571514_dos_gnuplot.png'
plot '-' using 1:2 with lines title 'DOS'
-11.960800 0.000000
-11.948100 0.000000
-11.935500 0.000000
-11.922800 0.000000
-11.910100 0.000000
-11.897500 0.000000
-11.884800 0.000000
-11.872100 0.000000
-11.859500 0.000000
-11.846800 0.000000
-11.834200 0.000000
-11.821500 0.000000
-11.808800 0.000000
-11.796200 0.000000
-11.783500 0.000000
-11.770900 0.000000
-11.758200 0.000000
-11.745500 0.000000
-11.732900 0.000000
-11.720200 0.000000
-11.707600 0.000000
-11.694900 0.000000
-11.682200 0.000000
-11.669600 0.000000
-11.656900 0.000000
-11.644300 0.000000
-11.631600 0.000000
-11.618900 0.000000
-11.606300 0.000000
-11.593600 0.000000
-11.581000 0.000000
-11.568300 0.000000
-11.555600 0.000000
-11.543000 0.000000
-11.530300 0.000000
-11.517700 0.000000
-11.505000 0.000000
-11.492300 0.000000
-11.479700 0.000000
-11.467000 0.000000
-11.454400 0.000000
-11.441700 0.000000
-11.429000 0.000000
-11.416400 0.000000
-11.403700 0.000000
-11.391100 0.000000
-11.378400 0.000000
-11.365700 0.000000
-11.353100 0.000000
-11.340400 0.000000
-11.327800 0.000000
-11.315100 0.000000
-11.302400 0.000000
-11.289800 0.000000
-11.277100 0.000000
-11.264500 0.000000
-11.251800 0.000000
-11.239100 0.000000
-11.226500 0.000000
-11.213800 0.000000
-11.201200 0.000000
-11.188500 0.000000
-11.175800 0.000000
-11.163200 0.000000
-11.150500 0.000000
-11.137900 0.000000
-11.125200 0.000000
-11.112500 0.000000
-11.099900 0.000000
-11.087200 0.000000
-11.074600 0.000000
-11.061900 0.000000
-11.049200 0.000000
-11.036600 0.000000
-11.023900 0.000000
-11.011300 0.000000
-10.998600 0.000000
-10.985900 0.000000
-10.973300 0.000000
-10.960600 0.000000
-10.948000 0.000000
-10.935300 0.000000
-10.922600 0.000000
-10.910000 0.000000
-10.897300 0.000000
-10.884700 0.000000
-10.872000 0.000000
-10.859300 0.000000
-10.846700 0.000000
-10.834000 0.000000
-10.821400 0.000000
-10.808700 0.040000
-10.796000 0.879100
-10.783400 2.211400
-10.770700 4.281700
-10.758100 6.533900
-10.745400 9.727300
-10.732700 13.410000
-10.720100 15.685300
-10.707400 15.855200
-10.694800 15.643400
-10.682100 17.388600
-10.669400 16.153800
-10.656800 15.513200
-10.644100 16.033600
-10.631500 16.553900
-10.618800 17.074300
-10.606100 17.594600
-10.593500 18.115000
-10.580800 18.635400
-10.568200 19.203400
-10.555500 19.808600
-10.542800 20.469400
-10.530200 21.185200
-10.517500 21.976500
-10.504900 22.773400
-10.492200 23.565700
-10.479500 24.352600
-10.466900 25.123500
-10.454200 25.889400
-10.441600 26.655200
-10.428900 27.421000
-10.416200 28.186900
-10.403600 28.952700
-10.390900 29.718500
-10.378300 31.258700
-10.365600 36.001000
-10.352900 47.521500
-10.340300 68.499500
-10.327600 78.345500
-10.315000 109.636400
-10.302300 127.001200
-10.289600 137.920200
-10.277000 151.611500
-10.264300 167.570500
-10.251700 263.871100
-10.239000 288.320800
-10.226300 308.053800
-10.213700 0.000000
-10.201000 0.000000
-10.188400 0.000000
-10.175700 0.000000
-10.163000 0.000000
-10.150400 0.000000
-10.137700 0.000000
-10.125100 0.000000
-10.112400 0.000000
-10.099700 0.000000
-10.087100 0.000000
-10.074400 0.000000
-10.061800 0.000000
-10.049100 0.000000
-10.036400 0.000000
-10.023800 0.000000
-10.011100 0.000000
-9.998500 0.000000
-9.985800 0.000000
-9.973100 0.000000
-9.960500 0.000000
-9.947800 0.000000
-9.935200 0.000000
-9.922500 0.000000
-9.909800 0.000000
-9.897200 0.000000
-9.884500 0.000000
-9.871900 0.000000
-9.859200 0.000000
-9.846500 0.000000
-9.833900 0.000000
-9.821200 0.000000
-9.808600 0.000000
-9.795900 0.000000
-9.783200 0.000000
-9.770600 0.000000
-9.757900 0.000000
-9.745300 0.000000
-9.732600 0.000000
-9.719900 0.000000
-9.707300 0.000000
-9.694600 0.000000
-9.682000 0.000000
-9.669300 0.000000
-9.656600 0.000000
-9.644000 0.000000
-9.631300 0.000000
-9.618700 0.000000
-9.606000 0.000000
-9.593300 0.000000
-9.580700 0.000000
-9.568000 0.000000
-9.555400 0.000000
-9.542700 0.000000
-9.530000 0.000000
-9.517400 0.000000
-9.504700 0.000000
-9.492100 0.000000
-9.479400 0.000000
-9.466700 0.000000
-9.454100 0.000000
-9.441400 0.000000
-9.428800 0.000000
-9.416100 0.000000
-9.403400 0.000000
-9.390800 0.000000
-9.378100 0.000000
-9.365500 0.000000
-9.352800 0.000000
-9.340100 0.000000
-9.327500 0.000000
-9.314800 0.000000
-9.302200 0.000000
-9.289500 0.000000
-9.276800 0.000000
-9.264200 0.000000
-9.251500 0.000000
-9.238900 0.000000
-9.226200 0.000000
-9.213500 0.000000
-9.200900 0.000000
-9.188200 0.000000
-9.175600 0.000000
-9.162900 0.000000
-9.150200 0.000000
-9.137600 0.000000
-9.124900 0.000000
-9.112300 0.000000
-9.099600 0.000000
-9.086900 0.000000
-9.074300 0.000000
-9.061600 0.000000
-9.049000 0.000000
-9.036300 0.000000
-9.023600 0.000000
-9.011000 0.000000
-8.998300 0.000000
-8.985700 0.000000
-8.973000 0.000000
-8.960300 0.000000
-8.947700 0.000000
-8.935000 0.000000
-8.922400 0.000000
-8.909700 0.000000
-8.897000 0.000000
-8.884400 0.000000
-8.871700 0.000000
-8.859100 0.000000
-8.846400 0.000000
-8.833700 0.000000
-8.821100 0.000000
-8.808400 0.000000
-8.795800 0.000000
-8.783100 0.000000
-8.770400 0.000000
-8.757800 0.000000
-8.745100 0.000000
-8.732500 0.000000
-8.719800 0.000000
-8.707100 0.000000
-8.694500 0.000000
-8.681800 0.000000
-8.669200 0.000000
-8.656500 0.000000
-8.643800 0.000000
-8.631200 0.000000
-8.618500 0.000000
-8.605900 0.000000
-8.593200 0.000000
-8.580500 0.000000
-8.567900 0.000000
-8.555200 0.000000
-8.542600 0.000000
-8.529900 0.000000
-8.517200 0.000000
-8.504600 0.000000
-8.491900 0.000000
-8.479300 0.000000
-8.466600 0.000000
-8.453900 0.000000
-8.441300 0.000000
-8.428600 0.000000
-8.416000 0.000000
-8.403300 0.000000
-8.390600 0.000000
-8.378000 0.000000
-8.365300 0.000000
-8.352700 0.000000
-8.340000 0.000000
-8.327300 0.000000
-8.314700 0.000000
-8.302000 0.000000
-8.289400 0.000000
-8.276700 0.000000
-8.264000 0.000000
-8.251400 0.000000
-8.238700 0.000000
-8.226100 0.000000
-8.213400 0.000000
-8.200700 0.000000
-8.188100 0.000000
-8.175400 0.000000
-8.162800 0.000000
-8.150100 0.000000
-8.137400 0.000000
-8.124800 0.000000
-8.112100 0.000000
-8.099500 0.000000
-8.086800 0.000000
-8.074100 0.000000
-8.061500 0.000000
-8.048800 0.000000
-8.036200 0.000000
-8.023500 0.000000
-8.010800 0.000000
-7.998200 0.000000
-7.985500 0.000000
-7.972900 0.000000
-7.960200 0.000000
-7.947500 0.000000
-7.934900 0.000000
-7.922200 0.000000
-7.909500 0.000000
-7.896900 0.000000
-7.884200 0.000000
-7.871600 0.000000
-7.858900 0.000000
-7.846200 0.000000
-7.833600 0.000000
-7.820900 0.000000
-7.808300 0.000000
-7.795600 0.000000
-7.782900 0.000000
-7.770300 0.000000
-7.757600 0.000000
-7.745000 0.000000
-7.732300 0.000000
-7.719600 0.000000
-7.707000 0.000000
-7.694300 0.000000
-7.681700 0.000000
-7.669000 0.000000
-7.656300 0.000000
-7.643700 0.000000
-7.631000 0.000000
-7.618400 0.000000
-7.605700 0.000000
-7.593000 0.000000
-7.580400 0.000000
-7.567700 0.000000
-7.555100 0.000000
-7.542400 0.000000
-7.529700 0.000000
-7.517100 0.000000
-7.504400 0.000000
-7.491800 0.000000
-7.479100 0.000000
-7.466400 0.000000
-7.453800 0.000000
-7.441100 0.000000
-7.428500 0.000000
-7.415800 0.000000
-7.403100 0.000000
-7.390500 0.000000
-7.377800 0.000000
-7.365200 0.000000
-7.352500 0.000000
-7.339800 0.000000
-7.327200 0.000000
-7.314500 0.000000
-7.301900 0.000000
-7.289200 0.000000
-7.276500 0.000000
-7.263900 0.000000
-7.251200 0.000000
-7.238600 0.000000
-7.225900 0.000000
-7.213200 0.000000
-7.200600 0.000000
-7.187900 0.000000
-7.175300 0.000000
-7.162600 0.000000
-7.149900 0.000000
-7.137300 0.000000
-7.124600 0.000000
-7.112000 0.000000
-7.099300 0.000000
-7.086600 0.000000
-7.074000 0.000000
-7.061300 0.000000
-7.048700 0.000000
-7.036000 0.000000
-7.023300 0.000000
-7.010700 0.000000
-6.998000 0.000000
-6.985400 0.000000
-6.972700 0.000000
-6.960000 0.000000
-6.947400 0.000000
-6.934700 0.000000
-6.922100 0.000000
-6.909400 0.000000
-6.896700 0.000000
-6.884100 0.000000
-6.871400 0.000000
-6.858800 0.000000
-6.846100 0.000000
-6.833400 0.000000
-6.820800 0.000000
-6.808100 0.000000
-6.795500 0.000000
-6.782800 0.000000
-6.770100 0.000000
-6.757500 0.000000
-6.744800 0.000000
-6.732200 0.000000
-6.719500 0.000000
-6.706800 0.000000
-6.694200 0.000000
-6.681500 0.000000
-6.668900 0.000000
-6.656200 0.000000
-6.643500 0.000000
-6.630900 0.000000
-6.618200 0.000000
-6.605600 0.000000
-6.592900 0.000000
-6.580200 0.000000
-6.567600 0.000000
-6.554900 0.000000
-6.542300 0.000000
-6.529600 0.000000
-6.516900 2.724400
-6.504300 145.486700
-6.491600 227.167700
-6.479000 392.102600
-6.466300 287.644300
-6.453600 146.903600
-6.441000 126.268600
-6.428300 119.875700
-6.415700 136.522800
-6.403000 445.566200
-6.390300 313.932500
-6.377700 228.772100
-6.365000 99.304600
-6.352400 161.526400
-6.339700 828.464400
-6.327000 952.173400
-6.314400 247.372000
-6.301700 1061.914100
-6.289100 80.365100
-6.276400 227.377100
-6.263700 126.093000
-6.251100 108.784000
-6.238400 91.474900
-6.225800 170.162300
-6.213100 0.000000
-6.200400 0.000000
-6.187800 0.000000
-6.175100 0.000000
-6.162500 0.000000
-6.149800 0.000000
-6.137100 0.000000
-6.124500 0.000000
-6.111800 0.000000
-6.099200 0.000000
-6.086500 0.000000
-6.073800 0.000000
-6.061200 0.000000
-6.048500 0.000000
-6.035900 0.000000
-6.023200 0.000000
-6.010500 0.000000
-5.997900 0.000000
-5.985200 0.000000
-5.972600 0.000000
-5.959900 0.000000
-5.947200 0.000000
-5.934600 0.000000
-5.921900 0.000000
-5.909300 0.000000
-5.896600 0.000000
-5.883900 0.000000
-5.871300 0.000000
-5.858600 0.000000
-5.846000 0.000000
-5.833300 0.000000
-5.820600 0.000000
-5.808000 0.000000
-5.795300 0.000000
-5.782700 0.000000
-5.770000 0.000000
-5.757300 0.000000
-5.744700 0.000000
-5.732000 0.000000
-5.719400 0.000000
-5.706700 0.000000
-5.694000 0.000000
-5.681400 0.000000
-5.668700 0.000000
-5.656100 0.000000
-5.643400 0.000000
-5.630700 0.000000
-5.618100 0.000000
-5.605400 0.000000
-5.592800 0.000000
-5.580100 0.000000
-5.567400 0.000000
-5.554800 0.000000
-5.542100 0.000000
-5.529500 0.000000
-5.516800 0.000000
-5.504100 0.000000
-5.491500 0.000000
-5.478800 0.000000
-5.466200 0.000000
-5.453500 0.000000
-5.440800 0.000000
-5.428200 0.000000
-5.415500 0.000000
-5.402900 0.000000
-5.390200 0.000000
-5.377500 0.000000
-5.364900 0.000000
-5.352200 0.000000
-5.339600 0.000000
-5.326900 0.000000
-5.314200 0.000000
-5.301600 0.000000
-5.288900 0.000000
-5.276300 0.000000
-5.263600 0.000000
-5.250900 0.000000
-5.238300 0.000000
-5.225600 0.000000
-5.213000 0.000000
-5.200300 0.000000
-5.187600 0.000000
-5.175000 0.000000
-5.162300 0.000000
-5.149700 0.000000
-5.137000 0.000000
-5.124300 0.000000
-5.111700 0.000000
-5.099000 0.000000
-5.086400 0.000000
-5.073700 0.000000
-5.061000 0.000000
-5.048400 0.000000
-5.035700 0.000000
-5.023100 0.000000
-5.010400 0.000000
-4.997700 0.000000
-4.985100 0.000000
-4.972400 0.000000
-4.959800 0.000000
-4.947100 0.000000
-4.934400 0.000000
-4.921800 0.000000
-4.909100 0.000000
-4.896500 0.000000
-4.883800 0.000000
-4.871100 0.000000
-4.858500 0.000000
-4.845800 0.000000
-4.833200 0.000000
-4.820500 0.000000
-4.807800 0.000000
-4.795200 0.000000
-4.782500 0.000000
-4.769900 0.000000
-4.757200 0.000000
-4.744500 0.000000
-4.731900 0.000000
-4.719200 0.000000
-4.706600 0.000000
-4.693900 0.000000
-4.681200 0.000000
-4.668600 0.000000
-4.655900 0.000000
-4.643300 0.000000
-4.630600 0.000000
-4.617900 0.000000
-4.605300 0.000000
-4.592600 0.000000
-4.580000 0.000000
-4.567300 0.000000
-4.554600 0.000000
-4.542000 0.000000
-4.529300 0.000000
-4.516700 0.000000
-4.504000 0.000000
-4.491300 0.000000
-4.478700 0.000000
-4.466000 0.000000
-4.453400 0.000000
-4.440700 0.000000
-4.428000 0.000000
-4.415400 0.000000
-4.402700 0.000000
-4.390100 0.000000
-4.377400 0.000000
-4.364700 0.000000
-4.352100 0.000000
-4.339400 0.000000
-4.326800 0.000000
-4.314100 0.000000
-4.301400 0.000000
-4.288800 0.000000
-4.276100 0.000000
-4.263500 0.000000
-4.250800 0.000000
-4.238100 0.000000
-4.225500 0.000000
-4.212800 0.000000
-4.200200 0.000000
-4.187500 0.000000
-4.174800 0.000000
-4.162200 0.000000
-4.149500 0.000000
-4.136900 0.000000
-4.124200 0.000000
-4.111500 0.000000
-4.098900 0.000000
-4.086200 0.000000
-4.073600 0.000000
-4.060900 0.000000
-4.048200 0.000000
-4.035600 0.000000
-4.022900 0.000000
-4.010300 0.000000
-3.997600 0.000000
-3.984900 0.000000
-3.972300 0.000000
-3.959600 0.000000
-3.946900 0.000000
-3.934300 0.000000
-3.921600 0.000000
-3.909000 0.000000
-3.896300 0.000000
-3.883600 0.000000
-3.871000 0.000000
-3.858300 0.000000
-3.845700 0.000000
-3.833000 0.000000
-3.820300 0.000000
-3.807700 0.000000
-3.795000 0.000000
-3.782400 0.000000
-3.769700 0.000000
-3.757000 0.000000
-3.744400 0.000000
-3.731700 0.000000
-3.719100 0.000000
-3.706400 0.000000
-3.693700 0.000000
-3.681100 0.000000
-3.668400 0.000000
-3.655800 0.000000
-3.643100 0.000000
-3.630400 0.000000
-3.617800 0.000000
-3.605100 0.000000
-3.592500 0.000000
-3.579800 0.000000
-3.567100 0.000000
-3.554500 0.000000
-3.541800 0.000000
-3.529200 0.000000
-3.516500 0.000000
-3.503800 0.000000
-3.491200 0.000000
-3.478500 0.000000
-3.465900 0.000000
-3.453200 0.000000
-3.440500 0.000000
-3.427900 0.000000
-3.415200 0.000000
-3.402600 0.000000
-3.389900 0.000000
-3.377200 0.000000
-3.364600 0.000000
-3.351900 0.000000
-3.339300 0.000000
-3.326600 0.000000
-3.313900 0.000000
-3.301300 0.000000
-3.288600 0.000000
-3.276000 0.000000
-3.263300 0.000000
-3.250600 0.000000
-3.238000 0.000000
-3.225300 0.000000
-3.212700 0.000000
-3.200000 0.000000
-3.187300 0.000000
-3.174700 0.000000
-3.162000 0.000000
-3.149400 0.000000
-3.136700 0.000000
-3.124000 0.000000
-3.111400 0.000000
-3.098700 0.000000
-3.086100 0.000000
-3.073400 0.000000
-3.060700 0.000000
-3.048100 0.000000
-3.035400 0.000000
-3.022800 0.000000
-3.010100 0.000000
-2.997400 0.000000
-2.984800 0.000000
-2.972100 0.000000
-2.959500 0.000000
-2.946800 0.000000
-2.934100 0.000000
-2.921500 0.000000
-2.908800 0.000000
-2.896200 0.000000
-2.883500 0.000000
-2.870800 0.000000
-2.858200 0.000000
-2.845500 0.000000
-2.832900 0.000000
-2.820200 0.000000
-2.807500 0.000000
-2.794900 0.000000
-2.782200 0.000000
-2.769600 0.000000
-2.756900 0.000000
-2.744200 0.000000
-2.731600 0.000000
-2.718900 0.000000
-2.706300 0.000000
-2.693600 0.000000
-2.680900 0.000000
-2.668300 0.000000
-2.655600 0.000000
-2.643000 0.000000
-2.630300 0.000000
-2.617600 0.000000
-2.605000 0.000000
-2.592300 0.000000
-2.579700 16.689400
-2.567000 23.066100
-2.554300 37.267800
-2.541700 44.021700
-2.529000 50.871100
-2.516400 50.639400
-2.503700 57.160800
-2.491000 53.295400
-2.478400 50.000600
-2.465700 41.804500
-2.453100 40.980400
-2.440400 40.156300
-2.427700 34.371000
-2.415100 31.638300
-2.402400 28.959900
-2.389800 26.814900
-2.377100 23.235300
-2.364400 21.548800
-2.351800 21.455600
-2.339100 21.362400
-2.326500 21.269200
-2.313800 21.988500
-2.301100 22.882700
-2.288500 24.888600
-2.275800 30.468700
-2.263200 38.980800
-2.250500 40.637500
-2.237800 42.722100
-2.225200 40.304500
-2.212500 14.642800
-2.199900 15.281900
-2.187200 15.920500
-2.174500 16.794500
-2.161900 17.736700
-2.149200 37.421000
-2.136600 7.245400
-2.123900 7.113300
-2.111200 6.981200
-2.098600 6.849100
-2.085900 6.717000
-2.073300 6.584900
-2.060600 6.452800
-2.047900 6.320700
-2.035300 18.543500
-2.022600 8.857400
-2.010000 1.758500
-1.997300 1.711400
-1.984600 4.192100
-1.972000 2.911400
-1.959300 1.630800
-1.946700 0.350100
-1.934000 0.000000
-1.921300 0.000000
-1.908700 0.000000
-1.896000 0.000000
-1.883400 0.000000
-1.870700 0.000000
-1.858000 0.000000
-1.845400 0.000000
-1.832700 0.000000
-1.820100 0.000000
-1.807400 0.000000
-1.794700 0.000000
-1.782100 0.000000
-1.769400 0.000000
-1.756800 0.000000
-1.744100 0.000000
-1.731400 0.000000
-1.718800 0.000000
-1.706100 0.000000
-1.693500 0.000000
-1.680800 5.480000
-1.668100 4.098900
-1.655500 8.435200
-1.642800 6.262600
-1.630200 10.700200
-1.617500 12.623100
-1.604800 10.537000
-1.592200 9.146100
-1.579500 14.417000
-1.566900 15.286700
-1.554200 14.466100
-1.541500 20.062300
-1.528900 17.883600
-1.516200 16.457500
-1.503600 21.603700
-1.490900 20.656200
-1.478200 19.708700
-1.465600 19.997000
-1.452900 20.708200
-1.440300 21.419300
-1.427600 22.130500
-1.414900 22.841600
-1.402300 23.552700
-1.389600 36.824300
-1.377000 22.486000
-1.364300 32.755100
-1.351600 34.444300
-1.339000 18.626900
-1.326300 26.878200
-1.313700 20.636300
-1.301000 24.502400
-1.288300 14.802500
-1.275700 14.956400
-1.263000 19.270300
-1.250400 16.846500
-1.237700 23.034200
-1.225000 10.912900
-1.212400 23.637700
-1.199700 13.599000
-1.187100 8.537300
-1.174400 8.435700
-1.161700 8.887500
-1.149100 8.824300
-1.136400 8.761000
-1.123800 9.905500
-1.111100 9.925600
-1.098400 9.948100
-1.085800 10.603100
-1.073100 11.939400
-1.060500 12.064900
-1.047800 12.851600
-1.035100 13.003000
-1.022500 13.816400
-1.009800 13.994200
-0.997200 14.172100
-0.984500 14.349900
-0.971800 14.527700
-0.959200 14.705500
-0.946500 14.878600
-0.933900 15.043000
-0.921200 15.206000
-0.908500 15.369100
-0.895900 15.525800
-0.883200 15.675400
-0.870600 15.825100
-0.857900 15.974700
-0.845200 16.124300
-0.832600 16.273900
-0.819900 16.423600
-0.807300 16.573200
-0.794600 16.722800
-0.781900 16.872400
-0.769300 17.022100
-0.756600 17.994900
-0.744000 19.215400
-0.731300 20.406100
-0.718600 22.891600
-0.706000 23.610500
-0.693300 27.176000
-0.680700 28.063400
-0.668000 30.097700
-0.655300 30.530700
-0.642700 33.346000
-0.630000 33.854800
-0.617400 34.393500
-0.604700 37.290300
-0.592000 36.543100
-0.579400 36.859700
-0.566700 38.971600
-0.554100 39.247200
-0.541400 38.273700
-0.528700 38.359500
-0.516100 37.032400
-0.503400 37.048400
-0.490800 36.924800
-0.478100 36.801100
-0.465400 36.761500
-0.452800 36.881300
-0.440100 36.126200
-0.427500 36.383700
-0.414800 36.564100
-0.402100 35.816900
-0.389500 35.977300
-0.376800 36.493200
-0.364200 37.283200
-0.351500 38.178700
-0.338800 39.074200
-0.326200 39.938300
-0.313500 39.912800
-0.300900 40.643700
-0.288200 40.785400
-0.275500 40.904600
-0.262900 38.622700
-0.250200 39.125600
-0.237600 36.727600
-0.224900 35.411900
-0.212200 31.945300
-0.199600 29.711500
-0.186900 40.744200
-0.174300 32.920700
-0.161600 27.647800
-0.148900 26.785100
-0.136300 26.041700
-0.123600 27.666600
-0.111000 26.590700
-0.098300 25.357300
-0.085600 24.123800
-0.073000 23.176500
-0.060300 21.984500
-0.047700 20.792500
-0.035000 19.877300
-0.022300 19.282100
-0.009700 18.701300
0.003000 18.142400
0.015700 17.630300
0.028300 17.163300
0.041000 16.736500
0.053600 16.362000
0.066300 16.049400
0.079000 15.830600
0.091600 15.611800
0.104300 16.363300
0.116900 16.368900
0.129600 16.431700
0.142300 16.437900
0.154900 16.444100
0.167600 18.582800
0.180200 19.083800
0.192900 19.589600
0.205600 20.095400
0.218200 20.601200
0.230900 21.310500
0.243500 21.809300
0.256200 26.098400
0.268900 26.294800
0.281500 26.507700
0.294200 31.110100
0.306800 33.135700
0.319500 38.721100
0.332200 39.657300
0.344800 41.191700
0.357500 42.746300
0.370100 42.663000
0.382800 44.115700
0.395500 45.331300
0.408100 53.661900
0.420800 60.619500
0.433400 71.609900
0.446100 63.594800
0.458800 65.529700
0.471400 67.521700
0.484100 65.108200
0.496700 79.486000
0.509400 69.011100
0.522100 61.906100
0.534700 76.974500
0.547400 43.317500
0.560000 49.594600
0.572700 52.463300
0.585400 50.585000
0.598000 61.381500
0.610700 55.826000
0.623300 52.487200
0.636000 59.496900
0.648700 49.922500
0.661300 110.858600
0.674000 99.607000
0.686600 64.978100
0.699300 64.233000
0.712000 66.129000
0.724600 71.148100
0.737300 59.195200
0.749900 57.770000
0.762600 57.117100
0.775300 53.792000
0.787900 49.381300
0.800600 46.491200
0.813200 44.407900
0.825900 38.615700
0.838600 34.208200
0.851200 30.957600
0.863900 27.855800
0.876500 24.906700
0.889200 21.996300
0.901900 33.001500
0.914500 22.408700
0.927200 27.695800
0.939800 12.448400
0.952500 31.673900
0.965200 29.092200
0.977800 0.000000
0.990500 0.000000
1.003100 0.000000
1.015800 0.000000
1.028500 0.000000
1.041100 0.000000
1.053800 0.000000
1.066400 0.000000
1.079100 0.000000
1.091800 0.000000
1.104400 0.000000
1.117100 0.000000
1.129700 0.000000
1.142400 0.000000
1.155100 0.000000
1.167700 0.000000
1.180400 0.000000
1.193000 0.000000
1.205700 0.000000
1.218400 0.000000
1.231000 0.000000
1.243700 0.000000
1.256300 0.000000
1.269000 0.000000
1.281700 0.000000
1.294300 0.000000
1.307000 0.000000
1.319600 0.000000
1.332300 0.000000
1.345000 0.000000
1.357600 0.000000
1.370300 0.000000
1.382900 0.000000
1.395600 0.000000
1.408300 0.000000
1.420900 0.000000
1.433600 0.000000
1.446200 0.000000
1.458900 0.000000
1.471600 0.000000
1.484200 0.000000
1.496900 0.000000
1.509500 0.000000
1.522200 0.000000
1.534900 0.000000
1.547500 0.000000
1.560200 0.000000
1.572800 0.000000
1.585500 0.000000
1.598200 0.000000
1.610800 0.000000
1.623500 0.000000
1.636100 0.000000
1.648800 0.000000
1.661500 0.000000
1.674100 0.000000
1.686800 0.000000
1.699400 0.000000
1.712100 0.000000
1.724800 0.000000
1.737400 0.000000
1.750100 0.000000
1.762700 0.000000
1.775400 0.000000
1.788100 0.000000
1.800700 0.000000
1.813400 0.000000
1.826000 0.000000
1.838700 0.000000
1.851400 0.000000
1.864000 0.000000
1.876700 0.000000
1.889300 0.000000
1.902000 0.000000
1.914700 0.000000
1.927300 0.000000
1.940000 0.000000
1.952600 0.000000
1.965300 0.000000
1.978000 0.000000
1.990600 0.000000
2.003300 0.000000
2.015900 0.000000
2.028600 0.000000
2.041300 0.000000
2.053900 0.000000
2.066600 0.000000
2.079200 0.000000
2.091900 0.000000
2.104600 0.000000
2.117200 0.000000
2.129900 0.000000
2.142500 0.000000
2.155200 0.000000
2.167900 0.000000
2.180500 0.000000
2.193200 0.000000
2.205800 0.000000
2.218500 0.000000
2.231200 0.000000
2.243800 0.000000
2.256500 0.000000
2.269100 0.000000
2.281800 0.000000
2.294500 0.000000
2.307100 0.000000
2.319800 0.000000
2.332400 0.000000
2.345100 0.000000
2.357800 0.000000
2.370400 0.000000
2.383100 0.000000
2.395700 0.000000
2.408400 0.000000
2.421100 0.000000
2.433700 0.000000
2.446400 0.000000
2.459000 0.000000
2.471700 0.000000
2.484400 0.000000
2.497000 0.000000
2.509700 0.000000
2.522300 0.000000
2.535000 0.000000
2.547700 0.000000
2.560300 0.000000
2.573000 0.000000
2.585600 0.000000
2.598300 0.000000
2.611000 0.000000
2.623600 0.000000
2.636300 0.000000
2.648900 0.000000
2.661600 0.000000
2.674300 0.000000
2.686900 0.000000
2.699600 0.000000
2.712200 0.000000
2.724900 0.000000
2.737600 0.000000
2.750200 0.000000
2.762900 0.000000
2.775500 0.000000
2.788200 0.000000
2.800900 0.000000
2.813500 0.000000
2.826200 0.000000
2.838800 0.000000
2.851500 0.000000
2.864200 0.000000
2.876800 0.000000
2.889500 0.000000
2.902100 0.000000
2.914800 0.000000
2.927500 0.000000
2.940100 0.000000
2.952800 0.000000
2.965400 0.000000
2.978100 0.000000
2.990800 0.000000
3.003400 0.000000
3.016100 0.000000
3.028700 0.000000
3.041400 0.000000
3.054100 0.000000
3.066700 0.000000
3.079400 0.000000
3.092000 0.000000
3.104700 0.000000
3.117400 0.000000
3.130000 0.000000
3.142700 0.000000
3.155300 0.000000
3.168000 0.000000
3.180700 0.000000
3.193300 0.000000
3.206000 0.000000
3.218600 0.000000
3.231300 0.000000
3.244000 0.000000
3.256600 0.000000
3.269300 0.000000
3.281900 0.000000
3.294600 0.000000
3.307300 0.000000
3.319900 0.000000
3.332600 0.000000
3.345200 0.000000
3.357900 0.000000
3.370600 0.000000
3.383200 0.000000
3.395900 0.002800
3.408500 0.894800
3.421200 1.776100
3.433900 1.855800
3.446500 1.935500
3.459200 2.015300
3.471800 3.005500
3.484500 4.059500
3.497200 4.210300
3.509800 4.361200
3.522500 4.516800
3.535100 4.691700
3.547800 6.062100
3.560500 7.525200
3.573100 7.745300
3.585800 7.965400
3.598400 9.478800
3.611100 10.989600
3.623800 11.249900
3.636400 11.510200
3.649100 11.770600
3.661700 12.030900
3.674400 12.291200
3.687100 12.569300
3.699700 12.986600
3.712400 13.404000
3.725000 13.933400
3.737700 14.478900
3.750400 15.175000
3.763000 16.043900
3.775700 16.920900
3.788300 17.845600
3.801000 18.799000
3.813700 19.815100
3.826300 20.853300
3.839000 21.891500
3.851600 22.967300
3.864300 24.206400
3.877000 25.445500
3.889600 23.655800
3.902300 25.054100
3.914900 33.743100
3.927600 31.656400
3.940300 29.237300
3.952900 27.764800
3.965600 32.618600
3.978300 35.826200
3.990900 32.946600
4.003600 29.301600
4.016200 37.397000
4.028900 32.948500
4.041600 33.073400
4.054200 29.649900
4.066900 28.192000
4.079500 26.715700
4.092200 25.235000
4.104900 23.605100
4.117500 22.816000
4.130200 21.895600
4.142800 22.045300
4.155500 20.176600
4.168200 19.095900
4.180800 18.015200
4.193500 18.859700
4.206100 16.767700
4.218800 14.675600
4.231500 12.583500
4.244100 10.714300
4.256800 9.948800
4.269400 7.022100
4.282100 9.881100
4.294800 13.061000
4.307400 5.418200
4.320100 6.204500
4.332700 0.000000
4.345400 0.000000
4.358100 0.000000
4.370700 0.000000
4.383400 0.000000
4.396000 0.000000
4.408700 0.000000
4.421400 0.000000
4.434000 0.000000
4.446700 0.000000
4.459300 0.000000
4.472000 0.000000
4.484700 0.000000
4.497300 0.000000
4.510000 0.000000
4.522600 0.000000
4.535300 0.000000
4.548000 0.000000
4.560600 0.000000
4.573300 0.000000
4.585900 0.000000
4.598600 0.000000
4.611300 0.000000
4.623900 0.000000
4.636600 0.000000
4.649200 0.000000
4.661900 0.000000
4.674600 0.000000
4.687200 0.000000
4.699900 0.000000
4.712500 0.000000
4.725200 0.000000
4.737900 0.000000
4.750500 0.000000
4.763200 0.000000
4.775800 0.000000
4.788500 0.000000
4.801200 0.000000
4.813800 0.000000
4.826500 0.000000
4.839100 0.000000
4.851800 0.000000
4.864500 0.000000
4.877100 0.000000
4.889800 0.000000
4.902400 0.000000
4.915100 0.000000
4.927800 0.000000
4.940400 0.000000
4.953100 0.000000
4.965700 0.000000
4.978400 0.000000
4.991100 0.000000
5.003700 0.000000
5.016400 0.000000
5.029000 0.000000
5.041700 0.000000
5.054400 0.000000
5.067000 0.000000
5.079700 0.000000
5.092300 0.000000
5.105000 0.000000
5.117700 0.000000
5.130300 0.000000
5.143000 0.000000
5.155600 0.000000
5.168300 0.000000
5.181000 0.000000
5.193600 0.000000
5.206300 0.000000
5.218900 0.000000
5.231600 0.000000
5.244300 0.000000
5.256900 0.000000
5.269600 0.000000
5.282200 0.000000
5.294900 0.000000
5.307600 0.000000
5.320200 0.000000
5.332900 0.000000
5.345500 0.000000
5.358200 0.000000
5.370900 0.000000
5.383500 0.000000
5.396200 0.000000
5.408800 0.000000
5.421500 0.000000
5.434200 0.000000
5.446800 0.000000
5.459500 0.000000
5.472100 0.000000
5.484800 0.009900
5.497500 0.058100
5.510100 0.130100
5.522800 0.202100
5.535400 0.274200
5.548100 0.346200
5.560800 0.418200
5.573400 0.490200
5.586100 0.562300
5.598700 0.634300
5.611400 0.706300
5.624100 0.778300
5.636700 0.850400
5.649400 0.922400
5.662000 0.994400
5.674700 1.066500
5.687400 1.138500
5.700000 1.210500
5.712700 1.282500
5.725300 1.354600
5.738000 1.426600
5.750700 1.498600
5.763300 1.570600
5.776000 1.642700
5.788600 1.714700
5.801300 1.786700
5.814000 1.858800
5.826600 1.930800
5.839300 2.002800
5.851900 2.074800
5.864600 2.146900
5.877300 2.218900
5.889900 2.290900
5.902600 2.363000
5.915200 2.435000
5.927900 2.507000
5.940600 2.579000
5.953200 2.651100
5.965900 3.324700
5.978500 4.834600
5.991200 5.335700
6.003900 6.686200
6.016500 7.941600
6.029200 8.405800
6.041800 9.337400
6.054500 10.114500
6.067200 10.890700
6.079800 12.129300
6.092500 12.580800
6.105100 13.532400
6.117800 14.068400
6.130500 14.636600
6.143100 14.792400
6.155800 15.412300
6.168400 15.579600
6.181100 15.746900
6.193800 15.914300
6.206400 16.630900
6.219100 16.848900
6.231700 17.067000
6.244400 17.285100
6.257100 18.060500
6.269700 18.331000
6.282400 18.531100
6.295000 18.661200
6.307700 18.791400
6.320400 18.921500
6.333000 18.928700
6.345700 18.935900
6.358300 18.943000
6.371000 18.950200
6.383700 22.344500
6.396300 22.159300
6.409000 21.974100
6.421600 21.774400
6.434300 25.214200
6.447000 24.195900
6.459600 23.112500
6.472300 21.958500
6.484900 21.176400
6.497600 32.080200
6.510300 21.383600
6.522900 20.653700
6.535600 20.089000
6.548200 19.524300
6.560900 25.634300
6.573600 22.647000
6.586200 18.167400
6.598900 16.276200
6.611500 16.618900
6.624200 16.961500
6.636900 17.304100
6.649500 17.646700
6.662200 11.611000
6.674800 11.602300
6.687500 11.838800
6.700200 12.116400
6.712800 14.432800
6.725500 14.700700
6.738100 14.972600
6.750800 17.414800
6.763500 19.763600
6.776100 19.188700
6.788800 17.242500
6.801400 16.511600
6.814100 15.780700
6.826800 15.049900
6.839400 14.319000
6.852100 16.557200
6.864700 15.666700
6.877400 14.919800
6.890100 16.245900
6.902700 15.200300
6.915400 13.316800
6.928000 12.664000
6.940700 12.011200
6.953400 11.372000
6.966000 11.260500
6.978700 11.227500
6.991300 11.194400
7.004000 11.161400
7.016700 14.684600
7.029300 14.350600
7.042000 14.016600
7.054600 18.003000
7.067300 26.135800
7.080000 23.369700
7.092600 21.406200
7.105300 19.585900
7.117900 22.833400
7.130600 29.877100
7.143300 37.579900
7.155900 35.803100
7.168600 37.326700
7.181200 32.410900
7.193900 35.852900
7.206600 24.537800
7.219200 20.702200
7.231900 21.655100
7.244500 27.724200
7.257200 31.813800
7.269900 29.713800
7.282500 27.706600
7.295200 26.292000
7.307800 32.085500
7.320500 53.066200
7.333200 21.187900
7.345800 21.780100
7.358500 22.372300
7.371100 22.964500
7.383800 23.556600
7.396500 49.886100
7.409100 22.849300
7.421800 25.626300
7.434400 22.299900
7.447100 24.402100
7.459800 27.923200
7.472400 32.095700
7.485100 33.800000
7.497700 31.861100
7.510400 32.663200
7.523100 32.438100
7.535700 33.128900
7.548400 33.393800
7.561000 33.809400
7.573700 32.588100
7.586400 32.921000
7.599000 34.953200
7.611700 39.288100
7.624300 38.786600
7.637000 38.653700
7.649700 36.172200
7.662300 38.322200
7.675000 35.998900
7.687600 36.923500
7.700300 36.020700
7.713000 58.294200
7.725600 37.905200
7.738300 41.027700
7.750900 40.201200
7.763600 35.054700
7.776300 48.394100
7.788900 34.302000
7.801600 32.337200
7.814200 31.350700
7.826900 33.612200
7.839600 49.492100
7.852200 32.958900
7.864900 30.421200
7.877600 32.090200
7.890200 34.846600
7.902900 32.077200
7.915500 29.904700
7.928200 28.471400
7.940900 27.466200
7.953500 25.478600
7.966200 24.946000
7.978800 23.923000
7.991500 23.441100
8.004200 25.248300
8.016800 28.173600
8.029500 28.120000
8.042100 28.066400
8.054800 28.012800
8.067500 32.148400
8.080100 31.864700
8.092800 32.934700
8.105400 32.118800
8.118100 31.268300
8.130800 35.514600
8.143400 34.440500
8.156100 33.039200
8.168700 33.771400
8.181400 36.439800
8.194100 34.217200
8.206700 33.218400
8.219400 33.341000
8.232000 30.571800
8.244700 28.503300
8.257400 38.244600
8.270000 25.814300
8.282700 28.228200
8.295300 25.747700
8.308000 26.758900
8.320700 23.627800
8.333300 20.379600
8.346000 18.080200
8.358600 15.198500
8.371300 13.953500
8.384000 12.276400
8.396600 11.685400
8.409300 11.408600
8.421900 11.131800
8.434600 10.855000
8.447300 10.578200
8.459900 10.301400
8.472600 9.580200
8.485200 9.331100
8.497900 9.082100
8.510600 8.833000
8.523200 8.584000
8.535900 8.334900
8.548500 8.263300
8.561200 9.209600
8.573900 8.955300
8.586500 8.701000
8.599200 7.609600
8.611800 11.005600
8.624500 9.766900
8.637200 8.542200
8.649800 7.379700
8.662500 6.295200
8.675100 6.186200
8.687800 6.764300
8.700500 7.653600
8.713100 9.323500
8.725800 10.714200
8.738400 12.536400
8.751100 9.635100
8.763800 10.703400
8.776400 11.771800
8.789100 9.568000
8.801700 10.320800
8.814400 11.073500
8.827100 11.212600
8.839700 11.146800
8.852400 11.456500
8.865000 11.590600
8.877700 11.656000
8.890400 9.837100
8.903000 9.820700
8.915700 9.804400
8.928300 9.788100
8.941000 10.320800
8.953700 11.360500
8.966300 11.825700
8.979000 12.290800
8.991600 13.220800
9.004300 16.040600
9.017000 17.077700
9.029600 18.114800
9.042300 22.352900
9.054900 21.626100
9.067600 20.899300
9.080300 19.409200
9.092900 19.100000
9.105600 23.615900
9.118200 18.898200
9.130900 18.531800
9.143600 18.998700
9.156200 21.749500
9.168900 25.723300
9.181500 29.697200
9.194200 31.403100
9.206900 26.762600
9.219500 27.759800
9.232200 30.440500
9.244800 45.587500
9.257500 25.057500
9.270200 22.328600
9.282800 22.450100
9.295500 22.571600
9.308100 22.693100
9.320800 33.593500
9.333500 23.713500
9.346100 42.778600
9.358800 29.688400
9.371400 30.151300
9.384100 24.782900
9.396800 26.666400
9.409400 26.915500
9.422100 27.164600
9.434700 24.548500
9.447400 28.999100
9.460100 30.424600
9.472700 31.896600
9.485400 33.368600
9.498000 28.615300
9.510700 25.745400
9.523400 25.122900
9.536000 24.500300
9.548700 27.977800
9.561300 26.538000
9.574000 25.144300
9.586700 23.750600
9.599300 22.357000
9.612000 21.995300
9.624600 21.791700
9.637300 19.874400
9.650000 23.787500
9.662600 34.917700
9.675300 28.999400
9.687900 31.313200
9.700600 31.903900
9.713300 30.431800
9.725900 28.406800
9.738600 28.367600
9.751200 23.488000
9.763900 24.110900
9.776600 25.031700
9.789200 25.963000
9.801900 26.931700
9.814500 28.557100
9.827200 26.281800
9.839900 23.563500
9.852500 24.490700
9.865200 25.417900
9.877800 24.053400
9.890500 25.125300
9.903200 26.673100
9.915800 26.770800
9.928500 28.536100
9.941100 28.317400
9.953800 28.935500
9.966500 27.496600
9.979100 26.090500
9.991800 36.837600
10.004400 25.007200
10.017100 27.708700
10.029800 27.652600
10.042400 31.028800
10.055100 20.414600
10.067700 27.093700
10.080400 19.673600
10.093100 20.755000
10.105700 21.836500
10.118400 22.918000
10.131000 23.379600
10.143700 21.993000
10.156400 21.089300
10.169000 26.504600
10.181700 25.426700
10.194300 20.522800
10.207000 16.718300
10.219700 16.535600
10.232300 17.362100
10.245000 17.178900
10.257600 16.995700
10.270300 17.857600
10.283000 19.359900
10.295600 20.080500
10.308300 20.801100
10.320900 21.971700
10.333600 22.872900
10.346300 19.397300
10.358900 19.562100
10.371600 19.726900
10.384200 17.685200
10.396900 18.680600
10.409600 18.718200
10.422200 17.578100
10.434900 18.290800
10.447500 19.003600
10.460200 19.716300
10.472900 16.610800
10.485500 16.690200
10.498200 16.769700
10.510800 16.849200
10.523500 16.993800
10.536200 15.450700
10.548800 16.258800
10.561500 16.269100
10.574100 16.316500
10.586800 16.363900
10.599500 16.411300
10.612100 16.465800
10.624800 16.524100
10.637400 16.582400
10.650100 16.640800
10.662800 16.712600
10.675400 15.208500
10.688100 15.256300
10.700700 15.322100
10.713400 13.839700
10.726100 13.634900
10.738700 13.514800
10.751400 14.725000
10.764000 14.870900
10.776700 13.873200
10.789400 17.433100
10.802000 15.147000
10.814700 15.207600
10.827300 15.221900
10.840000 15.224600
10.852700 15.236800
10.865300 15.090000
10.878000 14.943100
10.890600 14.805000
10.903300 14.653200
10.916000 14.501400
10.928600 14.349600
10.941300 14.197800
10.953900 14.046000
10.966600 16.990200
10.979300 18.606300
10.991900 19.407100
11.004600 19.940600
11.017200 21.813700
11.029900 22.172700
11.042600 22.122000
11.055200 21.859400
11.067900 21.458100
11.080500 21.089500
11.093200 21.282000
11.105900 20.987500
11.118500 20.693100
11.131200 20.400600
11.143800 20.110000
11.156500 19.744800
11.169200 19.268300
11.181800 18.791900
11.194500 18.315400
11.207100 17.845100
11.219800 17.385900
11.232500 18.970600
11.245100 18.411300
11.257800 18.376600
11.270400 17.838100
11.283100 17.313300
11.295800 16.854900
11.308400 16.975100
11.321100 16.514300
11.333700 16.116000
11.346400 15.765000
11.359100 15.645800
11.371700 15.380900
11.384400 20.580200
11.397000 18.000600
11.409700 15.916200
11.422400 15.668400
11.435000 15.065500
11.447700 14.823800
11.460300 14.596500
11.473000 13.998600
11.485700 13.779000
11.498300 13.652300
11.511000 13.402500
11.523600 13.152600
11.536300 12.902800
11.549000 12.653000
11.561600 12.463400
11.574300 12.316600
11.586900 11.823400
11.599600 12.268300
11.612300 11.860900
11.624900 12.105200
11.637600 12.349500
11.650200 12.593800
11.662900 12.838100
11.675600 13.082400
11.688200 12.802600
11.700900 13.055400
11.713500 11.649000
11.726200 9.137800
11.738900 9.083100
11.751500 9.028300
11.764200 8.973500
11.776800 9.753500
11.789500 10.192400
11.802200 10.768100
11.814800 11.389900
11.827500 12.011800
11.840200 11.537500
11.852800 12.137900
11.865500 9.726700
11.878100 9.896400
11.890800 8.447700
11.903500 8.587500
11.916100 6.471400
11.928800 6.461500
11.941400 6.451700
11.954100 6.441900
11.966800 6.432000
11.979400 6.422200
11.992100 6.554100
12.004700 6.816700
12.017400 7.079300
12.030100 7.367600
12.042700 6.282900
12.055400 6.567000
12.068000 5.559300
12.080700 3.064100
12.093400 3.073200
12.106000 3.082400
12.118700 3.091500
12.131300 3.100600
12.144000 3.109700
12.156700 3.118800
12.169300 3.128000
12.182000 2.905500
12.194600 4.739500
12.207300 6.573400
12.220000 0.000000
12.232600 0.000000
12.245300 0.000000
12.257900 0.000000
12.270600 0.000000
12.283300 0.000000
12.295900 0.000000
12.308600 0.000000
12.321200 0.000000
12.333900 0.000000
12.346600 0.000000
12.359200 0.000000
12.371900 0.000000
12.384500 0.000000
12.397200 0.000000
12.409900 0.000000
12.422500 0.000000
12.435200 0.000000
12.447800 0.000000
12.460500 0.000000
12.473200 0.000000
12.485800 0.000000
12.498500 0.000000
12.511100 0.000000
12.523800 0.000000
12.536500 0.000000
12.549100 0.000000
12.561800 0.000000
12.574400 0.000000
12.587100 0.000000
12.599800 0.000000
12.612400 0.000000
12.625100 0.000000
12.637700 0.000000
12.650400 0.000000
12.663100 0.000000
12.675700 0.000000
12.688400 0.000000
12.701000 0.000000
12.713700 0.000000
12.726400 0.000000
12.739000 0.000000
12.751700 0.000000
12.764300 0.000000
12.777000 0.000000
12.789700 0.000000
12.802300 0.000000
12.815000 0.000000
12.827600 0.000000
12.840300 0.000000
12.853000 0.000000
12.865600 0.000000
12.878300 0.000000
12.890900 0.000000
12.903600 0.000000
12.916300 0.000000
12.928900 0.000000
12.941600 0.000000
12.954200 0.000000
12.966900 0.000000
12.979600 0.000000
12.992200 0.000000
13.004900 0.000000
13.017500 0.000000
13.030200 0.000000
13.042900 0.000000
13.055500 0.000000
13.068200 0.000000
13.080800 0.000000
13.093500 0.000000
13.106200 0.000000
13.118800 0.000000
13.131500 0.000000
13.144100 0.000000
13.156800 0.000000
13.169500 0.000000
13.182100 0.000000
13.194800 0.000000
13.207400 0.000000
13.220100 0.000000
13.232800 0.000000
13.245400 0.000000
13.258100 0.000000
13.270700 0.000000
13.283400 0.000000
13.296100 0.000000
13.308700 0.000000
13.321400 0.000000
13.334000 0.000000
13.346700 0.000000
13.359400 0.000000
e
