set title 'mp-1220039 - Density of States'
set xlabel 'Energy (eV)'
set ylabel 'DOS (states/eV)'
set grid
set xrange [-10:10]
set yrange [0:13.889]
set xzeroaxis lt -1
set terminal png size 800,600
set output 'mp-1220039_dos_gnuplot.png'
plot '-' using 1:2 with lines title 'DOS'
-42.542800 0.000000
-42.500000 0.000000
-42.457200 0.000000
-42.414400 0.000000
-42.371600 0.000000
-42.328800 0.000000
-42.286000 0.000000
-42.243200 0.000000
-42.200400 0.000000
-42.157600 0.000000
-42.114800 0.000000
-42.072000 0.000000
-42.029200 0.000000
-41.986400 0.000000
-41.943600 0.000000
-41.900800 0.000000
-41.858000 0.000000
-41.815200 0.000000
-41.772400 0.000000
-41.729600 0.000000
-41.686800 0.000000
-41.644000 0.000000
-41.601200 0.000000
-41.558400 0.000000
-41.515600 0.000000
-41.472900 0.000000
-41.430100 0.000000
-41.387300 0.000000
-41.344500 0.000000
-41.301700 0.000000
-41.258900 0.000000
-41.216100 0.000000
-41.173300 0.000000
-41.130500 0.000000
-41.087700 0.000000
-41.044900 0.000000
-41.002100 0.000000
-40.959300 0.000000
-40.916500 0.000000
-40.873700 0.000000
-40.830900 0.000000
-40.788100 0.000000
-40.745300 0.000000
-40.702500 0.000000
-40.659700 0.000000
-40.616900 0.000000
-40.574100 0.000000
-40.531300 0.000000
-40.488500 0.000000
-40.445700 0.000000
-40.402900 0.000000
-40.360100 0.000000
-40.317300 0.000000
-40.274500 0.000000
-40.231700 0.000000
-40.188900 0.000000
-40.146100 0.000000
-40.103300 0.000000
-40.060500 0.000000
-40.017800 0.000000
-39.975000 0.000000
-39.932200 0.000000
-39.889400 0.000000
-39.846600 0.000000
-39.803800 0.000000
-39.761000 0.000000
-39.718200 0.000000
-39.675400 0.000000
-39.632600 0.000000
-39.589800 0.000000
-39.547000 0.000000
-39.504200 0.000000
-39.461400 0.000000
-39.418600 0.000000
-39.375800 0.000000
-39.333000 0.000000
-39.290200 0.000000
-39.247400 0.000000
-39.204600 0.000000
-39.161800 0.000000
-39.119000 0.000000
-39.076200 0.000000
-39.033400 0.000000
-38.990600 0.000000
-38.947800 0.000000
-38.905000 0.000000
-38.862200 0.000000
-38.819400 0.000000
-38.776600 0.000000
-38.733800 0.000000
-38.691000 0.000000
-38.648200 4.801700
-38.605500 8.098900
-38.562700 11.416400
-38.519900 17.332800
-38.477100 7.103400
-38.434300 3.544500
-38.391500 4.899400
-38.348700 5.189600
-38.305900 6.679300
-38.263100 8.354700
-38.220300 12.329600
-38.177500 8.162700
-38.134700 7.517900
-38.091900 2.953200
-38.049100 0.000000
-38.006300 0.000000
-37.963500 0.000000
-37.920700 0.000000
-37.877900 0.000000
-37.835100 0.000000
-37.792300 0.000000
-37.749500 0.000000
-37.706700 0.000000
-37.663900 0.000000
-37.621100 0.000000
-37.578300 0.000000
-37.535500 0.000000
-37.492700 0.000000
-37.449900 0.000000
-37.407100 0.000000
-37.364300 0.000000
-37.321500 0.000000
-37.278700 0.000000
-37.235900 0.000000
-37.193200 0.000000
-37.150400 0.000000
-37.107600 0.000000
-37.064800 0.000000
-37.022000 0.000000
-36.979200 0.000000
-36.936400 0.000000
-36.893600 0.000000
-36.850800 0.000000
-36.808000 0.000000
-36.765200 0.000000
-36.722400 0.000000
-36.679600 0.000000
-36.636800 0.000000
-36.594000 0.000000
-36.551200 0.000000
-36.508400 0.000000
-36.465600 0.000000
-36.422800 0.000000
-36.380000 0.000000
-36.337200 0.000000
-36.294400 0.000000
-36.251600 0.000000
-36.208800 0.000000
-36.166000 0.000000
-36.123200 0.000000
-36.080400 0.000000
-36.037600 0.000000
-35.994800 0.000000
-35.952000 0.000000
-35.909200 0.000000
-35.866400 0.000000
-35.823600 0.000000
-35.780900 0.000000
-35.738100 0.000000
-35.695300 0.000000
-35.652500 0.000000
-35.609700 0.000000
-35.566900 0.000000
-35.524100 0.000000
-35.481300 0.000000
-35.438500 0.000000
-35.395700 0.000000
-35.352900 0.000000
-35.310100 0.000000
-35.267300 0.000000
-35.224500 0.000000
-35.181700 0.000000
-35.138900 0.000000
-35.096100 0.000000
-35.053300 0.000000
-35.010500 0.000000
-34.967700 0.000000
-34.924900 0.000000
-34.882100 0.000000
-34.839300 0.000000
-34.796500 0.000000
-34.753700 0.000000
-34.710900 0.000000
-34.668100 0.000000
-34.625300 0.000000
-34.582500 0.000000
-34.539700 0.000000
-34.496900 0.000000
-34.454100 0.000000
-34.411300 0.000000
-34.368600 0.000000
-34.325800 0.000000
-34.283000 0.000000
-34.240200 0.000000
-34.197400 0.000000
-34.154600 0.000000
-34.111800 0.000000
-34.069000 0.000000
-34.026200 0.000000
-33.983400 0.000000
-33.940600 0.000000
-33.897800 0.000000
-33.855000 0.000000
-33.812200 0.000000
-33.769400 0.000000
-33.726600 0.000000
-33.683800 0.000000
-33.641000 0.000000
-33.598200 0.000000
-33.555400 0.000000
-33.512600 0.000000
-33.469800 0.000000
-33.427000 0.000000
-33.384200 0.000000
-33.341400 0.000000
-33.298600 0.000000
-33.255800 0.000000
-33.213000 0.000000
-33.170200 0.000000
-33.127400 0.000000
-33.084600 0.000000
-33.041800 0.000000
-32.999000 0.000000
-32.956200 0.000000
-32.913500 0.000000
-32.870700 0.000000
-32.827900 0.000000
-32.785100 0.000000
-32.742300 0.000000
-32.699500 0.000000
-32.656700 0.000000
-32.613900 0.000000
-32.571100 0.000000
-32.528300 0.000000
-32.485500 0.000000
-32.442700 0.000000
-32.399900 0.000000
-32.357100 0.000000
-32.314300 0.000000
-32.271500 0.000000
-32.228700 0.000000
-32.185900 0.000000
-32.143100 0.000000
-32.100300 0.000000
-32.057500 0.000000
-32.014700 0.000000
-31.971900 0.000000
-31.929100 0.000000
-31.886300 0.000000
-31.843500 0.000000
-31.800700 0.000000
-31.757900 0.000000
-31.715100 0.000000
-31.672300 0.000000
-31.629500 0.000000
-31.586700 0.000000
-31.543900 0.000000
-31.501200 0.000000
-31.458400 0.000000
-31.415600 0.000000
-31.372800 0.000000
-31.330000 0.000000
-31.287200 0.000000
-31.244400 0.000000
-31.201600 0.000000
-31.158800 0.000000
-31.116000 0.000000
-31.073200 0.000000
-31.030400 0.000000
-30.987600 0.000000
-30.944800 0.000000
-30.902000 0.000000
-30.859200 0.000000
-30.816400 0.000000
-30.773600 0.000000
-30.730800 0.000000
-30.688000 0.000000
-30.645200 0.000000
-30.602400 0.000000
-30.559600 0.000000
-30.516800 0.000000
-30.474000 0.000000
-30.431200 0.000000
-30.388400 0.000000
-30.345600 0.000000
-30.302800 0.000000
-30.260000 0.000000
-30.217200 0.000000
-30.174400 0.000000
-30.131600 0.000000
-30.088900 0.000000
-30.046100 0.000000
-30.003300 0.000000
-29.960500 0.000000
-29.917700 0.000000
-29.874900 0.000000
-29.832100 0.000000
-29.789300 0.000000
-29.746500 0.000000
-29.703700 0.000000
-29.660900 0.000000
-29.618100 0.000000
-29.575300 0.000000
-29.532500 0.000000
-29.489700 0.000000
-29.446900 0.000000
-29.404100 0.000000
-29.361300 0.000000
-29.318500 0.000000
-29.275700 0.000000
-29.232900 0.000000
-29.190100 0.000000
-29.147300 0.000000
-29.104500 0.000000
-29.061700 0.000000
-29.018900 0.000000
-28.976100 0.000000
-28.933300 0.000000
-28.890500 0.000000
-28.847700 0.000000
-28.804900 0.000000
-28.762100 0.000000
-28.719300 0.000000
-28.676600 0.000000
-28.633800 0.000000
-28.591000 0.000000
-28.548200 0.000000
-28.505400 0.000000
-28.462600 0.000000
-28.419800 0.000000
-28.377000 0.000000
-28.334200 0.000000
-28.291400 0.000000
-28.248600 0.000000
-28.205800 0.000000
-28.163000 0.000000
-28.120200 0.000000
-28.077400 0.000000
-28.034600 0.000000
-27.991800 0.000000
-27.949000 0.000000
-27.906200 0.000000
-27.863400 0.000000
-27.820600 0.000000
-27.777800 0.000000
-27.735000 0.000000
-27.692200 0.000000
-27.649400 0.000000
-27.606600 0.000000
-27.563800 0.000000
-27.521000 0.000000
-27.478200 0.000000
-27.435400 0.000000
-27.392600 0.000000
-27.349800 0.000000
-27.307000 0.000000
-27.264300 0.000000
-27.221500 0.000000
-27.178700 0.000000
-27.135900 0.000000
-27.093100 0.000000
-27.050300 0.000000
-27.007500 0.000000
-26.964700 0.000000
-26.921900 0.000000
-26.879100 0.000000
-26.836300 0.000000
-26.793500 0.000000
-26.750700 0.000000
-26.707900 0.000000
-26.665100 0.000000
-26.622300 0.000000
-26.579500 0.000000
-26.536700 0.000000
-26.493900 0.000000
-26.451100 0.000000
-26.408300 0.000000
-26.365500 0.000000
-26.322700 0.000000
-26.279900 0.000000
-26.237100 0.000000
-26.194300 0.000000
-26.151500 0.000000
-26.108700 0.000000
-26.065900 0.000000
-26.023100 0.000000
-25.980300 0.000000
-25.937500 0.000000
-25.894700 0.000000
-25.851900 0.000000
-25.809200 0.000000
-25.766400 0.000000
-25.723600 0.000000
-25.680800 0.000000
-25.638000 0.000000
-25.595200 0.000000
-25.552400 0.000000
-25.509600 0.000000
-25.466800 0.000000
-25.424000 0.000000
-25.381200 0.000000
-25.338400 0.000000
-25.295600 0.000000
-25.252800 0.000000
-25.210000 0.000000
-25.167200 0.000000
-25.124400 0.000000
-25.081600 0.000000
-25.038800 0.000000
-24.996000 0.000000
-24.953200 0.000000
-24.910400 0.000000
-24.867600 0.000000
-24.824800 0.000000
-24.782000 0.000000
-24.739200 0.000000
-24.696400 0.000000
-24.653600 0.000000
-24.610800 0.000000
-24.568000 0.000000
-24.525200 0.000000
-24.482400 0.000000
-24.439600 0.000000
-24.396900 0.000000
-24.354100 0.000000
-24.311300 0.000000
-24.268500 0.000000
-24.225700 0.000000
-24.182900 0.000000
-24.140100 0.000000
-24.097300 0.000000
-24.054500 0.000000
-24.011700 0.000000
-23.968900 0.000000
-23.926100 0.000000
-23.883300 0.000000
-23.840500 0.000000
-23.797700 0.000000
-23.754900 0.000000
-23.712100 0.000000
-23.669300 0.000000
-23.626500 0.000000
-23.583700 0.000000
-23.540900 0.000000
-23.498100 0.000000
-23.455300 0.000000
-23.412500 0.000000
-23.369700 0.000000
-23.326900 0.000000
-23.284100 0.000000
-23.241300 0.000000
-23.198500 0.000000
-23.155700 0.000000
-23.112900 0.000000
-23.070100 0.000000
-23.027300 0.000000
-22.984600 0.000000
-22.941800 0.000000
-22.899000 0.000000
-22.856200 0.000000
-22.813400 0.000000
-22.770600 0.000000
-22.727800 0.000000
-22.685000 0.000000
-22.642200 0.000000
-22.599400 0.000000
-22.556600 0.000000
-22.513800 0.000000
-22.471000 0.000000
-22.428200 0.000000
-22.385400 0.000000
-22.342600 0.000000
-22.299800 0.000000
-22.257000 0.000000
-22.214200 0.000000
-22.171400 0.000000
-22.128600 0.000000
-22.085800 0.000000
-22.043000 0.000000
-22.000200 0.000000
-21.957400 0.000000
-21.914600 0.000000
-21.871800 0.000000
-21.829000 0.000000
-21.786200 0.000000
-21.743400 0.000000
-21.700600 0.000000
-21.657800 0.000000
-21.615000 0.000000
-21.572300 0.000000
-21.529500 0.000000
-21.486700 0.000000
-21.443900 0.000000
-21.401100 0.000000
-21.358300 0.000000
-21.315500 0.000000
-21.272700 0.000000
-21.229900 0.000000
-21.187100 0.000000
-21.144300 0.000000
-21.101500 0.000000
-21.058700 0.000000
-21.015900 0.000000
-20.973100 0.000000
-20.930300 0.000000
-20.887500 0.000000
-20.844700 0.000000
-20.801900 0.000000
-20.759100 0.000000
-20.716300 0.000000
-20.673500 0.000000
-20.630700 0.000000
-20.587900 0.000000
-20.545100 0.000000
-20.502300 0.000000
-20.459500 0.000000
-20.416700 0.000000
-20.373900 0.000000
-20.331100 0.000000
-20.288300 0.000000
-20.245500 0.000000
-20.202700 0.000000
-20.159900 0.000000
-20.117200 0.000000
-20.074400 0.000000
-20.031600 0.000000
-19.988800 0.000000
-19.946000 0.000000
-19.903200 0.000000
-19.860400 0.000000
-19.817600 0.000000
-19.774800 0.000000
-19.732000 0.000000
-19.689200 0.000000
-19.646400 0.000000
-19.603600 0.000000
-19.560800 0.000000
-19.518000 0.000000
-19.475200 0.000000
-19.432400 0.000000
-19.389600 0.000000
-19.346800 0.000000
-19.304000 0.000000
-19.261200 0.000000
-19.218400 0.000000
-19.175600 0.000000
-19.132800 0.000000
-19.090000 0.000000
-19.047200 0.000000
-19.004400 0.000000
-18.961600 0.000000
-18.918800 0.000000
-18.876000 0.000000
-18.833200 0.000000
-18.790400 0.000000
-18.747600 0.000000
-18.704900 0.000000
-18.662100 0.000000
-18.619300 0.000000
-18.576500 0.000000
-18.533700 0.000000
-18.490900 0.000000
-18.448100 0.000000
-18.405300 0.000000
-18.362500 0.000000
-18.319700 0.000000
-18.276900 0.000000
-18.234100 0.000000
-18.191300 0.000000
-18.148500 0.000000
-18.105700 0.000000
-18.062900 0.000000
-18.020100 0.000000
-17.977300 0.000000
-17.934500 0.000000
-17.891700 0.000000
-17.848900 0.000000
-17.806100 0.000000
-17.763300 0.000000
-17.720500 0.000000
-17.677700 0.000000
-17.634900 0.000000
-17.592100 0.000000
-17.549300 0.000000
-17.506500 0.000000
-17.463700 0.000000
-17.420900 0.000000
-17.378100 0.000000
-17.335300 0.000000
-17.292600 0.000000
-17.249800 0.000000
-17.207000 0.000000
-17.164200 0.000000
-17.121400 0.000000
-17.078600 0.000000
-17.035800 0.000000
-16.993000 0.000000
-16.950200 0.000000
-16.907400 0.000000
-16.864600 0.000000
-16.821800 0.000000
-16.779000 0.000000
-16.736200 0.000000
-16.693400 0.000000
-16.650600 0.000000
-16.607800 0.000000
-16.565000 0.000000
-16.522200 0.000000
-16.479400 0.000000
-16.436600 0.000000
-16.393800 0.000000
-16.351000 0.000000
-16.308200 0.000000
-16.265400 0.000000
-16.222600 0.000000
-16.179800 0.000000
-16.137000 0.000000
-16.094200 0.000000
-16.051400 0.000000
-16.008600 0.000000
-15.965800 0.000000
-15.923000 0.000000
-15.880300 0.000000
-15.837500 0.000000
-15.794700 0.000000
-15.751900 0.000000
-15.709100 0.000000
-15.666300 0.000000
-15.623500 0.000000
-15.580700 0.000000
-15.537900 0.000000
-15.495100 0.000000
-15.452300 0.000000
-15.409500 0.000000
-15.366700 0.000000
-15.323900 0.000000
-15.281100 0.000000
-15.238300 0.000000
-15.195500 0.000000
-15.152700 0.000000
-15.109900 0.000000
-15.067100 0.000000
-15.024300 0.000000
-14.981500 0.000000
-14.938700 0.000000
-14.895900 0.000000
-14.853100 0.000000
-14.810300 0.000000
-14.767500 0.000000
-14.724700 0.000000
-14.681900 0.000000
-14.639100 0.000000
-14.596300 0.000000
-14.553500 0.000000
-14.510700 0.000000
-14.468000 0.000000
-14.425200 0.000000
-14.382400 0.000000
-14.339600 0.000000
-14.296800 0.000000
-14.254000 0.000000
-14.211200 0.000000
-14.168400 0.000000
-14.125600 0.000000
-14.082800 0.000000
-14.040000 0.000000
-13.997200 0.000000
-13.954400 0.000000
-13.911600 0.000000
-13.868800 0.000000
-13.826000 0.000000
-13.783200 0.000000
-13.740400 0.000000
-13.697600 0.000000
-13.654800 0.000000
-13.612000 0.000000
-13.569200 0.000000
-13.526400 0.000000
-13.483600 0.000000
-13.440800 0.000000
-13.398000 0.000000
-13.355200 0.000000
-13.312400 0.000000
-13.269600 0.000000
-13.226800 0.000000
-13.184000 0.000000
-13.141200 0.000000
-13.098400 0.000000
-13.055600 0.000000
-13.012900 0.000000
-12.970100 0.000000
-12.927300 0.000000
-12.884500 0.000000
-12.841700 0.000000
-12.798900 0.000000
-12.756100 0.000000
-12.713300 0.000000
-12.670500 0.000000
-12.627700 0.000000
-12.584900 0.000000
-12.542100 0.000000
-12.499300 0.000000
-12.456500 0.000000
-12.413700 0.000000
-12.370900 0.000000
-12.328100 0.000000
-12.285300 0.000000
-12.242500 0.000000
-12.199700 0.000000
-12.156900 0.000000
-12.114100 0.000000
-12.071300 0.000000
-12.028500 0.000000
-11.985700 0.000000
-11.942900 0.000000
-11.900100 0.000000
-11.857300 0.000000
-11.814500 0.000000
-11.771700 0.000000
-11.728900 0.000000
-11.686100 0.000000
-11.643300 0.000000
-11.600600 0.000000
-11.557800 0.000000
-11.515000 0.000000
-11.472200 0.000000
-11.429400 0.000000
-11.386600 0.000000
-11.343800 0.000000
-11.301000 0.000000
-11.258200 0.000000
-11.215400 0.000000
-11.172600 0.000000
-11.129800 0.000000
-11.087000 0.000000
-11.044200 0.000000
-11.001400 0.000000
-10.958600 0.000000
-10.915800 0.000000
-10.873000 0.000000
-10.830200 0.000000
-10.787400 0.000000
-10.744600 0.000000
-10.701800 0.000000
-10.659000 0.000000
-10.616200 0.000000
-10.573400 0.000000
-10.530600 0.000000
-10.487800 0.000000
-10.445000 0.000000
-10.402200 0.000000
-10.359400 0.000000
-10.316600 0.000000
-10.273800 0.000000
-10.231000 0.000000
-10.188300 0.000000
-10.145500 0.000000
-10.102700 0.000000
-10.059900 0.000000
-10.017100 0.000000
-9.974300 0.000000
-9.931500 0.000000
-9.888700 0.000000
-9.845900 0.000000
-9.803100 0.000000
-9.760300 0.000000
-9.717500 0.000000
-9.674700 0.000000
-9.631900 0.000000
-9.589100 0.000000
-9.546300 0.000000
-9.503500 0.000000
-9.460700 0.000000
-9.417900 0.000000
-9.375100 0.000000
-9.332300 0.000000
-9.289500 0.000000
-9.246700 0.000000
-9.203900 0.000000
-9.161100 0.000000
-9.118300 0.000000
-9.075500 0.000000
-9.032700 0.000000
-8.989900 0.000000
-8.947100 0.000000
-8.904300 0.000000
-8.861500 0.000000
-8.818700 0.000000
-8.776000 0.000000
-8.733200 0.000000
-8.690400 0.000000
-8.647600 0.000000
-8.604800 0.000000
-8.562000 0.000000
-8.519200 0.000000
-8.476400 0.000000
-8.433600 0.000000
-8.390800 0.000000
-8.348000 0.000000
-8.305200 0.000000
-8.262400 0.000000
-8.219600 0.000000
-8.176800 0.000000
-8.134000 0.000000
-8.091200 0.000000
-8.048400 0.000000
-8.005600 0.000000
-7.962800 0.000000
-7.920000 0.000000
-7.877200 0.000000
-7.834400 0.000000
-7.791600 0.000000
-7.748800 0.000000
-7.706000 0.000000
-7.663200 0.000000
-7.620400 0.000000
-7.577600 0.000000
-7.534800 0.000000
-7.492000 0.000000
-7.449200 0.000000
-7.406400 0.000000
-7.363700 0.000000
-7.320900 0.000000
-7.278100 0.000000
-7.235300 0.000000
-7.192500 0.000000
-7.149700 0.000000
-7.106900 0.000000
-7.064100 0.000000
-7.021300 0.000000
-6.978500 0.000000
-6.935700 0.000000
-6.892900 0.000000
-6.850100 0.000000
-6.807300 0.000000
-6.764500 0.000000
-6.721700 0.000000
-6.678900 0.000000
-6.636100 0.000000
-6.593300 0.000000
-6.550500 0.000000
-6.507700 0.000000
-6.464900 0.000000
-6.422100 0.000000
-6.379300 0.000000
-6.336500 0.000000
-6.293700 0.000000
-6.250900 0.000000
-6.208100 0.000000
-6.165300 0.000000
-6.122500 0.000000
-6.079700 0.000000
-6.036900 0.000000
-5.994100 0.000000
-5.951300 0.000000
-5.908600 0.000000
-5.865800 0.000000
-5.823000 0.000000
-5.780200 0.000000
-5.737400 0.000000
-5.694600 0.000000
-5.651800 0.000000
-5.609000 0.000000
-5.566200 0.000000
-5.523400 0.000000
-5.480600 0.000000
-5.437800 0.000000
-5.395000 0.000000
-5.352200 0.000000
-5.309400 0.000000
-5.266600 0.000000
-5.223800 0.000000
-5.181000 0.000000
-5.138200 0.000000
-5.095400 0.000000
-5.052600 0.000000
-5.009800 0.000000
-4.967000 0.000000
-4.924200 0.000000
-4.881400 0.000000
-4.838600 0.000000
-4.795800 0.000000
-4.753000 0.000000
-4.710200 0.000000
-4.667400 0.000000
-4.624600 0.000000
-4.581800 0.000000
-4.539000 0.000000
-4.496300 0.000000
-4.453500 0.000000
-4.410700 0.000000
-4.367900 0.000000
-4.325100 0.000000
-4.282300 0.000000
-4.239500 0.000000
-4.196700 0.000000
-4.153900 0.000000
-4.111100 0.000000
-4.068300 0.000000
-4.025500 0.000000
-3.982700 0.000000
-3.939900 0.000000
-3.897100 0.000000
-3.854300 0.000000
-3.811500 0.000000
-3.768700 0.000000
-3.725900 0.000000
-3.683100 0.000000
-3.640300 0.000000
-3.597500 0.000000
-3.554700 0.000000
-3.511900 0.000000
-3.469100 0.000000
-3.426300 0.000000
-3.383500 0.000000
-3.340700 0.000000
-3.297900 0.000000
-3.255100 0.000000
-3.212300 0.000000
-3.169500 0.000000
-3.126700 0.000000
-3.084000 0.000000
-3.041200 0.000000
-2.998400 0.000000
-2.955600 0.000000
-2.912800 0.000000
-2.870000 0.000000
-2.827200 0.000000
-2.784400 0.000000
-2.741600 0.000000
-2.698800 0.000000
-2.656000 0.000000
-2.613200 0.000000
-2.570400 0.000000
-2.527600 0.000000
-2.484800 0.000100
-2.442000 0.012600
-2.399200 0.035700
-2.356400 0.066500
-2.313600 0.105100
-2.270800 0.153600
-2.228000 0.203400
-2.185200 0.227500
-2.142400 0.223800
-2.099600 0.226200
-2.056800 0.223200
-2.014000 0.198900
-1.971200 0.197000
-1.928400 0.202200
-1.885600 0.207500
-1.842800 0.212700
-1.800000 0.217900
-1.757200 0.223100
-1.714400 0.231000
-1.671700 0.246300
-1.628900 0.266500
-1.586100 0.287600
-1.543300 0.310000
-1.500500 0.333800
-1.457700 0.350700
-1.414900 0.347500
-1.372100 0.353900
-1.329300 0.362300
-1.286500 0.372600
-1.243700 0.384800
-1.200900 0.398600
-1.158100 0.412800
-1.115300 0.427500
-1.072500 0.442900
-1.029700 0.458900
-0.986900 0.475400
-0.944100 0.492200
-0.901300 0.507500
-0.858500 0.520900
-0.815700 0.534600
-0.772900 0.544800
-0.730100 0.542700
-0.687300 0.559600
-0.644500 0.578300
-0.601700 0.599100
-0.558900 0.622300
-0.516100 0.637100
-0.473300 0.656700
-0.430500 0.677300
-0.387700 0.698400
-0.344900 0.720000
-0.302100 0.742100
-0.259400 0.765700
-0.216600 0.791200
-0.173800 0.819300
-0.131000 0.848300
-0.088200 0.877900
-0.045400 0.909200
-0.002600 0.943100
0.040200 0.978800
0.083000 1.017300
0.125800 1.054000
0.168600 1.089200
0.211400 1.129700
0.254200 1.174900
0.297000 1.223800
0.339800 1.393800
0.382600 1.715100
0.425400 2.187800
0.468200 2.580100
0.511000 2.760200
0.553800 2.903300
0.596600 2.841300
0.639400 2.572100
0.682200 2.793100
0.725000 3.119800
0.767800 3.579400
0.810600 3.981400
0.853400 4.681100
0.896200 4.630100
0.939000 3.945400
0.981800 3.508800
1.024600 3.836700
1.067400 4.195800
1.110200 4.547300
1.153000 4.894700
1.195700 5.108000
1.238500 5.631300
1.281300 6.100800
1.324100 6.331700
1.366900 6.442300
1.409700 6.272100
1.452500 6.350400
1.495300 6.535600
1.538100 6.931900
1.580900 6.678100
1.623700 5.542400
1.666500 5.784700
1.709300 6.366700
1.752100 6.930600
1.794900 6.664300
1.837700 7.069600
1.880500 7.012600
1.923300 6.920700
1.966100 6.640100
2.008900 7.534000
2.051700 6.150200
2.094500 5.813600
2.137300 5.961900
2.180100 6.030900
2.222900 5.889700
2.265700 5.373100
2.308500 5.588600
2.351300 4.883200
2.394100 4.367800
2.436900 4.432400
2.479700 4.409400
2.522500 5.812200
2.565300 5.830900
2.608000 4.922500
2.650800 4.006200
2.693600 4.039900
2.736400 5.089800
2.779200 5.842700
2.822000 8.793000
2.864800 7.503000
2.907600 6.443600
2.950400 5.913000
2.993200 6.418800
3.036000 6.804800
3.078800 6.175200
3.121600 5.506600
3.164400 6.122900
3.207200 6.204900
3.250000 6.330200
3.292800 6.590700
3.335600 7.112300
3.378400 7.541200
3.421200 7.172500
3.464000 8.221900
3.506800 8.612200
3.549600 7.938700
3.592400 7.266300
3.635200 7.116500
3.678000 7.377100
3.720800 8.086900
3.763600 7.974700
3.806400 8.109800
3.849200 8.850300
3.892000 9.698800
3.934800 9.242600
3.977600 9.375200
4.020300 8.766500
4.063100 8.436400
4.105900 7.516600
4.148700 7.485900
4.191500 8.772500
4.234300 12.626400
4.277100 11.468000
4.319900 10.036400
4.362700 7.515000
4.405500 8.191500
4.448300 9.155700
4.491100 8.606600
4.533900 7.850400
4.576700 7.982800
4.619500 8.581400
4.662300 7.826500
4.705100 9.007100
4.747900 9.475300
4.790700 7.488900
4.833500 6.791800
4.876300 6.874900
4.919100 7.312900
4.961900 8.360000
5.004700 7.201200
5.047500 6.623300
5.090300 5.791500
5.133100 5.296200
5.175900 5.660000
5.218700 5.471900
5.261500 6.151500
5.304300 7.445700
5.347100 4.901300
5.389900 4.501100
5.432600 4.528800
5.475400 4.832500
5.518200 5.938800
5.561000 9.086700
5.603800 6.019700
5.646600 5.718400
5.689400 5.885700
5.732200 7.693800
5.775000 8.348500
5.817800 7.498500
5.860600 6.729200
5.903400 6.465900
5.946200 6.346700
5.989000 6.640700
6.031800 7.816600
6.074600 5.755100
6.117400 5.855800
6.160200 6.036300
6.203000 5.667400
6.245800 5.092200
6.288600 5.008100
6.331400 4.979500
6.374200 5.184000
6.417000 5.933700
6.459800 6.262400
6.502600 5.631200
6.545400 6.023600
6.588200 6.724400
6.631000 6.716900
6.673800 6.189000
6.716600 5.964200
6.759400 6.025200
6.802200 5.987100
6.845000 5.816700
6.887700 5.740400
6.930500 5.669800
6.973300 5.715900
7.016100 5.801600
7.058900 5.878200
7.101700 5.793500
7.144500 5.736900
7.187300 6.533300
7.230100 6.551100
7.272900 6.164800
7.315700 6.352400
7.358500 6.517100
7.401300 6.465100
7.444100 6.559200
7.486900 6.178600
7.529700 5.995600
7.572500 6.208000
7.615300 6.820600
7.658100 8.020800
7.700900 6.993000
7.743700 7.291300
7.786500 6.437300
7.829300 5.642100
7.872100 4.885600
7.914900 4.986600
7.957700 6.089800
8.000500 4.897600
8.043300 5.313400
8.086100 4.159300
8.128900 3.657000
8.171700 3.162000
8.214500 3.187900
8.257300 3.544300
8.300000 3.624500
8.342800 3.709100
8.385600 3.793400
8.428400 4.824400
8.471200 4.991200
8.514000 5.550400
8.556800 6.332400
8.599600 6.628900
8.642400 2.958500
8.685200 2.568400
8.728000 2.395100
8.770800 2.129800
8.813600 1.907700
8.856400 1.771200
8.899200 1.737300
8.942000 1.724600
8.984800 1.728900
9.027600 1.749900
9.070400 1.802800
9.113200 1.788900
9.156000 1.769500
9.198800 1.752100
9.241600 1.737000
9.284400 1.722600
9.327200 1.708700
9.370000 1.694000
9.412800 1.683700
9.455600 1.673300
9.498400 1.665500
9.541200 1.667200
9.584000 1.670300
9.626800 1.818000
9.669600 1.840600
9.712300 1.834300
9.755100 1.812000
9.797900 1.778500
9.840700 1.746300
9.883500 1.717100
9.926300 1.691000
9.969100 1.669400
10.011900 1.649700
10.054700 1.633100
10.097500 1.621100
10.140300 1.611400
10.183100 1.604500
10.225900 1.599300
10.268700 1.595100
10.311500 1.543600
10.354300 1.504700
10.397100 1.486100
10.439900 1.476900
10.482700 1.468700
10.525500 1.460800
10.568300 1.455700
10.611100 1.458400
10.653900 1.839200
10.696700 1.517200
10.739500 1.463700
10.782300 1.418100
10.825100 1.398000
10.867900 1.380200
10.910700 1.369200
10.953500 1.360600
10.996300 1.355200
11.039100 1.351100
11.081900 1.346400
11.124600 1.342200
11.167400 1.339600
11.210200 1.339200
11.253000 1.343600
11.295800 1.355100
11.338600 1.373600
11.381400 1.369400
11.424200 1.362100
11.467000 1.352300
11.509800 1.301400
11.552600 1.282000
11.595400 1.267200
11.638200 1.264600
11.681000 1.273000
11.723800 1.444400
11.766600 1.322400
11.809400 1.232100
11.852200 1.210500
11.895000 1.212600
11.937800 1.301800
11.980600 1.372800
12.023400 1.251000
12.066200 1.184100
12.109000 1.188400
12.151800 1.204800
12.194600 1.204100
12.237400 1.216400
12.280200 1.281200
12.323000 1.327900
12.365800 1.424800
12.408600 1.427000
12.451400 1.273400
12.494200 1.082500
12.536900 1.027800
12.579700 1.035400
12.622500 1.055900
12.665300 1.061500
12.708100 1.030600
12.750900 0.986400
12.793700 0.986800
12.836500 0.991700
12.879300 1.006000
12.922100 1.016700
12.964900 1.033700
13.007700 1.082700
13.050500 1.121100
13.093300 1.142500
13.136100 1.161500
13.178900 1.220000
13.221700 1.299700
13.264500 1.343500
13.307300 1.450500
13.350100 1.519000
13.392900 1.924300
13.435700 2.370700
13.478500 2.289300
13.521300 2.123000
13.564100 2.002400
13.606900 1.903000
13.649700 1.847300
13.692500 1.849200
13.735300 1.824500
13.778100 1.744300
13.820900 1.618100
13.863700 1.494400
13.906500 1.335600
13.949300 1.276300
13.992000 1.213700
14.034800 1.183000
14.077600 1.170900
14.120400 1.165000
14.163200 1.171300
14.206000 1.212900
14.248800 1.384500
14.291600 1.464200
14.334400 1.527300
14.377200 1.587200
14.420000 1.614100
14.462800 1.729000
14.505600 1.868200
14.548400 1.760200
14.591200 1.790700
14.634000 1.799500
14.676800 1.790300
14.719600 1.822600
14.762400 1.801700
14.805200 1.743700
14.848000 1.655300
14.890800 1.642300
14.933600 1.613900
14.976400 1.485200
15.019200 1.323600
15.062000 1.363600
15.104800 1.302600
15.147600 1.278600
15.190400 1.305500
15.233200 1.390100
15.276000 1.586800
15.318800 1.640800
15.361600 1.654600
15.404300 1.709800
15.447100 1.951700
15.489900 1.821300
15.532700 1.736200
15.575500 1.627300
15.618300 1.547000
15.661100 1.481800
15.703900 1.452600
15.746700 1.433400
15.789500 1.421200
15.832300 1.427900
15.875100 1.444500
15.917900 1.461400
15.960700 1.485500
16.003500 1.512100
16.046300 1.566000
16.089100 1.693100
16.131900 1.711600
16.174700 1.589800
16.217500 1.576400
16.260300 1.499200
16.303100 1.374400
16.345900 1.377800
16.388700 1.491400
16.431500 1.379000
16.474300 1.358500
16.517100 1.338000
16.559900 1.320600
16.602700 1.306000
16.645500 1.295800
16.688300 1.294100
16.731100 1.300900
16.773900 1.313300
16.816600 1.352700
16.859400 1.423000
16.902200 1.582200
16.945000 1.731800
16.987800 1.777000
17.030600 1.782600
17.073400 1.781300
17.116200 1.762000
17.159000 1.742600
17.201800 1.767200
17.244600 1.714400
17.287400 1.697400
17.330200 1.680600
17.373000 1.662300
17.415800 1.669400
17.458600 1.689500
17.501400 1.702900
17.544200 1.709600
17.587000 1.707500
17.629800 1.710800
17.672600 1.707900
17.715400 1.858200
17.758200 1.887200
17.801000 1.744600
17.843800 1.710800
17.886600 1.680800
17.929400 1.651200
17.972200 1.639600
18.015000 1.556100
18.057800 1.498800
18.100600 1.468800
18.143400 1.463400
18.186200 1.464600
18.228900 1.657400
18.271700 1.622000
18.314500 1.604200
18.357300 1.597200
18.400100 1.599700
18.442900 1.607300
18.485700 1.618200
18.528500 1.641700
18.571300 1.739500
18.614100 1.802300
18.656900 1.830000
18.699700 1.855700
18.742500 1.893200
18.785300 1.941900
18.828100 2.050500
18.870900 2.827500
18.913700 2.195400
18.956500 2.103900
18.999300 2.024800
19.042100 1.958200
19.084900 1.872300
19.127700 1.785500
19.170500 1.729500
19.213300 1.752100
19.256100 1.787000
19.298900 1.913600
19.341700 2.057900
19.384500 2.186900
19.427300 2.320700
19.470100 2.398700
19.512900 2.265600
19.555700 2.145900
19.598500 2.079800
19.641200 2.033400
19.684000 2.014700
19.726800 2.038600
19.769600 2.242200
19.812400 2.214900
19.855200 2.246100
19.898000 2.315800
19.940800 2.374900
19.983600 2.529600
20.026400 2.462700
20.069200 2.485700
20.112000 2.509500
20.154800 2.475900
20.197600 2.393000
20.240400 2.325100
20.283200 2.305600
20.326000 2.266300
20.368800 2.122900
20.411600 2.093800
20.454400 2.065000
20.497200 2.049800
20.540000 2.073700
20.582800 2.112000
20.625600 2.140600
20.668400 2.161400
20.711200 2.189000
20.754000 2.206600
20.796800 2.237300
20.839600 2.254000
20.882400 2.254300
20.925200 2.260900
20.968000 2.272100
21.010800 2.286700
21.053600 2.294800
21.096300 2.290800
21.139100 2.274900
21.181900 2.274200
21.224700 2.303000
21.267500 2.415200
21.310300 2.628400
21.353100 2.861700
21.395900 2.800500
21.438700 2.750200
21.481500 2.674500
21.524300 2.695300
21.567100 2.738300
21.609900 2.794500
21.652700 2.721700
21.695500 2.708600
21.738300 2.682000
21.781100 2.610300
21.823900 2.536200
21.866700 2.474100
21.909500 2.417600
21.952300 2.392800
21.995100 2.384500
22.037900 2.403400
22.080700 2.426700
22.123500 2.463700
22.166300 2.486700
22.209100 2.502800
22.251900 2.603700
22.294700 2.752000
22.337500 2.886500
22.380300 3.017300
22.423100 3.188900
22.465900 3.068200
22.508600 3.066100
22.551400 3.120000
22.594200 3.203500
22.637000 3.186800
22.679800 3.141900
22.722600 3.122900
22.765400 3.181400
22.808200 3.393800
22.851000 3.634300
22.893800 3.937900
22.936600 4.156000
22.979400 4.144700
23.022200 3.898600
23.065000 3.575000
23.107800 3.341800
23.150600 3.470700
23.193400 3.624000
23.236200 3.680500
23.279000 3.616700
23.321800 3.609900
23.364600 3.610700
23.407400 3.701700
23.450200 3.661100
23.493000 3.673100
23.535800 3.591000
23.578600 3.656100
23.621400 3.499900
23.664200 3.366200
23.707000 3.286900
23.749800 3.059500
23.792600 2.953300
23.835400 2.927400
23.878200 2.935100
23.920900 2.972600
23.963700 3.059600
24.006500 3.242700
24.049300 3.011400
24.092100 3.036900
24.134900 3.381400
24.177700 3.164400
24.220500 3.156300
24.263300 3.129100
24.306100 3.121900
24.348900 3.145200
24.391700 3.234900
24.434500 3.327600
24.477300 3.311200
24.520100 3.374800
24.562900 3.274800
24.605700 3.228300
24.648500 3.124600
24.691300 3.031100
24.734100 3.119100
24.776900 3.279100
24.819700 3.961200
24.862500 3.905900
24.905300 3.839400
24.948100 3.447500
24.990900 3.147100
25.033700 2.946100
25.076500 2.708800
25.119300 2.577000
25.162100 2.514100
25.204900 2.491200
25.247700 2.492300
25.290500 2.530100
25.333200 2.567900
25.376000 2.579700
25.418800 2.554000
25.461600 2.500300
25.504400 2.425400
25.547200 2.274700
25.590000 2.058200
25.632800 1.950700
25.675600 1.892400
25.718400 1.784100
25.761200 1.652400
25.804000 1.586600
25.846800 1.606400
25.889600 1.660700
25.932400 1.691800
25.975200 1.730200
26.018000 1.737500
26.060800 1.741600
26.103600 1.756200
26.146400 1.774700
26.189200 1.794500
26.232000 1.794700
26.274800 1.818900
26.317600 1.844300
26.360400 1.908900
26.403200 1.984700
26.446000 2.065400
26.488800 2.145000
26.531600 2.204000
26.574400 2.228200
26.617200 2.279400
26.660000 2.350600
26.702800 2.430700
26.745600 2.491400
26.788300 2.576000
26.831100 2.863100
26.873900 3.012300
26.916700 3.058400
26.959500 2.785000
27.002300 2.462000
27.045100 2.409700
27.087900 2.396000
27.130700 2.547300
27.173500 2.574000
27.216300 2.620300
27.259100 2.822800
27.301900 3.387200
27.344700 3.461000
27.387500 3.840600
27.430300 4.016800
27.473100 3.854400
27.515900 3.716500
27.558700 3.708200
27.601500 3.702200
27.644300 3.776700
27.687100 4.101800
27.729900 4.450700
27.772700 4.206600
27.815500 3.921900
27.858300 4.057200
27.901100 3.985900
27.943900 4.123600
27.986700 4.009500
28.029500 3.971900
28.072300 3.977600
28.115100 3.933100
28.157900 4.006500
28.200600 4.043300
28.243400 4.013800
28.286200 3.795800
28.329000 3.580200
28.371800 3.444500
28.414600 3.460200
28.457400 3.471700
28.500200 3.401800
28.543000 3.362600
28.585800 3.254600
28.628600 3.188800
28.671400 3.226400
28.714200 3.369700
28.757000 3.431700
28.799800 3.245900
28.842600 3.088400
28.885400 3.072500
28.928200 3.015300
28.971000 2.925300
29.013800 2.753800
29.056600 2.663500
29.099400 2.632600
29.142200 2.630700
29.185000 2.649500
29.227800 2.679300
29.270600 2.605500
29.313400 2.576900
29.356200 2.554800
29.399000 2.548700
29.441800 2.621200
29.484600 2.638900
29.527400 2.627600
29.570200 2.610400
29.612900 2.513000
29.655700 2.458300
29.698500 2.564600
29.741300 2.624400
29.784100 2.706600
29.826900 2.609500
29.869700 2.429100
29.912500 2.257600
29.955300 2.151000
29.998100 2.073100
30.040900 1.975900
30.083700 1.916400
30.126500 1.907200
30.169300 1.883800
30.212100 1.850800
30.254900 1.793900
30.297700 1.763500
30.340500 1.741700
30.383300 1.713600
30.426100 1.709400
30.468900 1.716300
30.511700 1.719400
30.554500 1.717500
30.597300 1.732700
30.640100 1.667400
30.682900 1.655800
30.725700 1.560800
30.768500 1.483400
30.811300 1.468000
30.854100 1.543900
30.896900 1.529600
30.939700 1.506400
30.982500 1.523800
31.025200 1.526100
31.068000 1.489500
31.110800 1.523700
31.153600 1.500500
31.196400 1.479500
31.239200 1.485100
31.282000 1.507900
31.324800 1.536300
31.367600 1.566300
31.410400 1.581200
31.453200 1.558400
31.496000 1.595600
31.538800 1.673400
31.581600 1.824400
31.624400 1.988300
31.667200 2.099700
31.710000 2.128500
31.752800 2.240600
31.795600 2.351800
31.838400 2.444200
31.881200 2.560800
31.924000 2.574000
31.966800 2.612200
32.009600 2.661500
32.052400 2.717400
32.095200 2.803300
32.138000 3.048000
32.180800 3.509200
32.223600 3.540900
32.266400 3.345400
32.309200 3.098800
32.352000 2.739600
32.394800 2.637100
32.437500 2.590600
32.480300 2.600600
32.523100 2.668800
32.565900 2.701000
32.608700 2.731600
32.651500 2.771500
32.694300 2.808800
32.737100 2.722700
32.779900 2.724600
32.822700 2.717000
32.865500 2.866100
32.908300 2.648700
32.951100 2.529600
32.993900 2.439200
33.036700 2.379900
33.079500 2.331400
33.122300 2.265400
33.165100 2.229500
33.207900 2.261200
33.250700 2.347000
33.293500 2.358600
33.336300 2.397500
33.379100 2.518000
33.421900 2.616300
33.464700 2.696400
33.507500 2.811900
33.550300 2.911300
33.593100 2.991200
33.635900 2.902200
33.678700 2.718700
33.721500 2.608400
33.764300 2.479800
33.807100 2.421400
33.849900 2.436100
33.892600 2.530100
33.935400 3.260900
33.978200 2.361400
34.021000 2.451700
34.063800 2.597000
34.106600 2.729400
34.149400 2.897700
34.192200 2.867900
34.235000 2.894100
34.277800 2.836000
34.320600 2.758100
34.363400 2.783800
34.406200 2.923000
34.449000 3.087500
34.491800 3.277300
34.534600 3.137700
34.577400 3.139100
34.620200 3.119000
34.663000 3.200300
34.705800 3.322700
34.748600 3.343400
34.791400 3.091100
34.834200 2.919400
34.877000 2.957000
34.919800 3.249900
34.962600 3.509000
35.005400 3.752100
35.048200 4.355700
35.091000 4.748600
35.133800 4.766300
35.176600 4.675900
35.219400 4.625400
35.262200 4.656000
35.304900 4.055100
35.347700 3.702200
35.390500 3.670600
35.433300 3.726300
35.476100 4.019200
35.518900 4.318300
35.561700 4.516400
35.604500 4.561000
35.647300 4.847000
35.690100 4.823800
35.732900 4.796500
35.775700 4.950400
35.818500 5.112000
35.861300 4.960400
35.904100 4.844800
35.946900 5.000300
35.989700 5.385400
36.032500 5.319500
36.075300 5.486000
36.118100 5.159600
36.160900 4.921500
36.203700 4.745400
36.246500 4.649300
36.289300 4.696200
36.332100 4.901500
36.374900 5.096300
36.417700 4.754600
36.460500 4.381800
36.503300 4.093400
36.546100 4.005800
36.588900 3.921300
36.631700 3.884400
36.674500 3.851300
36.717200 3.393600
36.760000 3.016900
36.802800 2.836700
36.845600 2.823600
36.888400 2.760800
36.931200 2.602700
36.974000 2.472800
37.016800 2.460900
37.059600 2.631800
37.102400 2.670900
37.145200 2.312000
37.188000 2.247700
37.230800 2.304500
37.273600 2.276900
37.316400 2.215000
37.359200 2.118200
37.402000 2.108200
37.444800 1.726700
37.487600 1.608900
37.530400 1.524700
37.573200 1.391300
37.616000 1.405300
37.658800 1.226900
37.701600 1.095400
37.744400 1.042600
37.787200 0.987700
37.830000 0.928500
37.872800 0.875600
37.915600 0.820700
37.958400 0.783700
38.001200 0.752500
38.044000 0.716900
38.086800 0.682000
38.129500 0.648900
38.172300 0.603200
38.215100 0.546400
38.257900 0.503400
38.300700 0.472600
38.343500 0.467000
38.386300 0.440300
38.429100 0.392300
38.471900 0.327700
38.514700 0.300500
38.557500 0.283000
38.600300 0.264800
38.643100 0.244700
38.685900 0.222500
38.728700 0.198200
38.771500 0.174100
38.814300 0.151100
38.857100 0.128300
38.899900 0.105100
38.942700 0.081700
38.985500 0.059100
39.028300 0.041500
39.071100 0.022300
39.113900 0.007400
39.156700 0.000300
39.199500 0.000000
39.242300 0.000000
39.285100 0.000000
39.327900 0.000000
39.370700 0.000000
39.413500 0.000000
39.456300 0.000000
39.499100 0.000000
39.541800 0.000000
39.584600 0.000000
39.627400 0.000000
39.670200 0.000000
39.713000 0.000000
39.755800 0.000000
39.798600 0.000000
39.841400 0.000000
39.884200 0.000000
39.927000 0.000000
39.969800 0.000000
40.012600 0.000000
40.055400 0.000000
40.098200 0.000000
40.141000 0.000000
40.183800 0.000000
40.226600 0.000000
40.269400 0.000000
40.312200 0.000000
40.355000 0.000000
40.397800 0.000000
40.440600 0.000000
40.483400 0.000000
40.526200 0.000000
40.569000 0.000000
40.611800 0.000000
40.654600 0.000000
40.697400 0.000000
40.740200 0.000000
40.783000 0.000000
40.825800 0.000000
40.868600 0.000000
40.911400 0.000000
40.954200 0.000000
40.996900 0.000000
41.039700 0.000000
41.082500 0.000000
41.125300 0.000000
41.168100 0.000000
41.210900 0.000000
41.253700 0.000000
41.296500 0.000000
41.339300 0.000000
41.382100 0.000000
41.424900 0.000000
41.467700 0.000000
41.510500 0.000000
41.553300 0.000000
41.596100 0.000000
41.638900 0.000000
41.681700 0.000000
41.724500 0.000000
41.767300 0.000000
41.810100 0.000000
41.852900 0.000000
41.895700 0.000000
41.938500 0.000000
41.981300 0.000000
42.024100 0.000000
42.066900 0.000000
42.109700 0.000000
42.152500 0.000000
42.195300 0.000000
42.238100 0.000000
42.280900 0.000000
42.323700 0.000000
42.366500 0.000000
42.409200 0.000000
42.452000 0.000000
42.494800 0.000000
42.537600 0.000000
42.580400 0.000000
42.623200 0.000000
42.666000 0.000000
42.708800 0.000000
42.751600 0.000000
42.794400 0.000000
42.837200 0.000000
42.880000 0.000000
42.922800 0.000000
42.965600 0.000000
43.008400 0.000000
43.051200 0.000000
e
