set title 'mp-29727 - Density of States'
set xlabel 'Energy (eV)'
set ylabel 'DOS (states/eV)'
set grid
set xrange [-10:10]
set yrange [0:9.243]
set xzeroaxis lt -1
set terminal png size 800,600
set output 'mp-29727_dos_gnuplot.png'
plot '-' using 1:2 with lines title 'DOS'
-32.897800 0.000000
-32.859400 0.000000
-32.821000 0.000000
-32.782600 0.000000
-32.744200 0.000000
-32.705800 0.000000
-32.667400 0.000000
-32.629000 0.000000
-32.590600 0.000000
-32.552200 0.000000
-32.513800 0.000000
-32.475400 0.000000
-32.437000 0.000000
-32.398600 0.000000
-32.360200 0.000000
-32.321800 0.000000
-32.283400 0.000000
-32.245000 0.000000
-32.206600 0.000000
-32.168200 0.000000
-32.129800 0.000000
-32.091400 0.000000
-32.053000 0.000000
-32.014600 0.000000
-31.976200 0.000000
-31.937800 0.000000
-31.899400 0.000000
-31.861000 0.000000
-31.822600 0.000000
-31.784200 0.000000
-31.745800 0.000000
-31.707400 0.000000
-31.669000 0.000000
-31.630600 0.000000
-31.592200 0.000000
-31.553800 0.000000
-31.515400 0.000000
-31.477000 0.000000
-31.438600 0.000000
-31.400200 0.000000
-31.361800 0.000000
-31.323400 0.000000
-31.285000 0.000000
-31.246600 0.000000
-31.208200 0.000000
-31.169800 0.000000
-31.131400 0.000000
-31.093000 0.000000
-31.054600 0.000000
-31.016200 0.000000
-30.977800 0.000000
-30.939400 0.000000
-30.901000 0.000000
-30.862600 0.000000
-30.824200 0.000000
-30.785800 0.000000
-30.747400 0.000000
-30.709000 0.000000
-30.670600 0.000000
-30.632200 0.000000
-30.593800 0.000000
-30.555400 0.000000
-30.517000 0.000000
-30.478600 0.000000
-30.440200 0.000000
-30.401800 0.000000
-30.363400 0.000000
-30.325000 0.000000
-30.286600 0.000000
-30.248200 0.000000
-30.209800 0.000000
-30.171400 0.000000
-30.133000 0.000000
-30.094600 0.000000
-30.056200 0.000000
-30.017800 0.000000
-29.979400 0.000000
-29.941000 0.000000
-29.902600 0.000000
-29.864200 0.000000
-29.825800 0.000000
-29.787300 0.000000
-29.748900 0.000000
-29.710500 0.000000
-29.672100 0.000000
-29.633700 0.000000
-29.595300 0.000000
-29.556900 0.000000
-29.518500 0.000000
-29.480100 0.000000
-29.441700 0.000000
-29.403300 3.982600
-29.364900 7.572700
-29.326500 9.603500
-29.288100 21.522500
-29.249700 8.563600
-29.211300 7.637500
-29.172900 8.499200
-29.134500 12.913400
-29.096100 9.515300
-29.057700 19.260900
-29.019300 13.522000
-28.980900 0.000000
-28.942500 0.000000
-28.904100 0.000000
-28.865700 0.000000
-28.827300 0.000000
-28.788900 0.000000
-28.750500 0.000000
-28.712100 0.000000
-28.673700 8.305200
-28.635300 35.030800
-28.596900 12.688400
-28.558500 0.000000
-28.520100 0.000000
-28.481700 0.000000
-28.443300 0.000000
-28.404900 0.000000
-28.366500 0.000000
-28.328100 0.000000
-28.289700 0.000000
-28.251300 0.000000
-28.212900 0.000000
-28.174500 12.862400
-28.136100 19.143500
-28.097700 13.448300
-28.059300 11.017800
-28.020900 16.959400
-27.982500 30.987300
-27.944100 11.303700
-27.905700 14.918100
-27.867300 37.441500
-27.828900 24.681200
-27.790500 20.537200
-27.752100 17.491400
-27.713700 16.781800
-27.675300 18.896200
-27.636900 22.201300
-27.598500 0.000000
-27.560100 0.000000
-27.521700 0.000000
-27.483300 0.000000
-27.444900 0.000000
-27.406500 0.000000
-27.368100 0.000000
-27.329700 0.000000
-27.291300 0.000000
-27.252900 0.000000
-27.214500 0.000000
-27.176100 0.000000
-27.137700 0.000000
-27.099300 2.462800
-27.060900 3.615800
-27.022500 7.650500
-26.984100 13.425100
-26.945700 13.446800
-26.907300 36.834800
-26.868900 42.574600
-26.830500 19.813000
-26.792100 14.477100
-26.753700 0.000000
-26.715300 0.000000
-26.676800 0.000000
-26.638400 0.000000
-26.600000 0.000000
-26.561600 0.000000
-26.523200 0.000000
-26.484800 0.000000
-26.446400 0.000000
-26.408000 0.000000
-26.369600 0.000000
-26.331200 0.000000
-26.292800 0.000000
-26.254400 0.000000
-26.216000 0.000000
-26.177600 0.000000
-26.139200 0.000000
-26.100800 0.000000
-26.062400 0.000000
-26.024000 0.000000
-25.985600 0.000000
-25.947200 0.000000
-25.908800 0.000000
-25.870400 0.000000
-25.832000 0.000000
-25.793600 0.000000
-25.755200 0.000000
-25.716800 0.000000
-25.678400 0.000000
-25.640000 0.000000
-25.601600 0.000000
-25.563200 0.000000
-25.524800 0.000000
-25.486400 0.000000
-25.448000 0.000000
-25.409600 0.000000
-25.371200 0.000000
-25.332800 0.000000
-25.294400 0.000000
-25.256000 0.000000
-25.217600 0.000000
-25.179200 0.000000
-25.140800 0.000000
-25.102400 0.000000
-25.064000 0.000000
-25.025600 0.000000
-24.987200 0.000000
-24.948800 0.000000
-24.910400 0.000000
-24.872000 0.000000
-24.833600 0.000000
-24.795200 0.000000
-24.756800 0.000000
-24.718400 0.000000
-24.680000 0.000000
-24.641600 0.000000
-24.603200 0.000000
-24.564800 0.000000
-24.526400 0.000000
-24.488000 0.000000
-24.449600 0.000000
-24.411200 0.000000
-24.372800 0.000000
-24.334400 0.000000
-24.296000 0.000000
-24.257600 0.000000
-24.219200 0.000000
-24.180800 0.000000
-24.142400 0.000000
-24.104000 0.000000
-24.065600 0.000000
-24.027200 0.000000
-23.988800 0.000000
-23.950400 0.000000
-23.912000 0.000000
-23.873600 0.000000
-23.835200 0.000000
-23.796800 0.000000
-23.758400 0.000000
-23.720000 0.000000
-23.681600 0.000000
-23.643200 0.000000
-23.604700 0.000000
-23.566300 0.000000
-23.527900 0.000000
-23.489500 0.000000
-23.451100 0.000000
-23.412700 0.000000
-23.374300 0.000000
-23.335900 0.000000
-23.297500 0.000000
-23.259100 0.000000
-23.220700 0.000000
-23.182300 0.000000
-23.143900 0.000000
-23.105500 0.000000
-23.067100 0.000000
-23.028700 0.000000
-22.990300 0.000000
-22.951900 0.000000
-22.913500 0.000000
-22.875100 0.000000
-22.836700 0.000000
-22.798300 0.000000
-22.759900 0.000000
-22.721500 0.000000
-22.683100 0.000000
-22.644700 0.000000
-22.606300 0.000000
-22.567900 0.000000
-22.529500 0.000000
-22.491100 0.000000
-22.452700 0.000000
-22.414300 0.000000
-22.375900 0.000000
-22.337500 0.000000
-22.299100 0.000000
-22.260700 0.000000
-22.222300 0.000000
-22.183900 0.000000
-22.145500 0.000000
-22.107100 0.000000
-22.068700 0.000000
-22.030300 0.000000
-21.991900 0.000000
-21.953500 0.000000
-21.915100 0.000000
-21.876700 0.000000
-21.838300 0.000000
-21.799900 0.000000
-21.761500 0.000000
-21.723100 0.000000
-21.684700 0.000000
-21.646300 0.000000
-21.607900 0.000000
-21.569500 0.000000
-21.531100 0.000000
-21.492700 0.000000
-21.454300 0.000000
-21.415900 0.000000
-21.377500 0.000000
-21.339100 0.000000
-21.300700 0.000000
-21.262300 0.000000
-21.223900 0.000000
-21.185500 0.000000
-21.147100 0.000000
-21.108700 0.000000
-21.070300 0.000000
-21.031900 0.000000
-20.993500 0.000000
-20.955100 0.000000
-20.916700 0.000000
-20.878300 0.000000
-20.839900 0.000000
-20.801500 0.000000
-20.763100 0.000000
-20.724700 0.000000
-20.686300 0.000000
-20.647900 0.000000
-20.609500 0.000000
-20.571100 0.000000
-20.532700 0.000000
-20.494200 0.000000
-20.455800 0.000000
-20.417400 0.000000
-20.379000 0.000000
-20.340600 0.000000
-20.302200 0.000000
-20.263800 0.000000
-20.225400 0.000000
-20.187000 0.000000
-20.148600 0.000000
-20.110200 0.000000
-20.071800 0.000000
-20.033400 0.000000
-19.995000 0.000000
-19.956600 0.000000
-19.918200 0.000000
-19.879800 0.000000
-19.841400 0.000000
-19.803000 0.000000
-19.764600 0.000000
-19.726200 0.000000
-19.687800 0.000000
-19.649400 0.000000
-19.611000 0.000000
-19.572600 0.000000
-19.534200 0.000000
-19.495800 0.000000
-19.457400 0.000000
-19.419000 0.000000
-19.380600 0.000000
-19.342200 0.000000
-19.303800 0.000000
-19.265400 0.000000
-19.227000 0.000000
-19.188600 0.000000
-19.150200 0.000000
-19.111800 0.000000
-19.073400 0.000000
-19.035000 0.000000
-18.996600 0.000000
-18.958200 0.000000
-18.919800 0.000000
-18.881400 0.000000
-18.843000 0.000000
-18.804600 0.000000
-18.766200 0.000000
-18.727800 0.000000
-18.689400 0.000000
-18.651000 0.000000
-18.612600 0.000000
-18.574200 0.000000
-18.535800 0.000000
-18.497400 0.000000
-18.459000 0.000000
-18.420600 0.000000
-18.382200 0.000000
-18.343800 0.000000
-18.305400 0.000000
-18.267000 0.000000
-18.228600 0.000000
-18.190200 0.000000
-18.151800 0.000000
-18.113400 0.000000
-18.075000 0.000000
-18.036600 0.000000
-17.998200 0.000000
-17.959800 0.000000
-17.921400 0.000000
-17.883000 0.000000
-17.844600 0.000000
-17.806200 0.000000
-17.767800 0.000000
-17.729400 0.000000
-17.691000 0.000000
-17.652600 0.000000
-17.614200 0.000000
-17.575800 0.000000
-17.537400 0.000000
-17.499000 0.000000
-17.460600 0.000000
-17.422200 0.000000
-17.383700 0.000000
-17.345300 0.000000
-17.306900 0.000000
-17.268500 0.000000
-17.230100 0.000000
-17.191700 0.000000
-17.153300 0.000000
-17.114900 0.000000
-17.076500 0.000000
-17.038100 0.000000
-16.999700 0.000000
-16.961300 0.000000
-16.922900 0.000000
-16.884500 0.000000
-16.846100 0.000000
-16.807700 0.000000
-16.769300 0.000000
-16.730900 0.000000
-16.692500 0.000000
-16.654100 0.000000
-16.615700 0.000000
-16.577300 0.000000
-16.538900 0.000000
-16.500500 0.000000
-16.462100 0.000000
-16.423700 0.000000
-16.385300 0.000000
-16.346900 0.000000
-16.308500 0.000000
-16.270100 0.000000
-16.231700 0.000000
-16.193300 0.000000
-16.154900 0.000000
-16.116500 0.000000
-16.078100 0.000000
-16.039700 0.000000
-16.001300 0.000000
-15.962900 0.000000
-15.924500 0.000000
-15.886100 0.000000
-15.847700 0.000000
-15.809300 0.000000
-15.770900 0.000000
-15.732500 0.287700
-15.694100 1.091800
-15.655700 1.162900
-15.617300 1.216300
-15.578900 1.294900
-15.540500 1.445800
-15.502100 2.617500
-15.463700 3.704500
-15.425300 4.046300
-15.386900 5.060000
-15.348500 8.535900
-15.310100 5.577800
-15.271700 4.361300
-15.233300 3.751500
-15.194900 3.023600
-15.156500 3.043900
-15.118100 2.227100
-15.079700 0.000000
-15.041300 0.000000
-15.002900 0.000000
-14.964500 0.000000
-14.926100 0.000000
-14.887700 0.000000
-14.849300 0.000000
-14.810900 0.000000
-14.772500 0.000000
-14.734100 0.000000
-14.695700 0.000000
-14.657300 0.000000
-14.618900 0.000000
-14.580500 0.000000
-14.542100 0.000000
-14.503700 0.000000
-14.465300 0.000000
-14.426900 0.000000
-14.388500 0.000000
-14.350100 0.000000
-14.311600 0.000000
-14.273200 0.000000
-14.234800 0.000000
-14.196400 0.000000
-14.158000 0.000000
-14.119600 0.000000
-14.081200 0.000000
-14.042800 0.000000
-14.004400 0.000000
-13.966000 0.000000
-13.927600 0.000000
-13.889200 0.000000
-13.850800 0.000000
-13.812400 0.000000
-13.774000 0.000000
-13.735600 0.000000
-13.697200 0.000000
-13.658800 0.000000
-13.620400 0.000000
-13.582000 0.000000
-13.543600 0.000000
-13.505200 0.000000
-13.466800 0.000000
-13.428400 0.000000
-13.390000 0.000000
-13.351600 0.000000
-13.313200 0.000000
-13.274800 0.000000
-13.236400 0.000000
-13.198000 0.000000
-13.159600 0.000000
-13.121200 0.000000
-13.082800 0.000000
-13.044400 0.000000
-13.006000 0.000000
-12.967600 0.000000
-12.929200 0.000000
-12.890800 0.000000
-12.852400 0.000000
-12.814000 0.000000
-12.775600 0.000000
-12.737200 0.000000
-12.698800 0.000000
-12.660400 0.000000
-12.622000 0.000000
-12.583600 0.000000
-12.545200 0.000000
-12.506800 0.000000
-12.468400 0.000000
-12.430000 0.000000
-12.391600 0.000000
-12.353200 0.000000
-12.314800 0.000000
-12.276400 0.000000
-12.238000 0.000000
-12.199600 0.000000
-12.161200 0.000000
-12.122800 0.000000
-12.084400 0.000000
-12.046000 0.000000
-12.007600 0.000000
-11.969200 0.000000
-11.930800 0.000000
-11.892400 0.000000
-11.854000 0.000000
-11.815600 0.000000
-11.777200 0.000000
-11.738800 0.000000
-11.700400 0.000000
-11.662000 0.000000
-11.623600 0.000000
-11.585200 0.000000
-11.546800 0.000000
-11.508400 0.000000
-11.470000 0.000000
-11.431600 0.000000
-11.393200 0.000000
-11.354800 0.000000
-11.316400 0.000000
-11.278000 0.000000
-11.239600 0.000000
-11.201100 0.000000
-11.162700 0.000000
-11.124300 0.000000
-11.085900 0.000000
-11.047500 0.000000
-11.009100 0.000000
-10.970700 0.000000
-10.932300 0.000000
-10.893900 0.000000
-10.855500 0.000000
-10.817100 0.000000
-10.778700 0.000000
-10.740300 0.000000
-10.701900 0.000000
-10.663500 0.000000
-10.625100 0.000000
-10.586700 0.000000
-10.548300 0.000000
-10.509900 0.000000
-10.471500 0.000000
-10.433100 0.000000
-10.394700 0.000000
-10.356300 0.000000
-10.317900 0.000000
-10.279500 0.000000
-10.241100 0.000000
-10.202700 0.000000
-10.164300 0.000000
-10.125900 0.000000
-10.087500 0.000000
-10.049100 0.000000
-10.010700 0.000000
-9.972300 0.000000
-9.933900 0.000000
-9.895500 0.000000
-9.857100 0.000000
-9.818700 0.000000
-9.780300 0.000000
-9.741900 0.000000
-9.703500 0.000000
-9.665100 0.000000
-9.626700 0.000000
-9.588300 0.000000
-9.549900 0.000000
-9.511500 0.000000
-9.473100 0.000000
-9.434700 0.000000
-9.396300 0.000000
-9.357900 0.000000
-9.319500 0.000000
-9.281100 0.000000
-9.242700 0.000000
-9.204300 0.000000
-9.165900 0.000000
-9.127500 0.000000
-9.089100 0.000000
-9.050700 0.000000
-9.012300 0.000000
-8.973900 0.000000
-8.935500 0.000000
-8.897100 0.000000
-8.858700 0.000000
-8.820300 0.000000
-8.781900 0.000000
-8.743500 0.000000
-8.705100 0.000000
-8.666700 0.000000
-8.628300 0.000000
-8.589900 0.000000
-8.551500 0.000000
-8.513100 0.000000
-8.474700 0.000000
-8.436300 0.000000
-8.397900 0.000000
-8.359500 0.000000
-8.321100 0.000000
-8.282700 0.000000
-8.244300 0.000000
-8.205900 0.000000
-8.167500 0.000000
-8.129100 0.000000
-8.090600 0.000000
-8.052200 0.000000
-8.013800 0.000000
-7.975400 0.000000
-7.937000 0.000000
-7.898600 0.000000
-7.860200 0.000000
-7.821800 0.000000
-7.783400 0.000000
-7.745000 0.000000
-7.706600 0.000000
-7.668200 0.000000
-7.629800 0.000000
-7.591400 0.000000
-7.553000 0.000000
-7.514600 0.000000
-7.476200 0.000000
-7.437800 0.000000
-7.399400 0.000000
-7.361000 0.000000
-7.322600 0.000000
-7.284200 0.000000
-7.245800 0.000000
-7.207400 0.000000
-7.169000 0.000000
-7.130600 0.000000
-7.092200 0.000000
-7.053800 0.000000
-7.015400 0.000000
-6.977000 0.000000
-6.938600 0.000000
-6.900200 0.000000
-6.861800 0.000000
-6.823400 0.000000
-6.785000 0.000000
-6.746600 0.000000
-6.708200 0.000000
-6.669800 0.000000
-6.631400 0.000000
-6.593000 0.000000
-6.554600 0.000000
-6.516200 0.000000
-6.477800 0.000000
-6.439400 0.000000
-6.401000 0.000000
-6.362600 0.000000
-6.324200 0.000000
-6.285800 0.000000
-6.247400 0.000000
-6.209000 0.000000
-6.170600 0.000000
-6.132200 0.000000
-6.093800 0.000000
-6.055400 0.000000
-6.017000 0.000000
-5.978600 0.000000
-5.940200 0.000000
-5.901800 0.000000
-5.863400 0.000000
-5.825000 0.000000
-5.786600 0.000000
-5.748200 0.000000
-5.709800 0.000000
-5.671400 0.000000
-5.633000 0.000000
-5.594600 0.000000
-5.556200 0.000000
-5.517800 0.000000
-5.479400 0.000000
-5.441000 0.000000
-5.402600 0.000000
-5.364200 0.000000
-5.325800 0.000000
-5.287400 0.000000
-5.249000 0.000000
-5.210600 0.000000
-5.172200 0.000000
-5.133800 0.000000
-5.095400 0.000000
-5.057000 0.000000
-5.018500 0.000000
-4.980100 0.000000
-4.941700 0.000000
-4.903300 0.000000
-4.864900 0.000000
-4.826500 0.000000
-4.788100 0.000000
-4.749700 0.000000
-4.711300 0.000000
-4.672900 0.000000
-4.634500 0.000000
-4.596100 0.000000
-4.557700 0.000000
-4.519300 0.000000
-4.480900 0.000000
-4.442500 0.000000
-4.404100 0.000000
-4.365700 0.000000
-4.327300 0.000000
-4.288900 0.000000
-4.250500 0.000000
-4.212100 0.000000
-4.173700 0.000000
-4.135300 0.000000
-4.096900 0.000000
-4.058500 0.000000
-4.020100 0.000000
-3.981700 0.000000
-3.943300 0.000000
-3.904900 0.000000
-3.866500 0.000000
-3.828100 0.000000
-3.789700 0.000000
-3.751300 0.000000
-3.712900 0.000000
-3.674500 0.000000
-3.636100 0.000000
-3.597700 0.000000
-3.559300 0.000000
-3.520900 0.000000
-3.482500 0.000000
-3.444100 0.000000
-3.405700 0.000000
-3.367300 0.178100
-3.328900 0.687000
-3.290500 0.730700
-3.252100 0.679800
-3.213700 0.773100
-3.175300 0.823600
-3.136900 0.765000
-3.098500 0.845900
-3.060100 0.836700
-3.021700 0.841300
-2.983300 0.845900
-2.944900 0.911300
-2.906500 0.991100
-2.868100 1.070800
-2.829700 1.098100
-2.791300 1.098000
-2.752900 1.219400
-2.714500 1.317100
-2.676100 1.318900
-2.637700 1.530600
-2.599300 1.781700
-2.560900 2.096500
-2.522500 1.821000
-2.484100 1.690000
-2.445700 1.568900
-2.407300 1.442200
-2.368900 1.430400
-2.330500 1.526800
-2.292100 1.769600
-2.253700 2.039800
-2.215300 1.993100
-2.176900 2.946300
-2.138500 4.142700
-2.100100 4.757600
-2.061700 4.704200
-2.023300 5.515600
-1.984900 5.581200
-1.946500 7.436800
-1.908000 6.661500
-1.869600 6.192800
-1.831200 4.877900
-1.792800 4.358000
-1.754400 4.031500
-1.716000 3.894300
-1.677600 3.994000
-1.639200 3.675200
-1.600800 3.446700
-1.562400 3.379900
-1.524000 3.610200
-1.485600 3.914100
-1.447200 6.091700
-1.408800 3.239000
-1.370400 1.981000
-1.332000 1.755000
-1.293600 1.662200
-1.255200 1.380900
-1.216800 1.284400
-1.178400 1.183800
-1.140000 1.083100
-1.101600 1.079600
-1.063200 0.992200
-1.024800 0.929500
-0.986400 0.878000
-0.948000 0.843700
-0.909600 0.791400
-0.871200 0.738600
-0.832800 0.738300
-0.794400 0.676800
-0.756000 0.673300
-0.717600 0.590300
-0.679200 0.510500
-0.640800 0.441200
-0.602400 0.532300
-0.564000 0.547400
-0.525600 0.432300
-0.487200 0.257200
-0.448800 0.175400
-0.410400 0.178800
-0.372000 0.185200
-0.333600 0.190900
-0.295200 0.196300
-0.256800 0.202000
-0.218400 0.210500
-0.180000 0.221700
-0.141600 0.233700
-0.103200 0.246600
-0.064800 0.260600
-0.026400 0.275400
0.012000 0.289700
0.050400 0.303500
0.088800 0.317300
0.127200 0.331100
0.165600 0.347100
0.204000 0.364200
0.242400 0.372500
0.280800 0.371700
0.319200 0.372900
0.357600 0.375800
0.396000 0.377800
0.434400 0.378800
0.472800 0.379000
0.511200 0.382000
0.549600 0.386400
0.588000 0.389300
0.626400 0.391400
0.664800 0.393200
0.703200 0.394700
0.741600 0.396300
0.780000 0.398000
0.818400 0.403000
0.856800 0.412000
0.895200 0.424400
0.933600 0.438300
0.972000 0.452100
1.010400 0.465900
1.048800 0.480500
1.087200 0.496000
1.125600 0.512400
1.164000 0.529700
1.202500 0.548600
1.240900 0.568100
1.279300 0.587900
1.317700 0.607500
1.356100 0.627400
1.394500 0.647700
1.432900 0.668300
1.471300 0.689500
1.509700 0.713900
1.548100 0.740200
1.586500 0.766500
1.624900 0.794200
1.663300 0.823700
1.701700 0.854400
1.740100 0.885700
1.778500 0.921800
1.816900 0.965700
1.855300 1.018600
1.893700 1.078600
1.932100 1.142400
1.970500 1.216700
2.008900 1.362400
2.047300 1.525200
2.085700 1.705100
2.124100 1.863000
2.162500 2.104100
2.200900 2.360900
2.239300 2.638900
2.277700 2.676500
2.316100 2.803500
2.354500 3.695800
2.392900 3.904200
2.431300 3.263200
2.469700 2.850800
2.508100 2.697000
2.546500 2.719000
2.584900 2.707800
2.623300 2.712000
2.661700 2.593900
2.700100 2.425000
2.738500 2.365700
2.776900 2.385300
2.815300 2.362400
2.853700 2.576900
2.892100 2.705600
2.930500 2.830200
2.968900 2.988700
3.007300 2.972400
3.045700 2.749700
3.084100 2.678500
3.122500 2.759700
3.160900 3.074500
3.199300 3.585700
3.237700 3.879300
3.276100 3.910600
3.314500 4.071500
3.352900 4.156900
3.391300 4.315600
3.429700 4.678100
3.468100 5.060100
3.506500 5.259000
3.544900 5.275800
3.583300 4.807500
3.621700 4.134600
3.660100 3.558000
3.698500 3.409600
3.736900 3.944200
3.775300 3.572800
3.813700 3.278600
3.852100 3.321700
3.890500 3.123000
3.928900 3.227900
3.967300 3.317400
4.005700 3.411300
4.044100 3.481500
4.082500 3.954200
4.120900 4.581600
4.159300 4.693200
4.197700 4.378600
4.236100 3.814600
4.274600 3.398600
4.313000 3.825800
4.351400 3.072500
4.389800 4.630300
4.428200 4.488400
4.466600 3.668400
4.505000 3.245100
4.543400 2.934300
4.581800 2.938300
4.620200 2.901600
4.658600 3.210700
4.697000 3.372600
4.735400 3.479200
4.773800 3.729200
4.812200 3.986400
4.850600 4.610300
4.889000 6.035500
4.927400 8.403000
4.965800 7.559400
5.004200 7.265400
5.042600 6.244700
5.081000 6.005700
5.119400 5.615600
5.157800 5.607500
5.196200 6.738600
5.234600 6.740300
5.273000 5.597900
5.311400 5.806500
5.349800 5.586900
5.388200 5.528800
5.426600 4.808700
5.465000 4.574100
5.503400 4.313000
5.541800 4.244100
5.580200 4.836200
5.618600 4.875900
5.657000 5.184000
5.695400 5.887700
5.733800 6.325800
5.772200 6.023600
5.810600 5.138400
5.849000 4.381600
5.887400 3.669200
5.925800 3.057600
5.964200 2.841000
6.002600 2.684300
6.041000 2.578100
6.079400 2.449500
6.117800 2.346400
6.156200 2.344400
6.194600 2.333600
6.233000 2.268300
6.271400 2.334800
6.309800 2.178900
6.348200 2.134700
6.386600 2.140900
6.425000 2.127300
6.463400 2.142000
6.501800 2.252000
6.540200 2.404200
6.578600 2.486500
6.617000 2.584200
6.655400 2.629700
6.693800 2.786000
6.732200 2.906200
6.770600 2.945300
6.809000 3.427800
6.847400 3.081800
6.885800 3.087400
6.924200 3.204000
6.962600 3.395800
7.001000 3.885300
7.039400 3.918000
7.077800 3.909900
7.116200 4.081300
7.154600 4.282100
7.193000 4.706900
7.231400 4.691400
7.269800 4.928800
7.308200 5.234500
7.346600 5.175900
7.385100 5.241000
7.423500 5.073600
7.461900 3.902600
7.500300 3.880000
7.538700 3.858900
7.577100 4.202500
7.615500 4.099700
7.653900 4.061100
7.692300 4.251800
7.730700 4.593600
7.769100 4.706700
7.807500 4.351600
7.845900 4.083000
7.884300 3.769400
7.922700 3.746900
7.961100 3.771900
7.999500 4.022900
8.037900 4.347800
8.076300 4.055000
8.114700 3.818400
8.153100 3.254100
8.191500 2.943200
8.229900 2.923600
8.268300 3.030500
8.306700 3.276700
8.345100 3.607200
8.383500 4.317300
8.421900 4.624700
8.460300 4.920700
8.498700 4.895900
8.537100 4.546700
8.575500 4.496600
8.613900 4.619400
8.652300 4.776300
8.690700 4.525800
8.729100 4.120200
8.767500 3.786200
8.805900 3.868200
8.844300 3.908400
8.882700 3.945400
8.921100 3.949700
8.959500 4.299100
8.997900 4.544100
9.036300 4.453400
9.074700 4.378800
9.113100 4.447200
9.151500 4.618600
9.189900 5.253200
9.228300 4.937400
9.266700 5.240100
9.305100 4.920200
9.343500 4.553500
9.381900 3.997700
9.420300 3.840200
9.458700 3.914200
9.497100 4.087800
9.535500 4.360400
9.573900 4.915900
9.612300 5.115500
9.650700 5.522800
9.689100 4.666200
9.727500 4.429600
9.765900 4.293900
9.804300 4.077400
9.842700 3.808700
9.881100 3.877800
9.919500 3.445300
9.957900 3.111900
9.996300 2.909100
10.034700 2.907200
10.073100 2.953600
10.111500 3.267000
10.149900 3.449300
10.188300 3.752700
10.226700 4.335400
10.265100 4.714100
10.303500 4.809800
10.341900 5.912100
10.380300 6.700500
10.418700 6.395900
10.457100 6.166800
10.495600 6.250700
10.534000 5.686200
10.572400 5.004000
10.610800 5.510100
10.649200 5.672200
10.687600 6.589500
10.726000 6.336200
10.764400 5.975500
10.802800 6.527800
10.841200 6.852400
10.879600 6.535700
10.918000 6.538700
10.956400 5.131300
10.994800 5.484000
11.033200 5.247100
11.071600 4.612700
11.110000 4.643600
11.148400 4.240800
11.186800 3.886100
11.225200 3.918300
11.263600 4.224800
11.302000 5.461000
11.340400 5.265300
11.378800 4.775300
11.417200 4.307600
11.455600 3.939400
11.494000 3.840400
11.532400 4.132000
11.570800 3.587500
11.609200 3.751500
11.647600 3.896100
11.686000 3.877100
11.724400 3.547600
11.762800 3.780200
11.801200 4.282900
11.839600 4.235900
11.878000 4.786300
11.916400 4.859900
11.954800 4.930900
11.993200 5.433200
12.031600 5.600300
12.070000 4.629900
12.108400 4.247600
12.146800 3.873500
12.185200 3.594900
12.223600 3.017900
12.262000 2.556700
12.300400 2.205300
12.338800 1.986400
12.377200 1.846100
12.415600 1.779400
12.454000 1.758700
12.492400 1.782700
12.530800 1.807600
12.569200 1.829300
12.607600 1.927200
12.646000 2.031400
12.684400 2.003600
12.722800 1.996200
12.761200 2.038100
12.799600 2.078200
12.838000 2.202900
12.876400 2.294300
12.914800 2.361900
12.953200 2.442300
12.991600 2.514500
13.030000 2.557200
13.068400 2.480700
13.106800 2.233800
13.145200 2.078500
13.183600 1.993000
13.222000 1.899700
13.260400 1.818900
13.298800 1.759400
13.337200 1.718800
13.375600 1.690300
13.414000 1.673600
13.452400 1.664200
13.490800 1.667700
13.529200 1.685500
13.567700 1.719400
13.606100 1.768900
13.644500 1.894900
13.682900 2.145800
13.721300 2.132000
13.759700 2.143100
13.798100 2.058300
13.836500 1.918900
13.874900 1.844700
13.913300 1.790400
13.951700 1.735600
13.990100 1.679000
14.028500 1.616000
14.066900 1.761900
14.105300 1.433500
14.143700 1.379900
14.182100 1.382600
14.220500 1.351000
14.258900 1.382300
14.297300 1.301900
14.335700 1.174400
14.374100 1.066500
14.412500 0.988600
14.450900 1.027600
14.489300 1.069900
14.527700 1.123600
14.566100 1.200500
14.604500 1.357400
14.642900 1.386400
14.681300 1.394500
14.719700 1.394100
14.758100 1.401600
14.796500 1.401800
14.834900 1.362200
14.873300 1.355500
14.911700 1.340400
14.950100 1.343500
14.988500 1.408800
15.026900 1.385400
15.065300 1.366100
15.103700 1.343000
15.142100 1.339700
15.180500 1.354800
15.218900 1.396600
15.257300 1.448100
15.295700 1.482700
15.334100 1.515600
15.372500 1.556800
15.410900 1.613800
15.449300 1.675700
15.487700 1.766700
15.526100 1.821700
15.564500 1.820600
15.602900 1.896300
15.641300 2.070300
15.679700 2.202600
15.718100 2.259400
15.756500 2.329700
15.794900 2.273700
15.833300 2.239900
15.871700 2.314200
15.910100 2.308300
15.948500 1.567200
15.986900 1.516400
16.025300 1.545900
16.063700 1.558400
16.102100 1.595400
16.140500 1.645800
16.178900 1.701900
16.217300 1.723300
16.255700 1.770000
16.294100 1.827600
16.332500 1.898600
16.370900 1.968700
16.409300 2.051300
16.447700 2.140600
16.486100 2.302000
16.524500 2.380800
16.562900 2.548300
16.601300 2.988700
16.639700 2.397600
16.678200 2.295200
16.716600 2.268300
16.755000 2.233900
16.793400 2.162400
16.831800 2.033100
16.870200 1.893200
16.908600 1.821000
16.947000 1.945500
16.985400 1.946000
17.023800 1.981500
17.062200 2.043600
17.100600 2.114200
17.139000 2.162200
17.177400 2.236300
17.215800 2.238700
17.254200 2.133100
17.292600 2.020300
17.331000 1.897000
17.369400 1.864800
17.407800 1.939500
17.446200 2.081900
17.484600 2.547200
17.523000 3.147300
17.561400 2.981400
17.599800 2.369400
17.638200 2.172700
17.676600 2.128600
17.715000 2.330100
17.753400 2.710700
17.791800 3.276900
17.830200 4.122900
17.868600 5.446700
17.907000 13.051200
17.945400 4.474000
17.983800 3.333300
18.022200 2.687000
18.060600 2.220100
18.099000 2.092000
18.137400 2.035000
18.175800 1.993100
18.214200 1.959800
18.252600 1.948400
18.291000 1.992900
18.329400 2.027000
18.367800 2.088600
18.406200 2.196600
18.444600 2.328500
18.483000 2.487400
18.521400 2.656600
18.559800 2.819900
18.598200 3.014900
18.636600 3.117100
18.675000 3.199200
18.713400 3.372700
18.751800 3.608900
18.790200 3.805200
18.828600 4.096400
18.867000 4.548000
18.905400 5.435000
18.943800 11.647100
18.982200 15.286500
19.020600 7.422200
19.059000 5.962100
19.097400 5.168800
19.135800 4.577200
19.174200 3.972700
19.212600 3.540300
19.251000 3.349400
19.289400 3.280600
19.327800 3.304800
19.366200 3.365200
19.404600 3.465500
19.443000 3.697400
19.481400 3.888500
19.519800 4.096800
19.558200 4.402100
19.596600 4.974500
19.635000 5.643500
19.673400 6.254300
19.711800 8.109800
19.750200 17.224900
19.788700 6.616600
19.827100 4.800000
19.865500 4.079700
19.903900 3.626900
19.942300 3.375500
19.980700 3.264000
20.019100 3.230600
20.057500 3.121700
20.095900 3.052200
20.134300 3.023200
20.172700 3.074300
20.211100 3.161100
20.249500 3.147400
20.287900 3.169300
20.326300 3.145600
20.364700 3.080400
20.403100 2.951800
20.441500 2.938200
20.479900 3.035200
20.518300 3.108900
20.556700 3.359500
20.595100 3.318300
20.633500 3.133200
20.671900 2.950500
20.710300 2.830900
20.748700 2.805900
20.787100 2.786900
20.825500 2.720800
20.863900 2.575100
20.902300 2.574600
20.940700 2.725600
20.979100 2.903900
21.017500 3.056100
21.055900 3.467100
21.094300 3.622400
21.132700 3.274300
21.171100 2.886200
21.209500 2.834700
21.247900 2.908500
21.286300 2.832200
21.324700 2.773200
21.363100 2.745500
21.401500 2.712800
21.439900 2.678500
21.478300 2.734000
21.516700 2.823500
21.555100 2.898400
21.593500 2.959500
21.631900 3.056400
21.670300 3.124500
21.708700 3.194300
21.747100 3.233000
21.785500 3.188200
21.823900 3.002200
21.862300 2.849300
21.900700 2.762300
21.939100 2.853700
21.977500 2.709600
22.015900 2.448800
22.054300 2.395500
22.092700 2.375300
22.131100 2.360400
22.169500 2.334300
22.207900 2.270400
22.246300 2.313100
22.284700 2.350900
22.323100 2.489000
22.361500 2.586100
22.399900 2.742900
22.438300 2.785500
22.476700 2.688800
22.515100 2.567600
22.553500 2.539900
22.591900 2.537800
22.630300 2.546000
22.668700 2.526900
22.707100 2.383800
22.745500 2.275700
22.783900 2.253800
22.822300 2.422500
22.860700 2.384400
22.899200 2.315000
22.937600 2.274300
22.976000 2.285700
23.014400 2.357700
23.052800 2.465600
23.091200 2.569700
23.129600 2.712100
23.168000 2.858800
23.206400 3.003900
23.244800 3.203900
23.283200 3.176900
23.321600 3.172500
23.360000 3.143700
23.398400 3.089600
23.436800 3.174400
23.475200 3.417000
23.513600 3.753600
23.552000 4.275700
23.590400 4.642900
23.628800 4.877300
23.667200 4.430900
23.705600 4.135700
23.744000 3.779500
23.782400 3.326800
23.820800 2.976700
23.859200 2.675500
23.897600 2.374300
23.936000 2.204400
23.974400 1.824800
24.012800 1.882100
24.051200 2.013100
24.089600 2.038600
24.128000 2.074800
24.166400 2.042200
24.204800 2.057200
24.243200 2.010700
24.281600 1.955900
24.320000 1.965600
24.358400 1.991100
24.396800 2.031700
24.435200 2.099600
24.473600 2.190700
24.512000 2.242300
24.550400 1.998000
24.588800 1.993400
24.627200 1.995200
24.665600 2.024800
24.704000 2.080000
24.742400 2.152600
24.780800 2.232000
24.819200 2.328300
24.857600 2.472000
24.896000 2.484500
24.934400 2.477100
24.972800 2.445100
25.011200 2.521000
25.049600 2.715000
25.088000 2.775300
25.126400 2.976200
25.164800 3.049100
25.203200 3.067100
25.241600 3.028900
25.280000 2.988600
25.318400 2.948100
25.356800 2.857600
25.395200 2.737800
25.433600 2.676800
25.472000 2.462100
25.510400 2.218700
25.548800 2.113300
25.587200 2.165400
25.625600 2.290900
25.664000 2.431200
25.702400 2.576400
25.740800 2.705500
25.779200 2.849800
25.817600 2.864900
25.856000 2.867200
25.894400 2.958700
25.932800 3.292800
25.971300 3.396900
26.009700 3.203800
26.048100 2.899600
26.086500 2.581100
26.124900 2.361700
26.163300 2.183700
26.201700 2.063200
26.240100 1.970600
26.278500 1.853500
26.316900 1.763100
26.355300 1.720700
26.393700 1.708900
26.432100 1.767900
26.470500 1.663700
26.508900 1.590900
26.547300 1.673000
26.585700 1.908300
26.624100 2.219400
26.662500 2.622900
26.700900 3.029700
26.739300 3.196100
26.777700 3.281200
26.816100 3.274100
26.854500 3.257100
26.892900 3.275700
26.931300 3.363400
26.969700 3.453800
27.008100 3.844700
27.046500 3.590000
27.084900 3.405400
27.123300 3.173100
27.161700 3.074800
27.200100 3.059300
27.238500 3.059600
27.276900 3.107400
27.315300 3.102100
27.353700 3.081500
27.392100 3.107200
27.430500 3.152300
27.468900 2.810500
27.507300 2.722200
27.545700 2.671200
27.584100 2.836800
27.622500 3.054400
27.660900 3.236500
27.699300 3.295300
27.737700 3.355900
27.776100 3.587000
27.814500 3.754500
27.852900 3.480700
27.891300 3.141400
27.929700 3.054100
27.968100 2.901900
28.006500 2.747800
28.044900 2.707200
28.083300 2.829400
28.121700 3.096700
28.160100 3.201900
28.198500 3.433900
28.236900 3.256100
28.275300 3.243500
28.313700 3.389600
28.352100 3.486700
28.390500 3.717900
28.428900 3.796300
28.467300 3.715900
28.505700 3.593600
28.544100 3.371800
28.582500 3.335000
28.620900 3.326300
28.659300 3.287900
28.697700 3.190000
28.736100 3.589500
28.774500 4.143300
28.812900 5.255700
28.851300 5.423300
28.889700 4.818900
28.928100 4.157300
28.966500 3.701400
29.004900 3.495500
29.043300 3.343100
29.081800 3.254500
29.120200 3.209000
29.158600 3.244800
29.197000 3.293900
29.235400 3.237000
29.273800 3.372000
29.312200 3.289800
29.350600 3.488400
29.389000 3.429800
29.427400 3.381500
29.465800 3.356800
29.504200 3.409400
29.542600 3.562800
29.581000 3.620600
29.619400 3.752100
29.657800 3.711800
29.696200 3.742600
29.734600 3.625600
29.773000 3.505600
29.811400 3.351000
29.849800 3.210300
29.888200 3.162600
29.926600 3.205200
29.965000 3.302100
30.003400 3.518000
30.041800 3.565900
30.080200 3.738600
30.118600 3.742300
30.157000 3.661200
30.195400 3.532400
30.233800 3.309100
30.272200 3.163800
30.310600 3.103600
30.349000 3.187500
30.387400 3.349900
30.425800 3.526200
30.464200 3.409800
30.502600 3.381400
30.541000 3.412100
30.579400 3.353000
30.617800 3.387800
30.656200 3.637100
30.694600 3.898500
30.733000 3.969000
30.771400 3.896400
30.809800 3.803600
30.848200 3.745500
30.886600 3.519300
30.925000 3.474900
30.963400 3.384300
31.001800 3.317400
31.040200 3.342400
31.078600 3.555600
31.117000 3.367600
31.155400 3.300800
31.193800 3.223600
31.232200 3.422300
31.270600 3.413000
31.309000 3.257600
31.347400 3.158300
31.385800 3.117100
31.424200 3.275700
31.462600 3.502800
31.501000 3.536200
31.539400 3.453700
31.577800 3.055500
31.616200 2.746600
31.654600 2.432000
31.693000 2.253500
31.731400 2.292500
31.769800 2.539900
31.808200 2.767400
31.846600 2.893800
31.885000 3.104700
31.923400 3.615000
31.961800 3.873800
32.000200 3.959100
32.038600 3.756600
32.077000 3.494100
32.115400 3.303700
32.153800 3.180400
32.192300 3.079300
32.230700 2.643600
32.269100 2.412800
32.307500 2.569100
32.345900 2.671200
32.384300 2.671500
32.422700 3.016600
32.461100 3.004800
32.499500 2.806700
32.537900 2.722100
32.576300 2.567100
32.614700 2.524000
32.653100 2.539300
32.691500 2.651900
32.729900 2.591100
32.768300 2.567400
32.806700 2.679100
32.845100 2.821800
32.883500 2.988300
32.921900 2.959500
32.960300 2.900200
32.998700 2.739000
33.037100 2.712400
33.075500 2.706500
33.113900 2.856000
33.152300 2.963200
33.190700 2.940500
33.229100 2.874900
33.267500 3.260300
33.305900 3.102800
33.344300 3.391500
33.382700 3.321100
33.421100 3.152500
33.459500 2.823100
33.497900 2.759400
33.536300 2.857300
33.574700 2.921800
33.613100 3.177900
33.651500 3.276300
33.689900 3.408700
33.728300 3.669800
33.766700 3.791400
33.805100 3.904200
33.843500 3.649700
33.881900 3.566100
33.920300 3.798300
33.958700 4.320900
33.997100 4.400500
34.035500 4.227200
34.073900 4.200600
34.112300 4.202500
34.150700 4.278500
34.189100 4.292800
34.227500 4.290000
34.265900 4.249200
34.304300 4.102500
34.342700 3.577400
34.381100 3.476900
34.419500 3.443100
34.457900 3.396600
34.496300 3.365400
34.534700 3.358200
34.573100 3.374600
34.611500 3.106400
34.649900 3.080400
34.688300 3.134200
34.726700 3.180300
34.765100 3.321100
34.803500 3.494000
34.841900 3.653000
34.880300 3.798900
34.918700 3.882200
34.957100 3.990500
34.995500 4.103700
35.033900 4.505600
35.072300 4.031600
35.110700 3.911300
35.149100 3.667300
35.187500 3.388500
35.225900 3.033800
35.264400 2.838900
35.302800 2.783900
35.341200 2.912500
35.379600 3.143500
35.418000 3.326200
35.456400 3.440900
35.494800 3.431400
35.533200 3.441200
35.571600 3.500300
35.610000 3.512600
35.648400 3.505700
35.686800 3.565900
35.725200 3.691100
35.763600 3.607000
35.802000 3.505700
35.840400 3.361400
35.878800 3.231600
35.917200 3.201400
35.955600 3.197800
35.994000 3.242000
36.032400 3.167000
36.070800 3.122600
36.109200 3.066200
36.147600 2.994400
36.186000 2.888700
36.224400 2.804500
36.262800 2.770300
36.301200 2.785400
36.339600 2.830300
36.378000 2.949000
36.416400 3.168800
36.454800 3.681800
36.493200 3.809300
36.531600 3.907600
36.570000 4.126000
36.608400 4.313700
36.646800 4.339100
36.685200 4.496900
36.723600 4.898900
36.762000 4.068300
36.800400 4.156800
36.838800 3.985900
36.877200 3.690100
36.915600 3.772300
36.954000 3.602500
36.992400 3.511900
37.030800 3.579700
37.069200 3.954000
37.107600 3.883900
37.146000 3.756300
37.184400 3.657900
37.222800 3.495000
37.261200 3.393000
37.299600 3.348100
37.338000 3.362200
37.376400 3.523000
37.414800 3.863100
37.453200 3.863500
37.491600 3.796800
37.530000 3.865700
37.568400 3.801700
37.606800 3.882600
37.645200 3.860400
37.683600 3.711100
37.722000 3.471900
37.760400 3.432700
37.798800 3.296200
37.837200 3.213600
37.875600 3.187800
37.914000 3.215800
37.952400 3.254600
37.990800 3.337900
38.029200 3.429300
38.067600 3.582400
38.106000 3.746700
38.144400 3.860900
38.182800 3.848300
38.221200 3.857100
38.259600 3.899900
38.298000 3.528800
38.336400 3.294200
38.374900 3.202200
38.413300 3.230100
38.451700 3.310700
38.490100 3.422600
38.528500 3.709600
38.566900 3.987900
38.605300 3.886800
38.643700 3.775000
38.682100 3.678200
38.720500 3.523600
38.758900 3.362600
38.797300 3.199800
38.835700 2.846400
38.874100 2.884800
38.912500 2.673300
38.950900 2.659300
38.989300 2.597300
39.027700 2.514800
39.066100 2.448100
39.104500 2.359200
39.142900 2.249600
39.181300 2.255100
39.219700 2.237600
39.258100 2.290000
39.296500 2.399700
39.334900 2.512300
39.373300 2.472800
39.411700 2.549600
39.450100 2.594400
39.488500 2.583500
39.526900 2.505400
39.565300 2.098000
39.603700 1.765100
39.642100 1.549100
39.680500 1.338600
39.718900 1.134200
39.757300 0.971300
39.795700 0.735200
39.834100 0.672000
39.872500 0.466700
39.910900 0.309600
39.949300 0.242700
39.987700 0.189000
40.026100 0.143700
40.064500 0.109600
40.102900 0.085200
40.141300 0.066500
40.179700 0.056300
40.218100 0.047000
40.256500 0.037400
40.294900 0.027700
40.333300 0.017900
40.371700 0.008000
40.410100 0.000000
40.448500 0.000000
40.486900 0.000000
40.525300 0.000000
40.563700 0.000000
40.602100 0.000000
40.640500 0.000000
40.678900 0.000000
40.717300 0.000000
40.755700 0.000000
40.794100 0.000000
40.832500 0.000000
40.870900 0.000000
40.909300 0.000000
40.947700 0.000000
40.986100 0.000000
41.024500 0.000000
41.062900 0.000000
41.101300 0.000000
41.139700 0.000000
41.178100 0.000000
41.216500 0.000000
41.254900 0.000000
41.293300 0.000000
41.331700 0.000000
41.370100 0.000000
41.408500 0.000000
41.446900 0.000000
41.485400 0.000000
41.523800 0.000000
41.562200 0.000000
41.600600 0.000000
41.639000 0.000000
41.677400 0.000000
41.715800 0.000000
41.754200 0.000000
41.792600 0.000000
41.831000 0.000000
41.869400 0.000000
41.907800 0.000000
41.946200 0.000000
41.984600 0.000000
42.023000 0.000000
42.061400 0.000000
42.099800 0.000000
42.138200 0.000000
42.176600 0.000000
42.215000 0.000000
42.253400 0.000000
42.291800 0.000000
42.330200 0.000000
42.368600 0.000000
42.407000 0.000000
42.445400 0.000000
42.483800 0.000000
42.522200 0.000000
42.560600 0.000000
42.599000 0.000000
42.637400 0.000000
42.675800 0.000000
42.714200 0.000000
42.752600 0.000000
42.791000 0.000000
42.829400 0.000000
42.867800 0.000000
42.906200 0.000000
42.944600 0.000000
42.983000 0.000000
43.021400 0.000000
43.059800 0.000000
43.098200 0.000000
43.136600 0.000000
43.175000 0.000000
43.213400 0.000000
43.251800 0.000000
43.290200 0.000000
43.328600 0.000000
43.367000 0.000000
43.405400 0.000000
43.443800 0.000000
43.482200 0.000000
43.520600 0.000000
43.559000 0.000000
43.597400 0.000000
43.635800 0.000000
43.674200 0.000000
43.712600 0.000000
43.751000 0.000000
43.789400 0.000000
43.827800 0.000000
43.866200 0.000000
43.904600 0.000000
e
