set title 'mp-1182868 - Density of States'
set xlabel 'Energy (eV)'
set ylabel 'DOS (states/eV)'
set grid
set xrange [-10:10]
set yrange [0:11.053]
set xzeroaxis lt -1
set terminal png size 800,600
set output 'mp-1182868_dos_gnuplot.png'
plot '-' using 1:2 with lines title 'DOS'
-20.894700 0.000000
-20.871500 0.000000
-20.848400 0.000000
-20.825200 0.000000
-20.802000 0.000000
-20.778800 0.000000
-20.755700 0.000000
-20.732500 0.000000
-20.709300 0.000000
-20.686100 0.000000
-20.663000 0.000000
-20.639800 0.000000
-20.616600 0.000000
-20.593400 0.000000
-20.570200 0.000000
-20.547100 0.000000
-20.523900 0.000000
-20.500700 0.000000
-20.477500 0.000000
-20.454400 0.000000
-20.431200 0.000000
-20.408000 0.000000
-20.384800 0.000000
-20.361700 0.000000
-20.338500 0.000000
-20.315300 0.000000
-20.292100 0.000000
-20.269000 0.000000
-20.245800 0.000000
-20.222600 0.000000
-20.199400 0.000000
-20.176300 0.000000
-20.153100 0.000000
-20.129900 0.000000
-20.106700 0.000000
-20.083600 0.000000
-20.060400 0.000000
-20.037200 0.000000
-20.014000 0.000000
-19.990900 0.000000
-19.967700 0.000000
-19.944500 0.000000
-19.921300 0.000000
-19.898200 0.000000
-19.875000 0.000000
-19.851800 0.000000
-19.828600 0.000000
-19.805500 0.000000
-19.782300 0.000000
-19.759100 0.000000
-19.735900 0.000000
-19.712800 0.000000
-19.689600 0.000000
-19.666400 0.000000
-19.643200 0.000000
-19.620100 0.000000
-19.596900 0.000000
-19.573700 0.000000
-19.550500 0.000000
-19.527400 0.000000
-19.504200 0.000000
-19.481000 0.000000
-19.457800 0.000000
-19.434600 0.000000
-19.411500 0.000000
-19.388300 0.000000
-19.365100 0.000000
-19.341900 0.000000
-19.318800 0.000000
-19.295600 0.000000
-19.272400 0.000000
-19.249200 0.000000
-19.226100 0.000000
-19.202900 0.000000
-19.179700 0.000000
-19.156500 0.000000
-19.133400 0.000000
-19.110200 0.000000
-19.087000 0.000000
-19.063800 0.000000
-19.040700 0.000000
-19.017500 0.000000
-18.994300 0.000000
-18.971100 0.000000
-18.948000 0.000000
-18.924800 0.000000
-18.901600 0.000000
-18.878400 0.000000
-18.855300 0.000000
-18.832100 0.000000
-18.808900 0.000000
-18.785700 0.000000
-18.762600 0.000000
-18.739400 0.000000
-18.716200 0.000000
-18.693000 0.000000
-18.669900 0.000000
-18.646700 0.000000
-18.623500 0.000000
-18.600300 0.000000
-18.577200 0.000000
-18.554000 0.000000
-18.530800 0.000000
-18.507600 0.000000
-18.484500 0.000000
-18.461300 0.000000
-18.438100 0.000000
-18.414900 0.000000
-18.391800 0.000000
-18.368600 0.000000
-18.345400 0.000000
-18.322200 0.000000
-18.299000 0.000000
-18.275900 0.185700
-18.252700 0.333200
-18.229500 0.460400
-18.206300 0.576400
-18.183200 0.647300
-18.160000 0.733700
-18.136800 0.824400
-18.113600 0.918600
-18.090500 1.002800
-18.067300 1.092900
-18.044100 1.196200
-18.020900 1.313600
-17.997800 1.437800
-17.974600 1.578500
-17.951400 1.828200
-17.928200 2.295200
-17.905100 2.379900
-17.881900 2.320000
-17.858700 2.350900
-17.835500 2.100000
-17.812400 2.000900
-17.789200 1.880900
-17.766000 1.774900
-17.742800 1.657400
-17.719700 1.549600
-17.696500 1.495300
-17.673300 1.460500
-17.650100 1.463000
-17.627000 1.490300
-17.603800 1.491100
-17.580600 1.469300
-17.557400 1.360400
-17.534300 1.459000
-17.511100 1.578100
-17.487900 1.580900
-17.464700 1.538800
-17.441600 1.552500
-17.418400 1.603200
-17.395200 1.699600
-17.372000 1.793400
-17.348900 1.880200
-17.325700 1.992300
-17.302500 2.086700
-17.279300 2.144600
-17.256200 2.198200
-17.233000 1.968100
-17.209800 1.787900
-17.186600 1.672100
-17.163400 1.600800
-17.140300 1.527300
-17.117100 4.056600
-17.093900 6.350500
-17.070700 6.272100
-17.047600 4.516100
-17.024400 3.915200
-17.001200 3.601000
-16.978000 3.394500
-16.954900 3.387100
-16.931700 3.455300
-16.908500 3.796800
-16.885300 5.751200
-16.862200 3.265600
-16.839000 0.314200
-16.815800 0.000000
-16.792600 0.000000
-16.769500 0.000000
-16.746300 0.000000
-16.723100 0.000000
-16.699900 0.000000
-16.676800 0.000000
-16.653600 0.000000
-16.630400 0.000000
-16.607200 0.000000
-16.584100 0.000000
-16.560900 0.000000
-16.537700 0.000000
-16.514500 0.000000
-16.491400 0.000000
-16.468200 0.000000
-16.445000 0.000000
-16.421800 0.000000
-16.398700 0.000000
-16.375500 0.000000
-16.352300 0.000000
-16.329100 0.000000
-16.306000 0.000000
-16.282800 0.000000
-16.259600 0.000000
-16.236400 0.000000
-16.213300 0.000000
-16.190100 0.000000
-16.166900 0.000000
-16.143700 0.000000
-16.120600 0.000000
-16.097400 0.000000
-16.074200 0.000000
-16.051000 0.000000
-16.027800 0.000000
-16.004700 0.000000
-15.981500 0.000000
-15.958300 0.268100
-15.935100 0.567600
-15.912000 0.805700
-15.888800 1.106500
-15.865600 1.397300
-15.842400 1.853700
-15.819300 2.165000
-15.796100 2.006400
-15.772900 1.738300
-15.749700 1.682800
-15.726600 2.382800
-15.703400 3.272600
-15.680200 3.587400
-15.657000 3.762800
-15.633900 4.033200
-15.610700 7.963700
-15.587500 6.895600
-15.564300 5.797400
-15.541200 5.787300
-15.518000 5.558100
-15.494800 5.534200
-15.471600 5.824900
-15.448500 6.227000
-15.425300 6.693300
-15.402100 7.869100
-15.378900 9.927200
-15.355800 17.456400
-15.332600 6.146700
-15.309400 0.000000
-15.286200 0.000000
-15.263100 0.000000
-15.239900 0.000000
-15.216700 0.000000
-15.193500 0.000000
-15.170400 0.000000
-15.147200 0.000000
-15.124000 0.000000
-15.100800 0.000000
-15.077700 0.000000
-15.054500 0.000000
-15.031300 0.000000
-15.008100 0.000000
-14.985000 0.000000
-14.961800 0.000000
-14.938600 0.000000
-14.915400 0.000000
-14.892200 0.000000
-14.869100 0.000000
-14.845900 0.000000
-14.822700 0.000000
-14.799500 0.000000
-14.776400 0.000000
-14.753200 0.000000
-14.730000 0.000000
-14.706800 0.000000
-14.683700 0.000000
-14.660500 0.000000
-14.637300 0.000000
-14.614100 0.000000
-14.591000 0.000000
-14.567800 0.000000
-14.544600 0.000000
-14.521400 0.000000
-14.498300 0.000000
-14.475100 0.000000
-14.451900 0.000000
-14.428700 0.000000
-14.405600 0.000000
-14.382400 0.000000
-14.359200 0.000000
-14.336000 0.000000
-14.312900 0.000000
-14.289700 0.000000
-14.266500 0.000000
-14.243300 0.000000
-14.220200 0.000000
-14.197000 0.000000
-14.173800 0.000000
-14.150600 0.000000
-14.127500 0.000000
-14.104300 0.000000
-14.081100 0.000000
-14.057900 0.000000
-14.034800 0.000000
-14.011600 0.000000
-13.988400 0.000000
-13.965200 0.000000
-13.942100 0.000000
-13.918900 0.000000
-13.895700 0.000000
-13.872500 0.000000
-13.849400 0.000000
-13.826200 0.000000
-13.803000 0.000000
-13.779800 0.000000
-13.756600 0.000000
-13.733500 0.000000
-13.710300 0.000000
-13.687100 0.000000
-13.663900 0.000000
-13.640800 0.000000
-13.617600 0.000000
-13.594400 0.000000
-13.571200 0.000000
-13.548100 0.000000
-13.524900 0.000000
-13.501700 0.000000
-13.478500 0.000000
-13.455400 0.000000
-13.432200 0.000000
-13.409000 0.000000
-13.385800 0.000000
-13.362700 0.000000
-13.339500 0.000000
-13.316300 0.000000
-13.293100 0.000000
-13.270000 0.000000
-13.246800 0.000000
-13.223600 0.000000
-13.200400 0.000000
-13.177300 0.000000
-13.154100 0.000000
-13.130900 0.000000
-13.107700 0.000000
-13.084600 0.000000
-13.061400 0.000000
-13.038200 0.000000
-13.015000 0.000000
-12.991900 0.000000
-12.968700 0.000000
-12.945500 0.000000
-12.922300 0.000000
-12.899200 0.000000
-12.876000 0.000000
-12.852800 0.000000
-12.829600 0.000000
-12.806500 0.000000
-12.783300 0.000000
-12.760100 0.000000
-12.736900 0.000000
-12.713800 0.000000
-12.690600 0.000000
-12.667400 0.000000
-12.644200 0.000000
-12.621000 0.000000
-12.597900 0.000000
-12.574700 0.000000
-12.551500 0.000000
-12.528300 0.000000
-12.505200 0.000000
-12.482000 0.000000
-12.458800 0.000000
-12.435600 0.000000
-12.412500 0.000000
-12.389300 0.000000
-12.366100 0.000000
-12.342900 0.000000
-12.319800 0.000000
-12.296600 0.000000
-12.273400 0.000000
-12.250200 0.000000
-12.227100 0.000000
-12.203900 0.000000
-12.180700 0.000000
-12.157500 0.000000
-12.134400 0.000000
-12.111200 0.000000
-12.088000 0.000000
-12.064800 0.000000
-12.041700 0.000000
-12.018500 0.000000
-11.995300 0.000000
-11.972100 0.000000
-11.949000 0.000000
-11.925800 0.000000
-11.902600 0.000000
-11.879400 0.000000
-11.856300 0.000000
-11.833100 0.000000
-11.809900 0.000000
-11.786700 0.000000
-11.763600 0.000000
-11.740400 0.000000
-11.717200 0.000000
-11.694000 0.000000
-11.670900 0.000000
-11.647700 0.000000
-11.624500 0.000000
-11.601300 0.000000
-11.578200 0.000000
-11.555000 0.000000
-11.531800 0.000000
-11.508600 0.000000
-11.485500 0.000000
-11.462300 0.000000
-11.439100 0.000000
-11.415900 0.000000
-11.392700 0.000000
-11.369600 0.000000
-11.346400 0.000000
-11.323200 0.000000
-11.300000 0.000000
-11.276900 0.000000
-11.253700 0.000000
-11.230500 0.000000
-11.207300 0.000000
-11.184200 0.000000
-11.161000 0.000000
-11.137800 0.000000
-11.114600 0.000000
-11.091500 0.000000
-11.068300 0.000000
-11.045100 0.000000
-11.021900 0.000000
-10.998800 0.000000
-10.975600 0.000000
-10.952400 0.000000
-10.929200 0.000000
-10.906100 0.000000
-10.882900 0.000000
-10.859700 0.000000
-10.836500 0.000000
-10.813400 0.000000
-10.790200 0.000000
-10.767000 0.000000
-10.743800 0.000000
-10.720700 0.000000
-10.697500 0.000000
-10.674300 0.000000
-10.651100 0.000000
-10.628000 0.000000
-10.604800 0.000000
-10.581600 0.000000
-10.558400 0.000000
-10.535300 0.000000
-10.512100 0.000000
-10.488900 0.000000
-10.465700 0.000000
-10.442600 0.000000
-10.419400 0.000000
-10.396200 0.000000
-10.373000 0.000000
-10.349900 0.000000
-10.326700 0.000000
-10.303500 0.000000
-10.280300 0.000000
-10.257100 0.000000
-10.234000 0.000000
-10.210800 0.000000
-10.187600 0.000000
-10.164400 0.000000
-10.141300 0.000000
-10.118100 0.000000
-10.094900 0.000000
-10.071700 0.000000
-10.048600 0.000000
-10.025400 0.000000
-10.002200 0.000000
-9.979000 0.000000
-9.955900 0.000000
-9.932700 0.000000
-9.909500 0.000000
-9.886300 0.000000
-9.863200 0.000000
-9.840000 0.000000
-9.816800 0.000000
-9.793600 0.000000
-9.770500 0.000000
-9.747300 0.000000
-9.724100 0.000000
-9.700900 0.000000
-9.677800 0.000000
-9.654600 0.000000
-9.631400 0.000000
-9.608200 0.000000
-9.585100 0.000000
-9.561900 0.000000
-9.538700 0.000000
-9.515500 0.000000
-9.492400 0.000000
-9.469200 0.000000
-9.446000 0.000000
-9.422800 0.000000
-9.399700 0.000000
-9.376500 0.000000
-9.353300 0.000000
-9.330100 0.000000
-9.307000 0.000000
-9.283800 0.000000
-9.260600 0.000000
-9.237400 0.000000
-9.214300 0.000000
-9.191100 0.000000
-9.167900 0.000000
-9.144700 0.000000
-9.121500 0.000000
-9.098400 0.000000
-9.075200 0.000000
-9.052000 0.000000
-9.028800 0.000000
-9.005700 0.000000
-8.982500 0.000000
-8.959300 0.000000
-8.936100 0.000000
-8.913000 0.000000
-8.889800 0.000000
-8.866600 0.000000
-8.843400 0.000000
-8.820300 0.000000
-8.797100 0.000000
-8.773900 0.000000
-8.750700 0.000000
-8.727600 0.000000
-8.704400 0.000000
-8.681200 0.000000
-8.658000 0.000000
-8.634900 0.000000
-8.611700 0.000000
-8.588500 0.000000
-8.565300 0.000000
-8.542200 0.000000
-8.519000 0.000000
-8.495800 0.000000
-8.472600 0.000000
-8.449500 0.000000
-8.426300 0.000000
-8.403100 0.000000
-8.379900 0.000000
-8.356800 0.000000
-8.333600 0.000000
-8.310400 0.000000
-8.287200 0.000000
-8.264100 0.000000
-8.240900 0.000000
-8.217700 0.000000
-8.194500 0.000000
-8.171400 0.000000
-8.148200 0.000000
-8.125000 0.000000
-8.101800 0.000000
-8.078700 0.000000
-8.055500 0.000000
-8.032300 0.000000
-8.009100 0.000000
-7.985900 0.000000
-7.962800 0.000000
-7.939600 0.000000
-7.916400 0.000000
-7.893200 0.000000
-7.870100 0.000000
-7.846900 0.000000
-7.823700 0.000000
-7.800500 0.000000
-7.777400 0.000000
-7.754200 0.000000
-7.731000 0.000000
-7.707800 0.000000
-7.684700 0.000000
-7.661500 0.000000
-7.638300 0.000000
-7.615100 0.000000
-7.592000 0.000000
-7.568800 0.000000
-7.545600 0.000000
-7.522400 0.000000
-7.499300 0.000000
-7.476100 0.000000
-7.452900 0.000000
-7.429700 0.000000
-7.406600 0.000000
-7.383400 0.000000
-7.360200 0.000000
-7.337000 0.000000
-7.313900 0.000000
-7.290700 0.000000
-7.267500 0.000000
-7.244300 0.000000
-7.221200 0.000000
-7.198000 0.000000
-7.174800 0.000000
-7.151600 0.000000
-7.128500 0.000000
-7.105300 0.000000
-7.082100 0.000000
-7.058900 0.000000
-7.035800 0.000000
-7.012600 0.000000
-6.989400 0.000000
-6.966200 0.000000
-6.943100 0.000000
-6.919900 0.000000
-6.896700 0.000000
-6.873500 0.000000
-6.850300 0.000000
-6.827200 0.000000
-6.804000 0.000000
-6.780800 0.000000
-6.757600 0.000000
-6.734500 0.000000
-6.711300 0.000000
-6.688100 0.000000
-6.664900 0.000000
-6.641800 0.000000
-6.618600 0.000000
-6.595400 0.000000
-6.572200 0.000000
-6.549100 0.000000
-6.525900 0.000000
-6.502700 0.000000
-6.479500 0.000000
-6.456400 0.000000
-6.433200 0.000000
-6.410000 0.000000
-6.386800 0.000000
-6.363700 0.000000
-6.340500 0.000000
-6.317300 0.000000
-6.294100 0.000000
-6.271000 0.000000
-6.247800 0.000000
-6.224600 0.000000
-6.201400 0.000000
-6.178300 0.000000
-6.155100 0.000000
-6.131900 0.000000
-6.108700 0.000000
-6.085600 0.000000
-6.062400 0.000000
-6.039200 0.000000
-6.016000 0.000000
-5.992900 0.000000
-5.969700 0.000000
-5.946500 0.002300
-5.923300 0.034300
-5.900200 0.086400
-5.877000 0.152700
-5.853800 0.162600
-5.830600 0.182900
-5.807500 0.205400
-5.784300 0.224000
-5.761100 0.251100
-5.737900 0.278200
-5.714700 0.304500
-5.691600 0.325500
-5.668400 0.344900
-5.645200 0.364100
-5.622000 0.384600
-5.598900 0.407700
-5.575700 0.432600
-5.552500 0.459900
-5.529300 0.488400
-5.506200 0.517900
-5.483000 0.554100
-5.459800 0.598200
-5.436600 0.650700
-5.413500 0.714700
-5.390300 0.760000
-5.367100 0.742600
-5.343900 0.764100
-5.320800 0.784900
-5.297600 0.805800
-5.274400 0.825900
-5.251200 0.843100
-5.228100 0.860700
-5.204900 0.883200
-5.181700 0.910900
-5.158500 0.939500
-5.135400 0.969100
-5.112200 1.001900
-5.089000 1.054400
-5.065800 1.124800
-5.042700 1.269100
-5.019500 1.399100
-4.996300 1.444600
-4.973100 1.450600
-4.950000 1.419800
-4.926800 1.371000
-4.903600 1.355600
-4.880400 1.347700
-4.857300 1.347900
-4.834100 1.385900
-4.810900 1.279900
-4.787700 1.040500
-4.764600 0.854900
-4.741400 0.722100
-4.718200 0.653100
-4.695000 0.589200
-4.671900 0.524000
-4.648700 0.455700
-4.625500 0.379300
-4.602300 0.293700
-4.579100 0.257200
-4.556000 0.220600
-4.532800 0.184000
-4.509600 0.147300
-4.486400 0.113900
-4.463300 0.094500
-4.440100 0.084300
-4.416900 0.081500
-4.393700 0.085300
-4.370600 0.095200
-4.347400 0.111200
-4.324200 0.135500
-4.301000 0.169600
-4.277900 0.203800
-4.254700 0.237900
-4.231500 0.272100
-4.208300 0.306300
-4.185200 0.352500
-4.162000 0.428100
-4.138800 0.487800
-4.115600 0.546900
-4.092500 0.611000
-4.069300 0.690300
-4.046100 0.774300
-4.022900 0.881300
-3.999800 0.935400
-3.976600 0.993700
-3.953400 1.074400
-3.930200 1.185600
-3.907100 1.325500
-3.883900 1.505300
-3.860700 1.795000
-3.837500 2.199400
-3.814400 2.599000
-3.791200 3.142400
-3.768000 3.780000
-3.744800 5.187900
-3.721700 4.376400
-3.698500 4.104100
-3.675300 5.172300
-3.652100 4.310800
-3.629000 3.996300
-3.605800 3.561500
-3.582600 2.893500
-3.559400 2.439400
-3.536300 2.123800
-3.513100 2.120200
-3.489900 2.386700
-3.466700 2.429500
-3.443500 3.336100
-3.420400 3.962000
-3.397200 4.372100
-3.374000 5.043300
-3.350800 5.149200
-3.327700 5.081300
-3.304500 5.397200
-3.281300 4.845400
-3.258100 4.346300
-3.235000 4.169400
-3.211800 4.122000
-3.188600 4.047400
-3.165400 3.790300
-3.142300 2.894300
-3.119100 1.963500
-3.095900 1.685000
-3.072700 1.680100
-3.049600 1.842600
-3.026400 2.545600
-3.003200 3.233800
-2.980000 3.566300
-2.956900 3.722900
-2.933700 4.832400
-2.910500 6.215300
-2.887300 6.817800
-2.864200 5.637300
-2.841000 4.373600
-2.817800 4.029100
-2.794600 4.829000
-2.771500 5.077400
-2.748300 4.505200
-2.725100 3.544900
-2.701900 3.294300
-2.678800 2.990900
-2.655600 2.853900
-2.632400 2.664200
-2.609200 3.050600
-2.586100 3.584400
-2.562900 3.910600
-2.539700 3.514400
-2.516500 3.251500
-2.493400 3.177100
-2.470200 2.592300
-2.447000 2.525600
-2.423800 2.511900
-2.400700 2.512000
-2.377500 2.652600
-2.354300 2.916000
-2.331100 2.947700
-2.308000 3.119500
-2.284800 3.346700
-2.261600 3.495000
-2.238400 3.971000
-2.215200 2.928300
-2.192100 2.287400
-2.168900 2.077600
-2.145700 2.081500
-2.122500 2.215400
-2.099400 2.258700
-2.076200 2.347000
-2.053000 2.438000
-2.029800 2.535800
-2.006700 3.000900
-1.983500 3.073400
-1.960300 3.162000
-1.937100 3.353500
-1.914000 3.536200
-1.890800 2.742000
-1.867600 2.633500
-1.844400 2.574900
-1.821300 2.500400
-1.798100 2.545300
-1.774900 2.356000
-1.751700 2.248500
-1.728600 2.179700
-1.705400 2.226800
-1.682200 1.961800
-1.659000 1.769400
-1.635900 1.919700
-1.612700 2.325600
-1.589500 3.133200
-1.566300 2.588600
-1.543200 3.263100
-1.520000 3.696500
-1.496800 3.847000
-1.473600 4.293200
-1.450500 4.416500
-1.427300 4.921900
-1.404100 5.143600
-1.380900 3.710500
-1.357800 3.518500
-1.334600 4.289100
-1.311400 4.583900
-1.288200 3.851700
-1.265100 2.927000
-1.241900 2.426300
-1.218700 2.365800
-1.195500 2.179900
-1.172400 2.329300
-1.149200 2.869400
-1.126000 2.949800
-1.102800 3.556500
-1.079600 4.026500
-1.056500 4.258700
-1.033300 5.268900
-1.010100 4.789200
-0.986900 4.672200
-0.963800 4.818200
-0.940600 4.630100
-0.917400 4.438300
-0.894200 4.397400
-0.871100 4.387400
-0.847900 3.837100
-0.824700 2.897200
-0.801500 2.553600
-0.778400 2.132600
-0.755200 1.682000
-0.732000 1.090300
-0.708800 1.057100
-0.685700 0.273200
-0.662500 0.039600
-0.639300 0.330900
-0.616100 3.377700
-0.593000 3.833400
-0.569800 4.130200
-0.546600 2.768400
-0.523400 1.746400
-0.500300 1.444300
-0.477100 1.551700
-0.453900 1.864300
-0.430700 2.119300
-0.407600 2.434100
-0.384400 3.156300
-0.361200 3.516800
-0.338000 3.261700
-0.314900 3.127500
-0.291700 3.231400
-0.268500 3.294600
-0.245300 3.126700
-0.222200 3.128800
-0.199000 3.114800
-0.175800 3.231900
-0.152600 3.389000
-0.129500 3.605900
-0.106300 4.074100
-0.083100 6.092500
-0.059900 6.993600
-0.036800 4.863600
-0.013600 3.376300
0.009600 2.636300
0.032800 2.264100
0.056000 2.013200
0.079100 1.884700
0.102300 1.829500
0.125500 1.790200
0.148700 1.736200
0.171800 1.818400
0.195000 1.788200
0.218200 1.846500
0.241400 1.950600
0.264500 1.720900
0.287700 1.567500
0.310900 1.462700
0.334100 1.406800
0.357200 1.518400
0.380400 1.615500
0.403600 1.568600
0.426800 1.477000
0.449900 1.636400
0.473100 3.550800
0.496300 0.929700
0.519500 0.033600
0.542600 0.000000
0.565800 0.085600
0.589000 0.175900
0.612200 0.251600
0.635300 0.337000
0.658500 0.420100
0.681700 0.488800
0.704900 0.565900
0.728000 0.665000
0.751200 1.178900
0.774400 4.432700
0.797600 3.764900
0.820700 3.860300
0.843900 4.095400
0.867100 5.307400
0.890300 5.748700
0.913400 10.048100
0.936600 4.212300
0.959800 4.642900
0.983000 3.614800
1.006100 3.906700
1.029300 5.280700
1.052500 5.307700
1.075700 5.781300
1.098800 5.744300
1.122000 4.707600
1.145200 4.356400
1.168400 4.342900
1.191600 4.859500
1.214700 6.030200
1.237900 7.444500
1.261100 5.959400
1.284300 2.614300
1.307400 2.612100
1.330600 2.154400
1.353800 1.459200
1.377000 1.153200
1.400100 0.943800
1.423300 0.783400
1.446500 0.655100
1.469700 0.367300
1.492800 0.126600
1.516000 0.000000
1.539200 0.000000
1.562400 0.000000
1.585500 0.000000
1.608700 0.000000
1.631900 0.000000
1.655100 0.000000
1.678200 0.000000
1.701400 0.000000
1.724600 0.000000
1.747800 0.000000
1.770900 0.000000
1.794100 0.000000
1.817300 0.000000
1.840500 0.000000
1.863600 0.000000
1.886800 0.000000
1.910000 0.000000
1.933200 0.000000
1.956300 0.000000
1.979500 0.000000
2.002700 0.000000
2.025900 0.000000
2.049000 0.000000
2.072200 0.000000
2.095400 0.000000
2.118600 0.000000
2.141700 0.000000
2.164900 0.000000
2.188100 0.000000
2.211300 0.000000
2.234400 0.000000
2.257600 0.000000
2.280800 0.000000
2.304000 0.000000
2.327200 0.000000
2.350300 0.000000
2.373500 0.000000
2.396700 0.000000
2.419900 0.000000
2.443000 0.000000
2.466200 0.000000
2.489400 0.000000
2.512600 0.000000
2.535700 0.000000
2.558900 0.000000
2.582100 0.000000
2.605300 0.000000
2.628400 0.000000
2.651600 0.000000
2.674800 0.000000
2.698000 0.000000
2.721100 0.000000
2.744300 0.000000
2.767500 0.000000
2.790700 0.000000
2.813800 0.000000
2.837000 0.000000
2.860200 0.000000
2.883400 0.000000
2.906500 0.000000
2.929700 0.000000
2.952900 0.000000
2.976100 0.000000
2.999200 0.000000
3.022400 0.000000
3.045600 0.000000
3.068800 0.000000
3.091900 0.000000
3.115100 0.000000
3.138300 0.000000
3.161500 0.000000
3.184600 0.000000
3.207800 0.000000
3.231000 0.000000
3.254200 0.000000
3.277300 0.000000
3.300500 0.000000
3.323700 0.000000
3.346900 0.000000
3.370000 0.000000
3.393200 0.000000
3.416400 0.000000
3.439600 0.000000
3.462800 0.000000
3.485900 0.000000
3.509100 0.000000
3.532300 0.000000
3.555500 0.000000
3.578600 0.000000
3.601800 0.000000
3.625000 0.000000
3.648200 0.000000
3.671300 0.000000
3.694500 0.000000
3.717700 0.000000
3.740900 0.000000
3.764000 0.000000
3.787200 0.000000
3.810400 0.000000
3.833600 0.000000
3.856700 0.000000
3.879900 0.000000
3.903100 0.000000
3.926300 0.000000
3.949400 0.000000
3.972600 0.000000
3.995800 0.000000
4.019000 0.000000
4.042100 0.000000
4.065300 0.000000
4.088500 0.000000
4.111700 0.000000
4.134800 0.000000
4.158000 0.000000
4.181200 0.000000
4.204400 0.000000
4.227500 0.000000
4.250700 0.000000
4.273900 0.000000
4.297100 0.000000
4.320200 0.000000
4.343400 0.000000
4.366600 0.000000
4.389800 0.000000
4.412900 0.000000
4.436100 0.000000
4.459300 0.000000
4.482500 0.000000
4.505600 0.000000
4.528800 0.000000
4.552000 0.000000
4.575200 0.000000
4.598400 0.000000
4.621500 0.000000
4.644700 0.000000
4.667900 0.000000
4.691100 0.000000
4.714200 0.000000
4.737400 0.000000
4.760600 0.000000
4.783800 0.000000
4.806900 0.000000
4.830100 0.000000
4.853300 0.000000
4.876500 0.000000
4.899600 0.000000
4.922800 0.000000
4.946000 0.000000
4.969200 0.000000
4.992300 0.000000
5.015500 0.000000
5.038700 0.000000
5.061900 0.000000
5.085000 0.000000
5.108200 0.000000
5.131400 0.000000
5.154600 0.000000
5.177700 0.000000
5.200900 0.000000
5.224100 0.000000
5.247300 0.000000
5.270400 0.000000
5.293600 0.000000
5.316800 0.000000
5.340000 0.000000
5.363100 0.000000
5.386300 0.000000
5.409500 0.000000
5.432700 0.000000
5.455800 0.000000
5.479000 0.000000
5.502200 0.000000
5.525400 0.000000
5.548500 0.000000
5.571700 0.000000
5.594900 0.000000
5.618100 0.000000
5.641200 0.000000
5.664400 0.000000
5.687600 0.000000
5.710800 0.000000
5.734000 0.000000
5.757100 0.000000
5.780300 0.000000
5.803500 0.000000
5.826700 0.000000
5.849800 0.000000
5.873000 0.000000
5.896200 0.000000
5.919400 0.000000
5.942500 0.000000
5.965700 0.000000
5.988900 0.000000
6.012100 0.000000
6.035200 0.000000
6.058400 0.000000
6.081600 0.000000
6.104800 0.000000
6.127900 0.000000
6.151100 0.000000
6.174300 0.000000
6.197500 0.000000
6.220600 0.000000
6.243800 0.000000
6.267000 0.000000
6.290200 0.000000
6.313300 0.000000
6.336500 0.000000
6.359700 0.000000
6.382900 0.000000
6.406000 0.000000
6.429200 0.000000
6.452400 0.000000
6.475600 0.000000
6.498700 0.000000
6.521900 0.000000
6.545100 0.000000
6.568300 0.000000
6.591400 0.000000
6.614600 0.000000
6.637800 0.000000
6.661000 0.000000
6.684100 0.000000
6.707300 0.000000
6.730500 0.000000
6.753700 0.000000
6.776800 0.000000
6.800000 0.000000
6.823200 0.000000
6.846400 0.000000
6.869500 0.000000
6.892700 0.000000
6.915900 0.000800
6.939100 0.004100
6.962300 0.009900
6.985400 0.018100
7.008600 0.027500
7.031800 0.037900
7.055000 0.049300
7.078100 0.061000
7.101300 0.063400
7.124500 0.064300
7.147700 0.063600
7.170800 0.068800
7.194000 0.074100
7.217200 0.079100
7.240400 0.083900
7.263500 0.088500
7.286700 0.092700
7.309900 0.096700
7.333100 0.100400
7.356200 0.104100
7.379400 0.109100
7.402600 0.114200
7.425800 0.119100
7.448900 0.123800
7.472100 0.128000
7.495300 0.132100
7.518500 0.136100
7.541600 0.139900
7.564800 0.143400
7.588000 0.146900
7.611200 0.150500
7.634300 0.154000
7.657500 0.157700
7.680700 0.162100
7.703900 0.166400
7.727000 0.170800
7.750200 0.175200
7.773400 0.179700
7.796600 0.184200
7.819700 0.188800
7.842900 0.193400
7.866100 0.198100
7.889300 0.202800
7.912400 0.207500
7.935600 0.212200
7.958800 0.216900
7.982000 0.221700
8.005100 0.226500
8.028300 0.231600
8.051500 0.236800
8.074700 0.242000
8.097900 0.247300
8.121000 0.252600
8.144200 0.257900
8.167400 0.263200
8.190600 0.268600
8.213700 0.274000
8.236900 0.279500
8.260100 0.285100
8.283300 0.290800
8.306400 0.296600
8.329600 0.302600
8.352800 0.309000
8.376000 0.315600
8.399100 0.322500
8.422300 0.329500
8.445500 0.336700
8.468700 0.343800
8.491800 0.350800
8.515000 0.357900
8.538200 0.365100
8.561400 0.372600
8.584500 0.380800
8.607700 0.389400
8.630900 0.398500
8.654100 0.408600
8.677200 0.419900
8.700400 0.432000
8.723600 0.445600
8.746800 0.466500
8.769900 0.487200
8.793100 0.507400
8.816300 0.527100
8.839500 0.546300
8.862600 0.571600
8.885800 0.598700
8.909000 0.609000
8.932200 0.616500
8.955300 0.621000
8.978500 0.622700
9.001700 0.619100
9.024900 0.611400
9.048000 0.601000
9.071200 0.608000
9.094400 0.633200
9.117600 0.678000
9.140700 0.641500
9.163900 0.595300
9.187100 0.582200
9.210300 0.570200
9.233500 0.558900
9.256600 0.539900
9.279800 0.532300
9.303000 0.524100
9.326200 0.515300
9.349300 0.505800
9.372500 0.495800
9.395700 0.485100
9.418900 0.474200
9.442000 0.462600
9.465200 0.453400
9.488400 0.443600
9.511600 0.433200
9.534700 0.421600
9.557900 0.409500
9.581100 0.420600
9.604300 0.447700
9.627400 0.481500
9.650600 0.438900
9.673800 0.440800
9.697000 0.444000
9.720100 0.450900
9.743300 0.458300
9.766500 0.462400
9.789700 0.465500
9.812800 0.470200
9.836000 0.477800
9.859200 0.486500
9.882400 0.496200
9.905500 0.507000
9.928700 0.518700
9.951900 0.531700
9.975100 0.541400
9.998200 0.566900
10.021400 0.553900
10.044600 0.628900
10.067800 0.801500
10.090900 0.729800
10.114100 0.763700
10.137300 0.800700
10.160500 0.857000
10.183600 0.856800
10.206800 0.851800
10.230000 0.870100
10.253200 0.886000
10.276300 0.895000
10.299500 0.913300
10.322700 0.950400
10.345900 0.988700
10.369100 1.031600
10.392200 1.098400
10.415400 1.102700
10.438600 1.095600
10.461800 1.077500
10.484900 1.049300
10.508100 0.998900
10.531300 0.978800
10.554500 0.974800
10.577600 0.995000
10.600800 1.016300
10.624000 1.027500
10.647200 1.036300
10.670300 1.061600
10.693500 1.107900
10.716700 1.156000
10.739900 1.239900
10.763000 1.368300
10.786200 1.512600
10.809400 1.700500
10.832600 1.555800
10.855700 1.561800
10.878900 1.572000
10.902100 1.581600
10.925300 1.603400
10.948400 1.650900
10.971600 1.703500
10.994800 1.804400
11.018000 1.965100
11.041100 2.135000
11.064300 2.315100
11.087500 2.391700
11.110700 2.296500
11.133800 1.995000
11.157000 1.977200
11.180200 1.918600
11.203400 1.756200
11.226500 1.670400
11.249700 1.629400
11.272900 1.561400
11.296100 1.523900
11.319200 1.667200
11.342400 1.933600
11.365600 2.228800
11.388800 2.465500
11.411900 2.442000
11.435100 2.132600
11.458300 2.033700
11.481500 2.034200
11.504700 1.988600
11.527800 1.889900
11.551000 1.817600
11.574200 1.732500
11.597400 1.724600
11.620500 1.735000
11.643700 1.759900
11.666900 1.860100
11.690100 2.022500
11.713200 2.071600
11.736400 2.103400
11.759600 2.219800
11.782800 2.372500
11.805900 2.468700
11.829100 2.183100
11.852300 1.824200
11.875500 1.717400
11.898600 1.659000
11.921800 1.598800
11.945000 1.542700
11.968200 1.499500
11.991300 1.457200
12.014500 1.406200
12.037700 1.372200
12.060900 1.339900
12.084000 1.297100
12.107200 1.259000
12.130400 1.218900
12.153600 1.183000
12.176700 1.152300
12.199900 1.128100
12.223100 1.412600
12.246300 1.580000
12.269400 1.729600
12.292600 1.708300
12.315800 1.619000
12.339000 1.490500
12.362100 1.421000
12.385300 1.331600
12.408500 1.318400
12.431700 1.316400
12.454800 1.214500
12.478000 1.189500
12.501200 1.179600
12.524400 1.172600
12.547500 1.170500
12.570700 1.215100
12.593900 1.271800
12.617100 1.339700
12.640300 1.414400
12.663400 1.395900
12.686600 1.243500
12.709800 1.198700
12.733000 1.171300
12.756100 1.145000
12.779300 1.122000
12.802500 1.120800
12.825700 1.164500
12.848800 1.249300
12.872000 1.317600
12.895200 1.365600
12.918400 1.294800
12.941500 0.875400
12.964700 0.632000
12.987900 0.526600
13.011100 0.500400
13.034200 0.483800
13.057400 0.487500
13.080600 0.497800
13.103800 0.524600
13.126900 0.587900
13.150100 0.683400
13.173300 0.768100
13.196500 0.838200
13.219600 0.967500
13.242800 1.184600
13.266000 1.534000
13.289200 1.733300
13.312300 1.726100
13.335500 1.655500
13.358700 1.487700
13.381900 1.187700
13.405000 1.142500
13.428200 1.231600
13.451400 1.306500
13.474600 1.343100
13.497700 1.455700
13.520900 1.439100
13.544100 1.387800
13.567300 1.534600
13.590400 1.606500
13.613600 1.436100
13.636800 1.451900
13.660000 1.433500
13.683100 1.466200
13.706300 1.328900
13.729500 1.280800
13.752700 1.201400
13.775900 1.141700
13.799000 1.102300
13.822200 1.063100
13.845400 1.039600
13.868600 1.020300
13.891700 1.003200
13.914900 0.990600
13.938100 0.981900
13.961300 0.975600
13.984400 1.000500
14.007600 1.100900
14.030800 1.260500
14.054000 1.314100
14.077100 1.359800
14.100300 1.394000
14.123500 1.439200
14.146700 1.473400
14.169800 1.518500
14.193000 1.605800
14.216200 1.712500
14.239400 1.888300
14.262500 2.188000
14.285700 2.522600
14.308900 2.819600
14.332100 3.303700
14.355200 3.921000
14.378400 4.978200
14.401600 6.286000
14.424800 6.511900
14.447900 7.047000
14.471100 6.372400
14.494300 4.886400
14.517500 3.774200
14.540600 3.718700
14.563800 3.988300
14.587000 4.203000
14.610200 3.933400
14.633300 3.700300
14.656500 3.810500
14.679700 4.056800
14.702900 5.015300
14.726000 4.389000
14.749200 3.756400
14.772400 2.843500
14.795600 2.596400
14.818700 2.660700
14.841900 2.921100
14.865100 3.218900
14.888300 3.303200
14.911500 3.444900
14.934600 3.861200
14.957800 3.585200
14.981000 2.981900
15.004200 2.748900
15.027300 1.607300
15.050500 1.007800
15.073700 0.958500
15.096900 1.064600
15.120000 1.111800
15.143200 1.628300
15.166400 1.210700
15.189600 1.265100
15.212700 1.227300
15.235900 1.304600
15.259100 1.245400
15.282300 1.268600
15.305400 1.325800
15.328600 1.372800
15.351800 1.451900
15.375000 1.517700
15.398100 1.595500
15.421300 1.712200
15.444500 1.894200
15.467700 2.131200
15.490800 3.520200
15.514000 3.556000
15.537200 3.478600
15.560400 3.651500
15.583500 3.590400
15.606700 3.508600
15.629900 3.085700
15.653100 3.014400
15.676200 3.076600
15.699400 3.356000
15.722600 3.636700
15.745800 2.185400
15.768900 2.295600
15.792100 2.499400
15.815300 2.706000
15.838500 2.651700
15.861600 3.371900
15.884800 2.867000
15.908000 2.734400
15.931200 2.641800
15.954300 2.364200
15.977500 2.552500
16.000700 2.096800
16.023900 1.880400
16.047100 1.725000
16.070200 1.642000
16.093400 1.583900
16.116600 1.524500
16.139800 1.432700
16.162900 1.353800
16.186100 1.341800
16.209300 1.428000
16.232500 1.512500
16.255600 1.588300
16.278800 1.703600
16.302000 1.847800
16.325200 1.975900
16.348300 1.994700
16.371500 2.056700
16.394700 2.165500
16.417900 2.198100
16.441000 2.360000
16.464200 2.427600
16.487400 2.853900
16.510600 2.901500
16.533700 2.972200
16.556900 2.691300
16.580100 2.688500
16.603300 2.188600
16.626400 2.339500
16.649600 2.664800
16.672800 2.748200
16.696000 2.445400
16.719100 2.008900
16.742300 1.886800
16.765500 1.911400
16.788700 1.980900
16.811800 2.124600
16.835000 2.222900
16.858200 2.411500
16.881400 2.338500
16.904500 2.252700
16.927700 2.198600
16.950900 2.057400
16.974100 1.993200
16.997200 1.938100
17.020400 1.717400
17.043600 1.542300
17.066800 1.426900
17.089900 1.345800
17.113100 1.291600
17.136300 1.264200
17.159500 1.244300
17.182600 1.240500
17.205800 1.233000
17.229000 1.404800
17.252200 1.353200
17.275400 1.351900
17.298500 1.378700
17.321700 1.425800
17.344900 1.483100
17.368100 1.540200
17.391200 1.532100
17.414400 1.591000
17.437600 1.657200
17.460800 1.603800
17.483900 1.506500
17.507100 1.457900
17.530300 1.394100
17.553500 1.334000
17.576600 1.271000
17.599800 1.208000
17.623000 1.172300
17.646200 1.170000
17.669300 1.114000
17.692500 1.055600
17.715700 1.011400
17.738900 0.990700
17.762000 0.980500
17.785200 0.974400
17.808400 0.974700
17.831600 0.980000
17.854700 0.989900
17.877900 1.004000
17.901100 1.029300
17.924300 1.077200
17.947400 0.990400
17.970600 0.960000
17.993800 0.960700
18.017000 0.995000
18.040100 1.002200
18.063300 1.012800
18.086500 1.019800
18.109700 1.030700
18.132800 1.058000
18.156000 1.091300
18.179200 1.156100
18.202400 1.114700
18.225500 1.130700
18.248700 1.114300
18.271900 1.110600
18.295100 1.126300
18.318200 1.168600
18.341400 1.258600
18.364600 1.330300
18.387800 1.439400
18.411000 1.475600
18.434100 1.548600
18.457300 1.663300
18.480500 1.702300
18.503700 1.681400
18.526800 1.565900
18.550000 1.702900
18.573200 2.362300
18.596400 2.190900
18.619500 2.183700
18.642700 1.639800
18.665900 1.572300
18.689100 1.529100
18.712200 1.505500
18.735400 1.500600
18.758600 1.594700
18.781800 1.747600
18.804900 1.877800
18.828100 1.980600
18.851300 2.087100
18.874500 2.386600
18.897600 2.289500
18.920800 1.974200
18.944000 1.764100
18.967200 1.633100
18.990300 1.637800
19.013500 1.642700
19.036700 1.560400
19.059900 1.538300
19.083000 1.557400
19.106200 1.603500
19.129400 1.608100
19.152600 1.612500
19.175700 1.614600
19.198900 1.622100
19.222100 1.640400
19.245300 1.676400
19.268400 1.716700
19.291600 1.753000
19.314800 1.764600
19.338000 1.740600
19.361100 1.732600
19.384300 1.732700
19.407500 1.724400
19.430700 1.739400
19.453800 1.722700
19.477000 1.732700
19.500200 1.743200
19.523400 1.802300
19.546600 1.877100
19.569700 1.987300
19.592900 2.076600
19.616100 2.205800
19.639300 2.270500
19.662400 2.385500
19.685600 2.338200
19.708800 2.218700
19.732000 2.017900
19.755100 1.821000
19.778300 1.803000
19.801500 1.749800
19.824700 1.538600
19.847800 1.350600
19.871000 1.229600
19.894200 1.138800
19.917400 1.057900
19.940500 1.053300
19.963700 1.076600
19.986900 1.005400
20.010100 0.941600
20.033200 0.879600
20.056400 0.865600
20.079600 0.862200
20.102800 0.869900
20.125900 0.984700
20.149100 0.978100
20.172300 0.995800
20.195500 1.091800
20.218600 1.116600
20.241800 1.188000
20.265000 1.246500
20.288200 1.268900
20.311300 1.281200
20.334500 1.284200
20.357700 1.293000
20.380900 1.301400
20.404000 1.277100
20.427200 1.265800
20.450400 1.271000
20.473600 1.291100
20.496700 1.332000
20.519900 1.392600
20.543100 1.520000
20.566300 1.568000
20.589400 1.811300
20.612600 1.618800
20.635800 1.677000
20.659000 1.737300
20.682200 1.734500
20.705300 1.846900
20.728500 2.173300
20.751700 2.709500
20.774900 3.048600
20.798000 3.120200
20.821200 2.912100
20.844400 2.854500
20.867600 3.631800
20.890700 3.706100
20.913900 3.726100
20.937100 4.314700
20.960300 3.287900
20.983400 2.483000
21.006600 1.925800
21.029800 1.698400
21.053000 1.448900
21.076100 1.323800
21.099300 1.373800
21.122500 1.514400
21.145700 1.588300
21.168800 1.565800
21.192000 1.624100
21.215200 1.774200
21.238400 1.843400
21.261500 1.901900
21.284700 1.984900
21.307900 2.039900
21.331100 2.240800
21.354200 2.218200
21.377400 2.326700
21.400600 2.380800
21.423800 2.419200
21.446900 2.422100
21.470100 2.398900
21.493300 2.343800
21.516500 2.309600
21.539600 2.253300
21.562800 2.186500
21.586000 2.104200
21.609200 2.020600
21.632300 1.982600
21.655500 1.974100
21.678700 2.005900
21.701900 2.014000
21.725000 2.004000
21.748200 1.961200
21.771400 1.942500
21.794600 1.943100
21.817800 1.939500
21.840900 1.917900
21.864100 1.879100
21.887300 1.962100
21.910500 2.093800
21.933600 2.122500
21.956800 2.183000
21.980000 2.281600
22.003200 2.372900
22.026300 2.434900
22.049500 2.462000
22.072700 2.279800
22.095900 2.187000
22.119000 2.018800
22.142200 1.919500
22.165400 1.861500
22.188600 1.876900
22.211700 2.093200
22.234900 1.989500
22.258100 1.742600
22.281300 1.624400
22.304400 1.480900
22.327600 1.374400
22.350800 1.291500
22.374000 1.223700
22.397100 1.200800
22.420300 1.314300
22.443500 1.266700
22.466700 1.288200
22.489800 1.341100
22.513000 1.403500
22.536200 1.462600
22.559400 1.535400
22.582500 1.664100
22.605700 1.851500
22.628900 2.011600
22.652100 2.061500
22.675200 1.920500
22.698400 1.680300
22.721600 1.457200
22.744800 1.292700
22.767900 1.208200
22.791100 1.147100
22.814300 1.169000
22.837500 1.239300
22.860600 0.948200
22.883800 0.822100
22.907000 0.758600
22.930200 0.692000
22.953400 0.635000
22.976500 0.562900
22.999700 0.500500
23.022900 0.436100
23.046100 0.362900
23.069200 0.315100
23.092400 0.271500
23.115600 0.231400
23.138800 0.193300
23.161900 0.156900
23.185100 0.121400
23.208300 0.073500
23.231500 0.040900
23.254600 0.022400
23.277800 0.006400
23.301000 0.001900
23.324200 0.000500
23.347300 0.000000
23.370500 0.000000
23.393700 0.000000
23.416900 0.000000
23.440000 0.000000
23.463200 0.000000
23.486400 0.000000
23.509600 0.000000
23.532700 0.000000
23.555900 0.000000
23.579100 0.000000
23.602300 0.000000
23.625400 0.000000
23.648600 0.000000
23.671800 0.000000
23.695000 0.000000
23.718100 0.000000
23.741300 0.000000
23.764500 0.000000
23.787700 0.000000
23.810800 0.000000
23.834000 0.000000
23.857200 0.000000
23.880400 0.000000
23.903500 0.000000
23.926700 0.000000
23.949900 0.000000
23.973100 0.000000
23.996200 0.000000
24.019400 0.000000
24.042600 0.000000
24.065800 0.000000
24.089000 0.000000
24.112100 0.000000
24.135300 0.000000
24.158500 0.000000
24.181700 0.000000
24.204800 0.000000
24.228000 0.000000
24.251200 0.000000
24.274400 0.000000
24.297500 0.000000
24.320700 0.000000
24.343900 0.000000
24.367100 0.000000
24.390200 0.000000
24.413400 0.000000
24.436600 0.000000
24.459800 0.000000
24.482900 0.000000
24.506100 0.000000
24.529300 0.000000
24.552500 0.000000
24.575600 0.000000
24.598800 0.000000
24.622000 0.000000
24.645200 0.000000
24.668300 0.000000
24.691500 0.000000
24.714700 0.000000
24.737900 0.000000
24.761000 0.000000
24.784200 0.000000
24.807400 0.000000
24.830600 0.000000
24.853700 0.000000
24.876900 0.000000
24.900100 0.000000
24.923300 0.000000
24.946400 0.000000
24.969600 0.000000
24.992800 0.000000
25.016000 0.000000
25.039100 0.000000
25.062300 0.000000
25.085500 0.000000
25.108700 0.000000
25.131800 0.000000
25.155000 0.000000
25.178200 0.000000
25.201400 0.000000
25.224600 0.000000
25.247700 0.000000
25.270900 0.000000
25.294100 0.000000
25.317300 0.000000
25.340400 0.000000
25.363600 0.000000
25.386800 0.000000
25.410000 0.000000
25.433100 0.000000
25.456300 0.000000
e
