set title 'mp-7048 - Density of States'
set xlabel 'Energy (eV)'
set ylabel 'DOS (states/eV)'
set grid
set xrange [-10:10]
set yrange [0:13.426]
set xzeroaxis lt -1
set terminal png size 800,600
set output 'mp-7048_dos_gnuplot.png'
plot '-' using 1:2 with lines title 'DOS'
-16.215200 0.000000
-16.189100 0.000000
-16.162900 0.000000
-16.136700 0.000000
-16.110500 0.000000
-16.084300 0.000000
-16.058100 0.000000
-16.031900 0.000000
-16.005700 0.000000
-15.979500 0.000000
-15.953300 0.000000
-15.927100 0.000000
-15.900900 0.000000
-15.874800 0.000000
-15.848600 0.000000
-15.822400 0.000000
-15.796200 0.000000
-15.770000 0.000000
-15.743800 0.000000
-15.717600 0.000000
-15.691400 0.000000
-15.665200 0.000000
-15.639000 0.000000
-15.612800 0.000000
-15.586600 0.000000
-15.560400 0.000000
-15.534300 0.000000
-15.508100 0.000000
-15.481900 0.000000
-15.455700 0.000000
-15.429500 0.000000
-15.403300 0.000000
-15.377100 0.000000
-15.350900 0.000000
-15.324700 0.000000
-15.298500 0.000000
-15.272300 0.000000
-15.246100 0.000000
-15.220000 0.000000
-15.193800 0.000000
-15.167600 0.000000
-15.141400 0.000000
-15.115200 0.000000
-15.089000 0.000000
-15.062800 0.000000
-15.036600 0.000000
-15.010400 0.000000
-14.984200 0.000000
-14.958000 0.000000
-14.931800 0.000000
-14.905600 0.000000
-14.879500 0.000000
-14.853300 0.000000
-14.827100 0.000000
-14.800900 0.000000
-14.774700 0.000000
-14.748500 0.000000
-14.722300 0.000000
-14.696100 0.000000
-14.669900 0.000000
-14.643700 0.000000
-14.617500 0.000000
-14.591300 0.000000
-14.565200 0.000000
-14.539000 0.000000
-14.512800 0.000000
-14.486600 0.000000
-14.460400 0.000000
-14.434200 0.000000
-14.408000 0.000000
-14.381800 0.000000
-14.355600 0.000000
-14.329400 0.000000
-14.303200 0.000000
-14.277000 0.000000
-14.250800 0.000000
-14.224700 0.000000
-14.198500 0.000000
-14.172300 0.000000
-14.146100 0.000000
-14.119900 0.000000
-14.093700 0.000000
-14.067500 0.000000
-14.041300 0.000000
-14.015100 0.000000
-13.988900 0.000000
-13.962700 0.000000
-13.936500 0.000000
-13.910400 0.000000
-13.884200 0.000000
-13.858000 0.000000
-13.831800 0.027300
-13.805600 0.176000
-13.779400 0.298200
-13.753200 0.437200
-13.727000 0.590800
-13.700800 0.740700
-13.674600 0.884700
-13.648400 1.033800
-13.622200 1.191100
-13.596000 1.300700
-13.569900 1.422400
-13.543700 1.611600
-13.517500 1.742700
-13.491300 1.893800
-13.465100 2.016300
-13.438900 2.089600
-13.412700 2.176500
-13.386500 2.243500
-13.360300 2.194900
-13.334100 2.058800
-13.307900 1.946400
-13.281700 1.839300
-13.255600 1.692900
-13.229400 1.481400
-13.203200 1.333300
-13.177000 1.375800
-13.150800 1.546400
-13.124600 1.646000
-13.098400 1.684400
-13.072200 1.748600
-13.046000 1.831800
-13.019800 1.914600
-12.993600 1.996700
-12.967400 2.091800
-12.941200 2.405600
-12.915100 2.665600
-12.888900 2.853800
-12.862700 3.006000
-12.836500 3.123600
-12.810300 3.178300
-12.784100 3.182400
-12.757900 3.147100
-12.731700 3.114300
-12.705500 3.111300
-12.679300 3.373800
-12.653100 3.606700
-12.626900 3.857000
-12.600800 4.048800
-12.574600 4.230700
-12.548400 4.328900
-12.522200 4.474100
-12.496000 4.670500
-12.469800 4.902200
-12.443600 5.202900
-12.417400 5.446100
-12.391200 5.849300
-12.365000 6.430300
-12.338800 7.062600
-12.312600 7.900600
-12.286400 8.748900
-12.260300 8.979100
-12.234100 8.659000
-12.207900 6.865700
-12.181700 5.192200
-12.155500 6.251600
-12.129300 7.645200
-12.103100 8.254400
-12.076900 6.399000
-12.050700 5.141500
-12.024500 5.057000
-11.998300 6.322100
-11.972100 6.008600
-11.946000 9.631300
-11.919800 9.530700
-11.893600 11.248300
-11.867400 11.657900
-11.841200 14.700800
-11.815000 7.542700
-11.788800 3.076700
-11.762600 3.606300
-11.736400 5.428000
-11.710200 10.086400
-11.684000 8.656900
-11.657800 5.521600
-11.631600 4.775800
-11.605500 5.978700
-11.579300 7.885100
-11.553100 10.406800
-11.526900 9.660900
-11.500700 10.116500
-11.474500 14.016600
-11.448300 17.501500
-11.422100 16.157000
-11.395900 9.165200
-11.369700 3.925300
-11.343500 1.560600
-11.317300 0.000000
-11.291200 0.000000
-11.265000 0.000000
-11.238800 0.000000
-11.212600 0.000000
-11.186400 0.000000
-11.160200 0.000000
-11.134000 0.000000
-11.107800 0.000000
-11.081600 0.000000
-11.055400 0.000000
-11.029200 0.000000
-11.003000 0.000000
-10.976800 0.000000
-10.950700 0.000000
-10.924500 0.000000
-10.898300 0.000000
-10.872100 0.000000
-10.845900 0.000000
-10.819700 0.000000
-10.793500 0.000000
-10.767300 0.000000
-10.741100 0.000000
-10.714900 0.000000
-10.688700 0.000000
-10.662500 0.000000
-10.636400 0.000000
-10.610200 0.000000
-10.584000 0.000000
-10.557800 0.000000
-10.531600 0.000000
-10.505400 0.000000
-10.479200 0.000000
-10.453000 0.000000
-10.426800 0.000000
-10.400600 0.000000
-10.374400 0.000000
-10.348200 0.000000
-10.322000 0.000000
-10.295900 0.000000
-10.269700 0.000000
-10.243500 0.000000
-10.217300 0.000000
-10.191100 0.000000
-10.164900 0.000000
-10.138700 0.000000
-10.112500 0.000000
-10.086300 0.000000
-10.060100 0.000000
-10.033900 0.000000
-10.007700 0.000000
-9.981600 0.000000
-9.955400 0.000000
-9.929200 0.000000
-9.903000 0.000000
-9.876800 0.000000
-9.850600 0.000000
-9.824400 0.000000
-9.798200 0.000000
-9.772000 0.000000
-9.745800 0.000000
-9.719600 0.000000
-9.693400 0.000000
-9.667200 0.000000
-9.641100 0.000000
-9.614900 0.000000
-9.588700 0.000000
-9.562500 0.000000
-9.536300 0.000000
-9.510100 0.000000
-9.483900 0.000000
-9.457700 0.000000
-9.431500 0.000000
-9.405300 0.000000
-9.379100 0.000000
-9.352900 0.000000
-9.326800 0.000000
-9.300600 0.000000
-9.274400 0.000000
-9.248200 0.000000
-9.222000 0.000000
-9.195800 0.000000
-9.169600 0.000000
-9.143400 0.000000
-9.117200 0.000000
-9.091000 0.000000
-9.064800 0.000000
-9.038600 0.000000
-9.012400 0.000000
-8.986300 0.000000
-8.960100 0.000000
-8.933900 0.000000
-8.907700 0.000000
-8.881500 0.000000
-8.855300 0.000000
-8.829100 0.000000
-8.802900 0.000000
-8.776700 0.000000
-8.750500 0.000000
-8.724300 0.000000
-8.698100 0.000000
-8.672000 0.000000
-8.645800 0.000000
-8.619600 0.000000
-8.593400 0.000000
-8.567200 0.000000
-8.541000 0.000000
-8.514800 0.000000
-8.488600 0.000000
-8.462400 0.000000
-8.436200 0.000000
-8.410000 0.000000
-8.383800 0.000000
-8.357600 0.000000
-8.331500 0.000000
-8.305300 0.000000
-8.279100 0.000000
-8.252900 0.000000
-8.226700 0.000000
-8.200500 0.000000
-8.174300 0.000000
-8.148100 0.000000
-8.121900 0.000000
-8.095700 0.000000
-8.069500 0.000000
-8.043300 0.000000
-8.017200 0.000000
-7.991000 0.000000
-7.964800 0.000000
-7.938600 0.000000
-7.912400 0.000000
-7.886200 0.000000
-7.860000 0.000000
-7.833800 0.000000
-7.807600 0.000000
-7.781400 0.000000
-7.755200 0.000000
-7.729000 0.000000
-7.702800 0.000000
-7.676700 0.000000
-7.650500 0.000000
-7.624300 0.000000
-7.598100 0.000000
-7.571900 0.000000
-7.545700 0.000000
-7.519500 0.000000
-7.493300 0.000000
-7.467100 0.000000
-7.440900 0.000000
-7.414700 0.000000
-7.388500 0.000000
-7.362400 0.000000
-7.336200 0.000000
-7.310000 0.000000
-7.283800 0.000000
-7.257600 0.000000
-7.231400 0.000000
-7.205200 0.000000
-7.179000 0.000000
-7.152800 0.000000
-7.126600 0.000000
-7.100400 0.000000
-7.074200 0.000000
-7.048000 0.000000
-7.021900 0.000000
-6.995700 0.000000
-6.969500 0.000000
-6.943300 0.000000
-6.917100 0.000000
-6.890900 0.000000
-6.864700 0.000000
-6.838500 0.000000
-6.812300 0.000000
-6.786100 0.000000
-6.759900 0.000000
-6.733700 0.000000
-6.707600 0.000000
-6.681400 0.000000
-6.655200 0.000000
-6.629000 0.000000
-6.602800 0.000000
-6.576600 0.000000
-6.550400 0.000000
-6.524200 0.000000
-6.498000 0.000000
-6.471800 0.000000
-6.445600 0.000000
-6.419400 0.000000
-6.393200 0.000000
-6.367100 0.000000
-6.340900 0.000000
-6.314700 0.000000
-6.288500 0.000000
-6.262300 0.000000
-6.236100 0.000000
-6.209900 0.000000
-6.183700 0.000000
-6.157500 0.000000
-6.131300 0.000000
-6.105100 0.000000
-6.078900 0.000000
-6.052800 0.000000
-6.026600 0.000000
-6.000400 0.000000
-5.974200 0.000000
-5.948000 0.000000
-5.921800 0.000000
-5.895600 0.000000
-5.869400 0.000000
-5.843200 0.000000
-5.817000 0.000000
-5.790800 0.000000
-5.764600 0.000000
-5.738400 0.000000
-5.712300 0.000000
-5.686100 0.000000
-5.659900 0.000000
-5.633700 0.000000
-5.607500 0.000000
-5.581300 0.000000
-5.555100 0.000000
-5.528900 0.000000
-5.502700 0.000000
-5.476500 0.000000
-5.450300 0.000000
-5.424100 0.000000
-5.398000 0.000000
-5.371800 0.000000
-5.345600 0.000000
-5.319400 0.000000
-5.293200 0.000000
-5.267000 0.000000
-5.240800 0.000000
-5.214600 0.000000
-5.188400 0.000000
-5.162200 0.000000
-5.136000 0.000000
-5.109800 0.000000
-5.083600 0.000000
-5.057500 0.000000
-5.031300 0.000000
-5.005100 0.000000
-4.978900 0.000000
-4.952700 0.000000
-4.926500 0.000000
-4.900300 0.000000
-4.874100 0.000000
-4.847900 0.000000
-4.821700 0.000000
-4.795500 0.000000
-4.769300 0.000000
-4.743200 0.000000
-4.717000 0.000000
-4.690800 0.000000
-4.664600 0.000000
-4.638400 0.000000
-4.612200 0.000000
-4.586000 0.000000
-4.559800 0.000000
-4.533600 0.000000
-4.507400 0.000000
-4.481200 0.000000
-4.455000 0.000000
-4.428800 0.000000
-4.402700 0.000000
-4.376500 0.000000
-4.350300 0.000000
-4.324100 0.000000
-4.297900 0.000000
-4.271700 0.000000
-4.245500 0.000000
-4.219300 0.000000
-4.193100 0.000000
-4.166900 0.000000
-4.140700 0.000000
-4.114500 0.000000
-4.088400 0.000000
-4.062200 0.000000
-4.036000 0.000000
-4.009800 0.000000
-3.983600 0.000000
-3.957400 0.000000
-3.931200 0.000000
-3.905000 0.000000
-3.878800 0.000000
-3.852600 0.000000
-3.826400 0.000000
-3.800200 0.000000
-3.774000 0.000000
-3.747900 0.000000
-3.721700 0.000000
-3.695500 0.000000
-3.669300 0.000000
-3.643100 0.000000
-3.616900 0.000000
-3.590700 0.000000
-3.564500 0.000000
-3.538300 0.000000
-3.512100 0.000000
-3.485900 0.000000
-3.459700 0.000000
-3.433600 0.000000
-3.407400 0.000000
-3.381200 0.000000
-3.355000 0.000000
-3.328800 0.000000
-3.302600 0.000000
-3.276400 0.000000
-3.250200 0.000000
-3.224000 0.000000
-3.197800 0.000000
-3.171600 0.000000
-3.145400 0.000000
-3.119200 0.000000
-3.093100 0.000000
-3.066900 0.000000
-3.040700 0.000000
-3.014500 0.000000
-2.988300 0.000000
-2.962100 0.000000
-2.935900 0.000000
-2.909700 0.000000
-2.883500 0.000000
-2.857300 0.000000
-2.831100 0.000000
-2.804900 0.000000
-2.778800 0.000000
-2.752600 0.000000
-2.726400 0.000000
-2.700200 0.000000
-2.674000 0.000000
-2.647800 0.000000
-2.621600 0.000000
-2.595400 0.000000
-2.569200 0.000000
-2.543000 0.000000
-2.516800 0.000000
-2.490600 0.000000
-2.464400 0.000000
-2.438300 0.000000
-2.412100 0.000000
-2.385900 0.000000
-2.359700 0.000000
-2.333500 0.000000
-2.307300 0.000000
-2.281100 0.000000
-2.254900 0.000000
-2.228700 0.000000
-2.202500 0.000000
-2.176300 0.000000
-2.150100 0.000000
-2.124000 0.000000
-2.097800 0.000000
-2.071600 0.000000
-2.045400 0.000000
-2.019200 0.000000
-1.993000 0.000000
-1.966800 0.000000
-1.940600 0.000000
-1.914400 0.000000
-1.888200 0.000000
-1.862000 0.000000
-1.835800 0.000000
-1.809600 0.000000
-1.783500 0.000000
-1.757300 0.000000
-1.731100 0.000000
-1.704900 0.000000
-1.678700 0.000000
-1.652500 0.000000
-1.626300 0.000000
-1.600100 0.000000
-1.573900 0.000000
-1.547700 0.000000
-1.521500 0.000000
-1.495300 0.000000
-1.469200 0.075700
-1.443000 0.279100
-1.416800 0.514800
-1.390600 0.684200
-1.364400 0.825700
-1.338200 1.037600
-1.312000 1.218000
-1.285800 1.400500
-1.259600 1.593100
-1.233400 1.807300
-1.207200 2.024000
-1.181000 2.230800
-1.154800 2.422000
-1.128700 2.638400
-1.102500 2.821700
-1.076300 3.020100
-1.050100 3.070300
-1.023900 3.121500
-0.997700 3.234800
-0.971500 3.549800
-0.945300 3.963800
-0.919100 4.241600
-0.892900 4.518200
-0.866700 4.767800
-0.840500 4.955400
-0.814400 5.081200
-0.788200 5.116300
-0.762000 5.464200
-0.735800 5.970800
-0.709600 6.193100
-0.683400 6.255100
-0.657200 6.282000
-0.631000 6.733000
-0.604800 7.357700
-0.578600 6.816300
-0.552400 6.391600
-0.526200 6.426900
-0.500000 6.488300
-0.473900 6.578500
-0.447700 6.103800
-0.421500 5.440300
-0.395300 4.513600
-0.369100 4.152100
-0.342900 3.842300
-0.316700 3.538600
-0.290500 3.072600
-0.264300 2.471500
-0.238100 2.391500
-0.211900 2.571600
-0.185700 2.853000
-0.159500 3.565100
-0.133400 5.392700
-0.107200 6.409000
-0.081000 6.991700
-0.054800 6.856200
-0.028600 5.870700
-0.002400 5.392100
0.023800 5.382300
0.050000 5.915700
0.076200 5.945300
0.102400 6.177600
0.128600 6.292300
0.154800 6.244400
0.180900 5.651500
0.207100 4.722300
0.233300 4.106700
0.259500 3.141600
0.285700 2.662800
0.311900 2.593100
0.338100 2.568300
0.364300 2.762500
0.390500 3.456800
0.416700 4.122100
0.442900 4.168600
0.469100 4.010000
0.495300 3.989200
0.521400 3.959500
0.547600 3.904100
0.573800 3.888000
0.600000 3.917100
0.626200 3.929400
0.652400 3.968900
0.678600 4.030800
0.704800 4.052300
0.731000 4.020000
0.757200 3.834400
0.783400 3.830500
0.809600 3.851000
0.835700 4.121900
0.861900 4.235600
0.888100 3.728200
0.914300 3.508900
0.940500 3.229800
0.966700 3.339700
0.992900 3.810400
1.019100 4.786000
1.045300 5.661600
1.071500 6.790800
1.097700 7.287800
1.123900 7.002500
1.150100 6.116500
1.176200 5.293000
1.202400 5.204700
1.228600 5.014700
1.254800 4.732700
1.281000 4.490900
1.307200 4.330700
1.333400 4.244000
1.359600 4.255300
1.385800 3.818600
1.412000 4.529400
1.438200 5.282800
1.464400 6.079000
1.490500 6.625500
1.516700 6.653600
1.542900 6.524500
1.569100 6.060700
1.595300 5.478800
1.621500 5.398300
1.647700 4.282700
1.673900 3.864200
1.700100 4.132200
1.726300 4.498300
1.752500 4.759600
1.778700 4.967100
1.804900 5.426600
1.831000 6.055800
1.857200 6.625900
1.883400 6.692200
1.909600 6.538800
1.935800 6.454500
1.962000 6.508100
1.988200 6.567900
2.014400 6.345400
2.040600 6.326300
2.066800 6.265900
2.093000 6.079600
2.119200 5.988100
2.145300 6.134700
2.171500 6.503500
2.197700 7.148400
2.223900 8.197200
2.250100 7.753700
2.276300 7.676800
2.302500 7.715700
2.328700 7.546300
2.354900 6.983600
2.381100 6.711100
2.407300 6.789700
2.433500 6.714600
2.459700 6.235200
2.485800 5.724500
2.512000 6.714400
2.538200 9.280700
2.564400 11.184600
2.590600 10.891100
2.616800 8.410500
2.643000 6.757200
2.669200 6.508500
2.695400 6.089500
2.721600 6.181700
2.747800 5.997600
2.774000 5.958400
2.800100 6.044800
2.826300 6.317900
2.852500 7.246500
2.878700 9.488500
2.904900 11.075800
2.931100 7.933100
2.957300 6.835100
2.983500 6.029700
3.009700 5.542100
3.035900 5.493100
3.062100 8.828900
3.088300 11.072600
3.114500 12.205200
3.140600 8.990900
3.166800 8.333100
3.193000 8.022500
3.219200 7.669600
3.245400 8.924000
3.271600 9.534400
3.297800 8.850300
3.324000 8.398500
3.350200 9.646300
3.376400 7.909300
3.402600 7.610900
3.428800 8.211000
3.454900 8.463400
3.481100 7.209400
3.507300 5.681500
3.533500 7.614300
3.559700 7.938500
3.585900 7.811100
3.612100 8.457100
3.638300 10.400700
3.664500 9.972100
3.690700 9.874700
3.716900 9.539500
3.743100 8.198500
3.769300 6.483300
3.795400 5.271400
3.821600 4.686300
3.847800 3.238800
3.874000 2.621200
3.900200 2.914900
3.926400 2.961400
3.952600 2.590100
3.978800 2.862300
4.005000 4.848300
4.031200 5.229800
4.057400 6.120900
4.083600 7.174100
4.109700 7.513000
4.135900 9.190600
4.162100 9.330000
4.188300 8.847800
4.214500 7.683800
4.240700 8.105900
4.266900 8.297800
4.293100 8.542400
4.319300 7.631800
4.345500 7.127300
4.371700 6.695900
4.397900 6.221500
4.424100 5.381000
4.450200 5.198400
4.476400 5.278200
4.502600 5.439400
4.528800 5.278900
4.555000 4.704900
4.581200 3.965400
4.607400 3.289900
4.633600 2.920700
4.659800 3.082700
4.686000 3.160100
4.712200 3.180000
4.738400 3.612900
4.764500 4.284000
4.790700 9.230700
4.816900 6.595100
4.843100 7.993800
4.869300 4.325500
4.895500 2.945200
4.921700 2.508600
4.947900 2.132900
4.974100 1.856700
5.000300 1.763000
5.026500 1.686400
5.052700 1.529900
5.078900 1.393000
5.105000 0.914700
5.131200 0.501900
5.157400 0.000000
5.183600 0.000000
5.209800 0.000000
5.236000 0.000000
5.262200 0.000000
5.288400 0.000000
5.314600 0.000000
5.340800 0.000000
5.367000 0.000000
5.393200 0.000000
5.419300 0.000000
5.445500 0.000000
5.471700 0.000000
5.497900 0.000000
5.524100 0.000000
5.550300 0.000000
5.576500 0.000000
5.602700 0.000000
5.628900 0.000000
5.655100 0.000000
5.681300 0.000000
5.707500 0.000000
5.733700 0.000000
5.759800 0.000000
5.786000 0.000000
5.812200 0.000000
5.838400 0.000000
5.864600 0.000000
5.890800 0.000000
5.917000 0.000000
5.943200 0.000000
5.969400 0.000000
5.995600 0.000000
6.021800 0.000000
6.048000 0.000000
6.074100 0.000000
6.100300 0.000000
6.126500 0.000000
6.152700 0.000000
6.178900 0.000000
6.205100 0.000000
6.231300 0.000000
6.257500 0.000000
6.283700 0.000000
6.309900 0.000000
6.336100 0.000000
6.362300 0.000000
6.388500 0.000000
6.414600 0.000000
6.440800 0.000000
6.467000 0.000000
6.493200 0.000000
6.519400 0.000000
6.545600 0.000000
6.571800 0.000000
6.598000 0.000000
6.624200 0.000000
6.650400 0.000000
6.676600 0.000000
6.702800 0.000000
6.728900 0.000000
6.755100 0.000000
6.781300 0.000000
6.807500 0.000000
6.833700 0.000000
6.859900 0.000000
6.886100 0.000000
6.912300 0.000000
6.938500 0.000000
6.964700 0.000000
6.990900 0.000000
7.017100 0.000000
7.043300 0.000000
7.069400 0.000000
7.095600 0.000000
7.121800 0.000000
7.148000 0.000000
7.174200 0.000000
7.200400 0.000000
7.226600 0.000000
7.252800 0.000000
7.279000 0.000000
7.305200 0.000000
7.331400 0.000000
7.357600 0.000000
7.383700 0.000000
7.409900 0.000000
7.436100 0.000000
7.462300 0.000000
7.488500 0.000000
7.514700 0.000000
7.540900 0.000000
7.567100 0.000000
7.593300 0.000000
7.619500 0.000000
7.645700 0.000000
7.671900 0.000000
7.698100 0.000000
7.724200 0.000000
7.750400 0.000000
7.776600 0.000000
7.802800 0.000000
7.829000 0.000000
7.855200 0.000000
7.881400 0.000000
7.907600 0.000000
7.933800 0.000000
7.960000 0.000000
7.986200 0.000000
8.012400 0.000000
8.038500 0.000000
8.064700 0.000000
8.090900 0.000000
8.117100 0.000000
8.143300 0.000000
8.169500 0.000000
8.195700 0.000000
8.221900 0.000000
8.248100 0.000000
8.274300 0.000000
8.300500 0.000000
8.326700 0.000000
8.352900 0.000000
8.379000 0.000000
8.405200 0.000000
8.431400 0.000000
8.457600 0.000000
8.483800 0.000000
8.510000 0.000000
8.536200 0.000000
8.562400 0.000000
8.588600 0.000000
8.614800 0.000000
8.641000 0.000000
8.667200 0.000000
8.693300 0.000000
8.719500 0.000000
8.745700 0.000000
8.771900 0.000000
8.798100 0.000000
8.824300 0.000000
8.850500 0.000000
8.876700 0.000000
8.902900 0.000000
8.929100 0.000000
8.955300 0.000000
8.981500 0.000000
9.007700 0.000000
9.033800 0.000000
9.060000 0.000000
9.086200 0.000000
9.112400 0.000000
9.138600 0.000000
9.164800 0.000000
9.191000 0.000000
9.217200 0.000000
9.243400 0.000000
9.269600 0.000000
9.295800 0.000000
9.322000 0.000000
9.348100 0.000000
9.374300 0.000000
9.400500 0.000000
9.426700 0.000000
9.452900 0.000000
9.479100 0.000000
9.505300 0.000000
9.531500 0.000000
9.557700 0.000000
9.583900 0.000000
9.610100 0.000000
9.636300 0.000000
9.662500 0.000000
9.688600 0.000000
9.714800 0.000000
9.741000 0.000000
9.767200 0.003600
9.793400 0.015100
9.819600 0.023100
9.845800 0.027900
9.872000 0.032500
9.898200 0.037300
9.924400 0.042200
9.950600 0.047300
9.976800 0.052600
10.002900 0.058100
10.029100 0.063800
10.055300 0.069700
10.081500 0.075800
10.107700 0.082000
10.133900 0.088500
10.160100 0.095100
10.186300 0.102000
10.212500 0.109000
10.238700 0.116200
10.264900 0.123600
10.291100 0.131100
10.317300 0.138900
10.343400 0.146800
10.369600 0.154700
10.395800 0.162700
10.422000 0.170800
10.448200 0.179000
10.474400 0.187600
10.500600 0.196400
10.526800 0.205500
10.553000 0.214600
10.579200 0.224000
10.605400 0.233400
10.631600 0.243000
10.657700 0.252800
10.683900 0.262700
10.710100 0.272800
10.736300 0.282800
10.762500 0.290800
10.788700 0.298800
10.814900 0.306900
10.841100 0.315100
10.867300 0.323500
10.893500 0.332000
10.919700 0.340600
10.945900 0.349400
10.972100 0.358300
10.998200 0.367300
11.024400 0.376300
11.050600 0.385500
11.076800 0.395900
11.103000 0.408000
11.129200 0.421600
11.155400 0.437000
11.181600 0.453900
11.207800 0.473500
11.234000 0.497000
11.260200 0.517500
11.286400 0.539400
11.312500 0.563600
11.338700 0.589800
11.364900 0.606000
11.391100 0.621600
11.417300 0.636700
11.443500 0.651200
11.469700 0.665500
11.495900 0.679000
11.522100 0.691900
11.548300 0.704000
11.574500 0.715500
11.600700 0.726300
11.626900 0.736300
11.653000 0.745700
11.679200 0.774900
11.705400 0.820900
11.731600 0.863000
11.757800 0.905400
11.784000 0.944300
11.810200 0.980000
11.836400 1.012600
11.862600 1.041200
11.888800 1.067400
11.915000 1.092500
11.941200 1.116300
11.967300 1.140800
11.993500 1.237400
12.019700 1.378000
12.045900 1.482600
12.072100 1.600200
12.098300 1.805700
12.124500 2.020600
12.150700 2.217500
12.176900 2.410300
12.203100 2.604300
12.229300 2.814200
12.255500 3.008600
12.281700 2.802800
12.307800 2.824600
12.334000 2.870900
12.360200 2.868200
12.386400 2.864700
12.412600 2.932100
12.438800 3.044800
12.465000 3.101200
12.491200 3.154600
12.517400 3.223000
12.543600 3.268500
12.569800 3.835300
12.596000 4.125700
12.622100 3.997500
12.648300 3.954700
12.674500 3.890600
12.700700 3.848100
12.726900 3.780800
12.753100 3.758400
12.779300 3.846700
12.805500 3.855400
12.831700 3.586500
12.857900 3.359700
12.884100 2.674000
12.910300 2.429400
12.936500 2.430200
12.962600 2.446300
12.988800 2.519200
13.015000 2.552900
13.041200 2.554200
13.067400 2.513600
13.093600 2.463300
13.119800 2.437100
13.146000 2.435000
13.172200 2.480400
13.198400 2.721400
13.224600 3.506200
13.250800 1.906500
13.276900 1.267500
13.303100 1.286500
13.329300 1.306600
13.355500 1.328600
13.381700 1.360200
13.407900 1.402500
13.434100 1.458100
13.460300 1.529800
13.486500 1.607600
13.512700 1.668100
13.538900 1.731600
13.565100 1.798000
13.591300 1.888100
13.617400 2.032600
13.643600 2.231400
13.669800 2.471900
13.696000 3.249900
13.722200 3.997700
13.748400 3.694800
13.774600 3.462300
13.800800 3.367600
13.827000 3.363200
13.853200 3.620500
13.879400 4.374300
13.905600 4.157900
13.931700 4.009900
13.957900 4.390600
13.984100 4.581900
14.010300 4.781100
14.036500 4.503500
14.062700 3.861800
14.088900 3.290500
14.115100 3.164200
14.141300 3.063500
14.167500 2.985600
14.193700 2.879100
14.219900 2.791800
14.246100 2.818400
14.272200 2.814200
14.298400 2.822600
14.324600 2.843000
14.350800 2.845000
14.377000 2.939300
14.403200 3.079600
14.429400 3.324300
14.455600 3.624000
14.481800 3.898900
14.508000 3.992600
14.534200 4.034400
14.560400 4.095300
14.586500 4.344900
14.612700 4.755700
14.638900 5.051400
14.665100 5.041500
14.691300 4.774200
14.717500 4.701900
14.743700 4.660500
14.769900 4.762500
14.796100 5.072400
14.822300 4.594200
14.848500 4.413500
14.874700 4.092900
14.900900 3.939900
14.927000 3.776600
14.953200 3.547200
14.979400 3.190800
15.005600 3.327400
15.031800 2.751400
15.058000 2.582600
15.084200 2.679100
15.110400 2.193800
15.136600 2.098000
15.162800 2.010900
15.189000 1.935800
15.215200 1.922000
15.241300 1.932000
15.267500 1.958600
15.293700 2.004200
15.319900 2.084200
15.346100 2.129300
15.372300 2.263700
15.398500 2.439700
15.424700 2.725800
15.450900 3.111000
15.477100 3.416900
15.503300 3.481800
15.529500 3.413200
15.555700 3.009900
15.581800 2.952000
15.608000 2.895800
15.634200 2.618900
15.660400 2.268200
15.686600 2.100400
15.712800 1.948500
15.739000 1.800900
15.765200 1.663200
15.791400 1.547300
15.817600 1.548200
15.843800 1.589700
15.870000 1.696300
15.896100 1.843800
15.922300 2.049900
15.948500 2.373900
15.974700 2.815100
16.000900 3.464700
16.027100 4.703000
16.053300 6.398900
16.079500 7.130100
16.105700 6.228800
16.131900 5.291800
16.158100 4.997500
16.184300 4.864500
16.210500 4.822800
16.236600 4.713400
16.262800 4.734200
16.289000 4.413300
16.315200 4.266600
16.341400 4.169000
16.367600 4.207500
16.393800 4.368400
16.420000 4.810800
16.446200 4.786800
16.472400 4.651800
16.498600 4.486300
16.524800 4.327300
16.550900 4.215400
16.577100 3.832400
16.603300 3.438000
16.629500 3.374000
16.655700 3.337600
16.681900 4.056100
16.708100 3.431300
16.734300 3.407500
16.760500 3.668800
16.786700 3.663800
16.812900 3.591900
16.839100 3.430900
16.865300 3.340600
16.891400 3.362900
16.917600 3.449600
16.943800 3.632300
16.970000 3.712300
16.996200 4.005600
17.022400 3.984800
17.048600 3.746100
17.074800 3.666300
17.101000 3.832600
17.127200 3.999800
17.153400 4.660300
17.179600 7.645000
17.205700 7.762700
17.231900 7.477200
17.258100 6.957200
17.284300 6.481100
17.310500 6.153000
17.336700 6.013600
17.362900 5.420600
17.389100 4.800300
17.415300 4.215200
17.441500 4.204200
17.467700 4.540900
17.493900 4.786500
17.520100 5.051300
17.546200 5.424900
17.572400 5.582100
17.598600 5.440200
17.624800 5.158400
17.651000 4.880600
17.677200 4.248800
17.703400 3.998300
17.729600 3.762300
17.755800 3.549200
17.782000 3.431300
17.808200 3.421000
17.834400 3.529200
17.860500 3.830000
17.886700 4.027200
17.912900 4.021400
17.939100 3.851300
17.965300 3.633200
17.991500 3.529300
18.017700 3.691300
18.043900 3.817500
18.070100 4.267600
18.096300 4.998300
18.122500 5.552200
18.148700 5.241800
18.174900 4.716600
18.201000 4.616200
18.227200 4.597800
18.253400 4.799900
18.279600 5.351700
18.305800 6.081600
18.332000 6.614200
18.358200 6.130500
18.384400 6.437400
18.410600 6.218900
18.436800 5.630900
18.463000 5.064900
18.489200 5.014200
18.515300 5.093600
18.541500 5.445400
18.567700 6.306800
18.593900 7.240300
18.620100 7.420300
18.646300 7.431300
18.672500 7.482600
18.698700 7.200200
18.724900 7.349300
18.751100 6.891300
18.777300 6.917000
18.803500 6.934200
18.829700 6.940800
18.855800 6.968100
18.882000 7.133700
18.908200 7.347800
18.934400 7.446600
18.960600 7.612200
18.986800 7.841600
19.013000 7.511100
19.039200 7.767400
19.065400 7.866700
19.091600 7.423200
19.117800 7.290400
19.144000 7.136400
19.170100 6.891300
19.196300 6.023900
19.222500 5.699900
19.248700 5.535800
19.274900 5.508900
19.301100 5.511300
19.327300 5.538400
19.353500 5.524600
19.379700 5.620000
19.405900 5.731300
19.432100 5.855000
19.458300 5.992500
19.484500 6.467800
19.510600 6.179300
19.536800 5.691300
19.563000 5.619600
19.589200 5.335800
19.615400 5.084000
19.641600 5.045000
19.667800 5.169700
19.694000 5.339900
19.720200 5.588300
19.746400 5.877300
19.772600 5.897300
19.798800 5.395000
19.824900 5.122400
19.851100 4.936800
19.877300 4.600500
19.903500 4.076600
19.929700 3.608200
19.955900 3.310800
19.982100 3.198600
20.008300 3.092700
20.034500 2.975600
20.060700 2.893600
20.086900 2.837100
20.113100 2.774300
20.139300 2.690300
20.165400 2.594600
20.191600 2.537700
20.217800 2.489200
20.244000 2.450200
20.270200 2.412500
20.296400 2.392600
20.322600 2.438800
20.348800 2.508600
20.375000 2.952800
20.401200 3.111700
20.427400 3.086300
20.453600 3.037700
20.479700 2.973800
20.505900 2.900500
20.532100 2.818900
20.558300 2.773200
20.584500 2.737400
20.610700 2.709900
20.636900 2.814100
20.663100 2.824400
20.689300 2.836500
20.715500 2.834000
20.741700 2.934000
20.767900 3.128400
20.794100 3.310700
20.820200 3.647300
20.846400 3.880800
20.872600 4.190500
20.898800 4.748500
20.925000 4.762200
20.951200 4.971800
20.977400 4.946300
21.003600 4.905800
21.029800 4.791000
21.056000 4.628700
21.082200 3.754100
21.108400 3.864100
21.134500 4.645200
21.160700 3.761200
21.186900 3.778000
21.213100 3.987200
21.239300 4.155800
21.265500 4.223600
21.291700 4.326700
21.317900 4.343600
21.344100 4.446400
21.370300 4.547100
21.396500 4.648100
21.422700 4.353100
21.448900 3.927000
21.475000 3.614500
21.501200 3.298600
21.527400 2.842500
21.553600 2.649000
21.579800 2.569200
21.606000 2.533000
21.632200 2.796600
21.658400 2.659000
21.684600 2.532400
21.710800 2.403900
21.737000 2.294900
21.763200 2.248200
21.789300 2.281200
21.815500 2.373800
21.841700 2.513700
21.867900 2.677900
21.894100 2.847400
21.920300 3.120400
21.946500 3.300800
21.972700 3.234900
21.998900 2.950800
22.025100 2.742700
22.051300 2.745700
22.077500 2.822200
22.103700 2.725000
22.129800 2.679300
22.156000 2.679300
22.182200 2.701700
22.208400 2.763600
22.234600 3.038800
22.260800 2.499400
22.287000 2.260700
22.313200 2.335900
22.339400 2.744300
22.365600 3.623100
22.391800 4.069100
22.418000 4.804200
22.444100 4.684900
22.470300 4.839400
22.496500 4.533300
22.522700 4.421200
22.548900 4.359500
22.575100 3.968300
22.601300 3.062700
22.627500 2.415700
22.653700 1.987100
22.679900 1.765900
22.706100 1.663400
22.732300 1.638000
22.758500 1.723800
22.784600 1.893500
22.810800 2.332200
22.837000 2.449300
22.863200 2.447100
22.889400 2.313100
22.915600 2.218400
22.941800 2.232300
22.968000 2.331400
22.994200 2.397300
23.020400 2.510100
23.046600 3.104200
23.072800 3.301800
23.098900 3.506100
23.125100 3.738000
23.151300 4.104600
23.177500 4.450200
23.203700 4.527900
23.229900 4.580400
23.256100 4.723300
23.282300 4.641400
23.308500 4.513600
23.334700 4.449000
23.360900 4.421400
23.387100 4.349200
23.413300 4.219500
23.439400 4.172100
23.465600 4.365400
23.491800 4.236500
23.518000 3.992800
23.544200 4.090800
23.570400 3.026800
23.596600 2.899900
23.622800 2.915400
23.649000 3.024700
23.675200 3.206300
23.701400 3.625000
23.727600 4.191600
23.753700 3.963600
23.779900 2.909200
23.806100 3.061700
23.832300 2.648100
23.858500 2.599600
23.884700 2.551200
23.910900 2.503800
23.937100 2.458300
23.963300 2.412800
23.989500 2.362900
24.015700 2.336800
24.041900 2.375300
24.068100 2.306900
24.094200 2.246700
24.120400 2.208900
24.146600 2.197200
24.172800 2.213400
24.199000 2.258900
24.225200 2.361900
24.251400 2.571800
24.277600 2.909200
24.303800 3.464700
24.330000 3.881000
24.356200 3.233600
24.382400 3.031000
24.408500 2.859100
24.434700 2.932600
24.460900 3.216600
24.487100 3.195800
24.513300 3.001500
24.539500 2.856100
24.565700 2.881300
24.591900 2.946600
24.618100 3.058100
24.644300 3.394400
24.670500 4.041600
24.696700 4.368600
24.722900 4.326200
24.749000 4.333400
24.775200 4.488800
24.801400 4.703400
24.827600 4.776100
24.853800 4.777500
24.880000 4.797000
24.906200 4.493800
24.932400 4.160400
24.958600 4.054600
24.984800 3.871200
25.011000 3.703800
25.037200 3.658000
25.063300 3.826900
25.089500 4.033800
25.115700 4.024700
25.141900 3.858200
25.168100 3.846200
25.194300 4.235300
25.220500 3.942900
25.246700 3.718400
25.272900 3.533200
25.299100 3.309700
25.325300 3.293900
25.351500 3.854700
25.377700 3.470000
25.403800 3.441300
25.430000 3.444100
25.456200 3.610300
25.482400 3.805100
25.508600 3.706300
25.534800 3.637400
25.561000 3.898200
25.587200 3.869800
25.613400 3.952400
25.639600 3.730300
25.665800 3.171200
25.692000 2.958800
25.718100 3.037600
25.744300 3.202500
25.770500 3.347200
25.796700 3.463400
25.822900 3.838000
25.849100 4.317400
25.875300 4.769800
25.901500 4.295800
25.927700 4.258800
25.953900 4.315900
25.980100 4.305800
26.006300 4.186400
26.032500 3.980200
26.058600 3.779100
26.084800 3.623700
26.111000 3.501200
26.137200 3.385500
26.163400 3.292800
26.189600 3.223200
26.215800 3.227100
26.242000 3.138300
26.268200 3.018000
26.294400 2.918100
26.320600 2.837900
26.346800 2.787900
26.372900 2.784800
26.399100 2.836700
26.425300 2.892300
26.451500 2.844000
26.477700 2.903900
26.503900 2.976100
26.530100 3.014600
26.556300 3.104100
26.582500 3.245800
26.608700 3.695700
26.634900 3.633500
26.661100 3.721600
26.687300 3.887500
26.713400 4.243200
26.739600 4.512800
26.765800 4.662500
26.792000 4.846500
26.818200 5.058100
26.844400 5.225700
26.870600 4.990500
26.896800 4.666200
26.923000 4.354500
26.949200 4.202000
26.975400 3.784900
27.001600 3.316700
27.027700 3.183300
27.053900 3.146600
27.080100 3.146800
27.106300 3.126700
27.132500 3.139100
27.158700 3.153400
27.184900 3.206700
27.211100 3.289400
27.237300 3.394700
27.263500 3.539200
27.289700 3.740100
27.315900 3.966100
27.342100 4.206800
27.368200 4.469600
27.394400 4.619500
27.420600 4.637800
27.446800 4.561600
27.473000 4.562400
27.499200 4.565800
27.525400 4.425200
27.551600 4.189400
27.577800 4.119000
27.604000 4.224300
27.630200 3.757000
27.656400 3.553300
27.682500 3.390900
27.708700 3.296300
27.734900 3.262300
27.761100 3.245300
27.787300 3.146900
27.813500 3.125500
27.839700 3.162800
27.865900 3.220600
27.892100 3.313300
27.918300 3.355900
27.944500 3.594900
27.970700 3.505000
27.996900 3.713600
28.023000 3.964200
28.049200 3.889400
28.075400 3.728700
28.101600 3.662200
28.127800 3.648800
28.154000 3.683900
28.180200 3.751300
28.206400 3.806400
28.232600 3.778000
28.258800 4.051100
28.285000 4.027900
28.311200 3.812400
28.337300 3.624500
28.363500 3.527800
28.389700 3.540100
28.415900 3.677800
28.442100 3.645800
28.468300 3.542600
28.494500 3.549000
28.520700 3.668900
28.546900 3.787900
28.573100 3.856600
28.599300 3.902900
28.625500 4.104800
28.651700 4.037300
28.677800 4.017600
28.704000 4.098400
28.730200 4.224500
28.756400 4.329000
28.782600 4.461200
28.808800 4.576800
28.835000 4.443000
28.861200 4.146000
28.887400 3.961000
28.913600 3.818800
28.939800 3.770200
28.966000 3.850900
28.992100 3.794700
29.018300 3.842000
29.044500 3.607900
29.070700 3.486400
29.096900 3.358200
29.123100 3.223700
29.149300 3.112000
29.175500 2.975000
29.201700 2.920700
29.227900 2.923500
29.254100 2.939900
29.280300 2.985200
29.306500 3.129600
29.332600 3.143900
29.358800 3.222000
29.385000 3.028400
29.411200 3.048000
29.437400 3.063600
29.463600 3.039300
29.489800 2.990600
29.516000 2.969400
29.542200 2.977800
29.568400 3.005400
29.594600 3.071500
29.620800 3.218100
29.646900 3.454000
29.673100 3.692700
29.699300 3.908000
29.725500 4.099200
29.751700 4.252100
29.777900 4.098200
29.804100 3.764400
29.830300 3.646100
29.856500 3.678000
29.882700 3.666900
29.908900 3.490500
29.935100 3.400300
29.961300 3.308600
29.987400 3.133800
30.013600 3.054000
30.039800 3.058600
30.066000 3.061000
30.092200 3.381700
30.118400 3.120800
30.144600 3.090100
30.170800 3.130800
30.197000 3.175000
30.223200 3.145600
30.249400 3.111800
30.275600 3.078100
30.301700 3.064400
30.327900 3.059000
30.354100 3.084200
30.380300 3.116300
30.406500 3.106000
30.432700 3.031300
30.458900 3.101900
30.485100 3.362400
30.511300 2.997400
30.537500 2.879100
30.563700 2.853500
30.589900 2.857600
30.616100 2.883800
30.642200 2.906700
30.668400 2.937900
30.694600 2.976400
30.720800 3.063700
30.747000 3.152600
30.773200 3.228200
30.799400 3.314500
30.825600 3.385400
30.851800 3.464900
30.878000 3.622300
30.904200 3.648400
30.930400 3.664600
30.956500 3.675100
30.982700 3.652700
31.008900 4.533600
31.035100 3.465000
31.061300 3.359900
31.087500 3.274600
31.113700 3.262800
31.139900 3.310800
31.166100 3.393000
31.192300 3.450800
31.218500 3.491800
31.244700 3.587700
31.270900 3.663200
31.297000 3.656600
31.323200 3.566900
31.349400 3.479300
31.375600 3.559000
31.401800 3.673600
31.428000 3.818800
31.454200 3.956100
31.480400 4.059900
31.506600 4.111600
31.532800 4.161100
31.559000 4.183500
31.585200 4.127900
31.611300 4.025600
31.637500 3.972300
31.663700 3.853400
31.689900 3.770100
31.716100 3.741000
31.742300 3.695200
31.768500 3.704700
31.794700 3.851500
31.820900 4.071100
31.847100 4.049700
31.873300 4.020600
31.899500 4.055500
31.925700 4.083000
31.951800 4.107400
31.978000 4.148200
32.004200 4.190900
32.030400 4.145500
32.056600 4.037300
32.082800 3.905200
32.109000 3.820100
32.135200 3.756800
32.161400 3.725400
32.187600 3.684300
32.213800 3.618500
32.240000 3.646000
32.266100 3.633700
32.292300 3.580000
32.318500 3.535100
32.344700 3.532100
32.370900 3.612100
32.397100 3.728900
32.423300 4.248300
32.449500 3.959400
32.475700 4.047000
32.501900 4.157700
32.528100 4.180000
32.554300 4.095500
32.580500 3.892400
32.606600 3.436600
32.632800 3.122800
32.659000 3.018300
32.685200 3.010600
32.711400 3.012500
32.737600 3.002100
32.763800 2.986900
32.790000 2.981700
32.816200 2.979200
32.842400 3.023800
32.868600 3.103600
32.894800 3.208100
32.920900 3.286400
32.947100 3.371600
32.973300 3.376700
32.999500 3.411000
33.025700 3.155600
33.051900 2.985800
33.078100 2.966600
33.104300 2.821700
33.130500 2.927900
33.156700 3.268600
33.182900 3.075600
33.209100 2.825500
33.235300 2.509300
33.261400 2.280000
33.287600 2.232000
33.313800 2.206600
33.340000 2.202700
33.366200 2.217800
33.392400 2.168300
33.418600 1.950800
33.444800 1.719600
33.471000 1.362700
33.497200 1.151700
33.523400 1.026800
33.549600 0.937200
33.575700 0.832500
33.601900 0.664500
33.628100 0.497000
33.654300 0.385900
33.680500 0.277100
33.706700 0.108700
33.732900 0.042500
33.759100 0.011600
33.785300 0.000100
33.811500 0.000000
33.837700 0.000000
33.863900 0.000000
33.890100 0.000000
33.916200 0.000000
33.942400 0.000000
33.968600 0.000000
33.994800 0.000000
34.021000 0.000000
34.047200 0.000000
34.073400 0.000000
34.099600 0.000000
34.125800 0.000000
34.152000 0.000000
34.178200 0.000000
34.204400 0.000000
34.230500 0.000000
34.256700 0.000000
34.282900 0.000000
34.309100 0.000000
34.335300 0.000000
34.361500 0.000000
34.387700 0.000000
34.413900 0.000000
34.440100 0.000000
34.466300 0.000000
34.492500 0.000000
34.518700 0.000000
34.544900 0.000000
34.571000 0.000000
34.597200 0.000000
34.623400 0.000000
34.649600 0.000000
34.675800 0.000000
34.702000 0.000000
34.728200 0.000000
34.754400 0.000000
34.780600 0.000000
34.806800 0.000000
34.833000 0.000000
34.859200 0.000000
34.885300 0.000000
34.911500 0.000000
34.937700 0.000000
34.963900 0.000000
34.990100 0.000000
35.016300 0.000000
35.042500 0.000000
35.068700 0.000000
35.094900 0.000000
35.121100 0.000000
35.147300 0.000000
35.173500 0.000000
35.199700 0.000000
35.225800 0.000000
35.252000 0.000000
35.278200 0.000000
35.304400 0.000000
35.330600 0.000000
35.356800 0.000000
35.383000 0.000000
35.409200 0.000000
35.435400 0.000000
35.461600 0.000000
35.487800 0.000000
35.514000 0.000000
35.540100 0.000000
35.566300 0.000000
35.592500 0.000000
35.618700 0.000000
35.644900 0.000000
35.671100 0.000000
35.697300 0.000000
35.723500 0.000000
35.749700 0.000000
35.775900 0.000000
35.802100 0.000000
35.828300 0.000000
35.854500 0.000000
35.880600 0.000000
35.906800 0.000000
35.933000 0.000000
35.959200 0.000000
35.985400 0.000000
36.011600 0.000000
36.037800 0.000000
36.064000 0.000000
36.090200 0.000000
36.116400 0.000000
36.142600 0.000000
36.168800 0.000000
e
