set title 'mp-7583 - Density of States'
set xlabel 'Energy (eV)'
set ylabel 'DOS (states/eV)'
set grid
set xrange [-10:10]
set yrange [0:41.040]
set xzeroaxis lt -1
set terminal png size 800,600
set output 'mp-7583_dos_gnuplot.png'
plot '-' using 1:2 with lines title 'DOS'
-12.758100 0.000000
-12.746000 0.000000
-12.734000 0.000000
-12.722000 0.000000
-12.710000 0.000000
-12.698000 0.000000
-12.686000 0.000000
-12.673900 0.000000
-12.661900 0.000000
-12.649900 0.000000
-12.637900 0.000000
-12.625900 0.000000
-12.613900 0.000000
-12.601900 0.000000
-12.589800 0.000000
-12.577800 0.000000
-12.565800 0.000000
-12.553800 0.000000
-12.541800 0.000000
-12.529800 0.000000
-12.517800 0.000000
-12.505700 0.000000
-12.493700 0.000000
-12.481700 0.000000
-12.469700 0.000000
-12.457700 0.000000
-12.445700 0.000000
-12.433700 0.000000
-12.421600 0.000000
-12.409600 0.000000
-12.397600 0.000000
-12.385600 0.000000
-12.373600 0.000000
-12.361600 0.000000
-12.349500 0.000000
-12.337500 0.000000
-12.325500 0.000000
-12.313500 0.000000
-12.301500 0.000000
-12.289500 0.000000
-12.277500 0.000000
-12.265400 0.000000
-12.253400 0.000000
-12.241400 0.000000
-12.229400 0.000000
-12.217400 0.000000
-12.205400 0.000000
-12.193400 0.000000
-12.181300 0.000000
-12.169300 0.000000
-12.157300 0.000000
-12.145300 0.000000
-12.133300 0.000000
-12.121300 0.000000
-12.109300 0.000000
-12.097200 0.000000
-12.085200 0.000000
-12.073200 0.000000
-12.061200 0.000000
-12.049200 0.000000
-12.037200 0.000000
-12.025100 0.000000
-12.013100 0.000000
-12.001100 0.000000
-11.989100 0.000000
-11.977100 0.000000
-11.965100 0.000000
-11.953100 0.000000
-11.941000 0.000000
-11.929000 0.000000
-11.917000 0.000000
-11.905000 0.000000
-11.893000 0.000000
-11.881000 0.000000
-11.869000 0.000000
-11.856900 0.000000
-11.844900 0.000000
-11.832900 0.000000
-11.820900 0.000000
-11.808900 0.000000
-11.796900 0.000000
-11.784900 0.000000
-11.772800 0.000000
-11.760800 0.000000
-11.748800 0.000000
-11.736800 0.000000
-11.724800 0.000000
-11.712800 0.000000
-11.700700 0.000000
-11.688700 0.000000
-11.676700 0.000000
-11.664700 0.000700
-11.652700 0.098200
-11.640700 0.470000
-11.628700 0.405400
-11.616600 0.489900
-11.604600 0.596500
-11.592600 0.705400
-11.580600 0.745000
-11.568600 0.783200
-11.556600 0.837100
-11.544600 0.898400
-11.532500 0.963000
-11.520500 1.034800
-11.508500 1.091300
-11.496500 1.132100
-11.484500 1.174500
-11.472500 1.215100
-11.460500 1.259200
-11.448400 1.315900
-11.436400 1.373500
-11.424400 1.433100
-11.412400 1.492900
-11.400400 1.542300
-11.388400 1.583000
-11.376300 1.627200
-11.364300 1.678600
-11.352300 1.735500
-11.340300 1.793100
-11.328300 1.852800
-11.316300 1.915400
-11.304300 1.981300
-11.292200 2.049000
-11.280200 2.113100
-11.268200 2.181900
-11.256200 2.252400
-11.244200 2.329500
-11.232200 2.416400
-11.220200 2.514800
-11.208100 2.624100
-11.196100 2.747300
-11.184100 2.885500
-11.172100 3.050000
-11.160100 3.256000
-11.148100 3.546400
-11.136100 4.086100
-11.124000 3.795600
-11.112000 3.777800
-11.100000 3.751100
-11.088000 3.670700
-11.076000 3.579200
-11.064000 3.524400
-11.051900 3.464000
-11.039900 3.391400
-11.027900 3.325300
-11.015900 3.299600
-11.003900 3.230200
-10.991900 3.118300
-10.979900 3.043500
-10.967800 2.980100
-10.955800 2.925000
-10.943800 2.862400
-10.931800 2.784600
-10.919800 2.707200
-10.907800 2.647400
-10.895800 2.583800
-10.883700 2.513800
-10.871700 2.433700
-10.859700 2.339500
-10.847700 2.253500
-10.835700 2.175900
-10.823700 2.111000
-10.811700 2.073300
-10.799600 2.049900
-10.787600 2.120600
-10.775600 1.879000
-10.763600 1.650800
-10.751600 1.427600
-10.739600 1.163200
-10.727500 0.920500
-10.715500 0.628400
-10.703500 0.424700
-10.691500 0.272900
-10.679500 0.156100
-10.667500 0.062500
-10.655500 0.048500
-10.643400 0.102800
-10.631400 0.163600
-10.619400 0.230100
-10.607400 0.309600
-10.595400 0.399200
-10.583400 0.499300
-10.571400 0.627300
-10.559300 0.819000
-10.547300 1.067200
-10.535300 1.459200
-10.523300 1.713700
-10.511300 1.749400
-10.499300 1.845000
-10.487300 1.958100
-10.475200 2.108700
-10.463200 2.141100
-10.451200 2.147400
-10.439200 2.191400
-10.427200 2.254400
-10.415200 2.331100
-10.403100 2.417100
-10.391100 2.478700
-10.379100 2.545400
-10.367100 2.602500
-10.355100 2.656300
-10.343100 2.713400
-10.331100 2.785900
-10.319000 2.848900
-10.307000 2.910200
-10.295000 3.023400
-10.283000 3.109800
-10.271000 3.193000
-10.259000 3.235900
-10.247000 3.297200
-10.234900 3.380400
-10.222900 3.498400
-10.210900 3.659500
-10.198900 3.712000
-10.186900 3.755500
-10.174900 3.946400
-10.162800 3.415200
-10.150800 3.026400
-10.138800 2.818700
-10.126800 2.653900
-10.114800 2.514600
-10.102800 2.403900
-10.090800 2.308300
-10.078700 2.219600
-10.066700 2.139900
-10.054700 2.064900
-10.042700 1.993200
-10.030700 1.924500
-10.018700 1.859100
-10.006700 1.797300
-9.994600 1.739900
-9.982600 1.683300
-9.970600 1.635100
-9.958600 1.589400
-9.946600 1.546700
-9.934600 1.504700
-9.922600 1.462900
-9.910500 1.422200
-9.898500 1.382500
-9.886500 1.343800
-9.874500 1.305300
-9.862500 1.268100
-9.850500 1.233500
-9.838400 1.201600
-9.826400 1.170900
-9.814400 1.140900
-9.802400 1.111500
-9.790400 1.082100
-9.778400 1.051500
-9.766400 1.023100
-9.754300 0.996800
-9.742300 0.964900
-9.730300 0.937800
-9.718300 0.911700
-9.706300 0.886800
-9.694300 0.862900
-9.682300 0.838700
-9.670200 0.814100
-9.658200 0.791200
-9.646200 0.765000
-9.634200 0.740500
-9.622200 0.721000
-9.610200 0.703100
-9.598200 0.684200
-9.586100 0.666300
-9.574100 0.646600
-9.562100 0.624600
-9.550100 3.980600
-9.538100 6.789000
-9.526100 11.082900
-9.514000 20.359700
-9.502000 28.830700
-9.490000 37.309300
-9.478000 30.709300
-9.466000 17.666500
-9.454000 12.571700
-9.442000 9.191800
-9.429900 6.007000
-9.417900 3.556300
-9.405900 4.052300
-9.393900 5.078800
-9.381900 5.971800
-9.369900 6.448500
-9.357900 6.516700
-9.345800 6.758600
-9.333800 6.834500
-9.321800 6.955400
-9.309800 6.995300
-9.297800 7.048500
-9.285800 7.015800
-9.273800 7.047500
-9.261700 6.996100
-9.249700 6.965800
-9.237700 6.946700
-9.225700 6.906200
-9.213700 5.235500
-9.201700 4.454600
-9.189600 3.973600
-9.177600 3.529700
-9.165600 3.134400
-9.153600 2.828700
-9.141600 2.553300
-9.129600 2.322600
-9.117600 2.103000
-9.105500 1.909200
-9.093500 1.719300
-9.081500 1.552700
-9.069500 1.400100
-9.057500 1.252200
-9.045500 1.105700
-9.033500 1.000000
-9.021400 0.886700
-9.009400 0.759900
-8.997400 0.589000
-8.985400 0.475500
-8.973400 0.450900
-8.961400 0.085800
-8.949400 0.008300
-8.937300 0.000000
-8.925300 0.000000
-8.913300 0.000000
-8.901300 0.000000
-8.889300 0.000000
-8.877300 0.000000
-8.865200 0.000000
-8.853200 0.000000
-8.841200 0.000000
-8.829200 0.000000
-8.817200 0.000000
-8.805200 0.000000
-8.793200 0.000000
-8.781100 0.000000
-8.769100 0.000000
-8.757100 0.000000
-8.745100 0.000000
-8.733100 0.000000
-8.721100 0.000000
-8.709100 0.000000
-8.697000 0.000000
-8.685000 0.000000
-8.673000 0.000000
-8.661000 0.000000
-8.649000 0.000000
-8.637000 0.000000
-8.625000 0.000000
-8.612900 0.000000
-8.600900 0.000000
-8.588900 0.000000
-8.576900 0.000000
-8.564900 0.000000
-8.552900 0.000000
-8.540800 0.000000
-8.528800 0.000000
-8.516800 0.000000
-8.504800 0.000000
-8.492800 0.000000
-8.480800 0.000000
-8.468800 0.000000
-8.456700 0.000000
-8.444700 0.000000
-8.432700 0.000000
-8.420700 0.000000
-8.408700 0.000000
-8.396700 0.000000
-8.384700 0.000000
-8.372600 0.000000
-8.360600 0.000000
-8.348600 0.000000
-8.336600 0.000000
-8.324600 0.000000
-8.312600 0.000000
-8.300600 0.000000
-8.288500 0.000000
-8.276500 0.000000
-8.264500 0.000000
-8.252500 0.000000
-8.240500 0.000000
-8.228500 0.000000
-8.216400 0.000000
-8.204400 0.000000
-8.192400 0.000000
-8.180400 0.000000
-8.168400 0.000000
-8.156400 0.000000
-8.144400 0.000000
-8.132300 0.000000
-8.120300 0.000000
-8.108300 0.000000
-8.096300 0.000000
-8.084300 0.000000
-8.072300 0.000000
-8.060300 0.000000
-8.048200 0.000000
-8.036200 0.000000
-8.024200 0.000000
-8.012200 0.000000
-8.000200 0.000000
-7.988200 0.000000
-7.976200 0.000000
-7.964100 0.000000
-7.952100 0.000000
-7.940100 0.000000
-7.928100 0.000000
-7.916100 0.000000
-7.904100 0.000000
-7.892000 0.000000
-7.880000 0.000000
-7.868000 0.000000
-7.856000 0.000000
-7.844000 0.000000
-7.832000 0.000000
-7.820000 0.000000
-7.807900 0.000000
-7.795900 0.000000
-7.783900 0.000000
-7.771900 0.000000
-7.759900 0.000000
-7.747900 0.000000
-7.735900 0.000000
-7.723800 0.000000
-7.711800 0.000000
-7.699800 0.000000
-7.687800 0.000000
-7.675800 0.000000
-7.663800 0.000000
-7.651800 0.000000
-7.639700 0.000000
-7.627700 0.000000
-7.615700 0.000000
-7.603700 0.000000
-7.591700 0.000000
-7.579700 0.000000
-7.567600 0.000000
-7.555600 0.000000
-7.543600 0.000000
-7.531600 0.000000
-7.519600 0.000000
-7.507600 0.000000
-7.495600 0.000000
-7.483500 0.000000
-7.471500 0.000000
-7.459500 0.000000
-7.447500 0.000000
-7.435500 0.000000
-7.423500 0.000000
-7.411500 0.000000
-7.399400 0.000000
-7.387400 0.000000
-7.375400 0.000000
-7.363400 0.000000
-7.351400 0.000000
-7.339400 0.000000
-7.327400 0.000000
-7.315300 0.000000
-7.303300 0.000000
-7.291300 0.000000
-7.279300 0.000000
-7.267300 0.000000
-7.255300 0.000000
-7.243200 0.000000
-7.231200 0.000000
-7.219200 0.000000
-7.207200 0.000000
-7.195200 0.000000
-7.183200 0.000000
-7.171200 0.000000
-7.159100 0.000000
-7.147100 0.000000
-7.135100 0.000000
-7.123100 0.000000
-7.111100 0.000000
-7.099100 0.000000
-7.087100 0.000000
-7.075000 0.000000
-7.063000 0.000000
-7.051000 0.000000
-7.039000 0.000000
-7.027000 0.000000
-7.015000 0.000000
-7.003000 0.000000
-6.990900 0.000000
-6.978900 0.000000
-6.966900 0.000000
-6.954900 0.000000
-6.942900 0.000000
-6.930900 0.000000
-6.918800 0.000000
-6.906800 0.000000
-6.894800 0.000000
-6.882800 0.000000
-6.870800 0.000000
-6.858800 0.000000
-6.846800 0.000000
-6.834700 0.000000
-6.822700 0.000000
-6.810700 0.000000
-6.798700 0.000000
-6.786700 0.000000
-6.774700 0.000000
-6.762700 0.000000
-6.750600 0.000000
-6.738600 0.000000
-6.726600 0.000000
-6.714600 0.000000
-6.702600 0.000000
-6.690600 0.000000
-6.678600 0.000000
-6.666500 0.000000
-6.654500 0.000000
-6.642500 0.000000
-6.630500 0.000000
-6.618500 0.000000
-6.606500 0.000000
-6.594400 0.000000
-6.582400 0.000000
-6.570400 0.000000
-6.558400 0.000000
-6.546400 0.000000
-6.534400 0.000000
-6.522400 0.000000
-6.510300 0.000000
-6.498300 0.000000
-6.486300 0.000000
-6.474300 0.000000
-6.462300 0.000000
-6.450300 0.000000
-6.438300 0.000000
-6.426200 0.000000
-6.414200 0.000000
-6.402200 0.000000
-6.390200 0.000000
-6.378200 0.000000
-6.366200 0.000000
-6.354200 0.000000
-6.342100 0.000000
-6.330100 0.000000
-6.318100 0.000000
-6.306100 0.000000
-6.294100 0.000000
-6.282100 0.000000
-6.270000 0.000000
-6.258000 0.000000
-6.246000 0.000000
-6.234000 0.000000
-6.222000 0.000000
-6.210000 0.000000
-6.198000 0.000000
-6.185900 0.000000
-6.173900 0.000000
-6.161900 0.000000
-6.149900 0.000000
-6.137900 0.000000
-6.125900 0.000000
-6.113900 0.000000
-6.101800 0.000000
-6.089800 0.000000
-6.077800 0.000000
-6.065800 0.000000
-6.053800 0.000000
-6.041800 0.000000
-6.029800 0.000000
-6.017700 0.000000
-6.005700 0.000000
-5.993700 0.000000
-5.981700 0.000000
-5.969700 0.002400
-5.957700 0.017200
-5.945600 0.045400
-5.933600 0.086900
-5.921600 0.202900
-5.909600 0.170000
-5.897600 0.186600
-5.885600 0.205600
-5.873600 0.226900
-5.861500 0.250600
-5.849500 0.277000
-5.837500 0.302300
-5.825500 0.325500
-5.813500 0.346300
-5.801500 0.362200
-5.789500 0.375200
-5.777400 0.389300
-5.765400 0.405200
-5.753400 0.422200
-5.741400 0.439900
-5.729400 0.458300
-5.717400 0.478400
-5.705400 0.500200
-5.693300 0.522000
-5.681300 0.538900
-5.669300 0.559900
-5.657300 0.581200
-5.645300 0.599900
-5.633300 0.615500
-5.621200 0.630800
-5.609200 0.646700
-5.597200 0.663300
-5.585200 0.688100
-5.573200 0.711000
-5.561200 0.733300
-5.549200 0.756200
-5.537100 0.780000
-5.525100 0.804600
-5.513100 0.828200
-5.501100 0.850000
-5.489100 0.871900
-5.477100 0.894400
-5.465100 0.917600
-5.453000 0.941000
-5.441000 0.964800
-5.429000 0.990200
-5.417000 1.016800
-5.405000 1.045500
-5.393000 1.076600
-5.381000 1.106000
-5.368900 1.139900
-5.356900 1.174000
-5.344900 1.207600
-5.332900 1.242700
-5.320900 1.279100
-5.308900 1.316000
-5.296800 1.355800
-5.284800 1.395200
-5.272800 1.437000
-5.260800 1.482000
-5.248800 1.535500
-5.236800 1.593600
-5.224800 1.656300
-5.212700 1.723300
-5.200700 1.794700
-5.188700 1.886100
-5.176700 2.005700
-5.164700 2.189000
-5.152700 2.345600
-5.140700 2.424300
-5.128600 2.351400
-5.116600 2.312700
-5.104600 2.313700
-5.092600 2.314700
-5.080600 2.303600
-5.068600 2.335800
-5.056600 2.243800
-5.044500 2.223900
-5.032500 2.221300
-5.020500 2.212000
-5.008500 2.196100
-4.996500 2.189500
-4.984500 2.174000
-4.972400 2.157200
-4.960400 2.139200
-4.948400 2.116000
-4.936400 2.099700
-4.924400 2.076700
-4.912400 2.051100
-4.900400 2.030400
-4.888300 2.014900
-4.876300 2.002200
-4.864300 1.991000
-4.852300 1.970000
-4.840300 1.942400
-4.828300 1.916700
-4.816300 1.894600
-4.804200 1.877900
-4.792200 1.857700
-4.780200 1.827400
-4.768200 1.810900
-4.756200 1.784900
-4.744200 1.750500
-4.732100 1.723500
-4.720100 1.698800
-4.708100 1.674500
-4.696100 1.650100
-4.684100 1.624400
-4.672100 1.594900
-4.660100 1.563100
-4.648000 1.533600
-4.636000 1.509400
-4.624000 1.490300
-4.612000 1.473900
-4.600000 1.616300
-4.588000 1.452500
-4.576000 1.328500
-4.563900 1.257200
-4.551900 1.194400
-4.539900 1.136300
-4.527900 1.075900
-4.515900 1.016100
-4.503900 0.955200
-4.491900 0.893800
-4.479800 0.832700
-4.467800 0.772100
-4.455800 0.717500
-4.443800 0.667000
-4.431800 0.615000
-4.419800 0.545600
-4.407700 0.510000
-4.395700 0.485400
-4.383700 0.463600
-4.371700 0.466800
-4.359700 0.480900
-4.347700 0.513600
-4.335700 0.492400
-4.323600 0.440800
-4.311600 0.432800
-4.299600 0.419000
-4.287600 0.398900
-4.275600 0.388600
-4.263600 0.390200
-4.251600 0.402500
-4.239500 0.424500
-4.227500 0.424500
-4.215500 0.419000
-4.203500 0.437000
-4.191500 0.466800
-4.179500 0.494700
-4.167500 0.518300
-4.155400 0.573100
-4.143400 0.613300
-4.131400 0.629800
-4.119400 0.645600
-4.107400 0.660500
-4.095400 0.676200
-4.083300 0.696000
-4.071300 0.717700
-4.059300 0.757900
-4.047300 0.806400
-4.035300 0.848100
-4.023300 0.907000
-4.011300 0.996600
-3.999200 1.071400
-3.987200 1.135900
-3.975200 1.186800
-3.963200 1.230400
-3.951200 1.268800
-3.939200 1.297600
-3.927200 1.317400
-3.915100 1.307800
-3.903100 1.314100
-3.891100 1.330600
-3.879100 1.349500
-3.867100 1.369900
-3.855100 1.396000
-3.843100 1.418800
-3.831000 1.439300
-3.819000 1.454800
-3.807000 1.471400
-3.795000 1.488900
-3.783000 1.507100
-3.771000 1.525000
-3.758900 1.540700
-3.746900 1.555900
-3.734900 1.572000
-3.722900 1.587200
-3.710900 1.601500
-3.698900 1.614400
-3.686900 1.629300
-3.674800 1.646500
-3.662800 1.665000
-3.650800 1.683200
-3.638800 1.700600
-3.626800 1.716300
-3.614800 1.730100
-3.602800 1.742400
-3.590700 1.753500
-3.578700 1.763500
-3.566700 1.772400
-3.554700 1.781400
-3.542700 1.791200
-3.530700 1.800600
-3.518700 1.808200
-3.506600 1.815600
-3.494600 1.827100
-3.482600 1.841300
-3.470600 1.851500
-3.458600 1.860500
-3.446600 1.869400
-3.434500 1.879200
-3.422500 1.893000
-3.410500 1.909500
-3.398500 1.918200
-3.386500 1.922400
-3.374500 1.923000
-3.362500 1.923300
-3.350400 1.925400
-3.338400 1.931300
-3.326400 1.934800
-3.314400 1.937600
-3.302400 1.937100
-3.290400 1.933600
-3.278400 1.924900
-3.266300 1.938400
-3.254300 1.942300
-3.242300 1.942300
-3.230300 1.967800
-3.218300 1.993600
-3.206300 2.001000
-3.194300 1.978000
-3.182200 1.900300
-3.170200 1.828300
-3.158200 1.740100
-3.146200 1.596400
-3.134200 1.475800
-3.122200 1.375500
-3.110100 1.306900
-3.098100 1.247500
-3.086100 1.189400
-3.074100 1.131500
-3.062100 1.074100
-3.050100 1.020100
-3.038100 0.974800
-3.026000 0.934400
-3.014000 0.896900
-3.002000 0.860700
-2.990000 0.827300
-2.978000 0.794500
-2.966000 0.762800
-2.954000 0.734300
-2.941900 0.706200
-2.929900 0.678500
-2.917900 0.651500
-2.905900 0.625100
-2.893900 0.599500
-2.881900 0.574800
-2.869900 0.550700
-2.857800 0.527000
-2.845800 0.503800
-2.833800 0.480800
-2.821800 0.460700
-2.809800 0.441500
-2.797800 0.423300
-2.785700 0.405800
-2.773700 0.390900
-2.761700 0.375200
-2.749700 0.359400
-2.737700 0.343700
-2.725700 0.328500
-2.713700 0.313800
-2.701600 0.299500
-2.689600 0.285800
-2.677600 0.272600
-2.665600 0.259900
-2.653600 0.247800
-2.641600 0.236300
-2.629600 0.225400
-2.617500 0.215100
-2.605500 0.206400
-2.593500 0.197500
-2.581500 0.189400
-2.569500 0.182200
-2.557500 0.175800
-2.545500 0.167500
-2.533400 0.153900
-2.521400 0.139200
-2.509400 0.123600
-2.497400 0.114700
-2.485400 0.097500
-2.473400 0.081200
-2.461300 0.065900
-2.449300 0.051600
-2.437300 0.038200
-2.425300 0.035300
-2.413300 0.439200
-2.401300 0.598800
-2.389300 0.745200
-2.377200 0.881700
-2.365200 1.016600
-2.353200 1.151800
-2.341200 1.224000
-2.329200 1.328100
-2.317200 1.442500
-2.305200 1.555100
-2.293100 1.669300
-2.281100 1.803800
-2.269100 1.941400
-2.257100 2.105800
-2.245100 2.311300
-2.233100 2.685100
-2.221100 2.934900
-2.209000 3.146700
-2.197000 3.263200
-2.185000 3.220200
-2.173000 3.220800
-2.161000 3.224100
-2.149000 3.257800
-2.136900 3.353700
-2.124900 3.446900
-2.112900 3.514900
-2.100900 3.600800
-2.088900 3.657000
-2.076900 3.672800
-2.064900 3.716500
-2.052800 3.763400
-2.040800 3.798900
-2.028800 3.832800
-2.016800 3.859600
-2.004800 3.900000
-1.992800 3.950300
-1.980800 4.021500
-1.968700 4.027900
-1.956700 4.006400
-1.944700 3.991300
-1.932700 3.973600
-1.920700 3.967100
-1.908700 3.995700
-1.896700 4.011900
-1.884600 4.004300
-1.872600 3.958200
-1.860600 3.890400
-1.848600 3.837000
-1.836600 3.754300
-1.824600 3.722000
-1.812500 3.707800
-1.800500 3.698600
-1.788500 3.685100
-1.776500 3.677500
-1.764500 3.673600
-1.752500 3.685300
-1.740500 3.708900
-1.728400 3.684000
-1.716400 3.652400
-1.704400 3.597800
-1.692400 3.662200
-1.680400 3.836500
-1.668400 4.061200
-1.656400 4.425800
-1.644300 5.012400
-1.632300 5.289400
-1.620300 5.647300
-1.608300 5.812200
-1.596300 6.363400
-1.584300 6.581500
-1.572300 7.925900
-1.560200 8.066700
-1.548200 7.587700
-1.536200 6.596000
-1.524200 6.068100
-1.512200 5.617200
-1.500200 5.320700
-1.488100 5.080900
-1.476100 4.815700
-1.464100 4.620900
-1.452100 4.319600
-1.440100 4.069500
-1.428100 3.870700
-1.416100 3.846900
-1.404000 3.770800
-1.392000 3.459100
-1.380000 3.095100
-1.368000 2.155700
-1.356000 1.768500
-1.344000 1.500600
-1.332000 1.257400
-1.319900 1.068600
-1.307900 1.037100
-1.295900 0.502200
-1.283900 0.236400
-1.271900 0.105400
-1.259900 0.090300
-1.247900 0.094000
-1.235800 0.097700
-1.223800 0.101500
-1.211800 0.105300
-1.199800 0.109100
-1.187800 0.113000
-1.175800 0.116900
-1.163700 0.120900
-1.151700 0.124800
-1.139700 0.128800
-1.127700 0.133000
-1.115700 0.137500
-1.103700 0.150800
-1.091700 0.168100
-1.079600 0.177600
-1.067600 0.182500
-1.055600 0.188300
-1.043600 0.195000
-1.031600 0.203000
-1.019600 0.212700
-1.007600 0.224000
-0.995500 0.236800
-0.983500 0.251000
-0.971500 0.266900
-0.959500 0.290500
-0.947500 0.344000
-0.935500 0.515000
-0.923500 0.775000
-0.911400 0.941600
-0.899400 1.090100
-0.887400 1.264800
-0.875400 1.479400
-0.863400 1.478900
-0.851400 1.545500
-0.839300 1.633300
-0.827300 1.727900
-0.815300 1.981800
-0.803300 2.405600
-0.791300 3.482700
-0.779300 3.096800
-0.767300 3.277300
-0.755200 3.294100
-0.743200 3.201600
-0.731200 3.224500
-0.719200 3.270900
-0.707200 3.366500
-0.695200 3.458700
-0.683200 3.694300
-0.671100 3.961800
-0.659100 4.286200
-0.647100 4.250000
-0.635100 4.177800
-0.623100 3.990500
-0.611100 3.975800
-0.599100 3.935500
-0.587000 3.943600
-0.575000 3.968400
-0.563000 4.002000
-0.551000 4.045900
-0.539000 4.098800
-0.527000 4.157900
-0.514900 4.272100
-0.502900 4.362600
-0.490900 4.548200
-0.478900 4.801800
-0.466900 5.022700
-0.454900 5.124500
-0.442900 5.163800
-0.430800 5.079000
-0.418800 4.932900
-0.406800 4.862700
-0.394800 4.915200
-0.382800 5.087200
-0.370800 5.113200
-0.358800 5.464300
-0.346700 6.551500
-0.334700 6.905200
-0.322700 7.324200
-0.310700 7.747100
-0.298700 7.711000
-0.286700 7.660500
-0.274700 7.807300
-0.262600 8.170800
-0.250600 7.796200
-0.238600 7.890200
-0.226600 7.808500
-0.214600 6.883500
-0.202600 6.190300
-0.190500 5.644400
-0.178500 5.351500
-0.166500 4.968300
-0.154500 4.411700
-0.142500 3.898400
-0.130500 3.662900
-0.118500 3.480100
-0.106400 3.241000
-0.094400 2.942900
-0.082400 2.729300
-0.070400 2.461900
-0.058400 2.134800
-0.046400 1.808400
-0.034400 1.523800
-0.022300 1.261700
-0.010300 1.125900
0.001700 0.972000
0.013700 0.786600
0.025700 0.734600
0.037700 0.698000
0.049700 0.660300
0.061800 0.629000
0.073800 0.538100
0.085800 0.454500
0.097800 0.449900
0.109800 0.478100
0.121800 0.610600
0.133900 1.026000
0.145900 1.355900
0.157900 1.586900
0.169900 1.702100
0.181900 1.887900
0.193900 2.186900
0.205900 2.574600
0.218000 3.080300
0.230000 3.555800
0.242000 4.436100
0.254000 6.349400
0.266000 7.108300
0.278000 7.670100
0.290000 7.311900
0.302100 7.578100
0.314100 7.876700
0.326100 8.471400
0.338100 8.594900
0.350100 8.402300
0.362100 8.294800
0.374100 7.633600
0.386200 7.401500
0.398200 7.548200
0.410200 8.089200
0.422200 8.219100
0.434200 7.561600
0.446200 7.588600
0.458300 7.938700
0.470300 7.914700
0.482300 7.690200
0.494300 7.739500
0.506300 7.619800
0.518300 7.579000
0.530300 6.735700
0.542400 6.314700
0.554400 6.159600
0.566400 5.987600
0.578400 5.598500
0.590400 5.046100
0.602400 4.645700
0.614400 4.412300
0.626500 4.244500
0.638500 4.098300
0.650500 3.961400
0.662500 3.894100
0.674500 3.856500
0.686500 3.833100
0.698500 3.827700
0.710600 3.826700
0.722600 3.825100
0.734600 3.818200
0.746600 3.823400
0.758600 3.845400
0.770600 3.878000
0.782700 3.940100
0.794700 4.056100
0.806700 4.021600
0.818700 3.992800
0.830700 3.955100
0.842700 3.890200
0.854700 3.893800
0.866800 3.616200
0.878800 3.348700
0.890800 3.288400
0.902800 3.223400
0.914800 3.160300
0.926800 3.118000
0.938800 3.114100
0.950900 3.175500
0.962900 3.234600
0.974900 3.236600
0.986900 2.986700
0.998900 2.832400
1.010900 2.899400
1.023000 3.063100
1.035000 3.085300
1.047000 3.238100
1.059000 3.342300
1.071000 3.091500
1.083000 3.347400
1.095000 3.821700
1.107100 3.714700
1.119100 3.694200
1.131100 3.651400
1.143100 3.452100
1.155100 3.106400
1.167100 2.970100
1.179100 2.970800
1.191200 2.978300
1.203200 2.962800
1.215200 2.943900
1.227200 2.996400
1.239200 3.051000
1.251200 3.163300
1.263200 3.288500
1.275300 3.557800
1.287300 3.705700
1.299300 3.935000
1.311300 4.074500
1.323300 4.015400
1.335300 3.850500
1.347400 3.515000
1.359400 3.386800
1.371400 3.304700
1.383400 3.214300
1.395400 3.102900
1.407400 3.228800
1.419400 3.185000
1.431500 3.140500
1.443500 3.112600
1.455500 3.092100
1.467500 3.482200
1.479500 4.025600
1.491500 4.626500
1.503500 5.533300
1.515600 5.870800
1.527600 6.427800
1.539600 8.181200
1.551600 9.572000
1.563600 8.818100
1.575600 9.239600
1.587600 9.527800
1.599700 9.534500
1.611700 9.432500
1.623700 9.879800
1.635700 10.855300
1.647700 12.133500
1.659700 10.323600
1.671800 10.143500
1.683800 8.904200
1.695800 6.548400
1.707800 4.712700
1.719800 4.111100
1.731800 4.607800
1.743800 4.545500
1.755900 4.387700
1.767900 4.117900
1.779900 4.457300
1.791900 5.985200
1.803900 4.487400
1.815900 3.857900
1.827900 3.884500
1.840000 4.065100
1.852000 4.576300
1.864000 5.236600
1.876000 5.850700
1.888000 6.499700
1.900000 6.713400
1.912000 7.443500
1.924100 8.843600
1.936100 9.665800
1.948100 10.357900
1.960100 11.398100
1.972100 13.114200
1.984100 15.062500
1.996200 16.773900
2.008200 15.714900
2.020200 13.581500
2.032200 12.911800
2.044200 11.736300
2.056200 10.917000
2.068200 10.375700
2.080300 10.163500
2.092300 11.172900
2.104300 10.749800
2.116300 8.888200
2.128300 7.708200
2.140300 6.550100
2.152300 5.793700
2.164400 5.339600
2.176400 5.473300
2.188400 5.655100
2.200400 4.320500
2.212400 3.463500
2.224400 2.838200
2.236400 2.379000
2.248500 2.031100
2.260500 1.694000
2.272500 1.319000
2.284500 1.021300
2.296500 0.716700
2.308500 0.305400
2.320600 0.000000
2.332600 0.000000
2.344600 0.000000
2.356600 0.000000
2.368600 0.000000
2.380600 0.000000
2.392600 0.000000
2.404700 0.000000
2.416700 0.000000
2.428700 0.000000
2.440700 0.000000
2.452700 0.000000
2.464700 0.000000
2.476700 0.000000
2.488800 0.000000
2.500800 0.000000
2.512800 0.000000
2.524800 0.000000
2.536800 0.000000
2.548800 0.000000
2.560800 0.000000
2.572900 0.000000
2.584900 0.000000
2.596900 0.000000
2.608900 0.000000
2.620900 0.000000
2.632900 0.000000
2.645000 0.000000
2.657000 0.000000
2.669000 0.000000
2.681000 0.000000
2.693000 0.000000
2.705000 0.000000
2.717000 0.000000
2.729100 0.000000
2.741100 0.000000
2.753100 0.000000
2.765100 0.000000
2.777100 0.000000
2.789100 0.000000
2.801100 0.000000
2.813200 0.000000
2.825200 0.000000
2.837200 0.000000
2.849200 0.000000
2.861200 0.000000
2.873200 0.000000
2.885200 0.000000
2.897300 0.000000
2.909300 0.000000
2.921300 0.000000
2.933300 0.000000
2.945300 0.000000
2.957300 0.000000
2.969400 0.000000
2.981400 0.000000
2.993400 0.000000
3.005400 0.000000
3.017400 0.000000
3.029400 0.000000
3.041400 0.000000
3.053500 0.000000
3.065500 0.000000
3.077500 0.000000
3.089500 0.000000
3.101500 0.000000
3.113500 0.000000
3.125500 0.000000
3.137600 0.000000
3.149600 0.000000
3.161600 0.000000
3.173600 0.000000
3.185600 0.000000
3.197600 0.000000
3.209600 0.000000
3.221700 0.000000
3.233700 0.000000
3.245700 0.000000
3.257700 0.000000
3.269700 0.000000
3.281700 0.000000
3.293800 0.000000
3.305800 0.000000
3.317800 0.000000
3.329800 0.000000
3.341800 0.000000
3.353800 0.000000
3.365800 0.000000
3.377900 0.000000
3.389900 0.000000
3.401900 0.000000
3.413900 0.000000
3.425900 0.000000
3.437900 0.000000
3.449900 0.000000
3.462000 0.000000
3.474000 0.000000
3.486000 0.000000
3.498000 0.000000
3.510000 0.000000
3.522000 0.000000
3.534000 0.000000
3.546100 0.000000
3.558100 0.000000
3.570100 0.000000
3.582100 0.000000
3.594100 0.000000
3.606100 0.000000
3.618200 0.000000
3.630200 0.000000
3.642200 0.000000
3.654200 0.000000
3.666200 0.000000
3.678200 0.000000
3.690200 0.000000
3.702300 0.000000
3.714300 0.000000
3.726300 0.000000
3.738300 0.000000
3.750300 0.000000
3.762300 0.000000
3.774300 0.000000
3.786400 0.000000
3.798400 0.000000
3.810400 0.000000
3.822400 0.000000
3.834400 0.000000
3.846400 0.000000
3.858400 0.000000
3.870500 0.000000
3.882500 0.000000
3.894500 0.000000
3.906500 0.000000
3.918500 0.000000
3.930500 0.000000
3.942600 0.000000
3.954600 0.000000
3.966600 0.000000
3.978600 0.000000
3.990600 0.000000
4.002600 0.000000
4.014600 0.000000
4.026700 0.000000
4.038700 0.000000
4.050700 0.000000
4.062700 0.000000
4.074700 0.000000
4.086700 0.000000
4.098700 0.000000
4.110800 0.000000
4.122800 0.000000
4.134800 0.000000
4.146800 0.000000
4.158800 0.000000
4.170800 0.000000
4.182800 0.000000
4.194900 0.000000
4.206900 0.000000
4.218900 0.000000
4.230900 0.000000
4.242900 0.000000
4.254900 0.000000
4.267000 0.000000
4.279000 0.000000
4.291000 0.000000
4.303000 0.000000
4.315000 0.000000
4.327000 0.000000
4.339000 0.000000
4.351100 0.000000
4.363100 0.000000
4.375100 0.000000
4.387100 0.000000
4.399100 0.000000
4.411100 0.000000
4.423100 0.000000
4.435200 0.000000
4.447200 0.000000
4.459200 0.000000
4.471200 0.000000
4.483200 0.000000
4.495200 0.000000
4.507200 0.000000
4.519300 0.000000
4.531300 0.000000
4.543300 0.000000
4.555300 0.000000
4.567300 0.000000
4.579300 0.000000
4.591400 0.000000
4.603400 0.000000
4.615400 0.000000
4.627400 0.000000
4.639400 0.000000
4.651400 0.000000
4.663400 0.000000
4.675500 0.000000
4.687500 0.000000
4.699500 0.000000
4.711500 0.000000
4.723500 0.000000
4.735500 0.000000
4.747500 0.000000
4.759600 0.000000
4.771600 0.000000
4.783600 0.000000
4.795600 0.000000
4.807600 0.000000
4.819600 0.000000
4.831600 0.000000
4.843700 0.000000
4.855700 0.000000
4.867700 0.000000
4.879700 0.000000
4.891700 0.000000
4.903700 0.000000
4.915800 0.000000
4.927800 0.000000
4.939800 0.000000
4.951800 0.000000
4.963800 0.000000
4.975800 0.000000
4.987800 0.000000
4.999900 0.000000
5.011900 0.000000
5.023900 0.000000
5.035900 0.000000
5.047900 0.000000
5.059900 0.000000
5.071900 0.000000
5.084000 0.000000
5.096000 0.000000
5.108000 0.000000
5.120000 0.000000
5.132000 0.000000
5.144000 0.000000
5.156000 0.000000
5.168100 0.000000
5.180100 0.000000
5.192100 0.000000
5.204100 0.000000
5.216100 0.000000
5.228100 0.000000
5.240200 0.000000
5.252200 0.000000
5.264200 0.000000
5.276200 0.000000
5.288200 0.000000
5.300200 0.000000
5.312200 0.000000
5.324300 0.000000
5.336300 0.000000
5.348300 0.000000
5.360300 0.000000
5.372300 0.000000
5.384300 0.000000
5.396300 0.000000
5.408400 0.000000
5.420400 0.000000
5.432400 0.000000
5.444400 0.000000
5.456400 0.000000
5.468400 0.000000
5.480400 0.000000
5.492500 0.000000
5.504500 0.000000
5.516500 0.000000
5.528500 0.000000
5.540500 0.000000
5.552500 0.000000
5.564600 0.000000
5.576600 0.000000
5.588600 0.000000
5.600600 0.000000
5.612600 0.000000
5.624600 0.000000
5.636600 0.000000
5.648700 0.027600
5.660700 0.108200
5.672700 0.242500
5.684700 0.431800
5.696700 0.560600
5.708700 0.661700
5.720700 0.799300
5.732800 0.921800
5.744800 1.048000
5.756800 1.195600
5.768800 1.358300
5.780800 1.613100
5.792800 1.730000
5.804800 1.719200
5.816900 1.693300
5.828900 1.802900
5.840900 1.949600
5.852900 2.151400
5.864900 2.265900
5.876900 2.354800
5.889000 2.517400
5.901000 2.715000
5.913000 2.973900
5.925000 3.183900
5.937000 3.432400
5.949000 3.675500
5.961000 3.943300
5.973100 4.257600
5.985100 4.609100
5.997100 5.190100
6.009100 5.877700
6.021100 7.229300
6.033100 7.615200
6.045100 7.655000
6.057200 7.179800
6.069200 7.286900
6.081200 8.416600
6.093200 6.330900
6.105200 5.998700
6.117200 5.891400
6.129200 6.205900
6.141300 6.402900
6.153300 6.817200
6.165300 7.674600
6.177300 8.199900
6.189300 8.399200
6.201300 7.492800
6.213400 7.383200
6.225400 8.143000
6.237400 9.040500
6.249400 8.336200
6.261400 7.378400
6.273400 6.879800
6.285400 6.415700
6.297500 5.625500
6.309500 4.999300
6.321500 4.716000
6.333500 4.518800
6.345500 4.359100
6.357500 4.238000
6.369500 4.132800
6.381600 4.118500
6.393600 4.159900
6.405600 4.228800
6.417600 4.298300
6.429600 4.363800
6.441600 4.438300
6.453600 4.504900
6.465700 4.659100
6.477700 4.901900
6.489700 5.273000
6.501700 5.585200
6.513700 5.557600
6.525700 5.365100
6.537800 4.993600
6.549800 4.712900
6.561800 4.427000
6.573800 4.032600
6.585800 3.795200
6.597800 3.633400
6.609800 3.460000
6.621900 3.257000
6.633900 2.799800
6.645900 2.459600
6.657900 2.357200
6.669900 2.325300
6.681900 2.524300
6.693900 2.782200
6.706000 3.056300
6.718000 3.292300
6.730000 3.468100
6.742000 3.623800
6.754000 3.964100
6.766000 4.248400
6.778100 4.804600
6.790100 5.810300
6.802100 6.673800
6.814100 7.533300
6.826100 8.071600
6.838100 8.317300
6.850100 8.229700
6.862200 7.947400
6.874200 7.378900
6.886200 6.893100
6.898200 6.417400
6.910200 5.921100
6.922200 5.046700
6.934200 4.421700
6.946300 3.648100
6.958300 2.918800
6.970300 2.579800
6.982300 2.334900
6.994300 2.198800
7.006300 2.107300
7.018300 2.086100
7.030400 2.225900
7.042400 2.118600
7.054400 2.281700
7.066400 2.646500
7.078400 3.254800
7.090400 4.202000
7.102500 4.761100
7.114500 4.601900
7.126500 4.438100
7.138500 4.308100
7.150500 4.170600
7.162500 4.070900
7.174500 4.042800
7.186600 4.049100
7.198600 4.044000
7.210600 3.998700
7.222600 3.873600
7.234600 3.751600
7.246600 3.689000
7.258600 3.573500
7.270700 3.488400
7.282700 3.391700
7.294700 3.267200
7.306700 3.173700
7.318700 3.114600
7.330700 3.085400
7.342700 3.039800
7.354800 3.010000
7.366800 3.003100
7.378800 2.991900
7.390800 2.959900
7.402800 2.965100
7.414800 2.988900
7.426900 3.036200
7.438900 3.100200
7.450900 3.171800
7.462900 3.248600
7.474900 3.339100
7.486900 3.467200
7.498900 3.812900
7.511000 4.628600
7.523000 5.161200
7.535000 4.331200
7.547000 3.969700
7.559000 3.759500
7.571000 3.685400
7.583000 3.722200
7.595100 3.622100
7.607100 3.528800
7.619100 3.476500
7.631100 3.465200
7.643100 3.434200
7.655100 3.664400
7.667100 3.079900
7.679200 2.994200
7.691200 2.960300
7.703200 3.109800
7.715200 2.891000
7.727200 2.879700
7.739200 2.884600
7.751300 2.917600
7.763300 2.994500
7.775300 3.034600
7.787300 3.008500
7.799300 3.063600
7.811300 3.116100
7.823300 3.181100
7.835400 3.156500
7.847400 3.161100
7.859400 3.230300
7.871400 3.257800
7.883400 3.250100
7.895400 3.235000
7.907400 3.246800
7.919500 3.245900
7.931500 3.211700
7.943500 3.255400
7.955500 3.314100
7.967500 3.386600
7.979500 3.427200
7.991500 3.441300
8.003600 3.521400
8.015600 3.621400
8.027600 3.744500
8.039600 3.869800
8.051600 4.165100
8.063600 3.910400
8.075700 3.882900
8.087700 3.959100
8.099700 4.089400
8.111700 4.184400
8.123700 4.235100
8.135700 4.353200
8.147700 4.227900
8.159800 3.976400
8.171800 3.894600
8.183800 3.883000
8.195800 3.829500
8.207800 3.761800
8.219800 3.742100
8.231800 3.742400
8.243900 3.790300
8.255900 3.876400
8.267900 4.043800
8.279900 4.177900
8.291900 4.173800
8.303900 4.199800
8.315900 4.197500
8.328000 4.129800
8.340000 4.074600
8.352000 4.083900
8.364000 4.171000
8.376000 4.152200
8.388000 4.047200
8.400100 4.181400
8.412100 3.344500
8.424100 2.805900
8.436100 2.605400
8.448100 2.533400
8.460100 2.505200
8.472100 2.491400
8.484200 2.465000
8.496200 2.449800
8.508200 2.450900
8.520200 2.461400
8.532200 2.475700
8.544200 2.490900
8.556200 2.535300
8.568300 2.627100
8.580300 2.745900
8.592300 2.763900
8.604300 2.841800
8.616300 3.070000
8.628300 3.236100
8.640300 3.212500
8.652400 2.965700
8.664400 2.952300
8.676400 2.902900
8.688400 2.777500
8.700400 2.711600
8.712400 2.749200
8.724500 2.917200
8.736500 3.043100
8.748500 2.928700
8.760500 2.561400
8.772500 2.577400
8.784500 3.251200
8.796500 4.016100
8.808600 4.718400
8.820600 4.768000
8.832600 4.628400
8.844600 4.041900
8.856600 3.690300
8.868600 3.437800
8.880600 3.209600
8.892700 2.986000
8.904700 2.827400
8.916700 2.740900
8.928700 2.677700
8.940700 2.631500
8.952700 2.594700
8.964700 2.564300
8.976800 2.538800
8.988800 2.517100
9.000800 2.504200
9.012800 2.498800
9.024800 2.494800
9.036800 2.490500
9.048900 2.487100
9.060900 2.483400
9.072900 2.478600
9.084900 2.474000
9.096900 2.467600
9.108900 2.456800
9.120900 2.452800
9.133000 2.458900
9.145000 2.472200
9.157000 2.487100
9.169000 2.512300
9.181000 2.546200
9.193000 2.585600
9.205000 2.629500
9.217100 2.677800
9.229100 2.681100
9.241100 2.702200
9.253100 2.768400
9.265100 2.717800
9.277100 2.710800
9.289100 2.712900
9.301200 2.719000
9.313200 2.696400
9.325200 2.657100
9.337200 2.667000
9.349200 2.678800
9.361200 2.658400
9.373300 2.649700
9.385300 2.699400
9.397300 2.729600
9.409300 2.732000
9.421300 2.736200
9.433300 2.789600
9.445300 2.868900
9.457400 3.163800
9.469400 3.357500
9.481400 3.396600
9.493400 3.341200
9.505400 3.328200
9.517400 3.301700
9.529400 3.265000
9.541500 3.304800
9.553500 3.351500
9.565500 3.406100
9.577500 3.459500
9.589500 3.545400
9.601500 3.674000
9.613500 3.897700
9.625600 3.990100
9.637600 4.127000
9.649600 4.135400
9.661600 4.019200
9.673600 4.004400
9.685600 4.047400
9.697700 4.050300
9.709700 4.140700
9.721700 4.142200
9.733700 4.125200
9.745700 4.106200
9.757700 4.068500
9.769700 4.016900
9.781800 3.930500
9.793800 3.903500
9.805800 3.886600
9.817800 3.898600
9.829800 3.910300
9.841800 3.950500
9.853800 3.753900
9.865900 4.069500
9.877900 3.742900
9.889900 3.485100
9.901900 3.232800
9.913900 3.015600
9.925900 2.843200
9.937900 2.714600
9.950000 2.550600
9.962000 2.403800
9.974000 2.134500
9.986000 1.875300
9.998000 1.571700
10.010000 1.212700
10.022100 0.908900
10.034100 0.683000
10.046100 0.452500
10.058100 0.273200
10.070100 0.199500
10.082100 0.166000
10.094100 0.135100
10.106200 0.107100
10.118200 0.083200
10.130200 0.062300
10.142200 0.041200
10.154200 0.019700
10.166200 0.005400
10.178200 0.000000
10.190300 0.000000
10.202300 0.000000
10.214300 0.000000
10.226300 0.000000
10.238300 0.000000
10.250300 0.000000
10.262300 0.000000
10.274400 0.000000
10.286400 0.000000
10.298400 0.000000
10.310400 0.000000
10.322400 0.000000
10.334400 0.000000
10.346500 0.000000
10.358500 0.000000
10.370500 0.000000
10.382500 0.000000
10.394500 0.000000
10.406500 0.000000
10.418500 0.000000
10.430600 0.000000
10.442600 0.000000
10.454600 0.000000
10.466600 0.000000
10.478600 0.000000
10.490600 0.000000
10.502600 0.000000
10.514700 0.000000
10.526700 0.000000
10.538700 0.000000
10.550700 0.000000
10.562700 0.000000
10.574700 0.000000
10.586700 0.000000
10.598800 0.000000
10.610800 0.000000
10.622800 0.000000
10.634800 0.000000
10.646800 0.000000
10.658800 0.000000
10.670900 0.000000
10.682900 0.000000
10.694900 0.000000
10.706900 0.000000
10.718900 0.000000
10.730900 0.000000
10.742900 0.000000
10.755000 0.000000
10.767000 0.000000
10.779000 0.000000
10.791000 0.000000
10.803000 0.000000
10.815000 0.000000
10.827000 0.000000
10.839100 0.000000
10.851100 0.000000
10.863100 0.000000
10.875100 0.000000
10.887100 0.000000
10.899100 0.000000
10.911100 0.000000
10.923200 0.000000
10.935200 0.000000
10.947200 0.000000
10.959200 0.000000
10.971200 0.000000
10.983200 0.000000
10.995300 0.000000
11.007300 0.000000
11.019300 0.000000
11.031300 0.000000
11.043300 0.000000
11.055300 0.000000
11.067300 0.000000
11.079400 0.000000
11.091400 0.000000
11.103400 0.000000
11.115400 0.000000
11.127400 0.000000
11.139400 0.000000
11.151400 0.000000
11.163500 0.000000
11.175500 0.000000
11.187500 0.000000
11.199500 0.000000
11.211500 0.000000
11.223500 0.000000
11.235500 0.000000
11.247600 0.000000
11.259600 0.000000
11.271600 0.000000
e
