set title 'mp-1018886 - Density of States'
set xlabel 'Energy (eV)'
set ylabel 'DOS (states/eV)'
set grid
set xrange [-10:10]
set yrange [0:17.762]
set xzeroaxis lt -1
set terminal png size 800,600
set output 'mp-1018886_dos_gnuplot.png'
plot '-' using 1:2 with lines title 'DOS'
-18.213300 0.000000
-18.192400 0.000000
-18.171400 0.000000
-18.150400 0.000000
-18.129400 0.000000
-18.108500 0.000000
-18.087500 0.000000
-18.066500 0.000000
-18.045500 0.000000
-18.024600 0.000000
-18.003600 0.000000
-17.982600 0.000000
-17.961600 0.000000
-17.940700 0.000000
-17.919700 0.000000
-17.898700 0.000000
-17.877700 0.000000
-17.856800 0.000000
-17.835800 0.000000
-17.814800 0.000000
-17.793800 0.000000
-17.772900 0.000000
-17.751900 0.000000
-17.730900 0.000000
-17.709900 0.000000
-17.689000 0.000000
-17.668000 0.000000
-17.647000 0.000000
-17.626100 0.000000
-17.605100 0.000000
-17.584100 0.000000
-17.563100 0.000000
-17.542200 0.000000
-17.521200 0.000000
-17.500200 0.000000
-17.479200 0.000000
-17.458300 0.000000
-17.437300 0.000000
-17.416300 0.000000
-17.395300 0.000000
-17.374400 0.000000
-17.353400 0.000000
-17.332400 0.000000
-17.311400 0.000000
-17.290500 0.000000
-17.269500 0.000000
-17.248500 0.000000
-17.227500 0.000000
-17.206600 0.000000
-17.185600 0.000000
-17.164600 0.000000
-17.143600 0.000000
-17.122700 0.000000
-17.101700 0.000000
-17.080700 0.000000
-17.059700 0.000000
-17.038800 0.000000
-17.017800 0.000000
-16.996800 0.000000
-16.975800 0.000000
-16.954900 0.000000
-16.933900 0.000000
-16.912900 0.000000
-16.891900 0.000000
-16.871000 0.000000
-16.850000 0.000000
-16.829000 0.000000
-16.808000 0.000000
-16.787100 0.000000
-16.766100 0.000000
-16.745100 0.000000
-16.724100 0.000000
-16.703200 0.000000
-16.682200 0.000000
-16.661200 0.000000
-16.640200 0.000000
-16.619300 0.000000
-16.598300 0.000000
-16.577300 0.000000
-16.556300 0.000000
-16.535400 0.000000
-16.514400 0.000000
-16.493400 0.000000
-16.472400 0.000000
-16.451500 0.000000
-16.430500 0.000000
-16.409500 0.000000
-16.388500 0.000000
-16.367600 0.000000
-16.346600 0.000000
-16.325600 0.000000
-16.304700 0.001500
-16.283700 0.200000
-16.262700 0.288200
-16.241700 0.388700
-16.220800 0.485000
-16.199800 0.526800
-16.178800 0.593800
-16.157800 0.662300
-16.136900 0.739700
-16.115900 0.786300
-16.094900 0.839400
-16.073900 0.900700
-16.053000 0.969300
-16.032000 1.042100
-16.011000 1.103900
-15.990000 1.165500
-15.969100 1.231300
-15.948100 1.299400
-15.927100 1.384700
-15.906100 1.468600
-15.885200 1.554200
-15.864200 1.644900
-15.843200 1.746400
-15.822200 1.845900
-15.801300 1.967900
-15.780300 2.098800
-15.759300 2.251500
-15.738300 3.346300
-15.717400 3.162500
-15.696400 2.822400
-15.675400 2.756700
-15.654400 2.837800
-15.633500 3.059300
-15.612500 3.219000
-15.591500 3.621800
-15.570500 3.608200
-15.549600 3.665900
-15.528600 3.672200
-15.507600 3.752200
-15.486600 3.834000
-15.465700 3.902300
-15.444700 4.028800
-15.423700 4.189100
-15.402700 4.325200
-15.381800 4.468400
-15.360800 4.644400
-15.339800 4.990700
-15.318800 5.375600
-15.297900 5.903800
-15.276900 6.376000
-15.255900 7.440400
-15.234900 6.992900
-15.214000 7.783100
-15.193000 8.645900
-15.172000 17.219000
-15.151000 7.239200
-15.130100 6.088500
-15.109100 6.651700
-15.088100 4.328700
-15.067100 0.030600
-15.046200 0.000000
-15.025200 1.336900
-15.004200 8.197300
-14.983300 34.817800
-14.962300 14.234200
-14.941300 13.413600
-14.920300 13.051100
-14.899400 12.280300
-14.878400 10.261200
-14.857400 10.028500
-14.836400 10.046800
-14.815500 11.454400
-14.794500 12.561300
-14.773500 9.391600
-14.752500 8.847400
-14.731600 8.129300
-14.710600 7.675700
-14.689600 5.420400
-14.668600 4.169000
-14.647700 3.183600
-14.626700 2.384900
-14.605700 1.630800
-14.584700 0.128300
-14.563800 0.000000
-14.542800 0.000000
-14.521800 0.000000
-14.500800 0.000000
-14.479900 0.000000
-14.458900 0.000000
-14.437900 0.000000
-14.416900 0.000000
-14.396000 0.000000
-14.375000 0.000000
-14.354000 0.000000
-14.333000 0.000000
-14.312100 0.000000
-14.291100 0.000000
-14.270100 0.000000
-14.249100 0.000000
-14.228200 0.000000
-14.207200 0.000000
-14.186200 0.000000
-14.165200 0.000000
-14.144300 0.000000
-14.123300 0.000000
-14.102300 0.000000
-14.081300 0.000000
-14.060400 0.000000
-14.039400 0.000000
-14.018400 0.000000
-13.997400 0.000000
-13.976500 0.000000
-13.955500 0.000000
-13.934500 0.000000
-13.913500 0.000000
-13.892600 0.000000
-13.871600 0.000000
-13.850600 0.000000
-13.829600 0.000000
-13.808700 0.000000
-13.787700 0.000000
-13.766700 0.000000
-13.745700 0.000000
-13.724800 0.000000
-13.703800 0.000000
-13.682800 0.000000
-13.661900 0.000000
-13.640900 0.000000
-13.619900 0.000000
-13.598900 0.000000
-13.578000 0.000000
-13.557000 0.000000
-13.536000 0.000000
-13.515000 0.000000
-13.494100 0.000000
-13.473100 0.000000
-13.452100 0.000000
-13.431100 0.000000
-13.410200 0.000000
-13.389200 0.000000
-13.368200 0.000000
-13.347200 0.000000
-13.326300 0.000000
-13.305300 0.000000
-13.284300 0.000000
-13.263300 0.000000
-13.242400 0.000000
-13.221400 0.000000
-13.200400 0.000000
-13.179400 0.000000
-13.158500 0.000000
-13.137500 0.000000
-13.116500 0.000000
-13.095500 0.000000
-13.074600 0.000000
-13.053600 0.000000
-13.032600 0.000000
-13.011600 0.000000
-12.990700 0.000000
-12.969700 0.000000
-12.948700 0.000000
-12.927700 0.000000
-12.906800 0.000000
-12.885800 0.000000
-12.864800 0.000000
-12.843800 0.000000
-12.822900 0.000000
-12.801900 0.000000
-12.780900 0.000000
-12.759900 0.000000
-12.739000 0.000000
-12.718000 0.000000
-12.697000 0.000000
-12.676000 0.000000
-12.655100 0.000000
-12.634100 0.000000
-12.613100 0.000000
-12.592100 0.000000
-12.571200 0.000000
-12.550200 0.000000
-12.529200 0.000000
-12.508200 0.000000
-12.487300 0.000000
-12.466300 0.000000
-12.445300 0.000000
-12.424300 0.000000
-12.403400 0.000000
-12.382400 0.000000
-12.361400 0.000000
-12.340500 0.000000
-12.319500 0.000000
-12.298500 0.000000
-12.277500 0.000000
-12.256600 0.000000
-12.235600 0.000000
-12.214600 0.000000
-12.193600 0.000000
-12.172700 0.000000
-12.151700 0.000000
-12.130700 0.000000
-12.109700 0.000000
-12.088800 0.000000
-12.067800 0.000000
-12.046800 0.000000
-12.025800 0.000000
-12.004900 0.000000
-11.983900 0.000000
-11.962900 0.000000
-11.941900 0.000000
-11.921000 0.000000
-11.900000 0.000000
-11.879000 0.000000
-11.858000 0.000000
-11.837100 0.000000
-11.816100 0.000000
-11.795100 0.000000
-11.774100 0.000000
-11.753200 0.000000
-11.732200 0.000000
-11.711200 0.000000
-11.690200 0.000000
-11.669300 0.000000
-11.648300 0.000000
-11.627300 0.000000
-11.606300 0.000000
-11.585400 0.000000
-11.564400 0.000000
-11.543400 0.000000
-11.522400 0.000000
-11.501500 0.000000
-11.480500 0.000000
-11.459500 0.000000
-11.438500 0.000000
-11.417600 0.000000
-11.396600 0.000000
-11.375600 0.000000
-11.354600 0.000000
-11.333700 0.000000
-11.312700 0.000000
-11.291700 0.000000
-11.270700 0.000000
-11.249800 0.000000
-11.228800 0.000000
-11.207800 0.000000
-11.186800 0.000000
-11.165900 0.000000
-11.144900 0.000000
-11.123900 0.000000
-11.102900 0.000000
-11.082000 0.000000
-11.061000 0.000000
-11.040000 0.000000
-11.019100 0.000000
-10.998100 0.000000
-10.977100 0.000000
-10.956100 0.000000
-10.935200 0.000000
-10.914200 0.000000
-10.893200 0.000000
-10.872200 0.000000
-10.851300 0.000000
-10.830300 0.000000
-10.809300 0.000000
-10.788300 0.000000
-10.767400 0.000000
-10.746400 0.000000
-10.725400 0.000000
-10.704400 0.000000
-10.683500 0.000000
-10.662500 0.000000
-10.641500 0.000000
-10.620500 0.000000
-10.599600 0.000000
-10.578600 0.000000
-10.557600 0.000000
-10.536600 0.000000
-10.515700 0.000000
-10.494700 0.000000
-10.473700 0.000000
-10.452700 0.000000
-10.431800 0.000000
-10.410800 0.000000
-10.389800 0.000000
-10.368800 0.000000
-10.347900 0.000000
-10.326900 0.000000
-10.305900 0.000000
-10.284900 0.000000
-10.264000 0.000000
-10.243000 0.000000
-10.222000 0.000000
-10.201000 0.000000
-10.180100 0.000000
-10.159100 0.000000
-10.138100 0.000000
-10.117100 0.000000
-10.096200 0.000000
-10.075200 0.000000
-10.054200 0.000000
-10.033200 0.000000
-10.012300 0.000000
-9.991300 0.000000
-9.970300 0.000000
-9.949300 0.000000
-9.928400 0.000000
-9.907400 0.000000
-9.886400 0.000000
-9.865400 0.000000
-9.844500 0.000000
-9.823500 0.000000
-9.802500 0.000000
-9.781500 0.000000
-9.760600 0.000000
-9.739600 0.000000
-9.718600 0.000000
-9.697700 0.000000
-9.676700 0.000000
-9.655700 0.000000
-9.634700 0.000000
-9.613800 0.000000
-9.592800 0.000000
-9.571800 0.000000
-9.550800 0.000000
-9.529900 0.000000
-9.508900 0.000000
-9.487900 0.000000
-9.466900 0.000000
-9.446000 0.000000
-9.425000 0.000000
-9.404000 0.000000
-9.383000 0.000000
-9.362100 0.000000
-9.341100 0.000000
-9.320100 0.000000
-9.299100 0.000000
-9.278200 0.000000
-9.257200 0.000000
-9.236200 0.000000
-9.215200 0.000000
-9.194300 0.000000
-9.173300 0.000000
-9.152300 0.000000
-9.131300 0.000000
-9.110400 0.000000
-9.089400 0.000000
-9.068400 0.000000
-9.047400 0.000000
-9.026500 0.000000
-9.005500 0.000000
-8.984500 0.000000
-8.963500 0.000000
-8.942600 0.000000
-8.921600 0.000000
-8.900600 0.000000
-8.879600 0.000000
-8.858700 0.000000
-8.837700 0.000000
-8.816700 0.000000
-8.795700 0.000000
-8.774800 0.000000
-8.753800 0.000000
-8.732800 0.000000
-8.711800 0.000000
-8.690900 0.000000
-8.669900 0.000000
-8.648900 0.000000
-8.627900 0.000000
-8.607000 0.000000
-8.586000 0.000000
-8.565000 0.000000
-8.544000 0.000000
-8.523100 0.000000
-8.502100 0.000000
-8.481100 0.000000
-8.460100 0.000000
-8.439200 0.000000
-8.418200 0.000000
-8.397200 0.000000
-8.376300 0.000000
-8.355300 0.000000
-8.334300 0.000000
-8.313300 0.000000
-8.292400 0.000000
-8.271400 0.000000
-8.250400 0.000000
-8.229400 0.000000
-8.208500 0.000000
-8.187500 0.000000
-8.166500 0.000000
-8.145500 0.000000
-8.124600 0.000000
-8.103600 0.000000
-8.082600 0.000000
-8.061600 0.000000
-8.040700 0.000000
-8.019700 0.000000
-7.998700 0.000000
-7.977700 0.000000
-7.956800 0.000000
-7.935800 0.000000
-7.914800 0.000000
-7.893800 0.000000
-7.872900 0.000000
-7.851900 0.000000
-7.830900 0.000000
-7.809900 0.000000
-7.789000 0.000000
-7.768000 0.000000
-7.747000 0.000000
-7.726000 0.000000
-7.705100 0.000000
-7.684100 0.000000
-7.663100 0.000000
-7.642100 0.000000
-7.621200 0.000000
-7.600200 0.000000
-7.579200 0.000000
-7.558200 0.000000
-7.537300 0.000000
-7.516300 0.000000
-7.495300 0.000000
-7.474300 0.000000
-7.453400 0.000000
-7.432400 0.000000
-7.411400 0.000000
-7.390400 0.000000
-7.369500 0.000000
-7.348500 0.000000
-7.327500 0.000000
-7.306500 0.000000
-7.285600 0.000000
-7.264600 0.000000
-7.243600 0.000000
-7.222600 0.000000
-7.201700 0.000000
-7.180700 0.000000
-7.159700 0.000000
-7.138700 0.000000
-7.117800 0.000000
-7.096800 0.000000
-7.075800 0.000000
-7.054900 0.000000
-7.033900 0.000000
-7.012900 0.000000
-6.991900 0.000000
-6.971000 0.000000
-6.950000 0.000000
-6.929000 0.000000
-6.908000 0.000000
-6.887100 0.000000
-6.866100 0.000000
-6.845100 0.000000
-6.824100 0.000000
-6.803200 0.000000
-6.782200 0.000000
-6.761200 0.000000
-6.740200 0.000000
-6.719300 0.000000
-6.698300 0.000000
-6.677300 0.000000
-6.656300 0.000000
-6.635400 0.000000
-6.614400 0.000000
-6.593400 0.000000
-6.572400 0.000000
-6.551500 0.000000
-6.530500 0.000000
-6.509500 0.000000
-6.488500 0.000000
-6.467600 0.000000
-6.446600 0.000000
-6.425600 0.000000
-6.404600 0.000000
-6.383700 0.000000
-6.362700 0.000000
-6.341700 0.000000
-6.320700 0.000000
-6.299800 0.000000
-6.278800 0.000000
-6.257800 0.000000
-6.236800 0.000000
-6.215900 0.000000
-6.194900 0.000000
-6.173900 0.000000
-6.152900 0.000000
-6.132000 0.000000
-6.111000 0.000000
-6.090000 0.000000
-6.069000 0.000000
-6.048100 0.000000
-6.027100 0.000000
-6.006100 0.000000
-5.985100 0.000000
-5.964200 0.000000
-5.943200 0.000000
-5.922200 0.000000
-5.901200 0.000000
-5.880300 0.000000
-5.859300 0.000000
-5.838300 0.000000
-5.817300 0.000000
-5.796400 0.000000
-5.775400 0.000000
-5.754400 0.000000
-5.733500 0.000000
-5.712500 0.000000
-5.691500 0.000000
-5.670500 0.000000
-5.649600 0.000000
-5.628600 0.000000
-5.607600 0.000000
-5.586600 0.000000
-5.565700 0.000000
-5.544700 0.000000
-5.523700 0.000000
-5.502700 0.000000
-5.481800 0.000000
-5.460800 0.000000
-5.439800 0.000000
-5.418800 0.000000
-5.397900 0.000000
-5.376900 0.000000
-5.355900 0.000000
-5.334900 0.000000
-5.314000 0.000000
-5.293000 0.000000
-5.272000 0.000000
-5.251000 0.000000
-5.230100 0.000000
-5.209100 0.000000
-5.188100 0.000000
-5.167100 0.000000
-5.146200 0.000000
-5.125200 0.000000
-5.104200 0.000000
-5.083200 0.000000
-5.062300 0.000000
-5.041300 0.000000
-5.020300 0.000100
-4.999300 0.054300
-4.978400 0.208400
-4.957400 0.256500
-4.936400 0.484700
-4.915400 1.286400
-4.894500 1.660600
-4.873500 1.466300
-4.852500 1.507200
-4.831500 1.591400
-4.810600 1.624000
-4.789600 1.637300
-4.768600 1.626200
-4.747600 1.649100
-4.726700 1.685000
-4.705700 1.714200
-4.684700 1.720300
-4.663700 1.727600
-4.642800 1.750800
-4.621800 1.778100
-4.600800 1.793500
-4.579800 1.808900
-4.558900 1.834400
-4.537900 1.861800
-4.516900 1.878000
-4.495900 1.893400
-4.475000 1.917800
-4.454000 1.945100
-4.433000 1.974700
-4.412100 2.006900
-4.391100 2.047000
-4.370100 2.083700
-4.349100 2.124100
-4.328200 2.165200
-4.307200 2.202200
-4.286200 2.244900
-4.265200 2.294600
-4.244300 2.350300
-4.223300 2.411900
-4.202300 2.478000
-4.181300 2.550400
-4.160400 2.636300
-4.139400 2.756300
-4.118400 2.876700
-4.097400 3.019500
-4.076500 3.189500
-4.055500 3.377500
-4.034500 3.652200
-4.013500 3.964500
-3.992600 4.408500
-3.971600 7.462300
-3.950600 7.656400
-3.929600 6.204100
-3.908700 5.859700
-3.887700 6.322800
-3.866700 6.643300
-3.845700 6.356200
-3.824800 7.005200
-3.803800 8.322600
-3.782800 10.427300
-3.761800 12.053800
-3.740900 14.790200
-3.719900 12.153200
-3.698900 9.191200
-3.677900 13.480500
-3.657000 16.147000
-3.636000 7.247900
-3.615000 5.617100
-3.594000 5.279400
-3.573100 4.116300
-3.552100 3.962400
-3.531100 5.442700
-3.510100 9.797000
-3.489200 11.136300
-3.468200 9.368200
-3.447200 9.442400
-3.426200 7.492100
-3.405300 6.526300
-3.384300 5.995900
-3.363300 5.504800
-3.342300 4.994000
-3.321400 4.603000
-3.300400 4.727000
-3.279400 3.804500
-3.258400 3.560400
-3.237500 3.650900
-3.216500 3.803200
-3.195500 3.505200
-3.174500 2.271500
-3.153600 1.695600
-3.132600 1.331600
-3.111600 1.178000
-3.090700 1.079700
-3.069700 1.003900
-3.048700 0.955600
-3.027700 0.881300
-3.006800 0.821700
-2.985800 0.777500
-2.964800 0.789400
-2.943800 0.884400
-2.922900 1.057400
-2.901900 1.371000
-2.880900 1.712100
-2.859900 1.993800
-2.839000 2.375700
-2.818000 3.010000
-2.797000 2.920600
-2.776000 3.212300
-2.755100 3.561500
-2.734100 3.671600
-2.713100 3.771800
-2.692100 4.083400
-2.671200 4.013600
-2.650200 4.146300
-2.629200 3.932800
-2.608200 3.735900
-2.587300 3.688000
-2.566300 3.592800
-2.545300 3.424900
-2.524300 3.352400
-2.503400 3.469600
-2.482400 3.705400
-2.461400 3.968300
-2.440400 4.126500
-2.419500 4.242300
-2.398500 4.360500
-2.377500 4.419800
-2.356500 4.301100
-2.335600 4.445300
-2.314600 4.288400
-2.293600 4.301600
-2.272600 4.212600
-2.251700 4.331500
-2.230700 4.655800
-2.209700 4.477100
-2.188700 4.009600
-2.167800 4.014900
-2.146800 4.000200
-2.125800 3.916100
-2.104800 3.724600
-2.083900 3.686900
-2.062900 3.762300
-2.041900 3.963200
-2.020900 4.190000
-2.000000 4.353900
-1.979000 4.426800
-1.958000 4.445500
-1.937000 4.664200
-1.916100 4.976500
-1.895100 5.349100
-1.874100 5.678700
-1.853100 4.912700
-1.832200 5.124100
-1.811200 5.156700
-1.790200 5.272600
-1.769300 4.989200
-1.748300 5.002500
-1.727300 5.100200
-1.706300 5.294400
-1.685400 5.509300
-1.664400 5.613000
-1.643400 5.735300
-1.622400 5.804600
-1.601500 5.887000
-1.580500 6.050200
-1.559500 6.358300
-1.538500 6.924300
-1.517600 7.422300
-1.496600 7.091400
-1.475600 7.227900
-1.454600 6.412800
-1.433700 6.629700
-1.412700 6.828100
-1.391700 7.422400
-1.370700 8.083400
-1.349800 9.163900
-1.328800 10.469500
-1.307800 8.177500
-1.286800 5.619400
-1.265900 5.691800
-1.244900 6.606800
-1.223900 7.122700
-1.202900 7.219400
-1.182000 7.457400
-1.161000 7.752400
-1.140000 7.365500
-1.119000 6.964800
-1.098100 6.829100
-1.077100 6.905900
-1.056100 6.778100
-1.035100 6.363100
-1.014200 6.097500
-0.993200 6.040600
-0.972200 6.340600
-0.951200 5.700600
-0.930300 5.585800
-0.909300 6.063100
-0.888300 6.110700
-0.867300 6.179200
-0.846400 6.813100
-0.825400 7.824600
-0.804400 5.751400
-0.783400 4.213600
-0.762500 4.079000
-0.741500 3.912800
-0.720500 4.114700
-0.699500 5.045300
-0.678600 5.032600
-0.657600 4.591200
-0.636600 4.432800
-0.615600 4.272800
-0.594700 4.246100
-0.573700 4.154600
-0.552700 3.925400
-0.531700 3.792400
-0.510800 3.671900
-0.489800 3.569900
-0.468800 3.644300
-0.447900 3.578500
-0.426900 3.425100
-0.405900 3.373500
-0.384900 3.302800
-0.364000 3.393000
-0.343000 3.381900
-0.322000 3.390300
-0.301000 3.275500
-0.280100 3.119100
-0.259100 3.186400
-0.238100 3.256200
-0.217100 3.349400
-0.196200 3.505800
-0.175200 3.581900
-0.154200 5.058000
-0.133200 5.699800
-0.112300 6.975200
-0.091300 8.571600
-0.070300 9.868700
-0.049300 8.460000
-0.028400 8.218100
-0.007400 8.234500
0.013600 8.082600
0.034600 7.998400
0.055500 7.387500
0.076500 7.169300
0.097500 7.455600
0.118500 6.839300
0.139400 6.562900
0.160400 6.021400
0.181400 4.991500
0.202400 4.508400
0.223300 4.262000
0.244300 4.080300
0.265300 3.971200
0.286300 3.936100
0.307200 4.007100
0.328200 4.152900
0.349200 4.333300
0.370200 4.442000
0.391100 4.636300
0.412100 4.805200
0.433100 4.959800
0.454100 5.206800
0.475000 5.616600
0.496000 5.228700
0.517000 5.134400
0.538000 5.094200
0.558900 4.952500
0.579900 4.576900
0.600900 3.951100
0.621900 3.518200
0.642800 3.207300
0.663800 3.072000
0.684800 2.957500
0.705800 2.855000
0.726700 2.760000
0.747700 2.738100
0.768700 2.784900
0.789700 2.953800
0.810600 3.611700
0.831600 4.125500
0.852600 4.082000
0.873500 4.067100
0.894500 3.969900
0.915500 4.003100
0.936500 4.096600
0.957400 4.228600
0.978400 4.144300
0.999400 4.126400
1.020400 4.160100
1.041300 4.169500
1.062300 4.116600
1.083300 4.209000
1.104300 4.450700
1.125200 4.598300
1.146200 4.773600
1.167200 5.208500
1.188200 6.113300
1.209100 6.498900
1.230100 6.773900
1.251100 7.396900
1.272100 7.486900
1.293000 7.553400
1.314000 7.661200
1.335000 7.160700
1.356000 7.075200
1.376900 6.714800
1.397900 6.327200
1.418900 5.743000
1.439900 5.434400
1.460800 5.519600
1.481800 5.485000
1.502800 5.277400
1.523800 5.153200
1.544700 5.083200
1.565700 4.882000
1.586700 4.666000
1.607700 4.537800
1.628600 4.396900
1.649600 4.262000
1.670600 4.155400
1.691600 3.828800
1.712500 3.455300
1.733500 3.145300
1.754500 2.851500
1.775500 2.583000
1.796400 2.257400
1.817400 2.063200
1.838400 2.250000
1.859400 2.533700
1.880300 2.832900
1.901300 3.175600
1.922300 3.403200
1.943300 3.662500
1.964200 3.247800
1.985200 2.704600
2.006200 2.612700
2.027200 2.771100
2.048100 2.694600
2.069100 3.036400
2.090100 2.983000
2.111100 3.206700
2.132000 3.481500
2.153000 3.821600
2.174000 4.192100
2.194900 4.349800
2.215900 4.621000
2.236900 4.998000
2.257900 5.599200
2.278800 6.211700
2.299800 6.686700
2.320800 6.868400
2.341800 6.715800
2.362700 6.724900
2.383700 7.217600
2.404700 7.483100
2.425700 7.755500
2.446600 7.798900
2.467600 7.984700
2.488600 7.672600
2.509600 7.633800
2.530500 8.018600
2.551500 7.770100
2.572500 6.773900
2.593500 5.286100
2.614400 4.966300
2.635400 4.912800
2.656400 5.501400
2.677400 5.200100
2.698300 4.719400
2.719300 4.660800
2.740300 5.113100
2.761300 5.486700
2.782200 4.913800
2.803200 4.614300
2.824200 2.892500
2.845200 1.749100
2.866100 1.617200
2.887100 1.575300
2.908100 1.553100
2.929100 1.539600
2.950000 1.529400
2.971000 1.531400
2.992000 1.540700
3.013000 1.554700
3.033900 1.572700
3.054900 1.590400
3.075900 1.608300
3.096900 1.635300
3.117800 1.669400
3.138800 1.708600
3.159800 1.767100
3.180800 1.837900
3.201700 1.909100
3.222700 1.994000
3.243700 2.079500
3.264700 2.145300
3.285600 2.119300
3.306600 2.007100
3.327600 1.942100
3.348600 1.948700
3.369500 1.969400
3.390500 1.981600
3.411500 2.011200
3.432500 2.093300
3.453400 2.133500
3.474400 2.159900
3.495400 2.176100
3.516300 2.189300
3.537300 2.186800
3.558300 2.184300
3.579300 2.188700
3.600200 2.136000
3.621200 2.134400
3.642200 2.088200
3.663200 2.003200
3.684100 1.977300
3.705100 1.995900
3.726100 1.988300
3.747100 1.983200
3.768000 1.997000
3.789000 2.016500
3.810000 2.052000
3.831000 2.208600
3.851900 2.284000
3.872900 2.220000
3.893900 2.231800
3.914900 2.330700
3.935800 2.354500
3.956800 2.355000
3.977800 2.343100
3.998800 2.270400
4.019700 2.270200
4.040700 2.283900
4.061700 2.396300
4.082700 2.249500
4.103600 2.235400
4.124600 2.242800
4.145600 2.311200
4.166600 2.448200
4.187500 2.195500
4.208500 1.916500
4.229500 1.824900
4.250500 1.819800
4.271400 1.788500
4.292400 1.823800
4.313400 1.912000
4.334400 1.987700
4.355300 2.065700
4.376300 2.160200
4.397300 2.246700
4.418300 2.459600
4.439200 2.613900
4.460200 2.609300
4.481200 2.628000
4.502200 2.730900
4.523100 2.749700
4.544100 2.737500
4.565100 2.722000
4.586100 2.724800
4.607000 2.643900
4.628000 2.691500
4.649000 2.739300
4.670000 2.800800
4.690900 2.911400
4.711900 3.035800
4.732900 3.119400
4.753900 3.219500
4.774800 3.376800
4.795800 3.506700
4.816800 3.611000
4.837700 3.766700
4.858700 3.948100
4.879700 4.491500
4.900700 4.287000
4.921600 4.128400
4.942600 4.327700
4.963600 4.701800
4.984600 4.855900
5.005500 4.451900
5.026500 4.128400
5.047500 3.948500
5.068500 3.834000
5.089400 3.804600
5.110400 3.865500
5.131400 3.982300
5.152400 3.530100
5.173300 2.724900
5.194300 2.216300
5.215300 2.225700
5.236300 2.233200
5.257200 2.260300
5.278200 2.300900
5.299200 2.357600
5.320200 2.424000
5.341100 2.503500
5.362100 2.612200
5.383100 2.759400
5.404100 2.927500
5.425000 3.166000
5.446000 3.525000
5.467000 4.038000
5.488000 4.666400
5.508900 5.123100
5.529900 4.562900
5.550900 3.513000
5.571900 2.785300
5.592800 1.975300
5.613800 1.417600
5.634800 0.827400
5.655800 0.757700
5.676700 0.693400
5.697700 0.657500
5.718700 0.636300
5.739700 0.560400
5.760600 0.516900
5.781600 0.492700
5.802600 0.460800
5.823600 0.418100
5.844500 0.378300
5.865500 0.356800
5.886500 0.337600
5.907500 0.310000
5.928400 0.275400
5.949400 0.258600
5.970400 0.226400
5.991400 0.185600
6.012300 0.158600
6.033300 0.150300
6.054300 0.088700
6.075300 0.020000
6.096200 0.000000
6.117200 0.000000
6.138200 0.000000
6.159100 0.000000
6.180100 0.000000
6.201100 0.000000
6.222100 0.000000
6.243000 0.000000
6.264000 0.000000
6.285000 0.000000
6.306000 0.000000
6.326900 0.000000
6.347900 0.000000
6.368900 0.000000
6.389900 0.000000
6.410800 0.000000
6.431800 0.000000
6.452800 0.000000
6.473800 0.000000
6.494700 0.000000
6.515700 0.000000
6.536700 0.000000
6.557700 0.000000
6.578600 0.000000
6.599600 0.000000
6.620600 0.000000
6.641600 0.000000
6.662500 0.000000
6.683500 0.000000
6.704500 0.000000
6.725500 0.000000
6.746400 0.000000
6.767400 0.000000
6.788400 0.000000
6.809400 0.000000
6.830300 0.000000
6.851300 0.000000
6.872300 0.000000
6.893300 0.000000
6.914200 0.000000
6.935200 0.000000
6.956200 0.000000
6.977200 0.000000
6.998100 0.000000
7.019100 0.000000
7.040100 0.000000
7.061100 0.000000
7.082000 0.000000
7.103000 0.000000
7.124000 0.000000
7.145000 0.000000
7.165900 0.000000
7.186900 0.000000
7.207900 0.000000
7.228900 0.000000
7.249800 0.000000
7.270800 0.000000
7.291800 0.000000
7.312800 0.000000
7.333700 0.000000
7.354700 0.000000
7.375700 0.000000
7.396700 0.000000
7.417600 0.000000
7.438600 0.000000
7.459600 0.000000
7.480500 0.000000
7.501500 0.000000
7.522500 0.000000
7.543500 0.000000
7.564400 0.000000
7.585400 0.000000
7.606400 0.000000
7.627400 0.000000
7.648300 0.000000
7.669300 0.000000
7.690300 0.000000
7.711300 0.000000
7.732200 0.000000
7.753200 0.000000
7.774200 0.000000
7.795200 0.000000
7.816100 0.000000
7.837100 0.000000
7.858100 0.000000
7.879100 0.000000
7.900000 0.000000
7.921000 0.000000
7.942000 0.000000
7.963000 0.000000
7.983900 0.000000
8.004900 0.000000
8.025900 0.000000
8.046900 0.000000
8.067800 0.000000
8.088800 0.000000
8.109800 0.000000
8.130800 0.000000
8.151700 0.000000
8.172700 0.000000
8.193700 0.000000
8.214700 0.000000
8.235600 0.000000
8.256600 0.000000
8.277600 0.000000
8.298600 0.000000
8.319500 0.000000
8.340500 0.000000
8.361500 0.000000
8.382500 0.000000
8.403400 0.000000
8.424400 0.000000
8.445400 0.000000
8.466400 0.000000
8.487300 0.000000
8.508300 0.000000
8.529300 0.000000
8.550300 0.000000
8.571200 0.000000
8.592200 0.000000
8.613200 0.000000
8.634200 0.001500
8.655100 0.006100
8.676100 0.013900
8.697100 0.024900
8.718100 0.037600
8.739000 0.047400
8.760000 0.054100
8.781000 0.057700
8.801900 0.058700
8.822900 0.060400
8.843900 0.063200
8.864900 0.067100
8.885800 0.072100
8.906800 0.077400
8.927800 0.082800
8.948800 0.088400
8.969700 0.093900
8.990700 0.098300
9.011700 0.101600
9.032700 0.103700
9.053600 0.105100
9.074600 0.107000
9.095600 0.109500
9.116600 0.112700
9.137500 0.116100
9.158500 0.119500
9.179500 0.122900
9.200500 0.126300
9.221400 0.129600
9.242400 0.133000
9.263400 0.136400
9.284400 0.139700
9.305300 0.143200
9.326300 0.147000
9.347300 0.151000
9.368300 0.155100
9.389200 0.158700
9.410200 0.161800
9.431200 0.164500
9.452200 0.167100
9.473100 0.169800
9.494100 0.172800
9.515100 0.175900
9.536100 0.179000
9.557000 0.182100
9.578000 0.185100
9.599000 0.188200
9.620000 0.191200
9.640900 0.194200
9.661900 0.197400
9.682900 0.200900
9.703900 0.204600
9.724800 0.208500
9.745800 0.212300
9.766800 0.216000
9.787800 0.219800
9.808700 0.223700
9.829700 0.227600
9.850700 0.231500
9.871700 0.235200
9.892600 0.238700
9.913600 0.242000
9.934600 0.245300
9.955600 0.248500
9.976500 0.251800
9.997500 0.255100
10.018500 0.258500
10.039500 0.262100
10.060400 0.265900
10.081400 0.269800
10.102400 0.273700
10.123300 0.277700
10.144300 0.281700
10.165300 0.285700
10.186300 0.289700
10.207200 0.293800
10.228200 0.297800
10.249200 0.302000
10.270200 0.306100
10.291100 0.310300
10.312100 0.314400
10.333100 0.318600
10.354100 0.322800
10.375000 0.326900
10.396000 0.331000
10.417000 0.335100
10.438000 0.339600
10.458900 0.344400
10.479900 0.349300
10.500900 0.354000
10.521900 0.358500
10.542800 0.363200
10.563800 0.367900
10.584800 0.372600
10.605800 0.377400
10.626700 0.382200
10.647700 0.387100
10.668700 0.391900
10.689700 0.396600
10.710600 0.401400
10.731600 0.406200
10.752600 0.411000
10.773600 0.415800
10.794500 0.420600
10.815500 0.425400
10.836500 0.430400
10.857500 0.435600
10.878400 0.441100
10.899400 0.466800
10.920400 0.496800
10.941400 0.524700
10.962300 0.524800
10.983300 0.516300
11.004300 0.508600
11.025300 0.511700
11.046200 0.516100
11.067200 0.520300
11.088200 0.524200
11.109200 0.527800
11.130100 0.528000
11.151100 0.525100
11.172100 0.521400
11.193100 0.521700
11.214000 0.522900
11.235000 0.524000
11.256000 0.525100
11.277000 0.526400
11.297900 0.528200
11.318900 0.530000
11.339900 0.531400
11.360900 0.533500
11.381800 0.535100
11.402800 0.550900
11.423800 0.585000
11.444700 0.621300
11.465700 0.633200
11.486700 0.631000
11.507700 0.627800
11.528600 0.638000
11.549600 0.649000
11.570600 0.660300
11.591600 0.672600
11.612500 0.681300
11.633500 0.689200
11.654500 0.694900
11.675500 0.701800
11.696400 0.709600
11.717400 0.718600
11.738400 0.727800
11.759400 0.737300
11.780300 0.746200
11.801300 0.755200
11.822300 0.764800
11.843300 0.774500
11.864200 0.784300
11.885200 0.795000
11.906200 0.806900
11.927200 0.818200
11.948100 0.828200
11.969100 0.838400
11.990100 0.849200
12.011100 0.860200
12.032000 0.871200
12.053000 0.883000
12.074000 0.895000
12.095000 0.907000
12.115900 0.920000
12.136900 0.931900
12.157900 0.943900
12.178900 0.955800
12.199800 0.968200
12.220800 0.981500
12.241800 0.996800
12.262800 1.012800
12.283700 1.029700
12.304700 1.046900
12.325700 1.063400
12.346700 1.080200
12.367600 1.097900
12.388600 1.116000
12.409600 1.134400
12.430600 1.152400
12.451500 1.195100
12.472500 1.216400
12.493500 1.227700
12.514500 1.263800
12.535400 1.301600
12.556400 1.347100
12.577400 1.389400
12.598400 1.436200
12.619300 1.483900
12.640300 1.558200
12.661300 1.612200
12.682300 1.655100
12.703200 1.621400
12.724200 1.601000
12.745200 1.590700
12.766100 1.552900
12.787100 1.547300
12.808100 1.547100
12.829100 1.538900
12.850000 1.551500
12.871000 1.581100
12.892000 1.654900
12.913000 1.706100
12.933900 1.720200
12.954900 1.741900
12.975900 1.755100
12.996900 1.833300
13.017800 1.900600
13.038800 1.934000
13.059800 1.916100
13.080800 1.922500
13.101700 1.932300
13.122700 1.940600
13.143700 1.917100
13.164700 1.905700
13.185600 1.939200
13.206600 1.939600
13.227600 1.915300
13.248600 1.905600
13.269500 1.898800
13.290500 1.902100
13.311500 1.904800
13.332500 1.910300
13.353400 1.917600
13.374400 1.926300
13.395400 1.934400
13.416400 1.935600
13.437300 1.939600
13.458300 1.942300
13.479300 1.947200
13.500300 1.941500
13.521200 1.948300
13.542200 1.961400
13.563200 1.957600
13.584200 2.458000
13.605100 2.282900
13.626100 2.319900
13.647100 2.498000
13.668100 2.218000
13.689000 2.158400
13.710000 2.252700
13.731000 2.662700
13.752000 2.790100
13.772900 2.608600
13.793900 2.501000
13.814900 2.509900
13.835900 2.500300
13.856800 2.173900
13.877800 2.090200
13.898800 1.985000
13.919800 1.906200
13.940700 1.870000
13.961700 1.832800
13.982700 1.795200
14.003700 1.755600
14.024600 1.713400
14.045600 1.688700
14.066600 1.686500
14.087500 1.688400
14.108500 1.747600
14.129500 1.816800
14.150500 1.847800
14.171400 1.912100
14.192400 2.243800
14.213400 2.060600
14.234400 2.041700
14.255300 2.049100
14.276300 1.963400
14.297300 1.968300
14.318300 1.975500
14.339200 1.984800
14.360200 1.945700
14.381200 1.949700
14.402200 1.955200
14.423100 1.967700
14.444100 1.986800
14.465100 2.013300
14.486100 2.038000
14.507000 2.061000
14.528000 2.086300
14.549000 2.153400
14.570000 2.160800
14.590900 2.163100
14.611900 2.179400
14.632900 2.308900
14.653900 2.308200
14.674800 2.364500
14.695800 2.410200
14.716800 2.471500
14.737800 2.600500
14.758700 2.506000
14.779700 2.522100
14.800700 2.559200
14.821700 2.672000
14.842600 2.639900
14.863600 2.597800
14.884600 2.582300
14.905600 2.593900
14.926500 2.612600
14.947500 2.595000
14.968500 2.643300
14.989500 2.736400
15.010400 2.825000
15.031400 2.887400
15.052400 2.990500
15.073400 3.131200
15.094300 3.232300
15.115300 3.436500
15.136300 3.818400
15.157300 4.060600
15.178200 5.697900
15.199200 2.574200
15.220200 2.304000
15.241200 1.930000
15.262100 1.692500
15.283100 1.588700
15.304100 1.540400
15.325100 1.205500
15.346000 1.012500
15.367000 0.936300
15.388000 0.865800
15.408900 0.800100
15.429900 0.765000
15.450900 0.767800
15.471900 0.786600
15.492800 0.827400
15.513800 0.880000
15.534800 0.842400
15.555800 0.917100
15.576700 0.988700
15.597700 1.063700
15.618700 1.132400
15.639700 1.238500
15.660600 1.381900
15.681600 1.680900
15.702600 2.021700
15.723600 2.387700
15.744500 1.998500
15.765500 1.763800
15.786500 1.721000
15.807500 1.708000
15.828400 1.812200
15.849400 1.570700
15.870400 1.546700
15.891400 1.497200
15.912300 1.465400
15.933300 1.454200
15.954300 1.444500
15.975300 1.365900
15.996200 1.339700
16.017200 1.332000
16.038200 1.284900
16.059200 1.197900
16.080100 1.184000
16.101100 1.184000
16.122100 1.187900
16.143100 1.193300
16.164000 1.200200
16.185000 1.209900
16.206000 1.225300
16.227000 1.252000
16.247900 1.266900
16.268900 1.283300
16.289900 1.294300
16.310900 1.315000
16.331800 1.334500
16.352800 1.354300
16.373800 1.374200
16.394800 1.393400
16.415700 1.411700
16.436700 1.425000
16.457700 1.445100
16.478700 1.491600
16.499600 1.513400
16.520600 1.536400
16.541600 1.563500
16.562600 1.593000
16.583500 1.626300
16.604500 1.699700
16.625500 1.917700
16.646500 2.310800
16.667400 2.586500
16.688400 2.740200
16.709400 2.810800
16.730300 2.935200
16.751300 3.107600
16.772300 3.281700
16.793300 3.450900
16.814200 3.592100
16.835200 3.715400
16.856200 3.796600
16.877200 3.490000
16.898100 3.503700
16.919100 3.529100
16.940100 3.759600
16.961100 4.475700
16.982000 5.293000
17.003000 5.637100
17.024000 6.951400
17.045000 5.868400
17.065900 4.917700
17.086900 4.689700
17.107900 4.752800
17.128900 4.774200
17.149800 4.550900
17.170800 4.346500
17.191800 4.313400
17.212800 4.334300
17.233700 4.528000
17.254700 4.344700
17.275700 3.433500
17.296700 2.895900
17.317600 2.320300
17.338600 1.951200
17.359600 1.470300
17.380600 1.303200
17.401500 1.203300
17.422500 1.032300
17.443500 0.909700
17.464500 0.955000
17.485400 1.012000
17.506400 1.075500
17.527400 1.145300
17.548400 1.218400
17.569300 1.310500
17.590300 1.424500
17.611300 1.562200
17.632300 1.720000
17.653200 1.929100
17.674200 2.102500
17.695200 2.195200
17.716200 2.241300
17.737100 2.322300
17.758100 2.413200
17.779100 2.521400
17.800100 2.603000
17.821000 2.662500
17.842000 2.602100
17.863000 2.488400
17.884000 2.438200
17.904900 2.437400
17.925900 2.420800
17.946900 2.355600
17.967900 2.294900
17.988800 2.208400
18.009800 2.216200
18.030800 2.262600
18.051700 2.362100
18.072700 2.648000
18.093700 3.052600
18.114700 3.499400
18.135600 5.224500
18.156600 6.079800
18.177600 5.615700
18.198600 5.134300
18.219500 4.083500
18.240500 3.962000
18.261500 3.955300
18.282500 3.716900
18.303400 3.223100
18.324400 3.056800
18.345400 2.962900
18.366400 2.977300
18.387300 3.144900
18.408300 3.250100
18.429300 3.336300
18.450300 3.507100
18.471200 3.710600
18.492200 3.428100
18.513200 3.294000
18.534200 3.173500
18.555100 3.050800
18.576100 2.942200
18.597100 2.887500
18.618100 2.829800
18.639000 2.716200
18.660000 2.697400
18.681000 2.647300
18.702000 2.397400
18.722900 2.399300
18.743900 2.404100
18.764900 2.449500
18.785900 2.509700
18.806800 2.606500
18.827800 2.826400
18.848800 3.081900
18.869800 3.324300
18.890700 3.358700
18.911700 3.445000
18.932700 3.316400
18.953700 3.280200
18.974600 3.184900
18.995600 3.064300
19.016600 2.973100
19.037600 2.874900
19.058500 2.753000
19.079500 2.689700
19.100500 2.676800
19.121500 2.651800
19.142400 2.628800
19.163400 2.613900
19.184400 2.602500
19.205400 2.585500
19.226300 2.617400
19.247300 2.683900
19.268300 2.703300
19.289300 2.740100
19.310200 2.759700
19.331200 2.753300
19.352200 2.716200
19.373100 2.656300
19.394100 2.438700
19.415100 2.328000
19.436100 2.240300
19.457000 2.166000
19.478000 2.113400
19.499000 2.074100
19.520000 2.039200
19.540900 2.013400
19.561900 1.997600
19.582900 1.976600
19.603900 1.946500
19.624800 1.910800
19.645800 1.879200
19.666800 1.855100
19.687800 1.833400
19.708700 1.810100
19.729700 1.790000
19.750700 1.776700
19.771700 1.730900
19.792600 1.681400
19.813600 1.631300
19.834600 1.599000
19.855600 1.605800
19.876500 1.636900
19.897500 1.666300
19.918500 1.648200
19.939500 1.597300
19.960400 1.453700
19.981400 1.331500
20.002400 1.310400
20.023400 1.289400
20.044300 1.266600
20.065300 1.240600
20.086300 1.214400
20.107300 1.191500
20.128200 1.170100
20.149200 1.149000
20.170200 1.127400
20.191200 1.107100
20.212100 1.087900
20.233100 1.071300
20.254100 1.059200
20.275100 1.046800
20.296000 1.031700
20.317000 1.018300
20.338000 1.006600
20.359000 0.998200
20.379900 0.987700
20.400900 0.977300
20.421900 0.967400
20.442900 0.957500
20.463800 0.946800
20.484800 0.938100
20.505800 0.924400
20.526800 0.910300
20.547700 0.895600
20.568700 0.878600
20.589700 0.871600
20.610700 0.860900
20.631600 0.840700
20.652600 0.820200
20.673600 0.802500
20.694500 0.786800
20.715500 0.771800
20.736500 0.737600
20.757500 0.708300
20.778400 0.700000
20.799400 0.692700
20.820400 0.689000
20.841400 0.685500
20.862300 0.678700
20.883300 0.667700
20.904300 0.649800
20.925300 0.626400
20.946200 0.601100
20.967200 0.574600
20.988200 0.557700
21.009200 0.544700
21.030100 0.531600
21.051100 0.517600
21.072100 0.503000
21.093100 0.488900
21.114000 0.474400
21.135000 0.459800
21.156000 0.444700
21.177000 0.429900
21.197900 0.415300
21.218900 0.399900
21.239900 0.371000
21.260900 0.353200
21.281800 0.337700
21.302800 0.318800
21.323800 0.308400
21.344800 0.298700
21.365700 0.289400
21.386700 0.275800
21.407700 0.260900
21.428700 0.250900
21.449600 0.241100
21.470600 0.229600
21.491600 0.216600
21.512600 0.204900
21.533500 0.194800
21.554500 0.184700
21.575500 0.171900
21.596500 0.136500
21.617400 0.114100
21.638400 0.100700
21.659400 0.088400
21.680400 0.077800
21.701300 0.067500
21.722300 0.057400
21.743300 0.047700
21.764300 0.038200
21.785200 0.029000
21.806200 0.018400
21.827200 0.004300
21.848200 0.000000
21.869100 0.000000
21.890100 0.000000
21.911100 0.000000
21.932100 0.000000
21.953000 0.000000
21.974000 0.000000
21.995000 0.000000
22.015900 0.000000
22.036900 0.000000
22.057900 0.000000
22.078900 0.000000
22.099800 0.000000
22.120800 0.000000
22.141800 0.000000
22.162800 0.000000
22.183700 0.000000
22.204700 0.000000
22.225700 0.000000
22.246700 0.000000
22.267600 0.000000
22.288600 0.000000
22.309600 0.000000
22.330600 0.000000
22.351500 0.000000
22.372500 0.000000
22.393500 0.000000
22.414500 0.000000
22.435400 0.000000
22.456400 0.000000
22.477400 0.000000
22.498400 0.000000
22.519300 0.000000
22.540300 0.000000
22.561300 0.000000
22.582300 0.000000
22.603200 0.000000
22.624200 0.000000
22.645200 0.000000
22.666200 0.000000
22.687100 0.000000
22.708100 0.000000
22.729100 0.000000
22.750100 0.000000
22.771000 0.000000
22.792000 0.000000
22.813000 0.000000
22.834000 0.000000
22.854900 0.000000
22.875900 0.000000
22.896900 0.000000
22.917900 0.000000
22.938800 0.000000
22.959800 0.000000
22.980800 0.000000
23.001800 0.000000
23.022700 0.000000
23.043700 0.000000
23.064700 0.000000
23.085700 0.000000
23.106600 0.000000
23.127600 0.000000
23.148600 0.000000
23.169600 0.000000
23.190500 0.000000
23.211500 0.000000
23.232500 0.000000
23.253500 0.000000
23.274400 0.000000
23.295400 0.000000
23.316400 0.000000
23.337300 0.000000
23.358300 0.000000
23.379300 0.000000
23.400300 0.000000
23.421200 0.000000
23.442200 0.000000
23.463200 0.000000
23.484200 0.000000
23.505100 0.000000
23.526100 0.000000
23.547100 0.000000
23.568100 0.000000
23.589000 0.000000
23.610000 0.000000
23.631000 0.000000
23.652000 0.000000
23.672900 0.000000
23.693900 0.000000
23.714900 0.000000
23.735900 0.000000
e
