set title 'mp-975065 - Density of States'
set xlabel 'Energy (eV)'
set ylabel 'DOS (states/eV)'
set grid
set xrange [-10:10]
set yrange [0:5.959]
set xzeroaxis lt -1
set terminal png size 800,600
set output 'mp-975065_dos_gnuplot.png'
plot '-' using 1:2 with lines title 'DOS'
-38.830500 0.000000
-38.788100 0.000000
-38.745700 0.000000
-38.703300 0.000000
-38.660900 0.000000
-38.618500 0.000000
-38.576100 0.000000
-38.533700 0.000000
-38.491300 0.000000
-38.448900 0.000000
-38.406500 0.000000
-38.364100 0.000000
-38.321700 0.000000
-38.279300 0.000000
-38.236900 0.000000
-38.194500 0.000000
-38.152100 0.000000
-38.109700 0.000000
-38.067300 0.000000
-38.025000 0.000000
-37.982600 0.000000
-37.940200 0.000000
-37.897800 0.000000
-37.855400 0.000000
-37.813000 0.000000
-37.770600 0.000000
-37.728200 0.000000
-37.685800 0.000000
-37.643400 0.000000
-37.601000 0.000000
-37.558600 0.000000
-37.516200 0.000000
-37.473800 0.000000
-37.431400 0.000000
-37.389000 0.000000
-37.346600 0.000000
-37.304200 0.000000
-37.261800 0.000000
-37.219400 0.000000
-37.177000 0.000000
-37.134600 0.000000
-37.092200 0.000000
-37.049800 0.000000
-37.007400 0.000000
-36.965000 0.000000
-36.922600 0.000000
-36.880200 0.000000
-36.837800 0.000000
-36.795400 0.000000
-36.753000 0.000000
-36.710600 0.000000
-36.668200 0.000000
-36.625800 0.000000
-36.583400 0.000000
-36.541000 0.000000
-36.498600 0.000000
-36.456200 0.000000
-36.413800 0.000000
-36.371400 0.000000
-36.329000 0.000000
-36.286600 0.000000
-36.244200 0.000000
-36.201800 0.000000
-36.159400 0.000000
-36.117000 0.000000
-36.074600 0.000000
-36.032200 0.000000
-35.989800 0.000000
-35.947400 0.000000
-35.905000 0.000000
-35.862700 0.000000
-35.820300 0.000000
-35.777900 0.000000
-35.735500 0.000000
-35.693100 0.000000
-35.650700 0.000000
-35.608300 0.000000
-35.565900 0.000000
-35.523500 0.000000
-35.481100 0.000000
-35.438700 0.000000
-35.396300 0.000000
-35.353900 0.000000
-35.311500 0.000000
-35.269100 0.000000
-35.226700 0.000000
-35.184300 0.000000
-35.141900 0.000000
-35.099500 0.000000
-35.057100 0.000000
-35.014700 0.000000
-34.972300 0.069000
-34.929900 2.554000
-34.887500 5.930200
-34.845100 10.853700
-34.802700 15.407100
-34.760300 21.109900
-34.717900 19.540800
-34.675500 12.416900
-34.633100 14.688900
-34.590700 8.179500
-34.548300 5.843600
-34.505900 9.429000
-34.463500 11.071200
-34.421100 11.931000
-34.378700 13.494500
-34.336300 13.878600
-34.293900 15.541600
-34.251500 24.032700
-34.209100 22.736500
-34.166700 18.812100
-34.124300 23.920500
-34.081900 27.832800
-34.039500 33.125200
-33.997100 30.997100
-33.954700 20.082100
-33.912300 13.407200
-33.869900 8.970300
-33.827500 1.100500
-33.785100 0.000000
-33.742700 0.000000
-33.700300 0.000000
-33.658000 0.000000
-33.615600 0.000000
-33.573200 0.000000
-33.530800 0.000000
-33.488400 0.000000
-33.446000 0.000000
-33.403600 0.000000
-33.361200 0.000000
-33.318800 0.000000
-33.276400 0.000000
-33.234000 0.000000
-33.191600 0.000000
-33.149200 0.000000
-33.106800 0.000000
-33.064400 0.000000
-33.022000 0.000000
-32.979600 0.000000
-32.937200 0.000000
-32.894800 0.000000
-32.852400 0.000000
-32.810000 0.000000
-32.767600 0.000000
-32.725200 0.000000
-32.682800 0.000000
-32.640400 0.000000
-32.598000 0.000000
-32.555600 0.000000
-32.513200 0.000000
-32.470800 0.000000
-32.428400 0.000000
-32.386000 0.000000
-32.343600 0.000000
-32.301200 0.000000
-32.258800 0.000000
-32.216400 0.000000
-32.174000 0.000000
-32.131600 0.000000
-32.089200 0.000000
-32.046800 0.000000
-32.004400 0.000000
-31.962000 0.000000
-31.919600 0.000000
-31.877200 0.000000
-31.834800 0.000000
-31.792400 0.000000
-31.750000 0.000000
-31.707600 0.000000
-31.665200 0.000000
-31.622800 0.000000
-31.580400 0.000000
-31.538000 0.000000
-31.495700 0.000000
-31.453300 0.000000
-31.410900 0.000000
-31.368500 0.000000
-31.326100 0.000000
-31.283700 0.000000
-31.241300 0.000000
-31.198900 0.000000
-31.156500 0.000000
-31.114100 0.000000
-31.071700 0.000000
-31.029300 0.000000
-30.986900 0.000000
-30.944500 0.000000
-30.902100 0.000000
-30.859700 0.000000
-30.817300 0.000000
-30.774900 0.000000
-30.732500 0.000000
-30.690100 0.000000
-30.647700 0.000000
-30.605300 0.000000
-30.562900 0.000000
-30.520500 0.000000
-30.478100 0.000000
-30.435700 0.000000
-30.393300 0.000000
-30.350900 0.000000
-30.308500 0.000000
-30.266100 0.000000
-30.223700 0.000000
-30.181300 0.000000
-30.138900 0.000000
-30.096500 0.000000
-30.054100 0.000000
-30.011700 0.000000
-29.969300 0.000000
-29.926900 0.000000
-29.884500 0.000000
-29.842100 0.000000
-29.799700 0.000000
-29.757300 0.000000
-29.714900 0.000000
-29.672500 0.000000
-29.630100 0.000000
-29.587700 0.000000
-29.545300 0.000000
-29.502900 0.000000
-29.460500 0.000000
-29.418100 0.000000
-29.375700 0.000000
-29.333400 0.000000
-29.291000 0.000000
-29.248600 0.000000
-29.206200 0.000000
-29.163800 0.000000
-29.121400 0.000000
-29.079000 0.000000
-29.036600 0.000000
-28.994200 0.000000
-28.951800 0.000000
-28.909400 0.000000
-28.867000 0.000000
-28.824600 0.000000
-28.782200 0.000000
-28.739800 0.000000
-28.697400 0.000000
-28.655000 0.000000
-28.612600 0.000000
-28.570200 0.000000
-28.527800 0.000000
-28.485400 0.000000
-28.443000 0.000000
-28.400600 0.000000
-28.358200 0.000000
-28.315800 0.000000
-28.273400 0.000000
-28.231000 0.000000
-28.188600 0.000000
-28.146200 0.000000
-28.103800 0.000000
-28.061400 0.000000
-28.019000 0.000000
-27.976600 0.000000
-27.934200 0.000000
-27.891800 0.000000
-27.849400 0.000000
-27.807000 0.000000
-27.764600 0.000000
-27.722200 0.000000
-27.679800 0.000000
-27.637400 0.000000
-27.595000 0.000000
-27.552600 0.000000
-27.510200 0.000000
-27.467800 0.000000
-27.425400 0.000000
-27.383000 0.000000
-27.340600 0.000000
-27.298200 0.000000
-27.255800 0.000000
-27.213400 0.000000
-27.171100 0.000000
-27.128700 0.000000
-27.086300 0.000000
-27.043900 0.000000
-27.001500 0.000000
-26.959100 0.000000
-26.916700 0.000000
-26.874300 0.000000
-26.831900 0.000000
-26.789500 0.000000
-26.747100 0.000000
-26.704700 0.000000
-26.662300 0.000000
-26.619900 0.000000
-26.577500 0.000000
-26.535100 0.000000
-26.492700 0.000000
-26.450300 0.000000
-26.407900 0.000000
-26.365500 0.000000
-26.323100 0.000000
-26.280700 0.000000
-26.238300 0.000000
-26.195900 0.000000
-26.153500 0.000000
-26.111100 0.000000
-26.068700 0.000000
-26.026300 0.000000
-25.983900 0.000000
-25.941500 0.000000
-25.899100 0.000000
-25.856700 0.000000
-25.814300 0.000000
-25.771900 0.000000
-25.729500 0.000000
-25.687100 0.000000
-25.644700 0.000000
-25.602300 0.000000
-25.559900 0.000000
-25.517500 0.000000
-25.475100 0.000000
-25.432700 0.000000
-25.390300 0.000000
-25.347900 0.000000
-25.305500 0.000000
-25.263100 0.000000
-25.220700 0.000000
-25.178300 0.000000
-25.135900 0.000000
-25.093500 0.000000
-25.051100 0.000000
-25.008700 0.000000
-24.966400 0.000000
-24.924000 0.000000
-24.881600 0.000000
-24.839200 0.000000
-24.796800 0.000000
-24.754400 0.000000
-24.712000 0.000000
-24.669600 0.000000
-24.627200 0.000000
-24.584800 0.000000
-24.542400 0.000000
-24.500000 0.000000
-24.457600 0.000000
-24.415200 0.000000
-24.372800 0.000000
-24.330400 0.000000
-24.288000 0.000000
-24.245600 0.000000
-24.203200 0.000000
-24.160800 0.000000
-24.118400 0.000000
-24.076000 0.000000
-24.033600 0.000000
-23.991200 0.000000
-23.948800 0.000000
-23.906400 0.000000
-23.864000 0.000000
-23.821600 0.000000
-23.779200 0.000000
-23.736800 0.000000
-23.694400 0.000000
-23.652000 0.000000
-23.609600 0.000000
-23.567200 0.000000
-23.524800 0.000000
-23.482400 0.000000
-23.440000 0.000000
-23.397600 0.000000
-23.355200 0.000000
-23.312800 0.000000
-23.270400 0.000000
-23.228000 0.000000
-23.185600 0.000000
-23.143200 0.000000
-23.100800 0.000000
-23.058400 0.000000
-23.016000 0.000000
-22.973600 0.000000
-22.931200 0.000000
-22.888800 0.000000
-22.846400 0.000000
-22.804100 0.000000
-22.761700 0.000000
-22.719300 0.000000
-22.676900 0.000000
-22.634500 0.000000
-22.592100 0.000000
-22.549700 0.000000
-22.507300 0.000000
-22.464900 0.000000
-22.422500 0.000000
-22.380100 0.000000
-22.337700 0.000000
-22.295300 0.000000
-22.252900 0.000000
-22.210500 0.000000
-22.168100 0.000000
-22.125700 0.000000
-22.083300 0.000000
-22.040900 0.000000
-21.998500 0.000000
-21.956100 0.000000
-21.913700 0.000000
-21.871300 0.000000
-21.828900 0.000000
-21.786500 0.000000
-21.744100 0.000000
-21.701700 0.000000
-21.659300 0.000000
-21.616900 0.000000
-21.574500 0.000000
-21.532100 0.000000
-21.489700 0.000000
-21.447300 0.000000
-21.404900 0.000000
-21.362500 0.000000
-21.320100 0.000000
-21.277700 0.000000
-21.235300 0.000000
-21.192900 0.000000
-21.150500 0.000000
-21.108100 0.000000
-21.065700 0.000000
-21.023300 0.000000
-20.980900 0.000000
-20.938500 0.000000
-20.896100 0.000000
-20.853700 0.000000
-20.811300 0.000000
-20.768900 0.000000
-20.726500 0.000000
-20.684100 0.000000
-20.641800 0.000000
-20.599400 0.000000
-20.557000 0.000000
-20.514600 0.000000
-20.472200 0.000000
-20.429800 0.000000
-20.387400 0.000000
-20.345000 0.000000
-20.302600 0.000000
-20.260200 0.000000
-20.217800 0.000000
-20.175400 0.000000
-20.133000 0.000000
-20.090600 0.000000
-20.048200 0.000000
-20.005800 0.000000
-19.963400 0.000000
-19.921000 0.000000
-19.878600 0.000000
-19.836200 0.000000
-19.793800 0.000000
-19.751400 0.000000
-19.709000 0.000000
-19.666600 0.000000
-19.624200 0.000000
-19.581800 0.000000
-19.539400 0.000000
-19.497000 0.000000
-19.454600 0.000000
-19.412200 0.000000
-19.369800 0.000000
-19.327400 0.000000
-19.285000 0.000000
-19.242600 0.000000
-19.200200 0.000000
-19.157800 0.000000
-19.115400 0.000000
-19.073000 0.000000
-19.030600 0.000000
-18.988200 0.000000
-18.945800 0.000000
-18.903400 0.000000
-18.861000 0.000000
-18.818600 0.000000
-18.776200 0.000000
-18.733800 0.000000
-18.691400 0.000000
-18.649000 0.000000
-18.606600 0.000000
-18.564200 0.000000
-18.521800 0.000000
-18.479400 0.000000
-18.437100 0.000000
-18.394700 0.000000
-18.352300 0.000000
-18.309900 0.000000
-18.267500 0.000000
-18.225100 0.000000
-18.182700 0.000000
-18.140300 0.000000
-18.097900 0.000000
-18.055500 0.000000
-18.013100 0.000000
-17.970700 0.000000
-17.928300 0.000000
-17.885900 0.000000
-17.843500 0.000000
-17.801100 0.000000
-17.758700 0.000000
-17.716300 0.000000
-17.673900 0.000000
-17.631500 0.000000
-17.589100 0.000000
-17.546700 0.000000
-17.504300 0.000000
-17.461900 0.000000
-17.419500 0.000000
-17.377100 0.000000
-17.334700 0.000000
-17.292300 0.000000
-17.249900 0.000000
-17.207500 0.000000
-17.165100 0.000000
-17.122700 0.000000
-17.080300 0.000000
-17.037900 0.000000
-16.995500 0.000000
-16.953100 0.000000
-16.910700 0.000000
-16.868300 0.000000
-16.825900 0.000000
-16.783500 0.000000
-16.741100 0.000000
-16.698700 0.000000
-16.656300 0.000000
-16.613900 0.000000
-16.571500 0.000000
-16.529100 0.000000
-16.486700 0.000000
-16.444300 0.000000
-16.401900 0.000000
-16.359500 0.000000
-16.317100 0.000000
-16.274800 0.000000
-16.232400 0.000000
-16.190000 0.000000
-16.147600 0.000000
-16.105200 0.000000
-16.062800 0.000000
-16.020400 0.000000
-15.978000 0.000000
-15.935600 0.000000
-15.893200 0.000000
-15.850800 0.000000
-15.808400 0.000000
-15.766000 0.000000
-15.723600 0.000000
-15.681200 0.000000
-15.638800 0.000000
-15.596400 0.000000
-15.554000 0.000000
-15.511600 0.000000
-15.469200 0.000000
-15.426800 0.000000
-15.384400 0.000000
-15.342000 0.000000
-15.299600 0.000000
-15.257200 0.000000
-15.214800 0.000000
-15.172400 0.000000
-15.130000 0.000000
-15.087600 0.000000
-15.045200 0.000000
-15.002800 0.000000
-14.960400 0.000000
-14.918000 0.000000
-14.875600 0.000000
-14.833200 0.000000
-14.790800 0.000000
-14.748400 0.000000
-14.706000 0.000000
-14.663600 0.000000
-14.621200 0.000000
-14.578800 0.000000
-14.536400 0.000000
-14.494000 0.000000
-14.451600 0.000000
-14.409200 0.000000
-14.366800 0.000000
-14.324400 0.000000
-14.282000 0.000000
-14.239600 0.000000
-14.197200 0.000000
-14.154800 0.000000
-14.112500 0.000000
-14.070100 0.000000
-14.027700 0.000000
-13.985300 0.000000
-13.942900 0.000000
-13.900500 0.000000
-13.858100 0.000000
-13.815700 0.000000
-13.773300 0.000000
-13.730900 0.000000
-13.688500 0.000000
-13.646100 0.000000
-13.603700 0.000000
-13.561300 0.000000
-13.518900 0.000000
-13.476500 0.000000
-13.434100 0.000000
-13.391700 0.000000
-13.349300 0.000000
-13.306900 0.000000
-13.264500 0.000000
-13.222100 0.000000
-13.179700 0.000000
-13.137300 0.000000
-13.094900 0.000000
-13.052500 0.000000
-13.010100 0.000000
-12.967700 0.000000
-12.925300 0.000000
-12.882900 0.000000
-12.840500 0.000000
-12.798100 0.000000
-12.755700 0.000000
-12.713300 0.000000
-12.670900 0.000000
-12.628500 0.000000
-12.586100 0.000000
-12.543700 0.000000
-12.501300 0.000000
-12.458900 0.000000
-12.416500 0.000000
-12.374100 0.000000
-12.331700 0.000000
-12.289300 0.000000
-12.246900 0.000000
-12.204500 0.000000
-12.162100 0.000000
-12.119700 0.000000
-12.077300 0.000000
-12.034900 0.000000
-11.992500 0.000000
-11.950100 0.000000
-11.907800 0.000000
-11.865400 0.000000
-11.823000 0.000000
-11.780600 0.000000
-11.738200 0.000000
-11.695800 0.000000
-11.653400 0.000000
-11.611000 0.000000
-11.568600 0.000000
-11.526200 0.000000
-11.483800 0.000000
-11.441400 0.000000
-11.399000 0.000000
-11.356600 0.000000
-11.314200 0.000000
-11.271800 0.000000
-11.229400 0.000000
-11.187000 0.000000
-11.144600 0.000000
-11.102200 0.000000
-11.059800 0.000000
-11.017400 0.000000
-10.975000 0.000000
-10.932600 0.000000
-10.890200 0.000000
-10.847800 0.000000
-10.805400 0.000000
-10.763000 0.000000
-10.720600 0.000000
-10.678200 0.000000
-10.635800 0.000000
-10.593400 0.000000
-10.551000 0.000000
-10.508600 0.000000
-10.466200 0.000000
-10.423800 0.000000
-10.381400 0.000000
-10.339000 0.000000
-10.296600 0.000000
-10.254200 0.000000
-10.211800 0.000000
-10.169400 0.000000
-10.127000 0.000000
-10.084600 0.000000
-10.042200 0.000000
-9.999800 0.000000
-9.957400 0.000000
-9.915000 0.000000
-9.872600 0.000000
-9.830200 0.000000
-9.787800 0.000000
-9.745500 0.000000
-9.703100 0.000000
-9.660700 0.000000
-9.618300 0.000000
-9.575900 0.000000
-9.533500 0.000000
-9.491100 0.000000
-9.448700 0.000000
-9.406300 0.000000
-9.363900 0.000000
-9.321500 0.000000
-9.279100 0.000000
-9.236700 0.000000
-9.194300 0.000000
-9.151900 0.000000
-9.109500 0.000000
-9.067100 0.000000
-9.024700 0.000000
-8.982300 0.000000
-8.939900 0.000000
-8.897500 0.000000
-8.855100 0.000000
-8.812700 0.000000
-8.770300 0.000000
-8.727900 0.000000
-8.685500 0.000000
-8.643100 0.000000
-8.600700 0.000000
-8.558300 0.000000
-8.515900 0.000000
-8.473500 0.000000
-8.431100 0.000000
-8.388700 0.000000
-8.346300 0.000000
-8.303900 0.000000
-8.261500 0.000000
-8.219100 0.000000
-8.176700 0.000000
-8.134300 0.000000
-8.091900 0.000000
-8.049500 0.000000
-8.007100 0.000000
-7.964700 0.000000
-7.922300 0.000000
-7.879900 0.000000
-7.837500 0.000000
-7.795100 0.000000
-7.752700 0.000000
-7.710300 0.000000
-7.667900 0.000000
-7.625500 0.000000
-7.583200 0.000000
-7.540800 0.000000
-7.498400 0.000000
-7.456000 0.000000
-7.413600 0.000000
-7.371200 0.000000
-7.328800 0.000000
-7.286400 0.000000
-7.244000 0.000000
-7.201600 0.000000
-7.159200 0.000000
-7.116800 0.000000
-7.074400 0.000000
-7.032000 0.000000
-6.989600 0.000000
-6.947200 0.000000
-6.904800 0.000000
-6.862400 0.000000
-6.820000 0.000000
-6.777600 0.000000
-6.735200 0.000000
-6.692800 0.000000
-6.650400 0.000000
-6.608000 0.000000
-6.565600 0.000000
-6.523200 0.000000
-6.480800 0.000000
-6.438400 0.000000
-6.396000 0.000000
-6.353600 0.000000
-6.311200 0.000000
-6.268800 0.000000
-6.226400 0.000000
-6.184000 0.000000
-6.141600 0.000000
-6.099200 0.000000
-6.056800 0.000000
-6.014400 0.000000
-5.972000 0.000000
-5.929600 0.000000
-5.887200 0.000000
-5.844800 0.000000
-5.802400 0.000000
-5.760000 0.000000
-5.717600 0.000000
-5.675200 0.000000
-5.632800 0.000000
-5.590400 0.000000
-5.548000 0.000000
-5.505600 0.000000
-5.463200 0.000000
-5.420900 0.000000
-5.378500 0.000000
-5.336100 0.000000
-5.293700 0.000000
-5.251300 0.000000
-5.208900 0.000000
-5.166500 0.000000
-5.124100 0.000000
-5.081700 0.000000
-5.039300 0.000000
-4.996900 0.000000
-4.954500 0.000000
-4.912100 0.000000
-4.869700 0.000000
-4.827300 0.000000
-4.784900 0.000000
-4.742500 0.000000
-4.700100 0.000000
-4.657700 0.000000
-4.615300 0.000000
-4.572900 0.000000
-4.530500 0.000000
-4.488100 0.000000
-4.445700 0.000000
-4.403300 0.000000
-4.360900 0.000000
-4.318500 0.000000
-4.276100 0.000000
-4.233700 0.000000
-4.191300 0.000000
-4.148900 0.000000
-4.106500 0.000000
-4.064100 0.000000
-4.021700 0.000000
-3.979300 0.000000
-3.936900 0.000000
-3.894500 0.000000
-3.852100 0.000000
-3.809700 0.000000
-3.767300 0.000000
-3.724900 0.000000
-3.682500 0.000000
-3.640100 0.000000
-3.597700 0.000000
-3.555300 0.000000
-3.512900 0.000000
-3.470500 0.000000
-3.428100 0.000000
-3.385700 0.000000
-3.343300 0.000000
-3.300900 0.000000
-3.258500 0.000000
-3.216200 0.000000
-3.173800 0.000000
-3.131400 0.000000
-3.089000 0.000000
-3.046600 0.000000
-3.004200 0.000000
-2.961800 0.000000
-2.919400 0.000000
-2.877000 0.000000
-2.834600 0.000000
-2.792200 0.000000
-2.749800 0.000000
-2.707400 0.000000
-2.665000 0.000000
-2.622600 0.000000
-2.580200 0.000000
-2.537800 0.000000
-2.495400 0.000000
-2.453000 0.000000
-2.410600 0.000400
-2.368200 0.008300
-2.325800 0.020800
-2.283400 0.036900
-2.241000 0.055200
-2.198600 0.075600
-2.156200 0.077400
-2.113800 0.080400
-2.071400 0.086300
-2.029000 0.092200
-1.986600 0.098200
-1.944200 0.105100
-1.901800 0.112100
-1.859400 0.118800
-1.817000 0.125300
-1.774600 0.132300
-1.732200 0.139500
-1.689800 0.146100
-1.647400 0.151700
-1.605000 0.156200
-1.562600 0.160600
-1.520200 0.164800
-1.477800 0.169300
-1.435400 0.174300
-1.393000 0.179600
-1.350600 0.186800
-1.308200 0.193800
-1.265800 0.200300
-1.223400 0.205700
-1.181000 0.209600
-1.138600 0.211900
-1.096200 0.212700
-1.053900 0.213300
-1.011500 0.229100
-0.969100 0.240700
-0.926700 0.245600
-0.884300 0.251200
-0.841900 0.256000
-0.799500 0.261600
-0.757100 0.267500
-0.714700 0.273200
-0.672300 0.278900
-0.629900 0.284800
-0.587500 0.291000
-0.545100 0.297800
-0.502700 0.305100
-0.460300 0.313000
-0.417900 0.321200
-0.375500 0.329500
-0.333100 0.338000
-0.290700 0.346700
-0.248300 0.355600
-0.205900 0.364700
-0.163500 0.374000
-0.121100 0.383600
-0.078700 0.393300
-0.036300 0.403300
0.006100 0.413800
0.048500 0.424600
0.090900 0.435800
0.133300 0.447100
0.175700 0.459400
0.218100 0.473300
0.260500 0.488600
0.302900 0.505500
0.345300 0.523800
0.387700 0.543300
0.430100 0.563900
0.472500 0.586400
0.514900 0.612200
0.557300 0.641400
0.599700 0.673600
0.642100 0.707900
0.684500 0.745800
0.726900 0.791100
0.769300 0.844100
0.811700 0.909300
0.854100 1.046900
0.896500 1.596900
0.938900 2.036300
0.981300 2.304100
1.023700 2.342500
1.066100 2.250400
1.108400 1.988000
1.150800 2.023100
1.193200 2.049400
1.235600 2.112800
1.278000 2.120400
1.320400 2.155300
1.362800 2.218400
1.405200 2.357200
1.447600 2.419300
1.490000 2.478700
1.532400 2.487100
1.574800 2.464600
1.617200 2.539900
1.659600 2.648900
1.702000 2.753500
1.744400 2.899600
1.786800 3.009400
1.829200 3.029800
1.871600 2.973400
1.914000 2.957200
1.956400 2.970100
1.998800 3.067400
2.041200 3.485000
2.083600 3.414300
2.126000 3.256000
2.168400 3.222800
2.210800 3.077600
2.253200 2.982600
2.295600 2.810000
2.338000 2.639400
2.380400 2.709500
2.422800 2.727700
2.465200 2.695000
2.507600 2.706300
2.550000 2.706300
2.592400 2.719700
2.634800 3.056600
2.677200 3.369000
2.719600 3.286000
2.762000 3.168400
2.804400 3.094600
2.846800 2.914000
2.889200 2.863200
2.931600 2.693600
2.974000 2.648100
3.016400 2.608800
3.058800 2.462300
3.101200 2.590700
3.143600 2.781500
3.186000 2.905300
3.228400 2.932000
3.270800 2.767900
3.313100 2.450800
3.355500 2.290900
3.397900 2.157700
3.440300 2.494400
3.482700 1.941300
3.525100 2.261900
3.567500 2.977900
3.609900 2.986700
3.652300 3.015000
3.694700 2.796400
3.737100 2.398600
3.779500 2.170900
3.821900 2.324400
3.864300 2.520700
3.906700 2.778500
3.949100 3.052400
3.991500 3.332300
4.033900 3.353000
4.076300 3.311600
4.118700 3.234000
4.161100 3.330800
4.203500 3.915500
4.245900 4.575900
4.288300 3.854600
4.330700 3.490400
4.373100 3.337700
4.415500 3.156200
4.457900 2.925800
4.500300 2.798800
4.542700 2.415200
4.585100 1.857200
4.627500 1.843100
4.669900 1.862200
4.712300 2.145800
4.754700 2.557700
4.797100 3.312800
4.839500 3.874200
4.881900 4.081100
4.924300 4.115300
4.966700 3.682500
5.009100 3.149400
5.051500 3.135200
5.093900 3.338200
5.136300 3.575800
5.178700 3.853300
5.221100 4.247400
5.263500 4.150200
5.305900 4.328300
5.348300 4.636300
5.390700 4.607000
5.433100 4.364000
5.475400 4.252400
5.517800 3.965500
5.560200 4.061200
5.602600 4.271800
5.645000 3.895500
5.687400 3.603600
5.729800 3.722000
5.772200 4.202500
5.814600 3.984400
5.857000 3.802900
5.899400 4.174000
5.941800 4.153000
5.984200 3.678500
6.026600 3.609600
6.069000 3.741100
6.111400 3.971100
6.153800 4.346000
6.196200 4.348200
6.238600 3.842500
6.281000 3.801500
6.323400 4.751400
6.365800 5.176200
6.408200 5.417300
6.450600 4.876400
6.493000 4.211300
6.535400 3.282200
6.577800 2.907800
6.620200 2.816900
6.662600 2.609700
6.705000 2.540400
6.747400 2.668000
6.789800 2.849900
6.832200 3.092400
6.874600 3.009500
6.917000 2.875700
6.959400 2.868300
7.001800 2.754600
7.044200 2.758400
7.086600 3.130700
7.129000 2.418600
7.171400 2.342800
7.213800 2.493800
7.256200 2.561100
7.298600 2.489100
7.341000 2.570900
7.383400 2.630000
7.425800 2.550200
7.468200 2.524400
7.510600 2.555200
7.553000 2.599600
7.595400 2.532600
7.637700 2.422400
7.680100 2.485900
7.722500 2.561100
7.764900 2.577700
7.807300 2.404600
7.849700 2.292200
7.892100 2.185300
7.934500 2.126600
7.976900 2.089900
8.019300 2.111800
8.061700 2.007700
8.104100 1.980100
8.146500 1.885000
8.188900 1.763700
8.231300 1.693100
8.273700 1.712100
8.316100 1.968500
8.358500 2.183200
8.400900 1.941600
8.443300 1.807300
8.485700 1.707900
8.528100 1.622400
8.570500 1.561900
8.612900 1.516200
8.655300 1.511500
8.697700 1.527500
8.740100 1.577500
8.782500 1.708600
8.824900 1.914700
8.867300 2.136300
8.909700 2.317700
8.952100 2.515900
8.994500 2.321600
9.036900 2.429200
9.079300 2.397000
9.121700 2.488900
9.164100 2.302200
9.206500 2.251000
9.248900 2.248800
9.291300 2.263500
9.333700 2.272900
9.376100 2.181900
9.418500 2.129700
9.460900 2.108300
9.503300 2.124400
9.545700 2.162200
9.588100 2.193100
9.630500 2.224900
9.672900 2.259300
9.715300 2.290300
9.757700 2.368700
9.800100 2.481100
9.842400 2.522000
9.884800 2.577100
9.927200 2.656800
9.969600 2.689000
10.012000 2.691400
10.054400 2.713600
10.096800 2.909700
10.139200 3.130000
10.181600 3.099800
10.224000 3.024000
10.266400 2.902700
10.308800 2.681100
10.351200 2.698100
10.393600 2.961100
10.436000 2.931000
10.478400 3.076600
10.520800 3.193200
10.563200 3.196500
10.605600 3.188200
10.648000 3.205300
10.690400 3.295000
10.732800 3.418800
10.775200 3.710300
10.817600 4.007500
10.860000 4.054900
10.902400 3.997300
10.944800 4.115200
10.987200 4.076100
11.029600 3.870300
11.072000 3.862200
11.114400 3.877800
11.156800 3.781300
11.199200 3.738600
11.241600 3.861800
11.284000 3.777800
11.326400 3.907100
11.368800 3.926100
11.411200 3.427200
11.453600 2.573700
11.496000 1.589800
11.538400 1.057700
11.580800 1.072800
11.623200 1.092000
11.665600 1.108400
11.708000 1.116400
11.750400 1.120400
11.792800 1.119100
11.835200 1.114600
11.877600 1.107500
11.920000 1.097700
11.962400 1.088600
12.004700 1.083500
12.047100 1.067200
12.089500 1.050100
12.131900 1.033100
12.174300 1.018200
12.216700 1.009100
12.259100 1.001000
12.301500 0.996200
12.343900 0.990700
12.386300 0.983200
12.428700 0.976200
12.471100 0.969800
12.513500 0.969000
12.555900 0.969800
12.598300 0.968000
12.640700 0.962400
12.683100 0.952900
12.725500 0.941800
12.767900 0.927500
12.810300 0.925400
12.852700 0.921400
12.895100 0.915300
12.937500 0.905600
12.979900 0.889600
13.022300 0.871100
13.064700 0.852000
13.107100 0.839700
13.149500 0.839800
13.191900 0.846100
13.234300 0.864600
13.276700 0.884100
13.319100 0.898900
13.361500 0.911000
13.403900 0.920600
13.446300 0.924600
13.488700 0.920000
13.531100 0.910200
13.573500 0.907000
13.615900 0.897800
13.658300 0.891500
13.700700 0.888500
13.743100 0.897400
13.785500 0.933200
13.827900 0.992700
13.870300 0.976600
13.912700 0.978300
13.955100 0.977200
13.997500 0.969100
14.039900 0.980800
14.082300 0.804200
14.124700 0.774200
14.167000 0.791000
14.209400 0.815500
14.251800 0.846700
14.294200 0.879300
14.336600 0.889000
14.379000 0.864300
14.421400 0.867700
14.463800 0.893400
14.506200 0.899600
14.548600 0.903300
14.591000 0.933700
14.633400 0.889700
14.675800 0.805600
14.718200 0.691200
14.760600 0.670800
14.803000 0.667600
14.845400 0.674100
14.887800 0.696400
14.930200 0.745100
14.972600 0.754300
15.015000 0.702600
15.057400 0.710300
15.099800 0.737300
15.142200 0.773400
15.184600 0.811600
15.227000 0.956200
15.269400 0.921500
15.311800 0.898100
15.354200 0.847300
15.396600 0.816600
15.439000 0.771500
15.481400 0.688600
15.523800 0.635200
15.566200 0.602800
15.608600 0.572800
15.651000 0.545800
15.693400 0.522200
15.735800 0.508400
15.778200 0.501100
15.820600 0.496100
15.863000 0.497100
15.905400 0.509900
15.947800 0.525900
15.990200 0.553600
16.032600 0.592200
16.075000 0.683000
16.117400 0.495500
16.159800 0.434000
16.202200 0.412500
16.244600 0.376000
16.287000 0.366300
16.329300 0.356900
16.371700 0.348000
16.414100 0.351600
16.456500 0.397400
16.498900 0.450600
16.541300 0.511000
16.583700 0.552800
16.626100 0.562800
16.668500 0.616800
16.710900 0.750000
16.753300 0.972100
16.795700 1.202600
16.838100 1.344700
16.880500 1.486800
16.922900 1.624800
16.965300 1.892500
17.007700 1.957600
17.050100 1.789300
17.092500 1.662700
17.134900 1.405300
17.177300 1.308300
17.219700 1.187100
17.262100 1.132900
17.304500 1.128300
17.346900 1.239900
17.389300 1.393400
17.431700 1.379800
17.474100 1.309100
17.516500 1.250000
17.558900 1.219600
17.601300 1.203500
17.643700 1.200800
17.686100 1.204500
17.728500 1.240000
17.770900 1.261300
17.813300 1.262200
17.855700 1.278600
17.898100 1.231800
17.940500 1.232200
17.982900 1.251100
18.025300 1.297700
18.067700 1.316100
18.110100 1.284200
18.152500 1.130600
18.194900 1.075900
18.237300 1.084200
18.279700 1.103100
18.322100 1.154100
18.364500 1.241200
18.406900 1.293900
18.449300 1.340900
18.491700 1.362200
18.534000 1.350000
18.576400 1.329000
18.618800 1.325900
18.661200 1.343100
18.703600 1.333900
18.746000 1.318500
18.788400 1.317800
18.830800 1.296800
18.873200 1.157400
18.915600 1.069600
18.958000 1.056500
19.000400 1.044800
19.042800 1.030600
19.085200 1.014700
19.127600 0.998100
19.170000 0.981200
19.212400 0.964200
19.254800 0.947800
19.297200 0.934400
19.339600 0.921600
19.382000 0.912700
19.424400 0.903300
19.466800 0.890700
19.509200 0.876000
19.551600 0.862600
19.594000 0.850900
19.636400 0.840700
19.678800 0.824600
19.721200 0.818300
19.763600 0.836600
19.806000 0.917500
19.848400 1.034800
19.890800 1.100200
19.933200 1.124600
19.975600 1.102900
20.018000 1.098800
20.060400 1.102900
20.102800 1.102600
20.145200 1.100200
20.187600 1.099300
20.230000 1.112900
20.272400 1.115100
20.314800 1.103800
20.357200 1.101700
20.399600 1.112600
20.442000 1.124600
20.484400 1.136200
20.526800 1.159300
20.569200 1.188400
20.611600 1.210100
20.654000 1.227400
20.696300 1.218000
20.738700 1.230400
20.781100 1.266800
20.823500 1.388600
20.865900 1.394500
20.908300 1.427200
20.950700 1.461600
20.993100 1.492800
21.035500 1.502100
21.077900 1.480000
21.120300 1.443900
21.162700 1.469500
21.205100 1.478800
21.247500 1.491400
21.289900 1.508100
21.332300 1.523800
21.374700 1.536400
21.417100 1.527100
21.459500 1.505800
21.501900 1.498000
21.544300 1.501100
21.586700 1.508100
21.629100 1.526500
21.671500 1.544800
21.713900 1.561000
21.756300 1.572700
21.798700 1.546800
21.841100 1.517600
21.883500 1.504300
21.925900 1.505300
21.968300 1.519300
22.010700 1.549300
22.053100 1.589200
22.095500 1.625700
22.137900 1.649500
22.180300 1.651600
22.222700 1.638800
22.265100 1.616800
22.307500 1.626500
22.349900 1.638000
22.392300 1.623600
22.434700 1.644000
22.477100 1.677500
22.519500 1.709100
22.561900 1.755900
22.604300 1.821900
22.646700 1.889500
22.689100 1.947300
22.731500 1.934100
22.773900 1.925300
22.816300 1.922100
22.858600 1.953600
22.901000 2.018600
22.943400 2.111400
22.985800 2.267600
23.028200 2.409800
23.070600 2.275000
23.113000 2.219500
23.155400 2.196900
23.197800 2.252700
23.240200 2.317700
23.282600 2.403700
23.325000 2.482700
23.367400 2.543300
23.409800 2.590500
23.452200 2.649000
23.494600 2.589300
23.537000 2.611400
23.579400 2.693600
23.621800 2.735500
23.664200 2.748200
23.706600 2.676000
23.749000 2.619500
23.791400 2.708500
23.833800 2.809100
23.876200 2.851300
23.918600 2.855900
23.961000 2.597600
24.003400 2.387000
24.045800 2.311400
24.088200 2.239200
24.130600 2.154100
24.173000 2.097200
24.215400 2.049000
24.257800 1.990000
24.300200 1.888300
24.342600 1.782300
24.385000 1.757700
24.427400 1.784100
24.469800 1.847200
24.512200 1.929100
24.554600 1.988700
24.597000 2.017800
24.639400 2.028600
24.681800 2.008500
24.724200 2.027400
24.766600 2.045500
24.809000 2.087800
24.851400 2.152000
24.893800 2.232900
24.936200 2.346000
24.978600 2.339500
25.021000 2.349000
25.063300 2.380700
25.105700 2.264500
25.148100 2.455400
25.190500 2.226000
25.232900 2.099500
25.275300 1.957900
25.317700 1.799200
25.360100 1.698700
25.402500 1.695500
25.444900 1.752300
25.487300 1.823100
25.529700 1.822100
25.572100 1.769700
25.614500 1.830000
25.656900 1.864100
25.699300 1.933400
25.741700 1.995600
25.784100 2.014400
25.826500 2.050100
25.868900 2.076500
25.911300 1.925500
25.953700 1.955000
25.996100 1.842500
26.038500 1.736800
26.080900 1.629100
26.123300 1.546700
26.165700 1.524600
26.208100 1.501900
26.250500 1.545500
26.292900 1.550900
26.335300 1.550700
26.377700 1.566400
26.420100 1.542100
26.462500 1.528900
26.504900 1.534200
26.547300 1.526900
26.589700 1.476100
26.632100 1.456600
26.674500 1.491800
26.716900 1.548900
26.759300 1.605700
26.801700 1.696800
26.844100 1.827400
26.886500 1.919200
26.928900 1.914200
26.971300 1.928500
27.013700 1.967600
27.056100 2.012500
27.098500 2.087000
27.140900 2.217800
27.183300 1.944400
27.225600 1.718900
27.268000 1.671100
27.310400 1.768300
27.352800 1.962300
27.395200 1.993700
27.437600 2.173800
27.480000 2.110400
27.522400 2.029400
27.564800 1.999200
27.607200 1.934700
27.649600 1.818400
27.692000 1.749500
27.734400 1.705000
27.776800 1.659800
27.819200 1.594100
27.861600 1.557200
27.904000 1.532000
27.946400 1.444200
27.988800 1.498700
28.031200 1.393300
28.073600 1.308300
28.116000 1.273700
28.158400 1.251100
28.200800 1.226600
28.243200 1.212600
28.285600 1.224400
28.328000 1.263000
28.370400 1.329000
28.412800 1.405100
28.455200 1.486000
28.497600 1.564900
28.540000 1.671500
28.582400 1.798900
28.624800 2.168800
28.667200 2.236500
28.709600 2.106200
28.752000 2.046000
28.794400 1.994100
28.836800 1.811300
28.879200 1.749700
28.921600 1.684200
28.964000 1.603500
29.006400 1.538300
29.048800 1.492600
29.091200 1.453400
29.133600 1.421100
29.176000 1.390200
29.218400 1.356100
29.260800 1.329200
29.303200 1.313000
29.345600 1.310000
29.387900 1.301300
29.430300 1.285000
29.472700 1.269200
29.515100 1.279700
29.557500 1.323200
29.599900 1.398200
29.642300 1.494500
29.684700 1.709100
29.727100 1.687700
29.769500 1.680500
29.811900 1.598500
29.854300 1.490500
29.896700 1.412500
29.939100 1.412600
29.981500 1.411300
30.023900 1.382500
30.066300 1.401900
30.108700 1.444900
30.151100 1.474900
30.193500 1.571400
30.235900 1.699900
30.278300 1.823900
30.320700 1.970900
30.363100 2.016600
30.405500 2.066100
30.447900 2.146600
30.490300 2.142200
30.532700 2.198300
30.575100 1.997700
30.617500 1.775600
30.659900 1.663600
30.702300 1.600800
30.744700 1.561500
30.787100 1.551500
30.829500 1.549500
30.871900 1.536800
30.914300 1.525300
30.956700 1.525200
30.999100 1.501000
31.041500 1.486200
31.083900 1.471000
31.126300 1.579700
31.168700 1.635200
31.211100 1.610300
31.253500 1.562200
31.295900 1.527600
31.338300 1.520400
31.380700 1.519200
31.423100 1.416400
31.465500 1.321300
31.507900 1.279900
31.550300 1.256800
31.592600 1.140800
31.635000 1.018100
31.677400 0.948300
31.719800 0.893700
31.762200 0.838000
31.804600 0.787200
31.847000 0.749500
31.889400 0.757900
31.931800 0.829000
31.974200 0.849300
32.016600 0.855300
32.059000 0.867100
32.101400 0.890300
32.143800 0.940200
32.186200 0.986800
32.228600 1.029800
32.271000 1.075700
32.313400 1.120300
32.355800 1.143700
32.398200 1.171900
32.440600 1.203400
32.483000 1.233300
32.525400 1.263100
32.567800 1.303900
32.610200 1.384900
32.652600 1.548500
32.695000 1.739400
32.737400 1.703800
32.779800 1.688500
32.822200 1.783300
32.864600 1.854100
32.907000 1.865700
32.949400 1.824800
32.991800 1.803400
33.034200 1.753200
33.076600 1.699900
33.119000 1.672200
33.161400 1.669300
33.203800 1.705300
33.246200 1.725000
33.288600 1.654900
33.331000 1.550200
33.373400 1.495200
33.415800 1.498500
33.458200 1.536600
33.500600 1.569300
33.543000 1.556800
33.585400 1.565300
33.627800 1.618300
33.670200 1.700700
33.712600 1.782400
33.754900 1.894000
33.797300 2.051300
33.839700 1.926800
33.882100 1.944800
33.924500 1.900100
33.966900 1.871700
34.009300 1.893600
34.051700 2.024900
34.094100 1.773300
34.136500 1.649200
34.178900 1.505900
34.221300 1.467900
34.263700 1.469800
34.306100 1.485600
34.348500 1.513200
34.390900 1.564200
34.433300 1.672100
34.475700 1.799500
34.518100 2.004400
34.560500 2.320100
34.602900 2.322200
34.645300 2.307200
34.687700 2.339200
34.730100 2.309800
34.772500 2.223000
34.814900 2.180600
34.857300 2.104000
34.899700 2.062400
34.942100 2.044200
34.984500 2.025800
35.026900 1.945700
35.069300 1.904500
35.111700 1.879100
35.154100 1.960300
35.196500 2.084500
35.238900 2.209900
35.281300 2.310300
35.323700 2.332800
35.366100 2.364100
35.408500 2.318100
35.450900 2.263400
35.493300 2.312500
35.535700 2.150900
35.578100 1.973100
35.620500 1.940900
35.662900 1.947400
35.705300 1.992200
35.747700 2.129100
35.790100 2.292600
35.832500 2.412300
35.874900 2.436000
35.917200 2.533100
35.959600 2.509300
36.002000 2.372200
36.044400 2.259900
36.086800 2.226500
36.129200 2.182300
36.171600 2.119300
36.214000 2.088000
36.256400 2.047100
36.298800 2.100100
36.341200 2.220600
36.383600 2.339600
36.426000 2.476700
36.468400 2.439700
36.510800 2.391600
36.553200 2.259000
36.595600 2.281200
36.638000 2.391700
36.680400 2.377900
36.722800 2.338500
36.765200 2.301200
36.807600 2.263400
36.850000 2.208400
36.892400 2.184100
36.934800 2.394300
36.977200 2.309700
37.019600 2.350900
37.062000 2.344800
37.104400 2.378600
37.146800 2.570600
37.189200 2.511800
37.231600 2.423600
37.274000 2.386500
37.316400 2.346600
37.358800 2.453100
37.401200 2.555400
37.443600 2.657600
37.486000 2.637800
37.528400 2.371700
37.570800 2.296300
37.613200 2.362200
37.655600 2.446600
37.698000 2.545600
37.740400 2.804500
37.782800 2.854900
37.825200 2.790100
37.867600 2.974200
37.910000 2.757400
37.952400 2.740800
37.994800 2.616200
38.037200 2.438900
38.079500 2.235300
38.121900 2.113600
38.164300 2.129400
38.206700 2.180600
38.249100 2.229200
38.291500 2.303600
38.333900 2.384300
38.376300 2.410100
38.418700 2.497500
38.461100 2.611500
38.503500 2.366400
38.545900 2.191600
38.588300 2.131700
38.630700 2.421800
38.673100 2.279100
38.715500 2.216200
38.757900 2.113800
38.800300 2.023900
38.842700 1.866800
38.885100 1.716600
38.927500 1.639400
38.969900 1.585800
39.012300 1.578900
39.054700 1.577800
39.097100 1.574600
39.139500 1.620800
39.181900 1.746000
39.224300 1.770500
39.266700 1.722200
39.309100 1.707200
39.351500 1.708800
39.393900 1.684000
39.436300 1.676600
39.478700 1.669900
39.521100 1.640500
39.563500 1.659600
39.605900 1.710400
39.648300 1.901200
39.690700 1.790800
39.733100 1.682900
39.775500 1.565300
39.817900 1.497400
39.860300 1.458500
39.902700 1.441000
39.945100 1.404700
39.987500 1.395300
40.029900 1.413100
40.072300 1.396400
40.114700 1.367400
40.157100 1.350900
40.199500 1.291300
40.241900 1.265800
40.284200 1.247000
40.326600 1.243100
40.369000 1.209300
40.411400 1.175600
40.453800 1.179500
40.496200 1.204400
40.538600 1.241600
40.581000 1.257900
40.623400 1.249600
40.665800 1.229900
40.708200 1.110200
40.750600 1.067800
40.793000 1.029200
40.835400 0.994000
40.877800 0.961100
40.920200 0.931900
40.962600 0.893700
41.005000 0.884600
41.047400 0.891100
41.089800 0.677300
41.132200 0.638300
41.174600 0.652000
41.217000 0.726200
41.259400 0.799000
41.301800 0.789900
41.344200 0.591400
41.386600 0.529600
41.429000 0.478400
41.471400 0.435000
41.513800 0.379700
41.556200 0.303600
41.598600 0.210700
41.641000 0.142100
41.683400 0.109500
41.725800 0.088300
41.768200 0.069100
41.810600 0.052300
41.853000 0.037900
41.895400 0.025900
41.937800 0.016300
41.980200 0.009100
42.022600 0.004200
42.065000 0.001100
42.107400 0.000000
42.149800 0.000000
42.192200 0.000000
42.234600 0.000000
42.277000 0.000000
42.319400 0.000000
42.361800 0.000000
42.404200 0.000000
42.446500 0.000000
42.488900 0.000000
42.531300 0.000000
42.573700 0.000000
42.616100 0.000000
42.658500 0.000000
42.700900 0.000000
42.743300 0.000000
42.785700 0.000000
42.828100 0.000000
42.870500 0.000000
42.912900 0.000000
42.955300 0.000000
42.997700 0.000000
43.040100 0.000000
43.082500 0.000000
43.124900 0.000000
43.167300 0.000000
43.209700 0.000000
43.252100 0.000000
43.294500 0.000000
43.336900 0.000000
43.379300 0.000000
43.421700 0.000000
43.464100 0.000000
43.506500 0.000000
43.548900 0.000000
43.591300 0.000000
43.633700 0.000000
43.676100 0.000000
43.718500 0.000000
43.760900 0.000000
43.803300 0.000000
43.845700 0.000000
43.888100 0.000000
43.930500 0.000000
43.972900 0.000000
44.015300 0.000000
44.057700 0.000000
44.100100 0.000000
44.142500 0.000000
44.184900 0.000000
44.227300 0.000000
44.269700 0.000000
44.312100 0.000000
44.354500 0.000000
44.396900 0.000000
44.439300 0.000000
44.481700 0.000000
44.524100 0.000000
44.566500 0.000000
44.608800 0.000000
44.651200 0.000000
44.693600 0.000000
44.736000 0.000000
44.778400 0.000000
44.820800 0.000000
44.863200 0.000000
44.905600 0.000000
44.948000 0.000000
44.990400 0.000000
45.032800 0.000000
45.075200 0.000000
45.117600 0.000000
45.160000 0.000000
45.202400 0.000000
45.244800 0.000000
45.287200 0.000000
45.329600 0.000000
45.372000 0.000000
45.414400 0.000000
45.456800 0.000000
45.499200 0.000000
45.541600 0.000000
45.584000 0.000000
45.626400 0.000000
45.668800 0.000000
45.711200 0.000000
45.753600 0.000000
45.796000 0.000000
45.838400 0.000000
45.880800 0.000000
45.923200 0.000000
45.965600 0.000000
e
