set title 'mp-1017511 - Density of States'
set xlabel 'Energy (eV)'
set ylabel 'DOS (states/eV)'
set grid
set xrange [-10:10]
set yrange [0:5.318]
set xzeroaxis lt -1
set terminal png size 800,600
set output 'mp-1017511_dos_gnuplot.png'
plot '-' using 1:2 with lines title 'DOS'
-51.435100 0.000000
-51.378300 0.000000
-51.321500 0.000000
-51.264700 0.000000
-51.207900 0.000000
-51.151100 0.000000
-51.094300 0.000000
-51.037400 0.000000
-50.980600 0.000000
-50.923800 0.000000
-50.867000 0.000000
-50.810200 0.000000
-50.753400 0.000000
-50.696600 0.000000
-50.639800 0.000000
-50.582900 0.000000
-50.526100 0.000000
-50.469300 0.000000
-50.412500 0.000000
-50.355700 0.000000
-50.298900 0.000000
-50.242100 0.000000
-50.185200 0.000000
-50.128400 0.000000
-50.071600 0.000000
-50.014800 0.000000
-49.958000 0.000000
-49.901200 0.000000
-49.844400 0.000000
-49.787600 0.000000
-49.730700 0.000000
-49.673900 0.000000
-49.617100 0.000000
-49.560300 0.000000
-49.503500 0.000000
-49.446700 0.000000
-49.389900 0.000000
-49.333100 0.000000
-49.276200 0.000000
-49.219400 0.000000
-49.162600 0.000000
-49.105800 0.000000
-49.049000 0.000000
-48.992200 0.000000
-48.935400 0.000000
-48.878600 0.000000
-48.821700 0.000000
-48.764900 0.000000
-48.708100 0.000000
-48.651300 0.000000
-48.594500 0.000000
-48.537700 0.000000
-48.480900 0.000000
-48.424100 0.000000
-48.367200 0.000000
-48.310400 0.000000
-48.253600 0.000000
-48.196800 0.000000
-48.140000 0.000000
-48.083200 0.000000
-48.026400 0.000000
-47.969600 0.000000
-47.912700 0.000000
-47.855900 0.000000
-47.799100 0.000000
-47.742300 0.000000
-47.685500 0.000000
-47.628700 0.000000
-47.571900 0.000000
-47.515100 0.000000
-47.458200 0.000000
-47.401400 0.000000
-47.344600 0.000000
-47.287800 0.000000
-47.231000 0.000000
-47.174200 0.000000
-47.117400 0.000000
-47.060600 0.000000
-47.003700 0.000000
-46.946900 0.000000
-46.890100 0.000000
-46.833300 0.000000
-46.776500 0.000000
-46.719700 0.000000
-46.662900 0.000000
-46.606100 0.000000
-46.549200 0.000000
-46.492400 0.000000
-46.435600 0.000000
-46.378800 0.000000
-46.322000 0.000000
-46.265200 0.000000
-46.208400 367.839000
-46.151600 0.000000
-46.094700 0.000000
-46.037900 0.000000
-45.981100 0.000000
-45.924300 0.000000
-45.867500 0.000000
-45.810700 0.000000
-45.753900 0.000000
-45.697100 0.000000
-45.640200 0.000000
-45.583400 0.000000
-45.526600 0.000000
-45.469800 0.000000
-45.413000 0.000000
-45.356200 0.000000
-45.299400 0.000000
-45.242500 0.000000
-45.185700 0.000000
-45.128900 0.000000
-45.072100 0.000000
-45.015300 0.000000
-44.958500 0.000000
-44.901700 0.000000
-44.844900 0.000000
-44.788000 0.000000
-44.731200 0.000000
-44.674400 0.000000
-44.617600 0.000000
-44.560800 0.000000
-44.504000 0.000000
-44.447200 0.000000
-44.390400 0.000000
-44.333500 0.000000
-44.276700 0.000000
-44.219900 0.000000
-44.163100 0.000000
-44.106300 0.000000
-44.049500 0.000000
-43.992700 0.000000
-43.935900 0.000000
-43.879000 0.000000
-43.822200 0.000000
-43.765400 0.000000
-43.708600 0.000000
-43.651800 0.000000
-43.595000 0.000000
-43.538200 0.000000
-43.481400 0.000000
-43.424500 0.000000
-43.367700 0.000000
-43.310900 0.000000
-43.254100 0.000000
-43.197300 0.000000
-43.140500 0.000000
-43.083700 0.000000
-43.026900 0.000000
-42.970000 0.000000
-42.913200 0.000000
-42.856400 0.000000
-42.799600 0.000000
-42.742800 0.000000
-42.686000 0.000000
-42.629200 0.000000
-42.572400 0.000000
-42.515500 0.000000
-42.458700 0.000000
-42.401900 0.000000
-42.345100 0.000000
-42.288300 0.000000
-42.231500 0.000000
-42.174700 0.000000
-42.117900 0.000000
-42.061000 0.000000
-42.004200 0.000000
-41.947400 0.000000
-41.890600 0.000000
-41.833800 0.000000
-41.777000 0.000000
-41.720200 0.000000
-41.663400 0.000000
-41.606500 0.000000
-41.549700 0.000000
-41.492900 0.000000
-41.436100 0.000000
-41.379300 0.000000
-41.322500 0.000000
-41.265700 0.000000
-41.208900 0.000000
-41.152000 0.000000
-41.095200 0.000000
-41.038400 0.000000
-40.981600 0.000000
-40.924800 0.000000
-40.868000 0.000000
-40.811200 0.000000
-40.754300 0.000000
-40.697500 0.000000
-40.640700 0.000000
-40.583900 0.000000
-40.527100 0.000000
-40.470300 0.000000
-40.413500 0.000000
-40.356700 0.000000
-40.299800 0.000000
-40.243000 0.000000
-40.186200 0.000000
-40.129400 0.000000
-40.072600 0.000000
-40.015800 0.000000
-39.959000 0.000000
-39.902200 0.000000
-39.845300 0.000000
-39.788500 0.000000
-39.731700 0.000000
-39.674900 0.000000
-39.618100 0.000000
-39.561300 0.000000
-39.504500 0.000000
-39.447700 0.000000
-39.390800 0.000000
-39.334000 0.000000
-39.277200 0.000000
-39.220400 0.000000
-39.163600 0.000000
-39.106800 0.000000
-39.050000 0.000000
-38.993200 0.000000
-38.936300 0.000000
-38.879500 0.000000
-38.822700 0.000000
-38.765900 0.000000
-38.709100 0.000000
-38.652300 0.000000
-38.595500 0.000000
-38.538700 0.000000
-38.481800 0.000000
-38.425000 0.000000
-38.368200 0.000000
-38.311400 0.000000
-38.254600 0.000000
-38.197800 0.000000
-38.141000 0.000000
-38.084200 0.000000
-38.027300 0.000000
-37.970500 0.000000
-37.913700 0.000000
-37.856900 0.000000
-37.800100 0.000000
-37.743300 0.000000
-37.686500 0.000000
-37.629700 0.000000
-37.572800 0.000000
-37.516000 0.000000
-37.459200 0.000000
-37.402400 0.000000
-37.345600 0.000000
-37.288800 0.000000
-37.232000 0.000000
-37.175200 0.000000
-37.118300 0.000000
-37.061500 0.000000
-37.004700 0.000000
-36.947900 0.000000
-36.891100 0.000000
-36.834300 0.000000
-36.777500 0.000000
-36.720700 0.000000
-36.663800 0.000000
-36.607000 1.954400
-36.550200 3.286800
-36.493400 13.553700
-36.436600 16.595300
-36.379800 15.730400
-36.323000 8.831600
-36.266200 9.403000
-36.209300 9.158500
-36.152500 14.550300
-36.095700 13.443500
-36.038900 15.635700
-35.982100 9.614000
-35.925300 9.033300
-35.868500 25.607500
-35.811600 0.000000
-35.754800 0.000000
-35.698000 0.000000
-35.641200 0.000000
-35.584400 0.000000
-35.527600 0.000000
-35.470800 0.000000
-35.414000 0.000000
-35.357100 0.000000
-35.300300 0.000000
-35.243500 0.000000
-35.186700 0.000000
-35.129900 0.000000
-35.073100 0.000000
-35.016300 0.000000
-34.959500 0.000000
-34.902600 0.000000
-34.845800 0.000000
-34.789000 0.000000
-34.732200 0.000000
-34.675400 0.000000
-34.618600 0.000000
-34.561800 0.000000
-34.505000 0.000000
-34.448100 0.000000
-34.391300 0.000000
-34.334500 0.000000
-34.277700 0.000000
-34.220900 0.000000
-34.164100 0.000000
-34.107300 0.000000
-34.050500 0.000000
-33.993600 0.000000
-33.936800 0.000000
-33.880000 0.000000
-33.823200 0.000000
-33.766400 0.000000
-33.709600 0.000000
-33.652800 0.000000
-33.596000 0.000000
-33.539100 0.000000
-33.482300 0.000000
-33.425500 0.000000
-33.368700 0.000000
-33.311900 0.000000
-33.255100 0.000000
-33.198300 0.000000
-33.141500 0.000000
-33.084600 0.000000
-33.027800 0.000000
-32.971000 0.000000
-32.914200 0.000000
-32.857400 0.000000
-32.800600 0.000000
-32.743800 0.000000
-32.687000 0.000000
-32.630100 0.000000
-32.573300 0.000000
-32.516500 0.000000
-32.459700 0.000000
-32.402900 0.000000
-32.346100 0.000000
-32.289300 0.000000
-32.232500 0.000000
-32.175600 0.000000
-32.118800 0.000000
-32.062000 0.000000
-32.005200 0.000000
-31.948400 0.000000
-31.891600 0.000000
-31.834800 0.000000
-31.778000 0.000000
-31.721100 0.000000
-31.664300 0.000000
-31.607500 0.000000
-31.550700 0.000000
-31.493900 0.000000
-31.437100 0.000000
-31.380300 0.000000
-31.323400 0.000000
-31.266600 0.000000
-31.209800 0.000000
-31.153000 0.000000
-31.096200 0.000000
-31.039400 0.000000
-30.982600 0.000000
-30.925800 0.000000
-30.868900 0.000000
-30.812100 0.000000
-30.755300 0.000000
-30.698500 0.000000
-30.641700 0.000000
-30.584900 0.000000
-30.528100 0.000000
-30.471300 0.000000
-30.414400 0.000000
-30.357600 0.000000
-30.300800 0.000000
-30.244000 0.000000
-30.187200 0.000000
-30.130400 0.000000
-30.073600 0.000000
-30.016800 0.000000
-29.959900 0.000000
-29.903100 0.000000
-29.846300 0.000000
-29.789500 0.000000
-29.732700 0.000000
-29.675900 0.000000
-29.619100 0.000000
-29.562300 0.000000
-29.505400 0.000000
-29.448600 0.000000
-29.391800 0.000000
-29.335000 0.000000
-29.278200 0.000000
-29.221400 0.000000
-29.164600 0.000000
-29.107800 0.000000
-29.050900 0.000000
-28.994100 0.000000
-28.937300 0.000000
-28.880500 0.000000
-28.823700 0.000000
-28.766900 0.000000
-28.710100 0.000000
-28.653300 0.000000
-28.596400 0.000000
-28.539600 0.000000
-28.482800 0.000000
-28.426000 0.000000
-28.369200 0.000000
-28.312400 0.000000
-28.255600 0.000000
-28.198800 0.000000
-28.141900 0.000000
-28.085100 0.000000
-28.028300 0.000000
-27.971500 0.000000
-27.914700 0.000000
-27.857900 0.000000
-27.801100 0.000000
-27.744300 0.000000
-27.687400 0.000000
-27.630600 0.000000
-27.573800 0.000000
-27.517000 0.000000
-27.460200 0.000000
-27.403400 0.000000
-27.346600 0.000000
-27.289800 0.000000
-27.232900 0.000000
-27.176100 0.000000
-27.119300 0.000000
-27.062500 0.000000
-27.005700 0.000000
-26.948900 0.000000
-26.892100 0.000000
-26.835200 0.000000
-26.778400 0.000000
-26.721600 0.000000
-26.664800 0.000000
-26.608000 0.000000
-26.551200 0.000000
-26.494400 0.000000
-26.437600 0.000000
-26.380700 0.000000
-26.323900 0.000000
-26.267100 0.000000
-26.210300 0.000000
-26.153500 0.000000
-26.096700 0.000000
-26.039900 0.000000
-25.983100 0.000000
-25.926200 0.000000
-25.869400 0.000000
-25.812600 0.000000
-25.755800 0.000000
-25.699000 0.000000
-25.642200 0.000000
-25.585400 0.000000
-25.528600 0.000000
-25.471700 0.000000
-25.414900 0.000000
-25.358100 0.000000
-25.301300 0.000000
-25.244500 0.000000
-25.187700 0.000000
-25.130900 0.000000
-25.074100 0.000000
-25.017200 0.000000
-24.960400 0.000000
-24.903600 0.000000
-24.846800 0.000000
-24.790000 0.000000
-24.733200 0.000000
-24.676400 0.000000
-24.619600 0.000000
-24.562700 0.000000
-24.505900 0.000000
-24.449100 0.000000
-24.392300 0.000000
-24.335500 0.000000
-24.278700 0.000000
-24.221900 0.000000
-24.165100 0.000000
-24.108200 0.000000
-24.051400 0.000000
-23.994600 0.000000
-23.937800 0.000000
-23.881000 0.000000
-23.824200 0.000000
-23.767400 0.000000
-23.710600 0.000000
-23.653700 0.000000
-23.596900 0.000000
-23.540100 0.000000
-23.483300 0.000000
-23.426500 0.000000
-23.369700 0.000000
-23.312900 0.000000
-23.256100 0.000000
-23.199200 0.000000
-23.142400 0.000000
-23.085600 0.000000
-23.028800 0.000000
-22.972000 0.000000
-22.915200 0.000000
-22.858400 0.000000
-22.801600 0.000000
-22.744700 0.000000
-22.687900 0.000000
-22.631100 0.000000
-22.574300 0.000000
-22.517500 0.000000
-22.460700 0.000000
-22.403900 0.000000
-22.347100 0.000000
-22.290200 0.000000
-22.233400 0.000000
-22.176600 0.000000
-22.119800 0.000000
-22.063000 0.000000
-22.006200 0.000000
-21.949400 0.000000
-21.892500 0.000000
-21.835700 0.000000
-21.778900 0.000000
-21.722100 0.000000
-21.665300 0.000000
-21.608500 0.000000
-21.551700 0.000000
-21.494900 0.000000
-21.438000 0.000000
-21.381200 0.000000
-21.324400 0.000000
-21.267600 0.000000
-21.210800 0.000000
-21.154000 0.000000
-21.097200 0.000000
-21.040400 0.000000
-20.983500 0.000000
-20.926700 0.000000
-20.869900 0.000000
-20.813100 0.000000
-20.756300 0.000000
-20.699500 0.000000
-20.642700 0.000000
-20.585900 0.000000
-20.529000 0.000000
-20.472200 0.000000
-20.415400 0.000000
-20.358600 0.000000
-20.301800 0.000000
-20.245000 0.000000
-20.188200 0.000000
-20.131400 0.000000
-20.074500 0.000000
-20.017700 0.000000
-19.960900 0.000000
-19.904100 0.000000
-19.847300 0.000000
-19.790500 0.000000
-19.733700 0.000000
-19.676900 0.000000
-19.620000 0.000000
-19.563200 0.000000
-19.506400 0.000000
-19.449600 0.000000
-19.392800 0.000000
-19.336000 0.000000
-19.279200 0.000000
-19.222400 0.000000
-19.165500 0.000000
-19.108700 0.000000
-19.051900 0.000000
-18.995100 0.000000
-18.938300 0.000000
-18.881500 0.000000
-18.824700 0.000000
-18.767900 0.000000
-18.711000 0.000000
-18.654200 0.000000
-18.597400 0.000000
-18.540600 0.000000
-18.483800 0.000000
-18.427000 0.000000
-18.370200 0.000000
-18.313400 0.000000
-18.256500 0.000000
-18.199700 0.000000
-18.142900 0.000000
-18.086100 0.000000
-18.029300 0.000000
-17.972500 0.000000
-17.915700 0.000000
-17.858900 0.000000
-17.802000 0.000000
-17.745200 0.000000
-17.688400 0.000000
-17.631600 0.000000
-17.574800 0.000000
-17.518000 0.000000
-17.461200 0.000000
-17.404300 0.000000
-17.347500 0.000000
-17.290700 0.000000
-17.233900 0.000000
-17.177100 0.000000
-17.120300 0.000000
-17.063500 0.000000
-17.006700 0.000000
-16.949800 0.000000
-16.893000 0.000000
-16.836200 0.000000
-16.779400 0.000000
-16.722600 0.000000
-16.665800 0.000000
-16.609000 0.000000
-16.552200 0.000000
-16.495300 0.000000
-16.438500 0.000000
-16.381700 0.000000
-16.324900 0.000000
-16.268100 0.000000
-16.211300 0.000000
-16.154500 0.000000
-16.097700 0.000000
-16.040800 0.000000
-15.984000 0.000000
-15.927200 0.000000
-15.870400 0.000000
-15.813600 0.000000
-15.756800 0.000000
-15.700000 0.000000
-15.643200 0.000000
-15.586300 0.000000
-15.529500 0.000000
-15.472700 0.000000
-15.415900 0.000000
-15.359100 0.000000
-15.302300 0.000000
-15.245500 0.000000
-15.188700 0.000000
-15.131800 0.000000
-15.075000 0.000000
-15.018200 0.000000
-14.961400 0.000000
-14.904600 0.000000
-14.847800 0.000000
-14.791000 0.000000
-14.734200 0.000000
-14.677300 0.000000
-14.620500 0.000000
-14.563700 0.000000
-14.506900 0.000000
-14.450100 0.000000
-14.393300 0.000000
-14.336500 0.000000
-14.279700 0.000000
-14.222800 0.000000
-14.166000 0.000000
-14.109200 0.000000
-14.052400 0.000000
-13.995600 0.000000
-13.938800 0.000000
-13.882000 0.000000
-13.825200 0.000000
-13.768300 0.000000
-13.711500 0.000000
-13.654700 0.000000
-13.597900 0.000000
-13.541100 0.000000
-13.484300 0.000000
-13.427500 0.000000
-13.370700 0.000000
-13.313800 0.000000
-13.257000 0.000000
-13.200200 0.000000
-13.143400 0.000000
-13.086600 0.000000
-13.029800 0.000000
-12.973000 0.000000
-12.916200 0.000000
-12.859300 0.000000
-12.802500 0.000000
-12.745700 0.000000
-12.688900 0.000000
-12.632100 0.000000
-12.575300 0.000000
-12.518500 0.000000
-12.461600 0.000000
-12.404800 0.000000
-12.348000 0.000000
-12.291200 0.000000
-12.234400 0.000000
-12.177600 0.000000
-12.120800 0.000000
-12.064000 0.000000
-12.007100 0.000000
-11.950300 0.000000
-11.893500 0.000000
-11.836700 0.000000
-11.779900 0.000000
-11.723100 0.000000
-11.666300 0.000000
-11.609500 0.000000
-11.552600 0.000000
-11.495800 0.000000
-11.439000 0.000000
-11.382200 0.000000
-11.325400 0.000000
-11.268600 0.000000
-11.211800 0.000000
-11.155000 0.000000
-11.098100 0.000000
-11.041300 0.000000
-10.984500 0.000000
-10.927700 0.000000
-10.870900 0.000000
-10.814100 0.000000
-10.757300 0.000000
-10.700500 0.000000
-10.643600 0.000000
-10.586800 0.000000
-10.530000 0.000000
-10.473200 0.000000
-10.416400 0.000000
-10.359600 0.000000
-10.302800 0.000000
-10.246000 0.000000
-10.189100 0.000000
-10.132300 0.000000
-10.075500 0.000000
-10.018700 0.000000
-9.961900 0.000000
-9.905100 0.000000
-9.848300 0.000000
-9.791500 0.000000
-9.734600 0.000000
-9.677800 0.000000
-9.621000 0.000000
-9.564200 0.000000
-9.507400 0.000000
-9.450600 0.000000
-9.393800 0.000000
-9.337000 0.000000
-9.280100 0.000000
-9.223300 0.000000
-9.166500 0.000000
-9.109700 0.000000
-9.052900 0.000000
-8.996100 0.000000
-8.939300 0.000000
-8.882500 0.000000
-8.825600 0.000000
-8.768800 0.000000
-8.712000 0.000000
-8.655200 0.000000
-8.598400 0.000000
-8.541600 0.000000
-8.484800 0.000000
-8.428000 0.000000
-8.371100 0.000000
-8.314300 0.000000
-8.257500 0.000000
-8.200700 0.000000
-8.143900 0.000000
-8.087100 0.000000
-8.030300 0.000000
-7.973400 0.000000
-7.916600 0.000000
-7.859800 0.000000
-7.803000 0.000000
-7.746200 0.000000
-7.689400 0.000000
-7.632600 0.000000
-7.575800 0.000000
-7.518900 0.000000
-7.462100 0.000000
-7.405300 0.000000
-7.348500 0.000000
-7.291700 0.000000
-7.234900 0.000000
-7.178100 0.000000
-7.121300 0.000000
-7.064400 0.000000
-7.007600 0.000000
-6.950800 0.000000
-6.894000 0.000000
-6.837200 0.000000
-6.780400 0.000000
-6.723600 0.000000
-6.666800 0.000000
-6.609900 0.000000
-6.553100 0.000000
-6.496300 0.000000
-6.439500 0.000000
-6.382700 0.000000
-6.325900 0.000000
-6.269100 0.000000
-6.212300 0.000000
-6.155400 0.000000
-6.098600 0.000000
-6.041800 0.000000
-5.985000 0.000000
-5.928200 0.000000
-5.871400 0.000000
-5.814600 0.000000
-5.757800 0.000000
-5.700900 0.000000
-5.644100 0.000000
-5.587300 0.000000
-5.530500 0.000000
-5.473700 0.000000
-5.416900 0.000000
-5.360100 0.000000
-5.303300 0.000000
-5.246400 0.000000
-5.189600 0.000000
-5.132800 0.000000
-5.076000 0.000000
-5.019200 0.000000
-4.962400 0.000000
-4.905600 0.000000
-4.848800 0.000000
-4.791900 0.000000
-4.735100 0.000000
-4.678300 0.000000
-4.621500 0.000000
-4.564700 0.000000
-4.507900 0.000000
-4.451100 0.000000
-4.394300 0.000000
-4.337400 0.000000
-4.280600 0.000000
-4.223800 0.000000
-4.167000 0.000000
-4.110200 0.000000
-4.053400 0.000000
-3.996600 0.000000
-3.939800 0.000000
-3.882900 0.000000
-3.826100 0.000000
-3.769300 0.000000
-3.712500 0.000000
-3.655700 0.000000
-3.598900 0.000000
-3.542100 0.000000
-3.485300 0.000000
-3.428400 0.000000
-3.371600 0.000000
-3.314800 0.000000
-3.258000 0.000000
-3.201200 0.000000
-3.144400 0.000000
-3.087600 0.000000
-3.030700 0.000000
-2.973900 0.000000
-2.917100 0.000000
-2.860300 0.000000
-2.803500 0.000000
-2.746700 0.000000
-2.689900 0.000000
-2.633100 0.000000
-2.576200 0.000000
-2.519400 0.000000
-2.462600 0.000000
-2.405800 0.000000
-2.349000 0.000000
-2.292200 0.000000
-2.235400 0.000000
-2.178600 0.000000
-2.121700 0.000000
-2.064900 0.000000
-2.008100 0.000000
-1.951300 0.000000
-1.894500 0.000000
-1.837700 0.000000
-1.780900 0.000000
-1.724100 0.000000
-1.667200 0.000000
-1.610400 0.000000
-1.553600 0.000000
-1.496800 0.000000
-1.440000 0.000000
-1.383200 0.000000
-1.326400 0.000000
-1.269600 0.000000
-1.212700 0.007300
-1.155900 0.032100
-1.099100 0.042800
-1.042300 0.051200
-0.985500 0.059400
-0.928700 0.069300
-0.871900 0.077300
-0.815100 0.081500
-0.758200 0.088100
-0.701400 0.093400
-0.644600 0.098700
-0.587800 0.104700
-0.531000 0.111500
-0.474200 0.118100
-0.417400 0.123200
-0.360600 0.127300
-0.303700 0.132000
-0.246900 0.136900
-0.190100 0.141800
-0.133300 0.147600
-0.076500 0.153500
-0.019700 0.159600
0.037100 0.165600
0.093900 0.170500
0.150800 0.175400
0.207600 0.180500
0.264400 0.185900
0.321200 0.191700
0.378000 0.197600
0.434800 0.203600
0.491600 0.209800
0.548400 0.216100
0.605300 0.222700
0.662100 0.229300
0.718900 0.236500
0.775700 0.243600
0.832500 0.250900
0.889300 0.258700
0.946100 0.266600
1.002900 0.274900
1.059800 0.284200
1.116600 0.296500
1.173400 0.308100
1.230200 0.322400
1.287000 0.332900
1.343800 0.334300
1.400600 0.341700
1.457500 0.349400
1.514300 0.358100
1.571100 0.382000
1.627900 0.399700
1.684700 0.419700
1.741500 0.443400
1.798300 0.484300
1.855100 0.522900
1.912000 0.561200
1.968800 0.634400
2.025600 0.685700
2.082400 0.693800
2.139200 0.705600
2.196000 0.719500
2.252800 0.912700
2.309600 1.398600
2.366500 1.342400
2.423300 1.064500
2.480100 1.226000
2.536900 1.504000
2.593700 1.853900
2.650500 2.391900
2.707300 2.226600
2.764100 2.042100
2.821000 1.908700
2.877800 2.065000
2.934600 2.103400
2.991400 2.159000
3.048200 2.204700
3.105000 2.428700
3.161800 2.680400
3.218600 2.688000
3.275500 2.728100
3.332300 2.816200
3.389100 2.752900
3.445900 2.824600
3.502700 3.064500
3.559500 3.118400
3.616300 3.152200
3.673100 2.971400
3.730000 2.851800
3.786800 2.798900
3.843600 2.690900
3.900400 2.449100
3.957200 2.260600
4.014000 2.367400
4.070800 2.539200
4.127600 2.888400
4.184500 2.803900
4.241300 2.793400
4.298100 2.703900
4.354900 2.514000
4.411700 2.455400
4.468500 2.446500
4.525300 2.368800
4.582100 1.923100
4.639000 1.900700
4.695800 2.251200
4.752600 2.504600
4.809400 2.993200
4.866200 3.023100
4.923000 3.053500
4.979800 3.074500
5.036600 2.977200
5.093500 3.259800
5.150300 3.668500
5.207100 3.147100
5.263900 3.164600
5.320700 3.502000
5.377500 3.876000
5.434300 2.699300
5.491100 2.858900
5.548000 4.528400
5.604800 4.258600
5.661600 3.974400
5.718400 4.088400
5.775200 3.498200
5.832000 3.616700
5.888800 3.345800
5.945600 3.193500
6.002500 2.962300
6.059300 3.367800
6.116100 4.361100
6.172900 3.693500
6.229700 3.049000
6.286500 2.696700
6.343300 3.699700
6.400200 3.588100
6.457000 3.254100
6.513800 3.078800
6.570600 3.007900
6.627400 3.306600
6.684200 3.357900
6.741000 3.483800
6.797800 2.882700
6.854700 2.779500
6.911500 2.536900
6.968300 2.510100
7.025100 2.396100
7.081900 2.476500
7.138700 2.458300
7.195500 2.282300
7.252300 2.261500
7.309200 2.279300
7.366000 2.509700
7.422800 2.602100
7.479600 2.950200
7.536400 3.293500
7.593200 4.219300
7.650000 4.301900
7.706800 3.649400
7.763700 2.860100
7.820500 2.498200
7.877300 2.543400
7.934100 2.642900
7.990900 2.908100
8.047700 3.321300
8.104500 3.496700
8.161300 3.847500
8.218200 3.586800
8.275000 3.232400
8.331800 3.046500
8.388600 3.249300
8.445400 3.540800
8.502200 3.531100
8.559000 4.016200
8.615800 3.553400
8.672700 3.412800
8.729500 3.411900
8.786300 4.834400
8.843100 4.113400
8.899900 3.716300
8.956700 4.356100
9.013500 2.648200
9.070300 2.361200
9.127200 1.688100
9.184000 1.379000
9.240800 1.282100
9.297600 1.024200
9.354400 0.949600
9.411200 0.938500
9.468000 0.972900
9.524800 0.954100
9.581700 0.852400
9.638500 0.750000
9.695300 0.710600
9.752100 0.706800
9.808900 0.707800
9.865700 0.699000
9.922500 0.695900
9.979300 0.700200
10.036200 0.706500
10.093000 0.684900
10.149800 0.665800
10.206600 0.658100
10.263400 0.656700
10.320200 0.673000
10.377000 0.634700
10.433800 0.602700
10.490700 0.585000
10.547500 0.572500
10.604300 0.561800
10.661100 0.551900
10.717900 0.548200
10.774700 0.549800
10.831500 0.553600
10.888400 0.534400
10.945200 0.527000
11.002000 0.529200
11.058800 0.544900
11.115600 0.562600
11.172400 0.575600
11.229200 0.574200
11.286000 0.572400
11.342900 0.575900
11.399700 0.575500
11.456500 0.572400
11.513300 0.566100
11.570100 0.567100
11.626900 0.557600
11.683700 0.547500
11.740500 0.548600
11.797400 0.552000
11.854200 0.558300
11.911000 0.560700
11.967800 0.565500
12.024600 0.564800
12.081400 0.567500
12.138200 0.566400
12.195000 0.565700
12.251900 0.552900
12.308700 0.540000
12.365500 0.524900
12.422300 0.506200
12.479100 0.474100
12.535900 0.437000
12.592700 0.406600
12.649500 0.386900
12.706400 0.342500
12.763200 0.326300
12.820000 0.314000
12.876800 0.309200
12.933600 0.306100
12.990400 0.300000
13.047200 0.300800
13.104000 0.304600
13.160900 0.314100
13.217700 0.337100
13.274500 0.373400
13.331300 0.423900
13.388100 0.478300
13.444900 0.495100
13.501700 0.461600
13.558500 0.438400
13.615400 0.418700
13.672200 0.398100
13.729000 0.377500
13.785800 0.358800
13.842600 0.344500
13.899400 0.331500
13.956200 0.320200
14.013000 0.310500
14.069900 0.302600
14.126700 0.295800
14.183500 0.289500
14.240300 0.277400
14.297100 0.270300
14.353900 0.264000
14.410700 0.255900
14.467500 0.246400
14.524400 0.236200
14.581200 0.224900
14.638000 0.212600
14.694800 0.199300
14.751600 0.184300
14.808400 0.171100
14.865200 0.161800
14.922000 0.149100
14.978900 0.137100
15.035700 0.125400
15.092500 0.115000
15.149300 0.103100
15.206100 0.092500
15.262900 0.083300
15.319700 0.075500
15.376600 0.076000
15.433400 0.075600
15.490200 0.083600
15.547000 0.110300
15.603800 0.205100
15.660600 0.575600
15.717400 0.730000
15.774200 0.799000
15.831100 0.775300
15.887900 0.767600
15.944700 0.727100
16.001500 0.717300
16.058300 0.818200
16.115100 0.959600
16.171900 0.958500
16.228700 0.853200
16.285600 0.813100
16.342400 0.779300
16.399200 0.762800
16.456000 0.748200
16.512800 0.732700
16.569600 0.713100
16.626400 0.693600
16.683200 0.673900
16.740100 0.662400
16.796900 0.644400
16.853700 0.627100
16.910500 0.618200
16.967300 0.614700
17.024100 0.614900
17.080900 0.616400
17.137700 0.612300
17.194600 0.597500
17.251400 0.576100
17.308200 0.567800
17.365000 0.561200
17.421800 0.556700
17.478600 0.553900
17.535400 0.546200
17.592200 0.540600
17.649100 0.534500
17.705900 0.531600
17.762700 0.529700
17.819500 0.536200
17.876300 0.525300
17.933100 0.523500
17.989900 0.538800
18.046700 0.614800
18.103600 0.602500
18.160400 0.596400
18.217200 0.581200
18.274000 0.570800
18.330800 0.562700
18.387600 0.557200
18.444400 0.561400
18.501200 0.566200
18.558100 0.570200
18.614900 0.582600
18.671700 0.581100
18.728500 0.689900
18.785300 0.649900
18.842100 0.661500
18.898900 0.662800
18.955700 0.671100
19.012600 0.678800
19.069400 0.689600
19.126200 0.723700
19.183000 0.739800
19.239800 0.800600
19.296600 0.779500
19.353400 0.802500
19.410200 0.836800
19.467100 0.898900
19.523900 0.931500
19.580700 0.927700
19.637500 0.957400
19.694300 0.898600
19.751100 0.913000
19.807900 0.947300
19.864700 0.986600
19.921600 0.974200
19.978400 0.951500
20.035200 0.923500
20.092000 0.911700
20.148800 0.863700
20.205600 0.824200
20.262400 0.823800
20.319300 0.819500
20.376100 0.806100
20.432900 0.790600
20.489700 0.782800
20.546500 0.781000
20.603300 0.802400
20.660100 0.795100
20.716900 0.749800
20.773800 0.727000
20.830600 0.756400
20.887400 0.742100
20.944200 0.744900
21.001000 0.765600
21.057800 0.883000
21.114600 0.911800
21.171400 0.895300
21.228300 0.860200
21.285100 0.865700
21.341900 0.890800
21.398700 0.912600
21.455500 0.919200
21.512300 0.942500
21.569100 0.958000
21.625900 0.957400
21.682800 0.935100
21.739600 0.930200
21.796400 0.936200
21.853200 0.981700
21.910000 0.994400
21.966800 1.067500
22.023600 1.087800
22.080400 1.068600
22.137300 1.062500
22.194100 1.030300
22.250900 1.033900
22.307700 1.030600
22.364500 1.038000
22.421300 1.052300
22.478100 1.032900
22.534900 1.012200
22.591800 1.027200
22.648600 1.066400
22.705400 1.043500
22.762200 0.976400
22.819000 0.940300
22.875800 0.901600
22.932600 0.872500
22.989400 0.867400
23.046300 0.881200
23.103100 0.909400
23.159900 0.972000
23.216700 1.065600
23.273500 1.096600
23.330300 1.087100
23.387100 1.062100
23.443900 1.040600
23.500800 1.012900
23.557600 1.046500
23.614400 1.062300
23.671200 1.004500
23.728000 0.970200
23.784800 0.957600
23.841600 1.002900
23.898400 0.980300
23.955300 0.928100
24.012100 0.877800
24.068900 0.810300
24.125700 0.774000
24.182500 0.785400
24.239300 0.802700
24.296100 0.832700
24.352900 0.874800
24.409800 0.891600
24.466600 0.906600
24.523400 0.908800
24.580200 0.931600
24.637000 0.957800
24.693800 0.993800
24.750600 1.011300
24.807500 1.016400
24.864300 1.018800
24.921100 1.022700
24.977900 1.015800
25.034700 1.029400
25.091500 1.021500
25.148300 0.947600
25.205100 0.923100
25.262000 0.906200
25.318800 0.899500
25.375600 0.908100
25.432400 0.912400
25.489200 0.917600
25.546000 0.936200
25.602800 0.955600
25.659600 0.954400
25.716500 0.930100
25.773300 0.926700
25.830100 0.936000
25.886900 0.976500
25.943700 0.980800
26.000500 1.029000
26.057300 1.055700
26.114100 1.087900
26.171000 1.088200
26.227800 1.010300
26.284600 1.042100
26.341400 1.071700
26.398200 0.935700
26.455000 0.882100
26.511800 0.828300
26.568600 0.811100
26.625500 0.797800
26.682300 0.786400
26.739100 0.768700
26.795900 0.762500
26.852700 0.770800
26.909500 0.774700
26.966300 0.768300
27.023100 0.762000
27.080000 0.765800
27.136800 0.759100
27.193600 0.750300
27.250400 0.763400
27.307200 0.752500
27.364000 0.748700
27.420800 0.738600
27.477600 0.737600
27.534500 0.742300
27.591300 0.801300
27.648100 0.850900
27.704900 0.904900
27.761700 0.752600
27.818500 0.749800
27.875300 0.745800
27.932100 0.772700
27.989000 0.758600
28.045800 0.744400
28.102600 0.740100
28.159400 0.750400
28.216200 0.706900
28.273000 0.683900
28.329800 0.671900
28.386600 0.677600
28.443500 0.683700
28.500300 0.679700
28.557100 0.711300
28.613900 0.756800
28.670700 0.796400
28.727500 0.848200
28.784300 0.916600
28.841100 0.972600
28.898000 1.032200
28.954800 1.055100
29.011600 1.028500
29.068400 1.026800
29.125200 1.037500
29.182000 1.009500
29.238800 1.006900
29.295600 1.006200
29.352500 1.015700
29.409300 1.024600
29.466100 1.033700
29.522900 1.071500
29.579700 1.108500
29.636500 1.116800
29.693300 1.058000
29.750200 1.025900
29.807000 1.009300
29.863800 0.998000
29.920600 0.992300
29.977400 0.974300
30.034200 0.970800
30.091000 0.993400
30.147800 1.031500
30.204700 1.053300
30.261500 1.050500
30.318300 1.033900
30.375100 1.034500
30.431900 1.116900
30.488700 1.092100
30.545500 1.099600
30.602300 1.109700
30.659200 1.173300
30.716000 1.131100
30.772800 1.118300
30.829600 1.099000
30.886400 1.093900
30.943200 1.066100
31.000000 1.019200
31.056800 0.967700
31.113700 0.938100
31.170500 0.934700
31.227300 0.951400
31.284100 0.916400
31.340900 0.906000
31.397700 0.908100
31.454500 0.939300
31.511300 0.978400
31.568200 1.010100
31.625000 1.050100
31.681800 1.090900
31.738600 1.102900
31.795400 1.104100
31.852200 1.125200
31.909000 1.138800
31.965800 1.159600
32.022700 1.133700
32.079500 1.097000
32.136300 1.074600
32.193100 1.101200
32.249900 1.102900
32.306700 1.049400
32.363500 1.022800
32.420300 1.251200
32.477200 0.984100
32.534000 0.919400
32.590800 0.901200
32.647600 0.818300
32.704400 0.766900
32.761200 0.727800
32.818000 0.684300
32.874800 0.659400
32.931700 0.668700
32.988500 0.685800
33.045300 0.696700
33.102100 0.717900
33.158900 0.734000
33.215700 0.753500
33.272500 0.768800
33.329300 0.773200
33.386200 0.765600
33.443000 0.803400
33.499800 0.825300
33.556600 0.821700
33.613400 0.824900
33.670200 0.847200
33.727000 0.828100
33.783800 0.795100
33.840700 0.785200
33.897500 0.766100
33.954300 0.727000
34.011100 0.708400
34.067900 0.674600
34.124700 0.631400
34.181500 0.600800
34.238400 0.585700
34.295200 0.589700
34.352000 0.594400
34.408800 0.590500
34.465600 0.594800
34.522400 0.630000
34.579200 0.606000
34.636000 0.622600
34.692900 0.625000
34.749700 0.633400
34.806500 0.668000
34.863300 0.681900
34.920100 0.719600
34.976900 0.816500
35.033700 0.955100
35.090500 1.007700
35.147400 1.025700
35.204200 1.008800
35.261000 0.978700
35.317800 0.952200
35.374600 0.920100
35.431400 0.899100
35.488200 0.897300
35.545000 0.912700
35.601900 0.961500
35.658700 1.002400
35.715500 1.047600
35.772300 1.101100
35.829100 1.029700
35.885900 1.007700
35.942700 1.018900
35.999500 1.072400
36.056400 1.108500
36.113200 1.158200
36.170000 1.174600
36.226800 1.145500
36.283600 1.146300
36.340400 1.103000
36.397200 1.112500
36.454000 1.137500
36.510900 1.176500
36.567700 1.232600
36.624500 1.423700
36.681300 1.395600
36.738100 1.373600
36.794900 1.349100
36.851700 1.356200
36.908500 1.361300
36.965400 1.317200
37.022200 1.247700
37.079000 1.189600
37.135800 1.173200
37.192600 1.215200
37.249400 1.194400
37.306200 1.188500
37.363000 1.184200
37.419900 1.201300
37.476700 1.218200
37.533500 1.264000
37.590300 1.244200
37.647100 1.267400
37.703900 1.251400
37.760700 1.204300
37.817500 1.198900
37.874400 1.156100
37.931200 1.156400
37.988000 1.154300
38.044800 1.169700
38.101600 1.180000
38.158400 1.134700
38.215200 1.135000
38.272000 1.152200
38.328900 1.193000
38.385700 1.201300
38.442500 1.201300
38.499300 1.245300
38.556100 1.354000
38.612900 1.319400
38.669700 1.278600
38.726500 1.296800
38.783400 1.323100
38.840200 1.349100
38.897000 1.435700
38.953800 1.536100
39.010600 1.525600
39.067400 1.511300
39.124200 1.620700
39.181100 1.851400
39.237900 2.401300
39.294700 2.584100
39.351500 3.325100
39.408300 3.777200
39.465100 4.591500
39.521900 5.717700
39.578700 4.928400
39.635600 4.155800
39.692400 2.937600
39.749200 2.230800
39.806000 2.015000
39.862800 2.014700
39.919600 1.927100
39.976400 1.842600
40.033200 1.817000
40.090100 1.859400
40.146900 2.058300
40.203700 2.814000
40.260500 2.053800
40.317300 1.324300
40.374100 1.270900
40.430900 1.208200
40.487700 1.190600
40.544600 1.215600
40.601400 1.236300
40.658200 1.297100
40.715000 1.242500
40.771800 1.187900
40.828600 1.203600
40.885400 1.251900
40.942200 1.274900
40.999100 1.302700
41.055900 1.360100
41.112700 1.426500
41.169500 1.459300
41.226300 1.425800
41.283100 1.370000
41.339900 1.311100
41.396700 1.261100
41.453600 1.231600
41.510400 1.175300
41.567200 1.260600
41.624000 1.358700
41.680800 1.313000
41.737600 1.249400
41.794400 1.209900
41.851200 1.178500
41.908100 1.160500
41.964900 1.214300
42.021700 1.215600
42.078500 1.146600
42.135300 1.103400
42.192100 1.115800
42.248900 1.133600
42.305700 1.133300
42.362600 1.149000
42.419400 1.112400
42.476200 1.105700
42.533000 1.129200
42.589800 1.173700
42.646600 1.289100
42.703400 1.244000
42.760200 1.196500
42.817100 1.154600
42.873900 1.126800
42.930700 1.126300
42.987500 1.093500
43.044300 1.105100
43.101100 1.127600
43.157900 1.100600
43.214700 1.064600
43.271600 1.031500
43.328400 1.042100
43.385200 1.067300
43.442000 1.074300
43.498800 1.064800
43.555600 1.038300
43.612400 0.987100
43.669300 0.951600
43.726100 0.940700
43.782900 0.919700
43.839700 0.896600
43.896500 0.900800
43.953300 0.949100
44.010100 0.967100
44.066900 0.988800
44.123800 1.020100
44.180600 1.074500
44.237400 1.010100
44.294200 1.007100
44.351000 0.998800
44.407800 0.999200
44.464600 1.013200
44.521400 1.023500
44.578300 1.037600
44.635100 1.066500
44.691900 1.031600
44.748700 1.044800
44.805500 1.051000
44.862300 1.065700
44.919100 1.049800
44.975900 1.016300
45.032800 1.003100
45.089600 1.018500
45.146400 0.989100
45.203200 0.952300
45.260000 0.936600
45.316800 0.915900
45.373600 0.900100
45.430400 0.884400
45.487300 0.868900
45.544100 0.861700
45.600900 0.867400
45.657700 0.877300
45.714500 0.884800
45.771300 0.985000
45.828100 1.094500
45.884900 1.123300
45.941800 1.137100
45.998600 1.089200
46.055400 1.059700
46.112200 1.040200
46.169000 0.993000
46.225800 0.967500
46.282600 1.002300
46.339400 0.994000
46.396300 0.976800
46.453100 0.968200
46.509900 0.978600
46.566700 1.030600
46.623500 1.091300
46.680300 1.133200
46.737100 1.121100
46.793900 1.109400
46.850800 1.098200
46.907600 1.075500
46.964400 1.068600
47.021200 1.065600
47.078000 1.075700
47.134800 1.051600
47.191600 1.053300
47.248400 1.075400
47.305300 1.030300
47.362100 0.994800
47.418900 0.991000
47.475700 0.998200
47.532500 1.019100
47.589300 1.039700
47.646100 1.051900
47.702900 1.074500
47.759800 1.357200
47.816600 1.218800
47.873400 1.268200
47.930200 1.355100
47.987000 1.360400
48.043800 1.327600
48.100600 1.260200
48.157400 1.194100
48.214300 1.193500
48.271100 1.218100
48.327900 1.241800
48.384700 1.282300
48.441500 1.346100
48.498300 1.361600
48.555100 1.357700
48.612000 1.370700
48.668800 1.367300
48.725600 1.343100
48.782400 1.307200
48.839200 1.263800
48.896000 1.231800
48.952800 1.177800
49.009600 1.118400
49.066500 1.076600
49.123300 1.069000
49.180100 1.020400
49.236900 1.015200
49.293700 1.019500
49.350500 0.970400
49.407300 0.933600
49.464100 0.920200
49.521000 0.940900
49.577800 0.963500
49.634600 1.008600
49.691400 1.104600
49.748200 1.207700
49.805000 1.246900
49.861800 1.275100
49.918600 1.266400
49.975500 1.238300
50.032300 1.244300
50.089100 1.238200
50.145900 1.215000
50.202700 1.236500
50.259500 1.250500
50.316300 1.242100
50.373100 1.220900
50.430000 1.229000
50.486800 1.207300
50.543600 1.180200
50.600400 1.151200
50.657200 1.126100
50.714000 1.123900
50.770800 1.114200
50.827600 1.105700
50.884500 1.093800
50.941300 1.096700
50.998100 1.111400
51.054900 1.122900
51.111700 1.130200
51.168500 1.139900
51.225300 1.158400
51.282100 1.190600
51.339000 1.226700
51.395800 1.234400
51.452600 1.251600
51.509400 1.260000
51.566200 1.263800
51.623000 1.276100
51.679800 1.279800
51.736600 1.279300
51.793500 1.277600
51.850300 1.303300
51.907100 1.340800
51.963900 1.301500
52.020700 1.296100
52.077500 1.274600
52.134300 1.242800
52.191100 1.197500
52.248000 1.197800
52.304800 1.232700
52.361600 1.234100
52.418400 1.212600
52.475200 1.189000
52.532000 1.195000
52.588800 1.185600
52.645600 1.203000
52.702500 1.211500
52.759300 1.257900
52.816100 1.229500
52.872900 1.244300
52.929700 1.269900
52.986500 1.319700
53.043300 1.393700
53.100200 1.511600
53.157000 1.529200
53.213800 1.489900
53.270600 1.409200
53.327400 1.368600
53.384200 1.348500
53.441000 1.352600
53.497800 1.399800
53.554700 1.422400
53.611500 1.477200
53.668300 1.447500
53.725100 1.403500
53.781900 1.354400
53.838700 1.319800
53.895500 1.325000
53.952300 1.330600
54.009200 1.347000
54.066000 1.387800
54.122800 1.443500
54.179600 1.460800
54.236400 1.451300
54.293200 1.421300
54.350000 1.378000
54.406800 1.345100
54.463700 1.312800
54.520500 1.305100
54.577300 1.311300
54.634100 1.326900
54.690900 1.349400
54.747700 1.334900
54.804500 1.410200
54.861300 1.535500
54.918200 1.661100
54.975000 1.843300
55.031800 2.116100
55.088600 2.149800
55.145400 2.328900
55.202200 2.156800
55.259000 2.240300
55.315800 2.305500
55.372700 2.088800
55.429500 1.911400
55.486300 1.793600
55.543100 1.692000
55.599900 1.525900
55.656700 1.384500
55.713500 1.267100
55.770300 1.184200
55.827200 1.059300
55.884000 0.956600
55.940800 0.850400
55.997600 0.770700
56.054400 0.726000
56.111200 0.658100
56.168000 0.514100
56.224800 0.436600
56.281700 0.363100
56.338500 0.302700
56.395300 0.259700
56.452100 0.216700
56.508900 0.169900
56.565700 0.128200
56.622500 0.086800
56.679300 0.057300
56.736200 0.033100
56.793000 0.021600
56.849800 0.048200
56.906600 0.011200
56.963400 0.001800
57.020200 0.000000
57.077000 0.000000
57.133800 0.000000
57.190700 0.000000
57.247500 0.000000
57.304300 0.000000
57.361100 0.000000
57.417900 0.000000
57.474700 0.000000
57.531500 0.000000
57.588400 0.000000
57.645200 0.000000
57.702000 0.000000
57.758800 0.000000
57.815600 0.000000
57.872400 0.000000
57.929200 0.000000
57.986000 0.000000
58.042900 0.000000
58.099700 0.000000
58.156500 0.000000
58.213300 0.000000
58.270100 0.000000
58.326900 0.000000
58.383700 0.000000
58.440500 0.000000
58.497400 0.000000
58.554200 0.000000
58.611000 0.000000
58.667800 0.000000
58.724600 0.000000
58.781400 0.000000
58.838200 0.000000
58.895000 0.000000
58.951900 0.000000
59.008700 0.000000
59.065500 0.000000
59.122300 0.000000
59.179100 0.000000
59.235900 0.000000
59.292700 0.000000
59.349500 0.000000
59.406400 0.000000
59.463200 0.000000
59.520000 0.000000
59.576800 0.000000
59.633600 0.000000
59.690400 0.000000
59.747200 0.000000
59.804000 0.000000
59.860900 0.000000
59.917700 0.000000
59.974500 0.000000
60.031300 0.000000
60.088100 0.000000
60.144900 0.000000
60.201700 0.000000
60.258500 0.000000
60.315400 0.000000
60.372200 0.000000
60.429000 0.000000
60.485800 0.000000
60.542600 0.000000
60.599400 0.000000
60.656200 0.000000
60.713000 0.000000
60.769900 0.000000
60.826700 0.000000
60.883500 0.000000
60.940300 0.000000
60.997100 0.000000
61.053900 0.000000
61.110700 0.000000
61.167500 0.000000
61.224400 0.000000
61.281200 0.000000
61.338000 0.000000
61.394800 0.000000
61.451600 0.000000
61.508400 0.000000
61.565200 0.000000
61.622000 0.000000
61.678900 0.000000
61.735700 0.000000
61.792500 0.000000
61.849300 0.000000
61.906100 0.000000
61.962900 0.000000
62.019700 0.000000
62.076500 0.000000
62.133400 0.000000
62.190200 0.000000
e
