set title 'mp-1080111 - Density of States'
set xlabel 'Energy (eV)'
set ylabel 'DOS (states/eV)'
set grid
set xrange [-10:10]
set yrange [0:9.100]
set xzeroaxis lt -1
set terminal png size 800,600
set output 'mp-1080111_dos_gnuplot.png'
plot '-' using 1:2 with lines title 'DOS'
-32.011400 0.000000
-31.975000 0.000000
-31.938600 0.000000
-31.902200 0.000000
-31.865800 0.000000
-31.829400 0.000000
-31.793000 0.000000
-31.756600 0.000000
-31.720200 0.000000
-31.683800 0.000000
-31.647300 0.000000
-31.610900 0.000000
-31.574500 0.000000
-31.538100 0.000000
-31.501700 0.000000
-31.465300 0.000000
-31.428900 0.000000
-31.392500 0.000000
-31.356100 0.000000
-31.319700 0.000000
-31.283300 0.000000
-31.246900 0.000000
-31.210500 0.000000
-31.174100 0.000000
-31.137700 0.000000
-31.101300 0.000000
-31.064900 0.000000
-31.028500 0.000000
-30.992100 0.000000
-30.955700 0.000000
-30.919300 0.000000
-30.882900 0.000000
-30.846500 0.000000
-30.810100 0.000000
-30.773700 0.000000
-30.737300 0.000000
-30.700900 0.000000
-30.664500 0.000000
-30.628100 0.000000
-30.591700 0.000000
-30.555300 0.000000
-30.518900 0.000000
-30.482500 0.000000
-30.446100 0.000000
-30.409700 0.000000
-30.373300 0.000000
-30.336800 0.000000
-30.300400 0.000000
-30.264000 0.000000
-30.227600 0.000000
-30.191200 0.000000
-30.154800 0.000000
-30.118400 0.000000
-30.082000 0.000000
-30.045600 0.000000
-30.009200 0.000000
-29.972800 0.000000
-29.936400 0.000000
-29.900000 0.000000
-29.863600 0.000000
-29.827200 0.000000
-29.790800 0.000000
-29.754400 0.000000
-29.718000 0.000000
-29.681600 0.000000
-29.645200 0.000000
-29.608800 0.000000
-29.572400 0.000000
-29.536000 0.000000
-29.499600 0.000000
-29.463200 0.000000
-29.426800 0.000000
-29.390400 0.000000
-29.354000 0.000000
-29.317600 0.000000
-29.281200 0.000000
-29.244800 0.000000
-29.208400 0.000000
-29.172000 0.000000
-29.135600 0.000000
-29.099200 0.000000
-29.062800 0.000000
-29.026400 0.000000
-28.989900 0.000000
-28.953500 0.000000
-28.917100 0.000000
-28.880700 0.000000
-28.844300 0.000000
-28.807900 0.000000
-28.771500 0.000000
-28.735100 0.000000
-28.698700 4.460700
-28.662300 36.982100
-28.625900 16.250400
-28.589500 0.000000
-28.553100 0.000000
-28.516700 0.000000
-28.480300 23.147600
-28.443900 67.668000
-28.407500 16.405400
-28.371100 25.901400
-28.334700 9.137800
-28.298300 0.000000
-28.261900 9.564100
-28.225500 26.684100
-28.189100 16.002500
-28.152700 33.105100
-28.116300 0.000000
-28.079900 0.000000
-28.043500 0.000000
-28.007100 0.000000
-27.970700 0.000000
-27.934300 0.000000
-27.897900 0.000000
-27.861500 0.000000
-27.825100 0.000000
-27.788700 0.000000
-27.752300 0.000000
-27.715900 0.000000
-27.679400 0.000000
-27.643000 0.000000
-27.606600 0.000000
-27.570200 0.000000
-27.533800 0.000000
-27.497400 0.000000
-27.461000 0.000000
-27.424600 0.000000
-27.388200 0.000000
-27.351800 0.000000
-27.315400 0.000000
-27.279000 0.000000
-27.242600 0.000000
-27.206200 0.000000
-27.169800 0.000000
-27.133400 0.000000
-27.097000 0.000000
-27.060600 0.000000
-27.024200 0.000000
-26.987800 0.000000
-26.951400 0.000000
-26.915000 0.000000
-26.878600 0.000000
-26.842200 0.000000
-26.805800 0.000000
-26.769400 0.000000
-26.733000 0.000000
-26.696600 0.000000
-26.660200 0.000000
-26.623800 0.000000
-26.587400 0.000000
-26.551000 0.000000
-26.514600 0.000000
-26.478200 0.000000
-26.441800 0.000000
-26.405400 0.000000
-26.369000 0.000000
-26.332500 0.000000
-26.296100 0.000000
-26.259700 0.000000
-26.223300 0.000000
-26.186900 0.000000
-26.150500 0.000000
-26.114100 0.000000
-26.077700 0.000000
-26.041300 0.000000
-26.004900 0.000000
-25.968500 0.000000
-25.932100 0.000000
-25.895700 0.000000
-25.859300 0.000000
-25.822900 0.000000
-25.786500 0.000000
-25.750100 0.000000
-25.713700 0.000000
-25.677300 0.000000
-25.640900 0.000000
-25.604500 0.000000
-25.568100 0.000000
-25.531700 0.000000
-25.495300 0.000000
-25.458900 0.000000
-25.422500 0.000000
-25.386100 0.000000
-25.349700 0.000000
-25.313300 0.000000
-25.276900 0.000000
-25.240500 0.000000
-25.204100 0.000000
-25.167700 0.000000
-25.131300 0.000000
-25.094900 0.000000
-25.058500 0.000000
-25.022000 0.000000
-24.985600 0.000000
-24.949200 0.000000
-24.912800 0.000000
-24.876400 0.000000
-24.840000 0.000000
-24.803600 0.000000
-24.767200 0.000000
-24.730800 0.000000
-24.694400 0.000000
-24.658000 0.000000
-24.621600 0.000000
-24.585200 0.000000
-24.548800 0.000000
-24.512400 0.000000
-24.476000 0.000000
-24.439600 0.000000
-24.403200 0.000000
-24.366800 0.000000
-24.330400 0.000000
-24.294000 0.000000
-24.257600 0.000000
-24.221200 0.000000
-24.184800 0.000000
-24.148400 0.000000
-24.112000 0.000000
-24.075600 0.000000
-24.039200 0.000000
-24.002800 0.000000
-23.966400 0.000000
-23.930000 0.000000
-23.893600 0.000000
-23.857200 0.000000
-23.820800 0.000000
-23.784400 0.000000
-23.748000 0.000000
-23.711500 0.000000
-23.675100 0.000000
-23.638700 0.000000
-23.602300 0.000000
-23.565900 0.000000
-23.529500 0.000000
-23.493100 0.000000
-23.456700 0.000000
-23.420300 0.000000
-23.383900 0.000000
-23.347500 0.000000
-23.311100 0.000000
-23.274700 0.000000
-23.238300 0.000000
-23.201900 0.000000
-23.165500 0.000000
-23.129100 0.000000
-23.092700 0.000000
-23.056300 0.000000
-23.019900 0.000000
-22.983500 0.000000
-22.947100 0.000000
-22.910700 0.000000
-22.874300 0.000000
-22.837900 0.000000
-22.801500 0.000000
-22.765100 0.000000
-22.728700 0.000000
-22.692300 0.000000
-22.655900 0.000000
-22.619500 0.000000
-22.583100 0.000000
-22.546700 0.000000
-22.510300 0.000000
-22.473900 0.000000
-22.437500 0.000000
-22.401100 0.000000
-22.364600 0.000000
-22.328200 0.000000
-22.291800 0.000000
-22.255400 0.000000
-22.219000 0.000000
-22.182600 0.000000
-22.146200 0.000000
-22.109800 0.000000
-22.073400 0.000000
-22.037000 0.000000
-22.000600 0.000000
-21.964200 0.000000
-21.927800 0.000000
-21.891400 0.000000
-21.855000 0.000000
-21.818600 0.000000
-21.782200 0.000000
-21.745800 0.000000
-21.709400 0.000000
-21.673000 0.000000
-21.636600 0.000000
-21.600200 0.000000
-21.563800 0.000000
-21.527400 0.000000
-21.491000 0.000000
-21.454600 0.000000
-21.418200 0.000000
-21.381800 0.000000
-21.345400 0.000000
-21.309000 0.000000
-21.272600 0.000000
-21.236200 0.000000
-21.199800 0.000000
-21.163400 0.000000
-21.127000 0.000000
-21.090600 0.000000
-21.054100 0.000000
-21.017700 0.000000
-20.981300 0.000000
-20.944900 0.000000
-20.908500 0.000000
-20.872100 0.000000
-20.835700 0.000000
-20.799300 0.000000
-20.762900 0.000000
-20.726500 0.000000
-20.690100 0.000000
-20.653700 0.000000
-20.617300 0.000000
-20.580900 0.000000
-20.544500 0.000000
-20.508100 0.000000
-20.471700 0.000000
-20.435300 0.000000
-20.398900 0.000000
-20.362500 0.000000
-20.326100 0.000000
-20.289700 0.000000
-20.253300 0.000000
-20.216900 0.000000
-20.180500 0.000000
-20.144100 0.000000
-20.107700 0.000000
-20.071300 0.000000
-20.034900 0.000000
-19.998500 0.000000
-19.962100 0.000000
-19.925700 0.000000
-19.889300 0.000000
-19.852900 0.000000
-19.816500 0.000000
-19.780100 0.000000
-19.743700 0.000000
-19.707200 0.000000
-19.670800 0.000000
-19.634400 0.000000
-19.598000 0.000000
-19.561600 0.000000
-19.525200 0.000000
-19.488800 0.000000
-19.452400 0.000000
-19.416000 0.000000
-19.379600 0.000000
-19.343200 0.000000
-19.306800 0.000000
-19.270400 0.000000
-19.234000 0.000000
-19.197600 0.000000
-19.161200 0.000000
-19.124800 0.000000
-19.088400 0.000000
-19.052000 0.000000
-19.015600 0.000000
-18.979200 0.000000
-18.942800 0.000000
-18.906400 0.000000
-18.870000 0.000000
-18.833600 0.000000
-18.797200 0.000000
-18.760800 0.000000
-18.724400 0.000000
-18.688000 0.000000
-18.651600 0.000000
-18.615200 0.000000
-18.578800 0.000000
-18.542400 0.000000
-18.506000 0.000000
-18.469600 0.000000
-18.433200 0.000000
-18.396700 0.000000
-18.360300 0.000000
-18.323900 0.000000
-18.287500 0.000000
-18.251100 0.000000
-18.214700 0.000000
-18.178300 0.000000
-18.141900 0.000000
-18.105500 0.000000
-18.069100 0.000000
-18.032700 0.000000
-17.996300 0.000000
-17.959900 0.000000
-17.923500 0.000000
-17.887100 0.000000
-17.850700 0.000000
-17.814300 0.000000
-17.777900 0.000000
-17.741500 0.000000
-17.705100 0.000000
-17.668700 0.000000
-17.632300 0.000000
-17.595900 0.000000
-17.559500 0.000000
-17.523100 0.000000
-17.486700 0.000000
-17.450300 0.000000
-17.413900 0.000000
-17.377500 0.000000
-17.341100 0.000000
-17.304700 0.000000
-17.268300 0.000000
-17.231900 0.000000
-17.195500 0.000000
-17.159100 0.000000
-17.122700 0.000000
-17.086300 0.000000
-17.049800 0.000000
-17.013400 0.000000
-16.977000 0.000000
-16.940600 0.000000
-16.904200 0.000000
-16.867800 0.000000
-16.831400 0.000000
-16.795000 0.000000
-16.758600 0.000000
-16.722200 0.000000
-16.685800 0.000000
-16.649400 0.000000
-16.613000 0.000000
-16.576600 0.000000
-16.540200 0.000000
-16.503800 0.000000
-16.467400 0.000000
-16.431000 0.000000
-16.394600 0.000000
-16.358200 0.000000
-16.321800 0.000000
-16.285400 0.000000
-16.249000 0.000000
-16.212600 0.000000
-16.176200 0.000000
-16.139800 0.000000
-16.103400 0.000000
-16.067000 0.000000
-16.030600 0.000000
-15.994200 0.000000
-15.957800 0.000000
-15.921400 0.000000
-15.885000 0.000000
-15.848600 0.000000
-15.812200 0.000000
-15.775800 0.000000
-15.739300 0.000000
-15.702900 0.000000
-15.666500 0.000000
-15.630100 0.000000
-15.593700 0.000000
-15.557300 0.000000
-15.520900 0.000000
-15.484500 0.000000
-15.448100 0.000000
-15.411700 0.000000
-15.375300 0.000000
-15.338900 0.000000
-15.302500 0.000000
-15.266100 0.000000
-15.229700 0.000000
-15.193300 0.000000
-15.156900 0.000000
-15.120500 0.000000
-15.084100 0.000000
-15.047700 0.000000
-15.011300 0.000000
-14.974900 0.000000
-14.938500 0.000000
-14.902100 0.000000
-14.865700 0.000000
-14.829300 0.000000
-14.792900 0.000000
-14.756500 0.000000
-14.720100 0.000000
-14.683700 0.000000
-14.647300 0.000000
-14.610900 0.000000
-14.574500 0.000000
-14.538100 0.000000
-14.501700 0.000000
-14.465300 0.000000
-14.428800 0.000000
-14.392400 0.000000
-14.356000 0.000000
-14.319600 0.000000
-14.283200 0.000000
-14.246800 0.000000
-14.210400 0.000000
-14.174000 0.000000
-14.137600 0.000000
-14.101200 0.000000
-14.064800 0.000000
-14.028400 0.000000
-13.992000 0.000000
-13.955600 0.000000
-13.919200 0.000000
-13.882800 0.000000
-13.846400 0.000000
-13.810000 0.000000
-13.773600 0.000000
-13.737200 0.000000
-13.700800 0.000000
-13.664400 0.000000
-13.628000 0.000000
-13.591600 0.000000
-13.555200 0.000000
-13.518800 0.000000
-13.482400 0.000000
-13.446000 0.000000
-13.409600 0.000000
-13.373200 0.000000
-13.336800 0.000000
-13.300400 0.000000
-13.264000 0.000000
-13.227600 0.000000
-13.191200 0.000000
-13.154800 0.000000
-13.118400 0.000000
-13.081900 0.000000
-13.045500 0.000000
-13.009100 0.000000
-12.972700 0.000000
-12.936300 0.000000
-12.899900 0.000000
-12.863500 0.000000
-12.827100 0.000000
-12.790700 0.000000
-12.754300 0.000000
-12.717900 0.000000
-12.681500 0.000000
-12.645100 0.000000
-12.608700 0.000000
-12.572300 0.000000
-12.535900 0.000000
-12.499500 0.000000
-12.463100 0.000000
-12.426700 0.000000
-12.390300 0.000000
-12.353900 0.000000
-12.317500 0.000000
-12.281100 0.000000
-12.244700 0.000000
-12.208300 0.000000
-12.171900 0.000000
-12.135500 0.000000
-12.099100 0.000000
-12.062700 0.000000
-12.026300 0.000000
-11.989900 0.000000
-11.953500 0.000000
-11.917100 0.000000
-11.880700 0.000000
-11.844300 0.000000
-11.807900 0.000000
-11.771400 0.000000
-11.735000 0.000000
-11.698600 0.000000
-11.662200 0.000000
-11.625800 0.000000
-11.589400 0.000000
-11.553000 0.000000
-11.516600 0.000000
-11.480200 0.000000
-11.443800 0.000000
-11.407400 0.000000
-11.371000 0.000000
-11.334600 0.000000
-11.298200 0.000000
-11.261800 0.000000
-11.225400 0.000000
-11.189000 0.000000
-11.152600 0.000000
-11.116200 0.000000
-11.079800 0.000000
-11.043400 0.000000
-11.007000 0.000000
-10.970600 0.000000
-10.934200 0.000000
-10.897800 0.000000
-10.861400 0.000000
-10.825000 0.000000
-10.788600 0.000000
-10.752200 0.000000
-10.715800 0.000000
-10.679400 0.000000
-10.643000 0.000000
-10.606600 0.000000
-10.570200 0.000000
-10.533800 0.000000
-10.497400 0.000000
-10.461000 0.000000
-10.424500 0.000000
-10.388100 0.000000
-10.351700 0.000000
-10.315300 0.000000
-10.278900 0.000000
-10.242500 0.000000
-10.206100 0.000000
-10.169700 0.000000
-10.133300 0.000000
-10.096900 0.000000
-10.060500 0.000000
-10.024100 0.000000
-9.987700 0.000000
-9.951300 0.000000
-9.914900 0.000000
-9.878500 0.000000
-9.842100 0.000000
-9.805700 0.000000
-9.769300 0.000000
-9.732900 0.000000
-9.696500 0.000000
-9.660100 0.000000
-9.623700 0.000000
-9.587300 0.000000
-9.550900 0.000000
-9.514500 0.000000
-9.478100 0.000000
-9.441700 0.000000
-9.405300 0.000000
-9.368900 0.000000
-9.332500 0.000000
-9.296100 0.000000
-9.259700 0.000000
-9.223300 0.000000
-9.186900 0.000000
-9.150500 0.000000
-9.114000 0.000000
-9.077600 0.000000
-9.041200 0.000000
-9.004800 0.000000
-8.968400 0.000000
-8.932000 0.000000
-8.895600 0.000000
-8.859200 0.000000
-8.822800 0.000000
-8.786400 0.000000
-8.750000 0.000000
-8.713600 0.000000
-8.677200 0.000000
-8.640800 0.000000
-8.604400 0.000000
-8.568000 0.000000
-8.531600 0.000000
-8.495200 0.000000
-8.458800 0.000000
-8.422400 0.000000
-8.386000 0.000000
-8.349600 0.000000
-8.313200 0.000000
-8.276800 0.000000
-8.240400 0.000000
-8.204000 0.000000
-8.167600 0.000000
-8.131200 0.000000
-8.094800 0.000000
-8.058400 0.000000
-8.022000 0.000000
-7.985600 0.000000
-7.949200 0.000000
-7.912800 0.000000
-7.876400 0.000000
-7.840000 0.000000
-7.803600 0.000000
-7.767100 0.000000
-7.730700 0.000000
-7.694300 0.000000
-7.657900 0.000000
-7.621500 0.000000
-7.585100 0.000000
-7.548700 0.000000
-7.512300 0.000000
-7.475900 0.000000
-7.439500 0.000000
-7.403100 0.000000
-7.366700 0.000000
-7.330300 0.000000
-7.293900 0.000000
-7.257500 0.000000
-7.221100 0.000000
-7.184700 0.000000
-7.148300 0.000000
-7.111900 0.000000
-7.075500 0.000000
-7.039100 0.000000
-7.002700 0.000000
-6.966300 0.000000
-6.929900 0.000000
-6.893500 0.000000
-6.857100 0.000000
-6.820700 0.000000
-6.784300 0.000000
-6.747900 0.000000
-6.711500 0.000000
-6.675100 0.000000
-6.638700 0.000000
-6.602300 0.000000
-6.565900 0.000000
-6.529500 0.000000
-6.493100 0.000000
-6.456600 0.000000
-6.420200 0.000000
-6.383800 0.000000
-6.347400 0.000000
-6.311000 0.000000
-6.274600 0.000000
-6.238200 0.000000
-6.201800 0.000000
-6.165400 0.000000
-6.129000 0.000000
-6.092600 0.000000
-6.056200 0.000000
-6.019800 0.000000
-5.983400 0.000000
-5.947000 0.005300
-5.910600 0.070600
-5.874200 0.157400
-5.837800 0.175100
-5.801400 0.208000
-5.765000 0.241800
-5.728600 0.273400
-5.692200 0.304500
-5.655800 0.319500
-5.619400 0.342000
-5.583000 0.363800
-5.546600 0.381000
-5.510200 0.402000
-5.473800 0.424500
-5.437400 0.447800
-5.401000 0.469200
-5.364600 0.486700
-5.328200 0.505500
-5.291800 0.523600
-5.255400 0.541000
-5.219000 0.559500
-5.182600 0.579100
-5.146100 0.599000
-5.109700 0.619300
-5.073300 0.640200
-5.036900 0.661500
-5.000500 0.682500
-4.964100 0.703600
-4.927700 0.724800
-4.891300 0.746800
-4.854900 0.769400
-4.818500 0.792800
-4.782100 0.818000
-4.745700 0.844500
-4.709300 0.872300
-4.672900 0.901300
-4.636500 0.934500
-4.600100 0.982400
-4.563700 1.068500
-4.527300 1.151600
-4.490900 1.190200
-4.454500 1.210300
-4.418100 1.184300
-4.381700 1.175900
-4.345300 1.166600
-4.308900 1.157400
-4.272500 1.143700
-4.236100 1.126200
-4.199700 1.127200
-4.163300 1.140900
-4.126900 1.148500
-4.090500 1.134600
-4.054100 1.113100
-4.017700 1.105400
-3.981300 1.106700
-3.944900 1.115500
-3.908500 1.132400
-3.872100 1.173700
-3.835700 1.235600
-3.799200 1.321600
-3.762800 1.442400
-3.726400 1.438900
-3.690000 1.445800
-3.653600 1.233800
-3.617200 1.380900
-3.580800 1.325100
-3.544400 1.352000
-3.508000 1.562000
-3.471600 1.443900
-3.435200 1.596900
-3.398800 1.778200
-3.362400 1.906300
-3.326000 2.146700
-3.289600 2.618400
-3.253200 2.769200
-3.216800 2.415900
-3.180400 1.975000
-3.144000 1.837800
-3.107600 1.643600
-3.071200 1.530900
-3.034800 1.636600
-2.998400 1.710700
-2.962000 1.838800
-2.925600 2.092300
-2.889200 2.400200
-2.852800 2.372100
-2.816400 2.436900
-2.780000 2.554700
-2.743600 2.645400
-2.707200 2.711500
-2.670800 2.753800
-2.634400 3.115800
-2.598000 3.148600
-2.561600 3.093400
-2.525200 2.886900
-2.488700 2.796500
-2.452300 2.717000
-2.415900 2.599700
-2.379500 2.481900
-2.343100 2.383700
-2.306700 2.319800
-2.270300 2.284100
-2.233900 2.232200
-2.197500 2.163200
-2.161100 2.078600
-2.124700 1.984000
-2.088300 1.899500
-2.051900 1.844900
-2.015500 1.727300
-1.979100 1.629200
-1.942700 1.490200
-1.906300 1.354600
-1.869900 1.256900
-1.833500 1.141300
-1.797100 1.023800
-1.760700 0.899900
-1.724300 0.791500
-1.687900 0.703300
-1.651500 0.644400
-1.615100 0.603700
-1.578700 0.577200
-1.542300 0.572000
-1.505900 0.587900
-1.469500 0.613500
-1.433100 0.619700
-1.396700 0.621100
-1.360300 0.631600
-1.323900 0.648700
-1.287500 0.672500
-1.251100 0.717000
-1.214700 0.746400
-1.178300 0.756800
-1.141800 0.752500
-1.105400 0.735500
-1.069000 0.764600
-1.032600 0.809200
-0.996200 0.857600
-0.959800 0.913700
-0.923400 0.974000
-0.887000 1.466300
-0.850600 1.483000
-0.814200 1.504900
-0.777800 1.654600
-0.741400 1.614700
-0.705000 1.699900
-0.668600 1.689300
-0.632200 1.684700
-0.595800 1.725900
-0.559400 1.788100
-0.523000 1.906000
-0.486600 2.151000
-0.450200 2.358100
-0.413800 2.328800
-0.377400 2.056100
-0.341000 2.070900
-0.304600 2.086200
-0.268200 1.994600
-0.231800 1.874300
-0.195400 1.829100
-0.159000 1.871000
-0.122600 2.135100
-0.086200 1.881400
-0.049800 1.839600
-0.013400 1.855700
0.023000 1.862400
0.059400 1.869600
0.095800 1.881000
0.132200 1.996800
0.168700 2.061200
0.205100 2.062600
0.241500 2.082700
0.277900 2.077100
0.314300 1.987900
0.350700 1.876000
0.387100 1.752200
0.423500 1.712100
0.459900 1.681600
0.496300 1.682800
0.532700 1.698000
0.569100 1.713100
0.605500 1.714700
0.641900 1.768000
0.678300 1.840300
0.714700 2.437300
0.751100 2.575000
0.787500 2.624000
0.823900 2.567200
0.860300 2.353500
0.896700 2.175900
0.933100 2.065200
0.969500 1.976100
1.005900 1.906600
1.042300 1.864200
1.078700 1.890000
1.115100 1.816600
1.151500 1.840700
1.187900 2.000900
1.224300 2.061600
1.260700 2.304100
1.297100 2.760000
1.333500 3.116300
1.369900 2.965700
1.406300 2.789200
1.442700 2.762800
1.479100 2.792600
1.515600 2.913700
1.552000 2.993400
1.588400 3.388100
1.624800 3.726100
1.661200 3.982800
1.697600 2.963300
1.734000 2.440800
1.770400 2.184500
1.806800 2.101500
1.843200 2.052600
1.879600 1.943400
1.916000 1.653800
1.952400 1.917700
1.988800 2.448000
2.025200 2.752900
2.061600 3.266600
2.098000 4.053800
2.134400 5.132900
2.170800 6.177000
2.207200 5.772800
2.243600 5.286300
2.280000 4.492700
2.316400 3.878300
2.352800 3.217300
2.389200 2.533400
2.425600 2.031500
2.462000 1.651200
2.498400 2.175600
2.534800 2.787300
2.571200 3.379600
2.607600 3.854500
2.644000 4.915500
2.680400 6.348000
2.716800 8.273000
2.753200 3.822400
2.789600 2.281900
2.826100 2.343000
2.862500 2.603600
2.898900 3.055400
2.935300 3.943900
2.971700 6.300600
3.008100 5.732200
3.044500 5.069700
3.080900 5.291200
3.117300 5.626700
3.153700 5.579100
3.190100 4.910300
3.226500 4.252300
3.262900 3.724900
3.299300 4.089900
3.335700 4.613000
3.372100 5.231700
3.408500 6.607000
3.444900 5.819000
3.481300 5.281100
3.517700 4.277500
3.554100 3.904900
3.590500 4.264400
3.626900 2.979700
3.663300 2.694300
3.699700 2.387800
3.736100 2.071400
3.772500 1.797800
3.808900 1.739500
3.845300 1.506100
3.881700 0.520700
3.918100 0.808900
3.954500 1.130000
3.990900 1.547500
4.027300 2.313500
4.063700 4.267800
4.100100 4.751300
4.136600 6.838800
4.173000 7.157200
4.209400 6.441500
4.245800 6.148600
4.282200 4.867000
4.318600 3.922500
4.355000 4.292900
4.391400 4.010400
4.427800 3.559200
4.464200 3.200400
4.500600 3.093000
4.537000 3.034500
4.573400 3.228300
4.609800 3.407500
4.646200 3.621400
4.682600 4.152100
4.719000 4.458900
4.755400 3.684100
4.791800 3.290100
4.828200 3.643000
4.864600 3.891700
4.901000 3.461900
4.937400 2.809100
4.973800 2.539300
5.010200 2.362400
5.046600 2.205600
5.083000 2.036100
5.119400 1.927000
5.155800 1.938300
5.192200 2.186500
5.228600 2.248600
5.265000 2.319300
5.301400 2.452500
5.337800 2.583000
5.374200 2.691100
5.410600 2.813300
5.447000 3.511100
5.483500 4.834100
5.519900 6.644300
5.556300 7.637500
5.592700 6.797100
5.629100 5.388100
5.665500 6.235100
5.701900 4.378300
5.738300 3.808400
5.774700 3.555000
5.811100 3.501500
5.847500 3.220700
5.883900 3.127700
5.920300 3.370400
5.956700 3.196100
5.993100 3.088300
6.029500 3.209100
6.065900 3.465000
6.102300 3.826300
6.138700 3.233800
6.175100 2.923900
6.211500 2.709900
6.247900 2.447900
6.284300 2.270100
6.320700 2.150400
6.357100 2.070000
6.393500 2.001200
6.429900 1.907100
6.466300 1.835300
6.502700 1.761900
6.539100 1.692600
6.575500 1.748900
6.611900 1.674500
6.648300 1.293000
6.684700 1.117300
6.721100 1.000800
6.757500 0.954200
6.794000 0.909300
6.830400 0.865500
6.866800 0.830200
6.903200 0.797900
6.939600 0.767100
6.976000 0.738800
7.012400 0.715000
7.048800 0.696000
7.085200 0.680600
7.121600 0.668900
7.158000 0.690200
7.194400 0.791800
7.230800 0.829600
7.267200 0.808800
7.303600 0.804300
7.340000 0.724600
7.376400 0.644600
7.412800 0.569200
7.449200 0.559800
7.485600 0.623500
7.522000 0.754400
7.558400 0.846600
7.594800 0.957400
7.631200 1.167100
7.667600 1.448400
7.704000 1.600500
7.740400 1.410000
7.776800 1.408400
7.813200 1.331300
7.849600 1.153000
7.886000 1.109300
7.922400 1.119500
7.958800 1.152800
7.995200 1.212600
8.031600 1.290000
8.068000 1.385200
8.104400 1.491700
8.140900 1.831400
8.177300 2.414200
8.213700 3.078000
8.250100 3.703100
8.286500 4.220000
8.322900 4.142800
8.359300 4.570500
8.395700 6.059000
8.432100 7.225900
8.468500 6.176900
8.504900 6.884500
8.541300 5.394700
8.577700 5.326100
8.614100 5.205400
8.650500 5.079200
8.686900 4.815600
8.723300 4.594600
8.759700 4.279800
8.796100 3.977800
8.832500 4.321000
8.868900 5.015500
8.905300 4.822100
8.941700 4.828300
8.978100 4.932100
9.014500 5.220100
9.050900 4.521800
9.087300 4.311200
9.123700 4.073500
9.160100 4.069800
9.196500 3.795600
9.232900 3.530200
9.269300 3.264600
9.305700 3.218000
9.342100 3.180500
9.378500 3.186100
9.414900 3.244400
9.451400 3.518000
9.487800 3.543400
9.524200 3.322200
9.560600 2.963700
9.597000 2.789000
9.633400 2.692800
9.669800 2.689600
9.706200 2.648700
9.742600 2.519800
9.779000 2.540100
9.815400 2.683800
9.851800 2.619300
9.888200 2.453300
9.924600 2.272200
9.961000 1.893100
9.997400 1.643600
10.033800 1.484800
10.070200 1.396600
10.106600 1.322900
10.143000 1.263000
10.179400 1.240900
10.215800 1.223900
10.252200 1.152100
10.288600 1.167300
10.325000 1.302100
10.361400 1.423600
10.397800 1.733400
10.434200 2.244600
10.470600 2.442700
10.507000 2.418000
10.543400 2.211900
10.579800 2.028600
10.616200 1.981900
10.652600 1.906900
10.689000 1.814000
10.725400 1.656200
10.761900 1.494300
10.798300 1.411200
10.834700 1.234500
10.871100 1.232300
10.907500 1.198600
10.943900 1.414800
10.980300 1.752400
11.016700 2.111700
11.053100 2.320700
11.089500 2.732100
11.125900 2.797100
11.162300 2.676100
11.198700 2.347100
11.235100 2.367800
11.271500 2.434100
11.307900 2.495500
11.344300 2.549900
11.380700 2.568800
11.417100 3.294000
11.453500 4.896400
11.489900 8.321700
11.526300 4.406000
11.562700 4.041100
11.599100 4.009000
11.635500 3.977300
11.671900 3.778500
11.708300 3.124400
11.744700 2.596000
11.781100 2.335100
11.817500 2.528800
11.853900 3.155400
11.890300 3.923900
11.926700 3.770000
11.963100 3.607800
11.999500 3.128800
12.035900 2.825000
12.072300 2.488700
12.108800 2.197600
12.145200 1.952700
12.181600 1.801500
12.218000 1.686400
12.254400 1.785000
12.290800 1.767600
12.327200 1.759200
12.363600 1.689100
12.400000 1.680100
12.436400 1.705900
12.472800 1.743100
12.509200 1.737900
12.545600 1.712200
12.582000 1.726200
12.618400 1.693500
12.654800 1.583900
12.691200 1.593900
12.727600 1.595200
12.764000 1.585400
12.800400 1.663900
12.836800 1.726900
12.873200 1.856000
12.909600 1.965500
12.946000 2.027100
12.982400 1.967100
13.018800 1.960500
13.055200 2.017800
13.091600 2.037000
13.128000 2.018800
13.164400 1.962300
13.200800 1.955500
13.237200 1.879700
13.273600 1.783900
13.310000 1.744900
13.346400 1.648100
13.382800 1.594500
13.419300 1.654600
13.455700 1.762200
13.492100 1.558600
13.528500 1.466100
13.564900 1.473100
13.601300 1.493200
13.637700 1.506800
13.674100 1.526800
13.710500 1.429100
13.746900 1.610900
13.783300 1.845400
13.819700 2.182700
13.856100 2.643200
13.892500 2.396200
13.928900 2.340400
13.965300 2.228600
14.001700 2.119500
14.038100 2.063800
14.074500 2.099200
14.110900 2.221900
14.147300 2.331200
14.183700 2.402400
14.220100 2.641100
14.256500 2.852000
14.292900 3.017000
14.329300 2.864000
14.365700 2.874200
14.402100 2.894200
14.438500 3.019300
14.474900 3.313600
14.511300 4.362000
14.547700 4.397200
14.584100 4.354000
14.620500 4.262100
14.656900 3.544300
14.693300 2.855400
14.729700 2.663500
14.766200 3.097300
14.802600 4.131900
14.839000 4.993500
14.875400 5.075300
14.911800 4.507700
14.948200 4.120700
14.984600 4.013100
15.021000 3.493100
15.057400 3.179600
15.093800 2.841100
15.130200 2.621000
15.166600 2.309200
15.203000 2.201300
15.239400 2.144000
15.275800 2.113800
15.312200 2.071100
15.348600 2.062900
15.385000 2.012100
15.421400 1.920500
15.457800 1.874900
15.494200 1.837000
15.530600 1.939000
15.567000 3.078600
15.603400 3.621900
15.639800 3.496000
15.676200 3.713100
15.712600 3.770300
15.749000 3.817200
15.785400 3.742800
15.821800 3.514200
15.858200 3.384600
15.894600 3.246500
15.931000 3.042100
15.967400 2.868000
16.003800 2.800100
16.040200 2.872400
16.076700 3.184000
16.113100 3.971100
16.149500 4.657700
16.185900 3.677600
16.222300 3.412800
16.258700 3.351200
16.295100 3.386800
16.331500 3.644900
16.367900 4.091000
16.404300 4.725400
16.440700 4.371100
16.477100 3.503400
16.513500 3.264200
16.549900 3.339400
16.586300 3.295200
16.622700 3.066000
16.659100 2.903800
16.695500 2.696200
16.731900 2.446900
16.768300 2.338500
16.804700 2.306600
16.841100 2.296400
16.877500 2.329600
16.913900 2.413000
16.950300 2.670100
16.986700 2.852400
17.023100 3.142800
17.059500 3.072100
17.095900 3.106600
17.132300 3.199700
17.168700 3.253200
17.205100 3.278600
17.241500 3.344400
17.277900 3.531200
17.314300 3.690100
17.350700 3.772500
17.387100 3.825500
17.423600 4.294000
17.460000 4.068300
17.496400 3.886000
17.532800 3.902000
17.569200 4.144000
17.605600 4.113700
17.642000 4.107500
17.678400 4.124900
17.714800 4.418900
17.751200 4.711000
17.787600 4.640400
17.824000 4.473100
17.860400 4.458400
17.896800 4.383800
17.933200 4.249900
17.969600 3.837500
18.006000 3.473600
18.042400 3.424800
18.078800 3.707000
18.115200 3.851300
18.151600 3.976700
18.188000 3.866800
18.224400 3.954800
18.260800 4.093400
18.297200 4.018200
18.333600 3.986800
18.370000 3.919100
18.406400 3.784800
18.442800 3.663600
18.479200 3.512200
18.515600 3.370200
18.552000 3.296000
18.588400 3.388700
18.624800 3.306100
18.661200 3.092300
18.697600 2.958200
18.734100 2.857300
18.770500 2.765800
18.806900 2.690300
18.843300 2.635400
18.879700 2.613600
18.916100 2.601200
18.952500 2.584700
18.988900 2.606100
19.025300 2.703800
19.061700 2.805600
19.098100 2.897100
19.134500 2.911600
19.170900 3.038500
19.207300 3.287200
19.243700 3.346200
19.280100 3.319100
19.316500 3.226900
19.352900 3.275600
19.389300 3.263100
19.425700 3.218800
19.462100 3.201500
19.498500 3.281200
19.534900 3.185400
19.571300 2.985700
19.607700 2.798600
19.644100 2.810600
19.680500 2.399600
19.716900 2.301800
19.753300 2.310300
19.789700 2.524200
19.826100 3.286700
19.862500 3.415500
19.898900 3.550800
19.935300 3.212400
19.971700 3.073900
20.008100 3.138000
20.044600 3.267800
20.081000 3.211600
20.117400 3.081100
20.153800 2.999700
20.190200 3.012800
20.226600 3.008600
20.263000 2.800100
20.299400 2.575700
20.335800 2.500400
20.372200 2.426700
20.408600 2.381200
20.445000 2.369400
20.481400 2.408400
20.517800 2.490500
20.554200 2.466100
20.590600 2.375000
20.627000 2.299000
20.663400 2.177600
20.699800 2.015700
20.736200 1.918700
20.772600 1.907300
20.809000 2.266500
20.845400 2.605100
20.881800 2.470200
20.918200 2.320500
20.954600 2.152100
20.991000 1.977900
21.027400 1.880500
21.063800 1.908400
21.100200 1.988700
21.136600 2.097200
21.173000 2.212900
21.209400 2.377200
21.245800 2.578100
21.282200 2.661800
21.318600 2.621100
21.355000 2.536400
21.391500 2.388500
21.427900 2.359600
21.464300 2.283600
21.500700 2.230100
21.537100 2.320000
21.573500 2.120600
21.609900 2.157200
21.646300 2.264900
21.682700 2.207800
21.719100 2.261500
21.755500 2.250100
21.791900 2.337900
21.828300 2.429900
21.864700 2.441700
21.901100 2.450500
21.937500 2.435100
21.973900 2.426300
22.010300 2.476500
22.046700 2.420900
22.083100 2.417800
22.119500 2.481500
22.155900 2.587100
22.192300 2.849600
22.228700 2.854000
22.265100 2.864300
22.301500 2.743200
22.337900 2.758300
22.374300 2.833100
22.410700 3.007900
22.447100 3.122800
22.483500 3.149100
22.519900 3.079100
22.556300 3.139500
22.592700 3.214800
22.629100 3.250600
22.665500 3.201600
22.702000 3.069900
22.738400 3.045300
22.774800 3.132200
22.811200 3.342900
22.847600 3.479400
22.884000 3.624700
22.920400 3.407700
22.956800 3.376500
22.993200 3.078700
23.029600 2.999100
23.066000 3.113300
23.102400 3.237400
23.138800 3.317700
23.175200 3.525100
23.211600 3.581900
23.248000 3.487700
23.284400 3.461900
23.320800 3.498800
23.357200 3.302800
23.393600 3.433100
23.430000 3.563200
23.466400 3.676100
23.502800 3.774500
23.539200 4.080500
23.575600 4.797200
23.612000 6.000000
23.648400 8.076100
23.684800 42.030700
23.721200 8.838800
23.757600 6.297700
23.794000 4.884500
23.830400 4.230700
23.866800 3.890600
23.903200 3.570100
23.939600 3.270900
23.976000 3.101500
24.012400 2.910700
24.048900 2.743300
24.085300 2.585300
24.121700 2.438200
24.158100 2.323700
24.194500 2.229100
24.230900 2.173600
24.267300 2.184900
24.303700 2.231100
24.340100 2.259200
24.376500 2.305400
24.412900 2.427200
24.449300 2.565500
24.485700 2.623100
24.522100 2.664900
24.558500 2.691400
24.594900 2.481600
24.631300 2.415100
24.667700 2.369200
24.704100 2.326300
24.740500 2.334500
24.776900 2.435400
24.813300 2.661800
24.849700 2.730700
24.886100 2.823600
24.922500 2.965700
24.958900 3.236900
24.995300 3.390800
25.031700 3.477100
25.068100 3.546300
25.104500 3.644500
25.140900 3.740600
25.177300 3.608400
25.213700 3.463000
25.250100 3.417200
25.286500 3.410600
25.322900 3.334200
25.359400 3.080900
25.395800 3.354500
25.432200 3.885600
25.468600 4.017600
25.505000 4.099300
25.541400 4.093000
25.577800 4.076500
25.614200 4.768100
25.650600 5.071700
25.687000 5.290500
25.723400 5.145300
25.759800 4.907900
25.796200 4.417800
25.832600 4.403700
25.869000 4.545400
25.905400 4.664000
25.941800 4.807300
25.978200 4.440600
26.014600 4.596200
26.051000 4.482900
26.087400 4.573300
26.123800 4.590500
26.160200 4.596800
26.196600 4.742600
26.233000 5.055300
26.269400 5.357600
26.305800 5.625700
26.342200 5.729500
26.378600 5.703500
26.415000 5.703000
26.451400 5.332000
26.487800 5.002500
26.524200 4.618800
26.560600 4.527800
26.597000 4.584000
26.633400 4.342600
26.669800 4.404900
26.706300 4.685700
26.742700 5.081500
26.779100 4.565300
26.815500 4.114400
26.851900 3.569600
26.888300 3.327900
26.924700 3.377700
26.961100 3.101500
26.997500 2.777600
27.033900 2.544600
27.070300 2.637200
27.106700 2.528500
27.143100 2.632100
27.179500 2.803100
27.215900 2.797900
27.252300 2.924300
27.288700 2.982900
27.325100 2.890500
27.361500 2.817900
27.397900 2.939400
27.434300 2.644600
27.470700 2.535600
27.507100 2.492200
27.543500 2.283700
27.579900 2.191600
27.616300 1.772800
27.652700 1.844900
27.689100 1.782900
27.725500 1.780900
27.761900 1.925700
27.798300 2.106500
27.834700 2.314300
27.871100 2.516000
27.907500 2.623700
27.943900 2.898100
27.980300 2.810200
28.016800 2.738500
28.053200 2.650200
28.089600 2.539100
28.126000 2.370200
28.162400 2.397000
28.198800 2.267100
28.235200 2.089000
28.271600 2.015600
28.308000 1.886500
28.344400 1.717400
28.380800 1.621300
28.417200 1.611700
28.453600 1.558600
28.490000 1.469000
28.526400 1.388900
28.562800 1.344600
28.599200 1.236700
28.635600 1.143200
28.672000 1.095300
28.708400 1.064100
28.744800 1.072800
28.781200 1.074400
28.817600 1.014500
28.854000 0.975200
28.890400 0.938900
28.926800 0.905700
28.963200 0.875800
28.999600 0.855600
29.036000 0.850400
29.072400 0.845600
29.108800 0.842400
29.145200 0.866600
29.181600 0.864100
29.218000 0.856800
29.254400 0.850100
29.290800 0.844500
29.327300 0.830000
29.363700 0.841200
29.400100 0.836100
29.436500 0.827500
29.472900 0.822300
29.509300 0.820700
29.545700 0.832600
29.582100 0.842900
29.618500 0.850800
29.654900 0.861300
29.691300 0.875500
29.727700 0.887800
29.764100 0.896500
29.800500 0.899800
29.836900 0.883300
29.873300 0.882200
29.909700 0.830400
29.946100 0.789000
29.982500 0.816900
30.018900 0.919700
30.055300 1.051300
30.091700 1.161600
30.128100 1.247500
30.164500 1.309400
30.200900 1.406500
30.237300 1.381700
30.273700 1.315600
30.310100 1.282000
30.346500 1.303600
30.382900 1.378500
30.419300 1.425400
30.455700 1.558600
30.492100 1.807700
30.528500 2.007800
30.564900 2.200200
30.601300 2.507900
30.637700 2.930300
30.674200 2.556700
30.710600 2.537900
30.747000 2.626100
30.783400 2.838400
30.819800 3.070600
30.856200 3.522700
30.892600 3.333900
30.929000 3.718100
30.965400 3.945000
31.001800 3.515400
31.038200 3.443200
31.074600 3.516700
31.111000 3.371200
31.147400 3.542300
31.183800 2.783400
31.220200 2.474800
31.256600 2.324400
31.293000 2.226400
31.329400 2.177900
31.365800 2.213100
31.402200 2.247300
31.438600 2.284700
31.475000 2.313400
31.511400 2.363900
31.547800 2.675600
31.584200 2.816200
31.620600 2.986000
31.657000 3.150300
31.693400 3.257000
31.729800 3.071100
31.766200 3.166200
31.802600 3.167100
31.839000 3.382200
31.875400 3.679400
31.911800 3.604300
31.948200 3.733300
31.984700 3.802800
32.021100 3.910600
32.057500 3.956600
32.093900 4.043700
32.130300 3.894200
32.166700 3.642600
32.203100 3.347200
32.239500 3.125200
32.275900 2.884300
32.312300 2.799300
32.348700 2.810700
32.385100 2.824400
32.421500 2.777200
32.457900 2.711100
32.494300 2.697700
32.530700 2.691000
32.567100 2.735300
32.603500 2.828200
32.639900 2.850600
32.676300 3.058800
32.712700 2.893800
32.749100 2.915600
32.785500 3.001700
32.821900 3.094200
32.858300 3.102900
32.894700 2.979000
32.931100 3.052400
32.967500 3.621800
33.003900 3.730100
33.040300 4.023300
33.076700 4.191000
33.113100 4.241300
33.149500 4.133000
33.185900 3.974200
33.222300 4.021500
33.258700 3.944700
33.295100 3.859400
33.331600 3.844800
33.368000 3.754000
33.404400 3.653200
33.440800 3.690100
33.477200 3.753200
33.513600 3.832100
33.550000 3.622300
33.586400 3.474200
33.622800 3.274700
33.659200 3.236800
33.695600 2.976200
33.732000 2.883400
33.768400 2.904000
33.804800 2.924400
33.841200 3.083700
33.877600 3.163800
33.914000 3.070300
33.950400 3.254600
33.986800 3.450300
34.023200 3.390000
34.059600 3.419800
34.096000 3.445300
34.132400 3.456900
34.168800 3.583000
34.205200 3.947500
34.241600 3.808200
34.278000 3.605100
34.314400 3.615300
34.350800 3.938000
34.387200 4.334300
34.423600 4.418700
34.460000 4.398100
34.496400 4.333000
34.532800 4.067500
34.569200 3.693000
34.605600 3.493200
34.642100 3.281900
34.678500 3.276600
34.714900 4.080100
34.751300 4.346500
34.787700 4.484300
34.824100 4.585900
34.860500 4.490600
34.896900 4.050900
34.933300 3.741000
34.969700 3.503900
35.006100 3.290400
35.042500 3.369700
35.078900 3.198100
35.115300 3.191100
35.151700 3.014800
35.188100 2.987100
35.224500 3.121000
35.260900 3.296100
35.297300 3.478300
35.333700 3.541800
35.370100 3.521600
35.406500 3.412900
35.442900 3.535600
35.479300 3.589100
35.515700 3.472100
35.552100 3.501900
35.588500 3.560700
35.624900 3.303000
35.661300 2.984100
35.697700 2.895600
35.734100 2.570700
35.770500 2.416900
35.806900 2.299900
35.843300 2.039200
35.879700 1.957200
35.916100 1.930500
35.952500 1.789600
35.989000 1.550600
36.025400 1.335600
36.061800 1.206000
36.098200 1.089400
36.134600 0.981000
36.171000 0.902200
36.207400 0.809100
36.243800 0.716900
36.280200 0.587000
36.316600 0.458600
36.353000 0.363700
36.389400 0.308600
36.425800 0.280200
36.462200 0.255100
36.498600 0.233400
36.535000 0.220600
36.571400 0.217100
36.607800 0.209000
36.644200 0.192600
36.680600 0.173700
36.717000 0.154300
36.753400 0.134200
36.789800 0.113600
36.826200 0.094200
36.862600 0.098400
36.899000 0.093300
36.935400 0.080900
36.971800 0.066700
37.008200 0.047900
37.044600 0.027300
37.081000 0.022900
37.117400 0.019000
37.153800 0.015400
37.190200 0.012200
37.226600 0.009400
37.263000 0.006900
37.299500 0.004800
37.335900 0.003100
37.372300 0.001800
37.408700 0.000800
37.445100 0.000200
37.481500 0.000000
37.517900 0.000000
37.554300 0.000000
37.590700 0.000000
37.627100 0.000000
37.663500 0.000000
37.699900 0.000000
37.736300 0.000000
37.772700 0.000000
37.809100 0.000000
37.845500 0.000000
37.881900 0.000000
37.918300 0.000000
37.954700 0.000000
37.991100 0.000000
38.027500 0.000000
38.063900 0.000000
38.100300 0.000000
38.136700 0.000000
38.173100 0.000000
38.209500 0.000000
38.245900 0.000000
38.282300 0.000000
38.318700 0.000000
38.355100 0.000000
38.391500 0.000000
38.427900 0.000000
38.464300 0.000000
38.500700 0.000000
38.537100 0.000000
38.573500 0.000000
38.610000 0.000000
38.646400 0.000000
38.682800 0.000000
38.719200 0.000000
38.755600 0.000000
38.792000 0.000000
38.828400 0.000000
38.864800 0.000000
38.901200 0.000000
38.937600 0.000000
38.974000 0.000000
39.010400 0.000000
39.046800 0.000000
39.083200 0.000000
39.119600 0.000000
39.156000 0.000000
39.192400 0.000000
39.228800 0.000000
39.265200 0.000000
39.301600 0.000000
39.338000 0.000000
39.374400 0.000000
39.410800 0.000000
39.447200 0.000000
39.483600 0.000000
39.520000 0.000000
39.556400 0.000000
39.592800 0.000000
39.629200 0.000000
39.665600 0.000000
39.702000 0.000000
39.738400 0.000000
39.774800 0.000000
39.811200 0.000000
39.847600 0.000000
39.884000 0.000000
39.920400 0.000000
39.956900 0.000000
39.993300 0.000000
40.029700 0.000000
40.066100 0.000000
40.102500 0.000000
40.138900 0.000000
40.175300 0.000000
40.211700 0.000000
40.248100 0.000000
40.284500 0.000000
40.320900 0.000000
40.357300 0.000000
40.393700 0.000000
40.430100 0.000000
40.466500 0.000000
40.502900 0.000000
40.539300 0.000000
40.575700 0.000000
40.612100 0.000000
40.648500 0.000000
40.684900 0.000000
40.721300 0.000000
40.757700 0.000000
40.794100 0.000000
e
