set title 'mp-570939 - Density of States'
set xlabel 'Energy (eV)'
set ylabel 'DOS (states/eV)'
set grid
set xrange [-10:10]
set yrange [0:706.425]
set xzeroaxis lt -1
set terminal png size 800,600
set output 'mp-570939_dos_gnuplot.png'
plot '-' using 1:2 with lines title 'DOS'
-12.307900 0.000000
-12.293600 0.000000
-12.279300 0.000000
-12.265100 0.000000
-12.250800 0.000000
-12.236500 0.000000
-12.222200 0.000000
-12.207900 0.000000
-12.193600 0.000000
-12.179400 0.000000
-12.165100 0.000000
-12.150800 0.000000
-12.136500 0.000000
-12.122200 0.000000
-12.107900 0.000000
-12.093700 0.000000
-12.079400 0.000000
-12.065100 0.000000
-12.050800 0.000000
-12.036500 0.000000
-12.022200 0.000000
-12.008000 0.000000
-11.993700 0.000000
-11.979400 0.000000
-11.965100 0.000000
-11.950800 0.000000
-11.936500 0.000000
-11.922300 0.000000
-11.908000 0.000000
-11.893700 0.000000
-11.879400 0.000000
-11.865100 0.000000
-11.850900 0.000000
-11.836600 0.000000
-11.822300 0.000000
-11.808000 0.000000
-11.793700 0.000000
-11.779400 0.000000
-11.765200 0.000000
-11.750900 0.000000
-11.736600 0.000000
-11.722300 0.000000
-11.708000 0.000000
-11.693700 0.000000
-11.679500 0.000000
-11.665200 0.000000
-11.650900 0.000000
-11.636600 0.000000
-11.622300 0.000000
-11.608000 0.000000
-11.593800 0.000000
-11.579500 0.000000
-11.565200 0.000000
-11.550900 0.000000
-11.536600 0.000000
-11.522300 0.000000
-11.508100 0.000000
-11.493800 0.000000
-11.479500 0.000000
-11.465200 0.000000
-11.450900 0.000000
-11.436700 0.000000
-11.422400 0.000000
-11.408100 0.000000
-11.393800 0.000000
-11.379500 0.000000
-11.365200 0.000000
-11.351000 0.000000
-11.336700 0.000000
-11.322400 0.000000
-11.308100 0.000000
-11.293800 0.000000
-11.279500 0.000000
-11.265300 0.000000
-11.251000 0.000000
-11.236700 0.000000
-11.222400 0.000000
-11.208100 0.000000
-11.193800 0.000000
-11.179600 0.000000
-11.165300 0.000000
-11.151000 0.000000
-11.136700 0.000000
-11.122400 0.000000
-11.108100 0.000000
-11.093900 0.000000
-11.079600 0.000000
-11.065300 0.000000
-11.051000 0.000000
-11.036700 0.000000
-11.022500 0.000000
-11.008200 0.046200
-10.993900 0.984000
-10.979600 2.524100
-10.965300 5.163600
-10.951000 8.305600
-10.936800 11.447700
-10.922500 13.223500
-10.908200 12.855000
-10.893900 11.902700
-10.879600 11.304700
-10.865300 11.748400
-10.851100 12.192200
-10.836800 12.635900
-10.822500 13.079600
-10.808200 13.523400
-10.793900 13.967100
-10.779600 14.418600
-10.765400 14.940700
-10.751100 15.527300
-10.736800 16.196200
-10.722500 16.871700
-10.708200 17.543000
-10.694000 18.206100
-10.679700 18.856800
-10.665400 19.507000
-10.651100 20.157100
-10.636800 20.807300
-10.622500 21.457500
-10.608300 22.107600
-10.594000 22.757800
-10.579700 25.338600
-10.565400 31.325100
-10.551100 43.285000
-10.536800 63.265800
-10.522600 85.785200
-10.508300 108.996100
-10.494000 117.300500
-10.479700 121.467200
-10.465400 190.830200
-10.451100 350.628400
-10.436900 154.155800
-10.422600 0.000000
-10.408300 0.000000
-10.394000 0.000000
-10.379700 0.000000
-10.365400 0.000000
-10.351200 0.000000
-10.336900 0.000000
-10.322600 0.000000
-10.308300 0.000000
-10.294000 0.000000
-10.279800 0.000000
-10.265500 0.000000
-10.251200 0.000000
-10.236900 0.000000
-10.222600 0.000000
-10.208300 0.000000
-10.194100 0.000000
-10.179800 0.000000
-10.165500 0.000000
-10.151200 0.000000
-10.136900 0.000000
-10.122600 0.000000
-10.108400 0.000000
-10.094100 0.000000
-10.079800 0.000000
-10.065500 0.000000
-10.051200 0.000000
-10.036900 0.000000
-10.022700 0.000000
-10.008400 0.000000
-9.994100 0.000000
-9.979800 0.000000
-9.965500 0.000000
-9.951200 0.000000
-9.937000 0.000000
-9.922700 0.000000
-9.908400 0.000000
-9.894100 0.000000
-9.879800 0.000000
-9.865600 0.000000
-9.851300 0.000000
-9.837000 0.000000
-9.822700 0.000000
-9.808400 0.000000
-9.794100 0.000000
-9.779900 0.000000
-9.765600 0.000000
-9.751300 0.000000
-9.737000 0.000000
-9.722700 0.000000
-9.708400 0.000000
-9.694200 0.000000
-9.679900 0.000000
-9.665600 0.000000
-9.651300 0.000000
-9.637000 0.000000
-9.622700 0.000000
-9.608500 0.000000
-9.594200 0.000000
-9.579900 0.000000
-9.565600 0.000000
-9.551300 0.000000
-9.537000 0.000000
-9.522800 0.000000
-9.508500 0.000000
-9.494200 0.000000
-9.479900 0.000000
-9.465600 0.000000
-9.451400 0.000000
-9.437100 0.000000
-9.422800 0.000000
-9.408500 0.000000
-9.394200 0.000000
-9.379900 0.000000
-9.365700 0.000000
-9.351400 0.000000
-9.337100 0.000000
-9.322800 0.000000
-9.308500 0.000000
-9.294200 0.000000
-9.280000 0.000000
-9.265700 0.000000
-9.251400 0.000000
-9.237100 0.000000
-9.222800 0.000000
-9.208500 0.000000
-9.194300 0.000000
-9.180000 0.000000
-9.165700 0.000000
-9.151400 0.000000
-9.137100 0.000000
-9.122900 0.000000
-9.108600 0.000000
-9.094300 0.000000
-9.080000 0.000000
-9.065700 0.000000
-9.051400 0.000000
-9.037200 0.000000
-9.022900 0.000000
-9.008600 0.000000
-8.994300 0.000000
-8.980000 0.000000
-8.965700 0.000000
-8.951500 0.000000
-8.937200 0.000000
-8.922900 0.000000
-8.908600 0.000000
-8.894300 0.000000
-8.880000 0.000000
-8.865800 0.000000
-8.851500 0.000000
-8.837200 0.000000
-8.822900 0.000000
-8.808600 0.000000
-8.794300 0.000000
-8.780100 0.000000
-8.765800 0.000000
-8.751500 0.000000
-8.737200 0.000000
-8.722900 0.000000
-8.708700 0.000000
-8.694400 0.000000
-8.680100 0.000000
-8.665800 0.000000
-8.651500 0.000000
-8.637200 0.000000
-8.623000 0.000000
-8.608700 0.000000
-8.594400 0.000000
-8.580100 0.000000
-8.565800 0.000000
-8.551500 0.000000
-8.537300 0.000000
-8.523000 0.000000
-8.508700 0.000000
-8.494400 0.000000
-8.480100 0.000000
-8.465800 0.000000
-8.451600 0.000000
-8.437300 0.000000
-8.423000 0.000000
-8.408700 0.000000
-8.394400 0.000000
-8.380100 0.000000
-8.365900 0.000000
-8.351600 0.000000
-8.337300 0.000000
-8.323000 0.000000
-8.308700 0.000000
-8.294500 0.000000
-8.280200 0.000000
-8.265900 0.000000
-8.251600 0.000000
-8.237300 0.000000
-8.223000 0.000000
-8.208800 0.000000
-8.194500 0.000000
-8.180200 0.000000
-8.165900 0.000000
-8.151600 0.000000
-8.137300 0.000000
-8.123100 0.000000
-8.108800 0.000000
-8.094500 0.000000
-8.080200 0.000000
-8.065900 0.000000
-8.051600 0.000000
-8.037400 0.000000
-8.023100 0.000000
-8.008800 0.000000
-7.994500 0.000000
-7.980200 0.000000
-7.966000 0.000000
-7.951700 0.000000
-7.937400 0.000000
-7.923100 0.000000
-7.908800 0.000000
-7.894500 0.000000
-7.880300 0.000000
-7.866000 0.000000
-7.851700 0.000000
-7.837400 0.000000
-7.823100 0.000000
-7.808800 0.000000
-7.794600 0.000000
-7.780300 0.000000
-7.766000 0.000000
-7.751700 0.000000
-7.737400 0.000000
-7.723100 0.000000
-7.708900 0.000000
-7.694600 0.000000
-7.680300 0.000000
-7.666000 0.000000
-7.651700 0.000000
-7.637400 0.000000
-7.623200 0.000000
-7.608900 0.000000
-7.594600 0.000000
-7.580300 0.000000
-7.566000 0.000000
-7.551800 0.000000
-7.537500 0.000000
-7.523200 0.000000
-7.508900 0.000000
-7.494600 0.000000
-7.480300 0.000000
-7.466100 0.000000
-7.451800 0.000000
-7.437500 0.000000
-7.423200 0.000000
-7.408900 0.000000
-7.394600 0.000000
-7.380400 0.000000
-7.366100 0.000000
-7.351800 0.000000
-7.337500 0.000000
-7.323200 0.000000
-7.308900 0.000000
-7.294700 0.000000
-7.280400 0.000000
-7.266100 0.000000
-7.251800 0.000000
-7.237500 0.000000
-7.223200 0.000000
-7.209000 0.000000
-7.194700 0.000000
-7.180400 0.000000
-7.166100 0.000000
-7.151800 0.000000
-7.137600 0.000000
-7.123300 0.000000
-7.109000 0.000000
-7.094700 0.000000
-7.080400 0.000000
-7.066100 0.000000
-7.051900 0.000000
-7.037600 0.000000
-7.023300 0.000000
-7.009000 0.000000
-6.994700 0.000000
-6.980400 0.000000
-6.966200 0.000000
-6.951900 0.000000
-6.937600 0.000000
-6.923300 0.000000
-6.909000 0.000000
-6.894700 0.000000
-6.880500 0.000000
-6.866200 0.000000
-6.851900 0.000000
-6.837600 0.000000
-6.823300 0.000000
-6.809000 0.000000
-6.794800 0.000000
-6.780500 0.000000
-6.766200 0.000000
-6.751900 0.000000
-6.737600 0.000000
-6.723400 89.639500
-6.709100 157.681700
-6.694800 295.899800
-6.680500 208.877000
-6.666200 98.467500
-6.651900 92.735000
-6.637700 87.308500
-6.623400 386.098500
-6.609100 253.130800
-6.594800 183.133500
-6.580500 73.720500
-6.566200 127.386200
-6.552000 642.204100
-6.537700 211.102500
-6.523400 200.344100
-6.509100 230.550900
-6.494800 226.463000
-6.480500 96.113900
-6.466300 81.400800
-6.452000 66.687700
-6.437700 114.327300
-6.423400 0.000000
-6.409100 0.000000
-6.394900 0.000000
-6.380600 0.000000
-6.366300 0.000000
-6.352000 0.000000
-6.337700 0.000000
-6.323400 0.000000
-6.309200 0.000000
-6.294900 0.000000
-6.280600 0.000000
-6.266300 0.000000
-6.252000 0.000000
-6.237700 0.000000
-6.223500 0.000000
-6.209200 0.000000
-6.194900 0.000000
-6.180600 0.000000
-6.166300 0.000000
-6.152000 0.000000
-6.137800 0.000000
-6.123500 0.000000
-6.109200 0.000000
-6.094900 0.000000
-6.080600 0.000000
-6.066300 0.000000
-6.052100 0.000000
-6.037800 0.000000
-6.023500 0.000000
-6.009200 0.000000
-5.994900 0.000000
-5.980700 0.000000
-5.966400 0.000000
-5.952100 0.000000
-5.937800 0.000000
-5.923500 0.000000
-5.909200 0.000000
-5.895000 0.000000
-5.880700 0.000000
-5.866400 0.000000
-5.852100 0.000000
-5.837800 0.000000
-5.823500 0.000000
-5.809300 0.000000
-5.795000 0.000000
-5.780700 0.000000
-5.766400 0.000000
-5.752100 0.000000
-5.737800 0.000000
-5.723600 0.000000
-5.709300 0.000000
-5.695000 0.000000
-5.680700 0.000000
-5.666400 0.000000
-5.652100 0.000000
-5.637900 0.000000
-5.623600 0.000000
-5.609300 0.000000
-5.595000 0.000000
-5.580700 0.000000
-5.566500 0.000000
-5.552200 0.000000
-5.537900 0.000000
-5.523600 0.000000
-5.509300 0.000000
-5.495000 0.000000
-5.480800 0.000000
-5.466500 0.000000
-5.452200 0.000000
-5.437900 0.000000
-5.423600 0.000000
-5.409300 0.000000
-5.395100 0.000000
-5.380800 0.000000
-5.366500 0.000000
-5.352200 0.000000
-5.337900 0.000000
-5.323600 0.000000
-5.309400 0.000000
-5.295100 0.000000
-5.280800 0.000000
-5.266500 0.000000
-5.252200 0.000000
-5.237900 0.000000
-5.223700 0.000000
-5.209400 0.000000
-5.195100 0.000000
-5.180800 0.000000
-5.166500 0.000000
-5.152300 0.000000
-5.138000 0.000000
-5.123700 0.000000
-5.109400 0.000000
-5.095100 0.000000
-5.080800 0.000000
-5.066600 0.000000
-5.052300 0.000000
-5.038000 0.000000
-5.023700 0.000000
-5.009400 0.000000
-4.995100 0.000000
-4.980900 0.000000
-4.966600 0.000000
-4.952300 0.000000
-4.938000 0.000000
-4.923700 0.000000
-4.909400 0.000000
-4.895200 0.000000
-4.880900 0.000000
-4.866600 0.000000
-4.852300 0.000000
-4.838000 0.000000
-4.823800 0.000000
-4.809500 0.000000
-4.795200 0.000000
-4.780900 0.000000
-4.766600 0.000000
-4.752300 0.000000
-4.738100 0.000000
-4.723800 0.000000
-4.709500 0.000000
-4.695200 0.000000
-4.680900 0.000000
-4.666600 0.000000
-4.652400 0.000000
-4.638100 0.000000
-4.623800 0.000000
-4.609500 0.000000
-4.595200 0.000000
-4.580900 0.000000
-4.566700 0.000000
-4.552400 0.000000
-4.538100 0.000000
-4.523800 0.000000
-4.509500 0.000000
-4.495200 0.000000
-4.481000 0.000000
-4.466700 0.000000
-4.452400 0.000000
-4.438100 0.000000
-4.423800 0.000000
-4.409600 0.000000
-4.395300 0.000000
-4.381000 0.000000
-4.366700 0.000000
-4.352400 0.000000
-4.338100 0.000000
-4.323900 0.000000
-4.309600 0.000000
-4.295300 0.000000
-4.281000 0.000000
-4.266700 0.000000
-4.252400 0.000000
-4.238200 0.000000
-4.223900 0.000000
-4.209600 0.000000
-4.195300 0.000000
-4.181000 0.000000
-4.166700 0.000000
-4.152500 0.000000
-4.138200 0.000000
-4.123900 0.000000
-4.109600 0.000000
-4.095300 0.000000
-4.081000 0.000000
-4.066800 0.000000
-4.052500 0.000000
-4.038200 0.000000
-4.023900 0.000000
-4.009600 0.000000
-3.995400 0.000000
-3.981100 0.000000
-3.966800 0.000000
-3.952500 0.000000
-3.938200 0.000000
-3.923900 0.000000
-3.909700 0.000000
-3.895400 0.000000
-3.881100 0.000000
-3.866800 0.000000
-3.852500 0.000000
-3.838200 0.000000
-3.824000 0.000000
-3.809700 0.000000
-3.795400 0.000000
-3.781100 0.000000
-3.766800 0.000000
-3.752500 0.000000
-3.738300 0.000000
-3.724000 0.000000
-3.709700 0.000000
-3.695400 0.000000
-3.681100 0.000000
-3.666800 0.000000
-3.652600 0.000000
-3.638300 0.000000
-3.624000 0.000000
-3.609700 0.000000
-3.595400 0.000000
-3.581200 0.000000
-3.566900 0.000000
-3.552600 0.000000
-3.538300 0.000000
-3.524000 0.000000
-3.509700 0.000000
-3.495500 0.000000
-3.481200 0.000000
-3.466900 0.000000
-3.452600 0.000000
-3.438300 0.000000
-3.424000 0.000000
-3.409800 0.000000
-3.395500 0.000000
-3.381200 0.000000
-3.366900 0.000000
-3.352600 0.000000
-3.338300 0.000000
-3.324100 0.000000
-3.309800 0.000000
-3.295500 0.000000
-3.281200 0.000000
-3.266900 0.000000
-3.252700 0.000000
-3.238400 0.000000
-3.224100 0.000000
-3.209800 0.000000
-3.195500 0.000000
-3.181200 0.000000
-3.167000 0.000000
-3.152700 0.000000
-3.138400 0.000000
-3.124100 0.000000
-3.109800 0.000000
-3.095500 0.000000
-3.081300 0.000000
-3.067000 0.000000
-3.052700 0.000000
-3.038400 0.000000
-3.024100 0.000000
-3.009800 0.000000
-2.995600 0.000000
-2.981300 0.000000
-2.967000 0.000000
-2.952700 0.000000
-2.938400 0.000000
-2.924100 0.000000
-2.909900 0.000000
-2.895600 0.000000
-2.881300 0.000000
-2.867000 0.000000
-2.852700 0.000000
-2.838500 0.000000
-2.824200 0.000000
-2.809900 0.000000
-2.795600 0.000000
-2.781300 15.962600
-2.767000 30.272000
-2.752800 44.270700
-2.738500 33.841400
-2.724200 39.519900
-2.709900 45.198500
-2.695600 39.805000
-2.681300 31.476500
-2.667100 30.684200
-2.652800 29.892000
-2.638500 29.099700
-2.624200 23.953100
-2.609900 19.643100
-2.595600 17.767200
-2.581400 15.978800
-2.567100 15.891800
-2.552800 15.804700
-2.538500 15.717700
-2.524200 15.630600
-2.509900 15.543500
-2.495700 15.456500
-2.481400 17.014500
-2.467100 21.060000
-2.452800 25.986700
-2.438500 35.283100
-2.424300 17.919200
-2.410000 26.962000
-2.395700 53.692400
-2.381400 8.313500
-2.367100 8.478700
-2.352800 8.435500
-2.338600 8.340400
-2.324300 8.243500
-2.310000 8.146600
-2.295700 8.049600
-2.281400 25.376700
-2.267100 2.097900
-2.252900 2.049600
-2.238600 2.001400
-2.224300 6.233400
-2.210000 3.462000
-2.195700 0.690700
-2.181400 0.000000
-2.167200 0.000000
-2.152900 0.000000
-2.138600 0.000000
-2.124300 0.000000
-2.110000 0.000000
-2.095800 0.000000
-2.081500 0.000000
-2.067200 0.000000
-2.052900 0.000000
-2.038600 0.000000
-2.024300 0.000000
-2.010100 0.000000
-1.995800 0.000000
-1.981500 0.000000
-1.967200 0.000000
-1.952900 0.000000
-1.938600 0.000000
-1.924400 0.000000
-1.910100 0.000000
-1.895800 0.000000
-1.881500 0.000000
-1.867200 6.125400
-1.852900 4.527600
-1.838700 7.835100
-1.824400 11.151900
-1.810100 7.970800
-1.795800 5.786800
-1.781500 11.136000
-1.767200 16.628100
-1.753000 13.382000
-1.738700 16.416500
-1.724400 14.551000
-1.710100 13.211600
-1.695800 13.684600
-1.681600 14.270900
-1.667300 14.857200
-1.653000 15.443500
-1.638700 16.029800
-1.624400 16.616100
-1.610100 17.202400
-1.595900 17.788700
-1.581600 18.375000
-1.567300 28.855100
-1.553000 23.796800
-1.538700 17.228100
-1.524400 12.776400
-1.510200 13.007800
-1.495900 20.878400
-1.481600 15.792100
-1.467300 27.052900
-1.453000 8.851400
-1.438700 16.645000
-1.424500 6.561600
-1.410200 6.474300
-1.395900 6.387000
-1.381600 6.299700
-1.367300 6.212400
-1.353000 6.685400
-1.338800 6.639800
-1.324500 7.194900
-1.310200 7.809400
-1.295900 7.844400
-1.281600 8.525100
-1.267400 9.253100
-1.253100 10.003400
-1.238800 10.144300
-1.224500 10.286600
-1.210200 10.430100
-1.195900 10.573700
-1.181700 10.717400
-1.167400 10.861000
-1.153100 11.003900
-1.138800 11.138100
-1.124500 11.268300
-1.110200 11.398600
-1.096000 11.528800
-1.081700 11.659100
-1.067400 11.789300
-1.053100 11.919600
-1.038800 12.049800
-1.024500 12.180100
-1.010300 12.310300
-0.996000 12.440600
-0.981700 12.570800
-0.967400 12.701100
-0.953100 12.831300
-0.938800 13.995200
-0.924600 14.835900
-0.910300 16.981000
-0.896000 19.246400
-0.881700 22.082900
-0.867400 23.542500
-0.853200 23.916300
-0.838900 24.290000
-0.824600 27.423400
-0.810300 27.710500
-0.796000 29.884100
-0.781700 30.612800
-0.767500 30.822300
-0.753200 29.318400
-0.738900 29.389300
-0.724600 29.455700
-0.710300 29.583800
-0.696000 28.423500
-0.681800 27.168800
-0.667500 27.109000
-0.653200 27.205800
-0.638900 27.337200
-0.624600 27.490800
-0.610300 28.039500
-0.596100 28.765900
-0.581800 29.492100
-0.567500 29.452700
-0.553200 30.098700
-0.538900 30.043200
-0.524700 30.846900
-0.510400 31.641300
-0.496100 32.435600
-0.481800 32.281800
-0.467500 28.306300
-0.453200 28.092600
-0.439000 24.709600
-0.424700 22.544400
-0.410400 21.819800
-0.396100 21.128700
-0.381800 20.566200
-0.367500 19.974700
-0.353300 23.247300
-0.339000 21.510800
-0.324700 20.416200
-0.310400 18.681800
-0.296100 17.264700
-0.281800 17.670500
-0.267600 17.022300
-0.253300 16.338100
-0.239000 15.654000
-0.224700 14.969900
-0.210400 14.425600
-0.196100 13.798100
-0.181900 13.233500
-0.167600 12.733500
-0.153300 12.333900
-0.139000 11.959900
-0.124700 11.654200
-0.110500 11.496700
-0.096200 11.402500
-0.081900 11.248500
-0.067600 11.094400
-0.053300 11.978600
-0.039000 12.123500
-0.024800 12.268400
-0.010500 12.413200
0.003800 13.907000
0.018100 15.711900
0.032400 16.730400
0.046700 17.992100
0.060900 19.000800
0.075200 20.009400
0.089500 25.023100
0.103800 24.333100
0.118100 25.266300
0.132400 26.226600
0.146600 27.186800
0.160900 32.280600
0.175200 39.606000
0.189500 44.482200
0.203800 49.639100
0.218100 48.689700
0.232300 49.948100
0.246600 49.381900
0.260900 61.709700
0.275200 65.745900
0.289500 66.788500
0.303700 53.157400
0.318000 40.730600
0.332300 45.652900
0.346600 57.593700
0.360900 45.266500
0.375200 42.085200
0.389400 41.822600
0.403700 40.696600
0.418000 39.244800
0.432300 51.214200
0.446600 42.697100
0.460900 49.106400
0.475100 40.401500
0.489400 40.845700
0.503700 44.437200
0.518000 49.807300
0.532300 43.755700
0.546600 39.309700
0.560800 37.581600
0.575100 36.209300
0.589400 31.262700
0.603700 26.928700
0.618000 23.752600
0.632300 20.992800
0.646500 18.396200
0.660800 15.859000
0.675100 13.576900
0.689400 11.324800
0.703700 21.472800
0.717900 22.073900
0.732200 23.444100
0.746500 0.000000
0.760800 0.000000
0.775100 0.000000
0.789400 0.000000
0.803600 0.000000
0.817900 0.000000
0.832200 0.000000
0.846500 0.000000
0.860800 0.000000
0.875100 0.000000
0.889300 0.000000
0.903600 0.000000
0.917900 0.000000
0.932200 0.000000
0.946500 0.000000
0.960800 0.000000
0.975000 0.000000
0.989300 0.000000
1.003600 0.000000
1.017900 0.000000
1.032200 0.000000
1.046400 0.000000
1.060700 0.000000
1.075000 0.000000
1.089300 0.000000
1.103600 0.000000
1.117900 0.000000
1.132100 0.000000
1.146400 0.000000
1.160700 0.000000
1.175000 0.000000
1.189300 0.000000
1.203600 0.000000
1.217800 0.000000
1.232100 0.000000
1.246400 0.000000
1.260700 0.000000
1.275000 0.000000
1.289300 0.000000
1.303500 0.000000
1.317800 0.000000
1.332100 0.000000
1.346400 0.000000
1.360700 0.000000
1.375000 0.000000
1.389200 0.000000
1.403500 0.000000
1.417800 0.000000
1.432100 0.000000
1.446400 0.000000
1.460600 0.000000
1.474900 0.000000
1.489200 0.000000
1.503500 0.000000
1.517800 0.000000
1.532100 0.000000
1.546300 0.000000
1.560600 0.000000
1.574900 0.000000
1.589200 0.000000
1.603500 0.000000
1.617800 0.000000
1.632000 0.000000
1.646300 0.000000
1.660600 0.000000
1.674900 0.000000
1.689200 0.000000
1.703500 0.000000
1.717700 0.000000
1.732000 0.000000
1.746300 0.000000
1.760600 0.000000
1.774900 0.000000
1.789200 0.000000
1.803400 0.000000
1.817700 0.000000
1.832000 0.000000
1.846300 0.000000
1.860600 0.000000
1.874800 0.000000
1.889100 0.000000
1.903400 0.000000
1.917700 0.000000
1.932000 0.000000
1.946300 0.000000
1.960500 0.000000
1.974800 0.000000
1.989100 0.000000
2.003400 0.000000
2.017700 0.000000
2.032000 0.000000
2.046200 0.000000
2.060500 0.000000
2.074800 0.000000
2.089100 0.000000
2.103400 0.000000
2.117700 0.000000
2.131900 0.000000
2.146200 0.000000
2.160500 0.000000
2.174800 0.000000
2.189100 0.000000
2.203300 0.000000
2.217600 0.000000
2.231900 0.000000
2.246200 0.000000
2.260500 0.000000
2.274800 0.000000
2.289000 0.000000
2.303300 0.000000
2.317600 0.000000
2.331900 0.000000
2.346200 0.000000
2.360500 0.000000
2.374700 0.000000
2.389000 0.000000
2.403300 0.000000
2.417600 0.000000
2.431900 0.000000
2.446200 0.000000
2.460400 0.000000
2.474700 0.000000
2.489000 0.000000
2.503300 0.000000
2.517600 0.000000
2.531900 0.000000
2.546100 0.000000
2.560400 0.000000
2.574700 0.000000
2.589000 0.000000
2.603300 0.000000
2.617500 0.000000
2.631800 0.000000
2.646100 0.000000
2.660400 0.000000
2.674700 0.000000
2.689000 0.000000
2.703200 0.000000
2.717500 0.000000
2.731800 0.000000
2.746100 0.000000
2.760400 0.000000
2.774700 0.000000
2.788900 0.000000
2.803200 0.000000
2.817500 0.000000
2.831800 0.000000
2.846100 0.000000
2.860400 0.000000
2.874600 0.000000
2.888900 0.000000
2.903200 0.000000
2.917500 0.000000
2.931800 0.000000
2.946100 0.000000
2.960300 0.000000
2.974600 0.000000
2.988900 0.000000
3.003200 0.000000
3.017500 0.000000
3.031700 0.000000
3.046000 0.000000
3.060300 0.000000
3.074600 0.000000
3.088900 0.000000
3.103200 0.000000
3.117400 0.000000
3.131700 0.000000
3.146000 0.000000
3.160300 0.000000
3.174600 0.000000
3.188900 0.000000
3.203100 0.000800
3.217400 0.873800
3.231700 0.925100
3.246000 1.918300
3.260300 2.010200
3.274600 3.054900
3.288800 3.182700
3.303100 3.310400
3.317400 4.573200
3.331700 4.734300
3.346000 6.049400
3.360300 6.236800
3.374500 7.719200
3.388800 7.937300
3.403100 8.179700
3.417400 8.422200
3.431700 8.664600
3.445900 8.907100
3.460200 9.149500
3.474500 9.392000
3.488800 9.634400
3.503100 9.897800
3.517400 10.417200
3.531600 10.964300
3.545900 11.674400
3.560200 12.432300
3.574500 13.268900
3.588800 14.105400
3.603100 14.942000
3.617300 15.778500
3.631600 16.615100
3.645900 17.451700
3.660200 18.288200
3.674500 19.286700
3.688800 20.536900
3.703000 33.178100
3.717300 23.242400
3.731600 22.077500
3.745900 29.765200
3.760200 27.152800
3.774400 22.003600
3.788700 21.821900
3.803000 28.438800
3.817300 26.844100
3.831600 25.249400
3.845900 23.316500
3.860100 22.333900
3.874400 19.940100
3.888700 18.639400
3.903000 16.724100
3.917300 16.005000
3.931600 15.285900
3.945800 14.566800
3.960100 13.847700
3.974400 13.128600
3.988700 12.409500
4.003000 15.035800
4.017300 11.507100
4.031500 9.643800
4.045800 3.560800
4.060100 5.118100
4.074400 6.675300
4.088700 0.000000
4.103000 0.000000
4.117200 0.000000
4.131500 0.000000
4.145800 0.000000
4.160100 0.000000
4.174400 0.000000
4.188600 0.000000
4.202900 0.000000
4.217200 0.000000
4.231500 0.000000
4.245800 0.000000
4.260100 0.000000
4.274300 0.000000
4.288600 0.000000
4.302900 0.000000
4.317200 0.000000
4.331500 0.000000
4.345800 0.000000
4.360000 0.000000
4.374300 0.000000
4.388600 0.000000
4.402900 0.000000
4.417200 0.000000
4.431500 0.000000
4.445700 0.000000
4.460000 0.000000
4.474300 0.000000
4.488600 0.000000
4.502900 0.000000
4.517200 0.000000
4.531400 0.000000
4.545700 0.000000
4.560000 0.000000
4.574300 0.000000
4.588600 0.000000
4.602800 0.000000
4.617100 0.000000
4.631400 0.000000
4.645700 0.000000
4.660000 0.000000
4.674300 0.000000
4.688500 0.000000
4.702800 0.000000
4.717100 0.000000
4.731400 0.000000
4.745700 0.000000
4.760000 0.000000
4.774200 0.000000
4.788500 0.000000
4.802800 0.000000
4.817100 0.000000
4.831400 0.000000
4.845700 0.000000
4.859900 0.000000
4.874200 0.000000
4.888500 0.000000
4.902800 0.000000
4.917100 0.000000
4.931400 0.000000
4.945600 0.000000
4.959900 0.000000
4.974200 0.000000
4.988500 0.000000
5.002800 0.000000
5.017000 0.000000
5.031300 0.000000
5.045600 0.000000
5.059900 0.000000
5.074200 0.000000
5.088500 0.000000
5.102700 0.000000
5.117000 0.000000
5.131300 0.000000
5.145600 0.000000
5.159900 0.000000
5.174200 0.000000
5.188400 0.000000
5.202700 0.000000
5.217000 0.000000
5.231300 0.000000
5.245600 0.000000
5.259900 0.011200
5.274100 0.044700
5.288400 0.104200
5.302700 0.166000
5.317000 0.227800
5.331300 0.289600
5.345500 0.351300
5.359800 0.413100
5.374100 0.474900
5.388400 0.536700
5.402700 0.598400
5.417000 0.660200
5.431200 0.722000
5.445500 0.783800
5.459800 0.845600
5.474100 0.907300
5.488400 0.969100
5.502700 1.030900
5.516900 1.092700
5.531200 1.154500
5.545500 1.216200
5.559800 1.278000
5.574100 1.339800
5.588400 1.401600
5.602600 1.463400
5.616900 1.525100
5.631200 1.586900
5.645500 1.648700
5.659800 1.710500
5.674100 1.772300
5.688300 1.834000
5.702600 1.895800
5.716900 1.957600
5.731200 2.019400
5.745500 2.081100
5.759700 2.796100
5.774000 3.581500
5.788300 5.264800
5.802600 7.117100
5.816900 7.873400
5.831200 7.843900
5.845400 7.946900
5.859700 8.732000
5.874000 9.158200
5.888300 9.584500
5.902600 10.616700
5.916900 11.260900
5.931100 11.540400
5.945400 11.695300
5.959700 11.850300
5.974000 12.551800
5.988300 12.770900
6.002600 13.533700
6.016800 13.769500
6.031100 13.834000
6.045400 13.898500
6.059700 13.963000
6.074000 14.027600
6.088300 14.092100
6.102500 14.156600
6.116800 14.221100
6.131100 14.285600
6.145400 14.350100
6.159700 14.414600
6.173900 14.375000
6.188200 18.848600
6.202500 17.485300
6.216800 16.121900
6.231100 18.375400
6.245400 17.441300
6.259600 16.372600
6.273900 15.303900
6.288200 14.235200
6.302500 14.172800
6.316800 14.637600
6.331100 15.244600
6.345300 16.338700
6.359600 15.034200
6.373900 14.506000
6.388200 13.977700
6.402500 11.970000
6.416800 14.244600
6.431000 20.560200
6.445300 11.141700
6.459600 12.536500
6.473900 12.144700
6.488200 11.784000
6.502400 11.454100
6.516700 9.877600
6.531000 10.715000
6.545300 12.790900
6.559600 12.608400
6.573900 12.425900
6.588100 12.243400
6.602400 11.656300
6.616700 11.294300
6.631000 10.331600
6.645300 9.801400
6.659600 9.382600
6.673800 9.082000
6.688100 8.953400
6.702400 8.880400
6.716700 12.357500
6.731000 11.918200
6.745300 15.629700
6.759500 14.371000
6.773800 13.112400
6.788100 11.853700
6.802400 11.011600
6.816700 10.950000
6.831000 10.888400
6.845200 19.119600
6.859500 18.332200
6.873800 17.544800
6.888100 20.357700
6.902400 19.185500
6.916600 22.352200
6.930900 28.628800
6.945200 31.578000
6.959500 28.499700
6.973800 26.752500
6.988100 20.981500
7.002300 17.382200
7.016600 14.182500
7.030900 11.432600
7.045200 11.445600
7.059500 14.606300
7.073800 15.976000
7.088000 17.389000
7.102300 20.433700
7.116600 18.628000
7.130900 17.410800
7.145200 18.017800
7.159500 22.248700
7.173700 30.907500
7.188000 23.676800
7.202300 25.521600
7.216600 23.069100
7.230900 36.649100
7.245200 24.133200
7.259400 22.847800
7.273700 25.233800
7.288000 28.719100
7.302300 28.677900
7.316600 28.626700
7.330800 34.493900
7.345100 30.323200
7.359400 27.598400
7.373700 29.398300
7.388000 27.589300
7.402300 30.392000
7.416500 26.589500
7.430800 27.200800
7.445100 27.812100
7.459400 20.913000
7.473700 23.045800
7.488000 28.045800
7.502200 25.931300
7.516500 27.661600
7.530800 29.802900
7.545100 31.995700
7.559400 26.963200
7.573700 22.261700
7.587900 25.454600
7.602200 24.824200
7.616500 24.678700
7.630800 24.533100
7.645100 24.286100
7.659400 29.463300
7.673600 25.077300
7.687900 23.779000
7.702200 23.049700
7.716500 26.819800
7.730800 31.741900
7.745000 20.891800
7.759300 21.211300
7.773600 20.119900
7.787900 22.702900
7.802200 25.904700
7.816500 28.327900
7.830700 28.054000
7.845000 27.780000
7.859300 29.343600
7.873600 28.586600
7.887900 27.825300
7.902200 27.303800
7.916400 28.499500
7.930700 27.644400
7.945000 26.734500
7.959300 25.824600
7.973600 24.905600
7.987900 28.629600
8.002100 27.616000
8.016400 24.465300
8.030700 21.337000
8.045000 20.438000
8.059300 20.692200
8.073500 17.273800
8.087800 15.166500
8.102100 13.193700
8.116400 10.845000
8.130700 9.043800
8.145000 7.661800
8.159200 7.048500
8.173500 6.493800
8.187800 6.311100
8.202100 5.782300
8.216400 5.322300
8.230700 5.344000
8.244900 5.365600
8.259200 5.387300
8.273500 5.533500
8.287800 5.789400
8.302100 6.118600
8.316400 6.447700
8.330600 6.776900
8.344900 7.106000
8.359200 7.072000
8.373500 7.434900
8.387800 7.797800
8.402100 8.160800
8.416300 8.523700
8.430600 7.026500
8.444900 7.334900
8.459200 7.643200
8.473500 6.326800
8.487700 6.600800
8.502000 6.874800
8.516300 7.148800
8.530600 8.123900
8.544900 11.315000
8.559200 6.769200
8.573400 6.854300
8.587700 6.939400
8.602000 6.679000
8.616300 6.929800
8.630600 7.785200
8.644900 7.531100
8.659100 8.374400
8.673400 6.683000
8.687700 6.494500
8.702000 11.771000
8.716300 12.205000
8.730600 11.794000
8.744800 11.382900
8.759100 10.971900
8.773400 11.445600
8.787700 12.875000
8.802000 13.608200
8.816300 14.341400
8.830500 15.795900
8.844800 22.004100
8.859100 17.883600
8.873400 16.252000
8.887700 17.538100
8.901900 14.461100
8.916200 15.423700
8.930500 16.386200
8.944800 19.250000
8.959100 25.839600
8.973400 32.315000
8.987600 24.253600
9.001900 24.677700
9.016200 19.674800
9.030500 20.090700
9.044800 20.793300
9.059100 21.873400
9.073300 24.053500
9.087600 22.356300
9.101900 21.841400
9.116200 21.536300
9.130500 21.758100
9.144800 21.862900
9.159000 21.227100
9.173300 21.650700
9.187600 21.779800
9.201900 21.908900
9.216200 19.521200
9.230500 19.516800
9.244700 22.973000
9.259000 24.154200
9.273300 24.935400
9.287600 25.716700
9.301900 22.324200
9.316100 19.789800
9.330400 19.878700
9.344700 20.507000
9.359000 20.798000
9.373300 21.098200
9.387600 22.504700
9.401800 23.403600
9.416100 25.670900
9.430400 22.084100
9.444700 21.419700
9.459000 23.916600
9.473300 24.488700
9.487500 25.546300
9.501800 22.089800
9.516100 19.903400
9.530400 21.258200
9.544700 19.065200
9.559000 16.918900
9.573200 13.475400
9.587500 13.569900
9.601800 13.699000
9.616100 13.906700
9.630400 12.997100
9.644600 13.489000
9.658900 15.016200
9.673200 17.971100
9.687500 19.128200
9.701800 18.802500
9.716100 29.390800
9.730300 17.585800
9.744600 19.146600
9.758900 20.717700
9.773200 22.911800
9.787500 17.913300
9.801800 15.444600
9.816000 17.464900
9.830300 19.389200
9.844600 21.313500
9.858900 19.689500
9.873200 21.416500
9.887500 15.988400
9.901700 16.699300
9.916000 14.420700
9.930300 14.863600
9.944600 15.306400
9.958900 11.961100
9.973200 11.865100
9.987400 12.888900
10.001700 12.591900
10.016000 12.294800
10.030300 13.716700
10.044600 19.467800
10.058800 12.922000
10.073100 12.626500
10.087400 12.414100
10.101700 12.210300
10.116000 12.167000
10.130300 12.123700
10.144500 12.080500
10.158800 12.037200
10.173100 11.998100
10.187400 12.066500
10.201700 13.064100
10.216000 11.388200
10.230200 12.318700
10.244500 12.953700
10.258800 13.588700
10.273100 14.223700
10.287400 14.858700
10.301700 15.493700
10.315900 10.701000
10.330200 11.427600
10.344500 11.790800
10.358800 12.168800
10.373100 12.546800
10.387400 12.933700
10.401600 13.329700
10.415900 13.725600
10.430200 10.769800
10.444500 10.459800
10.458800 10.213300
10.473000 10.157300
10.487300 10.104500
10.501600 10.051700
10.515900 9.978800
10.530200 9.712700
10.544500 9.648100
10.558700 12.336800
10.573000 12.512200
10.587300 12.687700
10.601600 12.856400
10.615900 12.947800
10.630200 13.163600
10.644400 14.209900
10.658700 13.856000
10.673000 13.502200
10.687300 13.709900
10.701600 13.492200
10.715900 13.274500
10.730100 14.244700
10.744400 13.991500
10.758700 13.738300
10.773000 13.485100
10.787300 13.234900
10.801500 16.348400
10.815800 16.368400
10.830100 16.383900
10.844400 16.309000
10.858700 15.731900
10.873000 17.280700
10.887200 17.241300
10.901500 21.909500
10.915800 21.324700
10.930100 19.197800
10.944400 17.801700
10.958700 17.455300
10.972900 19.519400
10.987200 19.899500
11.001500 20.279600
11.015800 20.659700
11.030100 21.065900
11.044400 21.497100
11.058600 16.343400
11.072900 16.026300
11.087200 15.710600
11.101500 15.477900
11.115800 15.245300
11.130100 15.012700
11.144300 14.773200
11.158600 14.404300
11.172900 13.705300
11.187200 13.342300
11.201500 12.979400
11.215700 13.473000
11.230000 13.788000
11.244300 14.146600
11.258600 14.559700
11.272900 14.975100
11.287200 23.895000
11.301400 18.148700
11.315700 27.786600
11.330000 16.246100
11.344300 17.660800
11.358600 22.641000
11.372900 22.099800
11.387100 17.323700
11.401400 17.387600
11.415700 17.575700
11.430000 18.220800
11.444300 18.493000
11.458600 18.793800
11.472800 17.714000
11.487100 17.835300
11.501400 17.956500
11.515700 16.804000
11.530000 16.979100
11.544300 17.279300
11.558500 17.589900
11.572800 17.055900
11.587100 16.413500
11.601400 16.746700
11.615700 17.473500
11.629900 17.932700
11.644200 18.391900
11.658500 18.869900
11.672800 18.230000
11.687100 18.820000
11.701400 17.679900
11.715600 18.014200
11.729900 18.454300
11.744200 17.705400
11.758500 18.265000
11.772800 18.946800
11.787100 17.663900
11.801300 16.903200
11.815600 16.480000
11.829900 18.226100
11.844200 19.972200
11.858500 17.479600
11.872800 16.866800
11.887000 17.537200
11.901300 20.235100
11.915600 20.650800
11.929900 20.591400
11.944200 20.532100
11.958500 18.488000
11.972700 18.758600
11.987000 18.579800
12.001300 18.658200
12.015600 18.844500
12.029900 19.030900
12.044100 22.955400
12.058400 23.338100
12.072700 21.897900
12.087000 20.457700
12.101300 17.614500
12.115600 16.690700
12.129800 16.397000
12.144100 16.185200
12.158400 16.068700
12.172700 17.863900
12.187000 17.747800
12.201300 18.749700
12.215500 18.838000
12.229800 19.468000
12.244100 19.387200
12.258400 19.404200
12.272700 17.701100
12.287000 16.938700
12.301200 16.485800
12.315500 16.342800
12.329800 16.199800
12.344100 17.905100
12.358400 18.359300
12.372600 18.796500
12.386900 17.775000
12.401200 17.173100
12.415500 16.797800
12.429800 16.422400
12.444100 16.047100
12.458300 15.671700
12.472600 16.309400
12.486900 15.922000
12.501200 24.586300
12.515500 28.345500
12.529800 30.684700
12.544000 19.709500
12.558300 20.112400
12.572600 20.515200
12.586900 20.918100
12.601200 21.321000
12.615500 21.853500
12.629700 19.866100
12.644000 17.034400
12.658300 18.934000
12.672600 19.203100
12.686900 19.312000
12.701200 21.023400
12.715400 20.685000
12.729700 20.159000
12.744000 19.536700
12.758300 18.924800
12.772600 18.450400
12.786800 22.462200
12.801100 20.803200
12.815400 19.096300
12.829700 20.173400
12.844000 27.737200
12.858300 28.651900
12.872500 21.158400
12.886800 20.253900
12.901100 20.379700
12.915400 20.330800
12.929700 20.281800
12.944000 19.608600
12.958200 19.709700
12.972500 26.163500
12.986800 22.154600
13.001100 21.052900
13.015400 21.492600
13.029700 21.087400
13.043900 21.786400
13.058200 30.089000
13.072500 24.106000
13.086800 21.964600
13.101100 20.916500
13.115400 21.277100
13.129600 21.639900
13.143900 19.690100
13.158200 27.659300
13.172500 24.656200
13.186800 22.861600
13.201000 23.297400
13.215300 21.131300
13.229600 21.755100
13.243900 23.266800
13.258200 18.286800
13.272500 17.853200
13.286700 27.675800
13.301000 23.925800
13.315300 22.645900
13.329600 21.282000
13.343900 20.007500
13.358200 16.105300
13.372400 15.027500
13.386700 11.609700
13.401000 11.781400
13.415300 21.895800
13.429600 25.887800
13.443900 21.318000
13.458100 8.770300
13.472400 8.880100
13.486700 8.992600
13.501000 10.755000
13.515300 11.502100
13.529600 13.293100
13.543800 13.289100
13.558100 13.301500
13.572400 13.313900
13.586700 13.324700
13.601000 13.335200
13.615200 13.345800
13.629500 13.367200
13.643800 13.402200
13.658100 20.648500
13.672400 18.935400
13.686700 17.241800
13.700900 16.762600
13.715200 17.669000
13.729500 18.572300
13.743800 18.589200
13.758100 18.628000
13.772400 34.901700
13.786600 15.696300
13.800900 15.793300
13.815200 15.839600
13.829500 17.021600
13.843800 17.499000
13.858100 18.081400
13.872300 17.826500
13.886600 17.571600
13.900900 17.316700
13.915200 17.061800
13.929500 17.461300
13.943700 17.319100
13.958000 20.078700
13.972300 23.717900
13.986600 13.275200
14.000900 12.498000
14.015200 12.054200
14.029400 11.875700
14.043700 11.903800
14.058000 11.932000
14.072300 11.960100
14.086600 11.988300
14.100900 11.573300
14.115100 11.112100
14.129400 11.141000
14.143700 11.169900
14.158000 11.198800
14.172300 11.966800
14.186600 12.199300
14.200800 12.366100
14.215100 11.327000
14.229400 9.646000
14.243700 9.772900
14.258000 9.899800
14.272300 10.026700
14.286500 10.153600
14.300800 10.280500
14.315100 9.643400
14.329400 9.794400
14.343700 8.602900
14.357900 6.482600
14.372200 6.014500
14.386500 5.869400
14.400800 5.724400
14.415100 5.579300
14.429400 5.434300
14.443600 4.746900
14.457900 4.631500
14.472200 4.516000
14.486500 4.400500
14.500800 4.285100
14.515100 4.169600
14.529300 4.054100
14.543600 3.938700
14.557900 3.823200
14.572200 3.707700
14.586500 3.592300
14.600800 3.060900
14.615000 2.964100
14.629300 2.886100
14.643600 2.817500
14.657900 2.749000
14.672200 2.249600
14.686500 2.202500
14.700700 2.155300
14.715000 2.108200
14.729300 2.061000
14.743600 2.013900
14.757900 1.966700
14.772100 1.919600
14.786400 1.438200
14.800700 1.410800
14.815000 1.383500
14.829300 1.356200
14.843600 1.328800
14.857800 1.301500
14.872100 0.793000
14.886400 0.781300
14.900700 0.769600
14.915000 0.758000
14.929300 0.746300
14.943500 0.734600
14.957800 0.723000
14.972100 0.000000
14.986400 0.000000
15.000700 0.000000
15.015000 0.000000
15.029200 0.000000
15.043500 0.000000
15.057800 0.000000
15.072100 0.000000
15.086400 0.000000
15.100700 0.000000
15.114900 0.000000
15.129200 0.000000
15.143500 0.000000
15.157800 0.000000
15.172100 0.000000
15.186300 0.000000
15.200600 0.000000
15.214900 0.000000
15.229200 0.000000
15.243500 0.000000
15.257800 0.000000
15.272000 0.000000
15.286300 0.000000
15.300600 0.000000
15.314900 0.000000
15.329200 0.000000
15.343500 0.000000
15.357700 0.000000
15.372000 0.000000
15.386300 0.000000
15.400600 0.000000
15.414900 0.000000
15.429200 0.000000
15.443400 0.000000
15.457700 0.000000
15.472000 0.000000
15.486300 0.000000
15.500600 0.000000
15.514800 0.000000
15.529100 0.000000
15.543400 0.000000
15.557700 0.000000
15.572000 0.000000
15.586300 0.000000
15.600500 0.000000
15.614800 0.000000
15.629100 0.000000
15.643400 0.000000
15.657700 0.000000
15.672000 0.000000
15.686200 0.000000
15.700500 0.000000
15.714800 0.000000
15.729100 0.000000
15.743400 0.000000
15.757700 0.000000
15.771900 0.000000
15.786200 0.000000
15.800500 0.000000
15.814800 0.000000
15.829100 0.000000
15.843400 0.000000
15.857600 0.000000
15.871900 0.000000
15.886200 0.000000
15.900500 0.000000
15.914800 0.000000
15.929000 0.000000
15.943300 0.000000
15.957600 0.000000
15.971900 0.000000
15.986200 0.000000
16.000500 0.000000
16.014700 0.000000
16.029000 0.000000
16.043300 0.000000
16.057600 0.000000
16.071900 0.000000
16.086200 0.000000
16.100400 0.000000
16.114700 0.000000
16.129000 0.000000
16.143300 0.000000
16.157600 0.000000
16.171900 0.000000
16.186100 0.000000
16.200400 0.000000
16.214700 0.000000
16.229000 0.000000
16.243300 0.000000
16.257600 0.000000
e
