set title 'mp-1008776 - Density of States'
set xlabel 'Energy (eV)'
set ylabel 'DOS (states/eV)'
set grid
set xrange [-10:10]
set yrange [0:6.056]
set xzeroaxis lt -1
set terminal png size 800,600
set output 'mp-1008776_dos_gnuplot.png'
plot '-' using 1:2 with lines title 'DOS'
-35.931900 0.000000
-35.888700 0.000000
-35.845400 0.000000
-35.802200 0.000000
-35.758900 0.000000
-35.715700 0.000000
-35.672400 0.000000
-35.629200 0.000000
-35.585900 0.000000
-35.542700 0.000000
-35.499500 0.000000
-35.456200 0.000000
-35.413000 0.000000
-35.369700 0.000000
-35.326500 0.000000
-35.283200 0.000000
-35.240000 0.000000
-35.196700 0.000000
-35.153500 0.000000
-35.110200 0.000000
-35.067000 0.000000
-35.023700 0.000000
-34.980500 0.000000
-34.937200 0.000000
-34.894000 0.000000
-34.850700 0.000000
-34.807500 0.000000
-34.764200 0.000000
-34.721000 0.000000
-34.677800 0.000000
-34.634500 0.000000
-34.591300 0.000000
-34.548000 0.000000
-34.504800 0.000000
-34.461500 0.000000
-34.418300 0.000000
-34.375000 0.000000
-34.331800 0.000000
-34.288500 0.000000
-34.245300 0.000000
-34.202000 0.000000
-34.158800 0.000000
-34.115500 0.000000
-34.072300 0.000000
-34.029000 0.000000
-33.985800 0.000000
-33.942500 0.000000
-33.899300 0.000000
-33.856100 0.000000
-33.812800 0.000000
-33.769600 0.000000
-33.726300 0.000000
-33.683100 0.000000
-33.639800 0.000000
-33.596600 0.000000
-33.553300 0.000000
-33.510100 0.000000
-33.466800 0.000000
-33.423600 0.000000
-33.380300 0.000000
-33.337100 0.000000
-33.293800 0.000000
-33.250600 0.000000
-33.207300 0.000000
-33.164100 0.000000
-33.120800 0.000000
-33.077600 0.000000
-33.034400 0.000000
-32.991100 0.000000
-32.947900 0.000000
-32.904600 0.000000
-32.861400 0.000000
-32.818100 0.000000
-32.774900 0.000000
-32.731600 0.000000
-32.688400 0.000000
-32.645100 0.000000
-32.601900 0.000000
-32.558600 0.000000
-32.515400 0.000000
-32.472100 0.000000
-32.428900 0.000000
-32.385600 0.000000
-32.342400 0.000000
-32.299100 0.000000
-32.255900 0.000000
-32.212700 0.000000
-32.169400 0.000000
-32.126200 0.000000
-32.082900 0.000000
-32.039700 0.000000
-31.996400 1.833400
-31.953200 41.453100
-31.909900 0.000000
-31.866700 0.000000
-31.823400 0.000000
-31.780200 0.000000
-31.736900 0.000000
-31.693700 0.000000
-31.650400 0.000000
-31.607200 0.000000
-31.563900 0.000000
-31.520700 0.000000
-31.477400 0.000000
-31.434200 0.000000
-31.390900 0.000000
-31.347700 0.000000
-31.304500 0.000000
-31.261200 0.000000
-31.218000 0.000000
-31.174700 0.000000
-31.131500 0.000000
-31.088200 0.000000
-31.045000 0.000000
-31.001700 0.000000
-30.958500 0.000000
-30.915200 0.000000
-30.872000 0.000000
-30.828700 0.000000
-30.785500 0.000000
-30.742200 0.000000
-30.699000 0.000000
-30.655700 0.000000
-30.612500 0.000000
-30.569200 0.000000
-30.526000 0.000000
-30.482800 0.000000
-30.439500 0.000000
-30.396300 0.000000
-30.353000 0.000000
-30.309800 0.000000
-30.266500 0.000000
-30.223300 0.000000
-30.180000 0.000000
-30.136800 0.000000
-30.093500 0.000000
-30.050300 0.000000
-30.007000 0.000000
-29.963800 0.000000
-29.920500 0.000000
-29.877300 0.000000
-29.834000 0.000000
-29.790800 0.000000
-29.747500 0.000000
-29.704300 0.000000
-29.661100 0.000000
-29.617800 0.000000
-29.574600 0.000000
-29.531300 0.000000
-29.488100 0.000000
-29.444800 0.000000
-29.401600 0.000000
-29.358300 0.000000
-29.315100 0.000000
-29.271800 0.000000
-29.228600 0.000000
-29.185300 0.000000
-29.142100 0.000000
-29.098800 0.000000
-29.055600 0.000000
-29.012300 0.000000
-28.969100 0.000000
-28.925800 0.000000
-28.882600 0.000000
-28.839400 0.000000
-28.796100 0.000000
-28.752900 0.000000
-28.709600 0.000000
-28.666400 0.000000
-28.623100 0.000000
-28.579900 0.000000
-28.536600 0.000000
-28.493400 0.000000
-28.450100 0.000000
-28.406900 0.000000
-28.363600 0.000000
-28.320400 0.000000
-28.277100 0.000000
-28.233900 0.000000
-28.190600 0.000000
-28.147400 0.000000
-28.104100 0.000000
-28.060900 0.000000
-28.017700 0.000000
-27.974400 0.000000
-27.931200 0.000000
-27.887900 0.000000
-27.844700 0.000000
-27.801400 0.000000
-27.758200 0.000000
-27.714900 0.000000
-27.671700 0.000000
-27.628400 0.000000
-27.585200 0.000000
-27.541900 0.000000
-27.498700 0.000000
-27.455400 0.000000
-27.412200 0.000000
-27.368900 0.000000
-27.325700 0.000000
-27.282400 0.000000
-27.239200 0.000000
-27.196000 0.000000
-27.152700 0.000000
-27.109500 0.000000
-27.066200 0.000000
-27.023000 0.000000
-26.979700 0.000000
-26.936500 0.000000
-26.893200 0.000000
-26.850000 0.000000
-26.806700 0.000000
-26.763500 0.000000
-26.720200 0.000000
-26.677000 0.000000
-26.633700 0.000000
-26.590500 0.000000
-26.547200 0.000000
-26.504000 0.000000
-26.460700 0.000000
-26.417500 0.000000
-26.374300 0.000000
-26.331000 0.000000
-26.287800 0.000000
-26.244500 0.000000
-26.201300 0.000000
-26.158000 0.000000
-26.114800 0.000000
-26.071500 0.000000
-26.028300 0.000000
-25.985000 0.000000
-25.941800 0.000000
-25.898500 0.000000
-25.855300 0.000000
-25.812000 0.000000
-25.768800 0.000000
-25.725500 0.000000
-25.682300 0.000000
-25.639000 0.000000
-25.595800 0.000000
-25.552500 0.000000
-25.509300 0.000000
-25.466100 0.000000
-25.422800 0.000000
-25.379600 0.000000
-25.336300 0.000000
-25.293100 0.000000
-25.249800 0.000000
-25.206600 0.000000
-25.163300 0.000000
-25.120100 0.000000
-25.076800 0.000000
-25.033600 0.000000
-24.990300 0.000000
-24.947100 0.000000
-24.903800 0.000000
-24.860600 0.000000
-24.817300 0.000000
-24.774100 0.000000
-24.730800 0.000000
-24.687600 0.000000
-24.644400 0.000000
-24.601100 0.000000
-24.557900 0.000000
-24.514600 0.000000
-24.471400 0.000000
-24.428100 0.000000
-24.384900 0.000000
-24.341600 0.000000
-24.298400 0.000000
-24.255100 0.000000
-24.211900 0.000000
-24.168600 0.000000
-24.125400 0.000000
-24.082100 0.000000
-24.038900 0.000000
-23.995600 0.000000
-23.952400 0.000000
-23.909100 0.000000
-23.865900 0.000000
-23.822700 0.000000
-23.779400 0.000000
-23.736200 0.000000
-23.692900 0.000000
-23.649700 0.000000
-23.606400 0.000000
-23.563200 0.000000
-23.519900 0.000000
-23.476700 0.000000
-23.433400 0.000000
-23.390200 0.000000
-23.346900 0.000000
-23.303700 0.000000
-23.260400 0.000000
-23.217200 0.000000
-23.173900 0.000000
-23.130700 0.000000
-23.087400 0.000000
-23.044200 0.000000
-23.001000 0.000000
-22.957700 0.000000
-22.914500 0.000000
-22.871200 0.000000
-22.828000 0.000000
-22.784700 0.000000
-22.741500 0.000000
-22.698200 0.000000
-22.655000 0.000000
-22.611700 0.000000
-22.568500 0.000000
-22.525200 0.000000
-22.482000 0.000000
-22.438700 0.000000
-22.395500 0.000000
-22.352200 0.000000
-22.309000 0.000000
-22.265700 0.000000
-22.222500 0.000000
-22.179300 0.000000
-22.136000 0.000000
-22.092800 0.000000
-22.049500 0.000000
-22.006300 0.000000
-21.963000 0.000000
-21.919800 0.000000
-21.876500 0.000000
-21.833300 0.000000
-21.790000 0.000000
-21.746800 0.000000
-21.703500 0.000000
-21.660300 0.000000
-21.617000 0.000000
-21.573800 0.000000
-21.530500 0.000000
-21.487300 0.000000
-21.444000 0.000000
-21.400800 0.000000
-21.357600 0.000000
-21.314300 0.000000
-21.271100 0.000000
-21.227800 0.000000
-21.184600 0.000000
-21.141300 0.000000
-21.098100 0.000000
-21.054800 0.000000
-21.011600 0.000000
-20.968300 0.000000
-20.925100 0.000000
-20.881800 0.000000
-20.838600 0.000000
-20.795300 0.000000
-20.752100 0.000000
-20.708800 0.000000
-20.665600 0.000000
-20.622300 0.000000
-20.579100 0.000000
-20.535900 0.000000
-20.492600 0.000000
-20.449400 0.000000
-20.406100 0.000000
-20.362900 0.000000
-20.319600 0.000000
-20.276400 0.000000
-20.233100 0.000000
-20.189900 0.000000
-20.146600 0.000000
-20.103400 0.000000
-20.060100 0.000000
-20.016900 0.000000
-19.973600 0.000000
-19.930400 0.000000
-19.887100 0.000000
-19.843900 0.000000
-19.800600 0.000000
-19.757400 0.000000
-19.714100 0.000000
-19.670900 0.000000
-19.627700 0.000000
-19.584400 0.000000
-19.541200 0.000000
-19.497900 0.000000
-19.454700 0.000000
-19.411400 0.000000
-19.368200 0.000000
-19.324900 0.000000
-19.281700 0.000000
-19.238400 0.000000
-19.195200 0.000000
-19.151900 0.000000
-19.108700 0.000000
-19.065400 0.000000
-19.022200 0.000000
-18.978900 0.000000
-18.935700 0.000000
-18.892400 0.000000
-18.849200 0.000000
-18.806000 0.000000
-18.762700 0.000000
-18.719500 0.000000
-18.676200 0.000000
-18.633000 0.000000
-18.589700 0.000000
-18.546500 0.000000
-18.503200 0.000000
-18.460000 0.000000
-18.416700 0.000000
-18.373500 0.000000
-18.330200 0.000000
-18.287000 0.000000
-18.243700 0.000000
-18.200500 0.000000
-18.157200 0.000000
-18.114000 0.000000
-18.070700 0.000000
-18.027500 0.000000
-17.984300 0.000000
-17.941000 0.000000
-17.897800 0.000000
-17.854500 0.000000
-17.811300 0.000000
-17.768000 0.000000
-17.724800 0.000000
-17.681500 0.000000
-17.638300 0.000000
-17.595000 0.000000
-17.551800 0.000000
-17.508500 0.000000
-17.465300 0.000000
-17.422000 0.000000
-17.378800 0.000000
-17.335500 0.000000
-17.292300 0.000000
-17.249000 0.000000
-17.205800 0.000000
-17.162600 0.000000
-17.119300 0.000000
-17.076100 0.000000
-17.032800 0.000000
-16.989600 0.000000
-16.946300 0.000000
-16.903100 0.000000
-16.859800 0.000000
-16.816600 0.000000
-16.773300 0.000000
-16.730100 0.000000
-16.686800 0.000000
-16.643600 0.000000
-16.600300 0.000000
-16.557100 0.000000
-16.513800 0.000000
-16.470600 0.000000
-16.427300 0.000000
-16.384100 0.000000
-16.340900 0.000000
-16.297600 0.000000
-16.254400 0.000000
-16.211100 0.000000
-16.167900 0.000000
-16.124600 0.000000
-16.081400 0.000000
-16.038100 0.000000
-15.994900 0.000000
-15.951600 0.000000
-15.908400 0.000000
-15.865100 0.000000
-15.821900 0.000000
-15.778600 0.000000
-15.735400 0.000000
-15.692100 0.000000
-15.648900 0.000000
-15.605600 0.000000
-15.562400 0.000000
-15.519200 0.000000
-15.475900 0.000000
-15.432700 0.000000
-15.389400 0.000000
-15.346200 0.000000
-15.302900 0.000000
-15.259700 0.000000
-15.216400 0.000000
-15.173200 0.000000
-15.129900 0.000000
-15.086700 0.000000
-15.043400 0.000000
-15.000200 0.000000
-14.956900 0.000000
-14.913700 0.000000
-14.870400 0.000000
-14.827200 0.000000
-14.783900 0.000000
-14.740700 0.000000
-14.697400 0.000000
-14.654200 0.000000
-14.611000 0.000000
-14.567700 0.000000
-14.524500 0.000000
-14.481200 0.000000
-14.438000 1.335400
-14.394700 3.229100
-14.351500 5.357400
-14.308200 10.512700
-14.265000 14.885700
-14.221700 13.183800
-14.178500 8.080600
-14.135200 16.217900
-14.092000 7.826500
-14.048700 8.566700
-14.005500 11.408900
-13.962200 10.636000
-13.919000 13.434000
-13.875700 20.176500
-13.832500 0.015900
-13.789300 0.000000
-13.746000 0.000000
-13.702800 0.000000
-13.659500 0.000000
-13.616300 0.000000
-13.573000 0.000000
-13.529800 0.000000
-13.486500 0.000000
-13.443300 0.000000
-13.400000 0.000000
-13.356800 0.000000
-13.313500 0.000000
-13.270300 0.000000
-13.227000 0.000000
-13.183800 0.000000
-13.140500 0.000000
-13.097300 0.000000
-13.054000 0.000000
-13.010800 0.000000
-12.967600 0.000000
-12.924300 0.000000
-12.881100 0.000000
-12.837800 0.000000
-12.794600 0.000000
-12.751300 0.000000
-12.708100 0.000000
-12.664800 0.000000
-12.621600 0.000000
-12.578300 0.000000
-12.535100 0.000000
-12.491800 0.000000
-12.448600 0.000000
-12.405300 0.000000
-12.362100 0.000000
-12.318800 0.000000
-12.275600 0.000000
-12.232300 0.000000
-12.189100 0.000000
-12.145900 0.000000
-12.102600 0.000000
-12.059400 0.000000
-12.016100 0.000000
-11.972900 0.000000
-11.929600 0.000000
-11.886400 0.000000
-11.843100 0.000000
-11.799900 0.000000
-11.756600 0.000000
-11.713400 0.000000
-11.670100 0.000000
-11.626900 0.000000
-11.583600 0.000000
-11.540400 0.000000
-11.497100 0.000000
-11.453900 0.000000
-11.410600 0.000000
-11.367400 0.000000
-11.324200 0.000000
-11.280900 0.000000
-11.237700 0.000000
-11.194400 0.000000
-11.151200 0.000000
-11.107900 0.000000
-11.064700 0.000000
-11.021400 0.000000
-10.978200 0.000000
-10.934900 0.000000
-10.891700 0.000000
-10.848400 0.000000
-10.805200 0.022100
-10.761900 0.141000
-10.718700 0.362900
-10.675400 0.576700
-10.632200 0.733800
-10.588900 0.938900
-10.545700 1.273900
-10.502500 1.692800
-10.459200 2.554600
-10.416000 5.059400
-10.372700 12.055900
-10.329500 14.004000
-10.286200 3.396500
-10.243000 1.395800
-10.199700 0.554100
-10.156500 0.000000
-10.113200 0.000000
-10.070000 0.000000
-10.026700 0.000000
-9.983500 0.000000
-9.940200 0.000000
-9.897000 0.000000
-9.853700 0.000000
-9.810500 0.000000
-9.767200 0.000000
-9.724000 0.000000
-9.680800 0.000000
-9.637500 0.000000
-9.594300 0.000000
-9.551000 0.000000
-9.507800 0.000000
-9.464500 0.000000
-9.421300 0.000000
-9.378000 0.000000
-9.334800 0.000000
-9.291500 0.000000
-9.248300 0.000000
-9.205000 0.000000
-9.161800 0.000000
-9.118500 0.000000
-9.075300 0.000000
-9.032000 0.000000
-8.988800 0.000000
-8.945500 0.000000
-8.902300 0.000000
-8.859000 0.000000
-8.815800 0.000000
-8.772600 0.000000
-8.729300 0.000000
-8.686100 0.000000
-8.642800 0.000000
-8.599600 0.000000
-8.556300 0.000000
-8.513100 0.000000
-8.469800 0.000000
-8.426600 0.000000
-8.383300 0.000000
-8.340100 0.000000
-8.296800 0.000000
-8.253600 0.000000
-8.210300 0.000000
-8.167100 0.000000
-8.123800 0.000000
-8.080600 0.000000
-8.037300 0.000000
-7.994100 0.000000
-7.950900 0.000000
-7.907600 0.000000
-7.864400 0.000000
-7.821100 0.000000
-7.777900 0.000000
-7.734600 0.000000
-7.691400 0.000000
-7.648100 0.000000
-7.604900 0.000000
-7.561600 0.000000
-7.518400 0.000000
-7.475100 0.000000
-7.431900 0.000000
-7.388600 0.000000
-7.345400 0.000000
-7.302100 0.000000
-7.258900 0.000000
-7.215600 0.000000
-7.172400 0.000000
-7.129200 0.000000
-7.085900 0.000000
-7.042700 0.000000
-6.999400 0.000000
-6.956200 0.000000
-6.912900 0.000000
-6.869700 0.000000
-6.826400 0.000000
-6.783200 0.000000
-6.739900 0.000000
-6.696700 0.000000
-6.653400 0.000000
-6.610200 0.000000
-6.566900 0.000000
-6.523700 0.000000
-6.480400 0.000000
-6.437200 0.000000
-6.393900 0.000000
-6.350700 0.000000
-6.307500 0.000000
-6.264200 0.000000
-6.221000 0.000000
-6.177700 0.000000
-6.134500 0.000000
-6.091200 0.000000
-6.048000 0.000000
-6.004700 0.000000
-5.961500 0.000000
-5.918200 0.000000
-5.875000 0.000000
-5.831700 0.000000
-5.788500 0.000000
-5.745200 0.000000
-5.702000 0.000000
-5.658700 0.000000
-5.615500 0.000000
-5.572200 0.000000
-5.529000 0.000000
-5.485800 0.000000
-5.442500 0.000000
-5.399300 0.000000
-5.356000 0.000000
-5.312800 0.000000
-5.269500 0.000000
-5.226300 0.000000
-5.183000 0.000000
-5.139800 0.000000
-5.096500 0.000000
-5.053300 0.000000
-5.010000 0.000000
-4.966800 0.000000
-4.923500 0.000000
-4.880300 0.000000
-4.837000 0.000000
-4.793800 0.000000
-4.750500 0.000000
-4.707300 0.000000
-4.664100 0.000000
-4.620800 0.000000
-4.577600 0.000000
-4.534300 0.000000
-4.491100 0.000000
-4.447800 0.000000
-4.404600 0.000000
-4.361300 0.000000
-4.318100 0.000000
-4.274800 0.000000
-4.231600 0.000000
-4.188300 0.000000
-4.145100 0.000000
-4.101800 0.000000
-4.058600 0.000000
-4.015300 0.000000
-3.972100 0.000000
-3.928800 0.000000
-3.885600 0.000000
-3.842400 0.000000
-3.799100 0.000000
-3.755900 0.000000
-3.712600 0.000000
-3.669400 0.000000
-3.626100 0.000000
-3.582900 0.000000
-3.539600 0.000000
-3.496400 0.000000
-3.453100 0.000000
-3.409900 0.000000
-3.366600 0.000000
-3.323400 0.000000
-3.280100 0.000000
-3.236900 0.000000
-3.193600 0.000000
-3.150400 0.000000
-3.107100 0.000000
-3.063900 0.000000
-3.020600 0.000000
-2.977400 0.000000
-2.934200 0.000000
-2.890900 0.000000
-2.847700 0.071900
-2.804400 0.140800
-2.761200 0.182400
-2.717900 0.229200
-2.674700 0.281200
-2.631400 0.338400
-2.588200 0.400700
-2.544900 0.507800
-2.501700 0.601000
-2.458400 0.833900
-2.415200 1.134400
-2.371900 1.485500
-2.328700 1.905800
-2.285400 2.587300
-2.242200 2.945900
-2.198900 3.625700
-2.155700 5.505700
-2.112500 4.853400
-2.069200 3.802600
-2.026000 2.492100
-1.982700 1.735300
-1.939500 1.317800
-1.896200 1.168800
-1.853000 1.062100
-1.809700 1.088600
-1.766500 1.231600
-1.723200 0.854800
-1.680000 0.578900
-1.636700 0.430600
-1.593500 0.372100
-1.550200 0.335100
-1.507000 0.303600
-1.463700 0.279500
-1.420500 0.263000
-1.377200 0.253900
-1.334000 0.252400
-1.290800 0.255200
-1.247500 0.249600
-1.204300 0.234000
-1.161000 0.177900
-1.117800 0.120000
-1.074500 0.075500
-1.031300 0.044600
-0.988000 0.034600
-0.944800 0.102800
-0.901500 0.595000
-0.858300 0.822500
-0.815000 1.172900
-0.771800 1.665200
-0.728500 2.387300
-0.685300 3.271400
-0.642000 4.196500
-0.598800 3.341100
-0.555500 3.439500
-0.512300 3.353600
-0.469100 3.013800
-0.425800 2.635400
-0.382600 2.481200
-0.339300 2.499500
-0.296100 2.342800
-0.252800 2.259300
-0.209600 2.221400
-0.166300 2.136100
-0.123100 2.076200
-0.079800 2.018000
-0.036600 2.001800
0.006700 1.983500
0.049900 1.952100
0.093200 2.211900
0.136400 1.969200
0.179700 1.930000
0.222900 1.916000
0.266200 1.829900
0.309400 1.787100
0.352600 1.800500
0.395900 1.907300
0.439100 2.091900
0.482400 2.283400
0.525600 2.474500
0.568900 2.505000
0.612100 2.757600
0.655400 1.920800
0.698600 1.727800
0.741900 1.582900
0.785100 1.505900
0.828400 1.359400
0.871600 1.148500
0.914900 0.636300
0.958100 0.674900
1.001400 2.462000
1.044600 3.283700
1.087900 4.489100
1.131100 4.687900
1.174300 3.374100
1.217600 2.919600
1.260800 2.596200
1.304100 2.314800
1.347300 2.075200
1.390600 1.877200
1.433800 1.716100
1.477100 1.592400
1.520300 1.551300
1.563600 1.541900
1.606800 1.667100
1.650100 1.494300
1.693300 1.449300
1.736600 1.446800
1.779800 1.241400
1.823100 0.960700
1.866300 0.459400
1.909600 0.021000
1.952800 0.000000
1.996000 0.000000
2.039300 0.000000
2.082500 0.000000
2.125800 0.000000
2.169000 0.000000
2.212300 0.000000
2.255500 0.000000
2.298800 0.000000
2.342000 0.000000
2.385300 0.000000
2.428500 0.000000
2.471800 0.000000
2.515000 0.000000
2.558300 0.000000
2.601500 0.000000
2.644800 0.000000
2.688000 0.000000
2.731300 0.000000
2.774500 0.000000
2.817800 0.000000
2.861000 0.000000
2.904200 0.000000
2.947500 0.000000
2.990700 0.000000
3.034000 0.000000
3.077200 0.000000
3.120500 0.000000
3.163700 0.000000
3.207000 0.000000
3.250200 0.000000
3.293500 0.000000
3.336700 0.000000
3.380000 0.000000
3.423200 0.000000
3.466500 0.000000
3.509700 0.000000
3.553000 0.000000
3.596200 0.000000
3.639500 0.000000
3.682700 0.000000
3.725900 0.000100
3.769200 0.004300
3.812400 0.014400
3.855700 0.030300
3.898900 0.052000
3.942200 0.067700
3.985400 0.081600
4.028700 0.095900
4.071900 0.110700
4.115200 0.125800
4.158400 0.141300
4.201700 0.157200
4.244900 0.173400
4.288200 0.190800
4.331400 0.209800
4.374700 0.230400
4.417900 0.252700
4.461200 0.336000
4.504400 0.397000
4.547600 0.449500
4.590900 0.502300
4.634100 0.555600
4.677400 0.609200
4.720600 0.664700
4.763900 0.725700
4.807100 0.785400
4.850400 0.846000
4.893600 0.907700
4.936900 0.970700
4.980100 1.035600
5.023400 1.218200
5.066600 1.304600
5.109900 1.421600
5.153100 1.546900
5.196400 1.650400
5.239600 1.732100
5.282900 1.792600
5.326100 2.025500
5.369300 2.129200
5.412600 2.226800
5.455800 2.211500
5.499100 2.005700
5.542300 1.824600
5.585600 1.670700
5.628800 1.522700
5.672100 1.375000
5.715300 1.231400
5.758600 1.105600
5.801800 1.024500
5.845100 0.964600
5.888300 0.911500
5.931600 0.885300
5.974800 0.889000
6.018100 0.955500
6.061300 1.179400
6.104600 1.159700
6.147800 1.139500
6.191000 1.143500
6.234300 1.163600
6.277500 1.202500
6.320800 1.231400
6.364000 1.351600
6.407300 1.471700
6.450500 1.589200
6.493800 1.707100
6.537000 1.876300
6.580300 2.093900
6.623500 2.280800
6.666800 2.402100
6.710000 2.637900
6.753300 2.925400
6.796500 3.043800
6.839800 2.924700
6.883000 2.671700
6.926300 2.522600
6.969500 2.575700
7.012700 2.592000
7.056000 2.522300
7.099200 2.087200
7.142500 1.541600
7.185700 1.448100
7.229000 1.349000
7.272200 1.241100
7.315500 1.145700
7.358700 1.341100
7.402000 2.523600
7.445200 2.411500
7.488500 2.917100
7.531700 2.642500
7.575000 2.744100
7.618200 2.819800
7.661500 2.869800
7.704700 2.752300
7.748000 2.195300
7.791200 1.364800
7.834500 1.262700
7.877700 1.171700
7.920900 1.087700
7.964200 0.967200
8.007400 0.873100
8.050700 0.821000
8.093900 0.839700
8.137200 0.934000
8.180400 1.123100
8.223700 1.459300
8.266900 1.935300
8.310200 2.274100
8.353400 2.306300
8.396700 2.399800
8.439900 2.560600
8.483200 2.760500
8.526400 2.816500
8.569700 2.798100
8.612900 2.724400
8.656200 2.641700
8.699400 2.529500
8.742600 2.376000
8.785900 2.085300
8.829100 1.788200
8.872400 1.476600
8.915600 1.381200
8.958900 1.494200
9.002100 1.997300
9.045400 2.622100
9.088600 3.066600
9.131900 3.243900
9.175100 3.164300
9.218400 3.215000
9.261600 3.177600
9.304900 3.165800
9.348100 3.245800
9.391400 3.318500
9.434600 3.052400
9.477900 2.704100
9.521100 2.009700
9.564300 2.167500
9.607600 2.368600
9.650800 2.439800
9.694100 2.591000
9.737300 2.825700
9.780600 2.672500
9.823800 2.734800
9.867100 3.161100
9.910300 3.209800
9.953600 2.905200
9.996800 2.946900
10.040100 3.509400
10.083300 3.807400
10.126600 4.685700
10.169800 4.302300
10.213100 3.969400
10.256300 3.831300
10.299600 4.659700
10.342800 2.811600
10.386000 2.298400
10.429300 2.403700
10.472500 2.502000
10.515800 2.408500
10.559000 2.427800
10.602300 2.555600
10.645500 2.583900
10.688800 2.516800
10.732000 2.730800
10.775300 2.860700
10.818500 2.939000
10.861800 3.233200
10.905000 3.324900
10.948300 3.783600
10.991500 3.008900
11.034800 2.425900
11.078000 2.132000
11.121300 1.878800
11.164500 1.676000
11.207700 1.563400
11.251000 1.486000
11.294200 1.456400
11.337500 1.964800
11.380700 1.796600
11.424000 1.611500
11.467200 1.533400
11.510500 1.429100
11.553700 1.305700
11.597000 1.298400
11.640200 1.373100
11.683500 1.615200
11.726700 2.595100
11.770000 3.080700
11.813200 2.103400
11.856500 1.909500
11.899700 1.705000
11.943000 1.489700
11.986200 1.262600
12.029400 1.215600
12.072700 1.180600
12.115900 1.168600
12.159200 1.178600
12.202400 1.055100
12.245700 0.883300
12.288900 0.803100
12.332200 0.709900
12.375400 0.617700
12.418700 0.526400
12.461900 0.436100
12.505200 0.304100
12.548400 0.125300
12.591700 0.022400
12.634900 0.000000
12.678200 0.000000
12.721400 0.000000
12.764700 0.000000
12.807900 0.000000
12.851100 0.187700
12.894400 0.197200
12.937600 0.281500
12.980900 0.353500
13.024100 0.417200
13.067400 0.485100
13.110600 0.558300
13.153900 0.660600
13.197100 0.778400
13.240400 0.900100
13.283600 1.025700
13.326900 1.194600
13.370100 1.389600
13.413400 1.497700
13.456600 1.605500
13.499900 1.593200
13.543100 1.545400
13.586400 1.400600
13.629600 1.331800
13.672900 1.314300
13.716100 1.307200
13.759300 1.280000
13.802600 1.255500
13.845800 1.239300
13.889100 1.259200
13.932300 1.353200
13.975600 1.737600
14.018800 2.038100
14.062100 1.950000
14.105300 1.676900
14.148600 1.530900
14.191800 1.415200
14.235100 1.315200
14.278300 1.243300
14.321600 1.201300
14.364800 1.188000
14.408100 1.190200
14.451300 1.204400
14.494600 1.230600
14.537800 1.269300
14.581000 1.316800
14.624300 1.367800
14.667500 1.421600
14.710800 1.473500
14.754000 1.526900
14.797300 1.604900
14.840500 1.717900
14.883800 1.636300
14.927000 1.521800
14.970300 1.445600
15.013500 1.440500
15.056800 1.531400
15.100000 1.505500
15.143300 1.417800
15.186500 1.395700
15.229800 1.371000
15.273000 1.340600
15.316300 1.303200
15.359500 1.263800
15.402700 1.222000
15.446000 1.179100
15.489200 1.133500
15.532500 1.086900
15.575700 1.073500
15.619000 1.138200
15.662200 1.148500
15.705500 1.138500
15.748700 1.164000
15.792000 1.180500
15.835200 1.188900
15.878500 1.189100
15.921700 1.201200
15.965000 1.225300
16.008200 1.238600
16.051500 1.259600
16.094700 1.241700
16.138000 1.174700
16.181200 1.065700
16.224400 0.956500
16.267700 0.863500
16.310900 0.791600
16.354200 0.764200
16.397400 0.768200
16.440700 0.794500
16.483900 0.828400
16.527200 0.866600
16.570400 0.910600
16.613700 0.997900
16.656900 1.086000
16.700200 1.207000
16.743400 1.275200
16.786700 1.326600
16.829900 1.361800
16.873200 1.379300
16.916400 1.375600
16.959700 1.357800
17.002900 1.328700
17.046100 1.289700
17.089400 1.226100
17.132600 1.165100
17.175900 1.118800
17.219100 1.087000
17.262400 1.075700
17.305600 1.067600
17.348900 1.058200
17.392100 1.049000
17.435400 1.038000
17.478600 1.023100
17.521900 1.003500
17.565100 0.975500
17.608400 0.945500
17.651600 0.924200
17.694900 0.880500
17.738100 0.838300
17.781400 0.776400
17.824600 0.691200
17.867800 0.631700
17.911100 0.540400
17.954300 0.408300
17.997600 0.612900
18.040800 0.710700
18.084100 0.844500
18.127300 0.976700
18.170600 1.106900
18.213800 1.235900
18.257100 1.402400
18.300300 1.625700
18.343600 1.699700
18.386800 1.782600
18.430100 1.871300
18.473300 2.014500
18.516600 2.247700
18.559800 2.319600
18.603100 2.230700
18.646300 2.070100
18.689500 1.889800
18.732800 1.673800
18.776000 1.604400
18.819300 1.578400
18.862500 1.585000
18.905800 1.633700
18.949000 1.775900
18.992300 2.661300
19.035500 2.773500
19.078800 2.974500
19.122000 3.058700
19.165300 3.094100
19.208500 3.050700
19.251800 2.990400
19.295000 2.835400
19.338300 2.666200
19.381500 2.519100
19.424800 2.402000
19.468000 2.316000
19.511300 2.339500
19.554500 2.377600
19.597700 2.311200
19.641000 2.254400
19.684200 2.247200
19.727500 2.245800
19.770700 2.236700
19.814000 2.194300
19.857200 2.248800
19.900500 2.344500
19.943700 2.299000
19.987000 2.226100
20.030200 2.350500
20.073500 2.029100
20.116700 2.137200
20.160000 2.312400
20.203200 2.515500
20.246500 2.616000
20.289700 2.710100
20.333000 2.772900
20.376200 2.488500
20.419400 2.238300
20.462700 2.056400
20.505900 1.959800
20.549200 2.752800
20.592400 1.712700
20.635700 1.668900
20.678900 1.627600
20.722200 1.589700
20.765400 1.563500
20.808700 1.502200
20.851900 1.438300
20.895200 1.369400
20.938400 1.314100
20.981700 1.281500
21.024900 1.235800
21.068200 1.203300
21.111400 1.200000
21.154700 1.215100
21.197900 1.253800
21.241100 1.310100
21.284400 1.378600
21.327600 1.464900
21.370900 1.554000
21.414100 1.705300
21.457400 1.882200
21.500600 2.021900
21.543900 2.124400
21.587100 2.211300
21.630400 2.230700
21.673600 2.339900
21.716900 2.327900
21.760100 2.234700
21.803400 2.110500
21.846600 1.910800
21.889900 1.650200
21.933100 1.139000
21.976400 0.912000
22.019600 0.808000
22.062800 0.797300
22.106100 0.835100
22.149300 0.971200
22.192600 1.122000
22.235800 1.218000
22.279100 1.281400
22.322300 1.360600
22.365600 1.472200
22.408800 1.591400
22.452100 1.741000
22.495300 1.900700
22.538600 2.033000
22.581800 2.134300
22.625100 2.208700
22.668300 2.262700
22.711600 2.296500
22.754800 2.393100
22.798100 2.471600
22.841300 2.457000
22.884500 2.492000
22.927800 2.586400
22.971000 2.264800
23.014300 1.964400
23.057500 1.942100
23.100800 2.015200
23.144000 2.033000
23.187300 2.000400
23.230500 2.012000
23.273800 2.074400
23.317000 2.560500
23.360300 2.980600
23.403500 2.997600
23.446800 3.067800
23.490000 3.187600
23.533300 3.271600
23.576500 3.297100
23.619800 3.245600
23.663000 3.228300
23.706200 3.096200
23.749500 2.917500
23.792700 2.740200
23.836000 2.407100
23.879200 2.102900
23.922500 1.534100
23.965700 1.488100
24.009000 1.601400
24.052200 1.726900
24.095500 1.848600
24.138700 1.927600
24.182000 1.980000
24.225200 2.205800
24.268500 2.570700
24.311700 3.263800
24.355000 2.912500
24.398200 2.900400
24.441500 2.790600
24.484700 2.582300
24.527900 2.531600
24.571200 2.691800
24.614400 2.342800
24.657700 2.367400
24.700900 2.317600
24.744200 2.187300
24.787400 1.989400
24.830700 1.886500
24.873900 1.825200
24.917200 1.753500
24.960400 1.678100
25.003700 1.629200
25.046900 1.664700
25.090200 1.625000
25.133400 1.425700
25.176700 1.358100
25.219900 1.346300
25.263200 1.417600
25.306400 1.519300
25.349700 1.645700
25.392900 1.800800
25.436100 2.266300
25.479400 2.578600
25.522600 2.714100
25.565900 2.538100
25.609100 2.246100
25.652400 2.045600
25.695600 1.775400
25.738900 1.541400
25.782100 1.414200
25.825400 1.359800
25.868600 1.319500
25.911900 1.263900
25.955100 1.198100
25.998400 1.147800
26.041600 1.144200
26.084900 1.163500
26.128100 1.187800
26.171400 1.399700
26.214600 1.686400
26.257800 1.499200
26.301100 1.505000
26.344300 1.499600
26.387600 1.497200
26.430800 1.520800
26.474100 1.553200
26.517300 1.594300
26.560600 1.647000
26.603800 1.728800
26.647100 1.761500
26.690300 1.789900
26.733600 1.833000
26.776800 1.893500
26.820100 1.923600
26.863300 1.903600
26.906600 1.861500
26.949800 1.817600
26.993100 1.837700
27.036300 1.835700
27.079500 1.808100
27.122800 1.755000
27.166000 1.629700
27.209300 1.528700
27.252500 1.456800
27.295800 1.426400
27.339000 1.423500
27.382300 1.409700
27.425500 1.421100
27.468800 1.414800
27.512000 1.393000
27.555300 1.388000
27.598500 1.401800
27.641800 1.437800
27.685000 1.511100
27.728300 1.634200
27.771500 2.747300
27.814800 3.161800
27.858000 3.320400
27.901200 3.596400
27.944500 3.729800
27.987700 3.326100
28.031000 2.818900
28.074200 2.394600
28.117500 2.212900
28.160700 2.071100
28.204000 2.194800
28.247200 1.885800
28.290500 1.526000
28.333700 1.290300
28.377000 1.236900
28.420200 1.355200
28.463500 1.458500
28.506700 1.536600
28.550000 1.570100
28.593200 1.594200
28.636500 1.688700
28.679700 1.828000
28.722900 2.056500
28.766200 2.336800
28.809400 2.611600
28.852700 2.895900
28.895900 2.617000
28.939200 2.489100
28.982400 2.475200
29.025700 2.465700
29.068900 2.454200
29.112200 2.460400
29.155400 2.517100
29.198700 2.652300
29.241900 2.936900
29.285200 3.080300
29.328400 3.022700
29.371700 2.805000
29.414900 2.666300
29.458200 2.573000
29.501400 2.453800
29.544600 2.291000
29.587900 2.309800
29.631100 2.242100
29.674400 2.094300
29.717600 2.066500
29.760900 2.018600
29.804100 2.016300
29.847400 2.078200
29.890600 2.179000
29.933900 2.279200
29.977100 2.357000
30.020400 2.403200
30.063600 2.412000
30.106900 2.411200
30.150100 2.430300
30.193400 2.388300
30.236600 2.403300
30.279900 2.730600
30.323100 2.784000
30.366400 2.823200
30.409600 2.876000
30.452800 2.938500
30.496100 3.002900
30.539300 3.151800
30.582600 2.698500
30.625800 2.358000
30.669100 2.199400
30.712300 2.040000
30.755600 1.929500
30.798800 1.852300
30.842100 1.806300
30.885300 1.829500
30.928600 2.006600
30.971800 2.332700
31.015100 2.846400
31.058300 3.547900
31.101600 3.667300
31.144800 3.766100
31.188100 3.745000
31.231300 3.482800
31.274500 2.934500
31.317800 2.429100
31.361000 2.211400
31.404300 1.634300
31.447500 1.529200
31.490800 1.375800
31.534000 1.193500
31.577300 1.052500
31.620500 1.049100
31.663800 1.138800
31.707000 1.216900
31.750300 1.257800
31.793500 1.314600
31.836800 1.389100
31.880000 1.486100
31.923300 1.614900
31.966500 1.759800
32.009800 1.913100
32.053000 2.010300
32.096200 2.041000
32.139500 2.029700
32.182700 2.038400
32.226000 2.076400
32.269200 2.116800
32.312500 2.150000
32.355700 2.237600
32.399000 2.201300
32.442200 2.039800
32.485500 1.909400
32.528700 1.810900
32.572000 1.744800
32.615200 1.700700
32.658500 1.667800
32.701700 1.643600
32.745000 1.637600
32.788200 1.687000
32.831500 1.758200
32.874700 1.738800
32.917900 1.709500
32.961200 1.738200
33.004400 1.924000
33.047700 2.400900
33.090900 2.293400
33.134200 2.184200
33.177400 2.078100
33.220700 2.015600
33.263900 2.001300
33.307200 2.080200
33.350400 2.236400
33.393700 2.370300
33.436900 2.384100
33.480200 2.271400
33.523400 2.148900
33.566700 2.060800
33.609900 2.005400
33.653200 1.991000
33.696400 2.009100
33.739600 2.002800
33.782900 1.971500
33.826100 1.920300
33.869400 1.961000
33.912600 1.968900
33.955900 1.945700
33.999100 1.958200
34.042400 1.968100
34.085600 1.975700
34.128900 2.007300
34.172100 2.046300
34.215400 2.079600
34.258600 2.157100
34.301900 2.289100
34.345100 2.429800
34.388400 2.531200
34.431600 2.575500
34.474900 2.528500
34.518100 2.482700
34.561300 2.573800
34.604600 2.241000
34.647800 2.170400
34.691100 2.135600
34.734300 2.114600
34.777600 2.073700
34.820800 2.000700
34.864100 1.992000
34.907300 2.070700
34.950600 2.106200
34.993800 2.126800
35.037100 2.225100
35.080300 2.338000
35.123600 2.360400
35.166800 2.328500
35.210100 2.318400
35.253300 2.316300
35.296600 2.306100
35.339800 2.276200
35.383000 2.204400
35.426300 2.162600
35.469500 2.195100
35.512800 2.277200
35.556000 2.358100
35.599300 2.395300
35.642500 2.388000
35.685800 2.361800
35.729000 2.322700
35.772300 2.232000
35.815500 2.217400
35.858800 2.275000
35.902000 2.373900
35.945300 2.472800
35.988500 2.549100
36.031800 2.628300
36.075000 2.716600
36.118300 2.854700
36.161500 2.977200
36.204800 2.948800
36.248000 2.798700
36.291200 2.482500
36.334500 2.341300
36.377700 2.331700
36.421000 2.343200
36.464200 2.369100
36.507500 2.413600
36.550700 2.518500
36.594000 2.257500
36.637200 2.171700
36.680500 2.095800
36.723700 2.016400
36.767000 1.979100
36.810200 2.067800
36.853500 2.106500
36.896700 2.122900
36.940000 2.133500
36.983200 2.138100
37.026500 2.132200
37.069700 2.091400
37.112900 2.051500
37.156200 2.042500
37.199400 2.046800
37.242700 2.059400
37.285900 2.080700
37.329200 2.103600
37.372400 2.094900
37.415700 2.154800
37.458900 2.211600
37.502200 2.264200
37.545400 2.314100
37.588700 2.360900
37.631900 2.425300
37.675200 2.821500
37.718400 3.018500
37.761700 2.873600
37.804900 2.600100
37.848200 2.477000
37.891400 2.469000
37.934600 2.567700
37.977900 2.795700
38.021100 3.083100
38.064400 3.516800
38.107600 3.359200
38.150900 3.278600
38.194100 2.888400
38.237400 2.938400
38.280600 2.933300
38.323900 2.326000
38.367100 1.961700
38.410400 1.832600
38.453600 1.799300
38.496900 1.775300
38.540100 1.765200
38.583400 1.772400
38.626600 1.797500
38.669900 1.847200
38.713100 1.946600
38.756300 2.097200
38.799600 2.511100
38.842800 2.789900
38.886100 2.993200
38.929300 3.101000
38.972600 3.098900
39.015800 3.160400
39.059100 3.216000
39.102300 3.209600
39.145600 3.009700
39.188800 3.093900
39.232100 2.785400
39.275300 2.525500
39.318600 2.400300
39.361800 2.426000
39.405100 2.458200
39.448300 2.431900
39.491600 2.405900
39.534800 2.323500
39.578000 2.335700
39.621300 2.394400
39.664500 2.500300
39.707800 2.639200
39.751000 2.716700
39.794300 2.710300
39.837500 2.854200
39.880800 2.784600
39.924000 2.719500
39.967300 2.616600
40.010500 2.486400
40.053800 2.364600
40.097000 2.255100
40.140300 2.102700
40.183500 1.882400
40.226800 1.855600
40.270000 1.871900
40.313300 1.926700
40.356500 2.009500
40.399700 2.098800
40.443000 2.170100
40.486200 2.250900
40.529500 2.353900
40.572700 2.471700
40.616000 2.600700
40.659200 2.933100
40.702500 2.978900
40.745700 2.815200
40.789000 2.719700
40.832200 2.445200
40.875500 2.569900
40.918700 2.277600
40.962000 2.111300
41.005200 2.053100
41.048500 1.953500
41.091700 1.925100
41.135000 1.955900
41.178200 1.992900
41.221400 2.037500
41.264700 2.160600
41.307900 2.285500
41.351200 2.381100
41.394400 2.454200
41.437700 2.525300
41.480900 2.429800
41.524200 2.311100
41.567400 2.257700
41.610700 2.327800
41.653900 2.357900
41.697200 2.178600
41.740400 1.981600
41.783700 1.882500
41.826900 1.854000
41.870200 1.839500
41.913400 2.053100
41.956700 1.667900
41.999900 1.756300
42.043200 1.880700
42.086400 1.952300
42.129600 2.033400
42.172900 2.113600
42.216100 2.173900
42.259400 2.242800
42.302600 2.343600
42.345900 2.474000
42.389100 2.575000
42.432400 2.865200
42.475600 2.626800
42.518900 2.467100
42.562100 2.402200
42.605400 2.382000
42.648600 2.436900
42.691900 2.430800
42.735100 2.450000
42.778400 2.498400
42.821600 2.595200
42.864900 2.479200
42.908100 2.465300
42.951300 2.405800
42.994600 2.342200
43.037800 2.325500
43.081100 2.323400
43.124300 2.352700
43.167600 2.405600
43.210800 2.562400
43.254100 2.540600
43.297300 2.581500
43.340600 2.634200
43.383800 2.565100
43.427100 2.384400
43.470300 2.194700
43.513600 2.074300
43.556800 1.894900
43.600100 1.792400
43.643300 1.592500
43.686600 1.354400
43.729800 1.116500
43.773000 0.985700
43.816300 0.946200
43.859500 0.962400
43.902800 0.842100
43.946000 0.745300
43.989300 0.672000
44.032500 0.619900
44.075800 0.577000
44.119000 0.527500
44.162300 0.470300
44.205500 0.419000
44.248800 0.376300
44.292000 0.341400
44.335300 0.314300
44.378500 0.294500
44.421800 0.276400
44.465000 0.259200
44.508300 0.242900
44.551500 0.227500
44.594700 0.212800
44.638000 0.199100
44.681200 0.186800
44.724500 0.175900
44.767700 0.166300
44.811000 0.158000
44.854200 0.150700
44.897500 0.143200
44.940700 0.134600
44.984000 0.124800
45.027200 0.114000
45.070500 0.102100
45.113700 0.089100
45.157000 0.074900
45.200200 0.059700
45.243500 0.043400
45.286700 0.033400
45.330000 0.031000
45.373200 0.028700
45.416400 0.026600
45.459700 0.024700
45.502900 0.022900
45.546200 0.021300
45.589400 0.019900
45.632700 0.018700
45.675900 0.017300
45.719200 0.015700
45.762400 0.014300
45.805700 0.012900
45.848900 0.011600
45.892200 0.010300
45.935400 0.009100
45.978700 0.008000
46.021900 0.007000
46.065200 0.006100
46.108400 0.005200
46.151700 0.004300
46.194900 0.003600
46.238100 0.002900
46.281400 0.002300
46.324600 0.001800
46.367900 0.001300
46.411100 0.000900
46.454400 0.000600
46.497600 0.000300
46.540900 0.000200
46.584100 0.000000
46.627400 0.000000
46.670600 0.000000
46.713900 0.000000
46.757100 0.000000
46.800400 0.000000
46.843600 0.000000
46.886900 0.000000
46.930100 0.000000
46.973400 0.000000
47.016600 0.000000
47.059800 0.000000
47.103100 0.000000
47.146300 0.000000
47.189600 0.000000
47.232800 0.000000
47.276100 0.000000
47.319300 0.000000
47.362600 0.000000
47.405800 0.000000
47.449100 0.000000
47.492300 0.000000
47.535600 0.000000
47.578800 0.000000
47.622100 0.000000
47.665300 0.000000
47.708600 0.000000
47.751800 0.000000
47.795100 0.000000
47.838300 0.000000
47.881600 0.000000
47.924800 0.000000
47.968000 0.000000
48.011300 0.000000
48.054500 0.000000
48.097800 0.000000
48.141000 0.000000
48.184300 0.000000
48.227500 0.000000
48.270800 0.000000
48.314000 0.000000
48.357300 0.000000
48.400500 0.000000
48.443800 0.000000
48.487000 0.000000
48.530300 0.000000
48.573500 0.000000
48.616800 0.000000
48.660000 0.000000
48.703300 0.000000
48.746500 0.000000
48.789700 0.000000
48.833000 0.000000
48.876200 0.000000
48.919500 0.000000
48.962700 0.000000
49.006000 0.000000
49.049200 0.000000
49.092500 0.000000
49.135700 0.000000
49.179000 0.000000
49.222200 0.000000
49.265500 0.000000
49.308700 0.000000
49.352000 0.000000
49.395200 0.000000
49.438500 0.000000
49.481700 0.000000
49.525000 0.000000
49.568200 0.000000
49.611400 0.000000
49.654700 0.000000
49.697900 0.000000
49.741200 0.000000
49.784400 0.000000
49.827700 0.000000
49.870900 0.000000
49.914200 0.000000
49.957400 0.000000
50.000700 0.000000
50.043900 0.000000
50.087200 0.000000
50.130400 0.000000
50.173700 0.000000
50.216900 0.000000
50.260200 0.000000
50.303400 0.000000
50.346700 0.000000
50.389900 0.000000
50.433100 0.000000
50.476400 0.000000
50.519600 0.000000
50.562900 0.000000
e
