set title 'mp-1187215 - Density of States'
set xlabel 'Energy (eV)'
set ylabel 'DOS (states/eV)'
set grid
set xrange [-10:10]
set yrange [0:4.625]
set xzeroaxis lt -1
set terminal png size 800,600
set output 'mp-1187215_dos_gnuplot.png'
plot '-' using 1:2 with lines title 'DOS'
-31.273100 0.000000
-31.237800 0.000000
-31.202600 0.000000
-31.167300 0.000000
-31.132000 0.000000
-31.096700 0.000000
-31.061500 0.000000
-31.026200 0.000000
-30.990900 0.000000
-30.955600 0.000000
-30.920400 0.000000
-30.885100 0.000000
-30.849800 0.000000
-30.814500 0.000000
-30.779300 0.000000
-30.744000 0.000000
-30.708700 0.000000
-30.673500 0.000000
-30.638200 0.000000
-30.602900 0.000000
-30.567600 0.000000
-30.532400 0.000000
-30.497100 0.000000
-30.461800 0.000000
-30.426500 0.000000
-30.391300 0.000000
-30.356000 0.000000
-30.320700 0.000000
-30.285400 0.000000
-30.250200 0.000000
-30.214900 0.000000
-30.179600 0.000000
-30.144400 0.000000
-30.109100 0.000000
-30.073800 0.000000
-30.038500 0.000000
-30.003300 0.000000
-29.968000 0.000000
-29.932700 0.000000
-29.897400 0.000000
-29.862200 0.000000
-29.826900 0.000000
-29.791600 0.000000
-29.756300 0.000000
-29.721100 0.000000
-29.685800 0.000000
-29.650500 0.000000
-29.615300 0.000000
-29.580000 0.000000
-29.544700 0.000000
-29.509400 0.000000
-29.474200 0.000000
-29.438900 0.000000
-29.403600 0.000000
-29.368300 0.000000
-29.333100 0.000000
-29.297800 0.000000
-29.262500 0.000000
-29.227200 0.000000
-29.192000 0.000000
-29.156700 0.000000
-29.121400 0.000000
-29.086200 0.000000
-29.050900 0.000000
-29.015600 0.000000
-28.980300 0.000000
-28.945100 0.000000
-28.909800 0.000000
-28.874500 0.000000
-28.839200 0.000000
-28.804000 0.000000
-28.768700 0.000000
-28.733400 0.000000
-28.698100 0.000000
-28.662900 0.000000
-28.627600 0.000000
-28.592300 0.000000
-28.557100 0.000000
-28.521800 0.000000
-28.486500 0.000000
-28.451200 0.000000
-28.416000 0.000000
-28.380700 0.000000
-28.345400 0.000000
-28.310100 0.000000
-28.274900 0.000000
-28.239600 0.000000
-28.204300 0.001400
-28.169000 0.064200
-28.133800 1.195400
-28.098500 9.196300
-28.063200 29.992400
-28.028000 43.701500
-27.992700 35.822700
-27.957400 27.526700
-27.922100 16.943000
-27.886900 5.019200
-27.851600 0.607800
-27.816300 0.029000
-27.781000 0.000500
-27.745800 0.000000
-27.710500 0.000000
-27.675200 0.000000
-27.639900 0.000000
-27.604700 0.000000
-27.569400 0.000000
-27.534100 0.000000
-27.498900 0.000000
-27.463600 0.000000
-27.428300 0.000000
-27.393000 0.000000
-27.357800 0.000000
-27.322500 0.000000
-27.287200 0.000000
-27.251900 0.000000
-27.216700 0.000000
-27.181400 0.000000
-27.146100 0.000000
-27.110800 0.000000
-27.075600 0.000000
-27.040300 0.000000
-27.005000 0.000000
-26.969800 0.000000
-26.934500 0.000000
-26.899200 0.000000
-26.863900 0.000000
-26.828700 0.000000
-26.793400 0.000000
-26.758100 0.000000
-26.722800 0.000000
-26.687600 0.000000
-26.652300 0.000000
-26.617000 0.000000
-26.581700 0.000000
-26.546500 0.000000
-26.511200 0.000000
-26.475900 0.000000
-26.440700 0.000000
-26.405400 0.000000
-26.370100 0.000000
-26.334800 0.000000
-26.299600 0.000000
-26.264300 0.000000
-26.229000 0.000000
-26.193700 0.000000
-26.158500 0.000000
-26.123200 0.000000
-26.087900 0.000000
-26.052600 0.000000
-26.017400 0.000000
-25.982100 0.000000
-25.946800 0.000000
-25.911600 0.000000
-25.876300 0.000000
-25.841000 0.000000
-25.805700 0.000000
-25.770500 0.000000
-25.735200 0.000000
-25.699900 0.000000
-25.664600 0.000000
-25.629400 0.000000
-25.594100 0.000000
-25.558800 0.000000
-25.523500 0.000000
-25.488300 0.000000
-25.453000 0.000000
-25.417700 0.000000
-25.382500 0.000000
-25.347200 0.000000
-25.311900 0.000000
-25.276600 0.000000
-25.241400 0.000000
-25.206100 0.000000
-25.170800 0.000000
-25.135500 0.000000
-25.100300 0.000000
-25.065000 0.000000
-25.029700 0.000000
-24.994400 0.000000
-24.959200 0.000000
-24.923900 0.000000
-24.888600 0.000000
-24.853400 0.000000
-24.818100 0.000000
-24.782800 0.000000
-24.747500 0.000000
-24.712300 0.000000
-24.677000 0.000000
-24.641700 0.000000
-24.606400 0.000000
-24.571200 0.000000
-24.535900 0.000000
-24.500600 0.000000
-24.465300 0.000000
-24.430100 0.000000
-24.394800 0.000000
-24.359500 0.000000
-24.324300 0.000000
-24.289000 0.000000
-24.253700 0.000000
-24.218400 0.000000
-24.183200 0.000000
-24.147900 0.000000
-24.112600 0.000000
-24.077300 0.000000
-24.042100 0.000000
-24.006800 0.000000
-23.971500 0.000000
-23.936200 0.000000
-23.901000 0.000000
-23.865700 0.000000
-23.830400 0.000000
-23.795200 0.000000
-23.759900 0.000000
-23.724600 0.000000
-23.689300 0.000000
-23.654100 0.000000
-23.618800 0.000000
-23.583500 0.000000
-23.548200 0.000000
-23.513000 0.000000
-23.477700 0.000000
-23.442400 0.000000
-23.407100 0.000000
-23.371900 0.000000
-23.336600 0.000000
-23.301300 0.000000
-23.266100 0.000000
-23.230800 0.000000
-23.195500 0.000000
-23.160200 0.000000
-23.125000 0.000000
-23.089700 0.000000
-23.054400 0.000000
-23.019100 0.000000
-22.983900 0.000000
-22.948600 0.000000
-22.913300 0.000000
-22.878000 0.000000
-22.842800 0.000000
-22.807500 0.000000
-22.772200 0.000000
-22.737000 0.000000
-22.701700 0.000000
-22.666400 0.000000
-22.631100 0.000000
-22.595900 0.000000
-22.560600 0.000000
-22.525300 0.000000
-22.490000 0.000000
-22.454800 0.000000
-22.419500 0.000000
-22.384200 0.000000
-22.348900 0.000000
-22.313700 0.000000
-22.278400 0.000000
-22.243100 0.000000
-22.207900 0.000000
-22.172600 0.000000
-22.137300 0.000000
-22.102000 0.000000
-22.066800 0.000000
-22.031500 0.000000
-21.996200 0.000000
-21.960900 0.000000
-21.925700 0.000000
-21.890400 0.000000
-21.855100 0.000000
-21.819800 0.000000
-21.784600 0.000000
-21.749300 0.000000
-21.714000 0.000000
-21.678800 0.000000
-21.643500 0.000000
-21.608200 0.000000
-21.572900 0.000000
-21.537700 0.000000
-21.502400 0.000000
-21.467100 0.000000
-21.431800 0.000000
-21.396600 0.000000
-21.361300 0.000000
-21.326000 0.000000
-21.290700 0.000000
-21.255500 0.000000
-21.220200 0.000000
-21.184900 0.000000
-21.149700 0.000000
-21.114400 0.000000
-21.079100 0.000000
-21.043800 0.000000
-21.008600 0.000000
-20.973300 0.000000
-20.938000 0.000000
-20.902700 0.000000
-20.867500 0.000000
-20.832200 0.000000
-20.796900 0.000000
-20.761600 0.000000
-20.726400 0.000000
-20.691100 0.000000
-20.655800 0.000000
-20.620600 0.000000
-20.585300 0.000000
-20.550000 0.000000
-20.514700 0.000000
-20.479500 0.000000
-20.444200 0.000000
-20.408900 0.000000
-20.373600 0.000000
-20.338400 0.000000
-20.303100 0.000000
-20.267800 0.000000
-20.232500 0.000000
-20.197300 0.000000
-20.162000 0.000000
-20.126700 0.000000
-20.091500 0.000000
-20.056200 0.000000
-20.020900 0.000000
-19.985600 0.000000
-19.950400 0.000000
-19.915100 0.000000
-19.879800 0.000000
-19.844500 0.000000
-19.809300 0.000000
-19.774000 0.000000
-19.738700 0.000000
-19.703400 0.000000
-19.668200 0.000000
-19.632900 0.000000
-19.597600 0.000000
-19.562400 0.000000
-19.527100 0.000000
-19.491800 0.000000
-19.456500 0.000000
-19.421300 0.000000
-19.386000 0.000000
-19.350700 0.000000
-19.315400 0.000000
-19.280200 0.000000
-19.244900 0.000000
-19.209600 0.000000
-19.174300 0.000000
-19.139100 0.000000
-19.103800 0.000000
-19.068500 0.000000
-19.033300 0.000000
-18.998000 0.000000
-18.962700 0.000000
-18.927400 0.000000
-18.892200 0.000000
-18.856900 0.000000
-18.821600 0.000000
-18.786300 0.000000
-18.751100 0.000000
-18.715800 0.000000
-18.680500 0.000000
-18.645200 0.000000
-18.610000 0.000000
-18.574700 0.000000
-18.539400 0.000000
-18.504200 0.000000
-18.468900 0.000000
-18.433600 0.000000
-18.398300 0.000000
-18.363100 0.000000
-18.327800 0.000000
-18.292500 0.000000
-18.257200 0.000000
-18.222000 0.000000
-18.186700 0.000000
-18.151400 0.000000
-18.116100 0.000000
-18.080900 0.000000
-18.045600 0.000000
-18.010300 0.000000
-17.975100 0.000000
-17.939800 0.000000
-17.904500 0.000000
-17.869200 0.000000
-17.834000 0.000000
-17.798700 0.000000
-17.763400 0.000000
-17.728100 0.000000
-17.692900 0.000000
-17.657600 0.000000
-17.622300 0.000000
-17.587000 0.000000
-17.551800 0.000000
-17.516500 0.000000
-17.481200 0.000000
-17.446000 0.000000
-17.410700 0.000000
-17.375400 0.000000
-17.340100 0.000000
-17.304900 0.000000
-17.269600 0.000000
-17.234300 0.000000
-17.199000 0.000000
-17.163800 0.000000
-17.128500 0.000000
-17.093200 0.000000
-17.057900 0.000000
-17.022700 0.000000
-16.987400 0.000000
-16.952100 0.000000
-16.916900 0.000000
-16.881600 0.000000
-16.846300 0.000000
-16.811000 0.000000
-16.775800 0.000000
-16.740500 0.000000
-16.705200 0.000000
-16.669900 0.000000
-16.634700 0.000000
-16.599400 0.000000
-16.564100 0.000000
-16.528800 0.000000
-16.493600 0.000000
-16.458300 0.000000
-16.423000 0.000000
-16.387800 0.000000
-16.352500 0.000000
-16.317200 0.000000
-16.281900 0.000000
-16.246700 0.000000
-16.211400 0.000000
-16.176100 0.000000
-16.140800 0.000000
-16.105600 0.000000
-16.070300 0.000000
-16.035000 0.000000
-15.999700 0.000000
-15.964500 0.000000
-15.929200 0.000000
-15.893900 0.000000
-15.858700 0.000000
-15.823400 0.000000
-15.788100 0.000000
-15.752800 0.000000
-15.717600 0.000000
-15.682300 0.000000
-15.647000 0.000000
-15.611700 0.000000
-15.576500 0.000000
-15.541200 0.000000
-15.505900 0.000000
-15.470600 0.000000
-15.435400 0.000000
-15.400100 0.000000
-15.364800 0.000000
-15.329600 0.000000
-15.294300 0.000000
-15.259000 0.000000
-15.223700 0.000000
-15.188500 0.000000
-15.153200 0.000000
-15.117900 0.000000
-15.082600 0.000000
-15.047400 0.000000
-15.012100 0.000000
-14.976800 0.000000
-14.941500 0.000000
-14.906300 0.000000
-14.871000 0.000000
-14.835700 0.000000
-14.800500 0.000000
-14.765200 0.000000
-14.729900 0.000000
-14.694600 0.000000
-14.659400 0.000000
-14.624100 0.000000
-14.588800 0.000000
-14.553500 0.000000
-14.518300 0.000000
-14.483000 0.000000
-14.447700 0.000000
-14.412400 0.000000
-14.377200 0.000000
-14.341900 0.000000
-14.306600 0.000000
-14.271400 0.000000
-14.236100 0.000000
-14.200800 0.000000
-14.165500 0.000000
-14.130300 0.000000
-14.095000 0.000000
-14.059700 0.000000
-14.024400 0.000000
-13.989200 0.000000
-13.953900 0.000000
-13.918600 0.000000
-13.883300 0.000000
-13.848100 0.000000
-13.812800 0.000000
-13.777500 0.000000
-13.742300 0.000000
-13.707000 0.000000
-13.671700 0.000000
-13.636400 0.000000
-13.601200 0.000000
-13.565900 0.000000
-13.530600 0.000000
-13.495300 0.000000
-13.460100 0.000000
-13.424800 0.000000
-13.389500 0.000000
-13.354200 0.000000
-13.319000 0.000000
-13.283700 0.000000
-13.248400 0.000000
-13.213200 0.000000
-13.177900 0.000000
-13.142600 0.000000
-13.107300 0.000000
-13.072100 0.000000
-13.036800 0.000000
-13.001500 0.000000
-12.966200 0.000000
-12.931000 0.000000
-12.895700 0.000000
-12.860400 0.000000
-12.825100 0.000000
-12.789900 0.000000
-12.754600 0.000000
-12.719300 0.000000
-12.684100 0.000000
-12.648800 0.000000
-12.613500 0.000000
-12.578200 0.000000
-12.543000 0.000000
-12.507700 0.000000
-12.472400 0.000000
-12.437100 0.000000
-12.401900 0.000000
-12.366600 0.000000
-12.331300 0.000000
-12.296000 0.000000
-12.260800 0.000000
-12.225500 0.000000
-12.190200 0.000000
-12.155000 0.000000
-12.119700 0.000000
-12.084400 0.000000
-12.049100 0.000000
-12.013900 0.000000
-11.978600 0.000000
-11.943300 0.000000
-11.908000 0.000000
-11.872800 0.000000
-11.837500 0.000000
-11.802200 0.000000
-11.766900 0.000000
-11.731700 0.000000
-11.696400 0.000000
-11.661100 0.000000
-11.625900 0.000000
-11.590600 0.000000
-11.555300 0.000000
-11.520000 0.000000
-11.484800 0.000000
-11.449500 0.000000
-11.414200 0.000000
-11.378900 0.000000
-11.343700 0.000000
-11.308400 0.000000
-11.273100 0.000000
-11.237800 0.000000
-11.202600 0.000000
-11.167300 0.000000
-11.132000 0.000000
-11.096800 0.000000
-11.061500 0.000000
-11.026200 0.000000
-10.990900 0.000000
-10.955700 0.000000
-10.920400 0.000000
-10.885100 0.000000
-10.849800 0.000000
-10.814600 0.000000
-10.779300 0.000000
-10.744000 0.000000
-10.708700 0.000000
-10.673500 0.000000
-10.638200 0.000000
-10.602900 0.000000
-10.567700 0.000000
-10.532400 0.000000
-10.497100 0.000000
-10.461800 0.000000
-10.426600 0.000000
-10.391300 0.000000
-10.356000 0.000000
-10.320700 0.000000
-10.285500 0.000000
-10.250200 0.000000
-10.214900 0.000000
-10.179600 0.000000
-10.144400 0.000000
-10.109100 0.000000
-10.073800 0.000000
-10.038600 0.000000
-10.003300 0.000000
-9.968000 0.000000
-9.932700 0.000000
-9.897500 0.000000
-9.862200 0.000000
-9.826900 0.000000
-9.791600 0.000000
-9.756400 0.000000
-9.721100 0.000000
-9.685800 0.000000
-9.650500 0.000000
-9.615300 0.000000
-9.580000 0.000000
-9.544700 0.000000
-9.509500 0.000000
-9.474200 0.000000
-9.438900 0.000000
-9.403600 0.000000
-9.368400 0.000000
-9.333100 0.000000
-9.297800 0.000000
-9.262500 0.000000
-9.227300 0.000000
-9.192000 0.000000
-9.156700 0.000000
-9.121400 0.000000
-9.086200 0.000000
-9.050900 0.000000
-9.015600 0.000000
-8.980400 0.000000
-8.945100 0.000000
-8.909800 0.000000
-8.874500 0.000000
-8.839300 0.000000
-8.804000 0.000000
-8.768700 0.000000
-8.733400 0.000000
-8.698200 0.000000
-8.662900 0.000000
-8.627600 0.000000
-8.592300 0.000000
-8.557100 0.000000
-8.521800 0.000000
-8.486500 0.000000
-8.451300 0.000000
-8.416000 0.000000
-8.380700 0.000000
-8.345400 0.000000
-8.310200 0.000000
-8.274900 0.000000
-8.239600 0.000000
-8.204300 0.000000
-8.169100 0.000000
-8.133800 0.000000
-8.098500 0.000000
-8.063200 0.000000
-8.028000 0.000000
-7.992700 0.000000
-7.957400 0.000000
-7.922200 0.000000
-7.886900 0.000000
-7.851600 0.000200
-7.816300 0.003000
-7.781100 0.015400
-7.745800 0.040900
-7.710500 0.081100
-7.675200 0.152100
-7.640000 0.221400
-7.604700 0.190400
-7.569400 0.125500
-7.534100 0.196100
-7.498900 0.314400
-7.463600 0.321000
-7.428300 0.333200
-7.393100 0.385300
-7.357800 0.318000
-7.322500 0.221500
-7.287200 0.278400
-7.252000 0.439600
-7.216700 0.453500
-7.181400 0.378300
-7.146100 0.404600
-7.110900 0.423800
-7.075600 0.393700
-7.040300 0.514800
-7.005000 0.643200
-6.969800 0.611200
-6.934500 0.542600
-6.899200 0.446200
-6.864000 0.372800
-6.828700 0.344300
-6.793400 0.403600
-6.758100 0.614700
-6.722900 0.747700
-6.687600 0.702400
-6.652300 0.701100
-6.617000 0.709100
-6.581800 0.691100
-6.546500 0.796700
-6.511200 0.842600
-6.475900 0.704400
-6.440700 0.654000
-6.405400 0.690700
-6.370100 0.572400
-6.334900 0.499800
-6.299600 0.697200
-6.264300 0.963700
-6.229000 0.995500
-6.193800 0.867800
-6.158500 0.740200
-6.123200 0.644900
-6.087900 0.734900
-6.052700 0.930100
-6.017400 1.030900
-5.982100 0.989300
-5.946800 0.844300
-5.911600 0.726700
-5.876300 0.754300
-5.841000 0.715400
-5.805800 0.546900
-5.770500 0.629800
-5.735200 0.882100
-5.699900 0.968500
-5.664700 0.990700
-5.629400 0.976500
-5.594100 0.899200
-5.558800 0.842300
-5.523600 0.823700
-5.488300 0.920000
-5.453000 1.131200
-5.417700 1.214600
-5.382500 1.158400
-5.347200 1.097100
-5.311900 0.866900
-5.276700 0.577500
-5.241400 0.496500
-5.206100 0.769800
-5.170800 1.133100
-5.135600 1.152700
-5.100300 0.938900
-5.065000 0.651300
-5.029700 0.476000
-4.994500 0.471600
-4.959200 0.674000
-4.923900 1.080400
-4.888600 1.424200
-4.853400 1.469800
-4.818100 1.285100
-4.782800 1.124900
-4.747600 1.215800
-4.712300 1.431800
-4.677000 1.273900
-4.641700 0.939800
-4.606500 1.053000
-4.571200 1.507700
-4.535900 1.976000
-4.500600 1.984100
-4.465400 1.638600
-4.430100 1.377600
-4.394800 1.012400
-4.359500 0.708400
-4.324300 1.094300
-4.289000 1.638100
-4.253700 1.526700
-4.218500 1.253200
-4.183200 0.993500
-4.147900 0.755200
-4.112600 0.903600
-4.077400 1.311100
-4.042100 1.381200
-4.006800 1.041500
-3.971500 0.997600
-3.936300 1.471000
-3.901000 1.951700
-3.865700 1.808200
-3.830400 1.293600
-3.795200 0.996500
-3.759900 1.004500
-3.724600 1.224900
-3.689400 1.466200
-3.654100 1.518200
-3.618800 1.355000
-3.583500 1.078000
-3.548300 0.954400
-3.513000 0.876100
-3.477700 0.784200
-3.442400 0.873300
-3.407200 1.031300
-3.371900 1.347800
-3.336600 1.703500
-3.301300 1.696700
-3.266100 1.614400
-3.230800 1.802100
-3.195500 2.074400
-3.160300 2.214700
-3.125000 2.020200
-3.089700 1.718300
-3.054400 1.601400
-3.019200 1.486800
-2.983900 1.347600
-2.948600 1.459400
-2.913300 1.814200
-2.878100 2.127300
-2.842800 1.881500
-2.807500 1.204400
-2.772200 1.048200
-2.737000 1.544100
-2.701700 2.162300
-2.666400 2.333400
-2.631200 2.113000
-2.595900 1.806000
-2.560600 1.922000
-2.525300 2.255300
-2.490100 2.161400
-2.454800 1.806700
-2.419500 1.481800
-2.384200 1.123300
-2.349000 0.756100
-2.313700 0.586500
-2.278400 0.553600
-2.243100 0.604800
-2.207900 0.559500
-2.172600 0.354700
-2.137300 0.191900
-2.102100 0.137400
-2.066800 0.142700
-2.031500 0.191200
-1.996200 0.339600
-1.961000 0.474300
-1.925700 0.466600
-1.890400 0.433200
-1.855100 0.381800
-1.819900 0.346400
-1.784600 0.324100
-1.749300 0.321300
-1.714000 0.377800
-1.678800 0.459800
-1.643500 0.436100
-1.608200 0.283400
-1.573000 0.225300
-1.537700 0.196200
-1.502400 0.167000
-1.467100 0.176900
-1.431900 0.154100
-1.396600 0.125400
-1.361300 0.155800
-1.326000 0.205100
-1.290800 0.244400
-1.255500 0.247400
-1.220200 0.209400
-1.184900 0.191000
-1.149700 0.235900
-1.114400 0.261100
-1.079100 0.192500
-1.043900 0.140200
-1.008600 0.137600
-0.973300 0.126800
-0.938000 0.154200
-0.902800 0.153500
-0.867500 0.088100
-0.832200 0.042600
-0.796900 0.025300
-0.761700 0.014200
-0.726400 0.019700
-0.691100 0.029000
-0.655800 0.029900
-0.620600 0.028100
-0.585300 0.015900
-0.550000 0.003900
-0.514800 0.000400
-0.479500 0.000000
-0.444200 0.000000
-0.408900 0.000000
-0.373700 0.000000
-0.338400 0.000000
-0.303100 0.000000
-0.267800 0.000000
-0.232600 0.000000
-0.197300 0.000000
-0.162000 0.000000
-0.126700 0.000100
-0.091500 0.002000
-0.056200 0.014200
-0.020900 0.041200
0.014300 0.047500
0.049600 0.022600
0.084900 0.011500
0.120200 0.038500
0.155400 0.098900
0.190700 0.162000
0.226000 0.243400
0.261300 0.348100
0.296500 0.367900
0.331800 0.390100
0.367100 0.485900
0.402400 0.631400
0.437600 0.708000
0.472900 0.630100
0.508200 0.473100
0.543400 0.418500
0.578700 0.560600
0.614000 0.716000
0.649300 0.852200
0.684500 0.992400
0.719800 1.143600
0.755100 1.410600
0.790400 1.741600
0.825600 1.664400
0.860900 1.434700
0.896200 1.421100
0.931500 1.409200
0.966700 1.419400
1.002000 1.497900
1.037300 1.788100
1.072500 2.235000
1.107800 2.168100
1.143100 1.729700
1.178400 1.611700
1.213600 1.973200
1.248900 2.526300
1.284200 2.635800
1.319500 2.106000
1.354700 1.247100
1.390000 0.651500
1.425300 0.654600
1.460600 1.178600
1.495800 1.826600
1.531100 2.354800
1.566400 2.775100
1.601600 2.945900
1.636900 2.654500
1.672200 2.255100
1.707500 1.977700
1.742700 1.573800
1.778000 1.181700
1.813300 1.267800
1.848600 1.313200
1.883800 1.344700
1.919100 1.718800
1.954400 1.825500
1.989700 1.430500
2.024900 1.240600
2.060200 1.239600
2.095500 1.169400
2.130700 1.392200
2.166000 1.888300
2.201300 2.086200
2.236600 2.057200
2.271800 2.153900
2.307100 2.600900
2.342400 3.061700
2.377700 2.717600
2.412900 1.962300
2.448200 1.565900
2.483500 1.756900
2.518800 2.157000
2.554000 2.318600
2.589300 2.897400
2.624600 3.554800
2.659800 3.104200
2.695100 2.514100
2.730400 2.889200
2.765700 3.040800
2.800900 2.508200
2.836200 2.267900
2.871500 2.482500
2.906800 2.940300
2.942000 3.125100
2.977300 2.929200
3.012600 2.576000
3.047900 1.938000
3.083100 1.572800
3.118400 1.725400
3.153700 2.091100
3.188900 2.315500
3.224200 2.268900
3.259500 2.376800
3.294800 2.483100
3.330000 2.136000
3.365300 1.750200
3.400600 1.795200
3.435900 1.778900
3.471100 1.588000
3.506400 1.603100
3.541700 1.739800
3.577000 1.853000
3.612200 1.860500
3.647500 1.893100
3.682800 1.998700
3.718000 2.164100
3.753300 2.042300
3.788600 1.599700
3.823900 1.634900
3.859100 2.110900
3.894400 2.232600
3.929700 2.167900
3.965000 2.154100
4.000200 1.888000
4.035500 1.829000
4.070800 2.149400
4.106100 2.181900
4.141300 1.957800
4.176600 1.937900
4.211900 1.826500
4.247100 1.760700
4.282400 1.795700
4.317700 1.581400
4.353000 1.430700
4.388200 1.605800
4.423500 1.459800
4.458800 1.285000
4.494100 1.495800
4.529300 1.698500
4.564600 1.800600
4.599900 1.686900
4.635200 1.351500
4.670400 1.374900
4.705700 1.812500
4.741000 2.034300
4.776200 2.069500
4.811500 2.397000
4.846800 2.609000
4.882100 2.210300
4.917300 1.903100
4.952600 2.001500
4.987900 2.319700
5.023200 2.411000
5.058400 1.987900
5.093700 1.427900
5.129000 1.284900
5.164300 1.636000
5.199500 2.346100
5.234800 3.242100
5.270100 3.853400
5.305300 3.650400
5.340600 2.954900
5.375900 2.446000
5.411200 1.922400
5.446400 1.485100
5.481700 1.419700
5.517000 1.433700
5.552300 1.335200
5.587500 1.326100
5.622800 1.722600
5.658100 2.258000
5.693400 2.275000
5.728600 1.948400
5.763900 1.737100
5.799200 1.966300
5.834400 2.396300
5.869700 2.376500
5.905000 2.029600
5.940300 1.980300
5.975500 2.219500
6.010800 2.419700
6.046100 2.527100
6.081400 2.337100
6.116600 1.940800
6.151900 1.749000
6.187200 1.786500
6.222500 1.971300
6.257700 2.060500
6.293000 1.861900
6.328300 1.678900
6.363500 1.644600
6.398800 1.624700
6.434100 1.845500
6.469400 2.248700
6.504600 2.691900
6.539900 2.979400
6.575200 2.899600
6.610500 2.718200
6.645700 2.397400
6.681000 2.021400
6.716300 1.670400
6.751500 1.480500
6.786800 1.590900
6.822100 1.920200
6.857400 2.428400
6.892600 2.689200
6.927900 2.492000
6.963200 2.595400
6.998500 2.928800
7.033700 2.711600
7.069000 2.252300
7.104300 2.041000
7.139600 2.233500
7.174800 2.444700
7.210100 2.204600
7.245400 1.892000
7.280600 2.102200
7.315900 2.517000
7.351200 2.962800
7.386500 3.243400
7.421700 2.995900
7.457000 2.810600
7.492300 2.749100
7.527600 2.495300
7.562800 2.770000
7.598100 3.539400
7.633400 3.913700
7.668700 3.800900
7.703900 3.262700
7.739200 2.394500
7.774500 2.289100
7.809700 2.758100
7.845000 3.260500
7.880300 3.776200
7.915600 3.818300
7.950800 3.579100
7.986100 3.361800
8.021400 3.065200
8.056700 2.819800
8.091900 2.704500
8.127200 3.067300
8.162500 3.630100
8.197800 3.562100
8.233000 3.364300
8.268300 3.537000
8.303600 3.628300
8.338800 3.623400
8.374100 3.499400
8.409400 3.138000
8.444700 2.744600
8.479900 2.381800
8.515200 2.038700
8.550500 1.947400
8.585800 2.158300
8.621000 1.921100
8.656300 1.382300
8.691600 1.675800
8.726900 2.570100
8.762100 2.819500
8.797400 2.474400
8.832700 2.338900
8.867900 2.419700
8.903200 2.379300
8.938500 2.469900
8.973800 2.802400
9.009000 2.748200
9.044300 2.439300
9.079600 2.385100
9.114900 2.379600
9.150100 2.448100
9.185400 2.787700
9.220700 3.017700
9.256000 2.984100
9.291200 3.537700
9.326500 4.204800
9.361800 3.787100
9.397000 3.032200
9.432300 3.102200
9.467600 3.719600
9.502900 3.914800
9.538100 3.936000
9.573400 4.145600
9.608700 4.189200
9.644000 3.885000
9.679200 3.237100
9.714500 2.941500
9.749800 3.209900
9.785100 3.474300
9.820300 3.400700
9.855600 3.339100
9.890900 3.745500
9.926100 4.044500
9.961400 3.664800
9.996700 3.347600
10.032000 3.295800
10.067200 3.189600
10.102500 3.333700
10.137800 3.639900
10.173100 3.594800
10.208300 3.303900
10.243600 3.012300
10.278900 2.867800
10.314200 3.210100
10.349400 3.472300
10.384700 3.038100
10.420000 2.576600
10.455200 2.614500
10.490500 2.726700
10.525800 2.417000
10.561100 2.259200
10.596300 2.869900
10.631600 3.462300
10.666900 3.213800
10.702200 2.478700
10.737400 2.054200
10.772700 2.261300
10.808000 2.590300
10.843300 2.943100
10.878500 3.918800
10.913800 4.578600
10.949100 3.928200
10.984300 3.201300
11.019600 3.332700
11.054900 3.777500
11.090200 4.110600
11.125400 3.998700
11.160700 3.713200
11.196000 3.458000
11.231300 2.907000
11.266500 2.525500
11.301800 2.334800
11.337100 2.137200
11.372400 2.576400
11.407600 3.756800
11.442900 4.719300
11.478200 4.627700
11.513400 3.811600
11.548700 2.922200
11.584000 2.505300
11.619300 2.818300
11.654500 3.186900
11.689800 3.233200
11.725100 3.276800
11.760400 3.471400
11.795600 3.190500
11.830900 2.514900
11.866200 2.282700
11.901500 2.125400
11.936700 1.742600
11.972000 1.627700
12.007300 1.746800
12.042500 1.744500
12.077800 1.627900
12.113100 1.420800
12.148400 1.512200
12.183600 1.808200
12.218900 1.480800
12.254200 1.053600
12.289500 1.081300
12.324700 1.288600
12.360000 1.539700
12.395300 1.764900
12.430600 1.791000
12.465800 1.779600
12.501100 1.889600
12.536400 1.665800
12.571600 1.250200
12.606900 0.922100
12.642200 0.561500
12.677500 0.534500
12.712700 0.889000
12.748000 1.248600
12.783300 1.499700
12.818600 1.566400
12.853800 1.473900
12.889100 1.329900
12.924400 1.230600
12.959700 1.180400
12.994900 1.228300
13.030200 1.147000
13.065500 0.845400
13.100700 0.703600
13.136000 0.761200
13.171300 0.723500
13.206600 0.770300
13.241800 0.960200
13.277100 0.976900
13.312400 0.930100
13.347700 0.897300
13.382900 0.860300
13.418200 0.851600
13.453500 0.888900
13.488800 0.936300
13.524000 0.909800
13.559300 0.784900
13.594600 0.699700
13.629800 0.788000
13.665100 0.734200
13.700400 0.538600
13.735700 0.549000
13.770900 0.706000
13.806200 0.728600
13.841500 0.697500
13.876800 0.875500
13.912000 1.233000
13.947300 1.318900
13.982600 1.283300
14.017900 1.302900
14.053100 1.250200
14.088400 1.529700
14.123700 1.992600
14.158900 2.056800
14.194200 1.948600
14.229500 2.162400
14.264800 2.585700
14.300000 2.937600
14.335300 2.634200
14.370600 1.932300
14.405900 1.864700
14.441100 2.024100
14.476400 1.776500
14.511700 1.645300
14.547000 1.587700
14.582200 1.504600
14.617500 1.679500
14.652800 1.904100
14.688000 1.834600
14.723300 1.518500
14.758600 1.392400
14.793900 1.536100
14.829100 1.776500
14.864400 1.858100
14.899700 1.472800
14.935000 1.185400
14.970200 1.571000
15.005500 2.010600
15.040800 1.965400
15.076100 1.622300
15.111300 1.291800
15.146600 1.134300
15.181900 0.956100
15.217100 0.951000
15.252400 1.212400
15.287700 1.116500
15.323000 0.947600
15.358200 1.139000
15.393500 1.126200
15.428800 1.023000
15.464100 1.437000
15.499300 1.876500
15.534600 1.784700
15.569900 1.455400
15.605200 1.313300
15.640400 1.257000
15.675700 1.065900
15.711000 1.058200
15.746200 1.480800
15.781500 1.867700
15.816800 1.675800
15.852100 1.257300
15.887300 0.895500
15.922600 0.868200
15.957900 1.399000
15.993200 1.684500
16.028400 1.193900
16.063700 0.796300
16.099000 1.059400
16.134300 1.636600
16.169500 1.709100
16.204800 1.395700
16.240100 1.362000
16.275300 1.402000
16.310600 1.391400
16.345900 1.525300
16.381200 1.474100
16.416400 1.397600
16.451700 1.848800
16.487000 2.316600
16.522300 2.267000
16.557500 1.875000
16.592800 1.563400
16.628100 1.692600
16.663400 2.015300
16.698600 2.291500
16.733900 2.509800
16.769200 2.365200
16.804400 1.867000
16.839700 1.756000
16.875000 1.948000
16.910300 1.541000
16.945500 0.900800
16.980800 0.822300
17.016100 1.197600
17.051400 1.618600
17.086600 2.001900
17.121900 2.116700
17.157200 1.941700
17.192500 1.867900
17.227700 1.954000
17.263000 1.980100
17.298300 1.992000
17.333500 2.075100
17.368800 2.185000
17.404100 2.388600
17.439400 2.382900
17.474600 2.228200
17.509900 2.240600
17.545200 2.198700
17.580500 2.179200
17.615700 2.863600
17.651000 3.771700
17.686300 3.784300
17.721600 3.566600
17.756800 3.526100
17.792100 3.151200
17.827400 2.625800
17.862600 2.643400
17.897900 2.920800
17.933200 3.131000
17.968500 3.278400
18.003700 3.022300
18.039000 2.768100
18.074300 2.564900
18.109600 2.424100
18.144800 2.763200
18.180100 3.299400
18.215400 3.680100
18.250700 3.679300
18.285900 3.291900
18.321200 2.947500
18.356500 3.040600
18.391700 3.384200
18.427000 3.218800
18.462300 2.736100
18.497600 2.557000
18.532800 2.605800
18.568100 3.094500
18.603400 3.787500
18.638700 3.998900
18.673900 5.228000
18.709200 12.635400
18.744500 22.784700
18.779800 19.958100
18.815000 8.978300
18.850300 3.367000
18.885600 2.309500
18.920800 2.168900
18.956100 1.824500
18.991400 1.681000
19.026700 2.057800
19.061900 2.542000
19.097200 2.717400
19.132500 2.397600
19.167800 2.239300
19.203000 2.537900
19.238300 3.040900
19.273600 3.309800
19.308900 2.876400
19.344100 2.431400
19.379400 2.600300
19.414700 3.434400
19.449900 4.199600
19.485200 4.130200
19.520500 3.471900
19.555800 2.628200
19.591000 2.209100
19.626300 2.121100
19.661600 1.982300
19.696900 2.013500
19.732100 1.994400
19.767400 2.005900
19.802700 2.616100
19.838000 3.022700
19.873200 2.703800
19.908500 2.589900
19.943800 2.855700
19.979000 2.785500
20.014300 2.187000
20.049600 1.667300
20.084900 2.023400
20.120100 2.920200
20.155400 3.168100
20.190700 2.806100
20.226000 2.675400
20.261200 2.939000
20.296500 2.912300
20.331800 2.446800
20.367100 2.086700
20.402300 1.961800
20.437600 1.858900
20.472900 1.512600
20.508100 1.283600
20.543400 1.545500
20.578700 2.066100
20.614000 2.111300
20.649200 1.754300
20.684500 1.502400
20.719800 1.456900
20.755100 1.558600
20.790300 1.519700
20.825600 1.445800
20.860900 1.771200
20.896200 2.220600
20.931400 2.510900
20.966700 2.595300
21.002000 2.787700
21.037200 3.087300
21.072500 3.315300
21.107800 3.190700
21.143100 2.657800
21.178300 2.423500
21.213600 2.442600
21.248900 2.435700
21.284200 2.718900
21.319400 3.106000
21.354700 3.248000
21.390000 3.321800
21.425300 3.099700
21.460500 2.619900
21.495800 2.142400
21.531100 2.038300
21.566300 2.168100
21.601600 2.245800
21.636900 2.206000
21.672200 2.026600
21.707400 2.132200
21.742700 2.665800
21.778000 3.189700
21.813300 3.565300
21.848500 3.421800
21.883800 2.811600
21.919100 2.580800
21.954400 2.880200
21.989600 3.080100
22.024900 2.948100
22.060200 2.729100
22.095400 2.455800
22.130700 2.445000
22.166000 2.642400
22.201300 3.093800
22.236500 3.481900
22.271800 3.345100
22.307100 2.850400
22.342400 2.410300
22.377600 2.510000
22.412900 2.747100
22.448200 2.911500
22.483500 2.795000
22.518700 2.480500
22.554000 2.462200
22.589300 2.529800
22.624500 2.273800
22.659800 2.236100
22.695100 2.473400
22.730400 2.559400
22.765600 2.625800
22.800900 2.846300
22.836200 3.237500
22.871500 3.646100
22.906700 3.228200
22.942000 2.354400
22.977300 2.090100
23.012600 2.291000
23.047800 2.169000
23.083100 1.812600
23.118400 1.706300
23.153600 1.798700
23.188900 2.183300
23.224200 2.625600
23.259500 3.138500
23.294700 3.763000
23.330000 3.584100
23.365300 3.080800
23.400600 3.249200
23.435800 3.320000
23.471100 2.681200
23.506400 2.272100
23.541700 2.337400
23.576900 1.970300
23.612200 1.793800
23.647500 2.158800
23.682700 2.094300
23.718000 1.720400
23.753300 1.917300
23.788600 2.339000
23.823800 1.948600
23.859100 1.643000
23.894400 2.348900
23.929700 3.307300
23.964900 3.627900
24.000200 2.973500
24.035500 2.072400
24.070800 1.992200
24.106000 2.640000
24.141300 3.272500
24.176600 3.310800
24.211800 3.072500
24.247100 3.001500
24.282400 2.784900
24.317700 2.301900
24.352900 2.106900
24.388200 2.554000
24.423500 3.078400
24.458800 3.014200
24.494000 2.853600
24.529300 2.693300
24.564600 2.401100
24.599900 2.408400
24.635100 2.582400
24.670400 2.523500
24.705700 2.336700
24.740900 2.579700
24.776200 3.345500
24.811500 3.856900
24.846800 3.536900
24.882000 3.248900
24.917300 3.451400
24.952600 3.525200
24.987900 3.255600
25.023100 2.641500
25.058400 2.237000
25.093700 1.972400
25.129000 1.444800
25.164200 1.173300
25.199500 1.651900
25.234800 2.417100
25.270000 2.697300
25.305300 2.538900
25.340600 2.391900
25.375900 2.217000
25.411100 2.357100
25.446400 2.847600
25.481700 3.087900
25.517000 3.194000
25.552200 3.177800
25.587500 2.651300
25.622800 2.140600
25.658100 2.040800
25.693300 2.254900
25.728600 2.546800
25.763900 2.759300
25.799100 2.689600
25.834400 2.705400
25.869700 3.287700
25.905000 3.850900
25.940200 3.995600
25.975500 3.759200
26.010800 3.376800
26.046100 3.075900
26.081300 3.303800
26.116600 3.744700
26.151900 3.572100
26.187200 3.110300
26.222400 3.007800
26.257700 2.787300
26.293000 2.441400
26.328200 2.412000
26.363500 2.472700
26.398800 2.547000
26.434100 2.632600
26.469300 2.711300
26.504600 2.712800
26.539900 2.473900
26.575200 2.347800
26.610400 2.540100
26.645700 2.902900
26.681000 2.944700
26.716300 3.010100
26.751500 3.455500
26.786800 3.997500
26.822100 3.729400
26.857300 2.651200
26.892600 2.435900
26.927900 3.114000
26.963200 3.549700
26.998400 3.364100
27.033700 2.770300
27.069000 2.389600
27.104300 2.326500
27.139500 2.610500
27.174800 2.854600
27.210100 2.725800
27.245400 2.382100
27.280600 1.750900
27.315900 1.440300
27.351200 1.647900
27.386400 1.852400
27.421700 2.090600
27.457000 2.763900
27.492300 3.395700
27.527500 3.819800
27.562800 3.905400
27.598100 3.808400
27.633400 3.516800
27.668600 3.275800
27.703900 3.374700
27.739200 3.172800
27.774500 2.758600
27.809700 2.672100
27.845000 2.884800
27.880300 3.069800
27.915500 2.778400
27.950800 2.192700
27.986100 2.122000
28.021400 2.473700
28.056600 2.858200
28.091900 2.896100
28.127200 2.859600
28.162500 3.214400
28.197700 3.635000
28.233000 3.644000
28.268300 3.395600
28.303600 3.076100
28.338800 2.765800
28.374100 2.545200
28.409400 2.520700
28.444600 2.477700
28.479900 2.340800
28.515200 2.340000
28.550500 2.426200
28.585700 2.413300
28.621000 2.687600
28.656300 3.266900
28.691600 3.605900
28.726800 3.681300
28.762100 3.515000
28.797400 3.241100
28.832700 2.974500
28.867900 2.785400
28.903200 2.801200
28.938500 2.757700
28.973700 2.899200
29.009000 3.184100
29.044300 3.044000
29.079600 2.769300
29.114800 2.902300
29.150100 2.775100
29.185400 2.323700
29.220700 2.340500
29.255900 2.855400
29.291200 3.314200
29.326500 3.498700
29.361800 3.448400
29.397000 2.997600
29.432300 2.743100
29.467600 3.291000
29.502800 3.922600
29.538100 3.989800
29.573400 3.352200
29.608700 2.787200
29.643900 3.118300
29.679200 3.637500
29.714500 3.370100
29.749800 2.847200
29.785000 2.912500
29.820300 3.031800
29.855600 3.136900
29.890900 3.302300
29.926100 3.288500
29.961400 3.259900
29.996700 3.247600
30.031900 3.096100
30.067200 2.901400
30.102500 2.760300
30.137800 2.791900
30.173000 3.026800
30.208300 3.138800
30.243600 3.156700
30.278900 3.110200
30.314100 3.000600
30.349400 2.707800
30.384700 2.639000
30.420000 3.247100
30.455200 3.949000
30.490500 3.922800
30.525800 2.991600
30.561000 2.147800
30.596300 2.048400
30.631600 1.924600
30.666900 1.752000
30.702100 2.265200
30.737400 3.074300
30.772700 3.572700
30.808000 4.228500
30.843200 4.318400
30.878500 3.361900
30.913800 2.642500
30.949100 2.511600
30.984300 2.487500
31.019600 2.483900
31.054900 2.766400
31.090100 3.449500
31.125400 3.850100
31.160700 3.586200
31.196000 3.460700
31.231200 3.645400
31.266500 3.213300
31.301800 2.256200
31.337100 1.816700
31.372300 2.146200
31.407600 2.513800
31.442900 2.413600
31.478200 2.337800
31.513400 2.732800
31.548700 3.091900
31.584000 3.401300
31.619200 3.894500
31.654500 3.865500
31.689800 3.333700
31.725100 2.846900
31.760300 2.805500
31.795600 3.011200
31.830900 3.069800
31.866200 2.996100
31.901400 3.157500
31.936700 3.434300
31.972000 3.577600
32.007300 3.719800
32.042500 3.495500
32.077800 3.308500
32.113100 3.144200
32.148300 2.813300
32.183600 2.773100
32.218900 2.987100
32.254200 3.481800
32.289400 3.838500
32.324700 3.227600
32.360000 2.735600
32.395300 2.977200
32.430500 3.083500
32.465800 3.271100
32.501100 3.947800
32.536400 4.124000
32.571600 3.690400
32.606900 3.274300
32.642200 3.582500
32.677400 4.140200
32.712700 3.192500
32.748000 1.813900
32.783300 1.892800
32.818500 2.861500
32.853800 3.306000
32.889100 3.659700
32.924400 4.266400
32.959600 3.863400
32.994900 3.119200
33.030200 2.906900
33.065500 2.637000
33.100700 2.115000
33.136000 1.695800
33.171300 1.934000
33.206500 2.312400
33.241800 2.230100
33.277100 2.152400
33.312400 2.319400
33.347600 2.145300
33.382900 1.807400
33.418200 1.878000
33.453500 1.866600
33.488700 1.855400
33.524000 2.051500
33.559300 2.026300
33.594600 1.839100
33.629800 1.727000
33.665100 1.629400
33.700400 1.438300
33.735600 1.341100
33.770900 1.330400
33.806200 1.028300
33.841500 0.757300
33.876700 0.763200
33.912000 0.961300
33.947300 1.330300
33.982600 1.554700
34.017800 1.409300
34.053100 1.008500
34.088400 0.667800
34.123700 0.510100
34.158900 0.459900
34.194200 0.351500
34.229500 0.217300
34.264700 0.204600
34.300000 0.262200
34.335300 0.340300
34.370600 0.473300
34.405800 0.449500
34.441100 0.361300
34.476400 0.486800
34.511700 0.629700
34.546900 0.572700
34.582200 0.465400
34.617500 0.357200
34.652800 0.200900
34.688000 0.108900
34.723300 0.237000
34.758600 0.531100
34.793800 0.695000
34.829100 0.621200
34.864400 0.455800
34.899700 0.273900
34.934900 0.183200
34.970200 0.146200
35.005500 0.070100
35.040800 0.020900
35.076000 0.037400
35.111300 0.089700
35.146600 0.089200
35.181900 0.035500
35.217100 0.005600
35.252400 0.000300
35.287700 0.000000
35.322900 0.000000
35.358200 0.000300
35.393500 0.003900
35.428800 0.021600
35.464000 0.047300
35.499300 0.041500
35.534600 0.014500
35.569900 0.002400
35.605100 0.006400
35.640400 0.038600
35.675700 0.098000
35.711000 0.120100
35.746200 0.101300
35.781500 0.068300
35.816800 0.038000
35.852000 0.044600
35.887300 0.048000
35.922600 0.022500
35.957900 0.004700
35.993100 0.005800
36.028400 0.024300
36.063700 0.046400
36.099000 0.038500
36.134200 0.013800
36.169500 0.002100
36.204800 0.000100
36.240100 0.000000
36.275300 0.000000
36.310600 0.000000
36.345900 0.000000
36.381100 0.000000
36.416400 0.000000
36.451700 0.000000
36.487000 0.000000
36.522200 0.000000
36.557500 0.000000
36.592800 0.000000
36.628100 0.000000
36.663300 0.000000
36.698600 0.000000
36.733900 0.000000
36.769200 0.000000
36.804400 0.000000
36.839700 0.000000
36.875000 0.000000
36.910200 0.000000
36.945500 0.000000
36.980800 0.000000
37.016100 0.000000
37.051300 0.000000
37.086600 0.000000
37.121900 0.000000
37.157200 0.000000
37.192400 0.000000
37.227700 0.000000
37.263000 0.000000
37.298300 0.000000
37.333500 0.000000
37.368800 0.000000
37.404100 0.000000
37.439300 0.000000
37.474600 0.000000
37.509900 0.000000
37.545200 0.000000
37.580400 0.000000
37.615700 0.000000
37.651000 0.000000
37.686300 0.000000
37.721500 0.000000
37.756800 0.000000
37.792100 0.000000
37.827400 0.000000
37.862600 0.000000
37.897900 0.000000
37.933200 0.000000
37.968400 0.000000
38.003700 0.000000
38.039000 0.000000
38.074300 0.000000
38.109500 0.000000
38.144800 0.000000
38.180100 0.000000
38.215400 0.000000
38.250600 0.000000
38.285900 0.000000
38.321200 0.000000
38.356500 0.000000
38.391700 0.000000
38.427000 0.000000
38.462300 0.000000
38.497500 0.000000
38.532800 0.000000
38.568100 0.000000
38.603400 0.000000
38.638600 0.000000
38.673900 0.000000
38.709200 0.000000
38.744500 0.000000
38.779700 0.000000
38.815000 0.000000
38.850300 0.000000
38.885600 0.000000
38.920800 0.000000
38.956100 0.000000
38.991400 0.000000
39.026600 0.000000
39.061900 0.000000
39.097200 0.000000
39.132500 0.000000
39.167700 0.000000
39.203000 0.000000
39.238300 0.000000
39.273600 0.000000
e
