set title 'mp-1184265 - Density of States'
set xlabel 'Energy (eV)'
set ylabel 'DOS (states/eV)'
set grid
set xrange [-10:10]
set yrange [0:97.293]
set xzeroaxis lt -1
set terminal png size 800,600
set output 'mp-1184265_dos_gnuplot.png'
plot '-' using 1:2 with lines title 'DOS'
-44.786600 0.000000
-44.736100 0.000000
-44.685600 0.000000
-44.635100 0.000000
-44.584600 0.000000
-44.534100 0.000000
-44.483600 0.000000
-44.433100 0.000000
-44.382700 0.000000
-44.332200 0.000000
-44.281700 0.000000
-44.231200 0.000000
-44.180700 0.000000
-44.130200 0.000000
-44.079700 0.000000
-44.029200 0.000000
-43.978700 0.000000
-43.928300 0.000000
-43.877800 0.000000
-43.827300 0.000000
-43.776800 0.000000
-43.726300 0.000000
-43.675800 0.000000
-43.625300 0.000000
-43.574800 0.000000
-43.524300 0.000000
-43.473900 0.000000
-43.423400 0.000000
-43.372900 0.000000
-43.322400 0.000000
-43.271900 0.000000
-43.221400 0.000000
-43.170900 0.000000
-43.120400 0.000000
-43.069900 0.000000
-43.019500 0.000000
-42.969000 0.000000
-42.918500 0.000000
-42.868000 0.000000
-42.817500 0.000000
-42.767000 0.000000
-42.716500 0.000000
-42.666000 0.000000
-42.615500 0.000000
-42.565000 0.000000
-42.514600 0.000000
-42.464100 0.000000
-42.413600 0.000000
-42.363100 0.000000
-42.312600 0.000000
-42.262100 0.000000
-42.211600 0.000000
-42.161100 0.000000
-42.110600 0.000000
-42.060200 0.000000
-42.009700 0.000000
-41.959200 0.000000
-41.908700 0.000000
-41.858200 0.000000
-41.807700 0.000000
-41.757200 0.000000
-41.706700 0.000000
-41.656200 0.000000
-41.605800 0.000000
-41.555300 0.000000
-41.504800 0.000000
-41.454300 0.000000
-41.403800 0.000000
-41.353300 0.000000
-41.302800 0.000000
-41.252300 0.000000
-41.201800 0.000000
-41.151400 0.000000
-41.100900 0.000000
-41.050400 0.000000
-40.999900 0.000000
-40.949400 0.000000
-40.898900 0.000000
-40.848400 0.000000
-40.797900 0.000000
-40.747400 0.000000
-40.696900 0.000000
-40.646500 0.000000
-40.596000 0.000000
-40.545500 0.000000
-40.495000 0.000000
-40.444500 0.000000
-40.394000 0.000000
-40.343500 0.000000
-40.293000 0.008200
-40.242500 0.429400
-40.192100 5.148500
-40.141600 19.948900
-40.091100 36.765500
-40.040600 38.031500
-39.990100 18.519800
-39.939600 10.382100
-39.889100 18.807600
-39.838600 31.238900
-39.788100 43.096600
-39.737700 48.786000
-39.687200 47.387800
-39.636700 30.165500
-39.586200 7.351500
-39.535700 0.439200
-39.485200 0.004900
-39.434700 0.000000
-39.384200 0.000000
-39.333700 0.000000
-39.283300 0.000000
-39.232800 0.000000
-39.182300 0.000000
-39.131800 0.000000
-39.081300 0.000000
-39.030800 0.000000
-38.980300 0.000000
-38.929800 0.000000
-38.879300 0.000000
-38.828900 0.000000
-38.778400 0.000000
-38.727900 0.000000
-38.677400 0.000000
-38.626900 0.000000
-38.576400 0.000000
-38.525900 0.000000
-38.475400 0.000000
-38.424900 0.000000
-38.374400 0.000000
-38.324000 0.000000
-38.273500 0.000000
-38.223000 0.000000
-38.172500 0.000000
-38.122000 0.000000
-38.071500 0.000000
-38.021000 0.000000
-37.970500 0.000000
-37.920000 0.000000
-37.869600 0.000000
-37.819100 0.000000
-37.768600 0.000000
-37.718100 0.000000
-37.667600 0.000000
-37.617100 0.000000
-37.566600 0.000000
-37.516100 0.000000
-37.465600 0.000000
-37.415200 0.000000
-37.364700 0.000000
-37.314200 0.000000
-37.263700 0.000000
-37.213200 0.000000
-37.162700 0.000000
-37.112200 0.000000
-37.061700 0.000000
-37.011200 0.000000
-36.960800 0.000000
-36.910300 0.000000
-36.859800 0.000000
-36.809300 0.000000
-36.758800 0.000000
-36.708300 0.000000
-36.657800 0.000000
-36.607300 0.000000
-36.556800 0.000000
-36.506300 0.000000
-36.455900 0.000000
-36.405400 0.000000
-36.354900 0.000000
-36.304400 0.000000
-36.253900 0.000000
-36.203400 0.000000
-36.152900 0.000000
-36.102400 0.000000
-36.051900 0.000000
-36.001500 0.000000
-35.951000 0.000000
-35.900500 0.000000
-35.850000 0.000000
-35.799500 0.000000
-35.749000 0.000000
-35.698500 0.000000
-35.648000 0.000000
-35.597500 0.000000
-35.547100 0.000000
-35.496600 0.000000
-35.446100 0.000000
-35.395600 0.000000
-35.345100 0.000000
-35.294600 0.000000
-35.244100 0.000000
-35.193600 0.000000
-35.143100 0.000000
-35.092700 0.000000
-35.042200 0.000000
-34.991700 0.000000
-34.941200 0.000000
-34.890700 0.000000
-34.840200 0.000000
-34.789700 0.000000
-34.739200 0.000000
-34.688700 0.000000
-34.638200 0.000000
-34.587800 0.000000
-34.537300 0.000000
-34.486800 0.000000
-34.436300 0.000000
-34.385800 0.000000
-34.335300 0.000000
-34.284800 0.000000
-34.234300 0.000000
-34.183800 0.000000
-34.133400 0.000000
-34.082900 0.000000
-34.032400 0.000000
-33.981900 0.000000
-33.931400 0.000000
-33.880900 0.000000
-33.830400 0.000000
-33.779900 0.000000
-33.729400 0.000000
-33.679000 0.000000
-33.628500 0.000000
-33.578000 0.000000
-33.527500 0.000000
-33.477000 0.000000
-33.426500 0.000000
-33.376000 0.000000
-33.325500 0.000000
-33.275000 0.000000
-33.224600 0.000000
-33.174100 0.000000
-33.123600 0.000000
-33.073100 0.000000
-33.022600 0.000000
-32.972100 0.000000
-32.921600 0.000000
-32.871100 0.000000
-32.820600 0.000000
-32.770100 0.000000
-32.719700 0.000000
-32.669200 0.000000
-32.618700 0.000000
-32.568200 0.000000
-32.517700 0.000000
-32.467200 0.000000
-32.416700 0.000000
-32.366200 0.000000
-32.315700 0.000000
-32.265300 0.000000
-32.214800 0.000000
-32.164300 0.000000
-32.113800 0.000000
-32.063300 0.000000
-32.012800 0.000000
-31.962300 0.000000
-31.911800 0.000000
-31.861300 0.000000
-31.810900 0.000000
-31.760400 0.000000
-31.709900 0.000000
-31.659400 0.000000
-31.608900 0.000000
-31.558400 0.000000
-31.507900 0.000000
-31.457400 0.000000
-31.406900 0.000000
-31.356500 0.000000
-31.306000 0.000000
-31.255500 0.000000
-31.205000 0.000000
-31.154500 0.000000
-31.104000 0.000000
-31.053500 0.000000
-31.003000 0.000000
-30.952500 0.000000
-30.902000 0.000000
-30.851600 0.000000
-30.801100 0.000000
-30.750600 0.000000
-30.700100 0.000000
-30.649600 0.000000
-30.599100 0.000000
-30.548600 0.000000
-30.498100 0.000000
-30.447600 0.000000
-30.397200 0.000000
-30.346700 0.000000
-30.296200 0.000000
-30.245700 0.000000
-30.195200 0.000000
-30.144700 0.000000
-30.094200 0.000000
-30.043700 0.000000
-29.993200 0.000000
-29.942800 0.000000
-29.892300 0.000000
-29.841800 0.000000
-29.791300 0.000000
-29.740800 0.000000
-29.690300 0.000000
-29.639800 0.000000
-29.589300 0.000000
-29.538800 0.000000
-29.488400 0.000000
-29.437900 0.000000
-29.387400 0.000000
-29.336900 0.000000
-29.286400 0.000000
-29.235900 0.000000
-29.185400 0.000000
-29.134900 0.000000
-29.084400 0.000000
-29.033900 0.000000
-28.983500 0.000000
-28.933000 0.000000
-28.882500 0.000000
-28.832000 0.000000
-28.781500 0.000000
-28.731000 0.000000
-28.680500 0.000000
-28.630000 0.000000
-28.579500 0.000000
-28.529100 0.000000
-28.478600 0.000000
-28.428100 0.000000
-28.377600 0.000000
-28.327100 0.000000
-28.276600 0.000000
-28.226100 0.000000
-28.175600 0.000000
-28.125100 0.000000
-28.074700 0.000000
-28.024200 0.000000
-27.973700 0.000000
-27.923200 0.000000
-27.872700 0.000000
-27.822200 0.000000
-27.771700 0.000000
-27.721200 0.000000
-27.670700 0.000000
-27.620300 0.000000
-27.569800 0.000000
-27.519300 0.000000
-27.468800 0.000000
-27.418300 0.000000
-27.367800 0.000000
-27.317300 0.000000
-27.266800 0.000000
-27.216300 0.000000
-27.165800 0.000000
-27.115400 0.000000
-27.064900 0.000000
-27.014400 0.000000
-26.963900 0.000000
-26.913400 0.000000
-26.862900 0.000000
-26.812400 0.000000
-26.761900 0.000000
-26.711400 0.000000
-26.661000 0.000000
-26.610500 0.000000
-26.560000 0.000000
-26.509500 0.000000
-26.459000 0.000000
-26.408500 0.000000
-26.358000 0.000000
-26.307500 0.000000
-26.257000 0.000000
-26.206600 0.000000
-26.156100 0.000000
-26.105600 0.000000
-26.055100 0.000000
-26.004600 0.000000
-25.954100 0.000000
-25.903600 0.000000
-25.853100 0.000000
-25.802600 0.000000
-25.752200 0.000000
-25.701700 0.000000
-25.651200 0.000000
-25.600700 0.000000
-25.550200 0.000000
-25.499700 0.000000
-25.449200 0.000000
-25.398700 0.000000
-25.348200 0.000000
-25.297700 0.000000
-25.247300 0.000000
-25.196800 0.000000
-25.146300 0.000000
-25.095800 0.000000
-25.045300 0.000000
-24.994800 0.000000
-24.944300 0.000000
-24.893800 0.000000
-24.843300 0.000000
-24.792900 0.000000
-24.742400 0.000000
-24.691900 0.000000
-24.641400 0.000000
-24.590900 0.000000
-24.540400 0.000000
-24.489900 0.000000
-24.439400 0.000000
-24.388900 0.000000
-24.338500 0.000000
-24.288000 0.000000
-24.237500 0.000000
-24.187000 0.000000
-24.136500 0.000000
-24.086000 0.000000
-24.035500 0.000000
-23.985000 0.000000
-23.934500 0.000000
-23.884100 0.000000
-23.833600 0.000000
-23.783100 0.000000
-23.732600 0.000000
-23.682100 0.000000
-23.631600 0.000000
-23.581100 0.000000
-23.530600 0.000000
-23.480100 0.000000
-23.429600 0.000000
-23.379200 0.000000
-23.328700 0.000000
-23.278200 0.000000
-23.227700 0.000000
-23.177200 0.000000
-23.126700 0.000000
-23.076200 0.000000
-23.025700 0.000000
-22.975200 0.000000
-22.924800 0.000000
-22.874300 0.000000
-22.823800 0.000000
-22.773300 0.000000
-22.722800 0.000000
-22.672300 0.000000
-22.621800 0.000000
-22.571300 0.000000
-22.520800 0.000000
-22.470400 0.000000
-22.419900 0.000000
-22.369400 0.000000
-22.318900 0.000000
-22.268400 0.000000
-22.217900 0.000000
-22.167400 0.000000
-22.116900 0.000000
-22.066400 0.000000
-22.016000 0.000000
-21.965500 0.000000
-21.915000 0.000000
-21.864500 0.000000
-21.814000 0.000000
-21.763500 0.000000
-21.713000 0.000000
-21.662500 0.000000
-21.612000 0.000000
-21.561500 0.000000
-21.511100 0.000000
-21.460600 0.000000
-21.410100 0.000000
-21.359600 0.000000
-21.309100 0.000000
-21.258600 0.000000
-21.208100 0.000000
-21.157600 0.000000
-21.107100 0.000000
-21.056700 0.000000
-21.006200 0.000000
-20.955700 0.000000
-20.905200 0.000000
-20.854700 0.000000
-20.804200 0.000000
-20.753700 0.000000
-20.703200 0.000000
-20.652700 0.000000
-20.602300 0.000000
-20.551800 0.000000
-20.501300 0.000000
-20.450800 0.000000
-20.400300 0.000000
-20.349800 0.000000
-20.299300 0.000000
-20.248800 0.000000
-20.198300 0.000000
-20.147900 0.000000
-20.097400 0.000000
-20.046900 0.000000
-19.996400 0.000000
-19.945900 0.000000
-19.895400 0.000000
-19.844900 0.000000
-19.794400 0.000000
-19.743900 0.000000
-19.693400 0.000000
-19.643000 0.000000
-19.592500 0.000000
-19.542000 0.000000
-19.491500 0.000000
-19.441000 0.000000
-19.390500 0.000000
-19.340000 0.000000
-19.289500 0.000000
-19.239000 0.000000
-19.188600 0.000000
-19.138100 0.000000
-19.087600 0.000000
-19.037100 0.000000
-18.986600 0.000000
-18.936100 0.000000
-18.885600 0.000000
-18.835100 0.000000
-18.784600 0.000000
-18.734200 0.000000
-18.683700 0.000000
-18.633200 0.000000
-18.582700 0.000000
-18.532200 0.000000
-18.481700 0.000000
-18.431200 0.000000
-18.380700 0.000000
-18.330200 0.000000
-18.279800 0.000000
-18.229300 0.000000
-18.178800 0.000000
-18.128300 0.000000
-18.077800 0.000000
-18.027300 0.000000
-17.976800 0.000000
-17.926300 0.000000
-17.875800 0.000000
-17.825300 0.000000
-17.774900 0.000000
-17.724400 0.000000
-17.673900 0.000000
-17.623400 0.000000
-17.572900 0.000000
-17.522400 0.000000
-17.471900 0.000000
-17.421400 0.000000
-17.370900 0.000000
-17.320500 0.000000
-17.270000 0.000000
-17.219500 0.000000
-17.169000 0.000000
-17.118500 0.000000
-17.068000 0.000000
-17.017500 0.000000
-16.967000 0.000000
-16.916500 0.000000
-16.866100 0.000000
-16.815600 0.000000
-16.765100 0.000000
-16.714600 0.000000
-16.664100 0.000000
-16.613600 0.000000
-16.563100 0.000000
-16.512600 0.000000
-16.462100 0.000000
-16.411700 0.000000
-16.361200 0.000000
-16.310700 0.000000
-16.260200 0.000000
-16.209700 0.000000
-16.159200 0.000000
-16.108700 0.000000
-16.058200 0.000000
-16.007700 0.000000
-15.957200 0.000000
-15.906800 0.000000
-15.856300 0.000000
-15.805800 0.000000
-15.755300 0.000000
-15.704800 0.000000
-15.654300 0.000000
-15.603800 0.000000
-15.553300 0.000000
-15.502800 0.000000
-15.452400 0.000000
-15.401900 0.000000
-15.351400 0.000000
-15.300900 0.000000
-15.250400 0.000000
-15.199900 0.000000
-15.149400 0.000000
-15.098900 0.000000
-15.048400 0.000000
-14.998000 0.000000
-14.947500 0.000000
-14.897000 0.000000
-14.846500 0.000000
-14.796000 0.000000
-14.745500 0.000000
-14.695000 0.000000
-14.644500 0.000000
-14.594000 0.000000
-14.543600 0.000000
-14.493100 0.000000
-14.442600 0.000000
-14.392100 0.000000
-14.341600 0.000000
-14.291100 0.000000
-14.240600 0.000000
-14.190100 0.000000
-14.139600 0.000000
-14.089100 0.000000
-14.038700 0.000000
-13.988200 0.000000
-13.937700 0.000000
-13.887200 0.000000
-13.836700 0.000000
-13.786200 0.000000
-13.735700 0.000000
-13.685200 0.000000
-13.634700 0.000000
-13.584300 0.000000
-13.533800 0.000000
-13.483300 0.000000
-13.432800 0.000000
-13.382300 0.000000
-13.331800 0.000000
-13.281300 0.000000
-13.230800 0.000000
-13.180300 0.000000
-13.129900 0.000000
-13.079400 0.000000
-13.028900 0.000000
-12.978400 0.000000
-12.927900 0.000000
-12.877400 0.000000
-12.826900 0.000000
-12.776400 0.000000
-12.725900 0.000000
-12.675500 0.000000
-12.625000 0.000000
-12.574500 0.000000
-12.524000 0.000000
-12.473500 0.000000
-12.423000 0.000000
-12.372500 0.000000
-12.322000 0.000000
-12.271500 0.000000
-12.221000 0.000000
-12.170600 0.000000
-12.120100 0.000000
-12.069600 0.000000
-12.019100 0.000000
-11.968600 0.000000
-11.918100 0.000000
-11.867600 0.000000
-11.817100 0.000000
-11.766600 0.000000
-11.716200 0.000000
-11.665700 0.000000
-11.615200 0.000000
-11.564700 0.000000
-11.514200 0.000000
-11.463700 0.000000
-11.413200 0.000000
-11.362700 0.000000
-11.312200 0.000000
-11.261800 0.000000
-11.211300 0.000000
-11.160800 0.000000
-11.110300 0.000000
-11.059800 0.000000
-11.009300 0.000000
-10.958800 0.000000
-10.908300 0.000000
-10.857800 0.000000
-10.807400 0.000000
-10.756900 0.000000
-10.706400 0.000000
-10.655900 0.000000
-10.605400 0.000000
-10.554900 0.000000
-10.504400 0.000000
-10.453900 0.000000
-10.403400 0.000000
-10.352900 0.000000
-10.302500 0.000000
-10.252000 0.000000
-10.201500 0.000000
-10.151000 0.000000
-10.100500 0.000000
-10.050000 0.000000
-9.999500 0.000000
-9.949000 0.000000
-9.898500 0.000000
-9.848100 0.000000
-9.797600 0.000000
-9.747100 0.000000
-9.696600 0.000000
-9.646100 0.000000
-9.595600 0.000000
-9.545100 0.000000
-9.494600 0.000000
-9.444100 0.000000
-9.393700 0.000000
-9.343200 0.000000
-9.292700 0.000000
-9.242200 0.000000
-9.191700 0.000000
-9.141200 0.000000
-9.090700 0.000000
-9.040200 0.000000
-8.989700 0.000000
-8.939300 0.000000
-8.888800 0.000000
-8.838300 0.000000
-8.787800 0.000000
-8.737300 0.000000
-8.686800 0.000000
-8.636300 0.000000
-8.585800 0.000000
-8.535300 0.000000
-8.484800 0.000000
-8.434400 0.001900
-8.383900 0.361000
-8.333400 11.553500
-8.282900 69.276300
-8.232400 88.448400
-8.181900 26.521400
-8.131400 1.872300
-8.080900 0.027200
-8.030400 0.000100
-7.980000 0.000000
-7.929500 0.000000
-7.879000 0.000000
-7.828500 0.000000
-7.778000 0.000000
-7.727500 0.000000
-7.677000 0.000000
-7.626500 0.000000
-7.576000 0.000000
-7.525600 0.000000
-7.475100 0.000000
-7.424600 0.000000
-7.374100 0.000000
-7.323600 0.000000
-7.273100 0.000000
-7.222600 0.000000
-7.172100 0.000000
-7.121600 0.000000
-7.071200 0.000000
-7.020700 0.000000
-6.970200 0.000000
-6.919700 0.000000
-6.869200 0.000000
-6.818700 0.000000
-6.768200 0.000000
-6.717700 0.000000
-6.667200 0.000000
-6.616700 0.000000
-6.566300 0.000000
-6.515800 0.000000
-6.465300 0.000000
-6.414800 0.000000
-6.364300 0.000000
-6.313800 0.000000
-6.263300 0.000000
-6.212800 0.000000
-6.162300 0.000000
-6.111900 0.000000
-6.061400 0.000000
-6.010900 0.000000
-5.960400 0.000000
-5.909900 0.000000
-5.859400 0.000000
-5.808900 0.000000
-5.758400 0.000000
-5.707900 0.000000
-5.657500 0.000000
-5.607000 0.000000
-5.556500 0.000000
-5.506000 0.000000
-5.455500 0.000000
-5.405000 0.000000
-5.354500 0.000000
-5.304000 0.000000
-5.253500 0.000000
-5.203100 0.000000
-5.152600 0.000000
-5.102100 0.000000
-5.051600 0.000000
-5.001100 0.000000
-4.950600 0.000000
-4.900100 0.000000
-4.849600 0.000000
-4.799100 0.000000
-4.748600 0.000000
-4.698200 0.000000
-4.647700 0.000000
-4.597200 0.000000
-4.546700 0.000000
-4.496200 0.000000
-4.445700 0.000000
-4.395200 0.000000
-4.344700 0.000000
-4.294200 0.000000
-4.243800 0.000000
-4.193300 0.000000
-4.142800 0.000000
-4.092300 0.000000
-4.041800 0.000000
-3.991300 0.000000
-3.940800 0.000000
-3.890300 0.000000
-3.839800 0.000000
-3.789400 0.000000
-3.738900 0.000000
-3.688400 0.000000
-3.637900 0.000000
-3.587400 0.000000
-3.536900 0.000000
-3.486400 0.000000
-3.435900 0.000000
-3.385400 0.000000
-3.335000 0.000000
-3.284500 0.000000
-3.234000 0.000700
-3.183500 0.011000
-3.133000 0.040400
-3.082500 0.069700
-3.032000 0.140100
-2.981500 0.210000
-2.931000 0.079900
-2.880500 0.093300
-2.830100 0.263600
-2.779600 0.304600
-2.729100 0.319700
-2.678600 0.277700
-2.628100 0.087100
-2.577600 0.164200
-2.527100 0.343600
-2.476600 0.412200
-2.426100 0.593500
-2.375700 0.360100
-2.325200 0.149600
-2.274700 0.323700
-2.224200 0.486600
-2.173700 0.646400
-2.123200 0.309400
-2.072700 0.295600
-2.022200 0.662400
-1.971700 0.586500
-1.921300 0.558100
-1.870800 0.485400
-1.820300 0.675100
-1.769800 0.865200
-1.719300 0.905400
-1.668800 0.681500
-1.618300 0.437000
-1.567800 0.692800
-1.517300 1.151900
-1.466900 1.314000
-1.416400 1.179300
-1.365900 1.181100
-1.315400 1.320000
-1.264900 1.440800
-1.214400 1.755800
-1.163900 2.258100
-1.113400 3.447300
-1.062900 4.496200
-1.012400 3.944100
-0.962000 2.242900
-0.911500 0.994200
-0.861000 0.318700
-0.810500 0.035300
-0.760000 0.000800
-0.709500 0.000000
-0.659000 0.000000
-0.608500 0.000000
-0.558000 0.000000
-0.507600 0.000000
-0.457100 0.000000
-0.406600 0.000000
-0.356100 0.000000
-0.305600 0.000000
-0.255100 0.000000
-0.204600 0.000000
-0.154100 0.000000
-0.103600 0.000000
-0.053200 0.000000
-0.002700 0.000000
0.047800 0.000000
0.098300 0.000000
0.148800 0.000000
0.199300 0.000000
0.249800 0.001500
0.300300 0.018300
0.350800 0.083200
0.401200 0.228600
0.451700 0.314800
0.502200 0.366700
0.552700 0.418700
0.603200 0.528400
0.653700 0.745600
0.704200 0.835500
0.754700 1.235800
0.805200 1.539200
0.855700 2.273200
0.906100 3.258200
0.956600 3.450800
1.007100 2.706500
1.057600 3.236200
1.108100 3.758500
1.158600 3.073600
1.209100 2.285700
1.259600 2.191500
1.310100 2.035700
1.360500 1.896100
1.411000 1.868400
1.461500 2.062200
1.512000 2.191900
1.562500 2.828200
1.613000 4.525800
1.663500 5.180900
1.714000 4.946500
1.764500 5.169500
1.814900 5.746700
1.865400 6.301600
1.915900 6.339600
1.966400 6.571700
2.016900 7.525000
2.067400 8.011700
2.117900 8.297400
2.168400 8.117300
2.218900 7.707500
2.269300 7.830200
2.319800 7.210900
2.370300 6.868100
2.420800 5.995500
2.471300 5.799300
2.521800 5.761100
2.572300 5.361000
2.622800 4.869400
2.673300 4.326000
2.723800 4.538400
2.774200 4.590600
2.824700 4.390100
2.875200 5.027700
2.925700 4.918100
2.976200 3.906900
3.026700 3.788900
3.077200 4.222700
3.127700 3.657100
3.178200 4.049000
3.228600 4.952300
3.279100 4.830200
3.329600 5.329100
3.380100 5.536400
3.430600 6.195200
3.481100 6.948900
3.531600 7.080700
3.582100 6.559600
3.632600 5.961200
3.683000 5.200100
3.733500 4.881100
3.784000 5.896000
3.834500 6.072100
3.885000 5.195400
3.935500 5.247300
3.986000 5.249200
4.036500 4.641500
4.087000 4.236900
4.137400 4.060700
4.187900 4.194100
4.238400 4.586300
4.288900 4.874800
4.339400 5.039600
4.389900 5.229000
4.440400 4.799300
4.490900 4.288800
4.541400 4.055500
4.591900 3.517700
4.642300 3.090700
4.692800 3.523300
4.743300 4.824500
4.793800 6.826100
4.844300 7.667500
4.894800 6.087100
4.945300 5.402700
4.995800 5.788200
5.046300 6.544200
5.096700 6.783000
5.147200 5.811600
5.197700 5.241300
5.248200 6.019600
5.298700 8.482100
5.349200 8.733900
5.399700 6.734900
5.450200 6.854800
5.500700 8.276100
5.551100 9.071700
5.601600 8.284900
5.652100 6.023500
5.702600 5.524100
5.753100 5.442100
5.803600 3.966100
5.854100 3.454600
5.904600 3.144700
5.955100 3.112700
6.005500 2.753500
6.056000 2.781000
6.106500 2.898200
6.157000 2.401800
6.207500 2.152800
6.258000 2.610500
6.308500 3.516200
6.359000 2.726800
6.409500 2.492500
6.460000 3.933200
6.510400 4.733800
6.560900 5.599500
6.611400 6.707600
6.661900 5.788200
6.712400 5.123600
6.762900 5.097900
6.813400 4.757600
6.863900 4.864500
6.914400 3.675500
6.964800 3.157600
7.015300 2.776900
7.065800 2.706300
7.116300 2.249800
7.166800 1.908600
7.217300 1.785300
7.267800 2.204100
7.318300 2.018600
7.368800 1.555200
7.419200 1.156400
7.469700 1.163800
7.520200 1.110700
7.570700 0.901000
7.621200 0.962800
7.671700 0.939000
7.722200 1.080100
7.772700 0.949800
7.823200 1.014400
7.873600 1.135700
7.924100 1.367400
7.974600 1.214700
8.025100 0.873500
8.075600 1.008100
8.126100 1.342100
8.176600 1.377300
8.227100 1.228000
8.277600 1.211500
8.328000 1.393400
8.378500 1.288400
8.429000 1.274900
8.479500 1.450900
8.530000 1.464300
8.580500 1.927700
8.631000 1.686600
8.681500 1.309000
8.732000 1.712500
8.782500 1.342600
8.832900 1.619300
8.883400 1.762000
8.933900 1.192000
8.984400 0.926600
9.034900 0.909900
9.085400 1.237100
9.135900 1.689600
9.186400 1.849100
9.236900 1.518100
9.287300 1.675500
9.337800 2.220700
9.388300 1.704000
9.438800 1.108600
9.489300 1.078600
9.539800 1.061700
9.590300 1.091500
9.640800 1.176700
9.691300 0.797100
9.741700 0.686600
9.792200 0.820100
9.842700 0.834800
9.893200 0.950900
9.943700 0.665200
9.994200 0.581700
10.044700 0.745500
10.095200 0.801400
10.145700 0.735200
10.196100 0.887500
10.246600 0.967600
10.297100 0.786000
10.347600 0.939100
10.398100 1.169100
10.448600 1.156000
10.499100 0.700100
10.549600 0.824700
10.600100 1.176700
10.650600 1.179800
10.701000 0.926900
10.751500 1.292500
10.802000 1.337200
10.852500 1.482500
10.903000 1.623800
10.953500 1.433200
11.004000 1.288600
11.054500 1.129300
11.105000 1.609800
11.155400 1.895700
11.205900 1.659700
11.256400 1.138200
11.306900 0.679700
11.357400 0.633400
11.407900 0.646200
11.458400 0.845900
11.508900 1.222000
11.559400 1.418300
11.609800 1.387000
11.660300 1.322700
11.710800 1.174600
11.761300 1.038200
11.811800 1.239700
11.862300 1.177000
11.912800 0.894000
11.963300 0.995600
12.013800 0.711500
12.064200 0.701400
12.114700 0.769600
12.165200 0.467100
12.215700 0.702200
12.266200 0.789600
12.316700 0.365800
12.367200 0.282000
12.417700 0.465900
12.468200 0.728800
12.518700 0.675100
12.569100 0.547400
12.619600 0.682200
12.670100 0.979300
12.720600 0.816500
12.771100 0.499000
12.821600 0.585500
12.872100 1.006000
12.922600 0.905000
12.973100 0.900400
13.023500 1.003500
13.074000 1.111700
13.124500 1.549600
13.175000 2.163200
13.225500 2.146300
13.276000 1.473700
13.326500 1.464100
13.377000 1.501500
13.427500 1.202200
13.477900 1.178700
13.528400 1.016400
13.578900 0.567000
13.629400 1.075200
13.679900 1.301200
13.730400 0.994300
13.780900 1.287900
13.831400 1.402300
13.881900 1.728600
13.932300 1.610900
13.982800 2.064800
14.033300 2.147500
14.083800 1.464200
14.134300 1.403500
14.184800 1.601400
14.235300 1.217000
14.285800 0.841100
14.336300 0.978900
14.386800 1.036200
14.437200 0.995500
14.487700 1.004900
14.538200 0.995900
14.588700 1.348400
14.639200 1.430000
14.689700 1.582800
14.740200 1.782800
14.790700 1.842200
14.841200 1.574500
14.891600 1.159100
14.942100 0.949500
14.992600 1.055500
15.043100 1.338000
15.093600 1.490100
15.144100 1.105700
15.194600 1.177600
15.245100 1.128500
15.295600 1.134200
15.346000 1.107300
15.396500 1.594600
15.447000 1.620000
15.497500 1.433800
15.548000 1.731800
15.598500 1.812500
15.649000 1.940000
15.699500 1.871500
15.750000 1.643300
15.800400 1.658200
15.850900 1.620200
15.901400 1.508600
15.951900 1.610400
16.002400 1.896100
16.052900 2.364500
16.103400 2.671400
16.153900 2.399500
16.204400 2.549800
16.254900 2.552800
16.305300 1.516200
16.355800 1.115700
16.406300 1.327800
16.456800 1.417700
16.507300 1.285200
16.557800 1.431100
16.608300 1.195700
16.658800 1.617900
16.709300 2.178000
16.759700 1.733900
16.810200 1.726600
16.860700 2.077700
16.911200 2.218200
16.961700 2.262500
17.012200 2.083700
17.062700 2.080700
17.113200 1.795400
17.163700 1.301300
17.214100 1.673900
17.264600 2.162100
17.315100 1.493100
17.365600 1.060000
17.416100 1.360400
17.466600 1.804500
17.517100 1.625000
17.567600 1.327400
17.618100 1.681900
17.668500 2.124300
17.719000 2.042700
17.769500 2.074900
17.820000 2.414900
17.870500 2.137600
17.921000 1.829100
17.971500 1.644100
18.022000 1.543500
18.072500 1.633900
18.123000 1.505700
18.173400 1.565200
18.223900 1.744400
18.274400 1.851400
18.324900 1.545600
18.375400 2.144900
18.425900 2.387800
18.476400 1.325600
18.526900 0.893600
18.577400 1.137000
18.627800 1.380100
18.678300 1.588900
18.728800 1.648400
18.779300 1.457100
18.829800 1.848200
18.880300 2.336400
18.930800 2.264800
18.981300 2.147800
19.031800 1.905900
19.082200 1.695400
19.132700 1.211000
19.183200 1.141300
19.233700 1.925100
19.284200 2.192500
19.334700 1.815000
19.385200 2.062000
19.435700 2.096400
19.486200 1.964400
19.536600 2.503900
19.587100 2.448900
19.637600 1.712000
19.688100 1.460200
19.738600 1.534300
19.789100 2.207200
19.839600 2.233100
19.890100 2.140300
19.940600 2.496800
19.991100 2.220900
20.041500 1.953900
20.092000 1.869300
20.142500 1.968200
20.193000 2.016500
20.243500 1.975300
20.294000 2.034300
20.344500 1.713500
20.395000 1.590300
20.445500 1.149300
20.495900 1.089400
20.546400 1.261600
20.596900 1.151400
20.647400 1.555300
20.697900 1.732800
20.748400 1.783300
20.798900 1.853100
20.849400 1.553700
20.899900 1.049500
20.950300 1.698100
21.000800 2.577700
21.051300 2.292100
21.101800 2.115600
21.152300 1.295500
21.202800 1.173400
21.253300 1.766900
21.303800 1.775100
21.354300 1.828100
21.404700 1.961500
21.455200 2.295900
21.505700 2.097100
21.556200 1.487400
21.606700 1.811300
21.657200 2.422400
21.707700 2.189800
21.758200 1.842400
21.808700 1.997700
21.859200 1.733800
21.909600 1.560100
21.960100 1.561300
22.010600 2.034000
22.061100 2.720500
22.111600 2.016200
22.162100 1.351500
22.212600 1.451700
22.263100 1.514700
22.313600 1.828200
22.364000 2.382700
22.414500 2.394600
22.465000 1.865700
22.515500 1.482800
22.566000 1.819100
22.616500 1.543200
22.667000 0.781600
22.717500 1.049800
22.768000 1.610600
22.818400 2.375300
22.868900 3.083100
22.919400 2.203800
22.969900 1.692700
23.020400 1.774000
23.070900 1.899100
23.121400 2.074400
23.171900 2.185200
23.222400 1.904500
23.272800 2.259200
23.323300 3.000500
23.373800 3.306400
23.424300 3.276700
23.474800 2.185300
23.525300 1.506700
23.575800 1.839600
23.626300 2.685500
23.676800 2.782700
23.727300 2.295000
23.777700 2.585500
23.828200 2.697300
23.878700 2.159300
23.929200 1.406400
23.979700 1.420900
24.030200 1.642300
24.080700 1.323000
24.131200 1.354500
24.181700 1.498800
24.232100 1.406000
24.282600 1.501200
24.333100 1.498700
24.383600 1.312800
24.434100 1.529800
24.484600 2.036700
24.535100 1.695700
24.585600 1.317700
24.636100 1.051200
24.686500 1.575100
24.737000 2.161600
24.787500 2.424900
24.838000 3.004900
24.888500 3.105100
24.939000 2.392400
24.989500 1.529600
25.040000 1.430700
25.090500 1.501200
25.140900 1.800300
25.191400 1.627500
25.241900 1.736500
25.292400 2.766100
25.342900 2.841000
25.393400 2.676400
25.443900 2.799200
25.494400 2.981200
25.544900 2.501000
25.595400 2.114400
25.645800 2.221300
25.696300 2.149500
25.746800 2.179800
25.797300 2.271400
25.847800 2.085700
25.898300 1.450300
25.948800 0.917100
25.999300 1.839200
26.049800 2.731700
26.100200 3.206900
26.150700 3.233000
26.201200 2.739800
26.251700 2.911800
26.302200 3.040900
26.352700 2.651600
26.403200 2.241900
26.453700 2.336100
26.504200 2.433300
26.554600 2.164200
26.605100 1.595400
26.655600 1.494500
26.706100 2.103400
26.756600 3.261600
26.807100 2.830800
26.857600 1.590900
26.908100 1.660700
26.958600 1.829200
27.009000 2.163700
27.059500 2.018900
27.110000 1.484800
27.160500 1.442400
27.211000 2.075400
27.261500 2.615900
27.312000 2.917900
27.362500 2.794900
27.413000 2.281800
27.463500 2.510900
27.513900 2.414200
27.564400 2.046500
27.614900 1.867900
27.665400 1.716700
27.715900 1.886800
27.766400 2.468800
27.816900 2.394100
27.867400 2.237800
27.917900 2.493800
27.968300 3.090400
28.018800 3.569400
28.069300 2.715500
28.119800 2.189300
28.170300 2.210000
28.220800 2.466400
28.271300 2.379900
28.321800 2.027900
28.372300 2.316900
28.422700 2.716200
28.473200 2.542200
28.523700 2.183700
28.574200 1.970500
28.624700 2.043500
28.675200 2.806700
28.725700 2.664000
28.776200 1.556400
28.826700 1.320700
28.877100 1.467400
28.927600 1.523400
28.978100 1.712900
29.028600 1.719200
29.079100 1.664700
29.129600 1.628500
29.180100 1.643800
29.230600 1.967800
29.281100 1.720900
29.331600 1.750900
29.382000 1.508200
29.432500 1.323600
29.483000 1.566800
29.533500 1.840700
29.584000 2.171800
29.634500 2.272300
29.685000 1.814000
29.735500 1.274300
29.786000 1.484700
29.836400 1.757600
29.886900 1.733000
29.937400 2.048600
29.987900 2.611000
30.038400 2.485300
30.088900 1.749000
30.139400 1.384700
30.189900 2.090300
30.240400 2.189200
30.290800 1.649900
30.341300 1.167700
30.391800 0.843600
30.442300 0.974100
30.492800 0.992900
30.543300 1.609100
30.593800 1.646100
30.644300 1.118100
30.694800 1.331900
30.745200 1.873100
30.795700 1.800400
30.846200 1.832200
30.896700 2.429800
30.947200 3.045000
30.997700 2.689000
31.048200 3.192400
31.098700 6.789600
31.149200 17.182600
31.199700 16.627200
31.250100 6.197200
31.300600 3.198300
31.351100 5.993400
31.401600 22.367000
31.452100 35.229100
31.502600 17.072300
31.553100 5.642500
31.603600 3.417800
31.654100 2.796600
31.704500 2.181000
31.755000 1.916400
31.805500 1.602800
31.856000 2.187500
31.906500 3.147800
31.957000 3.466000
32.007500 3.059800
32.058000 2.615400
32.108500 1.895100
32.158900 1.689300
32.209400 2.265700
32.259900 2.754100
32.310400 2.077700
32.360900 1.458900
32.411400 1.537600
32.461900 1.620000
32.512400 1.723700
32.562900 1.777900
32.613300 1.516600
32.663800 1.408000
32.714300 1.817000
32.764800 2.207600
32.815300 2.331400
32.865800 2.188000
32.916300 1.708200
32.966800 1.770900
33.017300 2.073200
33.067800 2.642400
33.118200 3.092700
33.168700 3.594400
33.219200 3.946700
33.269700 2.986700
33.320200 2.458100
33.370700 3.007000
33.421200 2.802200
33.471700 2.592700
33.522200 1.863800
33.572600 1.956100
33.623100 3.256000
33.673600 3.055500
33.724100 2.543200
33.774600 2.783500
33.825100 2.875800
33.875600 2.666100
33.926100 3.449100
33.976600 3.821400
34.027000 3.588400
34.077500 3.608200
34.128000 2.401400
34.178500 1.596200
34.229000 2.117900
34.279500 2.533000
34.330000 1.883300
34.380500 2.534100
34.431000 3.254300
34.481400 2.947700
34.531900 2.433600
34.582400 1.862600
34.632900 1.742500
34.683400 2.273000
34.733900 2.749400
34.784400 1.976800
34.834900 2.237300
34.885400 2.062600
34.935900 2.099700
34.986300 2.412600
35.036800 2.696800
35.087300 2.792800
35.137800 2.950000
35.188300 2.586300
35.238800 2.612500
35.289300 2.871100
35.339800 3.118900
35.390300 3.282100
35.440700 2.818100
35.491200 2.543900
35.541700 2.589700
35.592200 2.582500
35.642700 2.935700
35.693200 3.016200
35.743700 3.159400
35.794200 3.168100
35.844700 2.952800
35.895100 2.735600
35.945600 2.642300
35.996100 2.903200
36.046600 3.234400
36.097100 3.266000
36.147600 2.473100
36.198100 1.714500
36.248600 1.771500
36.299100 2.117900
36.349500 2.140300
36.400000 2.095900
36.450500 2.317000
36.501000 3.171300
36.551500 3.691500
36.602000 3.684200
36.652500 3.093100
36.703000 2.913900
36.753500 3.038900
36.804000 3.149500
36.854400 2.740100
36.904900 2.430400
36.955400 2.764200
37.005900 2.659600
37.056400 2.739400
37.106900 3.709700
37.157400 3.534700
37.207900 3.405900
37.258400 2.967600
37.308800 1.963300
37.359300 1.805000
37.409800 2.655800
37.460300 2.720200
37.510800 2.160700
37.561300 1.859900
37.611800 2.343400
37.662300 3.004300
37.712800 2.957400
37.763200 2.862900
37.813700 2.796700
37.864200 3.172000
37.914700 3.481300
37.965200 3.423800
38.015700 3.187100
38.066200 2.385000
38.116700 1.726100
38.167200 1.615600
38.217600 1.722000
38.268100 1.914200
38.318600 2.178400
38.369100 2.663500
38.419600 2.705700
38.470100 2.774500
38.520600 3.255100
38.571100 3.042700
38.621600 1.804600
38.672100 1.978000
38.722500 2.747800
38.773000 3.645400
38.823500 3.970200
38.874000 3.301100
38.924500 2.635700
38.975000 2.962900
39.025500 2.851500
39.076000 2.151400
39.126500 2.400600
39.176900 2.514800
39.227400 2.472300
39.277900 2.103300
39.328400 1.974500
39.378900 2.081100
39.429400 2.510800
39.479900 3.675000
39.530400 4.066200
39.580900 2.983700
39.631300 2.361300
39.681800 2.622300
39.732300 2.713900
39.782800 2.477000
39.833300 2.790200
39.883800 3.291300
39.934300 3.174300
39.984800 2.649000
40.035300 2.958200
40.085700 3.166600
40.136200 2.672100
40.186700 2.209500
40.237200 2.042600
40.287700 2.311100
40.338200 2.746800
40.388700 2.665900
40.439200 1.990800
40.489700 1.537200
40.540200 2.332200
40.590600 2.936000
40.641100 2.902900
40.691600 2.079100
40.742100 2.015900
40.792600 2.466700
40.843100 2.421800
40.893600 2.453600
40.944100 2.250700
40.994600 1.743900
41.045000 1.689800
41.095500 2.307900
41.146000 2.381900
41.196500 2.676600
41.247000 2.510500
41.297500 2.227900
41.348000 1.847200
41.398500 1.714500
41.449000 1.922100
41.499400 2.272100
41.549900 2.488900
41.600400 2.153700
41.650900 2.052000
41.701400 2.373100
41.751900 2.670000
41.802400 2.530600
41.852900 2.522900
41.903400 2.564800
41.953800 2.222000
42.004300 2.337700
42.054800 2.643600
42.105300 2.845200
42.155800 2.808400
42.206300 2.782100
42.256800 2.722500
42.307300 2.731900
42.357800 2.672500
42.408300 2.158600
42.458700 2.368000
42.509200 2.865400
42.559700 2.649500
42.610200 2.315700
42.660700 2.178700
42.711200 2.400000
42.761700 2.416500
42.812200 2.067000
42.862700 2.175000
42.913100 2.614600
42.963600 2.440100
43.014100 2.440100
43.064600 2.385400
43.115100 2.077700
43.165600 2.228500
43.216100 1.994500
43.266600 2.312800
43.317100 3.428600
43.367500 3.414900
43.418000 2.671200
43.468500 2.681500
43.519000 2.850000
43.569500 2.993000
43.620000 2.714000
43.670500 2.446900
43.721000 2.648800
43.771500 2.801100
43.821900 3.188200
43.872400 3.128000
43.922900 3.224300
43.973400 3.673900
44.023900 3.180600
44.074400 2.388800
44.124900 2.374000
44.175400 2.508800
44.225900 3.220300
44.276400 3.418500
44.326800 2.963800
44.377300 2.747300
44.427800 2.949400
44.478300 2.957100
44.528800 3.415400
44.579300 3.920000
44.629800 3.281300
44.680300 2.640000
44.730800 2.745300
44.781200 3.303300
44.831700 3.552500
44.882200 3.247800
44.932700 3.217500
44.983200 3.390400
45.033700 3.429900
45.084200 3.420800
45.134700 2.624700
45.185200 2.520400
45.235600 3.566000
45.286100 3.305300
45.336600 2.133300
45.387100 2.592500
45.437600 2.963900
45.488100 3.079700
45.538600 2.902300
45.589100 3.201800
45.639600 3.233600
45.690000 2.904400
45.740500 2.509300
45.791000 3.144500
45.841500 3.523500
45.892000 3.894300
45.942500 3.920300
45.993000 3.648800
46.043500 3.342700
46.094000 2.974100
46.144500 2.892200
46.194900 3.017100
46.245400 3.444900
46.295900 4.084500
46.346400 3.276100
46.396900 2.773800
46.447400 2.304500
46.497900 2.425800
46.548400 2.236300
46.598900 2.580600
46.649300 3.649600
46.699800 3.773000
46.750300 3.206200
46.800800 2.252700
46.851300 2.234000
46.901800 3.238500
46.952300 3.824900
47.002800 3.501600
47.053300 3.302100
47.103700 2.651500
47.154200 2.641900
47.204700 3.236200
47.255200 3.772900
47.305700 3.068500
47.356200 2.363600
47.406700 2.297300
47.457200 2.902800
47.507700 2.582000
47.558100 2.913100
47.608600 3.084500
47.659100 3.025800
47.709600 3.603200
47.760100 3.152300
47.810600 2.847100
47.861100 3.307900
47.911600 3.830200
47.962100 3.788900
48.012600 2.827700
48.063000 2.369300
48.113500 2.316300
48.164000 2.183200
48.214500 2.509500
48.265000 2.736500
48.315500 2.608200
48.366000 2.411400
48.416500 2.357300
48.467000 2.643600
48.517400 2.868200
48.567900 2.941100
48.618400 2.521400
48.668900 2.167900
48.719400 2.342300
48.769900 2.522500
48.820400 2.637200
48.870900 2.742400
48.921400 3.133300
48.971800 3.631200
49.022300 3.565400
49.072800 2.707100
49.123300 2.486300
49.173800 2.057500
49.224300 1.870400
49.274800 2.876500
49.325300 3.497300
49.375800 3.209200
49.426200 2.951100
49.476700 2.838700
49.527200 2.957800
49.577700 2.598900
49.628200 1.842400
49.678700 1.606900
49.729200 1.905600
49.779700 2.252100
49.830200 2.495200
49.880700 2.634100
49.931100 3.248600
49.981600 3.529000
50.032100 2.730000
50.082600 1.989400
50.133100 2.612500
50.183600 2.893100
50.234100 2.417900
50.284600 2.316900
50.335100 2.197700
50.385500 1.743000
50.436000 1.853300
50.486500 2.290700
50.537000 2.186200
50.587500 1.997000
50.638000 1.432900
50.688500 1.145800
50.739000 1.052100
50.789500 1.474200
50.839900 1.543600
50.890400 1.427600
50.940900 1.272200
50.991400 0.849300
51.041900 0.608500
51.092400 0.511700
51.142900 0.278700
51.193400 0.322300
51.243900 0.422900
51.294300 0.331300
51.344800 0.261700
51.395300 0.224000
51.445800 0.200200
51.496300 0.143800
51.546800 0.082700
51.597300 0.169000
51.647800 0.126100
51.698300 0.020500
51.748800 0.000600
51.799200 0.000000
51.849700 0.000000
51.900200 0.000000
51.950700 0.000000
52.001200 0.000000
52.051700 0.000000
52.102200 0.000000
52.152700 0.000000
52.203200 0.000000
52.253600 0.000000
52.304100 0.000000
52.354600 0.000000
52.405100 0.000000
52.455600 0.000000
52.506100 0.000000
52.556600 0.000000
52.607100 0.000000
52.657600 0.000000
52.708000 0.000000
52.758500 0.000000
52.809000 0.000000
52.859500 0.000000
52.910000 0.000000
52.960500 0.000000
53.011000 0.000000
53.061500 0.000000
53.112000 0.000000
53.162400 0.000000
53.212900 0.000000
53.263400 0.000000
53.313900 0.000000
53.364400 0.000000
53.414900 0.000000
53.465400 0.000000
53.515900 0.000000
53.566400 0.000000
53.616900 0.000000
53.667300 0.000000
53.717800 0.000000
53.768300 0.000000
53.818800 0.000000
53.869300 0.000000
53.919800 0.000000
53.970300 0.000000
54.020800 0.000000
54.071300 0.000000
54.121700 0.000000
54.172200 0.000000
54.222700 0.000000
54.273200 0.000000
54.323700 0.000000
54.374200 0.000000
54.424700 0.000000
54.475200 0.000000
54.525700 0.000000
54.576100 0.000000
54.626600 0.000000
54.677100 0.000000
54.727600 0.000000
54.778100 0.000000
54.828600 0.000000
54.879100 0.000000
54.929600 0.000000
54.980100 0.000000
55.030500 0.000000
55.081000 0.000000
55.131500 0.000000
55.182000 0.000000
55.232500 0.000000
55.283000 0.000000
55.333500 0.000000
55.384000 0.000000
55.434500 0.000000
55.484900 0.000000
55.535400 0.000000
55.585900 0.000000
55.636400 0.000000
55.686900 0.000000
55.737400 0.000000
55.787900 0.000000
55.838400 0.000000
55.888900 0.000000
55.939400 0.000000
55.989800 0.000000
56.040300 0.000000
56.090800 0.000000
56.141300 0.000000
56.191800 0.000000
e
