set title 'mp-1187756 - Density of States'
set xlabel 'Energy (eV)'
set ylabel 'DOS (states/eV)'
set grid
set xrange [-10:10]
set yrange [0:68.090]
set xzeroaxis lt -1
set terminal png size 800,600
set output 'mp-1187756_dos_gnuplot.png'
plot '-' using 1:2 with lines title 'DOS'
-34.492500 0.000000
-34.457900 0.000000
-34.423400 0.000000
-34.388800 0.000000
-34.354200 0.000000
-34.319700 0.000000
-34.285100 0.000000
-34.250500 0.000000
-34.216000 0.000000
-34.181400 0.000000
-34.146800 0.000000
-34.112200 0.000000
-34.077700 0.000000
-34.043100 0.000000
-34.008500 0.000000
-33.974000 0.000000
-33.939400 0.000000
-33.904800 0.000000
-33.870300 0.000000
-33.835700 0.000000
-33.801100 0.000000
-33.766600 0.000000
-33.732000 0.000000
-33.697400 0.000000
-33.662800 0.000000
-33.628300 0.000000
-33.593700 0.000000
-33.559100 0.000000
-33.524600 0.000000
-33.490000 0.000000
-33.455400 0.000000
-33.420900 0.000000
-33.386300 0.000000
-33.351700 0.000000
-33.317100 0.000000
-33.282600 0.000000
-33.248000 0.000000
-33.213400 0.000000
-33.178900 0.000000
-33.144300 0.000000
-33.109700 0.000000
-33.075200 0.000000
-33.040600 0.000000
-33.006000 0.000000
-32.971500 0.000000
-32.936900 0.000000
-32.902300 0.000000
-32.867700 0.000000
-32.833200 0.000000
-32.798600 0.000000
-32.764000 0.000000
-32.729500 0.000000
-32.694900 0.000000
-32.660300 0.000000
-32.625800 0.000000
-32.591200 0.000000
-32.556600 0.000000
-32.522000 0.000000
-32.487500 0.000000
-32.452900 0.000000
-32.418300 0.000000
-32.383800 0.000000
-32.349200 0.000000
-32.314600 0.000000
-32.280100 0.000000
-32.245500 0.000000
-32.210900 0.000000
-32.176400 0.000000
-32.141800 0.000000
-32.107200 0.000000
-32.072600 0.000000
-32.038100 0.000000
-32.003500 0.000000
-31.968900 0.000000
-31.934400 0.000000
-31.899800 0.000000
-31.865200 0.000000
-31.830700 0.000000
-31.796100 0.000000
-31.761500 0.000000
-31.726900 0.000000
-31.692400 0.000000
-31.657800 0.000000
-31.623200 0.000000
-31.588700 0.000000
-31.554100 0.000000
-31.519500 0.000000
-31.485000 0.000000
-31.450400 0.000000
-31.415800 0.000000
-31.381300 0.000000
-31.346700 0.018700
-31.312100 0.869700
-31.277500 1.382200
-31.243000 1.787300
-31.208400 2.207400
-31.173800 2.588000
-31.139300 3.059500
-31.104700 3.551600
-31.070100 4.199900
-31.035600 5.195400
-31.001000 6.119500
-30.966400 7.145000
-30.931800 6.667800
-30.897300 5.230000
-30.862700 3.598800
-30.828100 2.467100
-30.793600 5.147300
-30.759000 24.744600
-30.724400 9.917900
-30.689900 9.015200
-30.655300 9.406400
-30.620700 9.288200
-30.586200 10.911600
-30.551600 16.772500
-30.517000 16.353200
-30.482400 7.073700
-30.447900 4.433500
-30.413300 2.738700
-30.378700 0.574700
-30.344200 0.000000
-30.309600 0.000000
-30.275000 0.000000
-30.240500 0.000000
-30.205900 0.000000
-30.171300 0.000000
-30.136700 0.000000
-30.102200 0.000000
-30.067600 0.000000
-30.033000 0.000000
-29.998500 0.000000
-29.963900 0.000000
-29.929300 0.000000
-29.894800 0.000000
-29.860200 0.000000
-29.825600 0.000000
-29.791000 0.000000
-29.756500 0.000000
-29.721900 0.000000
-29.687300 0.000000
-29.652800 0.000000
-29.618200 0.000000
-29.583600 0.000000
-29.549100 0.000000
-29.514500 0.000000
-29.479900 0.000000
-29.445400 0.000000
-29.410800 0.000000
-29.376200 0.000000
-29.341600 0.000000
-29.307100 0.000000
-29.272500 0.000000
-29.237900 0.000000
-29.203400 0.000000
-29.168800 0.000000
-29.134200 0.000000
-29.099700 0.000000
-29.065100 0.000000
-29.030500 0.000000
-28.995900 0.000000
-28.961400 0.000000
-28.926800 0.000000
-28.892200 0.000000
-28.857700 0.000000
-28.823100 0.000000
-28.788500 0.000000
-28.754000 0.000000
-28.719400 0.000000
-28.684800 0.000000
-28.650300 0.000000
-28.615700 0.000000
-28.581100 0.000000
-28.546500 0.000000
-28.512000 0.000000
-28.477400 0.000000
-28.442800 0.000000
-28.408300 0.000000
-28.373700 0.000000
-28.339100 0.000000
-28.304600 0.000000
-28.270000 0.000000
-28.235400 0.000000
-28.200800 0.000000
-28.166300 0.000000
-28.131700 0.000000
-28.097100 0.000000
-28.062600 0.000000
-28.028000 0.000000
-27.993400 0.000000
-27.958900 0.000000
-27.924300 0.000000
-27.889700 0.000000
-27.855200 0.000000
-27.820600 0.000000
-27.786000 0.000000
-27.751400 0.000000
-27.716900 0.000000
-27.682300 0.000000
-27.647700 0.000000
-27.613200 0.000000
-27.578600 0.000000
-27.544000 0.000000
-27.509500 0.000000
-27.474900 0.000000
-27.440300 0.000000
-27.405700 0.000000
-27.371200 0.000000
-27.336600 0.000000
-27.302000 0.000000
-27.267500 0.000000
-27.232900 0.000000
-27.198300 0.000000
-27.163800 0.000000
-27.129200 0.000000
-27.094600 0.000000
-27.060100 0.000000
-27.025500 0.000000
-26.990900 0.000000
-26.956300 0.000000
-26.921800 0.000000
-26.887200 0.000000
-26.852600 0.000000
-26.818100 0.000000
-26.783500 0.000000
-26.748900 0.000000
-26.714400 0.000000
-26.679800 0.000000
-26.645200 0.000000
-26.610600 0.000000
-26.576100 0.000000
-26.541500 0.000000
-26.506900 0.000000
-26.472400 0.000000
-26.437800 0.000000
-26.403200 0.000000
-26.368700 0.000000
-26.334100 0.000000
-26.299500 0.000000
-26.265000 0.000000
-26.230400 0.000000
-26.195800 0.000000
-26.161200 0.000000
-26.126700 0.000000
-26.092100 0.000000
-26.057500 0.000000
-26.023000 0.000000
-25.988400 0.000000
-25.953800 0.000000
-25.919300 0.000000
-25.884700 0.000000
-25.850100 0.000000
-25.815500 0.000000
-25.781000 0.000000
-25.746400 0.000000
-25.711800 0.000000
-25.677300 0.000000
-25.642700 0.000000
-25.608100 0.000000
-25.573600 0.000000
-25.539000 0.000000
-25.504400 0.000000
-25.469900 0.000000
-25.435300 0.000000
-25.400700 0.000000
-25.366100 0.000000
-25.331600 0.000000
-25.297000 0.000000
-25.262400 0.000000
-25.227900 0.000000
-25.193300 0.000000
-25.158700 0.000000
-25.124200 0.000000
-25.089600 0.000000
-25.055000 0.000000
-25.020400 0.000000
-24.985900 0.000000
-24.951300 0.000000
-24.916700 0.000000
-24.882200 0.000000
-24.847600 0.000000
-24.813000 0.000000
-24.778500 0.000000
-24.743900 0.000000
-24.709300 0.000000
-24.674800 0.000000
-24.640200 0.000000
-24.605600 0.000000
-24.571000 0.000000
-24.536500 0.000000
-24.501900 0.000000
-24.467300 0.000000
-24.432800 0.000000
-24.398200 0.000000
-24.363600 0.000000
-24.329100 0.000000
-24.294500 0.000000
-24.259900 0.000000
-24.225300 0.000000
-24.190800 0.000000
-24.156200 0.000000
-24.121600 0.000000
-24.087100 0.000000
-24.052500 0.000000
-24.017900 0.000000
-23.983400 0.000000
-23.948800 0.000000
-23.914200 0.000000
-23.879700 0.000000
-23.845100 0.000000
-23.810500 0.000000
-23.775900 0.000000
-23.741400 0.000000
-23.706800 0.000000
-23.672200 0.000000
-23.637700 0.000000
-23.603100 0.000000
-23.568500 0.000000
-23.534000 0.000000
-23.499400 0.000000
-23.464800 0.000000
-23.430200 0.000000
-23.395700 0.000000
-23.361100 0.000000
-23.326500 0.000000
-23.292000 0.000000
-23.257400 0.000000
-23.222800 0.000000
-23.188300 0.000000
-23.153700 0.000000
-23.119100 0.000000
-23.084600 0.000000
-23.050000 0.000000
-23.015400 0.000000
-22.980800 0.000000
-22.946300 0.000000
-22.911700 0.000000
-22.877100 0.000000
-22.842600 0.000000
-22.808000 0.000000
-22.773400 0.000000
-22.738900 0.000000
-22.704300 0.000000
-22.669700 0.000000
-22.635100 0.000000
-22.600600 0.000000
-22.566000 0.000000
-22.531400 0.000000
-22.496900 0.000000
-22.462300 0.000000
-22.427700 0.000000
-22.393200 0.000000
-22.358600 0.000000
-22.324000 0.000000
-22.289400 0.000000
-22.254900 0.000000
-22.220300 0.000000
-22.185700 0.000000
-22.151200 0.000000
-22.116600 0.000000
-22.082000 0.000000
-22.047500 0.000000
-22.012900 0.000000
-21.978300 0.000000
-21.943800 0.000000
-21.909200 0.000000
-21.874600 0.000000
-21.840000 0.000000
-21.805500 0.000000
-21.770900 0.000000
-21.736300 0.000000
-21.701800 0.000000
-21.667200 0.000000
-21.632600 0.000000
-21.598100 0.000000
-21.563500 0.000000
-21.528900 0.000000
-21.494300 0.000000
-21.459800 0.000000
-21.425200 0.000000
-21.390600 0.000000
-21.356100 0.000000
-21.321500 0.000000
-21.286900 0.000000
-21.252400 0.000000
-21.217800 0.000000
-21.183200 0.000000
-21.148700 0.000000
-21.114100 0.000000
-21.079500 0.000000
-21.044900 0.000000
-21.010400 0.000000
-20.975800 0.000000
-20.941200 0.000000
-20.906700 0.000000
-20.872100 0.000000
-20.837500 0.000000
-20.803000 0.000000
-20.768400 0.000000
-20.733800 0.000000
-20.699200 0.000000
-20.664700 0.000000
-20.630100 0.000000
-20.595500 0.000000
-20.561000 0.000000
-20.526400 0.000000
-20.491800 0.000000
-20.457300 0.000000
-20.422700 0.000000
-20.388100 0.000000
-20.353600 0.000000
-20.319000 0.000000
-20.284400 0.000000
-20.249800 0.000000
-20.215300 0.000000
-20.180700 0.000000
-20.146100 0.000000
-20.111600 0.000000
-20.077000 0.000000
-20.042400 0.000000
-20.007900 0.000000
-19.973300 0.000000
-19.938700 0.000000
-19.904100 0.000000
-19.869600 0.000000
-19.835000 0.000000
-19.800400 0.000000
-19.765900 0.000000
-19.731300 0.000000
-19.696700 0.000000
-19.662200 0.000000
-19.627600 0.000000
-19.593000 0.000000
-19.558500 0.000000
-19.523900 0.000000
-19.489300 0.000000
-19.454700 0.000000
-19.420200 0.000000
-19.385600 0.000000
-19.351000 0.000000
-19.316500 0.000000
-19.281900 0.000000
-19.247300 0.000000
-19.212800 0.000000
-19.178200 0.000000
-19.143600 0.000000
-19.109000 0.000000
-19.074500 0.000000
-19.039900 0.000000
-19.005300 0.000000
-18.970800 0.000000
-18.936200 0.000000
-18.901600 0.000000
-18.867100 0.000000
-18.832500 0.000000
-18.797900 0.000000
-18.763400 0.000000
-18.728800 0.000000
-18.694200 0.000000
-18.659600 0.000000
-18.625100 0.000000
-18.590500 0.000000
-18.555900 0.000000
-18.521400 0.000000
-18.486800 0.000000
-18.452200 0.000000
-18.417700 0.000000
-18.383100 0.000000
-18.348500 0.000000
-18.313900 0.000000
-18.279400 0.000000
-18.244800 0.000000
-18.210200 0.000000
-18.175700 0.000000
-18.141100 0.000000
-18.106500 0.000000
-18.072000 0.000000
-18.037400 0.000000
-18.002800 0.000000
-17.968300 0.000000
-17.933700 0.000000
-17.899100 0.000000
-17.864500 0.000000
-17.830000 0.000000
-17.795400 0.000000
-17.760800 0.000000
-17.726300 0.000000
-17.691700 0.000000
-17.657100 0.000000
-17.622600 0.000000
-17.588000 0.000000
-17.553400 0.000000
-17.518800 0.000000
-17.484300 0.000000
-17.449700 0.000000
-17.415100 0.000000
-17.380600 0.000000
-17.346000 0.000000
-17.311400 0.000000
-17.276900 0.000000
-17.242300 0.000000
-17.207700 0.000000
-17.173200 0.000000
-17.138600 0.000000
-17.104000 0.000000
-17.069400 0.000000
-17.034900 0.000000
-17.000300 0.000000
-16.965700 0.000000
-16.931200 0.000000
-16.896600 0.000000
-16.862000 0.000000
-16.827500 0.000000
-16.792900 0.000000
-16.758300 0.000000
-16.723700 0.000000
-16.689200 0.000000
-16.654600 0.000000
-16.620000 0.000000
-16.585500 0.000000
-16.550900 0.000000
-16.516300 0.000000
-16.481800 0.000000
-16.447200 0.000000
-16.412600 0.000000
-16.378100 0.000000
-16.343500 0.000000
-16.308900 0.000000
-16.274300 0.000000
-16.239800 0.000000
-16.205200 0.000000
-16.170600 0.000000
-16.136100 0.000000
-16.101500 0.000000
-16.066900 0.000000
-16.032400 0.000000
-15.997800 0.000000
-15.963200 0.000000
-15.928600 0.000000
-15.894100 0.000000
-15.859500 0.000000
-15.824900 0.000000
-15.790400 0.000000
-15.755800 0.000000
-15.721200 0.000000
-15.686700 0.000000
-15.652100 0.000000
-15.617500 0.000000
-15.582900 0.000000
-15.548400 0.000000
-15.513800 0.000000
-15.479200 0.000000
-15.444700 0.000000
-15.410100 0.000000
-15.375500 0.000000
-15.341000 0.000000
-15.306400 0.000000
-15.271800 0.000000
-15.237300 0.000000
-15.202700 0.000000
-15.168100 0.000000
-15.133500 0.000000
-15.099000 0.000000
-15.064400 0.000000
-15.029800 0.000000
-14.995300 0.000000
-14.960700 0.000000
-14.926100 0.000000
-14.891600 0.000000
-14.857000 0.000000
-14.822400 0.000000
-14.787800 0.000000
-14.753300 0.000000
-14.718700 0.000000
-14.684100 0.000000
-14.649600 0.000000
-14.615000 0.000000
-14.580400 0.000000
-14.545900 0.000000
-14.511300 0.000000
-14.476700 0.000000
-14.442200 0.000000
-14.407600 0.000000
-14.373000 0.000000
-14.338400 0.000000
-14.303900 0.000000
-14.269300 0.000000
-14.234700 0.000000
-14.200200 0.000000
-14.165600 0.000000
-14.131000 0.000000
-14.096500 0.000000
-14.061900 0.000000
-14.027300 0.000000
-13.992700 0.000000
-13.958200 0.000000
-13.923600 0.000000
-13.889000 0.000000
-13.854500 0.000000
-13.819900 0.000000
-13.785300 0.000000
-13.750800 0.000000
-13.716200 0.000000
-13.681600 0.000000
-13.647100 0.000000
-13.612500 0.000000
-13.577900 0.000000
-13.543300 0.000000
-13.508800 0.000000
-13.474200 0.000000
-13.439600 0.000000
-13.405100 0.000000
-13.370500 0.000000
-13.335900 0.000000
-13.301400 0.000000
-13.266800 0.000000
-13.232200 0.000000
-13.197600 0.000000
-13.163100 0.000000
-13.128500 0.000000
-13.093900 0.000000
-13.059400 0.000000
-13.024800 0.000000
-12.990200 0.000000
-12.955700 0.000000
-12.921100 0.000000
-12.886500 0.000000
-12.852000 0.000000
-12.817400 0.000000
-12.782800 0.000000
-12.748200 0.000000
-12.713700 0.000000
-12.679100 0.000000
-12.644500 0.000000
-12.610000 0.000000
-12.575400 0.000000
-12.540800 0.000000
-12.506300 0.000000
-12.471700 0.000000
-12.437100 0.000000
-12.402500 0.000000
-12.368000 0.000000
-12.333400 0.000000
-12.298800 0.000000
-12.264300 0.000000
-12.229700 0.000000
-12.195100 0.000000
-12.160600 0.000000
-12.126000 0.000000
-12.091400 0.000000
-12.056900 0.000000
-12.022300 0.000000
-11.987700 0.000000
-11.953100 0.000000
-11.918600 0.000000
-11.884000 0.000000
-11.849400 0.000000
-11.814900 0.000000
-11.780300 0.000000
-11.745700 0.000000
-11.711200 0.000000
-11.676600 0.000000
-11.642000 0.000000
-11.607400 0.000000
-11.572900 0.000000
-11.538300 0.000000
-11.503700 0.000000
-11.469200 0.000000
-11.434600 0.000000
-11.400000 0.000000
-11.365500 0.000000
-11.330900 0.000000
-11.296300 0.000000
-11.261800 0.000000
-11.227200 0.000000
-11.192600 0.000000
-11.158000 0.000000
-11.123500 0.000000
-11.088900 0.000000
-11.054300 0.000000
-11.019800 0.000000
-10.985200 0.000000
-10.950600 0.000000
-10.916100 0.000000
-10.881500 0.000000
-10.846900 0.000000
-10.812300 0.000000
-10.777800 0.000000
-10.743200 0.000000
-10.708600 0.000000
-10.674100 0.000000
-10.639500 0.000000
-10.604900 0.000000
-10.570400 0.000000
-10.535800 0.000000
-10.501200 0.000000
-10.466700 0.000000
-10.432100 0.000000
-10.397500 0.000000
-10.362900 0.000000
-10.328400 0.000000
-10.293800 0.000000
-10.259200 0.000000
-10.224700 0.000000
-10.190100 0.000000
-10.155500 0.000000
-10.121000 0.000000
-10.086400 0.000000
-10.051800 0.000000
-10.017200 0.000000
-9.982700 0.000000
-9.948100 0.000000
-9.913500 0.000000
-9.879000 0.000000
-9.844400 0.000000
-9.809800 0.000000
-9.775300 0.000000
-9.740700 0.000000
-9.706100 0.000000
-9.671600 0.000000
-9.637000 0.000000
-9.602400 0.000000
-9.567800 0.000000
-9.533300 0.000000
-9.498700 0.000000
-9.464100 0.000000
-9.429600 0.000000
-9.395000 0.000000
-9.360400 0.000000
-9.325900 0.000000
-9.291300 0.000000
-9.256700 0.000000
-9.222100 0.000000
-9.187600 0.000000
-9.153000 0.911000
-9.118400 0.838100
-9.083900 1.022700
-9.049300 1.108100
-9.014700 1.008700
-8.980200 1.031500
-8.945600 1.099800
-8.911000 1.201800
-8.876500 1.209000
-8.841900 1.224400
-8.807300 1.254900
-8.772700 1.306900
-8.738200 1.375600
-8.703600 1.471100
-8.669000 1.562100
-8.634500 1.662100
-8.599900 1.796200
-8.565300 2.615300
-8.530800 3.045600
-8.496200 3.812300
-8.461600 4.370500
-8.427000 4.462400
-8.392500 4.328800
-8.357900 4.398200
-8.323300 4.659100
-8.288800 5.223900
-8.254200 4.595800
-8.219600 4.411800
-8.185100 4.187600
-8.150500 4.070000
-8.115900 3.879700
-8.081300 4.215500
-8.046800 4.747600
-8.012200 4.627800
-7.977600 4.682000
-7.943100 5.024100
-7.908500 5.196800
-7.873900 5.002500
-7.839400 5.216300
-7.804800 4.986400
-7.770200 4.515200
-7.735700 4.603900
-7.701100 5.286100
-7.666500 5.914200
-7.631900 7.376900
-7.597400 6.310800
-7.562800 5.719300
-7.528200 3.270600
-7.493700 2.592700
-7.459100 2.245000
-7.424500 2.016600
-7.390000 1.491900
-7.355400 1.241200
-7.320800 0.941100
-7.286200 0.914600
-7.251700 1.133400
-7.217100 1.337000
-7.182500 1.563600
-7.148000 1.776600
-7.113400 1.994700
-7.078800 2.353500
-7.044300 2.980100
-7.009700 3.415200
-6.975100 3.303800
-6.940600 3.375500
-6.906000 3.581600
-6.871400 4.145000
-6.836800 4.429100
-6.802300 3.935800
-6.767700 3.680300
-6.733100 3.317900
-6.698600 3.209700
-6.664000 3.274800
-6.629400 2.497000
-6.594900 2.403500
-6.560300 2.536200
-6.525700 4.097600
-6.491100 3.618300
-6.456600 3.644100
-6.422000 3.902400
-6.387400 4.238400
-6.352900 4.488300
-6.318300 4.431500
-6.283700 4.320400
-6.249200 4.168700
-6.214600 4.212300
-6.180000 3.704000
-6.145500 3.485100
-6.110900 3.407800
-6.076300 3.329000
-6.041700 3.317400
-6.007200 3.245300
-5.972600 3.299900
-5.938000 3.244900
-5.903500 2.903500
-5.868900 3.129600
-5.834300 3.645800
-5.799800 3.527100
-5.765200 2.679800
-5.730600 1.948200
-5.696000 1.825700
-5.661500 1.872600
-5.626900 1.954800
-5.592300 2.080700
-5.557800 2.311200
-5.523200 2.675600
-5.488600 3.040800
-5.454100 3.386600
-5.419500 3.719400
-5.384900 4.372400
-5.350400 5.787600
-5.315800 7.377600
-5.281200 10.300500
-5.246600 7.742800
-5.212100 6.299700
-5.177500 5.239300
-5.142900 4.705500
-5.108400 4.716200
-5.073800 4.694900
-5.039200 4.873400
-5.004700 4.875500
-4.970100 5.079900
-4.935500 5.355500
-4.900900 6.426600
-4.866400 8.916400
-4.831800 9.016300
-4.797200 9.325500
-4.762700 5.791600
-4.728100 4.848000
-4.693500 5.674900
-4.659000 7.315700
-4.624400 6.372100
-4.589800 9.231900
-4.555300 9.124400
-4.520700 4.943000
-4.486100 2.721000
-4.451500 1.444800
-4.417000 1.195300
-4.382400 0.944700
-4.347800 0.598300
-4.313300 0.000000
-4.278700 0.000000
-4.244100 0.000000
-4.209600 0.000000
-4.175000 0.000000
-4.140400 0.000000
-4.105800 0.000000
-4.071300 0.000000
-4.036700 0.000000
-4.002100 0.000000
-3.967600 0.000000
-3.933000 0.000000
-3.898400 0.000000
-3.863900 0.000000
-3.829300 0.000000
-3.794700 0.000000
-3.760200 0.000000
-3.725600 0.000000
-3.691000 0.000000
-3.656400 0.000000
-3.621900 0.000000
-3.587300 0.000000
-3.552700 0.000000
-3.518200 0.000000
-3.483600 0.000000
-3.449000 0.000000
-3.414500 0.000000
-3.379900 0.000000
-3.345300 0.000000
-3.310700 0.000000
-3.276200 0.000000
-3.241600 0.000000
-3.207000 0.000000
-3.172500 0.000000
-3.137900 0.000000
-3.103300 0.000000
-3.068800 0.000000
-3.034200 0.000000
-2.999600 0.000000
-2.965100 0.000000
-2.930500 0.000000
-2.895900 0.000000
-2.861300 0.000000
-2.826800 0.000000
-2.792200 0.000000
-2.757600 0.000000
-2.723100 0.000000
-2.688500 0.000000
-2.653900 0.000000
-2.619400 0.000000
-2.584800 0.000000
-2.550200 0.000000
-2.515600 0.000000
-2.481100 0.000000
-2.446500 0.000000
-2.411900 0.000000
-2.377400 0.000000
-2.342800 0.000000
-2.308200 0.000000
-2.273700 0.000000
-2.239100 0.000000
-2.204500 0.000000
-2.170000 0.000000
-2.135400 0.000000
-2.100800 0.000000
-2.066200 0.000000
-2.031700 0.000000
-1.997100 0.000000
-1.962500 0.000000
-1.928000 0.000000
-1.893400 0.000000
-1.858800 0.000000
-1.824300 0.000000
-1.789700 0.000000
-1.755100 0.000000
-1.720500 0.000000
-1.686000 0.000000
-1.651400 0.000000
-1.616800 0.000000
-1.582300 0.000000
-1.547700 0.000000
-1.513100 0.000000
-1.478600 0.000000
-1.444000 0.000000
-1.409400 0.000000
-1.374900 0.000000
-1.340300 0.000000
-1.305700 0.000000
-1.271100 0.000000
-1.236600 0.000000
-1.202000 0.000000
-1.167400 0.000000
-1.132900 0.000000
-1.098300 0.000000
-1.063700 0.000000
-1.029200 0.000000
-0.994600 0.000000
-0.960000 0.000000
-0.925400 0.000000
-0.890900 0.000000
-0.856300 0.000000
-0.821700 0.000000
-0.787200 0.000000
-0.752600 0.000000
-0.718000 0.000000
-0.683500 0.000000
-0.648900 0.000000
-0.614300 0.000000
-0.579700 0.000000
-0.545200 0.000000
-0.510600 0.000000
-0.476000 0.000000
-0.441500 0.000000
-0.406900 0.000000
-0.372300 0.000000
-0.337800 0.000000
-0.303200 0.000000
-0.268600 0.000000
-0.234100 0.000000
-0.199500 0.000000
-0.164900 0.000000
-0.130300 0.000000
-0.095800 0.000000
-0.061200 0.000000
-0.026600 0.000000
0.007900 0.000000
0.042500 0.000000
0.077100 0.000000
0.111600 0.000000
0.146200 0.000000
0.180800 0.000000
0.215400 0.000000
0.249900 0.000000
0.284500 0.000000
0.319100 0.000000
0.353600 0.000000
0.388200 0.000000
0.422800 0.000000
0.457300 0.000000
0.491900 0.000000
0.526500 0.000000
0.561000 0.000000
0.595600 0.000000
0.630200 0.000000
0.664800 0.000000
0.699300 0.000000
0.733900 0.000000
0.768500 0.000000
0.803000 0.000000
0.837600 0.000000
0.872200 0.000000
0.906700 0.000000
0.941300 0.000000
0.975900 0.000000
1.010500 0.000000
1.045000 0.000000
1.079600 0.000000
1.114200 0.000000
1.148700 0.000000
1.183300 0.000000
1.217900 0.000000
1.252400 0.000000
1.287000 0.000000
1.321600 0.000000
1.356100 0.000000
1.390700 0.000000
1.425300 0.000000
1.459900 0.000000
1.494400 0.000000
1.529000 0.000000
1.563600 0.000000
1.598100 0.000000
1.632700 0.000000
1.667300 0.000000
1.701800 0.000000
1.736400 0.000000
1.771000 0.000000
1.805600 0.000000
1.840100 0.000000
1.874700 0.000000
1.909300 0.000000
1.943800 0.000000
1.978400 0.000000
2.013000 0.000000
2.047500 0.000000
2.082100 0.000000
2.116700 0.000000
2.151200 0.000000
2.185800 0.000000
2.220400 0.000000
2.255000 0.000000
2.289500 0.000000
2.324100 0.000000
2.358700 0.000000
2.393200 0.000000
2.427800 0.000000
2.462400 0.000000
2.496900 0.000000
2.531500 0.000000
2.566100 0.000000
2.600700 0.000000
2.635200 0.000000
2.669800 0.000000
2.704400 0.000000
2.738900 0.000000
2.773500 0.000000
2.808100 0.000000
2.842600 0.000000
2.877200 0.000000
2.911800 0.000000
2.946300 0.000000
2.980900 0.000000
3.015500 0.000000
3.050100 0.000000
3.084600 0.000000
3.119200 0.000000
3.153800 0.000000
3.188300 0.000000
3.222900 0.000000
3.257500 0.000000
3.292000 0.000000
3.326600 0.000000
3.361200 0.000000
3.395800 0.000000
3.430300 0.000000
3.464900 0.000000
3.499500 0.000000
3.534000 0.000000
3.568600 0.000000
3.603200 0.000000
3.637700 0.000000
3.672300 0.000000
3.706900 0.000000
3.741400 0.000000
3.776000 0.000000
3.810600 0.000000
3.845200 0.000000
3.879700 0.000000
3.914300 0.000000
3.948900 0.000000
3.983400 0.000000
4.018000 0.000000
4.052600 0.000000
4.087100 0.000000
4.121700 0.000000
4.156300 0.000000
4.190900 0.000000
4.225400 0.000000
4.260000 0.000000
4.294600 0.000000
4.329100 0.000000
4.363700 0.000000
4.398300 0.000000
4.432800 0.000000
4.467400 0.000000
4.502000 0.000000
4.536500 0.000000
4.571100 0.000000
4.605700 0.000000
4.640300 0.000000
4.674800 0.000000
4.709400 0.000000
4.744000 0.000000
4.778500 0.000000
4.813100 0.000000
4.847700 0.000000
4.882200 0.000000
4.916800 0.000000
4.951400 0.000000
4.986000 0.158100
5.020500 2.978500
5.055100 19.671600
5.089700 54.214800
5.124200 61.900400
5.158800 45.764200
5.193400 61.262800
5.227900 25.438900
5.262500 0.000000
5.297100 0.000000
5.331600 0.000000
5.366200 0.000000
5.400800 0.000000
5.435400 0.000000
5.469900 0.000000
5.504500 0.000000
5.539100 0.000000
5.573600 0.000000
5.608200 0.000000
5.642800 0.002200
5.677300 0.008800
5.711900 0.019900
5.746500 0.035500
5.781100 0.055600
5.815600 0.073100
5.850200 0.074100
5.884800 0.077700
5.919300 0.083500
5.953900 0.090300
5.988500 0.097800
6.023000 0.106200
6.057600 0.115400
6.092200 0.124400
6.126800 0.134200
6.161300 0.145300
6.195900 0.155600
6.230500 0.164500
6.265000 0.171900
6.299600 0.178300
6.334200 0.189400
6.368700 0.199200
6.403300 0.209500
6.437900 0.220300
6.472400 0.233300
6.507000 0.249700
6.541600 0.268800
6.576200 0.289900
6.610700 0.313400
6.645300 0.336400
6.679900 0.361400
6.714400 0.590900
6.749000 0.710300
6.783600 0.946300
6.818100 1.296500
6.852700 1.591000
6.887300 1.740000
6.921900 1.866900
6.956400 1.936300
6.991000 1.937000
7.025600 2.049100
7.060100 2.224500
7.094700 2.553500
7.129300 3.208300
7.163800 2.826500
7.198400 2.718900
7.233000 2.494800
7.267500 2.309600
7.302100 2.147900
7.336700 2.049600
7.371300 2.004600
7.405800 1.725100
7.440400 1.431100
7.475000 1.317300
7.509500 1.214300
7.544100 1.119400
7.578700 1.030100
7.613200 0.946100
7.647800 0.897900
7.682400 0.876000
7.717000 0.949600
7.751500 0.888300
7.786100 0.677000
7.820700 0.474100
7.855200 0.252800
7.889800 0.024400
7.924400 0.000000
7.958900 0.000000
7.993500 0.000000
8.028100 0.002900
8.062600 0.020200
8.097200 0.048400
8.131800 0.058800
8.166400 0.080400
8.200900 0.099200
8.235500 0.115200
8.270100 0.128400
8.304600 0.138800
8.339200 0.147500
8.373800 0.158100
8.408300 0.172200
8.442900 0.189100
8.477500 0.206400
8.512100 0.224100
8.546600 0.242500
8.581200 0.261700
8.615800 0.281800
8.650300 0.294000
8.684900 0.306800
8.719500 0.327200
8.754000 0.354700
8.788600 0.399300
8.823200 0.458700
8.857700 0.548600
8.892300 0.624300
8.926900 0.714200
8.961500 0.829400
8.996000 0.934100
9.030600 1.054000
9.065200 1.159100
9.099700 1.286200
9.134300 1.395500
9.168900 1.509600
9.203400 1.646200
9.238000 1.541400
9.272600 2.036900
9.307200 2.140900
9.341700 2.660100
9.376300 2.922800
9.410900 3.019200
9.445400 3.179800
9.480000 3.395000
9.514600 3.392900
9.549100 2.345000
9.583700 2.123900
9.618300 2.412800
9.652800 2.938300
9.687400 3.251200
9.722000 3.640200
9.756600 4.093200
9.791100 4.760100
9.825700 4.694000
9.860300 4.751200
9.894800 4.574700
9.929400 4.430900
9.964000 4.236100
9.998500 4.115600
10.033100 4.390400
10.067700 5.920100
10.102300 5.914500
10.136800 5.564100
10.171400 4.912700
10.206000 5.074300
10.240500 5.115700
10.275100 5.210100
10.309700 5.115300
10.344200 5.697400
10.378800 5.377100
10.413400 4.851400
10.447900 5.739200
10.482500 5.081800
10.517100 4.744900
10.551700 3.486400
10.586200 3.179900
10.620800 3.434200
10.655400 4.030000
10.689900 5.687700
10.724500 6.386600
10.759100 7.143000
10.793600 6.933400
10.828200 6.729600
10.862800 6.273300
10.897400 6.270200
10.931900 6.109500
10.966500 6.625200
11.001100 7.564600
11.035600 7.506200
11.070200 7.347900
11.104800 7.410800
11.139300 7.247400
11.173900 7.513600
11.208500 8.529600
11.243000 9.695400
11.277600 10.923600
11.312200 9.870700
11.346800 8.748100
11.381300 7.300600
11.415900 6.891200
11.450500 5.757600
11.485000 6.595300
11.519600 7.477400
11.554200 9.138700
11.588700 10.163000
11.623300 9.191600
11.657900 7.792000
11.692500 9.168200
11.727000 7.305900
11.761600 7.478000
11.796200 7.625400
11.830700 7.919300
11.865300 9.901100
11.899900 8.641100
11.934400 9.846900
11.969000 12.061800
12.003600 11.402400
12.038100 10.806100
12.072700 10.012700
12.107300 11.046500
12.141900 13.811200
12.176400 11.386000
12.211000 11.688900
12.245600 11.821200
12.280100 13.895700
12.314700 11.837800
12.349300 13.602400
12.383800 14.646600
12.418400 13.719400
12.453000 13.693700
12.487600 15.296700
12.522100 14.662000
12.556700 16.838500
12.591300 23.454100
12.625800 14.385300
12.660400 12.677800
12.695000 12.527700
12.729500 10.857000
12.764100 12.168300
12.798700 15.022400
12.833200 14.465400
12.867800 12.361700
12.902400 18.830000
12.937000 20.223300
12.971500 11.645300
13.006100 13.988600
13.040700 8.222100
13.075200 6.500100
13.109800 6.653700
13.144400 6.899700
13.178900 10.205100
13.213500 15.527400
13.248100 19.265700
13.282700 18.035400
13.317200 16.998100
13.351800 18.958300
13.386400 19.666700
13.420900 19.932600
13.455500 20.967400
13.490100 19.445800
13.524600 17.687600
13.559200 19.159900
13.593800 17.720000
13.628400 19.804700
13.662900 19.968800
13.697500 19.248900
13.732100 16.161400
13.766600 15.350700
13.801200 16.411700
13.835800 18.866500
13.870300 17.844900
13.904900 15.728800
13.939500 21.413900
13.974000 27.033600
14.008600 13.584200
14.043200 13.827100
14.077800 14.922500
14.112300 11.835400
14.146900 9.603800
14.181500 6.761000
14.216000 6.647400
14.250600 6.742900
14.285200 7.149300
14.319700 6.626500
14.354300 5.812200
14.388900 5.317700
14.423500 4.930300
14.458000 5.123400
14.492600 5.824000
14.527200 5.347500
14.561700 5.845200
14.596300 6.593100
14.630900 4.993100
14.665400 5.104400
14.700000 3.606800
14.734600 3.203300
14.769100 3.350900
14.803700 4.029400
14.838300 3.853200
14.872900 4.187900
14.907400 4.149500
14.942000 4.313400
14.976600 3.700300
15.011100 2.830300
15.045700 2.607400
15.080300 2.441800
15.114800 2.735300
15.149400 2.553500
15.184000 2.525800
15.218600 2.669000
15.253100 2.873000
15.287700 3.244600
15.322300 3.648000
15.356800 4.021500
15.391400 4.494600
15.426000 5.056800
15.460500 4.857900
15.495100 4.518600
15.529700 4.348000
15.564200 3.808900
15.598800 3.791300
15.633400 3.777000
15.668000 3.415400
15.702500 3.103600
15.737100 3.087300
15.771700 2.981300
15.806200 2.880200
15.840800 2.684100
15.875400 2.567000
15.909900 3.107400
15.944500 3.527400
15.979100 3.909800
16.013700 3.936600
16.048200 3.351400
16.082800 3.062300
16.117400 2.862500
16.151900 2.940200
16.186500 3.111300
16.221100 3.363600
16.255600 3.286800
16.290200 3.285500
16.324800 3.282200
16.359300 3.040800
16.393900 2.862000
16.428500 2.756600
16.463100 2.773400
16.497600 2.788000
16.532200 2.819500
16.566800 2.791200
16.601300 2.762900
16.635900 2.824900
16.670500 3.074400
16.705000 3.154600
16.739600 3.072100
16.774200 2.934500
16.808800 2.880900
16.843300 2.890700
16.877900 2.866300
16.912500 3.111700
16.947000 3.449300
16.981600 3.533100
17.016200 3.616200
17.050700 4.088900
17.085300 4.255300
17.119900 3.843200
17.154400 3.365600
17.189000 2.883900
17.223600 2.438000
17.258200 2.184800
17.292700 2.107300
17.327300 2.200000
17.361900 2.472400
17.396400 2.624600
17.431000 2.777500
17.465600 3.328800
17.500100 4.107700
17.534700 4.027700
17.569300 4.043400
17.603900 3.831600
17.638400 3.684300
17.673000 3.948100
17.707600 4.252100
17.742100 4.427100
17.776700 4.154800
17.811300 3.938900
17.845800 3.888900
17.880400 3.880600
17.915000 3.858600
17.949500 3.956500
17.984100 4.014300
18.018700 3.987300
18.053300 3.692200
18.087800 3.300000
18.122400 3.203400
18.157000 3.118700
18.191500 3.065400
18.226100 2.963000
18.260700 2.868600
18.295200 2.926100
18.329800 2.998800
18.364400 3.009200
18.399000 3.009600
18.433500 3.029900
18.468100 3.076200
18.502700 3.162600
18.537200 3.221600
18.571800 3.310500
18.606400 3.526600
18.640900 3.426000
18.675500 3.463900
18.710100 3.597300
18.744600 3.696700
18.779200 3.571000
18.813800 3.293900
18.848400 3.112900
18.882900 3.618300
18.917500 3.222300
18.952100 2.723400
18.986600 2.454400
19.021200 2.321700
19.055800 2.196000
19.090300 1.987400
19.124900 2.002300
19.159500 2.085500
19.194100 2.192700
19.228600 2.239200
19.263200 2.280700
19.297800 2.303800
19.332300 2.383900
19.366900 2.545300
19.401500 2.557200
19.436000 2.578900
19.470600 2.681300
19.505200 2.654000
19.539700 2.600600
19.574300 2.537200
19.608900 2.415500
19.643500 2.378700
19.678000 2.351500
19.712600 2.216300
19.747200 2.149900
19.781700 2.104800
19.816300 2.064900
19.850900 2.067400
19.885400 2.021300
19.920000 1.913100
19.954600 1.913600
19.989200 1.773300
20.023700 1.738900
20.058300 1.739300
20.092900 1.788300
20.127400 1.848300
20.162000 1.993500
20.196600 1.901300
20.231100 1.732000
20.265700 1.603500
20.300300 1.562900
20.334800 1.588400
20.369400 1.569100
20.404000 1.415300
20.438600 1.375700
20.473100 1.380300
20.507700 1.337400
20.542300 1.249000
20.576800 1.151100
20.611400 1.047600
20.646000 1.045100
20.680500 1.075300
20.715100 1.091700
20.749700 1.182200
20.784300 1.349700
20.818800 1.443300
20.853400 1.672900
20.888000 2.103700
20.922500 2.100500
20.957100 2.048300
20.991700 1.977500
21.026200 2.528600
21.060800 2.635800
21.095400 2.766500
21.130000 2.763300
21.164500 2.891900
21.199100 2.821000
21.233700 2.656400
21.268200 2.548100
21.302800 2.458000
21.337400 2.341100
21.371900 2.169000
21.406500 1.980800
21.441100 1.778200
21.475600 1.562600
21.510200 1.461100
21.544800 1.383900
21.579400 1.333500
21.613900 1.335000
21.648500 1.341700
21.683100 1.376600
21.717600 1.413200
21.752200 1.462800
21.786800 1.516700
21.821300 1.663200
21.855900 1.721800
21.890500 1.701300
21.925100 1.758000
21.959600 2.043300
21.994200 2.321700
22.028800 2.536500
22.063300 2.805700
22.097900 3.224600
22.132500 2.895000
22.167000 3.118600
22.201600 3.244500
22.236200 3.081800
22.270700 2.933000
22.305300 2.848200
22.339900 2.777600
22.374500 2.671500
22.409000 2.680700
22.443600 2.697100
22.478200 2.585300
22.512700 2.753300
22.547300 3.083800
22.581900 3.159500
22.616400 3.258200
22.651000 3.142100
22.685600 2.825200
22.720200 2.717900
22.754700 2.669300
22.789300 2.654000
22.823900 2.686900
22.858400 2.735000
22.893000 2.689700
22.927600 2.552500
22.962100 2.570900
22.996700 2.935300
23.031300 3.023300
23.065800 3.114400
23.100400 3.289900
23.135000 3.166600
23.169600 2.971300
23.204100 2.832000
23.238700 2.755800
23.273300 2.622800
23.307800 2.513900
23.342400 2.466700
23.377000 2.390300
23.411500 2.276400
23.446100 2.203000
23.480700 2.129000
23.515300 2.055600
23.549800 2.037000
23.584400 2.088400
23.619000 2.058800
23.653500 2.067800
23.688100 2.115200
23.722700 2.092900
23.757200 2.254600
23.791800 2.359700
23.826400 2.470100
23.860900 2.604700
23.895500 2.737600
23.930100 2.876600
23.964700 2.887500
23.999200 2.718500
24.033800 2.564200
24.068400 2.527700
24.102900 2.475600
24.137500 2.465000
24.172100 2.449900
24.206600 2.546000
24.241200 2.554000
24.275800 2.376500
24.310400 2.308500
24.344900 2.383100
24.379500 2.221000
24.414100 2.038800
24.448600 1.848700
24.483200 1.719300
24.517800 1.612000
24.552300 1.505500
24.586900 1.445500
24.621500 1.388300
24.656000 1.304700
24.690600 1.262100
24.725200 1.246900
24.759800 1.242400
24.794300 1.247100
24.828900 1.154800
24.863500 1.162800
24.898000 1.145500
24.932600 1.095800
24.967200 1.063300
25.001700 1.047500
25.036300 1.063000
25.070900 1.109600
25.105500 1.157400
25.140000 1.173900
25.174600 1.200800
25.209200 1.211500
25.243700 1.209300
25.278300 1.188000
25.312900 1.164600
25.347400 1.155400
25.382000 1.153000
25.416600 1.156500
25.451100 1.126200
25.485700 1.097600
25.520300 1.093600
25.554900 1.101200
25.589400 1.086200
25.624000 1.094500
25.658600 1.109800
25.693100 1.128400
25.727700 1.150700
25.762300 1.175600
25.796800 1.201300
25.831400 1.230200
25.866000 1.260800
25.900600 1.294100
25.935100 1.328000
25.969700 1.370700
26.004300 1.417000
26.038800 1.470900
26.073400 1.551000
26.108000 1.664700
26.142500 1.757700
26.177100 1.846700
26.211700 1.938000
26.246200 2.013000
26.280800 2.065500
26.315400 2.060900
26.350000 2.027000
26.384500 2.004900
26.419100 2.085600
26.453700 2.373500
26.488200 2.488200
26.522800 2.544500
26.557400 2.504600
26.591900 1.795900
26.626500 1.584000
26.661100 1.432400
26.695700 1.502700
26.730200 1.379400
26.764800 1.400200
26.799400 1.501800
26.833900 1.682000
26.868500 1.938100
26.903100 2.253200
26.937600 2.459400
26.972200 2.572500
27.006800 2.597400
27.041300 2.590200
27.075900 2.725800
27.110500 2.539800
27.145100 2.340200
27.179600 2.342100
27.214200 2.552700
27.248800 2.302900
27.283300 2.201400
27.317900 2.222400
27.352500 2.436800
27.387000 2.785100
27.421600 3.424200
27.456200 4.001200
27.490800 4.161300
27.525300 4.686500
27.559900 4.488100
27.594500 4.102400
27.629000 3.945600
27.663600 3.865600
27.698200 3.690500
27.732700 3.578700
27.767300 3.452300
27.801900 3.467800
27.836400 3.593600
27.871000 3.275600
27.905600 2.860900
27.940200 2.727100
27.974700 2.491900
28.009300 2.220100
28.043900 2.364800
28.078400 2.329700
28.113000 2.415200
28.147600 2.442600
28.182100 2.508100
28.216700 2.660200
28.251300 2.770000
28.285900 3.077200
28.320400 3.417400
28.355000 3.546800
28.389600 3.773900
28.424100 3.731900
28.458700 3.568000
28.493300 3.348400
28.527800 3.119500
28.562400 3.014500
28.597000 2.999500
28.631600 2.958000
28.666100 2.891000
28.700700 2.782300
28.735300 2.661100
28.769800 2.519700
28.804400 2.410200
28.839000 2.287700
28.873500 2.198900
28.908100 2.210000
28.942700 2.077200
28.977200 1.997100
29.011800 2.008100
29.046400 2.057000
29.081000 2.117300
29.115500 2.308900
29.150100 2.191900
29.184700 2.303000
29.219200 2.341900
29.253800 2.420600
29.288400 2.632000
29.322900 3.046300
29.357500 2.896400
29.392100 2.913400
29.426700 2.975900
29.461200 3.041400
29.495800 3.025500
29.530400 2.947800
29.564900 2.959700
29.599500 3.022200
29.634100 3.046000
29.668600 3.158300
29.703200 2.971100
29.737800 2.630300
29.772300 2.326800
29.806900 2.176900
29.841500 2.090800
29.876100 1.723700
29.910600 1.545900
29.945200 1.454500
29.979800 1.363800
30.014300 1.314000
30.048900 1.260600
30.083500 1.193700
30.118000 1.127600
30.152600 1.094600
30.187200 1.050200
30.221800 1.053600
30.256300 1.051700
30.290900 1.045500
30.325500 1.018400
30.360000 0.959500
30.394600 0.873600
30.429200 0.810200
30.463700 0.661200
30.498300 0.544300
30.532900 0.497900
30.567400 0.451800
30.602000 0.401700
30.636600 0.349200
30.671200 0.294600
30.705700 0.254300
30.740300 0.219100
30.774900 0.189000
30.809400 0.163600
30.844000 0.141000
30.878600 0.095300
30.913100 0.078700
30.947700 0.064400
30.982300 0.052400
31.016900 0.042700
31.051400 0.035000
31.086000 0.025600
31.120600 0.017600
31.155100 0.014600
31.189700 0.011800
31.224300 0.009400
31.258800 0.007200
31.293400 0.005300
31.328000 0.003700
31.362500 0.002400
31.397100 0.001400
31.431700 0.000600
31.466300 0.000200
31.500800 0.000000
31.535400 0.000000
31.570000 0.000000
31.604500 0.000000
31.639100 0.000000
31.673700 0.000000
31.708200 0.000000
31.742800 0.000000
31.777400 0.000000
31.812000 0.000000
31.846500 0.000000
31.881100 0.000000
31.915700 0.000000
31.950200 0.000000
31.984800 0.000000
32.019400 0.000000
32.053900 0.000000
32.088500 0.000000
32.123100 0.000000
32.157600 0.000000
32.192200 0.000000
32.226800 0.000000
32.261400 0.000000
32.295900 0.000000
32.330500 0.000000
32.365100 0.000000
32.399600 0.000000
32.434200 0.000000
32.468800 0.000000
32.503300 0.000000
32.537900 0.000000
32.572500 0.000000
32.607100 0.000000
32.641600 0.000000
32.676200 0.000000
32.710800 0.000000
32.745300 0.000000
32.779900 0.000000
32.814500 0.000000
32.849000 0.000000
32.883600 0.000000
32.918200 0.000000
32.952700 0.000000
32.987300 0.000000
33.021900 0.000000
33.056500 0.000000
33.091000 0.000000
33.125600 0.000000
33.160200 0.000000
33.194700 0.000000
33.229300 0.000000
33.263900 0.000000
33.298400 0.000000
33.333000 0.000000
33.367600 0.000000
33.402200 0.000000
33.436700 0.000000
33.471300 0.000000
33.505900 0.000000
33.540400 0.000000
33.575000 0.000000
33.609600 0.000000
33.644100 0.000000
33.678700 0.000000
33.713300 0.000000
33.747800 0.000000
33.782400 0.000000
33.817000 0.000000
33.851600 0.000000
33.886100 0.000000
33.920700 0.000000
33.955300 0.000000
33.989800 0.000000
34.024400 0.000000
34.059000 0.000000
34.093500 0.000000
34.128100 0.000000
34.162700 0.000000
34.197300 0.000000
34.231800 0.000000
34.266400 0.000000
34.301000 0.000000
34.335500 0.000000
34.370100 0.000000
34.404700 0.000000
34.439200 0.000000
34.473800 0.000000
34.508400 0.000000
34.542900 0.000000
34.577500 0.000000
34.612100 0.000000
34.646700 0.000000
e
