set title 'mp-1217106 - Density of States'
set xlabel 'Energy (eV)'
set ylabel 'DOS (states/eV)'
set grid
set xrange [-10:10]
set yrange [0:8.236]
set xzeroaxis lt -1
set terminal png size 800,600
set output 'mp-1217106_dos_gnuplot.png'
plot '-' using 1:2 with lines title 'DOS'
-30.910800 0.000000
-30.869100 0.000000
-30.827500 0.000000
-30.785900 0.000000
-30.744300 0.000000
-30.702700 0.000000
-30.661100 0.000000
-30.619400 0.000000
-30.577800 0.000000
-30.536200 0.000000
-30.494600 0.000000
-30.453000 0.000000
-30.411300 0.000000
-30.369700 0.000000
-30.328100 0.000000
-30.286500 0.000000
-30.244900 0.000000
-30.203300 0.000000
-30.161600 0.000000
-30.120000 0.000000
-30.078400 0.000000
-30.036800 0.000000
-29.995200 0.000000
-29.953600 0.000000
-29.911900 0.000000
-29.870300 0.000000
-29.828700 0.000000
-29.787100 0.000000
-29.745500 0.000000
-29.703800 0.000000
-29.662200 0.000000
-29.620600 0.000000
-29.579000 0.000000
-29.537400 0.000000
-29.495800 0.000000
-29.454100 0.000000
-29.412500 0.000000
-29.370900 0.000000
-29.329300 0.000000
-29.287700 0.000000
-29.246100 0.000000
-29.204400 0.000000
-29.162800 0.000000
-29.121200 0.000000
-29.079600 0.000000
-29.038000 0.000000
-28.996400 0.000000
-28.954700 0.000000
-28.913100 0.000000
-28.871500 0.000000
-28.829900 0.000000
-28.788300 0.000000
-28.746600 0.000000
-28.705000 0.000000
-28.663400 0.000000
-28.621800 0.000000
-28.580200 0.000000
-28.538600 0.000000
-28.496900 0.000000
-28.455300 0.000000
-28.413700 0.000000
-28.372100 0.000000
-28.330500 0.000000
-28.288900 0.000000
-28.247200 0.000000
-28.205600 0.000000
-28.164000 0.000000
-28.122400 0.000000
-28.080800 0.000000
-28.039100 0.000000
-27.997500 0.000000
-27.955900 0.000000
-27.914300 0.000000
-27.872700 0.000000
-27.831100 0.000000
-27.789400 0.000000
-27.747800 0.000000
-27.706200 0.000000
-27.664600 0.000000
-27.623000 0.000000
-27.581400 0.000000
-27.539700 0.000000
-27.498100 0.000000
-27.456500 0.000000
-27.414900 0.000000
-27.373300 0.000000
-27.331700 0.000000
-27.290000 0.000000
-27.248400 0.000000
-27.206800 0.000000
-27.165200 0.000000
-27.123600 0.395800
-27.081900 2.295900
-27.040300 4.862600
-26.998700 26.648700
-26.957100 24.025000
-26.915500 12.342200
-26.873900 7.605000
-26.832200 10.357900
-26.790600 16.613000
-26.749000 22.585500
-26.707400 28.476700
-26.665800 54.078100
-26.624200 42.719600
-26.582500 33.698900
-26.540900 6.105000
-26.499300 0.000000
-26.457700 0.000000
-26.416100 0.000000
-26.374400 0.000000
-26.332800 0.000000
-26.291200 0.000000
-26.249600 0.000000
-26.208000 0.000000
-26.166400 0.000000
-26.124700 0.000000
-26.083100 0.000000
-26.041500 0.000000
-25.999900 0.000000
-25.958300 0.000000
-25.916700 0.000000
-25.875000 0.000000
-25.833400 0.000000
-25.791800 0.000000
-25.750200 0.000000
-25.708600 0.000000
-25.667000 0.000000
-25.625300 0.000000
-25.583700 0.000000
-25.542100 0.000000
-25.500500 0.000000
-25.458900 0.000000
-25.417200 0.000000
-25.375600 0.000000
-25.334000 0.000000
-25.292400 0.000000
-25.250800 0.000000
-25.209200 0.000000
-25.167500 0.000000
-25.125900 0.000000
-25.084300 0.000000
-25.042700 0.000000
-25.001100 0.000000
-24.959500 0.000000
-24.917800 0.000000
-24.876200 0.000000
-24.834600 0.000000
-24.793000 0.000000
-24.751400 0.000000
-24.709700 0.000000
-24.668100 0.000000
-24.626500 0.000000
-24.584900 0.000000
-24.543300 0.000000
-24.501700 0.000000
-24.460000 0.000000
-24.418400 0.000000
-24.376800 0.000000
-24.335200 0.000000
-24.293600 0.000000
-24.252000 0.000000
-24.210300 0.000000
-24.168700 0.000000
-24.127100 0.000000
-24.085500 0.000000
-24.043900 0.000000
-24.002200 0.000000
-23.960600 0.000000
-23.919000 0.000000
-23.877400 0.000000
-23.835800 0.000000
-23.794200 0.000000
-23.752500 0.000000
-23.710900 0.000000
-23.669300 0.000000
-23.627700 0.000000
-23.586100 0.000000
-23.544500 0.000000
-23.502800 0.000000
-23.461200 0.000000
-23.419600 0.000000
-23.378000 0.000000
-23.336400 0.000000
-23.294800 0.000000
-23.253100 0.000000
-23.211500 0.000000
-23.169900 0.000000
-23.128300 0.000000
-23.086700 0.000000
-23.045000 0.000000
-23.003400 0.000000
-22.961800 0.000000
-22.920200 0.000000
-22.878600 0.000000
-22.837000 0.000000
-22.795300 0.000000
-22.753700 0.000000
-22.712100 0.000000
-22.670500 0.000000
-22.628900 0.000000
-22.587300 0.000000
-22.545600 0.000000
-22.504000 0.000000
-22.462400 0.000000
-22.420800 0.000000
-22.379200 0.000000
-22.337500 0.000000
-22.295900 0.000000
-22.254300 0.000000
-22.212700 0.000000
-22.171100 0.000000
-22.129500 0.000000
-22.087800 0.000000
-22.046200 0.000000
-22.004600 0.000000
-21.963000 0.000000
-21.921400 0.000000
-21.879800 0.000000
-21.838100 0.000000
-21.796500 0.000000
-21.754900 0.000000
-21.713300 0.000000
-21.671700 0.000000
-21.630100 0.000000
-21.588400 0.000000
-21.546800 0.000000
-21.505200 0.000000
-21.463600 0.000000
-21.422000 0.000000
-21.380300 0.000000
-21.338700 0.000000
-21.297100 0.000000
-21.255500 0.000000
-21.213900 0.000000
-21.172300 0.000000
-21.130600 0.000000
-21.089000 0.000000
-21.047400 0.000000
-21.005800 0.000000
-20.964200 0.000000
-20.922600 0.000000
-20.880900 0.000000
-20.839300 0.000000
-20.797700 0.000000
-20.756100 0.000000
-20.714500 0.000000
-20.672800 0.000000
-20.631200 0.000000
-20.589600 0.000000
-20.548000 0.000000
-20.506400 0.000000
-20.464800 0.000000
-20.423100 0.000000
-20.381500 0.000000
-20.339900 0.000000
-20.298300 0.000000
-20.256700 0.000000
-20.215100 0.000000
-20.173400 0.000000
-20.131800 0.000000
-20.090200 0.000000
-20.048600 0.000000
-20.007000 0.000000
-19.965400 0.000000
-19.923700 0.000000
-19.882100 0.000000
-19.840500 0.000000
-19.798900 0.000000
-19.757300 0.000000
-19.715600 0.000000
-19.674000 0.000000
-19.632400 0.000000
-19.590800 0.000000
-19.549200 0.000000
-19.507600 0.000000
-19.465900 0.000000
-19.424300 0.000000
-19.382700 0.000000
-19.341100 0.000000
-19.299500 0.000000
-19.257900 0.000000
-19.216200 0.000000
-19.174600 0.000000
-19.133000 0.000000
-19.091400 0.000000
-19.049800 0.000000
-19.008100 0.000000
-18.966500 0.000000
-18.924900 0.000000
-18.883300 0.000000
-18.841700 0.000000
-18.800100 0.000000
-18.758400 0.000000
-18.716800 0.000000
-18.675200 0.000000
-18.633600 0.000000
-18.592000 0.000000
-18.550400 0.000000
-18.508700 0.000000
-18.467100 0.000000
-18.425500 0.000000
-18.383900 0.000000
-18.342300 0.000000
-18.300700 0.000000
-18.259000 0.000000
-18.217400 0.000000
-18.175800 0.000000
-18.134200 0.000000
-18.092600 0.000000
-18.050900 0.000000
-18.009300 0.000000
-17.967700 0.000000
-17.926100 0.000000
-17.884500 0.000000
-17.842900 0.000000
-17.801200 0.000000
-17.759600 0.000000
-17.718000 0.000000
-17.676400 0.000000
-17.634800 0.000000
-17.593200 0.000000
-17.551500 0.000000
-17.509900 0.000000
-17.468300 0.000000
-17.426700 0.000000
-17.385100 0.000000
-17.343400 0.000000
-17.301800 0.000000
-17.260200 0.000000
-17.218600 0.000000
-17.177000 0.000000
-17.135400 0.000000
-17.093700 0.000000
-17.052100 0.000000
-17.010500 0.000000
-16.968900 0.000000
-16.927300 0.000000
-16.885700 0.000000
-16.844000 0.000000
-16.802400 0.000000
-16.760800 0.000000
-16.719200 0.000000
-16.677600 0.000000
-16.636000 0.000000
-16.594300 0.000000
-16.552700 0.000000
-16.511100 0.000000
-16.469500 0.000000
-16.427900 0.000000
-16.386200 0.000000
-16.344600 0.000000
-16.303000 0.000000
-16.261400 0.000000
-16.219800 0.000000
-16.178200 0.000000
-16.136500 0.000000
-16.094900 0.000000
-16.053300 0.000000
-16.011700 0.000000
-15.970100 0.000000
-15.928500 0.000000
-15.886800 0.000000
-15.845200 0.000000
-15.803600 0.000000
-15.762000 0.000000
-15.720400 0.000000
-15.678700 0.000000
-15.637100 0.000000
-15.595500 0.000000
-15.553900 0.000000
-15.512300 0.000000
-15.470700 0.000000
-15.429000 0.000000
-15.387400 0.000000
-15.345800 0.000000
-15.304200 0.000000
-15.262600 0.000000
-15.221000 0.000000
-15.179300 0.000000
-15.137700 0.000000
-15.096100 0.000000
-15.054500 0.000000
-15.012900 0.000000
-14.971300 0.000000
-14.929600 0.000000
-14.888000 0.000000
-14.846400 0.000000
-14.804800 0.000000
-14.763200 0.000000
-14.721500 0.000000
-14.679900 0.000000
-14.638300 0.000000
-14.596700 0.000000
-14.555100 0.000000
-14.513500 0.000000
-14.471800 0.000000
-14.430200 0.000000
-14.388600 0.000000
-14.347000 0.000000
-14.305400 0.000000
-14.263800 0.000000
-14.222100 0.000000
-14.180500 0.000000
-14.138900 0.000000
-14.097300 0.000000
-14.055700 0.000000
-14.014000 0.000000
-13.972400 0.000000
-13.930800 0.000000
-13.889200 0.000000
-13.847600 0.000000
-13.806000 0.000000
-13.764300 0.000000
-13.722700 0.000000
-13.681100 0.000000
-13.639500 0.000000
-13.597900 0.000000
-13.556300 0.000000
-13.514600 0.000000
-13.473000 0.000000
-13.431400 0.000000
-13.389800 0.000000
-13.348200 0.000000
-13.306600 0.000000
-13.264900 0.000000
-13.223300 0.000000
-13.181700 0.000000
-13.140100 0.000000
-13.098500 0.000000
-13.056800 0.000000
-13.015200 0.000000
-12.973600 0.000000
-12.932000 0.000000
-12.890400 0.000000
-12.848800 0.000000
-12.807100 0.000000
-12.765500 0.000000
-12.723900 0.000000
-12.682300 0.000000
-12.640700 0.000000
-12.599100 0.000000
-12.557400 0.000000
-12.515800 0.000000
-12.474200 0.000000
-12.432600 0.000000
-12.391000 0.000000
-12.349300 0.000000
-12.307700 0.000000
-12.266100 0.000000
-12.224500 0.000000
-12.182900 0.000000
-12.141300 0.000000
-12.099600 0.000000
-12.058000 0.000000
-12.016400 0.000000
-11.974800 0.000000
-11.933200 0.000000
-11.891600 0.000000
-11.849900 0.000000
-11.808300 0.000000
-11.766700 0.000000
-11.725100 0.000000
-11.683500 0.000000
-11.641800 0.000000
-11.600200 0.000000
-11.558600 0.000000
-11.517000 0.000000
-11.475400 0.000000
-11.433800 0.000000
-11.392100 0.000000
-11.350500 0.000000
-11.308900 0.000000
-11.267300 0.000000
-11.225700 0.000000
-11.184100 0.000000
-11.142400 0.000000
-11.100800 0.000000
-11.059200 0.000000
-11.017600 0.000000
-10.976000 0.000000
-10.934400 0.000000
-10.892700 0.000000
-10.851100 0.000000
-10.809500 0.000000
-10.767900 0.000000
-10.726300 0.000000
-10.684600 0.000000
-10.643000 0.000000
-10.601400 0.000000
-10.559800 0.000000
-10.518200 0.000000
-10.476600 0.000000
-10.434900 0.000000
-10.393300 0.000000
-10.351700 0.000000
-10.310100 0.000000
-10.268500 0.000000
-10.226900 0.000000
-10.185200 0.000000
-10.143600 0.000000
-10.102000 0.000000
-10.060400 0.000000
-10.018800 0.000000
-9.977100 0.000000
-9.935500 0.000000
-9.893900 0.000000
-9.852300 0.000000
-9.810700 0.000000
-9.769100 0.000000
-9.727400 0.000000
-9.685800 0.000000
-9.644200 0.000000
-9.602600 0.000000
-9.561000 0.000000
-9.519400 0.000000
-9.477700 0.000000
-9.436100 0.000000
-9.394500 0.000000
-9.352900 0.000000
-9.311300 0.000000
-9.269700 0.000000
-9.228000 0.000000
-9.186400 0.000000
-9.144800 0.000000
-9.103200 0.000000
-9.061600 0.000000
-9.019900 0.000000
-8.978300 0.000000
-8.936700 0.000000
-8.895100 0.000000
-8.853500 0.000000
-8.811900 0.000000
-8.770200 0.000000
-8.728600 0.000000
-8.687000 0.000000
-8.645400 0.000000
-8.603800 0.000000
-8.562200 0.000000
-8.520500 0.000000
-8.478900 0.000000
-8.437300 0.000000
-8.395700 0.000000
-8.354100 0.000000
-8.312400 0.000000
-8.270800 0.000000
-8.229200 0.000000
-8.187600 0.000000
-8.146000 0.000000
-8.104400 0.000000
-8.062700 0.000000
-8.021100 0.000000
-7.979500 0.000000
-7.937900 0.000000
-7.896300 0.000000
-7.854700 0.000000
-7.813000 0.000000
-7.771400 0.000000
-7.729800 0.000000
-7.688200 0.000000
-7.646600 0.000000
-7.605000 0.000000
-7.563300 0.000000
-7.521700 0.000000
-7.480100 0.000000
-7.438500 0.000000
-7.396900 0.000000
-7.355200 0.000000
-7.313600 0.000000
-7.272000 0.000000
-7.230400 0.000000
-7.188800 0.000000
-7.147200 0.000000
-7.105500 0.000000
-7.063900 0.000000
-7.022300 0.000000
-6.980700 0.000000
-6.939100 0.000000
-6.897500 0.000000
-6.855800 0.000000
-6.814200 0.000000
-6.772600 0.000000
-6.731000 0.000000
-6.689400 0.000000
-6.647700 0.000000
-6.606100 0.000000
-6.564500 0.000000
-6.522900 0.000000
-6.481300 0.000000
-6.439700 0.000000
-6.398000 0.000000
-6.356400 0.000000
-6.314800 0.000000
-6.273200 0.000000
-6.231600 0.000000
-6.190000 0.000000
-6.148300 0.000000
-6.106700 0.000000
-6.065100 0.000000
-6.023500 0.000000
-5.981900 0.000000
-5.940300 0.000000
-5.898600 0.000000
-5.857000 0.000000
-5.815400 0.000000
-5.773800 0.000000
-5.732200 0.000000
-5.690500 0.000000
-5.648900 0.000000
-5.607300 0.000000
-5.565700 0.000000
-5.524100 0.000000
-5.482500 0.000000
-5.440800 0.000000
-5.399200 0.000000
-5.357600 0.000000
-5.316000 0.000000
-5.274400 0.000000
-5.232800 0.000000
-5.191100 0.000000
-5.149500 0.036000
-5.107900 0.178100
-5.066300 0.220700
-5.024700 0.285300
-4.983000 0.360200
-4.941400 0.447800
-4.899800 0.578600
-4.858200 0.626400
-4.816600 0.638800
-4.775000 0.667200
-4.733300 0.680300
-4.691700 0.689800
-4.650100 0.714300
-4.608500 0.737300
-4.566900 0.758500
-4.525300 0.776400
-4.483600 0.799800
-4.442000 0.826900
-4.400400 0.861600
-4.358800 0.897400
-4.317200 0.936800
-4.275600 0.975400
-4.233900 1.012600
-4.192300 1.049300
-4.150700 1.102700
-4.109100 1.183000
-4.067500 1.284600
-4.025800 1.371100
-3.984200 1.453600
-3.942600 1.539000
-3.901000 1.690600
-3.859400 2.023500
-3.817800 2.369500
-3.776100 2.769600
-3.734500 3.468800
-3.692900 4.133300
-3.651300 2.635200
-3.609700 2.757600
-3.568100 1.710800
-3.526400 0.000000
-3.484800 0.000000
-3.443200 0.000000
-3.401600 0.000000
-3.360000 0.000000
-3.318300 0.000000
-3.276700 0.000000
-3.235100 0.000000
-3.193500 0.000000
-3.151900 0.000000
-3.110300 0.000000
-3.068600 0.000000
-3.027000 0.000000
-2.985400 0.000000
-2.943800 0.000000
-2.902200 0.000000
-2.860600 0.000000
-2.818900 0.000000
-2.777300 0.000000
-2.735700 0.000000
-2.694100 0.000000
-2.652500 0.000000
-2.610900 0.000000
-2.569200 0.000000
-2.527600 0.000000
-2.486000 0.000000
-2.444400 0.000000
-2.402800 0.000000
-2.361100 0.000000
-2.319500 0.000000
-2.277900 0.000000
-2.236300 0.000000
-2.194700 0.000000
-2.153100 0.000000
-2.111400 0.000000
-2.069800 0.000000
-2.028200 0.000000
-1.986600 0.000000
-1.945000 0.000000
-1.903400 0.000000
-1.861700 0.000000
-1.820100 0.000000
-1.778500 0.000000
-1.736900 0.000000
-1.695300 0.000000
-1.653600 0.000000
-1.612000 0.000000
-1.570400 0.000000
-1.528800 0.000000
-1.487200 0.000000
-1.445600 0.000000
-1.403900 0.000000
-1.362300 0.000000
-1.320700 0.000000
-1.279100 0.000000
-1.237500 0.000000
-1.195900 0.000000
-1.154200 0.000000
-1.112600 0.000000
-1.071000 0.000000
-1.029400 0.000000
-0.987800 0.000000
-0.946200 0.000000
-0.904500 0.000000
-0.862900 0.000000
-0.821300 0.000000
-0.779700 0.000000
-0.738100 0.000000
-0.696400 0.000000
-0.654800 0.000000
-0.613200 0.000000
-0.571600 0.000000
-0.530000 0.000000
-0.488400 0.000000
-0.446700 0.000000
-0.405100 0.000000
-0.363500 0.000000
-0.321900 0.000000
-0.280300 0.000000
-0.238700 0.000000
-0.197000 0.000000
-0.155400 0.000000
-0.113800 0.000000
-0.072200 0.000000
-0.030600 0.000000
0.011100 0.000000
0.052700 0.000000
0.094300 0.000000
0.135900 0.000000
0.177500 0.000000
0.219100 0.000000
0.260800 0.000000
0.302400 0.000000
0.344000 0.000000
0.385600 0.000000
0.427200 0.000000
0.468800 0.000000
0.510500 0.000000
0.552100 0.000000
0.593700 0.000000
0.635300 0.017300
0.676900 0.053300
0.718600 0.086100
0.760200 0.091800
0.801800 0.107800
0.843400 0.122700
0.885000 0.139000
0.926600 0.156300
0.968300 0.172200
1.009900 0.185100
1.051500 0.197400
1.093100 0.211800
1.134700 0.227200
1.176300 0.245500
1.218000 0.337300
1.259600 0.688500
1.301200 0.845800
1.342800 1.001600
1.384400 1.167900
1.426000 1.338600
1.467700 1.512900
1.509300 1.666600
1.550900 1.923700
1.592500 2.204600
1.634100 2.349500
1.675800 2.409200
1.717400 2.421000
1.759000 2.466400
1.800600 2.552100
1.842200 2.743100
1.883800 3.111400
1.925500 2.987500
1.967100 2.944700
2.008700 2.705800
2.050300 2.070000
2.091900 1.931700
2.133500 1.784100
2.175200 0.663600
2.216800 0.251900
2.258400 0.071600
2.300000 0.012100
2.341600 0.000000
2.383300 0.003300
2.424900 0.206100
2.466500 0.544200
2.508100 1.489000
2.549700 1.591900
2.591300 1.859300
2.633000 2.124200
2.674600 2.409500
2.716200 2.741700
2.757800 2.528400
2.799400 2.356100
2.841000 2.306100
2.882700 2.252100
2.924300 2.266100
2.965900 2.292300
3.007500 2.340300
3.049100 2.758300
3.090700 2.484600
3.132400 2.424200
3.174000 2.617900
3.215600 4.336500
3.257200 3.581100
3.298800 5.349300
3.340500 6.438500
3.382100 5.687300
3.423700 2.122000
3.465300 2.160300
3.506900 2.204700
3.548500 2.386200
3.590200 2.691300
3.631800 3.027000
3.673400 3.312000
3.715000 4.249300
3.756600 6.095500
3.798200 3.452700
3.839900 1.761200
3.881500 0.000000
3.923100 0.000000
3.964700 0.000000
4.006300 0.000000
4.048000 0.000000
4.089600 0.000000
4.131200 0.000000
4.172800 0.000000
4.214400 0.001300
4.256000 0.006200
4.297700 0.013500
4.339300 0.023200
4.380900 0.035300
4.422500 0.049700
4.464100 0.069900
4.505700 0.093800
4.547400 0.122100
4.589000 0.173100
4.630600 0.352100
4.672200 0.773500
4.713800 1.418500
4.755400 1.831900
4.797100 2.177900
4.838700 2.751900
4.880300 3.464000
4.921900 4.142600
4.963500 4.179000
5.005200 4.412800
5.046800 3.805500
5.088400 3.802100
5.130000 4.687200
5.171600 4.887800
5.213200 7.487200
5.254900 2.170500
5.296500 2.359700
5.338100 3.116300
5.379700 2.884100
5.421300 2.382900
5.462900 2.295200
5.504600 2.281400
5.546200 2.389500
5.587800 2.878600
5.629400 3.698400
5.671000 2.857800
5.712700 1.841900
5.754300 1.497900
5.795900 1.348900
5.837500 1.252100
5.879100 1.076700
5.920700 0.995900
5.962400 1.052700
6.004000 1.054900
6.045600 1.105500
6.087200 1.216100
6.128800 1.357400
6.170400 1.615700
6.212100 1.962400
6.253700 2.383000
6.295300 2.720400
6.336900 3.009600
6.378500 2.940200
6.420100 2.674400
6.461800 2.655700
6.503400 2.595100
6.545000 2.483600
6.586600 2.529200
6.628200 2.609000
6.669900 2.569600
6.711500 2.671800
6.753100 2.740600
6.794700 2.627000
6.836300 3.134900
6.877900 2.666100
6.919600 2.596700
6.961200 2.210800
7.002800 1.549100
7.044400 1.301300
7.086000 1.977400
7.127600 2.281900
7.169300 2.495600
7.210900 2.806100
7.252500 3.023400
7.294100 2.989700
7.335700 2.029600
7.377400 1.908100
7.419000 1.923400
7.460600 2.044900
7.502200 2.220800
7.543800 2.534700
7.585400 2.855200
7.627100 3.062300
7.668700 3.278300
7.710300 2.807100
7.751900 2.477000
7.793500 2.303300
7.835100 2.166600
7.876800 2.233300
7.918400 2.257300
7.960000 2.226800
8.001600 2.398100
8.043200 2.678900
8.084800 3.117800
8.126500 2.825900
8.168100 2.735700
8.209700 2.639500
8.251300 2.587000
8.292900 2.667700
8.334600 2.840100
8.376200 2.945300
8.417800 3.031200
8.459400 3.175600
8.501000 3.426600
8.542600 3.737300
8.584300 4.445600
8.625900 4.475700
8.667500 4.459500
8.709100 4.495300
8.750700 4.403100
8.792300 4.402300
8.834000 4.262600
8.875600 4.253900
8.917200 4.883300
8.958800 5.945400
9.000400 6.514300
9.042100 6.866400
9.083700 6.807800
9.125300 5.061700
9.166900 4.610200
9.208500 4.834700
9.250100 5.543400
9.291800 4.412000
9.333400 3.600800
9.375000 3.477200
9.416600 3.447300
9.458200 3.334100
9.499800 3.189800
9.541500 2.701000
9.583100 2.268700
9.624700 2.606700
9.666300 2.754600
9.707900 2.742900
9.749500 2.172800
9.791200 1.838600
9.832800 1.747900
9.874400 1.698300
9.916000 1.651400
9.957600 1.680100
9.999300 1.677400
10.040900 1.640800
10.082500 1.629400
10.124100 1.631800
10.165700 1.623900
10.207300 1.616300
10.249000 1.697100
10.290600 1.735100
10.332200 1.816700
10.373800 1.791900
10.415400 1.817900
10.457000 1.572200
10.498700 1.803300
10.540300 2.276400
10.581900 2.537600
10.623500 2.547100
10.665100 2.792200
10.706800 2.869000
10.748400 3.064100
10.790000 3.367600
10.831600 2.619600
10.873200 2.281200
10.914800 2.093500
10.956500 1.993600
10.998100 2.010500
11.039700 2.009200
11.081300 2.078200
11.122900 2.089500
11.164500 2.078500
11.206200 2.034200
11.247800 2.027500
11.289400 2.024300
11.331000 2.089800
11.372600 2.290500
11.414200 2.573500
11.455900 2.309100
11.497500 1.717800
11.539100 1.586400
11.580700 1.312100
11.622300 1.249700
11.664000 1.336800
11.705600 1.762300
11.747200 2.645900
11.788800 2.762700
11.830400 2.285200
11.872000 1.876200
11.913700 1.804400
11.955300 1.681700
11.996900 1.896400
12.038500 2.213300
12.080100 2.108300
12.121700 2.036600
12.163400 1.816600
12.205000 1.702700
12.246600 1.756100
12.288200 1.904200
12.329800 2.487000
12.371500 3.324200
12.413100 3.063000
12.454700 2.424100
12.496300 2.317400
12.537900 2.080400
12.579500 1.846300
12.621200 1.643600
12.662800 1.367100
12.704400 1.049300
12.746000 1.069100
12.787600 1.074600
12.829200 1.067100
12.870900 1.063600
12.912500 1.064300
12.954100 1.077200
12.995700 1.102700
13.037300 1.153900
13.079000 1.224700
13.120600 1.255200
13.162200 1.349000
13.203800 1.014700
13.245400 0.931300
13.287000 0.899600
13.328700 0.850000
13.370300 0.788100
13.411900 0.815700
13.453500 0.875400
13.495100 0.784600
13.536700 0.724700
13.578400 0.513100
13.620000 0.450000
13.661600 0.404200
13.703200 0.375400
13.744800 0.405600
13.786400 0.377900
13.828100 0.362200
13.869700 0.364400
13.911300 0.389800
13.952900 0.457900
13.994500 0.518100
14.036200 0.578200
14.077800 0.636200
14.119400 0.673500
14.161000 0.700900
14.202600 0.720100
14.244200 0.751300
14.285900 0.784900
14.327500 0.818200
14.369100 0.837700
14.410700 0.876300
14.452300 0.918700
14.493900 0.927400
14.535600 0.917100
14.577200 0.888800
14.618800 0.874800
14.660400 0.884800
14.702000 0.889600
14.743700 0.883700
14.785300 0.880200
14.826900 0.887500
14.868500 0.931200
14.910100 0.966000
14.951700 0.994500
14.993400 1.024500
15.035000 1.120400
15.076600 1.182000
15.118200 1.157000
15.159800 1.154400
15.201400 1.126700
15.243100 1.100900
15.284700 1.182100
15.326300 1.171300
15.367900 1.157400
15.409500 1.148800
15.451100 1.073800
15.492800 1.046600
15.534400 1.019000
15.576000 0.981000
15.617600 0.956300
15.659200 0.937000
15.700900 0.923000
15.742500 0.925800
15.784100 0.966600
15.825700 0.970500
15.867300 1.004800
15.908900 1.051300
15.950600 1.076800
15.992200 1.061900
16.033800 1.067300
16.075400 1.043700
16.117000 1.009200
16.158600 0.978200
16.200300 0.962700
16.241900 0.958200
16.283500 0.938100
16.325100 0.916100
16.366700 0.919000
16.408400 0.917600
16.450000 0.897900
16.491600 0.905700
16.533200 0.952300
16.574800 1.002500
16.616400 1.031300
16.658100 1.011000
16.699700 1.027700
16.741300 1.092600
16.782900 1.179700
16.824500 1.335100
16.866100 1.485200
16.907800 1.435300
16.949400 1.489500
16.991000 1.551500
17.032600 1.687200
17.074200 1.854500
17.115800 1.876400
17.157500 1.810800
17.199100 1.836900
17.240700 1.832300
17.282300 1.773800
17.323900 1.610900
17.365600 1.459900
17.407200 1.373400
17.448800 1.255400
17.490400 1.178100
17.532000 1.116300
17.573600 1.056500
17.615300 1.007900
17.656900 0.922400
17.698500 0.887400
17.740100 0.865700
17.781700 0.848100
17.823300 0.833900
17.865000 0.818900
17.906600 0.803000
17.948200 0.801900
17.989800 0.813000
18.031400 0.846600
18.073100 0.883700
18.114700 0.885200
18.156300 0.895000
18.197900 0.910800
18.239500 0.986500
18.281100 1.041400
18.322800 1.081700
18.364400 1.116500
18.406000 1.166300
18.447600 1.199800
18.489200 1.194000
18.530800 1.188700
18.572500 1.183000
18.614100 1.170600
18.655700 1.079200
18.697300 0.958000
18.738900 0.908800
18.780500 0.892400
18.822200 0.890100
18.863800 0.881600
18.905400 0.873500
18.947000 0.892200
18.988600 0.940600
19.030300 0.990700
19.071900 1.014600
19.113500 1.023700
19.155100 1.000800
19.196700 0.976900
19.238300 0.983400
19.280000 1.010600
19.321600 1.046500
19.363200 1.072900
19.404800 1.089600
19.446400 1.131100
19.488000 1.189900
19.529700 1.255000
19.571300 1.239100
19.612900 1.263200
19.654500 1.271800
19.696100 1.312400
19.737800 1.375500
19.779400 1.409100
19.821000 1.448200
19.862600 1.505000
19.904200 1.577500
19.945800 1.586700
19.987500 1.659300
20.029100 1.654300
20.070700 1.589000
20.112300 1.546400
20.153900 1.520000
20.195500 1.506200
20.237200 1.464900
20.278800 1.450300
20.320400 1.495500
20.362000 1.530300
20.403600 1.552500
20.445200 1.559200
20.486900 1.625600
20.528500 1.727800
20.570100 1.830100
20.611700 1.887800
20.653300 1.844100
20.695000 2.156500
20.736600 1.940700
20.778200 2.111800
20.819800 1.997600
20.861400 2.122800
20.903000 1.946600
20.944700 1.915700
20.986300 2.179100
21.027900 2.263900
21.069500 2.263000
21.111100 2.279500
21.152700 2.411700
21.194400 2.462500
21.236000 2.681400
21.277600 2.591200
21.319200 2.754400
21.360800 2.839800
21.402500 2.132200
21.444100 1.588700
21.485700 1.450300
21.527300 1.714900
21.568900 1.933200
21.610500 2.003600
21.652200 2.121400
21.693800 2.127500
21.735400 2.048600
21.777000 2.314800
21.818600 1.948400
21.860200 1.879900
21.901900 1.893900
21.943500 1.842300
21.985100 1.788600
22.026700 1.725200
22.068300 1.621200
22.109900 1.540700
22.151600 1.527800
22.193200 1.341400
22.234800 1.143900
22.276400 1.013200
22.318000 0.950900
22.359700 0.900300
22.401300 0.865800
22.442900 0.840300
22.484500 0.828400
22.526100 0.817600
22.567700 0.809000
22.609400 0.801700
22.651000 0.783900
22.692600 0.792300
22.734200 0.848700
22.775800 0.884200
22.817400 0.923900
22.859100 0.973200
22.900700 1.027400
22.942300 1.068900
22.983900 1.082800
23.025500 1.117900
23.067200 1.115700
23.108800 1.169100
23.150400 1.228200
23.192000 1.230500
23.233600 1.284200
23.275200 1.317600
23.316900 1.334600
23.358500 1.424100
23.400100 1.488700
23.441700 1.499800
23.483300 1.491100
23.524900 1.486300
23.566600 1.526300
23.608200 1.576700
23.649800 1.578500
23.691400 1.551500
23.733000 1.543200
23.774600 1.550300
23.816300 1.567700
23.857900 1.564300
23.899500 1.542200
23.941100 1.491900
23.982700 1.506800
24.024400 1.266400
24.066000 1.208300
24.107600 1.140000
24.149200 1.131900
24.190800 1.138900
24.232400 1.152100
24.274100 1.179400
24.315700 1.197200
24.357300 1.221400
24.398900 1.278000
24.440500 1.310100
24.482100 1.351600
24.523800 1.434200
24.565400 1.537700
24.607000 1.551200
24.648600 1.565500
24.690200 1.550100
24.731900 1.492800
24.773500 1.456500
24.815100 1.423600
24.856700 1.376100
24.898300 1.332600
24.939900 1.292400
24.981600 1.275700
25.023200 1.257300
25.064800 1.310700
25.106400 1.363400
25.148000 1.541500
25.189600 1.653200
25.231300 1.716700
25.272900 1.785600
25.314500 1.711000
25.356100 1.708000
25.397700 1.712300
25.439400 1.829000
25.481000 1.816500
25.522600 1.781200
25.564200 1.853100
25.605800 1.707400
25.647400 1.587000
25.689100 1.630000
25.730700 1.651300
25.772300 1.628100
25.813900 1.604000
25.855500 1.565900
25.897100 1.615900
25.938800 1.521000
25.980400 1.572000
26.022000 1.731800
26.063600 1.799900
26.105200 1.748400
26.146800 1.650800
26.188500 1.589800
26.230100 1.614400
26.271700 1.445800
26.313300 1.322200
26.354900 1.252500
26.396600 1.194300
26.438200 1.158000
26.479800 1.131800
26.521400 1.077800
26.563000 1.019600
26.604600 0.981800
26.646300 0.971500
26.687900 0.977000
26.729500 0.939300
26.771100 0.895800
26.812700 0.868300
26.854300 0.867200
26.896000 0.879600
26.937600 0.914700
26.979200 0.973300
27.020800 1.003200
27.062400 1.077200
27.104100 1.277800
27.145700 1.360300
27.187300 1.324700
27.228900 1.362200
27.270500 1.444800
27.312100 1.479100
27.353800 1.511800
27.395400 1.576100
27.437000 1.591500
27.478600 1.644200
27.520200 1.671900
27.561800 1.716400
27.603500 1.706900
27.645100 1.566800
27.686700 1.477500
27.728300 1.465300
27.769900 1.328200
27.811500 1.285000
27.853200 1.306600
27.894800 1.294400
27.936400 1.298500
27.978000 1.326800
28.019600 1.474800
28.061300 1.518000
28.102900 1.586600
28.144500 1.735400
28.186100 1.995200
28.227700 2.400400
28.269300 3.077100
28.311000 4.331000
28.352600 3223.749500
28.394200 3.663700
28.435800 2.282600
28.477400 2.161100
28.519000 1.949100
28.560700 1.893400
28.602300 1.847100
28.643900 1.808700
28.685500 1.783100
28.727100 1.828000
28.768800 1.883200
28.810400 1.884000
28.852000 1.915900
28.893600 1.583900
28.935200 1.493700
28.976800 1.418200
29.018500 1.392500
29.060100 1.431300
29.101700 1.457600
29.143300 1.448200
29.184900 1.487400
29.226500 1.585100
29.268200 1.567300
29.309800 1.605600
29.351400 1.633900
29.393000 1.617700
29.434600 1.617400
29.476200 1.595000
29.517900 1.581900
29.559500 1.608200
29.601100 1.561300
29.642700 1.724500
29.684300 1.635600
29.726000 1.702500
29.767600 1.610500
29.809200 1.560600
29.850800 1.532200
29.892400 1.509800
29.934000 1.491000
29.975700 1.471700
30.017300 1.466000
30.058900 1.480200
30.100500 1.521800
30.142100 1.536300
30.183700 1.540500
30.225400 1.530400
30.267000 1.507600
30.308600 1.520300
30.350200 1.595400
30.391800 1.626000
30.433500 1.602200
30.475100 1.542000
30.516700 1.453600
30.558300 1.424400
30.599900 1.400100
30.641500 1.358700
30.683200 1.294800
30.724800 1.214600
30.766400 1.175600
30.808000 1.186300
30.849600 1.209200
30.891200 1.228300
30.932900 1.289000
30.974500 1.479000
31.016100 1.593600
31.057700 1.669000
31.099300 1.790500
31.140900 1.857600
31.182600 1.911200
31.224200 1.940000
31.265800 1.940500
31.307400 1.910500
31.349000 1.807500
31.390700 1.749500
31.432300 1.676100
31.473900 1.556600
31.515500 1.517200
31.557100 1.531400
31.598700 1.592800
31.640400 1.575400
31.682000 1.558500
31.723600 1.531500
31.765200 1.602300
31.806800 1.570100
31.848400 1.510300
31.890100 1.414500
31.931700 1.325900
31.973300 1.293400
32.014900 1.197800
32.056500 1.176700
32.098200 1.189700
32.139800 1.193500
32.181400 1.180300
32.223000 1.183900
32.264600 1.229600
32.306200 1.357600
32.347900 1.658000
32.389500 1.747700
32.431100 1.823700
32.472700 1.791000
32.514300 1.773800
32.555900 1.807500
32.597600 1.885500
32.639200 1.930100
32.680800 1.912400
32.722400 1.909300
32.764000 1.880300
32.805600 1.819900
32.847300 1.752700
32.888900 1.687900
32.930500 1.620400
32.972100 1.619200
33.013700 1.622500
33.055400 1.578700
33.097000 1.503300
33.138600 1.436500
33.180200 1.461800
33.221800 1.374100
33.263400 1.347600
33.305100 1.306200
33.346700 1.266600
33.388300 1.228700
33.429900 1.220000
33.471500 1.223700
33.513100 1.235000
33.554800 1.254900
33.596400 1.282700
33.638000 1.281000
33.679600 1.277300
33.721200 1.297400
33.762900 1.315600
33.804500 1.341000
33.846100 1.387200
33.887700 1.440200
33.929300 1.482000
33.970900 1.512500
34.012600 1.553300
34.054200 1.599100
34.095800 1.709300
34.137400 1.826200
34.179000 1.976200
34.220600 2.103400
34.262300 2.220300
34.303900 2.319700
34.345500 2.330800
34.387100 2.198000
34.428700 2.289100
34.470300 2.243000
34.512000 2.092300
34.553600 2.036500
34.595200 1.985600
34.636800 1.893800
34.678400 1.815800
34.720100 1.761600
34.761700 1.769600
34.803300 1.941300
34.844900 2.041200
34.886500 2.028000
34.928100 1.937600
34.969800 1.863900
35.011400 1.813100
35.053000 1.801000
35.094600 1.784100
35.136200 1.759300
35.177800 1.762900
35.219500 1.909000
35.261100 1.770100
35.302700 1.705000
35.344300 1.675400
35.385900 1.650400
35.427600 1.659300
35.469200 1.715900
35.510800 1.832100
35.552400 1.871000
35.594000 1.906500
35.635600 2.066900
35.677300 2.083700
35.718900 2.041700
35.760500 1.981900
35.802100 1.903300
35.843700 1.848400
35.885300 1.783100
35.927000 1.808000
35.968600 1.789200
36.010200 1.807700
36.051800 1.966400
36.093400 1.937000
36.135000 1.858200
36.176700 1.839700
36.218300 1.845500
36.259900 1.809100
36.301500 1.731500
36.343100 1.678000
36.384800 1.631700
36.426400 1.528200
36.468000 1.453400
36.509600 1.413200
36.551200 1.361800
36.592800 1.352600
36.634500 1.385500
36.676100 1.341000
36.717700 1.278500
36.759300 1.258100
36.800900 1.270800
36.842500 1.317300
36.884200 1.374000
36.925800 1.435400
36.967400 1.490600
37.009000 1.558100
37.050600 1.661200
37.092300 1.752700
37.133900 1.848400
37.175500 1.841600
37.217100 1.940200
37.258700 1.931500
37.300300 1.940200
37.342000 1.916400
37.383600 1.863200
37.425200 1.855600
37.466800 1.823600
37.508400 1.822000
37.550000 1.921400
37.591700 1.925800
37.633300 1.698400
37.674900 1.600000
37.716500 1.605600
37.758100 1.625400
37.799800 1.669400
37.841400 1.613900
37.883000 1.549900
37.924600 1.573700
37.966200 1.626800
38.007800 1.686700
38.049500 1.718900
38.091100 1.739800
38.132700 1.835700
38.174300 1.958400
38.215900 2.030000
38.257500 2.099600
38.299200 2.211700
38.340800 2.187100
38.382400 2.170900
38.424000 2.172400
38.465600 2.198000
38.507200 2.243100
38.548900 2.266800
38.590500 2.274900
38.632100 2.292700
38.673700 2.166800
38.715300 2.063800
38.757000 2.017600
38.798600 1.986400
38.840200 1.908300
38.881800 1.763300
38.923400 1.654900
38.965000 1.597000
39.006700 1.506100
39.048300 1.513800
39.089900 1.596800
39.131500 1.647000
39.173100 1.665300
39.214700 1.689000
39.256400 1.791400
39.298000 1.934600
39.339600 2.110500
39.381200 2.255600
39.422800 2.352900
39.464500 2.288600
39.506100 2.332300
39.547700 2.325700
39.589300 2.286900
39.630900 2.227000
39.672500 2.122700
39.714200 1.999800
39.755800 1.897900
39.797400 1.848800
39.839000 1.873100
39.880600 1.918500
39.922200 2.068000
39.963900 2.056500
40.005500 2.013900
40.047100 2.120300
40.088700 2.118400
40.130300 2.136100
40.171900 2.222700
40.213600 2.503400
40.255200 2.557500
40.296800 2.727600
40.338400 2.922600
40.380000 2.844300
40.421700 2.717600
40.463300 2.518200
40.504900 2.329500
40.546500 2.130900
40.588100 2.021600
40.629700 2.173900
40.671400 1.926100
40.713000 1.883800
40.754600 1.806500
40.796200 1.697600
40.837800 1.651000
40.879400 1.667800
40.921100 1.705100
40.962700 1.719500
41.004300 1.735200
41.045900 1.803300
41.087500 1.795000
41.129200 1.817400
41.170800 1.869900
41.212400 1.941200
41.254000 1.991000
41.295600 2.021900
41.337200 2.086000
41.378900 2.082500
41.420500 2.070700
41.462100 2.121500
41.503700 2.235100
41.545300 2.415900
41.586900 2.601400
41.628600 2.754700
41.670200 2.859100
41.711800 2.755500
41.753400 2.690000
41.795000 2.542600
41.836600 2.341000
41.878300 2.178000
41.919900 2.017000
41.961500 1.762800
42.003100 1.630700
42.044700 1.605800
42.086400 1.511500
42.128000 1.546700
42.169600 1.609000
42.211200 1.667800
42.252800 1.701000
42.294400 1.743900
42.336100 1.762900
42.377700 1.816900
42.419300 1.994500
42.460900 2.034100
42.502500 1.947600
42.544100 1.903700
42.585800 1.942100
42.627400 1.965300
42.669000 1.788700
42.710600 1.849300
42.752200 1.833200
42.793900 1.713300
42.835500 1.592400
42.877100 1.563700
42.918700 1.551100
42.960300 1.558400
43.001900 1.625900
43.043600 1.561400
43.085200 1.532300
43.126800 1.546700
43.168400 1.681000
43.210000 1.718900
43.251600 1.720300
43.293300 1.713700
43.334900 1.577200
43.376500 1.510600
43.418100 1.496600
43.459700 1.462700
43.501300 1.444300
43.543000 1.420600
43.584600 1.399000
43.626200 1.415900
43.667800 1.451000
43.709400 1.496400
43.751100 1.559500
43.792700 1.673800
43.834300 1.765100
43.875900 1.934100
43.917500 2.044100
43.959100 2.095200
44.000800 2.180000
44.042400 2.277500
44.084000 2.295800
44.125600 2.326400
44.167200 2.241000
44.208800 2.115800
44.250500 2.067900
44.292100 1.951500
44.333700 1.859500
44.375300 1.825900
44.416900 1.726600
44.458600 1.620900
44.500200 1.583000
44.541800 1.565000
44.583400 1.549100
44.625000 1.469200
44.666600 1.427500
44.708300 1.394300
44.749900 1.374700
44.791500 1.390400
44.833100 1.424000
44.874700 1.436700
44.916300 1.436100
44.958000 1.410200
44.999600 1.371000
45.041200 1.368100
45.082800 1.399300
45.124400 1.439000
45.166000 1.483600
45.207700 1.539100
45.249300 1.628300
45.290900 1.706200
45.332500 1.767500
45.374100 1.754000
45.415800 1.733300
45.457400 1.647100
45.499000 1.588400
45.540600 1.512900
45.582200 1.454300
45.623800 1.421000
45.665500 1.375900
45.707100 1.334400
45.748700 1.301700
45.790300 1.276300
45.831900 1.304100
45.873500 1.327200
45.915200 1.335700
45.956800 1.188700
45.998400 0.983300
46.040000 0.840500
46.081600 0.766100
46.123300 0.691500
46.164900 0.630200
46.206500 0.673600
46.248100 0.609400
46.289700 0.553600
46.331300 0.473600
46.373000 0.416000
46.414600 0.354900
46.456200 0.303700
46.497800 0.276200
46.539400 0.255300
46.581000 0.231100
46.622700 0.202300
46.664300 0.155900
46.705900 0.126500
46.747500 0.115200
46.789100 0.108500
46.830700 0.103500
46.872400 0.099500
46.914000 0.096200
46.955600 0.093500
46.997200 0.090900
47.038800 0.088400
47.080500 0.085800
47.122100 0.082900
47.163700 0.080300
47.205300 0.077800
47.246900 0.075300
47.288500 0.072900
47.330200 0.070600
47.371800 0.068300
47.413400 0.066200
47.455000 0.064000
47.496600 0.062000
47.538200 0.060000
47.579900 0.058000
47.621500 0.056000
47.663100 0.054100
47.704700 0.052200
47.746300 0.051200
47.788000 0.050400
47.829600 0.048700
47.871200 0.046800
47.912800 0.045100
47.954400 0.043300
47.996000 0.041700
48.037700 0.040100
48.079300 0.038500
48.120900 0.036900
48.162500 0.035400
48.204100 0.036100
48.245700 0.035800
48.287400 0.034500
48.329000 0.032400
48.370600 0.027700
48.412200 0.017700
48.453800 0.008700
48.495400 0.003200
48.537100 0.000100
48.578700 0.000000
48.620300 0.000000
48.661900 0.000000
48.703500 0.000000
48.745200 0.000000
48.786800 0.000000
48.828400 0.000000
48.870000 0.000000
48.911600 0.000000
48.953200 0.000000
48.994900 0.000000
49.036500 0.000000
49.078100 0.000000
49.119700 0.000000
49.161300 0.000000
49.202900 0.000000
49.244600 0.000000
49.286200 0.000000
49.327800 0.000000
49.369400 0.000000
49.411000 0.000000
49.452700 0.000000
49.494300 0.000000
49.535900 0.000000
49.577500 0.000000
49.619100 0.000000
49.660700 0.000000
49.702400 0.000000
49.744000 0.000000
49.785600 0.000000
49.827200 0.000000
49.868800 0.000000
49.910400 0.000000
49.952100 0.000000
49.993700 0.000000
50.035300 0.000000
50.076900 0.000000
50.118500 0.000000
50.160200 0.000000
50.201800 0.000000
50.243400 0.000000
50.285000 0.000000
50.326600 0.000000
50.368200 0.000000
50.409900 0.000000
50.451500 0.000000
50.493100 0.000000
50.534700 0.000000
50.576300 0.000000
50.617900 0.000000
50.659600 0.000000
50.701200 0.000000
50.742800 0.000000
50.784400 0.000000
50.826000 0.000000
50.867600 0.000000
50.909300 0.000000
50.950900 0.000000
50.992500 0.000000
51.034100 0.000000
51.075700 0.000000
51.117400 0.000000
51.159000 0.000000
51.200600 0.000000
51.242200 0.000000
51.283800 0.000000
51.325400 0.000000
51.367100 0.000000
51.408700 0.000000
51.450300 0.000000
51.491900 0.000000
51.533500 0.000000
51.575100 0.000000
51.616800 0.000000
51.658400 0.000000
51.700000 0.000000
51.741600 0.000000
51.783200 0.000000
51.824900 0.000000
51.866500 0.000000
51.908100 0.000000
51.949700 0.000000
51.991300 0.000000
52.032900 0.000000
52.074600 0.000000
52.116200 0.000000
52.157800 0.000000
52.199400 0.000000
52.241000 0.000000
52.282600 0.000000
52.324300 0.000000
e
