set title 'mp-557031 - Density of States'
set xlabel 'Energy (eV)'
set ylabel 'DOS (states/eV)'
set grid
set xrange [-10:10]
set yrange [0:313.106]
set xzeroaxis lt -1
set terminal png size 800,600
set output 'mp-557031_dos_gnuplot.png'
plot '-' using 1:2 with lines title 'DOS'
-17.145700 0.000000
-17.132000 0.000000
-17.118300 0.000000
-17.104500 0.000000
-17.090800 0.000000
-17.077100 0.000000
-17.063400 0.000000
-17.049700 0.000000
-17.036000 0.000000
-17.022300 0.000000
-17.008500 0.000000
-16.994800 0.000000
-16.981100 0.000000
-16.967400 0.000000
-16.953700 0.000000
-16.940000 0.000000
-16.926300 0.000000
-16.912600 0.000000
-16.898800 0.000000
-16.885100 0.000000
-16.871400 0.000000
-16.857700 0.000000
-16.844000 0.000000
-16.830300 0.000000
-16.816600 0.000000
-16.802800 0.000000
-16.789100 0.000000
-16.775400 0.000000
-16.761700 0.000000
-16.748000 0.000000
-16.734300 0.000000
-16.720600 0.000000
-16.706900 0.000000
-16.693100 0.000000
-16.679400 0.000000
-16.665700 0.000000
-16.652000 0.000000
-16.638300 0.000000
-16.624600 0.000000
-16.610900 0.000000
-16.597100 0.000000
-16.583400 0.000000
-16.569700 0.000000
-16.556000 0.000000
-16.542300 0.000000
-16.528600 0.000000
-16.514900 0.000000
-16.501100 0.000000
-16.487400 0.000000
-16.473700 0.000000
-16.460000 0.000000
-16.446300 0.000000
-16.432600 0.000000
-16.418900 0.000000
-16.405200 0.000000
-16.391400 0.000000
-16.377700 0.000000
-16.364000 0.000000
-16.350300 0.000000
-16.336600 0.000000
-16.322900 0.000000
-16.309200 0.000000
-16.295400 0.000000
-16.281700 0.000000
-16.268000 0.000000
-16.254300 0.000000
-16.240600 0.000000
-16.226900 0.000000
-16.213200 0.000000
-16.199500 0.000000
-16.185700 0.000000
-16.172000 0.000000
-16.158300 0.000000
-16.144600 0.000000
-16.130900 0.000000
-16.117200 0.000000
-16.103500 0.000000
-16.089700 0.000000
-16.076000 0.000000
-16.062300 0.000000
-16.048600 0.000000
-16.034900 0.000000
-16.021200 0.000000
-16.007500 0.000000
-15.993800 0.000000
-15.980000 0.000000
-15.966300 0.000000
-15.952600 0.000000
-15.938900 0.000000
-15.925200 0.000000
-15.911500 0.000000
-15.897800 2.389800
-15.884000 169.477900
-15.870300 102.813800
-15.856600 0.000000
-15.842900 0.000000
-15.829200 0.000000
-15.815500 0.000000
-15.801800 0.000000
-15.788000 0.000000
-15.774300 0.000000
-15.760600 0.000000
-15.746900 0.000000
-15.733200 0.000000
-15.719500 0.000000
-15.705800 0.000000
-15.692100 77.449700
-15.678300 0.000000
-15.664600 95.100500
-15.650900 0.000000
-15.637200 0.000000
-15.623500 0.000000
-15.609800 0.000000
-15.596100 0.000000
-15.582300 0.000000
-15.568600 0.000000
-15.554900 0.000000
-15.541200 0.000000
-15.527500 0.000000
-15.513800 0.000000
-15.500100 0.000000
-15.486400 0.000000
-15.472600 0.000000
-15.458900 0.000000
-15.445200 0.000000
-15.431500 0.000000
-15.417800 0.000000
-15.404100 0.000000
-15.390400 0.000000
-15.376600 0.000000
-15.362900 0.000000
-15.349200 0.000000
-15.335500 0.000000
-15.321800 0.000000
-15.308100 0.000000
-15.294400 0.000000
-15.280700 0.000000
-15.266900 0.000000
-15.253200 0.000000
-15.239500 0.000000
-15.225800 0.000000
-15.212100 0.000000
-15.198400 0.000000
-15.184700 0.000000
-15.170900 150.596800
-15.157200 139.354700
-15.143500 181.835700
-15.129800 369.106000
-15.116100 0.000000
-15.102400 0.000000
-15.088700 0.000000
-15.074900 0.000000
-15.061200 0.000000
-15.047500 0.000000
-15.033800 0.000000
-15.020100 0.000000
-15.006400 0.000000
-14.992700 0.000000
-14.979000 0.000000
-14.965200 0.000000
-14.951500 0.000000
-14.937800 0.000000
-14.924100 0.000000
-14.910400 0.000000
-14.896700 0.000000
-14.883000 0.000000
-14.869200 0.000000
-14.855500 0.000000
-14.841800 0.000000
-14.828100 0.000000
-14.814400 0.000000
-14.800700 0.000000
-14.787000 0.000000
-14.773300 0.000000
-14.759500 0.000000
-14.745800 0.000000
-14.732100 0.000000
-14.718400 0.000000
-14.704700 0.000000
-14.691000 0.000000
-14.677300 0.000000
-14.663500 0.000000
-14.649800 0.000000
-14.636100 0.000000
-14.622400 0.000000
-14.608700 0.000000
-14.595000 0.000000
-14.581300 0.000000
-14.567600 0.000000
-14.553800 0.000000
-14.540100 0.000000
-14.526400 0.000000
-14.512700 0.000000
-14.499000 0.000000
-14.485300 0.000000
-14.471600 0.000000
-14.457800 0.000000
-14.444100 0.000000
-14.430400 0.000000
-14.416700 0.000000
-14.403000 0.000000
-14.389300 0.000000
-14.375600 0.000000
-14.361800 0.000000
-14.348100 0.000000
-14.334400 0.000000
-14.320700 0.000000
-14.307000 0.000000
-14.293300 0.000000
-14.279600 0.000000
-14.265900 356.636200
-14.252100 0.000000
-14.238400 229.998400
-14.224700 58.939500
-14.211000 0.000000
-14.197300 0.000000
-14.183600 0.000000
-14.169900 0.000000
-14.156100 0.000000
-14.142400 0.000000
-14.128700 0.000000
-14.115000 0.000000
-14.101300 0.000000
-14.087600 0.000000
-14.073900 0.000000
-14.060200 0.000000
-14.046400 0.000000
-14.032700 0.000000
-14.019000 0.000000
-14.005300 0.000000
-13.991600 0.000000
-13.977900 0.000000
-13.964200 0.000000
-13.950400 0.000000
-13.936700 0.000000
-13.923000 0.000000
-13.909300 0.000000
-13.895600 0.000000
-13.881900 0.000000
-13.868200 0.000000
-13.854500 0.000000
-13.840700 0.000000
-13.827000 0.000000
-13.813300 66.278600
-13.799600 0.000000
-13.785900 53.353600
-13.772200 0.000000
-13.758500 0.000000
-13.744700 0.000000
-13.731000 0.000000
-13.717300 0.000000
-13.703600 0.000000
-13.689900 0.000000
-13.676200 166.575400
-13.662500 0.000000
-13.648700 0.000000
-13.635000 0.000000
-13.621300 0.000000
-13.607600 0.000000
-13.593900 0.000000
-13.580200 0.000000
-13.566500 0.000000
-13.552800 0.000000
-13.539000 0.000000
-13.525300 0.000000
-13.511600 0.000000
-13.497900 0.000000
-13.484200 0.000000
-13.470500 0.000000
-13.456800 0.000000
-13.443000 0.000000
-13.429300 0.000000
-13.415600 0.000000
-13.401900 0.000000
-13.388200 0.000000
-13.374500 0.000000
-13.360800 0.000000
-13.347100 0.000000
-13.333300 0.000000
-13.319600 0.000000
-13.305900 0.000000
-13.292200 0.000000
-13.278500 0.000000
-13.264800 0.000000
-13.251100 0.000000
-13.237300 0.000000
-13.223600 0.000000
-13.209900 0.000000
-13.196200 0.000000
-13.182500 0.000000
-13.168800 0.000000
-13.155100 0.000000
-13.141400 0.000000
-13.127600 0.000000
-13.113900 0.000000
-13.100200 0.000000
-13.086500 0.000000
-13.072800 0.000000
-13.059100 0.000000
-13.045400 0.000000
-13.031600 0.000000
-13.017900 0.000000
-13.004200 0.000000
-12.990500 0.000000
-12.976800 0.000000
-12.963100 0.000000
-12.949400 0.000000
-12.935600 0.000000
-12.921900 0.000000
-12.908200 0.000000
-12.894500 0.000000
-12.880800 0.000000
-12.867100 0.000000
-12.853400 0.000000
-12.839700 0.000000
-12.825900 0.000000
-12.812200 0.000000
-12.798500 0.000000
-12.784800 0.000000
-12.771100 0.000000
-12.757400 0.000000
-12.743700 0.000000
-12.729900 0.000000
-12.716200 0.000000
-12.702500 0.000000
-12.688800 0.000000
-12.675100 0.000000
-12.661400 0.000000
-12.647700 0.000000
-12.634000 0.000000
-12.620200 0.000000
-12.606500 0.000000
-12.592800 0.000000
-12.579100 0.000000
-12.565400 0.000000
-12.551700 0.000000
-12.538000 0.000000
-12.524200 0.000000
-12.510500 0.000000
-12.496800 0.000000
-12.483100 0.000000
-12.469400 0.000000
-12.455700 0.000000
-12.442000 0.000000
-12.428300 0.000000
-12.414500 0.000000
-12.400800 0.000000
-12.387100 0.000000
-12.373400 0.000000
-12.359700 0.000000
-12.346000 0.000000
-12.332300 0.000000
-12.318500 0.000000
-12.304800 0.000000
-12.291100 0.000000
-12.277400 0.000000
-12.263700 0.000000
-12.250000 0.000000
-12.236300 0.000000
-12.222500 0.000000
-12.208800 0.000000
-12.195100 0.000000
-12.181400 0.000000
-12.167700 0.000000
-12.154000 0.000000
-12.140300 0.000000
-12.126600 0.000000
-12.112800 0.000000
-12.099100 0.000000
-12.085400 0.000000
-12.071700 0.000000
-12.058000 0.000000
-12.044300 0.000000
-12.030600 0.000000
-12.016800 0.000000
-12.003100 0.000000
-11.989400 0.000000
-11.975700 0.000000
-11.962000 0.000000
-11.948300 0.000000
-11.934600 0.000000
-11.920900 0.000000
-11.907100 0.000000
-11.893400 0.000000
-11.879700 0.000000
-11.866000 0.000000
-11.852300 0.000000
-11.838600 0.000000
-11.824900 18.553600
-11.811100 65.056000
-11.797400 65.781200
-11.783700 95.014800
-11.770000 9.763600
-11.756300 0.000000
-11.742600 0.000000
-11.728900 0.000000
-11.715200 0.000000
-11.701400 0.000000
-11.687700 0.000000
-11.674000 0.000000
-11.660300 0.000000
-11.646600 0.000000
-11.632900 0.000000
-11.619200 0.000000
-11.605400 0.000000
-11.591700 0.000000
-11.578000 0.000000
-11.564300 0.000000
-11.550600 88.800000
-11.536900 663.451400
-11.523200 0.000000
-11.509400 0.000000
-11.495700 0.000000
-11.482000 0.000000
-11.468300 0.000000
-11.454600 0.000000
-11.440900 0.000000
-11.427200 0.000000
-11.413500 0.000000
-11.399700 0.000000
-11.386000 0.000000
-11.372300 0.000000
-11.358600 0.000000
-11.344900 0.000000
-11.331200 0.000000
-11.317500 0.000000
-11.303700 0.000000
-11.290000 0.000000
-11.276300 0.000000
-11.262600 0.000000
-11.248900 0.000000
-11.235200 0.000000
-11.221500 0.000000
-11.207800 0.000000
-11.194000 0.000000
-11.180300 0.000000
-11.166600 0.000000
-11.152900 0.000000
-11.139200 0.000000
-11.125500 0.000000
-11.111800 0.000000
-11.098000 0.000000
-11.084300 0.000000
-11.070600 0.000000
-11.056900 0.000000
-11.043200 0.000000
-11.029500 0.000000
-11.015800 0.000000
-11.002100 0.000000
-10.988300 0.000000
-10.974600 0.000000
-10.960900 0.000000
-10.947200 0.000000
-10.933500 0.000000
-10.919800 0.000000
-10.906100 2.262000
-10.892300 25.035200
-10.878600 81.233300
-10.864900 234.661800
-10.851200 0.000000
-10.837500 154.566900
-10.823800 77.536300
-10.810100 37.192500
-10.796300 11.796400
-10.782600 0.000000
-10.768900 0.000000
-10.755200 0.000000
-10.741500 0.000000
-10.727800 0.000000
-10.714100 0.000000
-10.700400 0.000000
-10.686600 0.000000
-10.672900 0.000000
-10.659200 0.000000
-10.645500 0.000000
-10.631800 0.000000
-10.618100 0.000000
-10.604400 0.000000
-10.590600 0.000000
-10.576900 0.000000
-10.563200 0.000000
-10.549500 0.000000
-10.535800 0.000000
-10.522100 0.000000
-10.508400 0.000000
-10.494700 0.000000
-10.480900 0.000000
-10.467200 0.000000
-10.453500 0.000000
-10.439800 0.000000
-10.426100 0.000000
-10.412400 0.000000
-10.398700 0.000000
-10.384900 0.000000
-10.371200 0.000000
-10.357500 0.000000
-10.343800 0.000000
-10.330100 0.000000
-10.316400 0.000000
-10.302700 0.000000
-10.289000 0.000000
-10.275200 0.000000
-10.261500 0.000000
-10.247800 0.000000
-10.234100 0.000000
-10.220400 0.000000
-10.206700 0.000000
-10.193000 0.000000
-10.179200 0.000000
-10.165500 0.000000
-10.151800 0.000000
-10.138100 0.000000
-10.124400 0.000000
-10.110700 0.000000
-10.097000 0.000000
-10.083200 0.000000
-10.069500 0.000000
-10.055800 0.000000
-10.042100 0.000000
-10.028400 0.000000
-10.014700 0.000000
-10.001000 0.000000
-9.987300 0.000000
-9.973500 0.000000
-9.959800 0.000000
-9.946100 0.000000
-9.932400 0.000000
-9.918700 0.000000
-9.905000 0.000000
-9.891300 0.000000
-9.877500 0.000000
-9.863800 0.000000
-9.850100 0.000000
-9.836400 0.000000
-9.822700 0.000000
-9.809000 0.000000
-9.795300 0.000000
-9.781600 0.000000
-9.767800 0.000000
-9.754100 0.000000
-9.740400 0.000000
-9.726700 0.000000
-9.713000 0.000000
-9.699300 0.000000
-9.685600 0.000000
-9.671800 0.000000
-9.658100 0.000000
-9.644400 0.000000
-9.630700 0.000000
-9.617000 0.000000
-9.603300 0.000000
-9.589600 0.000000
-9.575900 0.000000
-9.562100 0.000000
-9.548400 0.000000
-9.534700 0.000000
-9.521000 0.000000
-9.507300 0.000000
-9.493600 0.000000
-9.479900 0.000000
-9.466100 0.000000
-9.452400 135.721600
-9.438700 123.337400
-9.425000 28.507600
-9.411300 11.618900
-9.397600 30.571500
-9.383900 58.170700
-9.370100 43.790400
-9.356400 0.000000
-9.342700 134.438000
-9.329000 47.551300
-9.315300 11.846300
-9.301600 0.000000
-9.287900 0.000000
-9.274200 0.000000
-9.260400 0.000000
-9.246700 0.000000
-9.233000 0.000000
-9.219300 0.000000
-9.205600 0.000000
-9.191900 0.000000
-9.178200 0.000000
-9.164400 0.000000
-9.150700 0.000000
-9.137000 0.000000
-9.123300 0.000000
-9.109600 0.000000
-9.095900 0.000000
-9.082200 0.000000
-9.068500 0.000000
-9.054700 0.000000
-9.041000 0.000000
-9.027300 0.000000
-9.013600 0.000000
-8.999900 0.000000
-8.986200 0.000000
-8.972500 0.000000
-8.958700 0.000000
-8.945000 0.000000
-8.931300 0.000000
-8.917600 0.000000
-8.903900 0.000000
-8.890200 0.000000
-8.876500 0.000000
-8.862800 0.000000
-8.849000 0.000000
-8.835300 0.000000
-8.821600 0.000000
-8.807900 0.000000
-8.794200 0.000000
-8.780500 0.000000
-8.766800 0.000000
-8.753000 0.000000
-8.739300 0.000000
-8.725600 0.000000
-8.711900 0.000000
-8.698200 0.000000
-8.684500 0.000000
-8.670800 0.000000
-8.657000 0.000000
-8.643300 0.000000
-8.629600 0.000000
-8.615900 0.000000
-8.602200 0.000000
-8.588500 0.000000
-8.574800 0.000000
-8.561100 0.000000
-8.547300 0.000000
-8.533600 0.000000
-8.519900 0.000000
-8.506200 0.000000
-8.492500 0.000000
-8.478800 0.000000
-8.465100 0.000000
-8.451300 0.000000
-8.437600 0.000000
-8.423900 0.000000
-8.410200 0.000000
-8.396500 0.000000
-8.382800 0.000000
-8.369100 0.000000
-8.355400 0.000000
-8.341600 0.000000
-8.327900 0.000000
-8.314200 0.000000
-8.300500 0.000000
-8.286800 0.000000
-8.273100 0.000000
-8.259400 0.000000
-8.245600 0.000000
-8.231900 0.000000
-8.218200 0.000000
-8.204500 0.000000
-8.190800 0.000000
-8.177100 0.000000
-8.163400 6.150800
-8.149700 149.237500
-8.135900 0.000000
-8.122200 112.925800
-8.108500 9.839100
-8.094800 0.000000
-8.081100 0.000000
-8.067400 0.000000
-8.053700 0.000000
-8.039900 0.000000
-8.026200 0.000000
-8.012500 0.000000
-7.998800 8.986600
-7.985100 63.296400
-7.971400 78.786800
-7.957700 0.000000
-7.943900 153.857000
-7.930200 6.381400
-7.916500 0.000000
-7.902800 0.000000
-7.889100 0.000000
-7.875400 0.000000
-7.861700 0.000000
-7.848000 0.000000
-7.834200 0.000000
-7.820500 0.000000
-7.806800 0.000000
-7.793100 0.000000
-7.779400 0.000000
-7.765700 0.000000
-7.752000 0.000000
-7.738200 0.000000
-7.724500 0.000000
-7.710800 0.000000
-7.697100 0.000000
-7.683400 0.000000
-7.669700 0.000000
-7.656000 0.000000
-7.642300 0.000000
-7.628500 0.000000
-7.614800 0.000000
-7.601100 0.000000
-7.587400 0.000000
-7.573700 0.000000
-7.560000 0.000000
-7.546300 0.000000
-7.532500 0.000000
-7.518800 0.000000
-7.505100 0.000000
-7.491400 0.000000
-7.477700 0.000000
-7.464000 0.000000
-7.450300 0.000000
-7.436600 0.000000
-7.422800 0.000000
-7.409100 0.000000
-7.395400 0.000000
-7.381700 0.000000
-7.368000 0.000000
-7.354300 0.000000
-7.340600 0.000000
-7.326800 0.000000
-7.313100 0.000000
-7.299400 0.000000
-7.285700 0.000000
-7.272000 0.000000
-7.258300 0.000000
-7.244600 0.000000
-7.230800 0.000000
-7.217100 0.000000
-7.203400 0.000000
-7.189700 0.000000
-7.176000 0.000000
-7.162300 0.000000
-7.148600 0.000000
-7.134900 0.000000
-7.121100 0.000000
-7.107400 0.000000
-7.093700 0.000000
-7.080000 0.000000
-7.066300 0.000000
-7.052600 0.000000
-7.038900 0.000000
-7.025100 0.000000
-7.011400 0.000000
-6.997700 0.000000
-6.984000 0.000000
-6.970300 0.000000
-6.956600 0.000000
-6.942900 0.000000
-6.929200 0.000000
-6.915400 0.000000
-6.901700 0.000000
-6.888000 0.000000
-6.874300 0.000000
-6.860600 0.000000
-6.846900 0.000000
-6.833200 0.000000
-6.819400 0.000000
-6.805700 0.000000
-6.792000 0.000000
-6.778300 0.000000
-6.764600 0.000000
-6.750900 0.000000
-6.737200 0.000000
-6.723500 0.000000
-6.709700 0.000000
-6.696000 0.000000
-6.682300 0.000000
-6.668600 0.000000
-6.654900 0.000000
-6.641200 0.000000
-6.627500 0.000000
-6.613700 0.000000
-6.600000 0.000000
-6.586300 0.000000
-6.572600 0.000000
-6.558900 0.000000
-6.545200 0.000000
-6.531500 0.000000
-6.517700 0.000000
-6.504000 0.000000
-6.490300 0.000000
-6.476600 0.000000
-6.462900 0.000000
-6.449200 0.000000
-6.435500 0.000000
-6.421800 0.000000
-6.408000 0.000000
-6.394300 0.000000
-6.380600 0.000000
-6.366900 0.000000
-6.353200 0.000000
-6.339500 0.000000
-6.325800 0.000000
-6.312000 0.000000
-6.298300 0.000000
-6.284600 0.000000
-6.270900 0.000000
-6.257200 0.000000
-6.243500 0.000000
-6.229800 0.000000
-6.216100 0.000000
-6.202300 0.000000
-6.188600 0.000000
-6.174900 0.000000
-6.161200 0.000000
-6.147500 0.000000
-6.133800 0.000000
-6.120100 0.000000
-6.106300 0.000000
-6.092600 0.000000
-6.078900 0.000000
-6.065200 0.000000
-6.051500 0.000000
-6.037800 0.000000
-6.024100 0.000000
-6.010400 0.000000
-5.996600 0.000000
-5.982900 0.000000
-5.969200 0.000000
-5.955500 0.000000
-5.941800 0.000000
-5.928100 0.000000
-5.914400 0.000000
-5.900600 0.000000
-5.886900 0.000000
-5.873200 0.000000
-5.859500 0.000000
-5.845800 0.000000
-5.832100 0.000000
-5.818400 0.000000
-5.804600 0.000000
-5.790900 0.000000
-5.777200 177.579900
-5.763500 163.946300
-5.749800 0.000000
-5.736100 0.000000
-5.722400 0.000000
-5.708700 0.000000
-5.694900 0.000000
-5.681200 0.000000
-5.667500 0.000000
-5.653800 0.000000
-5.640100 0.000000
-5.626400 0.000000
-5.612700 0.000000
-5.598900 143.416800
-5.585200 0.000000
-5.571500 40.824200
-5.557800 0.000000
-5.544100 0.000000
-5.530400 0.000000
-5.516700 0.000000
-5.503000 0.000000
-5.489200 0.000000
-5.475500 0.000000
-5.461800 0.000000
-5.448100 0.000000
-5.434400 0.000000
-5.420700 0.000000
-5.407000 0.000000
-5.393200 0.000000
-5.379500 0.000000
-5.365800 0.000000
-5.352100 0.000000
-5.338400 0.000000
-5.324700 0.000000
-5.311000 0.000000
-5.297300 0.000000
-5.283500 0.000000
-5.269800 0.000000
-5.256100 3.870500
-5.242400 11.893000
-5.228700 21.407100
-5.215000 39.091100
-5.201300 39.485500
-5.187500 32.841500
-5.173800 0.000000
-5.160100 43.493800
-5.146400 41.328700
-5.132700 20.566900
-5.119000 14.158200
-5.105300 8.588000
-5.091500 3.856000
-5.077800 0.337300
-5.064100 0.000000
-5.050400 0.000000
-5.036700 0.000000
-5.023000 0.000000
-5.009300 0.000000
-4.995600 0.000000
-4.981800 0.000000
-4.968100 0.000000
-4.954400 0.000000
-4.940700 0.000000
-4.927000 0.000000
-4.913300 0.000000
-4.899600 0.000000
-4.885800 1.718600
-4.872100 10.339200
-4.858400 26.214300
-4.844700 219.143300
-4.831000 116.003300
-4.817300 0.000000
-4.803600 0.000000
-4.789900 0.000000
-4.776100 0.000000
-4.762400 0.000000
-4.748700 0.000000
-4.735000 0.000000
-4.721300 0.000000
-4.707600 0.000000
-4.693900 0.000000
-4.680100 0.330200
-4.666400 1.769300
-4.652700 3.894100
-4.639000 6.237600
-4.625300 8.799900
-4.611600 11.580900
-4.597900 14.810900
-4.584200 25.345000
-4.570400 27.846900
-4.556700 23.672300
-4.543000 17.764200
-4.529300 0.000000
-4.515600 0.000000
-4.501900 7.809100
-4.488200 23.197200
-4.474400 38.753400
-4.460700 38.568200
-4.447000 33.578100
-4.433300 0.000000
-4.419600 0.000000
-4.405900 0.000000
-4.392200 47.278400
-4.378400 52.357800
-4.364700 82.498200
-4.351000 38.807000
-4.337300 23.076700
-4.323600 11.952900
-4.309900 4.979700
-4.296200 0.729700
-4.282500 39.053600
-4.268700 284.641400
-4.255000 128.702700
-4.241300 34.842100
-4.227600 41.038600
-4.213900 95.913500
-4.200200 18.344800
-4.186500 8.017500
-4.172700 1.904200
-4.159000 0.000000
-4.145300 0.000000
-4.131600 0.000000
-4.117900 0.000000
-4.104200 0.000000
-4.090500 0.000000
-4.076800 0.000000
-4.063000 0.000000
-4.049300 0.002100
-4.035600 0.479500
-4.021900 1.794000
-4.008200 3.945600
-3.994500 6.934300
-3.980800 10.872200
-3.967000 74.863900
-3.953300 44.179700
-3.939600 30.750000
-3.925900 44.408300
-3.912200 74.943900
-3.898500 3.398900
-3.884800 0.000000
-3.871100 0.000000
-3.857300 0.000000
-3.843600 0.000000
-3.829900 44.062700
-3.816200 103.492900
-3.802500 22.801000
-3.788800 40.021100
-3.775100 39.758700
-3.761300 34.425500
-3.747600 9.827400
-3.733900 3.774500
-3.720200 0.734600
-3.706500 0.000000
-3.692800 0.000000
-3.679100 0.000000
-3.665300 0.000000
-3.651600 0.000000
-3.637900 0.000000
-3.624200 0.000000
-3.610500 0.000000
-3.596800 0.000000
-3.583100 0.000000
-3.569400 0.000000
-3.555600 0.000000
-3.541900 8.377300
-3.528200 12.192500
-3.514500 16.175600
-3.500800 17.525400
-3.487100 17.359500
-3.473400 17.194900
-3.459600 17.031800
-3.445900 30.414900
-3.432200 30.382900
-3.418500 29.749700
-3.404800 33.718100
-3.391100 26.550000
-3.377400 23.298800
-3.363700 15.970100
-3.349900 23.395900
-3.336200 31.218800
-3.322500 42.051900
-3.308800 23.300000
-3.295100 69.702500
-3.281400 71.672000
-3.267700 0.654400
-3.253900 3.516100
-3.240200 11.790200
-3.226500 20.794300
-3.212800 30.280300
-3.199100 41.513500
-3.185400 66.812200
-3.171700 46.651600
-3.158000 23.836600
-3.144200 10.485000
-3.130500 1.613400
-3.116800 41.219300
-3.103100 59.888700
-3.089400 26.692800
-3.075700 5.403600
-3.062000 14.032700
-3.048200 23.972100
-3.034500 30.633200
-3.020800 50.106300
-3.007100 42.706200
-2.993400 40.952400
-2.979700 37.166100
-2.966000 23.273700
-2.952200 20.422600
-2.938500 26.632700
-2.924800 71.303700
-2.911100 32.862900
-2.897400 0.000000
-2.883700 40.902900
-2.870000 57.855600
-2.856300 96.478200
-2.842500 44.288400
-2.828800 32.280800
-2.815100 22.370200
-2.801400 24.050000
-2.787700 52.112100
-2.774000 51.350500
-2.760300 53.577900
-2.746500 57.548300
-2.732800 28.067000
-2.719100 13.344900
-2.705400 8.159500
-2.691700 4.467300
-2.678000 1.686400
-2.664300 0.107300
-2.650600 0.000000
-2.636800 0.000000
-2.623100 0.000000
-2.609400 0.000000
-2.595700 0.000000
-2.582000 0.000000
-2.568300 0.000000
-2.554600 0.000000
-2.540800 0.000000
-2.527100 0.000000
-2.513400 0.000000
-2.499700 0.000000
-2.486000 0.000000
-2.472300 0.000000
-2.458600 0.000000
-2.444900 0.000000
-2.431100 0.000000
-2.417400 0.000000
-2.403700 0.000000
-2.390000 0.000000
-2.376300 0.000000
-2.362600 0.000000
-2.348900 0.000000
-2.335100 0.000000
-2.321400 0.000000
-2.307700 0.000000
-2.294000 0.000000
-2.280300 0.000000
-2.266600 0.000000
-2.252900 0.000000
-2.239100 0.000000
-2.225400 0.000000
-2.211700 0.000000
-2.198000 0.000000
-2.184300 0.000000
-2.170600 0.000000
-2.156900 0.000000
-2.143200 0.000000
-2.129400 0.000000
-2.115700 0.000000
-2.102000 0.000000
-2.088300 0.000000
-2.074600 0.000000
-2.060900 0.000000
-2.047200 0.000000
-2.033400 0.000000
-2.019700 0.000000
-2.006000 0.000000
-1.992300 0.000000
-1.978600 0.000000
-1.964900 0.000000
-1.951200 0.000000
-1.937500 0.000000
-1.923700 0.000000
-1.910000 0.000000
-1.896300 0.000000
-1.882600 0.000000
-1.868900 0.000000
-1.855200 63.728800
-1.841500 57.293500
-1.827700 40.896800
-1.814000 0.000000
-1.800300 60.894900
-1.786600 39.543500
-1.772900 17.363800
-1.759200 0.000000
-1.745500 0.000000
-1.731800 0.000000
-1.718000 0.000000
-1.704300 0.000000
-1.690600 0.000000
-1.676900 0.000000
-1.663200 0.000000
-1.649500 0.000000
-1.635800 0.000000
-1.622000 0.000000
-1.608300 0.000000
-1.594600 0.000000
-1.580900 0.000000
-1.567200 0.000000
-1.553500 0.000000
-1.539800 0.000000
-1.526000 0.000000
-1.512300 0.000000
-1.498600 0.000000
-1.484900 0.000000
-1.471200 0.000000
-1.457500 0.000000
-1.443800 0.000000
-1.430100 4.781300
-1.416300 39.470800
-1.402600 51.735200
-1.388900 54.886600
-1.375200 50.644000
-1.361500 33.340900
-1.347800 20.084900
-1.334100 20.135000
-1.320300 26.246000
-1.306600 19.898600
-1.292900 34.006500
-1.279200 36.507600
-1.265500 28.884600
-1.251800 194.134400
-1.238100 0.000000
-1.224400 78.630300
-1.210600 45.706600
-1.196900 30.444400
-1.183200 23.876700
-1.169500 33.946600
-1.155800 42.826800
-1.142100 22.557900
-1.128400 15.556600
-1.114600 9.918800
-1.100900 5.643700
-1.087200 2.610700
-1.073500 0.732500
-1.059800 0.009200
-1.046100 0.000000
-1.032400 0.000000
-1.018700 0.000000
-1.004900 0.000000
-0.991200 0.000000
-0.977500 0.000000
-0.963800 0.000000
-0.950100 0.000000
-0.936400 0.000000
-0.922700 0.000000
-0.908900 5.295400
-0.895200 14.562300
-0.881500 15.355200
-0.867800 15.300900
-0.854100 15.249100
-0.840400 17.084800
-0.826700 71.863200
-0.812900 57.517000
-0.799200 61.877700
-0.785500 70.751400
-0.771800 145.478200
-0.758100 30.745500
-0.744400 101.832300
-0.730700 21.375700
-0.717000 57.748300
-0.703200 64.546300
-0.689500 14.520600
-0.675800 25.142900
-0.662100 31.109800
-0.648400 32.881300
-0.634700 30.851300
-0.621000 17.799800
-0.607200 14.300200
-0.593500 36.378200
-0.579800 47.596400
-0.566100 46.437200
-0.552400 48.307400
-0.538700 49.981400
-0.525000 17.072300
-0.511300 46.396400
-0.497500 120.677800
-0.483800 41.584900
-0.470100 31.399100
-0.456400 22.012500
-0.442700 21.655100
-0.429000 22.674400
-0.415300 48.214000
-0.401500 83.974900
-0.387800 58.896400
-0.374100 82.157800
-0.360400 207.807800
-0.346700 34.403600
-0.333000 115.873700
-0.319300 30.225500
-0.305600 34.103900
-0.291800 69.418000
-0.278100 0.000000
-0.264400 0.000000
-0.250700 0.000000
-0.237000 0.000000
-0.223300 26.264600
-0.209600 29.899800
-0.195800 29.283500
-0.182100 29.547900
-0.168400 13.270100
-0.154700 9.656500
-0.141000 6.377600
-0.127300 3.433400
-0.113600 0.823800
-0.099800 0.000000
-0.086100 0.000000
-0.072400 0.000000
-0.058700 0.000000
-0.045000 0.000000
-0.031300 0.000000
-0.017600 0.000000
-0.003900 0.000000
0.009900 0.000000
0.023600 0.000000
0.037300 43.480500
0.051000 40.534800
0.064700 35.424400
0.078400 45.409800
0.092100 110.941700
0.105900 20.144300
0.119600 0.334600
0.133300 0.000000
0.147000 53.777600
0.160700 63.540800
0.174400 66.631100
0.188100 64.223800
0.201800 36.149400
0.215600 7.697800
0.229300 3.754100
0.243000 4.681400
0.256700 5.650000
0.270400 6.659800
0.284100 11.454400
0.297800 11.413300
0.311600 11.388700
0.325300 11.380500
0.339000 11.388600
0.352700 11.413100
0.366400 11.454100
0.380100 11.511400
0.393800 11.585100
0.407500 9.551200
0.421300 5.835500
0.435000 0.000000
0.448700 19.682600
0.462400 26.753800
0.476100 34.924800
0.489800 25.735000
0.503500 27.005100
0.517300 5.311100
0.531000 0.000000
0.544700 0.000000
0.558400 0.000000
0.572100 0.000000
0.585800 0.000000
0.599500 0.000000
0.613300 0.000000
0.627000 0.000000
0.640700 0.000000
0.654400 0.000000
0.668100 0.000000
0.681800 0.000000
0.695500 0.000000
0.709200 0.000000
0.723000 0.000000
0.736700 0.000000
0.750400 0.000000
0.764100 0.000000
0.777800 0.000000
0.791500 0.000000
0.805200 0.000000
0.819000 0.000000
0.832700 0.000000
0.846400 0.000000
0.860100 0.000000
0.873800 0.000000
0.887500 0.000000
0.901200 0.000000
0.914900 0.000000
0.928700 0.000000
0.942400 0.000000
0.956100 0.000000
0.969800 0.000000
0.983500 0.000000
0.997200 0.000000
1.010900 0.000000
1.024700 0.000000
1.038400 0.000000
1.052100 0.000000
1.065800 0.000000
1.079500 0.000000
1.093200 0.000000
1.106900 0.000000
1.120600 0.000000
1.134400 0.000000
1.148100 0.000000
1.161800 0.000000
1.175500 0.000000
1.189200 0.000000
1.202900 0.000000
1.216600 0.000000
1.230400 0.000000
1.244100 0.000000
1.257800 0.000000
1.271500 0.000000
1.285200 0.000000
1.298900 0.000000
1.312600 0.000000
1.326400 0.000000
1.340100 0.000000
1.353800 0.000000
1.367500 0.000000
1.381200 0.000000
1.394900 0.000000
1.408600 0.000000
1.422300 0.000000
1.436100 0.000000
1.449800 0.000000
1.463500 0.000000
1.477200 0.000000
1.490900 0.000000
1.504600 0.000000
1.518300 0.000000
1.532100 0.000000
1.545800 0.000000
1.559500 0.000000
1.573200 0.000000
1.586900 0.000000
1.600600 0.000000
1.614300 0.000000
1.628000 0.000000
1.641800 0.000000
1.655500 0.000000
1.669200 0.000000
1.682900 0.000000
1.696600 0.000000
1.710300 0.000000
1.724000 0.000000
1.737800 0.000000
1.751500 0.000000
1.765200 0.000000
1.778900 0.000000
1.792600 0.000000
1.806300 0.000000
1.820000 0.000000
1.833700 0.000000
1.847500 0.000000
1.861200 0.000000
1.874900 0.000000
1.888600 0.000000
1.902300 0.000000
1.916000 0.000000
1.929700 0.000000
1.943500 0.000000
1.957200 0.000000
1.970900 0.000000
1.984600 0.000000
1.998300 0.000000
2.012000 0.000000
2.025700 0.000000
2.039500 0.000000
2.053200 0.000000
2.066900 0.000000
2.080600 0.000000
2.094300 0.000000
2.108000 0.000000
2.121700 0.000000
2.135400 0.000000
2.149200 0.000000
2.162900 0.000000
2.176600 0.000000
2.190300 0.000000
2.204000 0.000000
2.217700 0.000000
2.231400 0.000000
2.245200 0.000000
2.258900 0.000000
2.272600 0.000000
2.286300 0.000000
2.300000 0.000000
2.313700 0.000000
2.327400 0.000000
2.341100 0.000000
2.354900 0.000000
2.368600 0.000000
2.382300 0.000000
2.396000 0.000000
2.409700 0.000000
2.423400 0.000000
2.437100 0.000000
2.450900 0.000000
2.464600 0.000000
2.478300 0.000000
2.492000 0.000000
2.505700 0.000000
2.519400 0.000000
2.533100 0.000000
2.546800 0.000000
2.560600 0.000000
2.574300 0.000000
2.588000 0.000000
2.601700 0.000300
2.615400 0.072400
2.629100 0.270100
2.642800 0.593500
2.656600 1.042600
2.670300 1.617500
2.684000 2.318000
2.697700 3.144200
2.711400 4.096200
2.725100 5.379200
2.738800 9.563000
2.752600 12.450700
2.766300 12.676300
2.780000 12.995300
2.793700 14.614800
2.807400 16.875600
2.821100 19.553200
2.834800 21.159600
2.848500 22.779800
2.862300 24.845900
2.876000 27.357900
2.889700 58.925700
2.903400 52.870800
2.917100 8.911100
2.930800 11.270200
2.944500 13.729800
2.958300 16.289800
2.972000 19.202900
2.985700 38.017600
2.999400 56.180300
3.013100 75.142600
3.026800 0.000000
3.040500 0.000000
3.054200 0.000000
3.068000 6.411600
3.081700 20.905500
3.095400 32.519100
3.109100 42.462800
3.122800 38.643500
3.136500 81.209300
3.150200 40.547900
3.164000 26.830500
3.177700 11.312300
3.191400 6.496400
3.205100 4.435900
3.218800 2.767500
3.232500 1.490900
3.246200 9.852700
3.259900 29.616500
3.273700 59.369300
3.287400 76.558400
3.301100 21.728400
3.314800 44.616800
3.328500 33.525700
3.342200 22.052600
3.355900 10.984100
3.369700 1.735300
3.383400 86.813000
3.397100 37.307600
3.410800 27.479900
3.424500 15.004300
3.438200 49.148700
3.451900 55.508500
3.465700 20.834500
3.479400 10.269800
3.493100 3.588400
3.506800 0.341000
3.520500 4.910900
3.534200 28.505200
3.547900 31.870100
3.561600 28.136000
3.575400 22.438900
3.589100 87.504900
3.602800 51.016600
3.616500 22.048600
3.630200 11.352900
3.643900 6.028500
3.657600 2.375300
3.671400 0.393300
3.685100 0.000000
3.698800 74.484200
3.712500 116.571200
3.726200 53.692400
3.739900 45.294900
3.753600 14.890400
3.767300 2.890800
3.781100 54.441100
3.794800 24.076300
3.808500 21.175700
3.822200 16.524500
3.835900 9.411400
3.849600 49.636700
3.863300 54.637600
3.877100 33.708900
3.890800 19.626900
3.904500 6.608000
3.918200 1.038300
3.931900 0.000000
3.945600 37.435800
3.959300 40.477500
3.973000 36.834700
3.986800 50.119400
4.000500 59.711700
4.014200 34.647800
4.027900 11.498700
4.041600 6.514400
4.055300 2.936700
4.069000 0.765700
4.082800 0.001300
4.096500 2.899800
4.110200 11.467400
4.123900 21.641200
4.137600 31.447700
4.151300 34.862200
4.165000 23.212600
4.178800 13.509000
4.192500 136.773300
4.206200 55.148300
4.219900 25.510200
4.233600 81.122400
4.247300 66.783300
4.261000 93.288900
4.274700 60.720200
4.288500 49.954600
4.302200 66.480700
4.315900 28.559500
4.329600 102.911900
4.343300 61.644900
4.357000 18.932400
4.370700 74.977900
4.384500 46.103100
4.398200 35.461500
4.411900 63.703100
4.425600 8.116700
4.439300 0.000000
4.453000 1.348500
4.466700 5.913400
4.480400 15.830200
4.494200 76.511400
4.507900 38.875600
4.521600 17.183000
4.535300 7.056600
4.549000 0.518800
4.562700 1.558400
4.576400 20.471700
4.590200 70.502600
4.603900 30.368000
4.617600 12.852300
4.631300 6.120200
4.645000 5.723500
4.658700 17.324300
4.672400 32.223800
4.686100 62.532400
4.699900 37.137000
4.713600 26.362000
4.727300 35.276300
4.741000 43.657800
4.754700 25.113900
4.768400 15.944700
4.782100 0.000000
4.795900 0.000000
4.809600 0.000000
4.823300 0.000000
4.837000 0.000000
4.850700 0.000000
4.864400 4.074700
4.878100 13.135000
4.891900 22.959300
4.905600 45.271700
4.919300 38.567000
4.933000 24.486000
4.946700 0.000000
4.960400 0.000000
4.974100 0.000000
4.987800 0.000000
5.001600 0.000000
5.015300 15.858600
5.029000 24.070900
5.042700 30.150500
5.056400 31.276300
5.070100 16.526000
5.083800 12.780000
5.097600 9.343000
5.111300 6.214800
5.125000 3.395500
5.138700 1.028700
5.152400 0.020500
5.166100 0.000000
5.179800 0.000000
5.193500 0.000000
5.207300 0.000000
5.221000 0.000000
5.234700 0.000000
5.248400 0.000000
5.262100 0.000000
5.275800 0.000000
5.289500 0.000000
5.303300 0.000000
5.317000 0.000000
5.330700 0.000000
5.344400 0.000000
5.358100 0.000000
5.371800 0.000000
5.385500 0.000000
5.399200 0.000000
5.413000 0.000000
5.426700 0.000000
5.440400 0.000000
5.454100 0.000000
5.467800 0.000000
5.481500 0.000000
5.495200 0.000000
5.509000 0.000000
5.522700 0.000000
5.536400 0.000000
5.550100 0.000000
5.563800 0.000000
5.577500 0.000000
5.591200 0.000000
5.605000 0.000000
5.618700 0.000000
5.632400 0.000000
5.646100 0.000000
5.659800 0.000000
5.673500 0.000000
5.687200 0.000000
5.700900 0.000000
5.714700 0.000000
5.728400 0.000000
5.742100 0.000000
5.755800 0.000000
5.769500 0.000000
5.783200 0.000000
5.796900 0.000000
5.810700 0.000000
5.824400 0.000000
5.838100 0.000000
5.851800 0.000000
5.865500 0.000000
5.879200 0.000000
5.892900 0.000000
5.906600 0.000000
5.920400 0.000000
5.934100 0.000000
5.947800 0.000000
5.961500 0.000000
5.975200 0.000000
5.988900 0.000000
6.002600 0.000000
6.016400 0.000000
6.030100 0.000000
6.043800 0.000000
6.057500 0.000000
6.071200 0.000100
6.084900 0.006000
6.098600 0.020800
6.112300 0.044700
6.126100 0.077500
6.139800 0.119400
6.153500 0.170200
6.167200 0.230100
6.180900 0.298900
6.194600 0.376700
6.208300 0.463600
6.222100 0.559400
6.235800 0.664200
6.249500 0.778000
6.263200 0.900900
6.276900 1.032700
6.290600 1.173500
6.304300 1.323300
6.318100 1.482100
6.331800 1.649900
6.345500 1.841900
6.359200 2.417500
6.372900 3.020600
6.386600 3.577500
6.400300 4.088000
6.414000 4.552300
6.427800 4.970400
6.441500 5.342200
6.455200 5.667700
6.468900 5.869100
6.482600 5.892800
6.496300 5.919100
6.510000 5.948000
6.523800 5.979500
6.537500 6.013700
6.551200 6.050600
6.564900 6.090000
6.578600 6.132100
6.592300 6.412400
6.606000 7.313400
6.619700 8.840400
6.633500 11.003800
6.647200 14.030000
6.660900 18.886600
6.674600 26.040200
6.688300 29.711800
6.702000 32.569300
6.715700 24.713600
6.729500 0.000000
6.743200 0.000000
6.756900 0.000000
6.770600 0.000000
6.784300 0.000000
6.798000 1.918600
6.811700 5.006800
6.825400 8.915700
6.839200 13.586100
6.852900 17.861400
6.866600 23.723000
6.880300 31.090200
6.894000 35.208800
6.907700 12.965500
6.921400 0.000000
6.935200 0.000000
6.948900 0.000000
6.962600 0.000000
6.976300 0.354600
6.990000 2.424600
7.003700 4.813200
7.017400 7.520200
7.031200 10.545700
7.044900 22.418900
7.058600 21.949000
7.072300 39.285400
7.086000 48.650500
7.099700 52.129800
7.113400 41.236900
7.127100 28.450000
7.140900 26.919400
7.154600 24.967900
7.168300 22.591800
7.182000 19.766900
7.195700 16.769700
7.209400 13.485800
7.223100 11.855500
7.236900 11.767200
7.250600 12.134000
7.264300 12.575900
7.278000 13.092800
7.291700 13.160900
7.305400 16.403200
7.319100 27.996000
7.332800 36.424000
7.346600 33.495600
7.360300 37.213900
7.374000 29.389600
7.387700 31.104200
7.401400 33.359200
7.415100 14.979300
7.428800 5.166900
7.442600 7.654800
7.456300 10.630100
7.470000 16.479400
7.483700 202.579000
7.497400 23.542700
7.511100 35.790200
7.524800 32.036500
7.538500 29.359500
7.552300 27.243700
7.566000 25.589400
7.579700 49.668700
7.593400 11.431900
7.607100 0.000000
7.620800 18.845300
7.634500 48.969900
7.648300 60.939400
7.662000 24.689100
7.675700 26.422300
7.689400 34.645900
7.703100 51.443300
7.716800 49.632000
7.730500 35.592800
7.744300 39.575500
7.758000 40.184700
7.771700 36.163700
7.785400 35.392800
7.799100 37.524100
7.812800 22.058600
7.826500 5.250900
7.840200 0.000000
7.854000 16.084200
7.867700 23.572400
7.881400 32.606500
7.895100 45.655300
7.908800 37.711100
7.922500 37.157300
7.936200 39.279900
7.950000 47.659000
7.963700 24.015000
7.977400 25.364800
7.991100 22.543800
8.004800 20.696300
8.018500 33.250500
8.032200 36.184300
8.045900 31.094400
8.059700 37.773800
8.073400 45.064100
8.087100 43.290400
8.100800 35.748400
8.114500 30.483600
8.128200 24.932700
8.141900 19.608800
8.155700 14.011100
8.169400 25.476300
8.183100 41.420200
8.196800 60.640900
8.210500 32.481500
8.224200 28.217600
8.237900 26.055600
8.251600 21.738700
8.265400 18.556400
8.279100 30.168800
8.292800 32.864700
8.306500 27.373300
8.320200 20.265600
8.333900 19.369400
8.347600 20.441700
8.361400 20.596300
8.375100 21.602600
8.388800 26.131400
8.402500 33.364800
8.416200 42.438900
8.429900 53.680400
8.443600 50.047800
8.457400 35.310300
8.471100 32.995500
8.484800 34.753800
8.498500 34.008900
8.512200 25.671000
8.525900 25.675500
8.539600 27.795300
8.553300 38.806900
8.567100 31.696100
8.580800 26.634900
8.594500 28.574500
8.608200 42.396600
8.621900 36.221800
8.635600 29.746100
8.649300 33.429100
8.663100 42.216200
8.676800 27.832900
8.690500 19.347600
8.704200 19.027200
8.717900 19.089500
8.731600 17.783800
8.745300 12.244300
8.759000 8.056200
8.772800 12.978100
8.786500 24.460800
8.800200 27.966900
8.813900 26.774000
8.827600 23.054800
8.841300 15.776900
8.855000 24.813900
8.868800 31.246500
8.882500 41.747500
8.896200 40.189300
8.909900 19.464200
8.923600 16.364500
8.937300 13.645200
8.951000 14.961200
8.964700 20.895600
8.978500 28.235400
8.992200 27.146500
9.005900 24.535900
9.019600 15.817700
9.033300 0.845300
9.047000 0.000000
9.060700 0.000000
9.074500 0.000000
9.088200 0.000000
9.101900 0.000000
9.115600 0.000000
9.129300 0.000000
9.143000 0.000000
9.156700 0.000000
9.170500 0.000000
9.184200 0.000000
9.197900 0.000000
9.211600 0.000000
9.225300 0.000000
9.239000 0.000000
9.252700 0.000000
9.266400 0.000000
9.280200 0.000000
9.293900 0.000000
9.307600 0.000000
9.321300 0.000000
9.335000 0.000000
9.348700 0.000000
9.362400 0.000000
9.376200 0.000000
9.389900 0.000000
9.403600 0.000000
9.417300 0.000000
9.431000 0.000000
9.444700 0.000000
9.458400 0.000000
9.472100 0.000000
9.485900 0.000000
9.499600 0.000000
9.513300 0.000000
9.527000 0.000000
9.540700 0.000000
9.554400 0.000000
9.568100 0.000000
9.581900 0.000000
9.595600 0.000000
9.609300 0.000000
9.623000 0.000000
9.636700 0.000000
9.650400 0.000000
9.664100 0.000000
9.677800 0.000000
9.691600 0.000000
9.705300 0.000000
9.719000 0.000000
9.732700 0.000000
9.746400 0.000000
9.760100 0.000000
9.773800 0.000000
9.787600 0.000000
9.801300 0.000000
9.815000 0.000000
9.828700 0.000000
9.842400 0.000000
9.856100 0.000000
9.869800 0.000000
9.883600 0.000000
9.897300 0.000000
9.911000 0.000000
9.924700 0.000000
9.938400 0.000000
9.952100 0.000000
9.965800 0.000000
9.979500 0.000000
9.993300 0.000000
10.007000 0.000000
10.020700 0.000000
10.034400 0.000000
10.048100 0.000000
10.061800 0.000000
10.075500 0.000000
10.089300 0.000000
10.103000 0.000000
10.116700 0.000000
10.130400 0.000000
10.144100 0.000000
10.157800 0.000000
10.171500 0.000000
10.185200 0.000000
10.199000 0.000000
10.212700 0.000000
10.226400 0.000000
10.240100 0.000000
10.253800 0.000000
10.267500 0.000000
10.281200 0.000000
e
