set title 'mp-1183644 - Density of States'
set xlabel 'Energy (eV)'
set ylabel 'DOS (states/eV)'
set grid
set xrange [-10:10]
set yrange [0:47.510]
set xzeroaxis lt -1
set terminal png size 800,600
set output 'mp-1183644_dos_gnuplot.png'
plot '-' using 1:2 with lines title 'DOS'
-22.914500 0.000000
-22.888900 0.000000
-22.863300 0.000000
-22.837700 0.000000
-22.812100 0.000000
-22.786500 0.000000
-22.760900 0.000000
-22.735300 0.000000
-22.709800 0.000000
-22.684200 0.000000
-22.658600 0.000000
-22.633000 0.000000
-22.607400 0.000000
-22.581800 0.000000
-22.556200 0.000000
-22.530600 0.000000
-22.505000 0.000000
-22.479400 0.000000
-22.453800 0.000000
-22.428200 0.000000
-22.402600 0.000000
-22.377000 0.000000
-22.351500 0.000000
-22.325900 0.000000
-22.300300 0.000000
-22.274700 0.000000
-22.249100 0.000000
-22.223500 0.000000
-22.197900 0.000000
-22.172300 0.000000
-22.146700 0.000000
-22.121100 0.000000
-22.095500 0.000000
-22.069900 0.000000
-22.044300 0.000000
-22.018700 0.000000
-21.993100 0.000000
-21.967600 0.000000
-21.942000 0.000000
-21.916400 0.000000
-21.890800 0.000000
-21.865200 0.000000
-21.839600 0.000000
-21.814000 0.000000
-21.788400 0.000000
-21.762800 0.000000
-21.737200 0.000000
-21.711600 0.000000
-21.686000 0.000000
-21.660400 0.000000
-21.634800 0.000000
-21.609300 0.000000
-21.583700 0.000000
-21.558100 0.000000
-21.532500 0.000000
-21.506900 0.000000
-21.481300 0.000000
-21.455700 0.000000
-21.430100 0.000000
-21.404500 0.000000
-21.378900 0.000000
-21.353300 0.000000
-21.327700 0.000000
-21.302100 0.000000
-21.276500 0.000000
-21.250900 0.000000
-21.225400 0.000000
-21.199800 0.000000
-21.174200 0.000000
-21.148600 0.000000
-21.123000 0.000000
-21.097400 0.000000
-21.071800 0.000000
-21.046200 0.000000
-21.020600 0.000000
-20.995000 0.000000
-20.969400 0.000000
-20.943800 0.000000
-20.918200 0.000000
-20.892600 0.000000
-20.867100 0.000000
-20.841500 0.000000
-20.815900 0.000000
-20.790300 0.000000
-20.764700 0.000000
-20.739100 0.000000
-20.713500 0.000000
-20.687900 0.000000
-20.662300 0.000000
-20.636700 0.000000
-20.611100 0.000000
-20.585500 5688.149600
-20.559900 0.000000
-20.534300 0.000000
-20.508800 0.000000
-20.483200 0.000000
-20.457600 0.000000
-20.432000 0.000000
-20.406400 0.000000
-20.380800 0.000000
-20.355200 0.000000
-20.329600 0.000000
-20.304000 0.000000
-20.278400 0.000000
-20.252800 0.000000
-20.227200 0.000000
-20.201600 0.000000
-20.176000 0.000000
-20.150400 0.000000
-20.124900 0.000000
-20.099300 0.000000
-20.073700 0.000000
-20.048100 0.000000
-20.022500 0.000000
-19.996900 0.000000
-19.971300 0.000000
-19.945700 0.000000
-19.920100 0.000000
-19.894500 0.000000
-19.868900 0.000000
-19.843300 0.000000
-19.817700 0.000000
-19.792100 0.000000
-19.766600 0.000000
-19.741000 0.000000
-19.715400 0.000000
-19.689800 0.000000
-19.664200 0.000000
-19.638600 0.000000
-19.613000 0.000000
-19.587400 0.000000
-19.561800 0.000000
-19.536200 0.000000
-19.510600 0.000000
-19.485000 0.000000
-19.459400 0.000000
-19.433800 0.000000
-19.408200 0.000000
-19.382700 0.000000
-19.357100 0.000000
-19.331500 0.000000
-19.305900 0.000000
-19.280300 0.000000
-19.254700 0.000000
-19.229100 0.000000
-19.203500 0.000000
-19.177900 0.000000
-19.152300 0.000000
-19.126700 0.000000
-19.101100 0.000000
-19.075500 0.000000
-19.049900 0.000000
-19.024400 0.000000
-18.998800 0.000000
-18.973200 0.000000
-18.947600 0.000000
-18.922000 0.000000
-18.896400 0.000000
-18.870800 0.000000
-18.845200 0.000000
-18.819600 0.000000
-18.794000 0.000000
-18.768400 0.000000
-18.742800 0.000000
-18.717200 0.000000
-18.691600 0.000000
-18.666000 0.000000
-18.640500 0.000000
-18.614900 0.000000
-18.589300 0.000000
-18.563700 0.000000
-18.538100 0.000000
-18.512500 0.000000
-18.486900 0.000000
-18.461300 0.000000
-18.435700 0.000000
-18.410100 0.000000
-18.384500 0.000000
-18.358900 0.000000
-18.333300 0.000000
-18.307700 0.000000
-18.282200 0.000000
-18.256600 0.000000
-18.231000 0.000000
-18.205400 0.000000
-18.179800 0.000000
-18.154200 0.000000
-18.128600 0.000000
-18.103000 0.000000
-18.077400 0.000000
-18.051800 0.000000
-18.026200 0.000000
-18.000600 0.000000
-17.975000 0.000000
-17.949400 0.000000
-17.923800 0.000000
-17.898300 0.000000
-17.872700 0.000000
-17.847100 0.000000
-17.821500 0.000000
-17.795900 0.000000
-17.770300 0.000000
-17.744700 0.000000
-17.719100 0.000000
-17.693500 0.000000
-17.667900 0.000000
-17.642300 0.000000
-17.616700 0.000000
-17.591100 0.000000
-17.565500 0.000000
-17.540000 0.000000
-17.514400 0.000000
-17.488800 0.000000
-17.463200 0.000000
-17.437600 0.000000
-17.412000 0.000000
-17.386400 0.000000
-17.360800 0.000000
-17.335200 0.000000
-17.309600 0.000000
-17.284000 0.000000
-17.258400 0.000000
-17.232800 0.000000
-17.207200 0.000000
-17.181600 0.000000
-17.156100 0.000000
-17.130500 0.000000
-17.104900 0.000000
-17.079300 0.000000
-17.053700 0.000000
-17.028100 0.000000
-17.002500 0.000000
-16.976900 0.000000
-16.951300 0.000000
-16.925700 0.000000
-16.900100 0.000000
-16.874500 0.000000
-16.848900 0.000000
-16.823300 0.000000
-16.797800 0.000000
-16.772200 0.000000
-16.746600 0.000000
-16.721000 0.000000
-16.695400 0.000000
-16.669800 0.000000
-16.644200 0.000000
-16.618600 0.000000
-16.593000 0.000000
-16.567400 0.000000
-16.541800 0.000000
-16.516200 0.000000
-16.490600 0.000000
-16.465000 0.000000
-16.439500 0.000000
-16.413900 0.000000
-16.388300 0.000000
-16.362700 0.000000
-16.337100 0.000000
-16.311500 0.000000
-16.285900 0.000000
-16.260300 0.000000
-16.234700 0.000000
-16.209100 0.000000
-16.183500 0.000000
-16.157900 0.000000
-16.132300 0.000000
-16.106700 0.000000
-16.081100 0.000000
-16.055600 0.000000
-16.030000 0.000000
-16.004400 0.000000
-15.978800 0.000000
-15.953200 0.000000
-15.927600 0.000000
-15.902000 0.000000
-15.876400 0.000000
-15.850800 0.000000
-15.825200 0.000000
-15.799600 0.000000
-15.774000 0.000000
-15.748400 0.000000
-15.722800 0.000000
-15.697300 0.000000
-15.671700 0.000000
-15.646100 0.000000
-15.620500 0.000000
-15.594900 0.000000
-15.569300 0.000000
-15.543700 0.000000
-15.518100 0.000000
-15.492500 0.000000
-15.466900 0.000000
-15.441300 0.000000
-15.415700 0.000000
-15.390100 0.000000
-15.364500 0.000000
-15.338900 0.000000
-15.313400 0.000000
-15.287800 0.000000
-15.262200 0.000000
-15.236600 0.000000
-15.211000 0.000000
-15.185400 0.000000
-15.159800 0.000000
-15.134200 0.000000
-15.108600 0.000000
-15.083000 0.000000
-15.057400 0.000000
-15.031800 0.000000
-15.006200 0.000000
-14.980600 0.000000
-14.955100 0.000000
-14.929500 0.000000
-14.903900 0.000000
-14.878300 0.000000
-14.852700 0.000000
-14.827100 0.000000
-14.801500 0.000000
-14.775900 0.000000
-14.750300 0.000000
-14.724700 0.000000
-14.699100 0.000000
-14.673500 0.000000
-14.647900 0.000000
-14.622300 0.000000
-14.596700 0.000000
-14.571200 0.000000
-14.545600 0.000000
-14.520000 0.000000
-14.494400 0.000000
-14.468800 0.000000
-14.443200 0.000000
-14.417600 0.000000
-14.392000 0.000000
-14.366400 0.000000
-14.340800 0.000000
-14.315200 0.000000
-14.289600 0.000000
-14.264000 0.000000
-14.238400 0.000000
-14.212900 0.000000
-14.187300 0.000000
-14.161700 0.000000
-14.136100 0.000000
-14.110500 0.000000
-14.084900 0.000000
-14.059300 0.000000
-14.033700 0.000000
-14.008100 0.000000
-13.982500 0.000000
-13.956900 0.000000
-13.931300 0.000000
-13.905700 0.000000
-13.880100 0.000000
-13.854500 0.000000
-13.829000 0.000000
-13.803400 0.000000
-13.777800 0.000000
-13.752200 0.000000
-13.726600 0.000000
-13.701000 0.000000
-13.675400 0.000000
-13.649800 0.000000
-13.624200 0.000000
-13.598600 0.000000
-13.573000 0.000000
-13.547400 0.000000
-13.521800 0.000000
-13.496200 0.000000
-13.470700 0.000000
-13.445100 0.000000
-13.419500 0.000000
-13.393900 0.000000
-13.368300 0.000000
-13.342700 0.000000
-13.317100 0.000000
-13.291500 0.000000
-13.265900 0.000000
-13.240300 0.000000
-13.214700 0.000000
-13.189100 0.000000
-13.163500 0.000000
-13.137900 0.000000
-13.112400 0.000000
-13.086800 0.000000
-13.061200 0.000000
-13.035600 0.000000
-13.010000 0.000000
-12.984400 0.000000
-12.958800 0.000000
-12.933200 0.000000
-12.907600 0.000000
-12.882000 0.000000
-12.856400 0.000000
-12.830800 0.000000
-12.805200 0.000000
-12.779600 0.000000
-12.754000 0.000000
-12.728500 0.000000
-12.702900 0.000000
-12.677300 0.000000
-12.651700 0.000000
-12.626100 0.000000
-12.600500 0.000000
-12.574900 0.000000
-12.549300 0.000000
-12.523700 0.000000
-12.498100 0.000000
-12.472500 0.000000
-12.446900 0.000000
-12.421300 0.000000
-12.395700 0.000000
-12.370200 0.000000
-12.344600 0.000000
-12.319000 0.000000
-12.293400 0.000000
-12.267800 0.000000
-12.242200 0.000000
-12.216600 0.000000
-12.191000 0.000000
-12.165400 0.000000
-12.139800 0.000000
-12.114200 0.000000
-12.088600 0.000000
-12.063000 0.000000
-12.037400 0.000000
-12.011800 0.000000
-11.986300 0.000000
-11.960700 0.000000
-11.935100 0.000000
-11.909500 0.000000
-11.883900 0.000000
-11.858300 0.000000
-11.832700 0.000000
-11.807100 0.000000
-11.781500 0.000000
-11.755900 0.000000
-11.730300 0.000000
-11.704700 0.000000
-11.679100 0.000000
-11.653500 0.000000
-11.628000 0.000000
-11.602400 0.000000
-11.576800 0.000000
-11.551200 0.000000
-11.525600 0.000000
-11.500000 0.000000
-11.474400 0.000000
-11.448800 0.000000
-11.423200 0.000000
-11.397600 0.000000
-11.372000 0.000000
-11.346400 0.000000
-11.320800 0.000000
-11.295200 0.000000
-11.269600 0.000000
-11.244100 0.000000
-11.218500 0.000000
-11.192900 0.000000
-11.167300 0.000000
-11.141700 0.000000
-11.116100 0.000000
-11.090500 0.000000
-11.064900 0.000000
-11.039300 0.000000
-11.013700 0.000000
-10.988100 0.000000
-10.962500 0.000000
-10.936900 0.000000
-10.911300 0.000000
-10.885800 0.000000
-10.860200 0.000000
-10.834600 0.000000
-10.809000 0.000000
-10.783400 0.000000
-10.757800 0.000000
-10.732200 0.000000
-10.706600 0.000000
-10.681000 0.000000
-10.655400 0.000000
-10.629800 0.000000
-10.604200 0.000000
-10.578600 0.000000
-10.553000 0.000000
-10.527400 0.000000
-10.501900 0.000000
-10.476300 0.000000
-10.450700 0.000000
-10.425100 0.000000
-10.399500 0.000000
-10.373900 0.000000
-10.348300 0.000000
-10.322700 0.000000
-10.297100 0.000000
-10.271500 0.000000
-10.245900 0.000000
-10.220300 0.000000
-10.194700 0.000000
-10.169100 0.000000
-10.143600 0.000000
-10.118000 0.000000
-10.092400 0.000000
-10.066800 0.000000
-10.041200 0.000000
-10.015600 0.000000
-9.990000 0.000000
-9.964400 0.000000
-9.938800 0.000000
-9.913200 0.000000
-9.887600 0.000000
-9.862000 0.000000
-9.836400 0.000000
-9.810800 0.000000
-9.785300 0.000000
-9.759700 0.000000
-9.734100 0.000000
-9.708500 0.000000
-9.682900 0.000000
-9.657300 0.000000
-9.631700 0.000000
-9.606100 0.000000
-9.580500 0.000000
-9.554900 0.000000
-9.529300 0.000000
-9.503700 0.000000
-9.478100 0.000000
-9.452500 0.000000
-9.426900 0.000000
-9.401400 0.000000
-9.375800 0.000000
-9.350200 0.000000
-9.324600 0.000000
-9.299000 0.000000
-9.273400 0.000000
-9.247800 0.000000
-9.222200 0.000000
-9.196600 0.000000
-9.171000 0.000000
-9.145400 0.000000
-9.119800 0.000000
-9.094200 0.000000
-9.068600 0.000000
-9.043100 0.000000
-9.017500 0.000000
-8.991900 0.000000
-8.966300 0.000000
-8.940700 0.000000
-8.915100 0.000000
-8.889500 0.000000
-8.863900 0.000000
-8.838300 0.000000
-8.812700 0.000000
-8.787100 0.000000
-8.761500 0.000000
-8.735900 0.000000
-8.710300 0.000000
-8.684700 0.000000
-8.659200 0.000000
-8.633600 0.000000
-8.608000 0.000000
-8.582400 0.000000
-8.556800 0.000000
-8.531200 0.000000
-8.505600 0.000000
-8.480000 0.000000
-8.454400 0.000000
-8.428800 0.000000
-8.403200 0.000000
-8.377600 0.000000
-8.352000 0.000000
-8.326400 0.000000
-8.300900 0.000000
-8.275300 0.000000
-8.249700 0.000000
-8.224100 0.000000
-8.198500 0.000000
-8.172900 0.000000
-8.147300 0.000000
-8.121700 0.000000
-8.096100 0.000000
-8.070500 0.000000
-8.044900 0.000000
-8.019300 0.000000
-7.993700 0.000000
-7.968100 0.000000
-7.942500 0.000000
-7.917000 0.000000
-7.891400 0.000000
-7.865800 0.000000
-7.840200 0.000000
-7.814600 0.000000
-7.789000 0.000000
-7.763400 0.000000
-7.737800 0.000000
-7.712200 0.000000
-7.686600 0.000000
-7.661000 0.000000
-7.635400 0.000000
-7.609800 0.000000
-7.584200 0.000000
-7.558700 0.000000
-7.533100 0.000000
-7.507500 0.000000
-7.481900 0.000000
-7.456300 0.000000
-7.430700 0.000000
-7.405100 0.000000
-7.379500 0.000000
-7.353900 0.000000
-7.328300 0.000000
-7.302700 0.000000
-7.277100 0.000000
-7.251500 0.000000
-7.225900 0.000000
-7.200300 0.000000
-7.174800 0.000000
-7.149200 0.000000
-7.123600 0.000000
-7.098000 0.000000
-7.072400 0.000000
-7.046800 0.000000
-7.021200 0.000000
-6.995600 0.000000
-6.970000 0.000000
-6.944400 0.000000
-6.918800 0.000000
-6.893200 0.000000
-6.867600 0.000000
-6.842000 0.000000
-6.816500 0.000000
-6.790900 0.000300
-6.765300 0.060600
-6.739700 0.196500
-6.714100 0.296400
-6.688500 0.355900
-6.662900 0.446000
-6.637300 0.558400
-6.611700 0.688800
-6.586100 1.181900
-6.560500 3.722200
-6.534900 5.271200
-6.509300 4.983400
-6.483700 5.928100
-6.458100 7.153200
-6.432600 8.427200
-6.407000 7.564200
-6.381400 6.367900
-6.355800 5.488500
-6.330200 4.162500
-6.304600 3.407200
-6.279000 3.097400
-6.253400 2.678800
-6.227800 2.522000
-6.202200 3.338300
-6.176600 4.165600
-6.151000 6.207500
-6.125400 6.861500
-6.099800 9.153900
-6.074300 12.666600
-6.048700 14.741400
-6.023100 18.582400
-5.997500 27.248500
-5.971900 33.501700
-5.946300 27.524500
-5.920700 27.581500
-5.895100 38.115700
-5.869500 30.219400
-5.843900 31.426600
-5.818300 33.408400
-5.792700 29.926200
-5.767100 24.870600
-5.741500 31.587200
-5.716000 14.586600
-5.690400 28.715700
-5.664800 23.783000
-5.639200 28.001500
-5.613600 21.076100
-5.588000 18.858300
-5.562400 23.362500
-5.536800 23.602100
-5.511200 23.493800
-5.485600 36.153000
-5.460000 40.770900
-5.434400 42.623700
-5.408800 34.244400
-5.383200 43.190600
-5.357600 23.993100
-5.332100 24.662400
-5.306500 21.682700
-5.280900 26.586500
-5.255300 28.514500
-5.229700 27.774300
-5.204100 24.178700
-5.178500 29.219800
-5.152900 15.981700
-5.127300 26.653300
-5.101700 22.380700
-5.076100 13.623000
-5.050500 9.159900
-5.024900 6.191700
-4.999300 4.054000
-4.973800 3.621200
-4.948200 4.411900
-4.922600 2.876500
-4.897000 1.644000
-4.871400 1.556000
-4.845800 1.514300
-4.820200 1.513100
-4.794600 1.535000
-4.769000 1.634800
-4.743400 1.691600
-4.717800 1.737300
-4.692200 1.778600
-4.666600 1.792600
-4.641000 1.726900
-4.615400 1.707300
-4.589900 1.733700
-4.564300 1.740400
-4.538700 1.633000
-4.513100 1.422000
-4.487500 1.261800
-4.461900 1.168500
-4.436300 1.107900
-4.410700 1.051400
-4.385100 1.002600
-4.359500 0.950200
-4.333900 0.898600
-4.308300 0.866800
-4.282700 0.842900
-4.257100 0.817000
-4.231600 0.789500
-4.206000 0.760800
-4.180400 0.734900
-4.154800 0.706600
-4.129200 0.678700
-4.103600 0.655500
-4.078000 0.637900
-4.052400 0.620800
-4.026800 0.608100
-4.001200 0.593400
-3.975600 0.579000
-3.950000 0.568100
-3.924400 0.564300
-3.898800 0.563700
-3.873200 0.572500
-3.847700 0.573000
-3.822100 0.485500
-3.796500 0.456100
-3.770900 0.427100
-3.745300 0.464600
-3.719700 0.439500
-3.694100 0.495000
-3.668500 0.000000
-3.642900 0.000000
-3.617300 0.000000
-3.591700 0.000000
-3.566100 0.000000
-3.540500 0.000000
-3.514900 0.000000
-3.489400 0.000000
-3.463800 0.000000
-3.438200 0.000000
-3.412600 0.000000
-3.387000 0.000000
-3.361400 0.000000
-3.335800 0.031900
-3.310200 0.046400
-3.284600 0.059300
-3.259000 0.070700
-3.233400 0.080600
-3.207800 0.088900
-3.182200 0.098800
-3.156600 0.112900
-3.131000 0.124900
-3.105500 0.134700
-3.079900 0.142300
-3.054300 0.149400
-3.028700 0.143800
-3.003100 0.150800
-2.977500 0.158100
-2.951900 0.165500
-2.926300 0.173100
-2.900700 0.180900
-2.875100 0.189000
-2.849500 0.197200
-2.823900 0.205600
-2.798300 0.214300
-2.772700 0.218900
-2.747200 0.227100
-2.721600 0.236800
-2.696000 0.246100
-2.670400 0.256000
-2.644800 0.381800
-2.619200 0.551100
-2.593600 0.591900
-2.568000 0.657100
-2.542400 0.729300
-2.516800 0.801500
-2.491200 0.872200
-2.465600 0.948900
-2.440000 1.039400
-2.414400 1.147100
-2.388900 1.234000
-2.363300 1.279700
-2.337700 1.327700
-2.312100 1.440900
-2.286500 1.365000
-2.260900 1.348800
-2.235300 1.331500
-2.209700 1.313000
-2.184100 1.293900
-2.158500 1.276000
-2.132900 1.259800
-2.107300 1.242200
-2.081700 1.226200
-2.056100 1.213600
-2.030500 1.192900
-2.005000 1.191900
-1.979400 1.194300
-1.953800 1.201000
-1.928200 1.209600
-1.902600 1.219200
-1.877000 1.246700
-1.851400 1.292600
-1.825800 1.252300
-1.800200 1.246200
-1.774600 1.254300
-1.749000 1.262300
-1.723400 1.270200
-1.697800 1.278400
-1.672200 1.282400
-1.646700 1.290200
-1.621100 1.307400
-1.595500 1.452000
-1.569900 1.333900
-1.544300 1.304300
-1.518700 1.304200
-1.493100 1.303500
-1.467500 1.303100
-1.441900 1.303000
-1.416300 1.310700
-1.390700 1.321600
-1.365100 1.327400
-1.339500 1.330800
-1.313900 1.334400
-1.288300 1.315000
-1.262800 1.359100
-1.237200 1.349700
-1.211600 1.377200
-1.186000 1.324200
-1.160400 1.259000
-1.134800 1.248800
-1.109200 1.393200
-1.083600 1.166900
-1.058000 1.094000
-1.032400 0.998400
-1.006800 0.957000
-0.981200 0.918000
-0.955600 0.897300
-0.930000 0.900700
-0.904500 0.876300
-0.878900 0.880100
-0.853300 0.889300
-0.827700 0.907900
-0.802100 0.928000
-0.776500 0.951400
-0.750900 0.998000
-0.725300 1.023700
-0.699700 1.047900
-0.674100 1.070900
-0.648500 1.094700
-0.622900 1.118600
-0.597300 1.142900
-0.571700 1.167900
-0.546100 1.189500
-0.520600 1.202400
-0.495000 1.197800
-0.469400 1.151200
-0.443800 1.188100
-0.418200 1.178200
-0.392600 1.174900
-0.367000 1.172800
-0.341400 1.172400
-0.315800 1.175000
-0.290200 1.185800
-0.264600 1.200000
-0.239000 1.215100
-0.213400 1.232100
-0.187800 1.249400
-0.162300 1.260500
-0.136700 1.408500
-0.111100 1.290900
-0.085500 1.319200
-0.059900 1.368800
-0.034300 1.424700
-0.008700 1.425700
0.016900 1.459100
0.042500 1.496700
0.068100 1.507500
0.093700 1.515100
0.119300 1.511100
0.144900 1.484700
0.170500 1.447600
0.196100 1.416500
0.221600 1.384300
0.247200 1.315300
0.272800 1.256800
0.298400 1.204900
0.324000 1.171200
0.349600 1.179200
0.375200 1.174000
0.400800 1.147100
0.426400 1.111800
0.452000 1.092700
0.477600 1.086300
0.503200 1.083500
0.528800 1.084900
0.554400 1.087900
0.579900 1.093300
0.605500 1.100000
0.631100 1.103400
0.656700 1.100300
0.682300 1.104200
0.707900 1.115200
0.733500 1.110100
0.759100 1.116900
0.784700 1.108400
0.810300 1.103200
0.835900 1.109500
0.861500 1.119100
0.887100 1.140900
0.912700 1.198100
0.938300 1.096500
0.963800 1.107900
0.989400 1.122200
1.015000 1.157800
1.040600 1.215500
1.066200 1.286900
1.091800 1.405200
1.117400 1.478700
1.143000 1.562500
1.168600 1.611700
1.194200 1.809100
1.219800 2.006300
1.245400 2.075400
1.271000 2.109000
1.296600 2.242400
1.322100 2.128600
1.347700 2.037400
1.373300 1.992600
1.398900 1.823200
1.424500 1.761800
1.450100 1.719300
1.475700 1.682900
1.501300 1.612200
1.526900 1.638100
1.552500 1.682800
1.578100 1.562900
1.603700 1.495700
1.629300 1.458400
1.654900 1.446800
1.680400 1.454700
1.706000 1.457300
1.731600 1.461700
1.757200 1.467700
1.782800 1.477400
1.808400 1.491700
1.834000 1.481500
1.859600 1.489900
1.885200 1.512900
1.910800 1.519900
1.936400 1.472500
1.962000 1.396400
1.987600 1.381100
2.013200 1.362800
2.038800 1.358100
2.064300 1.362300
2.089900 1.379900
2.115500 1.393100
2.141100 1.372800
2.166700 1.331700
2.192300 1.334200
2.217900 1.322400
2.243500 1.331600
2.269100 1.367300
2.294700 1.393100
2.320300 1.417400
2.345900 1.440900
2.371500 1.424300
2.397100 1.416400
2.422600 1.392700
2.448200 1.395900
2.473800 1.402300
2.499400 1.402700
2.525000 1.403700
2.550600 1.406200
2.576200 1.434900
2.601800 1.446100
2.627400 1.468800
2.653000 1.504800
2.678600 1.544000
2.704200 1.589500
2.729800 1.639200
2.755400 1.697700
2.781000 1.756400
2.806500 1.846100
2.832100 1.870400
2.857700 1.883900
2.883300 1.895800
2.908900 1.892100
2.934500 1.902200
2.960100 1.898300
2.985700 1.884100
3.011300 1.889100
3.036900 1.856700
3.062500 1.839800
3.088100 1.810700
3.113700 1.795400
3.139300 1.791300
3.164800 1.829300
3.190400 1.816000
3.216000 1.576600
3.241600 1.597000
3.267200 1.596500
3.292800 1.593500
3.318400 1.589600
3.344000 1.585400
3.369600 1.581200
3.395200 1.601200
3.420800 1.623700
3.446400 1.646100
3.472000 1.664000
3.497600 1.677000
3.523200 1.717200
3.548700 1.679200
3.574300 1.559900
3.599900 1.486000
3.625500 1.467000
3.651100 1.450600
3.676700 1.441500
3.702300 1.434500
3.727900 1.422100
3.753500 1.410500
3.779100 1.395800
3.804700 1.381400
3.830300 1.369500
3.855900 1.340500
3.881500 1.346300
3.907000 1.379100
3.932600 1.680700
3.958200 1.337200
3.983800 1.306700
4.009400 1.276000
4.035000 1.278500
4.060600 1.286600
4.086200 1.298200
4.111800 1.311100
4.137400 1.324500
4.163000 1.345000
4.188600 1.377300
4.214200 1.376900
4.239800 1.393300
4.265400 1.416000
4.290900 1.442400
4.316500 1.483300
4.342100 1.537400
4.367700 1.596100
4.393300 1.660100
4.418900 1.735100
4.444500 1.820500
4.470100 1.891800
4.495700 1.965900
4.521300 1.963600
4.546900 1.908100
4.572500 1.761600
4.598100 1.737300
4.623700 1.731700
4.649200 1.729300
4.674800 1.731700
4.700400 1.740800
4.726000 1.762600
4.751600 1.800300
4.777200 1.842900
4.802800 1.945700
4.828400 1.953600
4.854000 2.011400
4.879600 2.056400
4.905200 2.088700
4.930800 2.117700
4.956400 2.124900
4.982000 2.151400
5.007500 2.165700
5.033100 2.131100
5.058700 2.082400
5.084300 1.955900
5.109900 1.899900
5.135500 1.839000
5.161100 1.833100
5.186700 1.835700
5.212300 1.866600
5.237900 1.905100
5.263500 1.912800
5.289100 1.921400
5.314700 1.934100
5.340300 1.951300
5.365900 1.973000
5.391400 2.000900
5.417000 2.040200
5.442600 2.078400
5.468200 2.140400
5.493800 2.262900
5.519400 2.230900
5.545000 2.220400
5.570600 2.202100
5.596200 2.161400
5.621800 2.125400
5.647400 2.091700
5.673000 2.054800
5.698600 2.004400
5.724200 1.941000
5.749700 1.852900
5.775300 1.747900
5.800900 1.666300
5.826500 1.619500
5.852100 1.610500
5.877700 1.631800
5.903300 1.670600
5.928900 1.720500
5.954500 1.789300
5.980100 1.851300
6.005700 1.901900
6.031300 1.976200
6.056900 2.005200
6.082500 1.973500
6.108100 1.889400
6.133600 1.745700
6.159200 1.696200
6.184800 1.692300
6.210400 1.720100
6.236000 1.787500
6.261600 1.849400
6.287200 1.916200
6.312800 2.013000
6.338400 2.144700
6.364000 2.309100
6.389600 2.281800
6.415200 2.242500
6.440800 2.209300
6.466400 2.174600
6.491900 2.169000
6.517500 2.103700
6.543100 1.914400
6.568700 1.794000
6.594300 1.659000
6.619900 1.527300
6.645500 1.444600
6.671100 1.387300
6.696700 1.370900
6.722300 1.403900
6.747900 1.451800
6.773500 1.365000
6.799100 1.354200
6.824700 1.354600
6.850300 1.375600
6.875800 1.405000
6.901400 1.460200
6.927000 1.405400
6.952600 1.465500
6.978200 1.526000
7.003800 1.590800
7.029400 1.690800
7.055000 1.787500
7.080600 1.872400
7.106200 2.005400
7.131800 2.099500
7.157400 2.223100
7.183000 2.306300
7.208600 2.336900
7.234100 2.400200
7.259700 2.401000
7.285300 2.410100
7.310900 2.419500
7.336500 2.441800
7.362100 2.447500
7.387700 2.405600
7.413300 2.317700
7.438900 2.286300
7.464500 2.364600
7.490100 2.311200
7.515700 2.253100
7.541300 2.189800
7.566900 2.133700
7.592500 2.092900
7.618000 2.061100
7.643600 2.023800
7.669200 1.991900
7.694800 1.980700
7.720400 1.987500
7.746000 2.036100
7.771600 2.062600
7.797200 2.135700
7.822800 2.280900
7.848400 2.132800
7.874000 1.932900
7.899600 1.845900
7.925200 1.806100
7.950800 1.803900
7.976300 1.788900
8.001900 1.814100
8.027500 1.842700
8.053100 1.881300
8.078700 1.932300
8.104300 1.990300
8.129900 2.058900
8.155500 2.134400
8.181100 2.200800
8.206700 2.260500
8.232300 2.308500
8.257900 2.407700
8.283500 2.535700
8.309100 2.582400
8.334700 2.575400
8.360200 2.505400
8.385800 2.368900
8.411400 2.277300
8.437000 2.213700
8.462600 2.181100
8.488200 2.162000
8.513800 2.142400
8.539400 2.136900
8.565000 2.109300
8.590600 2.094800
8.616200 2.089200
8.641800 2.113400
8.667400 2.145000
8.693000 2.184500
8.718500 2.315200
8.744100 2.435600
8.769700 2.473900
8.795300 2.557000
8.820900 2.651400
8.846500 2.735200
8.872100 2.797100
8.897700 2.836900
8.923300 2.930300
8.948900 2.852200
8.974500 2.681700
9.000100 2.575100
9.025700 2.480600
9.051300 2.383600
9.076800 2.278100
9.102400 2.190900
9.128000 2.174900
9.153600 2.084600
9.179200 2.042500
9.204800 1.996400
9.230400 2.107800
9.256000 2.000700
9.281600 1.925300
9.307200 1.919700
9.332800 1.922800
9.358400 1.931700
9.384000 1.949900
9.409600 1.983200
9.435200 2.115400
9.460700 2.084300
9.486300 2.101900
9.511900 2.113100
9.537500 2.113900
9.563100 2.098500
9.588700 2.066800
9.614300 2.025500
9.639900 1.938300
9.665500 1.862400
9.691100 1.846500
9.716700 1.837200
9.742300 1.859500
9.767900 1.897300
9.793500 1.887700
9.819000 1.889500
9.844600 1.898000
9.870200 1.914800
9.895800 1.940400
9.921400 1.970300
9.947000 1.979400
9.972600 1.999800
9.998200 2.044200
10.023800 2.091400
10.049400 2.175900
10.075000 2.239800
10.100600 2.270900
10.126200 2.310300
10.151800 2.372800
10.177400 2.429800
10.202900 2.478100
10.228500 2.489200
10.254100 2.465800
10.279700 2.457300
10.305300 2.460000
10.330900 2.461200
10.356500 2.459600
10.382100 2.460900
10.407700 2.448200
10.433300 2.465600
10.458900 2.492200
10.484500 2.461900
10.510100 2.433800
10.535700 2.430000
10.561200 2.389200
10.586800 2.351100
10.612400 2.326800
10.638000 2.453400
10.663600 2.180700
10.689200 2.154600
10.714800 2.127200
10.740400 2.105000
10.766000 2.088100
10.791600 2.073700
10.817200 2.070100
10.842800 2.208100
10.868400 2.131500
10.894000 2.109400
10.919600 2.127800
10.945100 2.102200
10.970700 2.063200
10.996300 2.013300
11.021900 1.945000
11.047500 1.879100
11.073100 1.833000
11.098700 1.803200
11.124300 1.778800
11.149900 1.768400
11.175500 1.781800
11.201100 1.814100
11.226700 1.843700
11.252300 1.859900
11.277900 1.872600
11.303400 1.881700
11.329000 1.901000
11.354600 1.928700
11.380200 1.973800
11.405800 1.989100
11.431400 1.994900
11.457000 2.023100
11.482600 1.998800
11.508200 1.953100
11.533800 1.972700
11.559400 1.994300
11.585000 2.028100
11.610600 2.092700
11.636200 2.156900
11.661800 2.365000
11.687300 2.102400
11.712900 2.128700
11.738500 2.125900
11.764100 2.101000
11.789700 2.057600
11.815300 1.998900
11.840900 1.955600
11.866500 1.909000
11.892100 1.858700
11.917700 1.829700
11.943300 1.806300
11.968900 1.772900
11.994500 1.739600
12.020100 1.714000
12.045600 1.688400
12.071200 1.668900
12.096800 1.651100
12.122400 1.613800
12.148000 1.580100
12.173600 1.555500
12.199200 1.548400
12.224800 1.544000
12.250400 1.542000
12.276000 1.542400
12.301600 1.531300
12.327200 1.556500
12.352800 1.555300
12.378400 1.562200
12.403900 1.589300
12.429500 1.618800
12.455100 1.633500
12.480700 1.631800
12.506300 1.618000
12.531900 1.618100
12.557500 1.693900
12.583100 1.759600
12.608700 1.700200
12.634300 1.682300
12.659900 1.687600
12.685500 1.695700
12.711100 1.704400
12.736700 1.721500
12.762300 1.726400
12.787800 1.774600
12.813400 1.818800
12.839000 1.852400
12.864600 1.887000
12.890200 1.903600
12.915800 1.924400
12.941400 1.956100
12.967000 1.977900
12.992600 1.967800
13.018200 1.949300
13.043800 1.927100
13.069400 1.916600
13.095000 1.946400
13.120600 1.979000
13.146100 2.024500
13.171700 2.293800
13.197300 2.260300
13.222900 2.257900
13.248500 2.223100
13.274100 2.016100
13.299700 2.011900
13.325300 1.929300
13.350900 1.864400
13.376500 1.843400
13.402100 1.831100
13.427700 1.829700
13.453300 1.839100
13.478900 1.855900
13.504500 1.920700
13.530000 2.067800
13.555600 2.254800
13.581200 2.513700
13.606800 2.671400
13.632400 2.741600
13.658000 2.789500
13.683600 2.895300
13.709200 2.933200
13.734800 2.911100
13.760400 2.891400
13.786000 2.693900
13.811600 2.487400
13.837200 2.399500
13.862800 2.395500
13.888300 2.433300
13.913900 2.463900
13.939500 2.459500
13.965100 2.463700
13.990700 2.484600
14.016300 2.494700
14.041900 2.505600
14.067500 2.528300
14.093100 2.557400
14.118700 2.586800
14.144300 2.648800
14.169900 2.735900
14.195500 2.814600
14.221100 2.818500
14.246700 2.796700
14.272200 2.745200
14.297800 2.562200
14.323400 2.490000
14.349000 2.475100
14.374600 2.527800
14.400200 2.599400
14.425800 2.634900
14.451400 2.702400
14.477000 2.737400
14.502600 2.703000
14.528200 2.692900
14.553800 2.683700
14.579400 2.690300
14.605000 2.709000
14.630500 2.740800
14.656100 2.780200
14.681700 2.823700
14.707300 2.868500
14.732900 2.860700
14.758500 2.873400
14.784100 2.916100
14.809700 3.019800
14.835300 2.986600
14.860900 3.009600
14.886500 3.138800
14.912100 2.895600
14.937700 2.771500
14.963300 2.724100
14.988900 2.730500
15.014400 2.773000
15.040000 2.756500
15.065600 2.715400
15.091200 2.661900
15.116800 2.615000
15.142400 2.706700
15.168000 2.656200
15.193600 2.665000
15.219200 2.695100
15.244800 2.733400
15.270400 2.792100
15.296000 2.855300
15.321600 2.954900
15.347200 3.056800
15.372700 3.162800
15.398300 3.289800
15.423900 3.345700
15.449500 3.482900
15.475100 3.510400
15.500700 3.523300
15.526300 3.552000
15.551900 3.584400
15.577500 3.623800
15.603100 3.674400
15.628700 3.932100
15.654300 3.936100
15.679900 3.670600
15.705500 3.362600
15.731000 3.080200
15.756600 2.839900
15.782200 2.668400
15.807800 2.551200
15.833400 2.462800
15.859000 2.391700
15.884600 2.398100
15.910200 2.424500
15.935800 2.449300
15.961400 2.487400
15.987000 2.542000
16.012600 2.604300
16.038200 2.670300
16.063800 2.664300
16.089400 2.695600
16.114900 2.721300
16.140500 2.722900
16.166100 2.722500
16.191700 2.734000
16.217300 2.750800
16.242900 2.765200
16.268500 2.788800
16.294100 2.775500
16.319700 2.769400
16.345300 2.752900
16.370900 2.730500
16.396500 2.704300
16.422100 2.664700
16.447700 2.609700
16.473200 2.570400
16.498800 2.551700
16.524400 2.602100
16.550000 2.493600
16.575600 2.466400
16.601200 2.483500
16.626800 2.502700
16.652400 2.672900
16.678000 2.820600
16.703600 2.758000
16.729200 2.674800
16.754800 2.722800
16.780400 2.793300
16.806000 2.912500
16.831600 3.018500
16.857100 3.096100
16.882700 3.169600
16.908300 3.206500
16.933900 3.232000
16.959500 3.245400
16.985100 3.360500
17.010700 3.786500
17.036300 3.616400
17.061900 3.456600
17.087500 3.173100
17.113100 2.786000
17.138700 2.536100
17.164300 2.397300
17.189900 2.318500
17.215400 2.292500
17.241000 2.317800
17.266600 2.247600
17.292200 2.209900
17.317800 2.205500
17.343400 2.210200
17.369000 2.103100
17.394600 2.106100
17.420200 2.125000
17.445800 2.145400
17.471400 2.143800
17.497000 2.163400
17.522600 2.191200
17.548200 2.287100
17.573800 2.519700
17.599300 2.644300
17.624900 2.654300
17.650500 2.605400
17.676100 2.628200
17.701700 2.605900
17.727300 2.496700
17.752900 2.390300
17.778500 2.261600
17.804100 2.153500
17.829700 2.069400
17.855300 1.996700
17.880900 1.984900
17.906500 1.931400
17.932100 1.886400
17.957600 1.846700
17.983200 1.814000
18.008800 1.792200
18.034400 1.799000
18.060000 1.811900
18.085600 1.827900
18.111200 1.851200
18.136800 1.853700
18.162400 1.858400
18.188000 1.891300
18.213600 1.931800
18.239200 1.999600
18.264800 2.058500
18.290400 2.156300
18.316000 2.260300
18.341500 2.372700
18.367100 2.506200
18.392700 2.811400
18.418300 2.891700
18.443900 3.032100
18.469500 3.031400
18.495100 3.052000
18.520700 3.090600
18.546300 3.034400
18.571900 3.038900
18.597500 3.167500
18.623100 3.135900
18.648700 3.203800
18.674300 3.223700
18.699800 3.148200
18.725400 3.063800
18.751000 3.029100
18.776600 2.946700
18.802200 2.885600
18.827800 2.863400
18.853400 2.878900
18.879000 2.889600
18.904600 2.906900
18.930200 2.762100
18.955800 2.738000
18.981400 2.710700
19.007000 2.647500
19.032600 2.681300
19.058200 2.662900
19.083700 2.661300
19.109300 2.644300
19.134900 2.628200
19.160500 2.668200
19.186100 2.734100
19.211700 2.802100
19.237300 2.836600
19.262900 2.909700
19.288500 3.013800
19.314100 3.032100
19.339700 2.892900
19.365300 2.829600
19.390900 2.712500
19.416500 2.554000
19.442000 2.493600
19.467600 2.468900
19.493200 2.485700
19.518800 2.544400
19.544400 2.623300
19.570000 2.690300
19.595600 2.734600
19.621200 2.746100
19.646800 2.778800
19.672400 2.814300
19.698000 2.842300
19.723600 2.863900
19.749200 2.842400
19.774800 2.769700
19.800300 2.664300
19.825900 2.584900
19.851500 2.550100
19.877100 2.683700
19.902700 2.653200
19.928300 2.625700
19.953900 2.596600
19.979500 2.536200
20.005100 2.501000
20.030700 2.464400
20.056300 2.455000
20.081900 2.460200
20.107500 2.453700
20.133100 2.423300
20.158700 2.416500
20.184200 2.492100
20.209800 2.519000
20.235400 2.360100
20.261000 2.345300
20.286600 2.259400
20.312200 2.261600
20.337800 2.267000
20.363400 2.289300
20.389000 2.408500
20.414600 2.698400
20.440200 2.652600
20.465800 2.722500
20.491400 2.828700
20.517000 2.907300
20.542500 3.023300
20.568100 3.075900
20.593700 2.987300
20.619300 3.129200
20.644900 3.178500
20.670500 3.100500
20.696100 3.052300
20.721700 2.985900
20.747300 2.845600
20.772900 2.566600
20.798500 2.438400
20.824100 2.372300
20.849700 2.363700
20.875300 2.377000
20.900900 2.444600
20.926400 2.526200
20.952000 2.548400
20.977600 2.487300
21.003200 2.422400
21.028800 2.411300
21.054400 2.398400
21.080000 2.437500
21.105600 2.485000
21.131200 2.589300
21.156800 2.722800
21.182400 2.826100
21.208000 2.921200
21.233600 3.007400
21.259200 3.120500
21.284700 3.188400
21.310300 3.215600
21.335900 3.221500
21.361500 3.327200
21.387100 3.548900
21.412700 3.716800
21.438300 3.779500
21.463900 3.746200
21.489500 3.883200
21.515100 3.783000
21.540700 3.687400
21.566300 3.562000
21.591900 3.686700
21.617500 3.426300
21.643100 3.310200
21.668600 3.181100
21.694200 3.109200
21.719800 3.070300
21.745400 3.043300
21.771000 3.046600
21.796600 3.092600
21.822200 3.166100
21.847800 3.266400
21.873400 3.305300
21.899000 3.328100
21.924600 3.255100
21.950200 3.131300
21.975800 3.033700
22.001400 2.955000
22.026900 2.837300
22.052500 2.779100
22.078100 2.713000
22.103700 2.650600
22.129300 2.597700
22.154900 2.555900
22.180500 2.527500
22.206100 2.518600
22.231700 2.501500
22.257300 2.490300
22.282900 2.356200
22.308500 2.199700
22.334100 2.129000
22.359700 2.152800
22.385300 2.242000
22.410800 2.369000
22.436400 2.449400
22.462000 2.394800
22.487600 2.393000
22.513200 2.439300
22.538800 2.488900
22.564400 2.489600
22.590000 2.459400
22.615600 2.363500
22.641200 2.339900
22.666800 2.311000
22.692400 2.312200
22.718000 2.526700
22.743600 2.437900
22.769100 2.312400
22.794700 2.187000
22.820300 2.048700
22.845900 1.881600
22.871500 1.769700
22.897100 1.454400
22.922700 1.234400
22.948300 1.083300
22.973900 0.951400
22.999500 0.833400
23.025100 0.734300
23.050700 0.660400
23.076300 0.610700
23.101900 0.570500
23.127400 0.534100
23.153000 0.501200
23.178600 0.471100
23.204200 0.443700
23.229800 0.419100
23.255400 0.397300
23.281000 0.380000
23.306600 0.364800
23.332200 0.349400
23.357800 0.341500
23.383400 0.333800
23.409000 0.326400
23.434600 0.319200
23.460200 0.312400
23.485800 0.305800
23.511300 0.299500
23.536900 0.293400
23.562500 0.287600
23.588100 0.282000
23.613700 0.278800
23.639300 0.273900
23.664900 0.269500
23.690500 0.265600
23.716100 0.262000
23.741700 0.258900
23.767300 0.256400
23.792900 0.254900
23.818500 0.253600
23.844100 0.252400
23.869600 0.251500
23.895200 0.250700
23.920800 0.250100
23.946400 0.249900
23.972000 0.250100
23.997600 0.252700
24.023200 0.251100
24.048800 0.249200
24.074400 0.247500
24.100000 0.246000
24.125600 0.238700
24.151200 0.231600
24.176800 0.228300
24.202400 0.228400
24.228000 0.230000
24.253500 0.232100
24.279100 0.234700
24.304700 0.237700
24.330300 0.236600
24.355900 0.220200
24.381500 0.194800
24.407100 0.172800
24.432700 0.154400
24.458300 0.139200
24.483900 0.130400
24.509500 0.125600
24.535100 0.121400
24.560700 0.117500
24.586300 0.113900
24.611800 0.110600
24.637400 0.107300
24.663000 0.104100
24.688600 0.100900
24.714200 0.097800
24.739800 0.094700
24.765400 0.091700
24.791000 0.088800
24.816600 0.085900
24.842200 0.083100
24.867800 0.080300
24.893400 0.077600
24.919000 0.075000
24.944600 0.072700
24.970200 0.070500
24.995700 0.068300
25.021300 0.066200
25.046900 0.064100
25.072500 0.062100
25.098100 0.060200
25.123700 0.058300
25.149300 0.056500
25.174900 0.055100
25.200500 0.053600
25.226100 0.052400
25.251700 0.051200
25.277300 0.050100
25.302900 0.048900
25.328500 0.047800
25.354000 0.046600
25.379600 0.045500
25.405200 0.044400
25.430800 0.043400
25.456400 0.042700
25.482000 0.041800
25.507600 0.040900
25.533200 0.040000
25.558800 0.038900
25.584400 0.037800
25.610000 0.037400
25.635600 0.037100
25.661200 0.036400
25.686800 0.035200
25.712400 0.033700
25.737900 0.031700
25.763500 0.029400
25.789100 0.027900
25.814700 0.026000
25.840300 0.023800
25.865900 0.021200
25.891500 0.014800
25.917100 0.004600
25.942700 0.000100
25.968300 0.000000
25.993900 0.000000
26.019500 0.000000
26.045100 0.000000
26.070700 0.000000
26.096200 0.000000
26.121800 0.000000
26.147400 0.000000
26.173000 0.000000
26.198600 0.000000
26.224200 0.000000
26.249800 0.000000
26.275400 0.000000
26.301000 0.000000
26.326600 0.000000
26.352200 0.000000
26.377800 0.000000
26.403400 0.000000
26.429000 0.000000
26.454600 0.000000
26.480100 0.000000
26.505700 0.000000
26.531300 0.000000
26.556900 0.000000
26.582500 0.000000
26.608100 0.000000
26.633700 0.000000
26.659300 0.000000
26.684900 0.000000
26.710500 0.000000
26.736100 0.000000
26.761700 0.000000
26.787300 0.000000
26.812900 0.000000
26.838400 0.000000
26.864000 0.000000
26.889600 0.000000
26.915200 0.000000
26.940800 0.000000
26.966400 0.000000
26.992000 0.000000
27.017600 0.000000
27.043200 0.000000
27.068800 0.000000
27.094400 0.000000
27.120000 0.000000
27.145600 0.000000
27.171200 0.000000
27.196700 0.000000
27.222300 0.000000
27.247900 0.000000
27.273500 0.000000
27.299100 0.000000
27.324700 0.000000
27.350300 0.000000
27.375900 0.000000
27.401500 0.000000
27.427100 0.000000
27.452700 0.000000
27.478300 0.000000
27.503900 0.000000
27.529500 0.000000
27.555100 0.000000
27.580600 0.000000
27.606200 0.000000
27.631800 0.000000
27.657400 0.000000
27.683000 0.000000
27.708600 0.000000
27.734200 0.000000
27.759800 0.000000
27.785400 0.000000
27.811000 0.000000
27.836600 0.000000
27.862200 0.000000
27.887800 0.000000
27.913400 0.000000
27.938900 0.000000
27.964500 0.000000
27.990100 0.000000
28.015700 0.000000
28.041300 0.000000
28.066900 0.000000
28.092500 0.000000
28.118100 0.000000
28.143700 0.000000
28.169300 0.000000
28.194900 0.000000
28.220500 0.000000
28.246100 0.000000
28.271700 0.000000
e
