set title 'mp-1184178 - Density of States'
set xlabel 'Energy (eV)'
set ylabel 'DOS (states/eV)'
set grid
set xrange [-10:10]
set yrange [0:9.189]
set xzeroaxis lt -1
set terminal png size 800,600
set output 'mp-1184178_dos_gnuplot.png'
plot '-' using 1:2 with lines title 'DOS'
-22.553800 0.000000
-22.531800 0.000000
-22.509700 0.000000
-22.487700 0.000000
-22.465600 0.000000
-22.443500 0.000000
-22.421500 0.000000
-22.399400 0.000000
-22.377400 0.000000
-22.355300 0.000000
-22.333300 0.000000
-22.311200 0.000000
-22.289200 0.000000
-22.267100 0.000000
-22.245000 0.000000
-22.223000 0.000000
-22.200900 0.000000
-22.178900 0.000000
-22.156800 0.000000
-22.134800 0.000000
-22.112700 0.000000
-22.090700 0.000000
-22.068600 0.000000
-22.046500 0.000000
-22.024500 0.000000
-22.002400 0.000000
-21.980400 0.000000
-21.958300 0.000000
-21.936300 0.000000
-21.914200 0.000000
-21.892200 0.000000
-21.870100 0.000000
-21.848000 0.000000
-21.826000 0.000000
-21.803900 0.000000
-21.781900 0.000000
-21.759800 0.000000
-21.737800 0.000000
-21.715700 0.000000
-21.693600 0.000000
-21.671600 0.000000
-21.649500 0.000000
-21.627500 0.000000
-21.605400 0.000000
-21.583400 0.000000
-21.561300 0.000000
-21.539300 0.000000
-21.517200 0.000000
-21.495100 0.000000
-21.473100 0.000000
-21.451000 0.000000
-21.429000 0.000000
-21.406900 0.000000
-21.384900 0.000000
-21.362800 0.000000
-21.340800 0.000000
-21.318700 0.000000
-21.296600 0.000000
-21.274600 0.000000
-21.252500 0.000000
-21.230500 0.000000
-21.208400 0.000000
-21.186400 0.000000
-21.164300 0.000000
-21.142300 0.000000
-21.120200 0.000000
-21.098100 0.000000
-21.076100 0.000000
-21.054000 0.000000
-21.032000 0.000000
-21.009900 0.000000
-20.987900 0.000000
-20.965800 0.000000
-20.943700 0.000000
-20.921700 0.000000
-20.899600 0.000000
-20.877600 0.000000
-20.855500 0.000000
-20.833500 0.000000
-20.811400 0.000000
-20.789400 0.000000
-20.767300 0.000000
-20.745200 0.000000
-20.723200 0.000000
-20.701100 0.000000
-20.679100 0.000200
-20.657000 0.002200
-20.635000 0.016900
-20.612900 0.094100
-20.590900 0.379900
-20.568800 1.146700
-20.546700 2.707400
-20.524700 5.283900
-20.502600 8.926400
-20.480600 13.358900
-20.458500 17.992400
-20.436500 22.548800
-20.414400 27.416500
-20.392400 32.523500
-20.370300 36.275300
-20.348200 36.988400
-20.326200 34.858900
-20.304100 31.424400
-20.282100 28.160800
-20.260000 26.250200
-20.238000 26.458000
-20.215900 28.472200
-20.193900 31.006400
-20.171800 33.036300
-20.149700 34.333500
-20.127700 34.493600
-20.105600 32.598700
-20.083600 28.874100
-20.061500 25.485000
-20.039500 24.280300
-20.017400 24.914100
-19.995300 25.889800
-19.973300 26.018800
-19.951200 25.003300
-19.929200 23.423600
-19.907100 21.453000
-19.885100 18.180400
-19.863000 13.181800
-19.841000 7.688100
-19.818900 3.457400
-19.796800 1.162700
-19.774800 0.285900
-19.752700 0.050500
-19.730700 0.006300
-19.708600 0.000600
-19.686600 0.000000
-19.664500 0.000000
-19.642500 0.000000
-19.620400 0.000000
-19.598300 0.000000
-19.576300 0.000000
-19.554200 0.000000
-19.532200 0.000000
-19.510100 0.000000
-19.488100 0.000000
-19.466000 0.000000
-19.444000 0.000000
-19.421900 0.000000
-19.399800 0.000000
-19.377800 0.000000
-19.355700 0.000000
-19.333700 0.000000
-19.311600 0.000000
-19.289600 0.000000
-19.267500 0.000000
-19.245400 0.000000
-19.223400 0.000000
-19.201300 0.000000
-19.179300 0.000000
-19.157200 0.000000
-19.135200 0.000000
-19.113100 0.000000
-19.091100 0.000000
-19.069000 0.000000
-19.046900 0.000000
-19.024900 0.000000
-19.002800 0.000000
-18.980800 0.000000
-18.958700 0.000000
-18.936700 0.000000
-18.914600 0.000000
-18.892600 0.000000
-18.870500 0.000000
-18.848400 0.000000
-18.826400 0.000000
-18.804300 0.000000
-18.782300 0.000000
-18.760200 0.000000
-18.738200 0.000000
-18.716100 0.000000
-18.694100 0.000000
-18.672000 0.000000
-18.649900 0.000000
-18.627900 0.000000
-18.605800 0.000000
-18.583800 0.000000
-18.561700 0.000000
-18.539700 0.000000
-18.517600 0.000000
-18.495600 0.000000
-18.473500 0.000000
-18.451400 0.000000
-18.429400 0.000000
-18.407300 0.000000
-18.385300 0.000000
-18.363200 0.000000
-18.341200 0.000000
-18.319100 0.000000
-18.297000 0.000000
-18.275000 0.000000
-18.252900 0.000000
-18.230900 0.000000
-18.208800 0.000000
-18.186800 0.000000
-18.164700 0.000000
-18.142700 0.000000
-18.120600 0.000000
-18.098500 0.000000
-18.076500 0.000000
-18.054400 0.000000
-18.032400 0.000000
-18.010300 0.000000
-17.988300 0.000000
-17.966200 0.000000
-17.944200 0.000000
-17.922100 0.000000
-17.900000 0.000000
-17.878000 0.000000
-17.855900 0.000000
-17.833900 0.000000
-17.811800 0.000000
-17.789800 0.000000
-17.767700 0.000000
-17.745700 0.000000
-17.723600 0.000000
-17.701500 0.000000
-17.679500 0.000000
-17.657400 0.000000
-17.635400 0.000000
-17.613300 0.000000
-17.591300 0.000000
-17.569200 0.000000
-17.547100 0.000000
-17.525100 0.000000
-17.503000 0.000000
-17.481000 0.000000
-17.458900 0.000000
-17.436900 0.000000
-17.414800 0.000000
-17.392800 0.000000
-17.370700 0.000000
-17.348600 0.000000
-17.326600 0.000000
-17.304500 0.000000
-17.282500 0.000000
-17.260400 0.000000
-17.238400 0.000000
-17.216300 0.000000
-17.194300 0.000000
-17.172200 0.000000
-17.150100 0.000000
-17.128100 0.000000
-17.106000 0.000000
-17.084000 0.000000
-17.061900 0.000000
-17.039900 0.000000
-17.017800 0.000000
-16.995800 0.000000
-16.973700 0.000000
-16.951600 0.000000
-16.929600 0.000000
-16.907500 0.000000
-16.885500 0.000000
-16.863400 0.000000
-16.841400 0.000000
-16.819300 0.000000
-16.797300 0.000000
-16.775200 0.000000
-16.753100 0.000000
-16.731100 0.000000
-16.709000 0.000000
-16.687000 0.000000
-16.664900 0.000000
-16.642900 0.000000
-16.620800 0.000000
-16.598700 0.000000
-16.576700 0.000000
-16.554600 0.000000
-16.532600 0.000000
-16.510500 0.000000
-16.488500 0.000000
-16.466400 0.000000
-16.444400 0.000000
-16.422300 0.000000
-16.400200 0.000000
-16.378200 0.000000
-16.356100 0.000000
-16.334100 0.000000
-16.312000 0.000000
-16.290000 0.000000
-16.267900 0.000000
-16.245900 0.000000
-16.223800 0.000000
-16.201700 0.000000
-16.179700 0.000000
-16.157600 0.000000
-16.135600 0.000000
-16.113500 0.000000
-16.091500 0.000000
-16.069400 0.000000
-16.047400 0.000000
-16.025300 0.000000
-16.003200 0.000000
-15.981200 0.000000
-15.959100 0.000000
-15.937100 0.000000
-15.915000 0.000000
-15.893000 0.000000
-15.870900 0.000000
-15.848800 0.000000
-15.826800 0.000000
-15.804700 0.000000
-15.782700 0.000000
-15.760600 0.000000
-15.738600 0.000000
-15.716500 0.000000
-15.694500 0.000000
-15.672400 0.000000
-15.650300 0.000000
-15.628300 0.000000
-15.606200 0.000000
-15.584200 0.000000
-15.562100 0.000000
-15.540100 0.000000
-15.518000 0.000000
-15.496000 0.000000
-15.473900 0.000000
-15.451800 0.000000
-15.429800 0.000000
-15.407700 0.000000
-15.385700 0.000000
-15.363600 0.000000
-15.341600 0.000000
-15.319500 0.000000
-15.297500 0.000000
-15.275400 0.000000
-15.253300 0.000000
-15.231300 0.000000
-15.209200 0.000000
-15.187200 0.000000
-15.165100 0.000000
-15.143100 0.000000
-15.121000 0.000000
-15.099000 0.000000
-15.076900 0.000000
-15.054800 0.000000
-15.032800 0.000000
-15.010700 0.000000
-14.988700 0.000000
-14.966600 0.000000
-14.944600 0.000000
-14.922500 0.000000
-14.900400 0.000000
-14.878400 0.000000
-14.856300 0.000000
-14.834300 0.000000
-14.812200 0.000000
-14.790200 0.000000
-14.768100 0.000000
-14.746100 0.000000
-14.724000 0.000000
-14.701900 0.000000
-14.679900 0.000000
-14.657800 0.000000
-14.635800 0.000000
-14.613700 0.000000
-14.591700 0.000000
-14.569600 0.000000
-14.547600 0.000000
-14.525500 0.000000
-14.503400 0.000000
-14.481400 0.000000
-14.459300 0.000000
-14.437300 0.000000
-14.415200 0.000000
-14.393200 0.000000
-14.371100 0.000000
-14.349100 0.000000
-14.327000 0.000000
-14.304900 0.000000
-14.282900 0.000000
-14.260800 0.000000
-14.238800 0.000000
-14.216700 0.000000
-14.194700 0.000000
-14.172600 0.000000
-14.150500 0.000000
-14.128500 0.000000
-14.106400 0.000000
-14.084400 0.000000
-14.062300 0.000000
-14.040300 0.000000
-14.018200 0.000000
-13.996200 0.000000
-13.974100 0.000000
-13.952000 0.000000
-13.930000 0.000000
-13.907900 0.000000
-13.885900 0.000000
-13.863800 0.000000
-13.841800 0.000000
-13.819700 0.000000
-13.797700 0.000000
-13.775600 0.000000
-13.753500 0.000000
-13.731500 0.000000
-13.709400 0.000000
-13.687400 0.000000
-13.665300 0.000000
-13.643300 0.000000
-13.621200 0.000000
-13.599200 0.000000
-13.577100 0.000000
-13.555000 0.000000
-13.533000 0.000000
-13.510900 0.000000
-13.488900 0.000000
-13.466800 0.000000
-13.444800 0.000000
-13.422700 0.000000
-13.400700 0.000000
-13.378600 0.000000
-13.356500 0.000000
-13.334500 0.000000
-13.312400 0.000000
-13.290400 0.000000
-13.268300 0.000000
-13.246300 0.000000
-13.224200 0.000000
-13.202100 0.000000
-13.180100 0.000000
-13.158000 0.000000
-13.136000 0.000000
-13.113900 0.000000
-13.091900 0.000000
-13.069800 0.000000
-13.047800 0.000000
-13.025700 0.000000
-13.003600 0.000000
-12.981600 0.000000
-12.959500 0.000000
-12.937500 0.000000
-12.915400 0.000000
-12.893400 0.000000
-12.871300 0.000000
-12.849300 0.000000
-12.827200 0.000000
-12.805100 0.000000
-12.783100 0.000000
-12.761000 0.000000
-12.739000 0.000000
-12.716900 0.000000
-12.694900 0.000000
-12.672800 0.000000
-12.650800 0.000000
-12.628700 0.000000
-12.606600 0.000000
-12.584600 0.000000
-12.562500 0.000000
-12.540500 0.000000
-12.518400 0.000000
-12.496400 0.000000
-12.474300 0.000000
-12.452200 0.000000
-12.430200 0.000000
-12.408100 0.000000
-12.386100 0.000000
-12.364000 0.000000
-12.342000 0.000000
-12.319900 0.000000
-12.297900 0.000000
-12.275800 0.000000
-12.253700 0.000000
-12.231700 0.000000
-12.209600 0.000000
-12.187600 0.000000
-12.165500 0.000000
-12.143500 0.000000
-12.121400 0.000200
-12.099400 0.003000
-12.077300 0.035100
-12.055200 0.294800
-12.033200 1.773300
-12.011100 7.682800
-11.989100 24.035100
-11.967000 54.307200
-11.945000 88.490700
-11.922900 103.783200
-11.900900 87.507300
-11.878800 53.057200
-11.856700 23.165200
-11.834700 7.295200
-11.812600 1.658100
-11.790600 0.271500
-11.768500 0.031900
-11.746500 0.002700
-11.724400 0.000200
-11.702400 0.000000
-11.680300 0.000000
-11.658200 0.000000
-11.636200 0.000000
-11.614100 0.000000
-11.592100 0.000000
-11.570000 0.000000
-11.548000 0.000000
-11.525900 0.000000
-11.503800 0.000000
-11.481800 0.000000
-11.459700 0.000000
-11.437700 0.000000
-11.415600 0.000000
-11.393600 0.000000
-11.371500 0.000000
-11.349500 0.000000
-11.327400 0.000000
-11.305300 0.000000
-11.283300 0.000000
-11.261200 0.000000
-11.239200 0.000000
-11.217100 0.000000
-11.195100 0.000000
-11.173000 0.000000
-11.151000 0.000000
-11.128900 0.000000
-11.106800 0.000000
-11.084800 0.000000
-11.062700 0.000000
-11.040700 0.000000
-11.018600 0.000000
-10.996600 0.000000
-10.974500 0.000000
-10.952500 0.000000
-10.930400 0.000000
-10.908300 0.000000
-10.886300 0.000000
-10.864200 0.000000
-10.842200 0.000000
-10.820100 0.000000
-10.798100 0.000000
-10.776000 0.000000
-10.753900 0.000000
-10.731900 0.000000
-10.709800 0.000000
-10.687800 0.000000
-10.665700 0.000000
-10.643700 0.000000
-10.621600 0.000000
-10.599600 0.000000
-10.577500 0.000000
-10.555400 0.000000
-10.533400 0.000000
-10.511300 0.000000
-10.489300 0.000000
-10.467200 0.000000
-10.445200 0.000000
-10.423100 0.000000
-10.401100 0.000000
-10.379000 0.000000
-10.356900 0.000000
-10.334900 0.000000
-10.312800 0.000000
-10.290800 0.000000
-10.268700 0.000000
-10.246700 0.000000
-10.224600 0.000000
-10.202600 0.000000
-10.180500 0.000000
-10.158400 0.000000
-10.136400 0.000000
-10.114300 0.000000
-10.092300 0.000000
-10.070200 0.000000
-10.048200 0.000000
-10.026100 0.000000
-10.004100 0.000000
-9.982000 0.000000
-9.959900 0.000000
-9.937900 0.000000
-9.915800 0.000000
-9.893800 0.000000
-9.871700 0.000000
-9.849700 0.000000
-9.827600 0.000000
-9.805500 0.000000
-9.783500 0.000000
-9.761400 0.000000
-9.739400 0.000000
-9.717300 0.000000
-9.695300 0.000000
-9.673200 0.000000
-9.651200 0.000000
-9.629100 0.000000
-9.607000 0.000000
-9.585000 0.000000
-9.562900 0.000000
-9.540900 0.000000
-9.518800 0.000000
-9.496800 0.000000
-9.474700 0.000000
-9.452700 0.000000
-9.430600 0.000000
-9.408500 0.000000
-9.386500 0.000000
-9.364400 0.000000
-9.342400 0.000000
-9.320300 0.000000
-9.298300 0.000000
-9.276200 0.000000
-9.254200 0.000000
-9.232100 0.000000
-9.210000 0.000000
-9.188000 0.000000
-9.165900 0.000000
-9.143900 0.000000
-9.121800 0.000000
-9.099800 0.000000
-9.077700 0.000000
-9.055600 0.000000
-9.033600 0.000000
-9.011500 0.000000
-8.989500 0.000000
-8.967400 0.000000
-8.945400 0.000000
-8.923300 0.000000
-8.901300 0.000000
-8.879200 0.000000
-8.857100 0.000000
-8.835100 0.000000
-8.813000 0.000000
-8.791000 0.000000
-8.768900 0.000000
-8.746900 0.000000
-8.724800 0.000000
-8.702800 0.000000
-8.680700 0.000000
-8.658600 0.000000
-8.636600 0.000000
-8.614500 0.000000
-8.592500 0.000000
-8.570400 0.000000
-8.548400 0.000000
-8.526300 0.000000
-8.504300 0.000000
-8.482200 0.000000
-8.460100 0.000000
-8.438100 0.000000
-8.416000 0.000000
-8.394000 0.000000
-8.371900 0.000000
-8.349900 0.000000
-8.327800 0.000000
-8.305800 0.000000
-8.283700 0.000000
-8.261600 0.000000
-8.239600 0.000000
-8.217500 0.000000
-8.195500 0.000000
-8.173400 0.000000
-8.151400 0.000000
-8.129300 0.000000
-8.107200 0.000000
-8.085200 0.000000
-8.063100 0.000000
-8.041100 0.000000
-8.019000 0.000000
-7.997000 0.000000
-7.974900 0.000000
-7.952900 0.000000
-7.930800 0.000000
-7.908700 0.000000
-7.886700 0.000000
-7.864600 0.000000
-7.842600 0.000000
-7.820500 0.000000
-7.798500 0.000000
-7.776400 0.000000
-7.754400 0.000000
-7.732300 0.000000
-7.710200 0.000000
-7.688200 0.000000
-7.666100 0.000000
-7.644100 0.000000
-7.622000 0.000000
-7.600000 0.000000
-7.577900 0.000000
-7.555900 0.000000
-7.533800 0.000000
-7.511700 0.000000
-7.489700 0.000000
-7.467600 0.000000
-7.445600 0.000000
-7.423500 0.000000
-7.401500 0.000000
-7.379400 0.000000
-7.357300 0.000000
-7.335300 0.000000
-7.313200 0.000000
-7.291200 0.000000
-7.269100 0.000000
-7.247100 0.000000
-7.225000 0.000000
-7.203000 0.000000
-7.180900 0.000000
-7.158800 0.000000
-7.136800 0.000000
-7.114700 0.000000
-7.092700 0.000000
-7.070600 0.000000
-7.048600 0.000000
-7.026500 0.000000
-7.004500 0.000000
-6.982400 0.000000
-6.960300 0.000000
-6.938300 0.000000
-6.916200 0.000000
-6.894200 0.000000
-6.872100 0.000000
-6.850100 0.000000
-6.828000 0.000000
-6.806000 0.000000
-6.783900 0.000000
-6.761800 0.000000
-6.739800 0.000000
-6.717700 0.000000
-6.695700 0.000000
-6.673600 0.000000
-6.651600 0.000000
-6.629500 0.000000
-6.607500 0.000000
-6.585400 0.000000
-6.563300 0.000000
-6.541300 0.000000
-6.519200 0.000000
-6.497200 0.000000
-6.475100 0.000000
-6.453100 0.000000
-6.431000 0.000000
-6.408900 0.000000
-6.386900 0.000000
-6.364800 0.000000
-6.342800 0.000000
-6.320700 0.000000
-6.298700 0.000000
-6.276600 0.000000
-6.254600 0.000000
-6.232500 0.000000
-6.210400 0.000000
-6.188400 0.000000
-6.166300 0.000000
-6.144300 0.000000
-6.122200 0.000000
-6.100200 0.000000
-6.078100 0.000000
-6.056100 0.000000
-6.034000 0.000000
-6.011900 0.000000
-5.989900 0.000000
-5.967800 0.000000
-5.945800 0.000000
-5.923700 0.000000
-5.901700 0.000000
-5.879600 0.000000
-5.857600 0.000000
-5.835500 0.000000
-5.813400 0.000000
-5.791400 0.000000
-5.769300 0.000000
-5.747300 0.000000
-5.725200 0.000000
-5.703200 0.000000
-5.681100 0.000000
-5.659000 0.000000
-5.637000 0.000000
-5.614900 0.000000
-5.592900 0.000000
-5.570800 0.000000
-5.548800 0.000000
-5.526700 0.000000
-5.504700 0.000000
-5.482600 0.000000
-5.460500 0.000000
-5.438500 0.000000
-5.416400 0.000000
-5.394400 0.000000
-5.372300 0.000000
-5.350300 0.000000
-5.328200 0.000000
-5.306200 0.000000
-5.284100 0.000000
-5.262000 0.000000
-5.240000 0.000000
-5.217900 0.000000
-5.195900 0.000000
-5.173800 0.000000
-5.151800 0.000000
-5.129700 0.000000
-5.107700 0.000000
-5.085600 0.000000
-5.063500 0.000000
-5.041500 0.000000
-5.019400 0.000000
-4.997400 0.000000
-4.975300 0.000000
-4.953300 0.000000
-4.931200 0.000000
-4.909100 0.000000
-4.887100 0.000000
-4.865000 0.000000
-4.843000 0.000000
-4.820900 0.000000
-4.798900 0.000000
-4.776800 0.000100
-4.754800 0.000500
-4.732700 0.002800
-4.710600 0.010200
-4.688600 0.027100
-4.666500 0.055500
-4.644500 0.098500
-4.622400 0.165300
-4.600400 0.259000
-4.578300 0.354700
-4.556300 0.408700
-4.534200 0.406600
-4.512100 0.395800
-4.490100 0.435100
-4.468000 0.506700
-4.446000 0.543600
-4.423900 0.557800
-4.401900 0.650000
-4.379800 0.861500
-4.357800 1.061000
-4.335700 1.064700
-4.313600 0.900200
-4.291600 0.804200
-4.269500 0.905300
-4.247500 1.081700
-4.225400 1.187800
-4.203400 1.272300
-4.181300 1.458600
-4.159300 1.691600
-4.137200 1.799600
-4.115100 1.778900
-4.093100 1.778800
-4.071000 1.860500
-4.049000 1.957400
-4.026900 1.972100
-4.004900 1.866900
-3.982800 1.772300
-3.960700 1.920300
-3.938700 2.378300
-3.916600 2.943000
-3.894600 3.365700
-3.872500 3.611100
-3.850500 3.870400
-3.828400 4.446600
-3.806400 5.542800
-3.784300 6.879300
-3.762200 7.600400
-3.740200 6.925800
-3.718100 4.975900
-3.696100 2.731900
-3.674000 1.117300
-3.652000 0.333300
-3.629900 0.071300
-3.607900 0.010800
-3.585800 0.001100
-3.563700 0.000100
-3.541700 0.000000
-3.519600 0.000000
-3.497600 0.000000
-3.475500 0.000000
-3.453500 0.000000
-3.431400 0.000000
-3.409400 0.000000
-3.387300 0.000000
-3.365200 0.000000
-3.343200 0.000000
-3.321100 0.000000
-3.299100 0.000000
-3.277000 0.000000
-3.255000 0.000000
-3.232900 0.000000
-3.210800 0.000000
-3.188800 0.000000
-3.166700 0.000000
-3.144700 0.000000
-3.122600 0.000000
-3.100600 0.000000
-3.078500 0.000000
-3.056500 0.000000
-3.034400 0.000000
-3.012300 0.000000
-2.990300 0.000000
-2.968200 0.000000
-2.946200 0.000000
-2.924100 0.000000
-2.902100 0.000000
-2.880000 0.000000
-2.858000 0.000000
-2.835900 0.000000
-2.813800 0.000000
-2.791800 0.000000
-2.769700 0.000000
-2.747700 0.000000
-2.725600 0.000000
-2.703600 0.000000
-2.681500 0.000000
-2.659500 0.000000
-2.637400 0.000000
-2.615300 0.000000
-2.593300 0.000000
-2.571200 0.000000
-2.549200 0.000000
-2.527100 0.000000
-2.505100 0.000000
-2.483000 0.000000
-2.461000 0.000000
-2.438900 0.000000
-2.416800 0.000000
-2.394800 0.000000
-2.372700 0.000000
-2.350700 0.000000
-2.328600 0.000000
-2.306600 0.000000
-2.284500 0.000000
-2.262400 0.000000
-2.240400 0.000000
-2.218300 0.000000
-2.196300 0.000000
-2.174200 0.000000
-2.152200 0.000000
-2.130100 0.000000
-2.108100 0.000000
-2.086000 0.000000
-2.063900 0.000000
-2.041900 0.000000
-2.019800 0.000000
-1.997800 0.000000
-1.975700 0.000000
-1.953700 0.000000
-1.931600 0.000000
-1.909600 0.000000
-1.887500 0.000000
-1.865400 0.000000
-1.843400 0.000000
-1.821300 0.000000
-1.799300 0.000000
-1.777200 0.000000
-1.755200 0.000000
-1.733100 0.000000
-1.711100 0.000000
-1.689000 0.000000
-1.666900 0.000000
-1.644900 0.000000
-1.622800 0.000000
-1.600800 0.000000
-1.578700 0.000000
-1.556700 0.000000
-1.534600 0.000000
-1.512500 0.000000
-1.490500 0.000000
-1.468400 0.000000
-1.446400 0.000000
-1.424300 0.000000
-1.402300 0.000000
-1.380200 0.000000
-1.358200 0.000000
-1.336100 0.000000
-1.314000 0.000000
-1.292000 0.000000
-1.269900 0.000000
-1.247900 0.000000
-1.225800 0.000000
-1.203800 0.000000
-1.181700 0.000000
-1.159700 0.000000
-1.137600 0.000000
-1.115500 0.000000
-1.093500 0.000000
-1.071400 0.000000
-1.049400 0.000000
-1.027300 0.000000
-1.005300 0.000000
-0.983200 0.000000
-0.961200 0.000000
-0.939100 0.000000
-0.917000 0.000000
-0.895000 0.000000
-0.872900 0.000000
-0.850900 0.000000
-0.828800 0.000000
-0.806800 0.000000
-0.784700 0.000000
-0.762700 0.000000
-0.740600 0.000000
-0.718500 0.000000
-0.696500 0.000000
-0.674400 0.000000
-0.652400 0.000000
-0.630300 0.000000
-0.608300 0.000000
-0.586200 0.000000
-0.564100 0.000000
-0.542100 0.000000
-0.520000 0.000000
-0.498000 0.000000
-0.475900 0.000000
-0.453900 0.000000
-0.431800 0.000000
-0.409800 0.000000
-0.387700 0.000000
-0.365600 0.000000
-0.343600 0.000000
-0.321500 0.000000
-0.299500 0.000000
-0.277400 0.000000
-0.255400 0.000000
-0.233300 0.000000
-0.211300 0.000000
-0.189200 0.000000
-0.167100 0.000000
-0.145100 0.000000
-0.123000 0.000000
-0.101000 0.000100
-0.078900 0.000400
-0.056900 0.002300
-0.034800 0.008500
-0.012800 0.022400
0.009300 0.042800
0.031400 0.064300
0.053400 0.084300
0.075500 0.101000
0.097500 0.108900
0.119600 0.121100
0.141600 0.177700
0.163700 0.288000
0.185800 0.378900
0.207800 0.361800
0.229900 0.245400
0.251900 0.119600
0.274000 0.052700
0.296000 0.062200
0.318100 0.153100
0.340100 0.314700
0.362200 0.494400
0.384300 0.632800
0.406300 0.718100
0.428400 0.790400
0.450400 0.921300
0.472500 1.135700
0.494500 1.329100
0.516600 1.371700
0.538600 1.291700
0.560700 1.248900
0.582800 1.349600
0.604800 1.577200
0.626900 1.838700
0.648900 1.994400
0.671000 1.967400
0.693000 1.896800
0.715100 2.056800
0.737100 2.546100
0.759200 3.098200
0.781300 3.289100
0.803300 2.970600
0.825400 2.412900
0.847400 1.971000
0.869500 1.785000
0.891500 1.904100
0.913600 2.393600
0.935600 3.080300
0.957700 3.474500
0.979800 3.229000
1.001800 2.540600
1.023900 1.955100
1.045900 1.830400
1.068000 2.039900
1.090000 2.175700
1.112100 1.969000
1.134200 1.496000
1.156200 1.059800
1.178300 0.925600
1.200300 1.130400
1.222400 1.466900
1.244400 1.620400
1.266500 1.417600
1.288500 1.011300
1.310600 0.738100
1.332700 0.771000
1.354700 1.015700
1.376800 1.318600
1.398800 1.645900
1.420900 2.000900
1.442900 2.204000
1.465000 1.996900
1.487000 1.464300
1.509100 0.995700
1.531200 0.790100
1.553200 0.757000
1.575300 0.790600
1.597300 0.863800
1.619400 0.944400
1.641400 0.976900
1.663500 0.991100
1.685500 1.107400
1.707600 1.348000
1.729700 1.596100
1.751700 1.741900
1.773800 1.709800
1.795800 1.455800
1.817900 1.061500
1.839900 0.752600
1.862000 0.758000
1.884100 1.136100
1.906100 1.731500
1.928200 2.273100
1.950200 2.509900
1.972300 2.353800
1.994300 1.943500
2.016400 1.529000
2.038400 1.348800
2.060500 1.567800
2.082600 2.128600
2.104600 2.720800
2.126700 3.087400
2.148700 3.267400
2.170800 3.336700
2.192800 3.159000
2.214900 2.723000
2.236900 2.403000
2.259000 2.518300
2.281100 2.891700
2.303100 3.077700
2.325200 2.846200
2.347200 2.332000
2.369300 1.876000
2.391300 1.783800
2.413400 2.095100
2.435400 2.567300
2.457500 2.917100
2.479600 3.036300
2.501600 3.064700
2.523700 3.240900
2.545700 3.544800
2.567800 3.664300
2.589800 3.433600
2.611900 3.049100
2.633900 2.767300
2.656000 2.632900
2.678100 2.560700
2.700100 2.472800
2.722200 2.316400
2.744200 2.068000
2.766300 1.764300
2.788300 1.528500
2.810400 1.515600
2.832500 1.765700
2.854500 2.129100
2.876600 2.389000
2.898600 2.472000
2.920700 2.526400
2.942700 2.737500
2.964800 3.058300
2.986800 3.234100
3.008900 3.105000
3.031000 2.791800
3.053000 2.591900
3.075100 2.718800
3.097100 3.135000
3.119200 3.590600
3.141200 3.773000
3.163300 3.545600
3.185300 3.091600
3.207400 2.670000
3.229500 2.335500
3.251500 2.073700
3.273600 1.976500
3.295600 2.128200
3.317700 2.504300
3.339700 3.015300
3.361800 3.507200
3.383800 3.756200
3.405900 3.623000
3.428000 3.204000
3.450000 2.756100
3.472100 2.597400
3.494100 3.010900
3.516200 3.957700
3.538200 4.968600
3.560300 5.590700
3.582400 5.800200
3.604400 5.820300
3.626500 5.848700
3.648500 6.054700
3.670600 6.400500
3.692600 6.416700
3.714700 5.637900
3.736700 4.261500
3.758800 2.982300
3.780900 2.258700
3.802900 2.057600
3.825000 2.191100
3.847000 2.554300
3.869100 3.074500
3.891100 3.675800
3.913200 4.314700
3.935200 4.994400
3.957300 5.734900
3.979400 6.394000
4.001400 6.574000
4.023500 6.007900
4.045500 4.932600
4.067600 3.821100
4.089600 2.937900
4.111700 2.311300
4.133700 1.915200
4.155800 1.756300
4.177900 1.887100
4.199900 2.335500
4.222000 2.981400
4.244000 3.552900
4.266100 3.777900
4.288100 3.582800
4.310200 3.155300
4.332200 2.799000
4.354300 2.734500
4.376400 2.951200
4.398400 3.214800
4.420500 3.325200
4.442500 3.314200
4.464600 3.336800
4.486600 3.512800
4.508700 3.888800
4.530800 4.351400
4.552800 4.602700
4.574900 4.482300
4.596900 4.192900
4.619000 3.965300
4.641000 3.811100
4.663100 3.770100
4.685100 3.984900
4.707200 4.479300
4.729300 5.217300
4.751300 6.274200
4.773400 7.520100
4.795400 8.353300
4.817500 8.321900
4.839500 7.721700
4.861600 7.056000
4.883600 6.374400
4.905700 5.579600
4.927800 4.800200
4.949800 4.179800
4.971900 3.750700
4.993900 3.435200
5.016000 3.013500
5.038000 2.402100
5.060100 1.861800
5.082100 1.697000
5.104200 1.899400
5.126300 2.165900
5.148300 2.205300
5.170400 2.017200
5.192400 1.818100
5.214500 1.726500
5.236500 1.675400
5.258600 1.597900
5.280700 1.534600
5.302700 1.546700
5.324800 1.646800
5.346800 1.846600
5.368900 2.176800
5.390900 2.639200
5.413000 3.157000
5.435000 3.592000
5.457100 3.935700
5.479200 4.422500
5.501200 5.263100
5.523300 6.305900
5.545300 7.055600
5.567400 7.167200
5.589400 6.894500
5.611500 6.684100
5.633500 6.518200
5.655600 6.200700
5.677700 5.921700
5.699700 5.941500
5.721800 6.048500
5.743800 5.866100
5.765900 5.488700
5.787900 5.374600
5.810000 5.652300
5.832000 5.910900
5.854100 5.825200
5.876200 5.637400
5.898200 5.744100
5.920300 6.110600
5.942300 6.325700
5.964400 6.027700
5.986400 5.241600
6.008500 4.369900
6.030500 3.769000
6.052600 3.456400
6.074700 3.286700
6.096700 3.121900
6.118800 2.864400
6.140800 2.590100
6.162900 2.488500
6.184900 2.573800
6.207000 2.688700
6.229100 2.714900
6.251100 2.616000
6.273200 2.445200
6.295200 2.343700
6.317300 2.401600
6.339300 2.587200
6.361400 2.848600
6.383400 3.168100
6.405500 3.489700
6.427600 3.719300
6.449600 3.843300
6.471700 3.930200
6.493700 3.976100
6.515800 3.828800
6.537800 3.422200
6.559900 3.088100
6.581900 3.279600
6.604000 3.914200
6.626100 4.401000
6.648100 4.351100
6.670200 3.949100
6.692200 3.615700
6.714300 3.515800
6.736300 3.494000
6.758400 3.388200
6.780400 3.258100
6.802500 3.284900
6.824600 3.530900
6.846600 3.852300
6.868700 4.015500
6.890700 3.909600
6.912800 3.659000
6.934800 3.482700
6.956900 3.458700
6.979000 3.476600
7.001000 3.429800
7.023100 3.433500
7.045100 3.741800
7.067200 4.375300
7.089200 4.996300
7.111300 5.283500
7.133300 5.277000
7.155400 5.298500
7.177500 5.604100
7.199500 6.030800
7.221600 6.071600
7.243600 5.475900
7.265700 4.582800
7.287700 3.957300
7.309800 3.917300
7.331800 4.392800
7.353900 5.045600
7.376000 5.488600
7.398000 5.516200
7.420100 5.242900
7.442100 4.948200
7.464200 4.772600
7.486200 4.707400
7.508300 4.800000
7.530300 5.149300
7.552400 5.688700
7.574500 6.115800
7.596500 6.221400
7.618600 6.221000
7.640600 6.369600
7.662700 6.420300
7.684700 6.010900
7.706800 5.244100
7.728800 4.424600
7.750900 3.685900
7.773000 3.193500
7.795000 3.343100
7.817100 4.383600
7.839100 5.882800
7.861200 6.942300
7.883200 7.028200
7.905300 6.308200
7.927400 5.353000
7.949400 4.729400
7.971500 4.626100
7.993500 4.832400
8.015600 5.091600
8.037600 5.278500
8.059700 5.381700
8.081700 5.492500
8.103800 5.594900
8.125900 5.450800
8.147900 4.987300
8.170000 4.509900
8.192000 4.362500
8.214100 4.654400
8.236100 5.201400
8.258200 5.622500
8.280200 5.698400
8.302300 5.518200
8.324400 5.207400
8.346400 4.834600
8.368500 4.513000
8.390500 4.319000
8.412600 4.302400
8.434600 4.578400
8.456700 5.043500
8.478700 5.266900
8.500800 5.081800
8.522900 4.805500
8.544900 4.690900
8.567000 4.661400
8.589000 4.563900
8.611100 4.446200
8.633100 4.494400
8.655200 4.642900
8.677300 4.565100
8.699300 4.222300
8.721400 4.010800
8.743400 4.156400
8.765500 4.403300
8.787500 4.505700
8.809600 4.551100
8.831600 4.663000
8.853700 4.835200
8.875800 5.078300
8.897800 5.382800
8.919900 5.621400
8.941900 5.694900
8.964000 5.737900
8.986000 5.980500
9.008100 6.296300
9.030100 6.195500
9.052200 5.529500
9.074300 4.831100
9.096300 4.621000
9.118400 4.741200
9.140400 4.654300
9.162500 4.102200
9.184500 3.252800
9.206600 2.424000
9.228600 1.889300
9.250700 1.769900
9.272800 1.949600
9.294800 2.223900
9.316900 2.510700
9.338900 2.809800
9.361000 3.084900
9.383000 3.263800
9.405100 3.262200
9.427100 3.069500
9.449200 2.870300
9.471300 2.872700
9.493300 3.000400
9.515400 3.023500
9.537400 2.949100
9.559500 3.037000
9.581500 3.470700
9.603600 4.197100
9.625700 4.954200
9.647700 5.339500
9.669800 5.176500
9.691800 4.807800
9.713900 4.699100
9.735900 4.941500
9.758000 5.289400
9.780000 5.404900
9.802100 5.107000
9.824200 4.598600
9.846200 4.253100
9.868300 4.120600
9.890300 3.994700
9.912400 3.889300
9.934400 4.003700
9.956500 4.305700
9.978500 4.518500
10.000600 4.469300
10.022700 4.216900
10.044700 3.880900
10.066800 3.553600
10.088800 3.311500
10.110900 3.170800
10.132900 3.129100
10.155000 3.249000
10.177000 3.596400
10.199100 4.120000
10.221200 4.688400
10.243200 5.239200
10.265300 5.711300
10.287300 5.846400
10.309400 5.352200
10.331400 4.356300
10.353500 3.484200
10.375600 3.311900
10.397600 3.861500
10.419700 4.760600
10.441700 5.615600
10.463800 6.092200
10.485800 6.009100
10.507900 5.493100
10.529900 4.837600
10.552000 4.237100
10.574100 3.719900
10.596100 3.246000
10.618200 2.821800
10.640200 2.499300
10.662300 2.351700
10.684300 2.461300
10.706400 2.750200
10.728400 2.915800
10.750500 2.768200
10.772600 2.475000
10.794600 2.298000
10.816700 2.265000
10.838700 2.184200
10.860800 1.929300
10.882800 1.672000
10.904900 1.671200
10.926900 1.886400
10.949000 2.112500
10.971100 2.329500
10.993100 2.534100
11.015200 2.557200
11.037200 2.358600
11.059300 2.142100
11.081300 2.132100
11.103400 2.421900
11.125400 2.856700
11.147500 3.115900
11.169600 3.108000
11.191600 3.036600
11.213700 2.992900
11.235700 2.890900
11.257800 2.788500
11.279800 2.824400
11.301900 2.945400
11.324000 2.992400
11.346000 2.890600
11.368100 2.680600
11.390100 2.515200
11.412200 2.536100
11.434200 2.728300
11.456300 2.967900
11.478300 3.076500
11.500400 2.897000
11.522500 2.466000
11.544500 2.025700
11.566600 1.835100
11.588600 1.991800
11.610700 2.393900
11.632700 2.881000
11.654800 3.382200
11.676800 3.895300
11.698900 4.394800
11.721000 4.737800
11.743000 4.666000
11.765100 4.105100
11.787100 3.375900
11.809200 2.832300
11.831200 2.499300
11.853300 2.295100
11.875300 2.299100
11.897400 2.576100
11.919500 2.934300
11.941500 3.058800
11.963600 2.850600
11.985600 2.519600
12.007700 2.332400
12.029700 2.355800
12.051800 2.497500
12.073900 2.671400
12.095900 2.781900
12.118000 2.735200
12.140000 2.591900
12.162100 2.463400
12.184100 2.305900
12.206200 2.079400
12.228200 1.913100
12.250300 1.918300
12.272400 2.001200
12.294400 1.966400
12.316500 1.729100
12.338500 1.409000
12.360600 1.258100
12.382600 1.448500
12.404700 1.896300
12.426700 2.349400
12.448800 2.606100
12.470900 2.597700
12.492900 2.421200
12.515000 2.299600
12.537000 2.319100
12.559100 2.339900
12.581100 2.263400
12.603200 2.166100
12.625200 2.169700
12.647300 2.321900
12.669400 2.557200
12.691400 2.719800
12.713500 2.684100
12.735500 2.498000
12.757600 2.376300
12.779600 2.481000
12.801700 2.722100
12.823700 2.909300
12.845800 3.053000
12.867900 3.324000
12.889900 3.794800
12.912000 4.363800
12.934000 4.872500
12.956100 5.225700
12.978100 5.375200
13.000200 5.186800
13.022300 4.559500
13.044300 3.777500
13.066400 3.381600
13.088400 3.542900
13.110500 3.895200
13.132500 4.053800
13.154600 3.915600
13.176600 3.534700
13.198700 3.141300
13.220800 3.110900
13.242800 3.658700
13.264900 4.626600
13.286900 5.477600
13.309000 5.605200
13.331000 4.928300
13.353100 3.991400
13.375100 3.344100
13.397200 3.098200
13.419300 3.110400
13.441300 3.293000
13.463400 3.585900
13.485400 3.785000
13.507500 3.648200
13.529500 3.188400
13.551600 2.736500
13.573600 2.655600
13.595700 2.963000
13.617800 3.295600
13.639800 3.351200
13.661900 3.232200
13.683900 3.189600
13.706000 3.231700
13.728000 3.228800
13.750100 3.193100
13.772200 3.216200
13.794200 3.287500
13.816300 3.317700
13.838300 3.263700
13.860400 3.223700
13.882400 3.377200
13.904500 3.750800
13.926500 4.134600
13.948600 4.314300
13.970700 4.233600
13.992700 3.901200
14.014800 3.382100
14.036800 2.871500
14.058900 2.574200
14.080900 2.539400
14.103000 2.665400
14.125000 2.825200
14.147100 3.006300
14.169200 3.333200
14.191200 3.868800
14.213300 4.375200
14.235300 4.492800
14.257400 4.223000
14.279400 3.902300
14.301500 3.663300
14.323500 3.364100
14.345600 2.997300
14.367700 2.697700
14.389700 2.501500
14.411800 2.385500
14.433800 2.307800
14.455900 2.226000
14.477900 2.233300
14.500000 2.422900
14.522000 2.688400
14.544100 2.929900
14.566200 3.193600
14.588200 3.440600
14.610300 3.471600
14.632300 3.221000
14.654400 2.893300
14.676400 2.715400
14.698500 2.802600
14.720600 3.204900
14.742600 3.754200
14.764700 4.045100
14.786700 3.892300
14.808800 3.552000
14.830800 3.252200
14.852900 2.900200
14.874900 2.465900
14.897000 2.218600
14.919100 2.348300
14.941100 2.672700
14.963200 2.894900
14.985200 2.916400
15.007300 2.796800
15.029300 2.680100
15.051400 2.818100
15.073400 3.326900
15.095500 3.903000
15.117600 4.104100
15.139600 3.831700
15.161700 3.370200
15.183700 3.154100
15.205800 3.488400
15.227800 4.208700
15.249900 4.647700
15.271900 4.303700
15.294000 3.506300
15.316100 3.024200
15.338100 3.191100
15.360200 3.699400
15.382200 4.054800
15.404300 4.136200
15.426300 4.209400
15.448400 4.420800
15.470500 4.674000
15.492500 4.891000
15.514600 5.029500
15.536600 5.019700
15.558700 4.900900
15.580700 4.837400
15.602800 4.853600
15.624800 4.785800
15.646900 4.575200
15.669000 4.290200
15.691000 3.909000
15.713100 3.420800
15.735100 3.016900
15.757200 2.913800
15.779200 3.059900
15.801300 3.205000
15.823300 3.213000
15.845400 3.107100
15.867500 2.913400
15.889500 2.677400
15.911600 2.558200
15.933600 2.756700
15.955700 3.291300
15.977700 3.917900
15.999800 4.395200
16.021800 4.682700
16.043900 4.793400
16.066000 4.691400
16.088000 4.424700
16.110100 4.176600
16.132100 4.049300
16.154200 3.885600
16.176200 3.501100
16.198300 3.017300
16.220300 2.760700
16.242400 2.900700
16.264500 3.296500
16.286500 3.620600
16.308600 3.590000
16.330600 3.203900
16.352700 2.794300
16.374700 2.671800
16.396800 2.774100
16.418900 2.874500
16.440900 2.929800
16.463000 3.002100
16.485000 3.128500
16.507100 3.434700
16.529100 4.032200
16.551200 4.724800
16.573200 5.099800
16.595300 4.901200
16.617400 4.226500
16.639400 3.460800
16.661500 3.026700
16.683500 3.098200
16.705600 3.492700
16.727600 3.800500
16.749700 3.687300
16.771700 3.200700
16.793800 2.729000
16.815900 2.594400
16.837900 2.768700
16.860000 2.997800
16.882000 3.107700
16.904100 3.121000
16.926100 3.139800
16.948200 3.172900
16.970200 3.057300
16.992300 2.626200
17.014400 1.984300
17.036400 1.451700
17.058500 1.210600
17.080500 1.188800
17.102600 1.284900
17.124600 1.469500
17.146700 1.650200
17.168800 1.691900
17.190800 1.617500
17.212900 1.607300
17.234900 1.837800
17.257000 2.397200
17.279000 3.210300
17.301100 4.016600
17.323100 4.548700
17.345200 4.694700
17.367300 4.487400
17.389300 4.067700
17.411400 3.620700
17.433400 3.285000
17.455500 3.156200
17.477500 3.296900
17.499600 3.644500
17.521600 3.997700
17.543700 4.195600
17.565800 4.235200
17.587800 4.145700
17.609900 3.893900
17.631900 3.529800
17.654000 3.229400
17.676000 3.075100
17.698100 2.985200
17.720100 2.867900
17.742200 2.668300
17.764300 2.408500
17.786300 2.288700
17.808400 2.525500
17.830400 3.055500
17.852500 3.582400
17.874500 3.910800
17.896600 4.085200
17.918700 4.196300
17.940700 4.222100
17.962800 4.138300
17.984800 4.013400
18.006900 3.915200
18.028900 3.896200
18.051000 4.040800
18.073000 4.373700
18.095100 4.780400
18.117200 5.079600
18.139200 5.212900
18.161300 5.289400
18.183300 5.313200
18.205400 5.119900
18.227400 4.754400
18.249500 4.527000
18.271500 4.584800
18.293600 4.789200
18.315700 4.933300
18.337700 4.858300
18.359800 4.587300
18.381800 4.358200
18.403900 4.327000
18.425900 4.382200
18.448000 4.310900
18.470000 4.009700
18.492100 3.570900
18.514200 3.207800
18.536200 3.087200
18.558300 3.247500
18.580300 3.630700
18.602400 4.103900
18.624400 4.456300
18.646500 4.487200
18.668500 4.092000
18.690600 3.331400
18.712700 2.496400
18.734700 1.937500
18.756800 1.818800
18.778800 2.086300
18.800900 2.521700
18.822900 2.895200
18.845000 3.180300
18.867100 3.490000
18.889100 3.840000
18.911200 4.123500
18.933200 4.243300
18.955300 4.202200
18.977300 4.098000
18.999400 3.990300
19.021400 3.800600
19.043500 3.432500
19.065600 2.938900
19.087600 2.477700
19.109700 2.155100
19.131700 1.994800
19.153800 1.971800
19.175800 1.993400
19.197900 1.957900
19.219900 1.881800
19.242000 1.862200
19.264100 1.903300
19.286100 1.874800
19.308200 1.674000
19.330200 1.343700
19.352300 0.996600
19.374300 0.742300
19.396400 0.665600
19.418400 0.773500
19.440500 0.994900
19.462600 1.233400
19.484600 1.370600
19.506700 1.287200
19.528700 0.992400
19.550800 0.644600
19.572800 0.372100
19.594900 0.189800
19.617000 0.078800
19.639000 0.024400
19.661100 0.005400
19.683100 0.000800
19.705200 0.000100
19.727200 0.000000
19.749300 0.000000
19.771300 0.000000
19.793400 0.000000
19.815500 0.000000
19.837500 0.000000
19.859600 0.000000
19.881600 0.000000
19.903700 0.000000
19.925700 0.000000
19.947800 0.000000
19.969800 0.000000
19.991900 0.000000
20.014000 0.000000
20.036000 0.000000
20.058100 0.000000
20.080100 0.000000
20.102200 0.000000
20.124200 0.000000
20.146300 0.000000
20.168300 0.000000
20.190400 0.000000
20.212500 0.000000
20.234500 0.000000
20.256600 0.000000
20.278600 0.000000
20.300700 0.000000
20.322700 0.000000
20.344800 0.000000
20.366800 0.000000
20.388900 0.000000
20.411000 0.000000
20.433000 0.000000
20.455100 0.000000
20.477100 0.000000
20.499200 0.000000
20.521200 0.000000
20.543300 0.000000
20.565400 0.000000
20.587400 0.000000
20.609500 0.000000
20.631500 0.000000
20.653600 0.000000
20.675600 0.000000
20.697700 0.000000
20.719700 0.000000
20.741800 0.000000
20.763900 0.000000
20.785900 0.000000
20.808000 0.000000
20.830000 0.000000
20.852100 0.000000
20.874100 0.000000
20.896200 0.000000
20.918200 0.000000
20.940300 0.000000
20.962400 0.000000
20.984400 0.000000
21.006500 0.000000
21.028500 0.000000
21.050600 0.000000
21.072600 0.000000
21.094700 0.000000
21.116700 0.000000
21.138800 0.000000
21.160900 0.000000
21.182900 0.000000
21.205000 0.000000
21.227000 0.000000
21.249100 0.000000
21.271100 0.000000
21.293200 0.000000
21.315300 0.000000
21.337300 0.000000
21.359400 0.000000
21.381400 0.000000
21.403500 0.000000
21.425500 0.000000
21.447600 0.000000
21.469600 0.000000
21.491700 0.000000
21.513800 0.000000
21.535800 0.000000
21.557900 0.000000
e
