set title 'mp-23192 - Density of States'
set xlabel 'Energy (eV)'
set ylabel 'DOS (states/eV)'
set grid
set xrange [-10:10]
set yrange [0:123.249]
set xzeroaxis lt -1
set terminal png size 800,600
set output 'mp-23192_dos_gnuplot.png'
plot '-' using 1:2 with lines title 'DOS'
-13.165200 0.000000
-13.148200 0.000000
-13.131200 0.000000
-13.114200 0.000000
-13.097200 0.000000
-13.080200 0.000000
-13.063300 0.000000
-13.046300 0.000000
-13.029300 0.000000
-13.012300 0.000000
-12.995300 0.000000
-12.978300 0.000000
-12.961400 0.000000
-12.944400 0.000000
-12.927400 0.000000
-12.910400 0.000000
-12.893400 0.000000
-12.876400 0.000000
-12.859500 0.000000
-12.842500 0.000000
-12.825500 0.000000
-12.808500 0.000000
-12.791500 0.000000
-12.774500 0.000000
-12.757600 0.000000
-12.740600 0.000000
-12.723600 0.000000
-12.706600 0.000000
-12.689600 0.000000
-12.672600 0.000000
-12.655700 0.000000
-12.638700 0.000000
-12.621700 0.000000
-12.604700 0.000000
-12.587700 0.000000
-12.570700 0.000000
-12.553800 0.000000
-12.536800 0.000000
-12.519800 0.000000
-12.502800 0.000000
-12.485800 0.000000
-12.468900 0.000000
-12.451900 0.000000
-12.434900 0.000000
-12.417900 0.000000
-12.400900 0.000000
-12.383900 0.000000
-12.367000 0.000000
-12.350000 0.000000
-12.333000 0.000000
-12.316000 0.000000
-12.299000 0.000000
-12.282000 0.000000
-12.265100 0.000000
-12.248100 0.000000
-12.231100 0.000000
-12.214100 0.000000
-12.197100 0.000000
-12.180100 0.000000
-12.163200 0.000000
-12.146200 0.000000
-12.129200 0.000000
-12.112200 0.000000
-12.095200 0.000000
-12.078200 0.000000
-12.061300 0.000000
-12.044300 0.000000
-12.027300 0.000000
-12.010300 0.000000
-11.993300 0.000000
-11.976300 0.000000
-11.959400 0.000000
-11.942400 0.000000
-11.925400 0.000000
-11.908400 0.000000
-11.891400 0.000000
-11.874400 0.000000
-11.857500 0.000000
-11.840500 0.000000
-11.823500 0.000000
-11.806500 0.000000
-11.789500 0.000000
-11.772500 0.000000
-11.755600 0.000000
-11.738600 0.000000
-11.721600 0.000000
-11.704600 0.000000
-11.687600 0.000000
-11.670600 0.000000
-11.653700 0.000000
-11.636700 0.000000
-11.619700 2.702200
-11.602700 3.252100
-11.585700 3.801900
-11.568700 4.351700
-11.551800 8.460200
-11.534800 9.315700
-11.517800 10.429200
-11.500800 11.542800
-11.483800 12.252400
-11.466800 13.156200
-11.449900 14.220000
-11.432900 15.368600
-11.415900 16.946900
-11.398900 17.166500
-11.381900 26.332500
-11.364900 29.883900
-11.348000 41.997700
-11.331000 29.560100
-11.314000 115.702800
-11.297000 66.550500
-11.280000 20.757800
-11.263100 0.000000
-11.246100 0.000000
-11.229100 0.000000
-11.212100 0.000000
-11.195100 0.000000
-11.178100 0.000000
-11.161200 0.000000
-11.144200 0.000000
-11.127200 0.000000
-11.110200 0.000000
-11.093200 0.000000
-11.076200 0.000000
-11.059300 0.000000
-11.042300 0.000000
-11.025300 0.000000
-11.008300 0.000000
-10.991300 0.000000
-10.974300 0.000000
-10.957400 0.000000
-10.940400 0.000000
-10.923400 0.000000
-10.906400 0.000000
-10.889400 0.000000
-10.872400 0.000000
-10.855500 0.000000
-10.838500 0.000000
-10.821500 0.000000
-10.804500 0.000000
-10.787500 0.000000
-10.770500 0.000000
-10.753600 0.000000
-10.736600 0.000000
-10.719600 0.000000
-10.702600 0.000000
-10.685600 0.000000
-10.668600 0.000000
-10.651700 0.000000
-10.634700 0.000000
-10.617700 0.000000
-10.600700 0.000000
-10.583700 0.000000
-10.566700 0.000000
-10.549800 0.000000
-10.532800 0.000000
-10.515800 0.000000
-10.498800 0.000000
-10.481800 0.000000
-10.464800 0.000000
-10.447900 0.000000
-10.430900 0.000000
-10.413900 0.000000
-10.396900 0.000000
-10.379900 0.000000
-10.362900 0.000000
-10.346000 0.000000
-10.329000 0.000000
-10.312000 0.000000
-10.295000 0.000000
-10.278000 0.000000
-10.261000 0.000000
-10.244100 0.000000
-10.227100 0.000000
-10.210100 0.000000
-10.193100 0.000000
-10.176100 0.000000
-10.159100 0.000000
-10.142200 0.000000
-10.125200 0.000000
-10.108200 0.000000
-10.091200 0.000000
-10.074200 0.000000
-10.057300 0.000000
-10.040300 0.000000
-10.023300 0.000000
-10.006300 0.000000
-9.989300 0.000000
-9.972300 0.000000
-9.955400 0.000000
-9.938400 0.000000
-9.921400 0.000000
-9.904400 0.000000
-9.887400 0.000000
-9.870400 0.000000
-9.853500 0.000000
-9.836500 0.000000
-9.819500 0.000000
-9.802500 0.000000
-9.785500 0.000000
-9.768500 0.000000
-9.751600 0.000000
-9.734600 0.000000
-9.717600 0.000000
-9.700600 0.000000
-9.683600 0.000000
-9.666600 0.000000
-9.649700 0.000000
-9.632700 0.000000
-9.615700 0.000000
-9.598700 0.000000
-9.581700 0.000000
-9.564700 0.000000
-9.547800 0.000000
-9.530800 0.000000
-9.513800 0.000000
-9.496800 0.000000
-9.479800 0.000000
-9.462800 0.000000
-9.445900 0.000000
-9.428900 0.000000
-9.411900 0.000000
-9.394900 0.000000
-9.377900 0.000000
-9.360900 0.000000
-9.344000 0.000000
-9.327000 0.000000
-9.310000 0.000000
-9.293000 0.000000
-9.276000 0.000000
-9.259000 0.000000
-9.242100 0.000000
-9.225100 0.000000
-9.208100 0.000000
-9.191100 0.000000
-9.174100 0.000000
-9.157100 0.000000
-9.140200 0.000000
-9.123200 0.000000
-9.106200 0.000000
-9.089200 0.000000
-9.072200 0.000000
-9.055200 0.000000
-9.038300 0.000000
-9.021300 0.000000
-9.004300 0.000000
-8.987300 0.000000
-8.970300 0.000000
-8.953300 0.000000
-8.936400 0.000000
-8.919400 0.000000
-8.902400 0.000000
-8.885400 0.000000
-8.868400 0.000000
-8.851500 0.000000
-8.834500 0.000000
-8.817500 0.000000
-8.800500 0.000000
-8.783500 0.000000
-8.766500 0.000000
-8.749600 0.000000
-8.732600 0.000000
-8.715600 0.000000
-8.698600 0.000000
-8.681600 0.000000
-8.664600 0.000000
-8.647700 0.000000
-8.630700 0.000000
-8.613700 0.000000
-8.596700 0.000000
-8.579700 0.000000
-8.562700 0.000000
-8.545800 0.000000
-8.528800 0.000000
-8.511800 0.000000
-8.494800 0.000000
-8.477800 0.000000
-8.460800 0.000000
-8.443900 0.000000
-8.426900 0.000000
-8.409900 0.000000
-8.392900 0.000000
-8.375900 0.000000
-8.358900 0.000000
-8.342000 0.000000
-8.325000 0.000000
-8.308000 0.000000
-8.291000 0.000000
-8.274000 0.000000
-8.257000 0.000000
-8.240100 0.000000
-8.223100 0.000000
-8.206100 0.000000
-8.189100 0.000000
-8.172100 0.000000
-8.155100 0.000000
-8.138200 0.000000
-8.121200 0.000000
-8.104200 0.000000
-8.087200 0.000000
-8.070200 0.000000
-8.053200 0.000000
-8.036300 0.000000
-8.019300 0.000000
-8.002300 0.000000
-7.985300 0.000000
-7.968300 0.000000
-7.951300 0.000000
-7.934400 0.000000
-7.917400 0.000000
-7.900400 0.000000
-7.883400 0.000000
-7.866400 0.000000
-7.849400 0.000000
-7.832500 0.000000
-7.815500 0.000000
-7.798500 0.000000
-7.781500 0.000000
-7.764500 0.000000
-7.747500 0.000000
-7.730600 0.000000
-7.713600 0.000000
-7.696600 0.000000
-7.679600 0.000000
-7.662600 0.000000
-7.645700 0.000000
-7.628700 0.000000
-7.611700 0.000000
-7.594700 0.000000
-7.577700 0.000000
-7.560700 0.000000
-7.543800 0.000000
-7.526800 0.000000
-7.509800 0.000000
-7.492800 0.000000
-7.475800 0.000000
-7.458800 0.000000
-7.441900 0.000000
-7.424900 0.000000
-7.407900 0.000000
-7.390900 0.000000
-7.373900 0.000000
-7.356900 0.000000
-7.340000 0.000000
-7.323000 0.000000
-7.306000 0.000000
-7.289000 0.000000
-7.272000 0.000000
-7.255000 0.000000
-7.238100 0.000000
-7.221100 0.000000
-7.204100 0.000000
-7.187100 0.000000
-7.170100 0.000000
-7.153100 0.000000
-7.136200 0.000000
-7.119200 0.000000
-7.102200 0.000000
-7.085200 0.000000
-7.068200 0.000000
-7.051200 0.000000
-7.034300 0.000000
-7.017300 0.000000
-7.000300 0.000000
-6.983300 0.000000
-6.966300 0.000000
-6.949300 0.000000
-6.932400 0.000000
-6.915400 0.000000
-6.898400 0.000000
-6.881400 0.000000
-6.864400 0.000000
-6.847400 0.000000
-6.830500 0.000000
-6.813500 0.000000
-6.796500 0.000000
-6.779500 0.000000
-6.762500 0.000000
-6.745500 0.000000
-6.728600 0.000000
-6.711600 0.000000
-6.694600 0.000000
-6.677600 0.000000
-6.660600 0.000000
-6.643600 0.000000
-6.626700 0.000000
-6.609700 0.000000
-6.592700 0.000000
-6.575700 0.000000
-6.558700 0.000000
-6.541700 0.000000
-6.524800 0.000000
-6.507800 0.000000
-6.490800 0.000000
-6.473800 0.000000
-6.456800 0.000000
-6.439900 0.000000
-6.422900 0.000000
-6.405900 0.000000
-6.388900 0.000000
-6.371900 0.000000
-6.354900 0.000000
-6.338000 0.000000
-6.321000 0.000000
-6.304000 0.000000
-6.287000 0.000000
-6.270000 0.000000
-6.253000 0.000000
-6.236100 0.000000
-6.219100 0.000000
-6.202100 0.000000
-6.185100 0.000000
-6.168100 0.000000
-6.151100 0.000000
-6.134200 0.000000
-6.117200 0.000000
-6.100200 0.000000
-6.083200 0.000000
-6.066200 0.000000
-6.049200 0.000000
-6.032300 0.000000
-6.015300 0.000000
-5.998300 0.000000
-5.981300 0.000000
-5.964300 0.000000
-5.947300 0.000000
-5.930400 0.000000
-5.913400 74.989300
-5.896400 45.732300
-5.879400 45.560900
-5.862400 42.528400
-5.845400 39.404300
-5.828500 29.223700
-5.811500 30.126700
-5.794500 28.458500
-5.777500 24.724100
-5.760500 21.801300
-5.743500 19.487300
-5.726600 15.673900
-5.709600 0.000000
-5.692600 4.582700
-5.675600 11.105200
-5.658600 21.697600
-5.641600 43.755800
-5.624700 60.215100
-5.607700 68.769900
-5.590700 61.502900
-5.573700 32.853600
-5.556700 59.129700
-5.539700 84.433900
-5.522800 112.044600
-5.505800 0.000000
-5.488800 0.000000
-5.471800 0.000000
-5.454800 0.000000
-5.437800 0.000000
-5.420900 0.000000
-5.403900 0.000000
-5.386900 0.000000
-5.369900 0.000000
-5.352900 0.000000
-5.335900 0.000000
-5.319000 0.000000
-5.302000 0.000000
-5.285000 0.000000
-5.268000 0.000000
-5.251000 0.000000
-5.234100 0.000000
-5.217100 0.000000
-5.200100 0.000000
-5.183100 0.000000
-5.166100 0.000000
-5.149100 0.000000
-5.132200 0.000000
-5.115200 0.000000
-5.098200 0.000000
-5.081200 0.000000
-5.064200 0.000000
-5.047200 0.000000
-5.030300 0.000000
-5.013300 0.000000
-4.996300 0.000000
-4.979300 0.000000
-4.962300 0.000000
-4.945300 0.000000
-4.928400 0.000000
-4.911400 0.000000
-4.894400 0.000000
-4.877400 0.000000
-4.860400 0.000000
-4.843400 0.000000
-4.826500 0.000000
-4.809500 0.000000
-4.792500 0.000000
-4.775500 0.000000
-4.758500 0.000000
-4.741500 0.000000
-4.724600 0.000000
-4.707600 0.000000
-4.690600 0.000000
-4.673600 0.000000
-4.656600 0.000000
-4.639600 0.000000
-4.622700 0.000000
-4.605700 0.000000
-4.588700 0.000000
-4.571700 0.000000
-4.554700 0.000000
-4.537700 0.000000
-4.520800 0.000000
-4.503800 0.000000
-4.486800 0.000000
-4.469800 0.000000
-4.452800 0.000000
-4.435800 0.000000
-4.418900 0.000000
-4.401900 0.000000
-4.384900 0.000000
-4.367900 0.000000
-4.350900 0.000000
-4.333900 0.000000
-4.317000 0.000000
-4.300000 0.000000
-4.283000 0.000000
-4.266000 0.000000
-4.249000 0.000000
-4.232000 0.000000
-4.215100 0.000000
-4.198100 0.000000
-4.181100 0.000000
-4.164100 0.000000
-4.147100 0.000000
-4.130100 0.000000
-4.113200 0.000000
-4.096200 1.932000
-4.079200 3.718600
-4.062200 4.052100
-4.045200 4.385500
-4.028300 4.719000
-4.011300 5.052500
-3.994300 5.386000
-3.977300 5.342400
-3.960300 5.423300
-3.943300 5.504300
-3.926400 11.408800
-3.909400 5.459300
-3.892400 5.332900
-3.875400 5.206500
-3.858400 5.080000
-3.841400 4.953600
-3.824500 4.827200
-3.807500 4.700700
-3.790500 4.574300
-3.773500 4.447900
-3.756500 4.321400
-3.739500 4.195000
-3.722600 4.068600
-3.705600 3.942200
-3.688600 3.962000
-3.671600 3.995800
-3.654600 4.093700
-3.637600 4.191700
-3.620700 4.289700
-3.603700 4.269100
-3.586700 4.157100
-3.569700 4.045100
-3.552700 3.933100
-3.535700 3.821100
-3.518800 3.713100
-3.501800 3.533900
-3.484800 3.354700
-3.467800 3.175400
-3.450800 2.996200
-3.433800 2.817000
-3.416900 2.637800
-3.399900 1.398000
-3.382900 1.330300
-3.365900 1.262500
-3.348900 1.194800
-3.331900 1.127100
-3.315000 1.059300
-3.298000 0.991600
-3.281000 0.923800
-3.264000 0.000000
-3.247000 0.000000
-3.230000 0.000000
-3.213100 0.000000
-3.196100 0.000000
-3.179100 0.000000
-3.162100 0.000000
-3.145100 0.000000
-3.128100 0.000000
-3.111200 0.000000
-3.094200 0.000000
-3.077200 0.000000
-3.060200 0.000000
-3.043200 0.000000
-3.026200 0.000000
-3.009300 0.000000
-2.992300 0.000000
-2.975300 0.000000
-2.958300 0.000000
-2.941300 0.000000
-2.924300 0.000000
-2.907400 0.000000
-2.890400 0.000000
-2.873400 0.000000
-2.856400 0.000000
-2.839400 0.000000
-2.822500 0.000000
-2.805500 0.000000
-2.788500 0.000000
-2.771500 0.000000
-2.754500 0.000000
-2.737500 0.000000
-2.720600 0.000000
-2.703600 0.000000
-2.686600 0.000000
-2.669600 0.000000
-2.652600 0.000000
-2.635600 0.000000
-2.618700 0.000000
-2.601700 0.000000
-2.584700 0.000000
-2.567700 0.000000
-2.550700 0.000000
-2.533700 0.000000
-2.516800 0.000000
-2.499800 0.000000
-2.482800 0.000000
-2.465800 0.000000
-2.448800 0.000000
-2.431800 0.000000
-2.414900 0.000000
-2.397900 0.000000
-2.380900 0.000000
-2.363900 0.000000
-2.346900 0.000000
-2.329900 0.000000
-2.313000 0.000000
-2.296000 0.000000
-2.279000 0.000000
-2.262000 0.000000
-2.245000 0.000000
-2.228000 0.000000
-2.211100 0.000000
-2.194100 0.000000
-2.177100 0.000000
-2.160100 0.000000
-2.143100 0.000000
-2.126100 0.000000
-2.109200 0.000000
-2.092200 0.000000
-2.075200 0.000000
-2.058200 0.000000
-2.041200 0.000000
-2.024200 0.000000
-2.007300 0.000000
-1.990300 0.000000
-1.973300 0.000000
-1.956300 0.000000
-1.939300 1.964700
-1.922300 5.774100
-1.905400 7.302300
-1.888400 8.084300
-1.871400 8.866300
-1.854400 9.648300
-1.837400 10.430300
-1.820400 7.202400
-1.803500 7.036800
-1.786500 6.871300
-1.769500 6.705700
-1.752500 6.540100
-1.735500 10.440200
-1.718500 5.701600
-1.701600 6.134000
-1.684600 6.566300
-1.667600 6.998600
-1.650600 7.430900
-1.633600 7.863200
-1.616700 6.237500
-1.599700 5.202400
-1.582700 4.167400
-1.565700 3.881200
-1.548700 6.575500
-1.531700 6.491700
-1.514800 6.408000
-1.497800 6.324200
-1.480800 6.240400
-1.463800 6.156600
-1.446800 5.382400
-1.429800 5.426300
-1.412900 5.470200
-1.395900 5.514100
-1.378900 11.833900
-1.361900 10.490800
-1.344900 9.803900
-1.327900 9.400100
-1.311000 8.748700
-1.294000 8.097300
-1.277000 7.446000
-1.260000 5.282800
-1.243000 5.328800
-1.226000 7.962500
-1.209100 8.375500
-1.192100 8.788400
-1.175100 9.201400
-1.158100 11.114800
-1.141100 8.842900
-1.124100 8.888200
-1.107200 8.588600
-1.090200 8.648800
-1.073200 8.119900
-1.056200 8.213300
-1.039200 8.306600
-1.022200 14.530800
-1.005300 15.446700
-0.988300 6.332000
-0.971300 13.671300
-0.954300 23.038700
-0.937300 5.380800
-0.920300 5.586400
-0.903400 7.478400
-0.886400 8.005200
-0.869400 8.531900
-0.852400 10.183500
-0.835400 11.701100
-0.818400 12.523700
-0.801500 19.255000
-0.784500 18.011700
-0.767500 11.751400
-0.750500 11.742200
-0.733500 13.419300
-0.716500 13.809500
-0.699600 11.766800
-0.682600 11.916800
-0.665600 12.060300
-0.648600 12.169800
-0.631600 12.851300
-0.614600 13.029000
-0.597700 12.705800
-0.580700 13.962100
-0.563700 13.592800
-0.546700 13.223400
-0.529700 13.176300
-0.512700 10.257000
-0.495800 10.325800
-0.478800 9.822800
-0.461800 9.558400
-0.444800 9.332800
-0.427800 9.153300
-0.410900 8.973800
-0.393900 7.756500
-0.376900 7.730900
-0.359900 7.705200
-0.342900 7.679600
-0.325900 7.653900
-0.309000 7.628200
-0.292000 7.602600
-0.275000 7.602300
-0.258000 8.058700
-0.241000 8.039600
-0.224000 8.020400
-0.207100 8.001300
-0.190100 7.305100
-0.173100 7.329900
-0.156100 7.354600
-0.139100 7.288700
-0.122100 7.069600
-0.105200 5.508100
-0.088200 7.615600
-0.071200 7.178700
-0.054200 6.741700
-0.037200 6.304800
-0.020200 9.932500
-0.003300 6.775500
0.013700 5.384300
0.030700 0.000000
0.047700 0.000000
0.064700 0.000000
0.081700 0.000000
0.098600 0.000000
0.115600 0.000000
0.132600 0.000000
0.149600 0.000000
0.166600 0.000000
0.183600 0.000000
0.200500 0.000000
0.217500 0.000000
0.234500 0.000000
0.251500 0.000000
0.268500 0.000000
0.285500 0.000000
0.302400 0.000000
0.319400 0.000000
0.336400 0.000000
0.353400 0.000000
0.370400 0.000000
0.387400 0.000000
0.404300 0.000000
0.421300 0.000000
0.438300 0.000000
0.455300 0.000000
0.472300 0.000000
0.489300 0.000000
0.506200 0.000000
0.523200 0.000000
0.540200 0.000000
0.557200 0.000000
0.574200 0.000000
0.591200 0.000000
0.608100 0.000000
0.625100 0.000000
0.642100 0.000000
0.659100 0.000000
0.676100 0.000000
0.693100 0.000000
0.710000 0.000000
0.727000 0.000000
0.744000 0.000000
0.761000 0.000000
0.778000 0.000000
0.794900 0.000000
0.811900 0.000000
0.828900 0.000000
0.845900 0.000000
0.862900 0.000000
0.879900 0.000000
0.896800 0.000000
0.913800 0.000000
0.930800 0.000000
0.947800 0.000000
0.964800 0.000000
0.981800 0.000000
0.998700 0.000000
1.015700 0.000000
1.032700 0.000000
1.049700 0.000000
1.066700 0.000000
1.083700 0.000000
1.100600 0.000000
1.117600 0.000000
1.134600 0.000000
1.151600 0.000000
1.168600 0.000000
1.185600 0.000000
1.202500 0.000000
1.219500 0.000000
1.236500 0.000000
1.253500 0.000000
1.270500 0.000000
1.287500 0.000000
1.304400 0.000000
1.321400 0.000000
1.338400 0.000000
1.355400 0.000000
1.372400 0.000000
1.389400 0.000000
1.406300 0.000000
1.423300 0.000000
1.440300 0.000000
1.457300 0.000000
1.474300 0.000000
1.491300 0.000000
1.508200 0.000000
1.525200 0.000000
1.542200 0.000000
1.559200 0.000000
1.576200 0.000000
1.593200 0.000000
1.610100 0.000000
1.627100 0.000000
1.644100 0.000000
1.661100 0.000000
1.678100 0.000000
1.695100 0.000000
1.712000 0.000000
1.729000 0.000000
1.746000 0.000000
1.763000 0.000000
1.780000 0.000000
1.797000 0.000000
1.813900 0.000000
1.830900 0.000000
1.847900 0.000000
1.864900 0.000000
1.881900 0.733300
1.898900 0.768700
1.915800 0.804000
1.932800 0.839400
1.949800 0.874800
1.966800 0.910100
1.983800 0.945500
2.000700 0.980900
2.017700 1.016200
2.034700 1.051600
2.051700 1.086900
2.068700 1.122300
2.085700 1.157700
2.102600 1.193000
2.119600 1.228400
2.136600 1.263700
2.153600 1.299100
2.170600 1.334500
2.187600 6.339700
2.204500 6.789200
2.221500 7.238700
2.238500 2.150600
2.255500 2.126500
2.272500 2.102400
2.289500 3.309700
2.306400 3.385600
2.323400 3.461400
2.340400 3.537300
2.357400 3.613200
2.374400 3.689100
2.391400 3.765000
2.408300 7.662900
2.425300 8.038400
2.442300 8.413800
2.459300 8.789200
2.476300 4.541600
2.493300 4.473500
2.510200 4.405400
2.527200 4.337200
2.544200 4.269100
2.561200 4.200900
2.578200 4.132800
2.595200 4.662300
2.612100 7.119800
2.629100 11.921300
2.646100 9.944100
2.663100 7.966900
2.680100 2.199400
2.697100 2.155400
2.714000 2.111300
2.731000 2.067300
2.748000 20.571000
2.765000 10.963200
2.782000 0.000000
2.799000 0.000000
2.815900 0.000000
2.832900 0.000000
2.849900 0.000000
2.866900 0.000000
2.883900 0.000000
2.900900 0.000000
2.917800 0.000000
2.934800 0.000000
2.951800 0.000000
2.968800 0.000000
2.985800 0.000000
3.002800 0.000000
3.019700 0.000000
3.036700 0.000000
3.053700 0.000000
3.070700 0.000000
3.087700 0.000000
3.104700 0.000000
3.121600 0.000000
3.138600 0.000000
3.155600 0.000000
3.172600 0.000000
3.189600 0.000000
3.206500 0.000000
3.223500 0.000000
3.240500 0.000000
3.257500 0.000000
3.274500 0.000000
3.291500 0.000000
3.308400 0.000000
3.325400 0.000000
3.342400 0.000000
3.359400 0.000000
3.376400 0.000000
3.393400 0.000000
3.410300 0.000000
3.427300 0.000000
3.444300 0.000000
3.461300 0.000000
3.478300 0.000000
3.495300 0.000000
3.512200 0.000000
3.529200 0.000000
3.546200 0.000000
3.563200 0.000000
3.580200 0.000000
3.597200 0.000000
3.614100 0.000000
3.631100 0.000000
3.648100 0.000000
3.665100 0.000000
3.682100 0.000000
3.699100 0.000000
3.716000 0.000000
3.733000 0.000000
3.750000 0.000000
3.767000 0.000000
3.784000 0.000000
3.801000 0.000000
3.817900 0.000000
3.834900 0.000000
3.851900 0.000000
3.868900 0.000000
3.885900 0.000000
3.902900 0.000000
3.919800 0.000000
3.936800 0.000000
3.953800 0.000000
3.970800 0.000000
3.987800 0.000000
4.004800 0.000000
4.021700 0.000000
4.038700 0.000000
4.055700 0.000000
4.072700 0.000000
4.089700 0.000000
4.106700 0.000000
4.123600 0.000000
4.140600 0.000000
4.157600 0.000000
4.174600 0.000000
4.191600 0.000000
4.208600 0.000000
4.225500 0.000000
4.242500 0.000000
4.259500 0.000000
4.276500 0.000000
4.293500 0.000000
4.310500 0.000000
4.327400 0.000000
4.344400 0.000000
4.361400 0.000000
4.378400 0.000000
4.395400 0.000000
4.412300 0.000000
4.429300 0.000000
4.446300 0.000000
4.463300 0.000000
4.480300 0.000000
4.497300 0.000000
4.514200 0.000000
4.531200 0.000000
4.548200 0.000000
4.565200 0.000000
4.582200 0.000000
4.599200 0.000000
4.616100 0.000000
4.633100 0.000000
4.650100 0.000000
4.667100 0.000000
4.684100 0.000000
4.701100 0.317500
4.718000 0.327800
4.735000 0.338100
4.752000 0.640700
4.769000 0.660000
4.786000 0.679200
4.803000 0.698500
4.819900 0.717700
4.836900 0.737000
4.853900 0.756300
4.870900 0.775500
4.887900 0.794800
4.904900 1.415500
4.921800 1.464900
4.938800 1.514400
4.955800 1.563800
4.972800 1.613200
4.989800 2.167800
5.006800 2.241200
5.023700 2.314500
5.040700 2.387900
5.057700 2.461200
5.074700 2.534600
5.091700 2.607900
5.108700 2.681200
5.125600 2.754600
5.142600 2.827900
5.159600 2.901300
5.176600 2.974600
5.193600 3.048000
5.210600 3.121300
5.227500 3.194700
5.244500 3.268000
5.261500 3.341400
5.278500 4.510600
5.295500 4.910300
5.312500 5.310000
5.329400 5.709700
5.346400 6.109400
5.363400 6.509100
5.380400 6.908800
5.397400 7.308500
5.414400 15.513000
5.431300 17.230900
5.448300 8.149900
5.465300 5.414200
5.482300 4.325500
5.499300 4.699400
5.516300 5.914800
5.533200 6.995900
5.550200 6.107800
5.567200 5.219800
5.584200 4.788400
5.601200 4.867100
5.618100 4.945800
5.635100 5.024500
5.652100 5.103200
5.669100 4.645700
5.686100 4.829100
5.703100 5.012500
5.720000 5.195900
5.737000 5.379300
5.754000 5.562700
5.771000 7.880900
5.788000 7.690500
5.805000 7.480800
5.821900 7.271100
5.838900 7.061400
5.855900 6.851600
5.872900 6.641900
5.889900 6.432200
5.906900 6.204500
5.923800 5.934000
5.940800 5.735900
5.957800 5.553100
5.974800 5.370300
5.991800 4.328600
6.008800 4.196100
6.025700 4.063600
6.042700 3.164500
6.059700 3.149900
6.076700 3.135400
6.093700 3.120800
6.110700 3.106300
6.127600 3.091800
6.144600 3.077200
6.161600 3.062700
6.178600 3.048200
6.195600 3.033600
6.212600 3.019100
6.229500 2.172800
6.246500 2.219600
6.263500 8.115100
6.280500 8.991400
6.297500 6.129900
6.314500 5.771500
6.331400 5.413000
6.348400 0.000000
6.365400 0.000000
6.382400 0.000000
6.399400 0.000000
6.416400 3.724100
6.433300 4.015500
6.450300 4.306900
6.467300 4.598300
6.484300 3.709500
6.501300 3.680000
6.518300 3.650400
6.535200 3.620900
6.552200 3.591300
6.569200 3.561700
6.586200 7.271000
6.603200 7.549300
6.620200 7.827600
6.637100 8.105900
6.654100 10.430200
6.671100 8.682500
6.688100 7.824200
6.705100 7.392500
6.722100 3.833900
6.739000 3.629100
6.756000 3.424300
6.773000 3.219500
6.790000 3.014700
6.807000 2.809900
6.823900 2.605000
6.840900 2.400200
6.857900 2.277100
6.874900 2.283800
6.891900 2.290400
6.908900 2.297100
6.925800 2.936400
6.942800 2.974700
6.959800 3.012900
6.976800 3.051200
6.993800 3.089400
7.010800 3.127600
7.027700 3.165900
7.044700 3.204100
7.061700 3.242400
7.078700 4.707000
7.095700 4.757600
7.112700 4.808100
7.129600 4.858600
7.146600 6.701100
7.163600 6.769400
7.180600 6.837700
7.197600 6.906000
7.214600 6.974200
7.231500 4.824500
7.248500 4.893700
7.265500 4.962900
7.282500 2.318100
7.299500 2.659200
7.316500 3.000300
7.333400 3.341500
7.350400 3.682600
7.367400 4.023700
7.384400 8.243500
7.401400 8.223400
7.418400 8.203300
7.435300 8.183200
7.452300 8.676700
7.469300 8.680700
7.486300 8.684700
7.503300 5.220700
7.520300 4.774400
7.537200 4.328100
7.554200 9.601600
7.571200 9.696400
7.588200 9.723700
7.605200 4.785900
7.622200 4.803100
7.639100 4.820200
7.656100 4.837400
7.673100 4.854600
7.690100 4.871800
7.707100 4.888900
7.724100 4.906100
7.741000 4.923300
7.758000 5.816800
7.775000 5.893300
7.792000 4.917200
7.809000 4.846500
7.826000 4.775900
7.842900 4.705200
7.859900 4.634600
7.876900 4.564000
7.893900 7.135200
7.910900 8.065800
7.927900 8.996400
7.944800 9.927000
7.961800 20.999800
7.978800 20.809300
7.995800 10.572600
8.012800 10.918800
8.029700 10.328900
8.046700 9.752700
8.063700 9.176400
8.080700 8.005300
8.097700 8.117900
8.114700 8.230600
8.131600 7.004600
8.148600 6.876300
8.165600 6.748100
8.182600 6.619900
8.199600 6.491700
8.216600 6.363400
8.233500 6.191000
8.250500 5.961800
8.267500 5.732700
8.284500 5.503500
8.301500 4.851800
8.318500 4.694400
8.335400 4.537100
8.352400 4.379700
8.369400 3.481400
8.386400 4.025000
8.403400 4.568700
8.420400 4.644000
8.437300 5.220000
8.454300 5.719700
8.471300 5.641000
8.488300 5.562200
8.505300 5.483400
8.522300 5.404700
8.539200 5.325900
8.556200 5.247100
8.573200 5.168400
8.590200 5.089600
8.607200 5.010800
8.624200 4.932100
8.641100 4.853300
8.658100 4.774500
8.675100 4.695700
8.692100 4.617000
8.709100 4.538200
8.726100 5.685900
8.743000 5.524600
8.760000 5.820400
8.777000 5.575700
8.794000 4.697700
8.811000 4.494500
8.828000 3.820200
8.844900 3.640100
8.861900 3.460100
8.878900 1.936200
8.895900 1.863400
8.912900 2.158400
8.929900 2.626900
8.946800 3.095400
8.963800 3.749800
8.980800 4.229200
8.997800 4.708600
9.014800 5.188000
9.031800 8.201400
9.048700 8.580100
9.065700 8.958800
9.082700 9.337600
9.099700 9.716300
9.116700 12.105400
9.133700 13.282200
9.150600 16.094900
9.167600 11.854300
9.184600 3.325300
9.201600 3.371000
9.218600 3.416700
9.235500 3.462500
9.252500 3.508200
9.269500 3.553900
9.286500 3.599700
9.303500 7.209800
9.320500 7.489500
9.337400 7.769200
9.354400 8.048900
9.371400 12.579800
9.388400 10.764300
9.405400 3.021600
9.422400 2.916300
9.439300 1.988900
9.456300 1.940200
9.473300 1.891500
9.490300 1.979900
9.507300 2.179100
9.524300 2.378300
9.541200 2.577600
9.558200 2.776800
9.575200 2.976000
9.592200 3.175200
9.609200 3.374400
9.626200 3.573600
9.643100 3.772800
9.660100 3.972100
9.677100 4.241400
9.694100 4.668800
9.711100 4.403300
9.728100 8.138300
9.745000 8.239600
9.762000 8.340900
9.779000 8.442100
9.796000 8.543400
9.813000 8.711200
9.830000 8.436600
9.846900 6.437700
9.863900 6.396700
9.880900 6.355800
9.897900 7.702000
9.914900 7.393800
9.931900 4.344400
9.948800 4.323000
9.965800 4.374800
9.982800 4.426700
9.999800 4.478500
10.016800 6.894600
10.033800 6.710900
10.050700 6.527300
10.067700 6.343600
10.084700 6.160000
10.101700 5.976300
10.118700 4.852700
10.135700 4.745600
10.152600 4.638600
10.169600 4.531500
10.186600 4.424500
10.203600 3.181600
10.220600 3.169400
10.237600 1.563900
10.254500 1.654800
10.271500 3.989800
10.288500 3.954000
10.305500 3.918200
10.322500 3.882400
10.339500 3.846600
10.356400 3.810800
10.373400 3.775000
10.390400 3.739200
10.407400 3.703400
10.424400 2.899200
10.441300 2.813400
10.458300 2.727600
10.475300 2.641800
10.492300 4.949300
10.509300 5.010000
10.526300 5.070700
10.543200 5.131400
10.560200 5.192100
10.577200 4.526600
10.594200 4.629400
10.611200 4.732200
10.628200 4.835100
10.645100 7.826100
10.662100 8.035700
10.679100 8.245400
10.696100 8.455100
10.713100 8.664700
10.730100 9.136600
10.747000 9.607000
10.764000 12.237700
10.781000 12.443100
10.798000 6.780500
10.815000 6.543000
10.832000 6.099200
10.848900 4.639900
10.865900 4.666900
10.882900 4.694000
10.899900 4.721000
10.916900 4.748000
10.933900 4.775000
10.950800 4.802000
10.967800 4.829100
10.984800 4.856100
11.001800 4.883100
11.018800 4.910100
11.035800 5.238400
11.052700 5.202500
11.069700 5.166500
11.086700 5.130500
11.103700 4.421000
11.120700 4.360400
11.137700 4.299800
11.154600 4.239200
11.171600 4.178600
11.188600 4.012800
11.205600 3.926000
11.222600 3.839300
11.239600 3.752600
11.256500 3.665900
11.273500 3.579200
11.290500 5.711600
11.307500 5.769300
11.324500 5.827000
11.341500 5.884700
11.358400 5.942400
11.375400 6.005600
11.392400 6.077600
11.409400 6.149600
11.426400 6.221600
11.443400 6.293600
11.460300 6.365700
11.477300 6.437700
11.494300 6.509700
11.511300 6.065200
11.528300 5.985400
11.545300 5.628000
11.562200 7.587200
11.579200 6.062100
11.596200 6.112700
11.613200 6.163300
11.630200 6.213900
11.647100 6.264500
11.664100 6.062500
11.681100 6.223300
11.698100 12.586100
11.715100 11.646500
11.732100 5.356100
11.749000 4.769600
11.766000 4.673800
11.783000 4.577900
11.800000 4.482100
11.817000 4.386200
11.834000 6.398600
11.850900 6.411400
11.867900 6.424300
11.884900 6.437100
11.901900 7.017300
11.918900 6.985300
11.935900 8.436600
11.952800 8.458500
11.969800 46.123600
11.986800 7.400500
12.003800 7.291800
12.020800 7.183100
12.037800 7.074500
12.054700 6.377400
12.071700 6.363100
12.088700 7.055600
12.105700 9.022800
12.122700 9.364200
12.139700 10.922700
12.156600 10.347600
12.173600 9.772600
12.190600 9.197500
12.207600 8.622400
12.224600 5.802500
12.241600 5.804900
12.258500 5.807400
12.275500 5.809800
12.292500 5.812300
12.309500 7.015500
12.326500 8.581400
12.343500 8.092200
12.360400 8.035100
12.377400 7.978000
12.394400 7.920900
12.411400 7.863900
12.428400 7.806800
12.445400 7.749700
12.462300 7.692600
12.479300 7.635500
12.496300 8.119400
12.513300 7.920700
12.530300 7.722000
12.547300 7.523200
12.564200 7.324500
12.581200 6.200300
12.598200 5.317300
12.615200 5.259400
12.632200 6.332100
12.649200 6.316200
12.666100 6.300300
12.683100 6.284400
12.700100 6.800800
12.717100 6.699600
12.734100 6.598400
12.751100 8.079600
12.768000 8.099100
12.785000 8.118700
12.802000 8.138200
12.819000 8.157700
12.836000 10.028700
12.852900 9.705900
12.869900 9.355800
12.886900 6.184400
12.903900 5.653100
12.920900 5.379300
12.937900 5.146300
12.954800 4.913300
12.971800 3.890700
12.988800 5.644900
13.005800 17.293400
13.022800 14.765300
13.039800 6.084900
13.056700 5.847200
13.073700 5.609600
13.090700 5.402700
13.107700 5.249300
13.124700 5.096000
13.141700 4.942600
13.158600 4.789200
13.175600 4.635900
13.192600 3.892100
13.209600 3.792500
13.226600 3.692900
13.243600 3.593200
13.260500 2.762900
13.277500 2.777500
13.294500 2.792200
13.311500 3.953500
13.328500 4.080400
13.345500 4.147400
13.362400 4.214300
13.379400 4.318200
13.396400 4.590100
13.413400 4.862100
13.430400 8.390300
13.447400 8.909600
13.464300 9.428900
13.481300 8.991100
13.498300 9.298300
13.515300 7.241400
13.532300 7.307000
13.549300 7.372600
13.566200 7.438200
13.583200 7.503800
13.600200 7.569400
13.617200 14.486800
13.634200 14.846300
13.651200 8.252200
13.668100 7.887900
13.685100 7.523500
13.702100 7.159200
13.719100 7.849200
13.736100 7.711200
13.753100 7.643900
13.770000 7.576600
13.787000 8.315500
13.804000 10.634600
13.821000 7.399600
13.838000 7.373400
13.855000 7.347200
13.871900 11.198800
13.888900 11.770200
13.905900 12.341600
13.922900 12.433300
13.939900 11.020400
13.956900 9.822600
13.973800 5.665900
13.990800 5.598500
14.007800 5.531100
14.024800 5.463600
14.041800 5.396200
14.058700 5.328800
14.075700 4.784400
14.092700 4.749100
14.109700 4.738500
14.126700 5.756000
14.143700 7.843600
14.160600 7.810800
14.177600 7.778000
14.194600 7.179800
14.211600 7.185200
14.228600 7.190600
14.245600 7.196000
14.262500 7.201400
14.279500 7.206800
14.296500 7.212200
14.313500 7.217500
14.330500 7.222900
14.347500 7.228300
14.364400 7.037200
14.381400 4.929600
14.398400 6.466800
14.415400 6.406600
14.432400 6.346300
14.449400 6.286000
14.466300 5.856800
14.483300 6.073200
14.500300 6.289600
14.517300 6.506000
14.534300 6.722400
14.551300 6.938900
14.568200 7.155300
14.585200 22.119400
14.602200 5.197600
14.619200 5.020800
14.636200 4.843900
14.653200 9.659200
14.670100 9.481100
14.687100 9.303100
14.704100 9.125100
14.721100 8.947000
14.738100 8.769000
14.755100 4.446000
14.772000 4.331800
14.789000 4.970700
14.806000 4.976500
14.823000 4.982200
14.840000 5.509800
14.857000 5.548500
14.873900 5.587200
14.890900 5.648400
14.907900 5.743000
14.924900 5.837500
14.941900 5.932000
14.958900 6.026600
14.975800 6.121100
14.992800 5.864900
15.009800 5.969900
15.026800 6.274800
15.043800 6.416000
15.060800 6.557200
15.077700 6.698400
15.094700 6.839500
15.111700 6.980700
15.128700 6.558500
15.145700 6.373200
15.162700 6.188000
15.179600 6.002800
15.196600 7.207200
15.213600 9.888400
15.230600 16.000400
15.247600 15.798400
15.264500 15.596400
15.281500 9.167900
15.298500 9.078900
15.315500 8.989900
15.332500 8.846000
15.349500 10.024600
15.366400 9.428100
15.383400 8.831600
15.400400 8.235100
15.417400 7.638600
15.434400 7.042100
15.451400 6.445600
15.468300 5.931800
15.485300 7.463200
15.502300 12.360400
15.519300 10.928000
15.536300 4.620900
15.553300 4.736200
15.570200 4.851400
15.587200 4.966700
15.604200 5.081900
15.621200 6.528800
15.638200 6.759400
15.655200 5.469400
15.672100 5.492400
15.689100 5.515500
15.706100 5.538500
15.723100 5.561600
15.740100 5.584700
15.757100 6.025200
15.774000 20.747500
15.791000 6.748500
15.808000 6.609300
15.825000 6.470100
15.842000 8.121200
15.859000 7.840900
15.875900 7.717300
15.892900 7.593600
15.909900 7.470000
15.926900 7.346300
15.943900 7.222700
15.960900 7.099100
15.977800 5.361500
15.994800 5.407500
16.011800 14.261100
16.028800 11.340600
16.045800 3.090100
16.062800 3.416500
16.079700 6.607700
16.096700 7.463600
16.113700 8.319500
16.130700 12.034300
16.147700 11.527000
16.164700 10.982800
16.181600 7.473200
16.198600 8.334200
16.215600 8.884300
16.232600 13.344900
16.249600 13.704500
16.266600 14.064100
16.283500 14.423700
16.300500 7.476200
16.317500 10.304700
16.334500 10.312400
16.351500 10.320200
16.368500 10.328000
16.385400 10.335700
16.402400 10.343500
16.419400 10.351200
16.436400 10.359000
16.453400 5.408400
16.470300 5.151000
16.487300 4.893600
16.504300 7.117100
16.521300 7.585600
16.538300 8.054100
16.555300 9.533700
16.572200 9.387500
16.589200 11.265500
16.606200 8.460500
16.623200 4.330400
16.640200 5.368400
16.657200 5.992300
16.674100 5.989600
16.691100 5.986900
16.708100 6.354800
16.725100 6.363900
16.742100 6.373000
16.759100 6.382100
16.776000 6.391200
16.793000 6.400300
16.810000 6.409400
16.827000 6.418500
16.844000 6.561800
16.861000 6.998200
16.877900 5.848400
16.894900 8.071400
16.911900 7.919400
16.928900 7.767400
16.945900 7.615400
16.962900 7.463400
16.979800 7.311400
16.996800 8.832300
17.013800 8.991100
17.030800 9.725600
17.047800 9.388900
17.064800 6.247600
17.081700 6.656300
17.098700 7.065100
17.115700 7.473900
17.132700 5.975700
17.149700 5.878200
17.166700 5.780700
17.183600 5.683200
17.200600 5.585700
17.217600 5.488200
17.234600 5.390700
17.251600 5.293200
17.268600 5.195700
17.285500 5.098200
17.302500 5.000700
17.319500 5.560600
17.336500 5.738800
17.353500 5.917100
17.370500 6.095400
17.387400 6.273700
17.404400 6.186100
17.421400 7.008500
17.438400 8.168400
17.455400 8.159400
17.472400 8.684500
17.489300 8.704200
17.506300 8.724000
17.523300 8.743700
17.540300 7.866800
17.557300 7.975600
17.574300 9.173100
17.591200 9.372100
17.608200 9.571100
17.625200 8.970300
17.642200 6.176800
17.659200 5.628200
17.676100 5.697300
17.693100 6.436200
17.710100 6.545700
17.727100 6.655200
17.744100 6.764700
17.761100 6.874200
17.778000 6.983600
17.795000 7.906500
17.812000 8.351500
17.829000 8.796500
17.846000 9.241500
17.863000 9.686500
17.879900 10.131500
17.896900 14.931700
17.913900 14.164200
17.930900 13.507700
17.947900 1.276200
17.964900 2.670700
17.981800 6.910900
17.998800 7.828200
18.015800 8.745500
18.032800 8.578100
18.049800 8.299100
18.066800 8.020100
18.083700 7.741200
18.100700 7.462300
18.117700 7.183500
18.134700 6.346900
18.151700 5.999200
18.168700 19.317000
18.185600 9.091200
18.202600 10.372300
18.219600 11.052000
18.236600 11.731800
18.253600 12.258500
18.270600 12.679000
18.287500 7.486000
18.304500 7.518600
18.321500 7.551200
18.338500 7.583700
18.355500 7.616300
18.372500 7.648900
18.389400 8.712300
18.406400 9.802300
18.423400 9.673800
18.440400 9.466200
18.457400 9.257900
18.474400 12.726100
18.491300 8.064700
18.508300 9.760400
18.525300 11.298400
18.542300 12.533400
18.559300 9.262200
18.576300 8.631600
18.593200 8.410900
18.610200 8.238900
18.627200 8.067300
18.644200 13.959300
18.661200 12.996700
18.678200 12.934500
18.695100 11.811700
18.712100 11.756800
18.729100 7.298500
18.746100 6.072500
18.763100 4.532300
18.780100 4.472100
18.797000 4.411900
18.814000 4.351700
18.831000 4.291600
18.848000 4.231500
18.865000 4.171500
18.881900 4.111500
18.898900 4.051500
18.915900 3.991600
18.932900 3.935200
18.949900 3.871500
18.966900 3.612300
18.983800 3.409600
19.000800 3.254900
19.017800 3.148400
19.034800 3.081000
19.051800 2.972100
19.068800 4.894900
19.085700 1.782000
19.102700 1.719300
19.119700 1.656800
19.136700 1.594600
19.153700 1.532600
19.170700 1.470900
19.187600 1.409500
19.204600 1.348300
19.221600 1.287400
19.238600 3.870000
19.255600 0.012800
19.272600 0.000000
19.289500 0.000000
19.306500 0.000000
19.323500 0.000000
19.340500 0.000000
19.357500 0.000000
19.374500 0.000000
19.391400 0.000000
19.408400 0.000000
19.425400 0.000000
19.442400 0.000000
19.459400 0.000000
19.476400 0.000000
19.493300 0.000000
19.510300 0.000000
19.527300 0.000000
19.544300 0.000000
19.561300 0.000000
19.578300 0.000000
19.595200 0.000000
19.612200 0.000000
19.629200 0.000000
19.646200 0.000000
19.663200 0.000000
19.680200 0.000000
19.697100 0.000000
19.714100 0.000000
19.731100 0.000000
19.748100 0.000000
19.765100 0.000000
19.782100 0.000000
19.799000 0.000000
19.816000 0.000000
19.833000 0.000000
19.850000 0.000000
19.867000 0.000000
19.884000 0.000000
19.900900 0.000000
19.917900 0.000000
19.934900 0.000000
19.951900 0.000000
19.968900 0.000000
19.985900 0.000000
20.002800 0.000000
20.019800 0.000000
20.036800 0.000000
20.053800 0.000000
20.070800 0.000000
20.087700 0.000000
20.104700 0.000000
20.121700 0.000000
20.138700 0.000000
20.155700 0.000000
20.172700 0.000000
20.189600 0.000000
20.206600 0.000000
20.223600 0.000000
20.240600 0.000000
20.257600 0.000000
20.274600 0.000000
20.291500 0.000000
20.308500 0.000000
20.325500 0.000000
20.342500 0.000000
20.359500 0.000000
20.376500 0.000000
20.393400 0.000000
20.410400 0.000000
20.427400 0.000000
20.444400 0.000000
20.461400 0.000000
20.478400 0.000000
20.495300 0.000000
20.512300 0.000000
20.529300 0.000000
20.546300 0.000000
20.563300 0.000000
20.580300 0.000000
20.597200 0.000000
20.614200 0.000000
20.631200 0.000000
20.648200 0.000000
20.665200 0.000000
20.682200 0.000000
20.699100 0.000000
20.716100 0.000000
20.733100 0.000000
20.750100 0.000000
20.767100 0.000000
20.784100 0.000000
20.801000 0.000000
e
