set title 'mp-1225210 - Density of States'
set xlabel 'Energy (eV)'
set ylabel 'DOS (states/eV)'
set grid
set xrange [-10:10]
set yrange [0:6.378]
set xzeroaxis lt -1
set terminal png size 800,600
set output 'mp-1225210_dos_gnuplot.png'
plot '-' using 1:2 with lines title 'DOS'
-51.984800 0.000000
-51.930400 0.000000
-51.875900 0.000000
-51.821400 0.000000
-51.767000 0.000000
-51.712500 0.000000
-51.658000 0.000000
-51.603600 0.000000
-51.549100 0.000000
-51.494600 0.000000
-51.440200 0.000000
-51.385700 0.000000
-51.331200 0.000000
-51.276800 0.000000
-51.222300 0.000000
-51.167800 0.000000
-51.113400 0.000000
-51.058900 0.000000
-51.004400 0.000000
-50.950000 0.000000
-50.895500 0.000000
-50.841000 0.000000
-50.786600 0.000000
-50.732100 0.000000
-50.677600 0.000000
-50.623200 0.000000
-50.568700 0.000000
-50.514200 0.000000
-50.459800 0.000000
-50.405300 0.000000
-50.350900 0.000000
-50.296400 0.000000
-50.241900 0.000000
-50.187500 0.000000
-50.133000 0.000000
-50.078500 0.000000
-50.024100 0.000000
-49.969600 0.000000
-49.915100 0.000000
-49.860700 0.000000
-49.806200 0.000000
-49.751700 0.000000
-49.697300 0.000000
-49.642800 0.000000
-49.588300 0.000000
-49.533900 0.000000
-49.479400 0.000000
-49.424900 0.000000
-49.370500 0.000000
-49.316000 0.000000
-49.261500 0.000000
-49.207100 0.000000
-49.152600 0.000000
-49.098100 0.000000
-49.043700 0.000000
-48.989200 0.000000
-48.934700 0.000000
-48.880300 0.000000
-48.825800 0.000000
-48.771300 0.000000
-48.716900 0.000000
-48.662400 0.000000
-48.607900 0.000000
-48.553500 0.000000
-48.499000 0.000000
-48.444500 0.000000
-48.390100 0.000000
-48.335600 0.000000
-48.281100 0.000000
-48.226700 0.000000
-48.172200 0.000000
-48.117800 0.000000
-48.063300 0.000000
-48.008800 0.000000
-47.954400 0.000000
-47.899900 0.000000
-47.845400 0.000000
-47.791000 0.000000
-47.736500 0.000000
-47.682000 0.000000
-47.627600 0.000000
-47.573100 0.000000
-47.518600 0.000000
-47.464200 0.000000
-47.409700 0.000000
-47.355200 0.000000
-47.300800 0.000000
-47.246300 0.000000
-47.191800 0.000000
-47.137400 0.000000
-47.082900 0.000000
-47.028400 61.503400
-46.974000 0.000000
-46.919500 0.000000
-46.865000 17.159700
-46.810600 0.000000
-46.756100 0.000000
-46.701600 0.000000
-46.647200 0.000000
-46.592700 0.000000
-46.538200 0.000000
-46.483800 0.000000
-46.429300 0.000000
-46.374800 0.000000
-46.320400 0.000000
-46.265900 0.000000
-46.211400 0.000000
-46.157000 0.000000
-46.102500 0.000000
-46.048000 0.000000
-45.993600 0.000000
-45.939100 0.000000
-45.884700 0.000000
-45.830200 54.726200
-45.775700 59.457100
-45.721300 0.000000
-45.666800 0.000000
-45.612300 0.000000
-45.557900 0.000000
-45.503400 0.000000
-45.448900 0.000000
-45.394500 0.000000
-45.340000 0.000000
-45.285500 0.000000
-45.231100 0.000000
-45.176600 0.000000
-45.122100 0.000000
-45.067700 0.000000
-45.013200 0.000000
-44.958700 0.000000
-44.904300 0.000000
-44.849800 0.000000
-44.795300 0.000000
-44.740900 0.000000
-44.686400 0.000000
-44.631900 0.000000
-44.577500 0.000000
-44.523000 0.000000
-44.468500 0.000000
-44.414100 0.000000
-44.359600 0.000000
-44.305100 0.000000
-44.250700 0.000000
-44.196200 0.000000
-44.141700 0.000000
-44.087300 0.000000
-44.032800 0.000000
-43.978300 0.000000
-43.923900 0.000000
-43.869400 0.000000
-43.815000 0.000000
-43.760500 0.000000
-43.706000 0.000000
-43.651600 0.000000
-43.597100 0.000000
-43.542600 0.000000
-43.488200 0.000000
-43.433700 0.000000
-43.379200 0.000000
-43.324800 0.000000
-43.270300 0.000000
-43.215800 0.000000
-43.161400 0.000000
-43.106900 0.000000
-43.052400 0.000000
-42.998000 0.000000
-42.943500 0.000000
-42.889000 0.000000
-42.834600 0.000000
-42.780100 0.000000
-42.725600 0.000000
-42.671200 0.000000
-42.616700 0.000000
-42.562200 0.000000
-42.507800 0.000000
-42.453300 0.000000
-42.398800 0.000000
-42.344400 0.000000
-42.289900 0.000000
-42.235400 0.000000
-42.181000 0.000000
-42.126500 0.000000
-42.072000 0.000000
-42.017600 0.000000
-41.963100 0.000000
-41.908600 0.000000
-41.854200 0.000000
-41.799700 0.000000
-41.745200 0.000000
-41.690800 0.000000
-41.636300 0.000000
-41.581900 0.000000
-41.527400 0.000000
-41.472900 0.000000
-41.418500 0.000000
-41.364000 0.000000
-41.309500 0.000000
-41.255100 0.000000
-41.200600 0.000000
-41.146100 0.000000
-41.091700 0.000000
-41.037200 0.000000
-40.982700 0.000000
-40.928300 0.000000
-40.873800 0.000000
-40.819300 0.000000
-40.764900 0.000000
-40.710400 0.000000
-40.655900 0.000000
-40.601500 0.000000
-40.547000 0.000000
-40.492500 0.000000
-40.438100 0.000000
-40.383600 0.000000
-40.329100 0.000000
-40.274700 0.000000
-40.220200 0.000000
-40.165700 0.000000
-40.111300 0.000000
-40.056800 0.000000
-40.002300 0.000000
-39.947900 0.000000
-39.893400 0.000000
-39.838900 0.000000
-39.784500 0.000000
-39.730000 0.000000
-39.675500 0.000000
-39.621100 0.000000
-39.566600 0.000000
-39.512100 0.000000
-39.457700 0.000000
-39.403200 0.000000
-39.348800 0.000000
-39.294300 0.000000
-39.239800 0.000000
-39.185400 0.000000
-39.130900 0.000000
-39.076400 0.000000
-39.022000 0.000000
-38.967500 0.000000
-38.913000 0.000000
-38.858600 0.000000
-38.804100 0.000000
-38.749600 0.000000
-38.695200 0.000000
-38.640700 0.000000
-38.586200 0.000000
-38.531800 0.000000
-38.477300 0.000000
-38.422800 0.000000
-38.368400 0.000000
-38.313900 0.000000
-38.259400 0.000000
-38.205000 0.000000
-38.150500 0.000000
-38.096000 0.000000
-38.041600 0.000000
-37.987100 0.000000
-37.932600 0.000000
-37.878200 0.000000
-37.823700 0.000000
-37.769200 0.000000
-37.714800 0.000000
-37.660300 0.000000
-37.605800 0.000000
-37.551400 0.000000
-37.496900 0.000000
-37.442400 0.000000
-37.388000 0.000000
-37.333500 0.000000
-37.279000 0.000000
-37.224600 0.000000
-37.170100 0.000000
-37.115700 0.000000
-37.061200 0.000000
-37.006700 0.000000
-36.952300 0.000000
-36.897800 0.000000
-36.843300 0.000000
-36.788900 0.000000
-36.734400 0.000000
-36.679900 0.000000
-36.625500 0.000000
-36.571000 0.000000
-36.516500 0.000000
-36.462100 0.000000
-36.407600 0.000000
-36.353100 0.000000
-36.298700 0.000000
-36.244200 0.000000
-36.189700 0.000000
-36.135300 0.000000
-36.080800 0.000000
-36.026300 0.000000
-35.971900 0.000000
-35.917400 0.000000
-35.862900 0.000000
-35.808500 0.000000
-35.754000 0.000000
-35.699500 0.000000
-35.645100 0.000000
-35.590600 0.000000
-35.536100 0.000000
-35.481700 0.000000
-35.427200 0.000000
-35.372700 0.000000
-35.318300 0.000000
-35.263800 0.000000
-35.209300 0.000000
-35.154900 0.000000
-35.100400 0.000000
-35.045900 0.000000
-34.991500 0.000000
-34.937000 0.000000
-34.882600 0.000000
-34.828100 0.000000
-34.773600 0.000000
-34.719200 0.000000
-34.664700 0.000000
-34.610200 0.000000
-34.555800 0.000000
-34.501300 0.000000
-34.446800 0.000000
-34.392400 0.000000
-34.337900 0.000000
-34.283400 0.000000
-34.229000 0.000000
-34.174500 0.000000
-34.120000 0.000000
-34.065600 0.000000
-34.011100 0.000000
-33.956600 0.000000
-33.902200 0.000000
-33.847700 0.000000
-33.793200 0.000000
-33.738800 0.000000
-33.684300 0.000000
-33.629800 0.000000
-33.575400 0.000000
-33.520900 0.000000
-33.466400 0.000000
-33.412000 0.000000
-33.357500 0.000000
-33.303000 0.000000
-33.248600 0.000000
-33.194100 0.000000
-33.139600 0.000000
-33.085200 0.000000
-33.030700 0.000000
-32.976200 0.000000
-32.921800 0.000000
-32.867300 0.000000
-32.812900 0.000000
-32.758400 0.000000
-32.703900 0.000000
-32.649500 0.000000
-32.595000 0.000000
-32.540500 0.000000
-32.486100 0.000000
-32.431600 0.000000
-32.377100 0.000000
-32.322700 0.000000
-32.268200 0.000000
-32.213700 0.000000
-32.159300 0.000000
-32.104800 0.000000
-32.050300 0.000000
-31.995900 0.000000
-31.941400 0.000000
-31.886900 0.000000
-31.832500 0.000000
-31.778000 0.000000
-31.723500 0.000000
-31.669100 0.000000
-31.614600 0.000000
-31.560100 0.000000
-31.505700 0.000000
-31.451200 0.000000
-31.396700 0.000000
-31.342300 0.000000
-31.287800 0.000000
-31.233300 0.000000
-31.178900 0.000000
-31.124400 0.000000
-31.069900 0.000000
-31.015500 0.000000
-30.961000 0.000000
-30.906500 0.000000
-30.852100 0.000000
-30.797600 0.000000
-30.743100 0.000000
-30.688700 0.000000
-30.634200 0.000000
-30.579800 0.000000
-30.525300 0.000000
-30.470800 0.000000
-30.416400 0.000000
-30.361900 0.000000
-30.307400 0.000000
-30.253000 0.000000
-30.198500 0.000000
-30.144000 0.000000
-30.089600 0.000000
-30.035100 0.000000
-29.980600 0.000000
-29.926200 0.000000
-29.871700 0.000000
-29.817200 0.000000
-29.762800 0.000000
-29.708300 0.000000
-29.653800 0.000000
-29.599400 0.000000
-29.544900 0.000000
-29.490400 0.000000
-29.436000 0.000000
-29.381500 0.000000
-29.327000 0.000000
-29.272600 0.000000
-29.218100 0.000000
-29.163600 0.000000
-29.109200 0.000000
-29.054700 0.000000
-29.000200 0.000000
-28.945800 0.000000
-28.891300 0.000000
-28.836800 0.000000
-28.782400 0.000000
-28.727900 0.000000
-28.673400 0.000000
-28.619000 0.000000
-28.564500 0.000000
-28.510000 0.000000
-28.455600 0.000000
-28.401100 0.000000
-28.346700 0.000000
-28.292200 0.000000
-28.237700 0.000000
-28.183300 0.000000
-28.128800 0.000000
-28.074300 0.000000
-28.019900 0.000000
-27.965400 0.000000
-27.910900 0.000000
-27.856500 0.000000
-27.802000 0.000000
-27.747500 0.000000
-27.693100 0.000000
-27.638600 0.000000
-27.584100 0.000000
-27.529700 0.000000
-27.475200 0.000000
-27.420700 0.000000
-27.366300 0.000000
-27.311800 0.000000
-27.257300 0.000000
-27.202900 0.000000
-27.148400 0.000000
-27.093900 0.000000
-27.039500 0.000000
-26.985000 0.000000
-26.930500 0.000000
-26.876100 0.000000
-26.821600 0.000000
-26.767100 0.000000
-26.712700 0.000000
-26.658200 0.000000
-26.603700 0.000000
-26.549300 0.000000
-26.494800 0.000000
-26.440300 0.000000
-26.385900 0.000000
-26.331400 0.000000
-26.276900 0.000000
-26.222500 0.000000
-26.168000 0.000000
-26.113600 0.000000
-26.059100 0.000000
-26.004600 0.000000
-25.950200 0.000000
-25.895700 0.000000
-25.841200 0.000000
-25.786800 0.000000
-25.732300 0.000000
-25.677800 0.000000
-25.623400 0.000000
-25.568900 0.000000
-25.514400 0.000000
-25.460000 0.000000
-25.405500 0.000000
-25.351000 0.000000
-25.296600 0.000000
-25.242100 0.000000
-25.187600 0.000000
-25.133200 0.000000
-25.078700 0.000000
-25.024200 0.000000
-24.969800 0.000000
-24.915300 0.000000
-24.860800 0.000000
-24.806400 0.000000
-24.751900 0.000000
-24.697400 0.000000
-24.643000 0.000000
-24.588500 0.000000
-24.534000 0.000000
-24.479600 0.000000
-24.425100 0.000000
-24.370600 0.000000
-24.316200 0.000000
-24.261700 0.000000
-24.207200 0.000000
-24.152800 0.000000
-24.098300 0.000000
-24.043800 0.000000
-23.989400 0.000000
-23.934900 0.000000
-23.880500 0.000000
-23.826000 0.000000
-23.771500 0.000000
-23.717100 0.000000
-23.662600 0.000000
-23.608100 0.000000
-23.553700 0.000000
-23.499200 0.000000
-23.444700 0.000000
-23.390300 0.000000
-23.335800 0.000000
-23.281300 0.000000
-23.226900 0.000000
-23.172400 0.000000
-23.117900 0.000000
-23.063500 0.000000
-23.009000 0.000000
-22.954500 0.000000
-22.900100 0.000000
-22.845600 0.000000
-22.791100 0.000000
-22.736700 0.000000
-22.682200 0.000000
-22.627700 0.000000
-22.573300 0.000000
-22.518800 0.000000
-22.464300 0.000000
-22.409900 0.000000
-22.355400 0.000000
-22.300900 0.000000
-22.246500 0.000000
-22.192000 0.000000
-22.137500 0.000000
-22.083100 0.000000
-22.028600 0.000000
-21.974100 0.000000
-21.919700 0.000000
-21.865200 0.000000
-21.810800 0.000000
-21.756300 0.000000
-21.701800 0.000000
-21.647400 0.000000
-21.592900 0.000000
-21.538400 0.000000
-21.484000 0.000000
-21.429500 0.000000
-21.375000 0.000000
-21.320600 0.000000
-21.266100 0.000000
-21.211600 0.000000
-21.157200 0.000000
-21.102700 0.000000
-21.048200 0.000000
-20.993800 0.000000
-20.939300 0.000000
-20.884800 0.000000
-20.830400 0.000000
-20.775900 0.000000
-20.721400 0.000000
-20.667000 0.000000
-20.612500 0.000000
-20.558000 0.000000
-20.503600 0.000000
-20.449100 0.000000
-20.394600 0.000000
-20.340200 0.000000
-20.285700 0.000000
-20.231200 0.000000
-20.176800 0.000000
-20.122300 0.000000
-20.067800 0.000000
-20.013400 0.000000
-19.958900 0.000000
-19.904400 0.000000
-19.850000 0.000000
-19.795500 0.000000
-19.741000 0.000000
-19.686600 0.000000
-19.632100 0.000000
-19.577700 0.000000
-19.523200 0.000000
-19.468700 0.000000
-19.414300 0.000000
-19.359800 0.000000
-19.305300 0.000000
-19.250900 0.000000
-19.196400 0.000000
-19.141900 0.000000
-19.087500 0.000000
-19.033000 0.000000
-18.978500 0.000000
-18.924100 0.000000
-18.869600 0.000000
-18.815100 0.000000
-18.760700 0.000000
-18.706200 0.000000
-18.651700 0.000000
-18.597300 0.000000
-18.542800 0.000000
-18.488300 0.000000
-18.433900 0.000000
-18.379400 0.000000
-18.324900 0.000000
-18.270500 0.000000
-18.216000 0.000000
-18.161500 0.000000
-18.107100 0.000000
-18.052600 0.000000
-17.998100 0.000000
-17.943700 0.000000
-17.889200 0.000000
-17.834700 0.000000
-17.780300 0.000000
-17.725800 0.000000
-17.671300 0.000000
-17.616900 0.000000
-17.562400 0.000000
-17.507900 0.000000
-17.453500 0.000000
-17.399000 0.000000
-17.344600 0.000000
-17.290100 0.000000
-17.235600 0.000000
-17.181200 0.000000
-17.126700 0.000000
-17.072200 0.000000
-17.017800 0.000000
-16.963300 0.000000
-16.908800 0.000000
-16.854400 0.000000
-16.799900 0.000000
-16.745400 0.000000
-16.691000 0.000000
-16.636500 0.000000
-16.582000 0.000000
-16.527600 0.000000
-16.473100 0.000000
-16.418600 0.000000
-16.364200 0.000000
-16.309700 0.000000
-16.255200 0.000000
-16.200800 0.000000
-16.146300 0.000000
-16.091800 0.000000
-16.037400 0.000000
-15.982900 0.000000
-15.928400 0.000000
-15.874000 0.000000
-15.819500 0.000000
-15.765000 0.000000
-15.710600 0.000000
-15.656100 0.000000
-15.601600 0.000000
-15.547200 0.000000
-15.492700 0.000000
-15.438200 0.000000
-15.383800 0.000000
-15.329300 0.000000
-15.274800 0.000000
-15.220400 0.000000
-15.165900 0.000000
-15.111500 0.000000
-15.057000 0.000000
-15.002500 0.000000
-14.948100 0.000000
-14.893600 0.000000
-14.839100 0.000000
-14.784700 0.000000
-14.730200 0.000000
-14.675700 0.000000
-14.621300 0.000000
-14.566800 0.000000
-14.512300 0.000000
-14.457900 0.000000
-14.403400 0.000000
-14.348900 0.000000
-14.294500 0.000000
-14.240000 0.000000
-14.185500 0.000000
-14.131100 0.000000
-14.076600 0.000000
-14.022100 0.000000
-13.967700 0.000000
-13.913200 0.000000
-13.858700 0.000000
-13.804300 0.000000
-13.749800 0.000000
-13.695300 0.000000
-13.640900 0.000000
-13.586400 0.000000
-13.531900 0.000000
-13.477500 0.000000
-13.423000 0.000000
-13.368500 0.000000
-13.314100 0.000000
-13.259600 0.000000
-13.205100 0.000000
-13.150700 0.000000
-13.096200 0.000000
-13.041800 0.000000
-12.987300 0.000000
-12.932800 0.000000
-12.878400 0.000000
-12.823900 0.000000
-12.769400 0.000000
-12.715000 0.000000
-12.660500 0.000000
-12.606000 0.000000
-12.551600 0.000000
-12.497100 0.000000
-12.442600 0.000000
-12.388200 0.000000
-12.333700 0.000000
-12.279200 0.000000
-12.224800 0.000000
-12.170300 0.000000
-12.115800 0.000000
-12.061400 0.000000
-12.006900 0.000000
-11.952400 0.000000
-11.898000 0.000000
-11.843500 0.000000
-11.789000 0.000000
-11.734600 0.000000
-11.680100 0.000000
-11.625600 0.000000
-11.571200 0.000000
-11.516700 0.000000
-11.462200 0.000000
-11.407800 0.000000
-11.353300 0.000000
-11.298800 0.000000
-11.244400 0.000000
-11.189900 0.000000
-11.135400 0.000000
-11.081000 0.000000
-11.026500 0.000000
-10.972000 0.000000
-10.917600 0.000000
-10.863100 0.000000
-10.808700 0.000000
-10.754200 0.000000
-10.699700 0.000000
-10.645300 0.000000
-10.590800 0.000000
-10.536300 0.000000
-10.481900 0.000000
-10.427400 0.000000
-10.372900 0.000000
-10.318500 0.000000
-10.264000 0.000000
-10.209500 0.000000
-10.155100 0.000000
-10.100600 0.000000
-10.046100 0.000000
-9.991700 0.000000
-9.937200 0.000000
-9.882700 0.000000
-9.828300 0.000000
-9.773800 0.000000
-9.719300 0.000000
-9.664900 0.000000
-9.610400 0.000000
-9.555900 0.000000
-9.501500 0.000000
-9.447000 0.000000
-9.392500 0.000000
-9.338100 0.000000
-9.283600 0.000000
-9.229100 0.000000
-9.174700 0.000000
-9.120200 0.000000
-9.065700 0.000000
-9.011300 0.000000
-8.956800 0.000000
-8.902300 0.000000
-8.847900 0.000000
-8.793400 0.000000
-8.738900 0.000000
-8.684500 0.000000
-8.630000 0.000000
-8.575600 0.000000
-8.521100 0.000000
-8.466600 0.000000
-8.412200 0.000000
-8.357700 0.000000
-8.303200 0.000000
-8.248800 0.000000
-8.194300 0.000000
-8.139800 0.000000
-8.085400 0.000000
-8.030900 0.000000
-7.976400 0.000000
-7.922000 0.000000
-7.867500 0.000000
-7.813000 0.000000
-7.758600 0.000000
-7.704100 0.000000
-7.649600 0.000000
-7.595200 0.000000
-7.540700 0.000000
-7.486200 0.000000
-7.431800 0.000000
-7.377300 0.000000
-7.322800 0.000000
-7.268400 0.000000
-7.213900 0.000000
-7.159400 0.000000
-7.105000 0.000000
-7.050500 0.000000
-6.996000 0.000000
-6.941600 0.000000
-6.887100 0.000000
-6.832600 0.000000
-6.778200 0.000000
-6.723700 0.000000
-6.669200 0.000000
-6.614800 0.000000
-6.560300 0.000000
-6.505800 0.000000
-6.451400 0.000000
-6.396900 0.000000
-6.342500 0.000000
-6.288000 0.000000
-6.233500 0.000000
-6.179100 0.000000
-6.124600 0.000000
-6.070100 0.000000
-6.015700 0.000000
-5.961200 0.000000
-5.906700 0.000000
-5.852300 0.000000
-5.797800 0.000000
-5.743300 0.000000
-5.688900 0.000000
-5.634400 0.000000
-5.579900 0.000000
-5.525500 0.000000
-5.471000 0.000000
-5.416500 0.000000
-5.362100 0.000000
-5.307600 0.000000
-5.253100 0.000000
-5.198700 0.000000
-5.144200 0.000000
-5.089700 0.000000
-5.035300 0.000000
-4.980800 0.000000
-4.926300 0.000000
-4.871900 0.000000
-4.817400 0.000000
-4.762900 0.000000
-4.708500 0.000000
-4.654000 0.000000
-4.599500 0.000000
-4.545100 0.000000
-4.490600 0.023600
-4.436100 0.065900
-4.381700 0.082100
-4.327200 0.105100
-4.272700 0.134300
-4.218300 0.167200
-4.163800 0.185000
-4.109400 0.179500
-4.054900 0.186400
-4.000400 0.188900
-3.946000 0.185300
-3.891500 0.186100
-3.837000 0.187400
-3.782600 0.188500
-3.728100 0.188900
-3.673600 0.187400
-3.619200 0.189400
-3.564700 0.192200
-3.510200 0.192700
-3.455800 0.193400
-3.401300 0.194100
-3.346800 0.194200
-3.292400 0.193000
-3.237900 0.193600
-3.183400 0.195200
-3.129000 0.197100
-3.074500 0.199300
-3.020000 0.200900
-2.965600 0.201600
-2.911100 0.202200
-2.856600 0.202600
-2.802200 0.202200
-2.747700 0.203100
-2.693200 0.204300
-2.638800 0.205700
-2.584300 0.207600
-2.529800 0.209600
-2.475400 0.211800
-2.420900 0.213500
-2.366400 0.215100
-2.312000 0.216500
-2.257500 0.217600
-2.203000 0.219000
-2.148600 0.220900
-2.094100 0.223000
-2.039700 0.225200
-1.985200 0.227600
-1.930700 0.229900
-1.876300 0.232200
-1.821800 0.235800
-1.767300 0.241800
-1.712900 0.248300
-1.658400 0.256600
-1.603900 0.263300
-1.549500 0.269300
-1.495000 0.275200
-1.440500 0.280600
-1.386100 0.285800
-1.331600 0.361400
-1.277100 0.367200
-1.222700 0.374000
-1.168200 0.368300
-1.113700 0.295800
-1.059300 0.274100
-1.004800 0.249200
-0.950300 0.236000
-0.895900 0.223500
-0.841400 0.212200
-0.786900 0.198800
-0.732500 0.192700
-0.678000 0.186200
-0.623500 0.178500
-0.569100 0.184500
-0.514600 0.194400
-0.460100 0.189500
-0.405700 0.193000
-0.351200 0.197200
-0.296700 0.199300
-0.242300 0.197500
-0.187800 0.197600
-0.133300 0.197800
-0.078900 0.198100
-0.024400 0.199200
0.030100 0.200300
0.084500 0.201400
0.139000 0.202800
0.193400 0.203600
0.247900 0.203400
0.302400 0.204000
0.356800 0.204900
0.411300 0.210500
0.465800 0.211700
0.520200 0.210900
0.574700 0.209300
0.629200 0.219500
0.683600 0.372000
0.738100 0.404700
0.792600 0.360500
0.847000 0.368300
0.901500 0.369700
0.956000 0.377300
1.010400 0.392600
1.064900 0.404800
1.119400 0.408800
1.173800 0.419100
1.228300 0.430000
1.282800 0.445900
1.337200 0.466900
1.391700 0.482200
1.446200 0.498500
1.500600 0.513700
1.555100 0.531000
1.609600 0.540400
1.664000 0.543700
1.718500 0.549000
1.773000 0.555300
1.827400 0.558600
1.881900 0.540900
1.936400 0.534500
1.990800 0.537500
2.045300 0.612200
2.099800 0.677600
2.154200 0.745300
2.208700 0.802900
2.263200 0.916700
2.317600 1.055300
2.372100 1.253300
2.426500 1.371600
2.481000 1.391800
2.535500 1.411900
2.589900 1.616300
2.644400 1.560700
2.698900 1.467000
2.753300 1.399200
2.807800 1.420100
2.862300 1.200700
2.916700 1.168700
2.971200 1.173400
3.025700 1.286100
3.080100 1.239400
3.134600 1.494700
3.189100 1.735800
3.243500 2.013200
3.298000 2.117500
3.352500 2.151300
3.406900 2.139300
3.461400 2.043500
3.515900 2.015400
3.570300 2.363300
3.624800 1.589300
3.679300 1.498400
3.733700 1.819900
3.788200 2.177700
3.842700 2.836800
3.897100 4.157400
3.951600 4.202300
4.006100 2.583100
4.060500 2.072100
4.115000 2.316200
4.169500 2.202200
4.223900 3.144300
4.278400 3.220400
4.332900 3.115200
4.387300 3.588400
4.441800 5.310600
4.496300 4.173500
4.550700 4.686200
4.605200 4.000300
4.659600 3.467500
4.714100 3.105100
4.768600 3.366900
4.823000 3.133100
4.877500 3.190200
4.932000 2.901700
4.986400 2.826000
5.040900 2.804100
5.095400 1.811500
5.149800 1.378100
5.204300 1.059500
5.258800 0.864400
5.313200 0.758300
5.367700 0.881200
5.422200 1.056800
5.476600 1.243300
5.531100 1.574700
5.585600 2.247600
5.640000 2.172900
5.694500 2.221300
5.749000 2.966300
5.803400 4.547200
5.857900 2.730800
5.912400 4.751000
5.966800 5.495700
6.021300 5.798500
6.075800 5.218900
6.130200 5.452700
6.184700 4.355600
6.239200 4.903300
6.293600 4.127800
6.348100 3.663800
6.402600 4.536000
6.457000 3.555900
6.511500 1.972100
6.566000 2.451600
6.620400 3.386600
6.674900 3.220400
6.729400 3.170500
6.783800 5.442800
6.838300 4.342400
6.892700 3.312900
6.947200 3.085600
7.001700 3.092400
7.056100 3.504100
7.110600 3.274700
7.165100 3.963200
7.219500 4.262800
7.274000 5.389800
7.328500 4.462500
7.382900 4.542100
7.437400 2.709300
7.491900 2.274900
7.546300 1.235300
7.600800 1.063800
7.655300 0.908100
7.709700 0.927300
7.764200 0.965600
7.818700 0.855500
7.873100 0.808100
7.927600 0.778600
7.982100 0.732900
8.036500 0.717900
8.091000 0.709200
8.145500 0.714700
8.199900 0.785000
8.254400 1.138000
8.308900 1.089900
8.363300 1.007600
8.417800 0.943600
8.472300 0.924500
8.526700 0.905300
8.581200 0.846100
8.635700 0.792900
8.690100 0.761900
8.744600 0.757000
8.799100 0.763000
8.853500 0.769500
8.908000 0.792300
8.962400 0.797500
9.016900 0.828300
9.071400 0.921000
9.125800 0.925000
9.180300 0.904500
9.234800 0.901300
9.289200 0.832300
9.343700 0.765600
9.398200 0.840100
9.452600 0.772200
9.507100 0.760200
9.561600 0.734500
9.616000 0.733000
9.670500 0.774800
9.725000 0.700500
9.779400 0.692100
9.833900 0.693100
9.888400 0.687700
9.942800 0.667400
9.997300 0.659700
10.051800 0.655500
10.106200 0.650600
10.160700 0.599800
10.215200 0.518500
10.269600 0.495500
10.324100 0.479900
10.378600 0.451200
10.433000 0.425800
10.487500 0.431000
10.542000 0.433600
10.596400 0.442300
10.650900 0.455900
10.705400 0.497900
10.759800 0.542500
10.814300 0.497900
10.868800 0.466800
10.923200 0.471700
10.977700 0.477700
11.032200 0.476200
11.086600 0.491900
11.141100 0.518900
11.195500 0.497700
11.250000 0.480700
11.304500 0.458900
11.358900 0.428200
11.413400 0.404900
11.467900 0.386800
11.522300 0.369000
11.576800 0.350700
11.631300 0.339200
11.685700 0.330800
11.740200 0.324100
11.794700 0.322800
11.849100 0.308700
11.903600 0.315600
11.958100 0.326400
12.012500 0.379900
12.067000 0.385200
12.121500 0.497800
12.175900 0.385100
12.230400 0.436300
12.284900 0.523600
12.339300 0.605400
12.393800 0.638300
12.448300 0.651400
12.502700 0.716300
12.557200 0.770200
12.611700 0.798400
12.666100 0.816300
12.720600 0.899500
12.775100 0.951000
12.829500 0.955200
12.884000 0.879100
12.938500 0.868200
12.992900 0.856200
13.047400 0.821800
13.101900 0.787300
13.156300 0.779200
13.210800 0.750600
13.265300 0.762100
13.319700 0.806500
13.374200 0.913200
13.428600 0.916800
13.483100 0.865900
13.537600 0.816300
13.592000 0.788200
13.646500 0.745000
13.701000 0.745300
13.755400 0.746800
13.809900 0.737600
13.864400 0.721100
13.918800 0.698100
13.973300 0.717000
14.027800 0.676400
14.082200 0.684200
14.136700 0.693800
14.191200 0.709600
14.245600 0.720300
14.300100 0.724500
14.354600 0.718500
14.409000 0.710300
14.463500 0.694100
14.518000 0.693300
14.572400 0.672100
14.626900 0.671200
14.681400 0.664100
14.735800 0.663700
14.790300 0.679100
14.844800 0.680800
14.899200 0.689900
14.953700 0.717500
15.008200 0.705700
15.062600 0.690700
15.117100 0.696400
15.171600 0.702400
15.226000 0.756100
15.280500 0.725700
15.335000 0.715100
15.389400 0.699300
15.443900 0.675000
15.498400 0.660600
15.552800 0.651800
15.607300 0.620900
15.661700 0.605900
15.716200 0.601100
15.770700 0.719900
15.825100 0.616400
15.879600 0.643900
15.934100 0.666500
15.988500 0.650900
16.043000 0.631600
16.097500 0.664900
16.151900 0.666700
16.206400 0.678600
16.260900 0.693200
16.315300 0.698700
16.369800 0.686000
16.424300 0.712200
16.478700 0.717800
16.533200 0.694200
16.587700 0.620500
16.642100 0.583100
16.696600 0.592900
16.751100 0.644100
16.805500 0.689100
16.860000 0.715300
16.914500 0.727100
16.968900 0.736900
17.023400 0.748500
17.077900 0.763100
17.132300 0.786700
17.186800 0.760500
17.241300 0.758300
17.295700 0.753300
17.350200 0.771000
17.404700 0.738300
17.459100 0.721300
17.513600 0.716900
17.568100 0.724300
17.622500 0.711300
17.677000 0.687900
17.731400 0.658600
17.785900 0.647900
17.840400 0.664700
17.894800 0.690700
17.949300 0.707500
18.003800 0.704200
18.058200 0.713600
18.112700 0.735100
18.167200 0.771000
18.221600 0.798500
18.276100 0.808600
18.330600 0.801600
18.385000 0.851900
18.439500 0.905200
18.494000 0.927500
18.548400 0.937300
18.602900 0.934900
18.657400 0.896900
18.711800 0.869100
18.766300 0.878300
18.820800 0.819700
18.875200 0.765000
18.929700 0.729200
18.984200 0.709400
19.038600 0.685000
19.093100 0.676400
19.147600 0.654700
19.202000 0.656700
19.256500 0.700100
19.311000 0.745800
19.365400 0.762900
19.419900 0.768700
19.474400 0.783600
19.528800 0.854900
19.583300 0.910000
19.637800 0.956300
19.692200 0.994000
19.746700 1.009200
19.801200 1.025100
19.855600 0.996400
19.910100 0.971000
19.964500 0.959200
20.019000 0.928500
20.073500 0.893100
20.127900 0.850000
20.182400 0.804100
20.236900 0.752500
20.291300 0.687600
20.345800 0.672700
20.400300 0.648400
20.454700 0.644400
20.509200 0.619200
20.563700 0.603200
20.618100 0.718000
20.672600 0.644200
20.727100 0.657400
20.781500 0.673200
20.836000 0.692900
20.890500 0.722000
20.944900 0.745500
20.999400 0.765600
21.053900 0.773700
21.108300 0.765000
21.162800 0.770700
21.217300 0.826400
21.271700 0.809200
21.326200 0.840200
21.380700 0.834300
21.435100 0.835100
21.489600 0.819300
21.544100 0.823200
21.598500 0.810300
21.653000 0.808700
21.707500 0.767800
21.761900 0.759100
21.816400 0.764100
21.870900 0.744800
21.925300 0.730300
21.979800 0.718500
22.034300 0.722500
22.088700 0.715800
22.143200 0.709300
22.197600 0.708300
22.252100 0.715200
22.306600 0.724100
22.361000 0.698900
22.415500 0.687300
22.470000 0.660800
22.524400 0.650700
22.578900 0.634500
22.633400 0.607600
22.687800 0.618300
22.742300 0.665300
22.796800 0.658400
22.851200 0.663500
22.905700 0.663100
22.960200 0.669600
23.014600 0.676300
23.069100 0.675700
23.123600 0.690400
23.178000 0.701100
23.232500 0.718900
23.287000 0.759600
23.341400 0.798900
23.395900 0.812800
23.450400 0.803100
23.504800 0.792800
23.559300 0.754400
23.613800 0.731700
23.668200 0.700400
23.722700 0.681700
23.777200 0.668100
23.831600 0.662300
23.886100 0.672800
23.940600 0.701900
23.995000 0.725000
24.049500 0.756800
24.104000 0.724200
24.158400 0.661900
24.212900 0.628800
24.267400 0.619800
24.321800 0.659500
24.376300 0.710300
24.430700 0.778600
24.485200 0.921100
24.539700 1.007500
24.594100 0.990900
24.648600 0.965200
24.703100 0.942700
24.757500 0.927700
24.812000 0.929300
24.866500 0.943800
24.920900 0.927800
24.975400 0.926700
25.029900 0.946200
25.084300 0.966800
25.138800 0.963900
25.193300 0.937700
25.247700 0.969100
25.302200 0.924000
25.356700 0.899200
25.411100 0.886900
25.465600 0.901500
25.520100 0.893900
25.574500 0.902600
25.629000 0.910300
25.683500 0.947200
25.737900 0.950000
25.792400 0.978900
25.846900 1.035300
25.901300 1.051200
25.955800 1.049800
26.010300 1.013500
26.064700 1.044400
26.119200 1.095800
26.173700 1.060800
26.228100 1.036200
26.282600 1.048100
26.337100 1.053900
26.391500 1.023600
26.446000 0.986800
26.500500 0.915400
26.554900 0.875400
26.609400 0.862400
26.663800 0.855800
26.718300 0.973800
26.772800 0.945200
26.827200 0.968600
26.881700 0.980400
26.936200 0.951300
26.990600 0.958500
27.045100 0.917900
27.099600 0.886900
27.154000 0.870500
27.208500 0.854300
27.263000 0.815000
27.317400 0.798000
27.371900 0.815400
27.426400 0.852000
27.480800 0.877700
27.535300 0.929800
27.589800 0.977300
27.644200 1.020100
27.698700 0.897000
27.753200 0.878300
27.807600 0.830100
27.862100 0.818900
27.916600 0.810200
27.971000 0.810000
28.025500 0.833800
28.080000 0.824100
28.134400 0.807600
28.188900 0.800700
28.243400 0.830000
28.297800 0.840700
28.352300 0.833500
28.406800 0.844300
28.461200 0.855600
28.515700 0.849900
28.570200 0.897000
28.624600 0.908200
28.679100 0.920800
28.733500 0.938100
28.788000 0.944400
28.842500 0.937600
28.896900 0.930000
28.951400 0.909900
29.005900 0.887700
29.060300 0.865900
29.114800 0.864900
29.169300 0.888400
29.223700 0.872100
29.278200 0.842300
29.332700 0.833100
29.387100 0.855700
29.441600 0.878400
29.496100 0.911700
29.550500 1.205500
29.605000 0.985400
29.659500 0.989000
29.713900 0.989600
29.768400 0.930200
29.822900 0.866000
29.877300 0.838900
29.931800 0.819100
29.986300 0.737600
30.040700 0.735000
30.095200 0.734900
30.149700 0.736700
30.204100 0.759900
30.258600 0.800700
30.313100 0.851800
30.367500 0.901500
30.422000 0.922600
30.476500 0.925700
30.530900 0.934600
30.585400 0.898800
30.639900 0.895000
30.694300 0.897500
30.748800 0.899300
30.803300 0.949100
30.857700 1.009700
30.912200 1.123600
30.966600 1.035300
31.021100 1.000500
31.075600 0.970700
31.130000 0.938200
31.184500 0.925500
31.239000 0.912700
31.293400 0.936400
31.347900 0.973300
31.402400 0.973100
31.456800 0.958000
31.511300 0.960100
31.565800 0.925800
31.620200 0.908800
31.674700 0.909000
31.729200 0.879900
31.783600 0.878400
31.838100 0.883800
31.892600 0.864700
31.947000 0.830400
32.001500 0.799000
32.056000 0.740100
32.110400 0.688600
32.164900 0.660600
32.219400 0.644800
32.273800 0.655500
32.328300 0.680900
32.382800 0.693500
32.437200 0.740200
32.491700 0.780900
32.546200 0.843500
32.600600 0.902200
32.655100 0.984000
32.709600 1.009900
32.764000 1.004000
32.818500 0.965800
32.873000 0.845700
32.927400 0.840300
32.981900 0.897900
33.036400 0.954500
33.090800 0.946800
33.145300 0.941800
33.199700 0.927200
33.254200 0.926400
33.308700 0.925200
33.363100 0.929100
33.417600 0.894200
33.472100 0.851000
33.526500 0.811100
33.581000 0.739100
33.635500 0.784900
33.689900 0.752000
33.744400 0.747000
33.798900 0.756700
33.853300 0.757700
33.907800 0.749700
33.962300 0.756600
34.016700 0.769800
34.071200 0.785200
34.125700 0.792000
34.180100 0.818200
34.234600 0.841100
34.289100 0.816200
34.343500 0.814500
34.398000 0.776400
34.452500 0.770800
34.506900 0.759300
34.561400 0.754600
34.615900 0.750400
34.670300 0.756800
34.724800 0.789000
34.779300 0.802800
34.833700 0.821100
34.888200 0.843400
34.942700 0.846100
34.997100 0.871400
35.051600 0.903800
35.106100 0.906200
35.160500 0.931400
35.215000 0.933700
35.269500 0.933500
35.323900 0.913200
35.378400 0.890200
35.432800 0.879500
35.487300 0.831300
35.541800 0.808000
35.596200 0.796500
35.650700 0.831800
35.705200 0.858500
35.759600 0.870000
35.814100 0.885700
35.868600 0.917800
35.923000 0.961900
35.977500 0.972700
36.032000 1.005500
36.086400 0.995400
36.140900 1.008500
36.195400 1.022600
36.249800 1.048300
36.304300 1.049800
36.358800 1.065800
36.413200 1.040500
36.467700 1.035100
36.522200 1.008200
36.576600 0.995900
36.631100 1.011500
36.685600 1.031200
36.740000 1.001000
36.794500 1.016600
36.849000 1.052700
36.903400 1.134800
36.957900 1.225000
37.012400 1.322900
37.066800 1.246200
37.121300 1.246200
37.175800 1.193600
37.230200 1.170500
37.284700 1.119000
37.339200 1.077700
37.393600 1.039200
37.448100 1.018000
37.502600 1.011400
37.557000 1.017700
37.611500 1.023800
37.665900 1.025100
37.720400 1.039000
37.774900 1.060600
37.829300 1.080100
37.883800 1.057900
37.938300 1.072800
37.992700 1.088200
38.047200 1.112600
38.101700 1.107500
38.156100 1.109500
38.210600 1.121800
38.265100 1.125700
38.319500 1.130100
38.374000 1.157000
38.428500 1.201300
38.482900 1.223200
38.537400 1.251100
38.591900 1.285500
38.646300 1.319900
38.700800 1.300800
38.755300 1.282400
38.809700 1.252700
38.864200 1.244800
38.918700 1.235200
38.973100 1.268800
39.027600 1.228800
39.082100 1.122900
39.136500 1.110100
39.191000 1.064100
39.245500 1.050300
39.299900 1.024400
39.354400 1.037800
39.408900 1.031200
39.463300 1.068700
39.517800 1.129400
39.572300 1.174100
39.626700 1.168900
39.681200 1.132200
39.735600 1.106300
39.790100 1.080800
39.844600 1.064900
39.899000 1.066900
39.953500 1.099300
40.008000 1.099400
40.062400 1.068100
40.116900 0.949600
40.171400 0.895600
40.225800 0.873000
40.280300 0.849000
40.334800 0.830100
40.389200 0.884900
40.443700 0.889200
40.498200 0.904700
40.552600 0.932100
40.607100 0.964200
40.661600 1.025200
40.716000 1.083100
40.770500 1.128200
40.825000 1.242700
40.879400 1.332600
40.933900 1.363800
40.988400 1.276300
41.042800 1.230500
41.097300 1.175000
41.151800 1.195600
41.206200 1.161300
41.260700 1.127600
41.315200 1.081200
41.369600 0.996500
41.424100 0.937500
41.478600 0.916100
41.533000 0.980200
41.587500 0.957900
41.642000 0.956700
41.696400 0.952700
41.750900 1.061000
41.805400 1.009900
41.859800 1.009800
41.914300 1.097500
41.968700 1.315500
42.023200 1.191400
42.077700 1.155000
42.132100 1.138000
42.186600 1.130100
42.241100 1.064500
42.295500 1.067200
42.350000 1.089800
42.404500 1.088800
42.458900 1.182400
42.513400 1.161800
42.567900 1.162100
42.622300 1.190200
42.676800 1.164900
42.731300 1.183900
42.785700 1.203900
42.840200 1.212300
42.894700 1.230700
42.949100 1.172300
43.003600 1.093800
43.058100 1.043400
43.112500 1.007900
43.167000 0.991200
43.221500 0.971700
43.275900 0.987000
43.330400 0.977000
43.384900 0.957800
43.439300 0.938500
43.493800 0.956500
43.548300 0.991200
43.602700 1.079300
43.657200 1.146900
43.711700 1.267600
43.766100 1.249900
43.820600 1.115100
43.875100 1.051200
43.929500 1.034800
43.984000 1.049900
44.038500 0.956300
44.092900 0.927300
44.147400 0.934200
44.201800 0.955600
44.256300 0.929500
44.310800 0.965600
44.365200 1.017500
44.419700 1.034600
44.474200 1.086600
44.528600 1.050300
44.583100 1.008900
44.637600 0.974700
44.692000 0.963000
44.746500 0.958300
44.801000 0.977500
44.855400 1.004500
44.909900 1.030000
44.964400 1.040500
45.018800 1.004800
45.073300 0.990700
45.127800 0.972700
45.182200 1.008800
45.236700 0.954000
45.291200 0.908700
45.345600 0.930000
45.400100 0.955500
45.454600 1.003600
45.509000 1.030200
45.563500 1.092900
45.618000 1.099000
45.672400 1.110400
45.726900 1.137700
45.781400 1.144400
45.835800 1.147500
45.890300 1.194000
45.944800 1.095500
45.999200 1.045600
46.053700 1.032400
46.108200 1.010500
46.162600 1.016000
46.217100 1.066800
46.271600 1.100200
46.326000 1.168900
46.380500 1.239400
46.434900 1.262800
46.489400 1.279000
46.543900 1.300800
46.598300 1.311800
46.652800 1.331700
46.707300 1.336100
46.761700 1.332900
46.816200 1.238400
46.870700 1.186200
46.925100 1.248000
46.979600 1.059500
47.034100 1.005600
47.088500 1.004300
47.143000 1.029900
47.197500 1.044300
47.251900 1.077800
47.306400 1.187100
47.360900 1.242400
47.415300 1.218900
47.469800 1.230400
47.524300 1.265300
47.578700 1.236700
47.633200 1.285400
47.687700 1.183500
47.742100 1.142500
47.796600 1.103500
47.851100 1.068800
47.905500 1.072700
47.960000 1.077200
48.014500 1.097700
48.068900 1.153100
48.123400 1.180400
48.177900 1.190700
48.232300 1.193200
48.286800 1.179100
48.341300 1.193000
48.395700 1.181900
48.450200 1.177900
48.504600 1.217400
48.559100 1.341200
48.613600 1.318400
48.668000 1.257400
48.722500 1.215200
48.777000 1.176100
48.831400 1.069700
48.885900 1.067200
48.940400 1.051600
48.994800 1.043800
49.049300 1.009600
49.103800 0.994600
49.158200 0.975800
49.212700 0.961800
49.267200 0.963100
49.321600 0.960100
49.376100 1.001400
49.430600 1.026400
49.485000 1.027600
49.539500 1.025800
49.594000 1.010200
49.648400 1.040300
49.702900 1.069200
49.757400 1.119400
49.811800 1.184000
49.866300 1.198100
49.920800 1.113000
49.975200 1.066900
50.029700 1.010700
50.084200 0.976400
50.138600 0.928800
50.193100 0.842800
50.247600 0.759100
50.302000 0.720600
50.356500 0.700200
50.411000 0.689100
50.465400 0.695900
50.519900 0.715100
50.574400 0.723200
50.628800 0.677400
50.683300 0.642800
50.737700 0.638100
50.792200 0.643900
50.846700 0.653200
50.901100 0.702700
50.955600 0.644800
51.010100 0.536100
51.064500 0.434000
51.119000 0.335000
51.173500 0.260300
51.227900 0.193700
51.282400 0.147500
51.336900 0.114200
51.391300 0.089300
51.445800 0.070300
51.500300 0.053500
51.554700 0.036000
51.609200 0.018500
51.663700 0.002200
51.718100 0.000000
51.772600 0.000000
51.827100 0.000000
51.881500 0.000000
51.936000 0.000000
51.990500 0.000000
52.044900 0.000000
52.099400 0.000000
52.153900 0.000000
52.208300 0.000000
52.262800 0.000000
52.317300 0.000000
52.371700 0.000000
52.426200 0.000000
52.480700 0.000000
52.535100 0.000000
52.589600 0.000000
52.644100 0.000000
52.698500 0.000000
52.753000 0.000000
52.807500 0.000000
52.861900 0.000000
52.916400 0.000000
52.970800 0.000000
53.025300 0.000000
53.079800 0.000000
53.134200 0.000000
53.188700 0.000000
53.243200 0.000000
53.297600 0.000000
53.352100 0.000000
53.406600 0.000000
53.461000 0.000000
53.515500 0.000000
53.570000 0.000000
53.624400 0.000000
53.678900 0.000000
53.733400 0.000000
53.787800 0.000000
53.842300 0.000000
53.896800 0.000000
53.951200 0.000000
54.005700 0.000000
54.060200 0.000000
54.114600 0.000000
54.169100 0.000000
54.223600 0.000000
54.278000 0.000000
54.332500 0.000000
54.387000 0.000000
54.441400 0.000000
54.495900 0.000000
54.550400 0.000000
54.604800 0.000000
54.659300 0.000000
54.713800 0.000000
54.768200 0.000000
54.822700 0.000000
54.877200 0.000000
54.931600 0.000000
54.986100 0.000000
55.040600 0.000000
55.095000 0.000000
55.149500 0.000000
55.203900 0.000000
55.258400 0.000000
55.312900 0.000000
55.367300 0.000000
55.421800 0.000000
55.476300 0.000000
55.530700 0.000000
55.585200 0.000000
55.639700 0.000000
55.694100 0.000000
55.748600 0.000000
55.803100 0.000000
55.857500 0.000000
55.912000 0.000000
55.966500 0.000000
56.020900 0.000000
56.075400 0.000000
56.129900 0.000000
56.184300 0.000000
56.238800 0.000000
56.293300 0.000000
56.347700 0.000000
56.402200 0.000000
56.456700 0.000000
56.511100 0.000000
56.565600 0.000000
56.620100 0.000000
56.674500 0.000000
56.729000 0.000000
56.783500 0.000000
56.837900 0.000000
56.892400 0.000000
56.946900 0.000000
e
