set title 'mp-571558 - Density of States'
set xlabel 'Energy (eV)'
set ylabel 'DOS (states/eV)'
set grid
set xrange [-10:10]
set yrange [0:131.563]
set xzeroaxis lt -1
set terminal png size 800,600
set output 'mp-571558_dos_gnuplot.png'
plot '-' using 1:2 with lines title 'DOS'
-16.102300 0.000000
-16.085700 0.000000
-16.069100 0.000000
-16.052600 0.000000
-16.036000 0.000000
-16.019400 0.000000
-16.002800 0.000000
-15.986300 0.000000
-15.969700 0.000000
-15.953100 0.000000
-15.936500 0.000000
-15.919900 0.000000
-15.903400 0.000000
-15.886800 0.000000
-15.870200 0.000000
-15.853600 0.000000
-15.837100 0.000000
-15.820500 0.000000
-15.803900 0.000000
-15.787300 0.000000
-15.770700 0.000000
-15.754200 0.000000
-15.737600 0.000000
-15.721000 0.000000
-15.704400 0.000000
-15.687900 0.000000
-15.671300 0.000000
-15.654700 0.000000
-15.638100 0.000000
-15.621500 0.000000
-15.605000 0.000000
-15.588400 0.000000
-15.571800 0.000000
-15.555200 0.000000
-15.538700 0.000000
-15.522100 0.000000
-15.505500 0.000000
-15.488900 0.000000
-15.472300 0.000000
-15.455800 0.000000
-15.439200 0.000000
-15.422600 0.000000
-15.406000 0.000000
-15.389500 0.000000
-15.372900 0.000000
-15.356300 0.000000
-15.339700 0.000000
-15.323100 0.000000
-15.306600 0.000000
-15.290000 0.000000
-15.273400 0.000000
-15.256800 0.000000
-15.240300 0.000000
-15.223700 0.000000
-15.207100 0.000000
-15.190500 0.000000
-15.173900 0.000000
-15.157400 0.000000
-15.140800 0.000000
-15.124200 0.000000
-15.107600 0.000000
-15.091100 0.000000
-15.074500 0.000000
-15.057900 0.000000
-15.041300 0.000000
-15.024700 0.000000
-15.008200 0.000000
-14.991600 0.000000
-14.975000 0.000000
-14.958400 0.000000
-14.941900 0.000000
-14.925300 0.000000
-14.908700 0.000000
-14.892100 0.000000
-14.875500 0.000000
-14.859000 0.000000
-14.842400 0.000000
-14.825800 0.000000
-14.809200 0.000000
-14.792700 0.000000
-14.776100 0.000000
-14.759500 0.000000
-14.742900 0.000000
-14.726300 0.000000
-14.709800 0.000000
-14.693200 0.000000
-14.676600 0.000000
-14.660000 0.000000
-14.643500 0.000000
-14.626900 0.000000
-14.610300 0.000000
-14.593700 0.004100
-14.577100 0.583800
-14.560600 2.127400
-14.544000 4.575400
-14.527400 7.419300
-14.510800 8.136200
-14.494300 8.141600
-14.477700 7.609200
-14.461100 8.069000
-14.444500 8.529400
-14.427900 8.990300
-14.411400 14.674800
-14.394800 18.307600
-14.378200 17.683500
-14.361600 6.494400
-14.345100 2.147200
-14.328500 3.620300
-14.311900 6.901100
-14.295300 10.203500
-14.278700 13.527200
-14.262200 24.620200
-14.245600 30.802100
-14.229000 30.015400
-14.212400 37.153100
-14.195900 38.018100
-14.179300 23.844200
-14.162700 139.177800
-14.146100 205.839900
-14.129500 0.000000
-14.113000 0.000000
-14.096400 0.000000
-14.079800 0.000000
-14.063200 0.000000
-14.046700 0.000000
-14.030100 0.000000
-14.013500 0.000000
-13.996900 0.000000
-13.980300 0.000000
-13.963800 0.000000
-13.947200 0.000000
-13.930600 0.000000
-13.914000 0.000000
-13.897500 0.000000
-13.880900 0.000000
-13.864300 0.000000
-13.847700 0.000000
-13.831100 0.000000
-13.814600 0.000000
-13.798000 0.000000
-13.781400 0.000000
-13.764800 0.000000
-13.748300 0.000000
-13.731700 0.000000
-13.715100 0.000000
-13.698500 0.000000
-13.682000 0.000000
-13.665400 0.000000
-13.648800 0.000000
-13.632200 0.000000
-13.615600 0.000000
-13.599100 0.000000
-13.582500 0.000000
-13.565900 0.000000
-13.549300 0.000000
-13.532800 0.000000
-13.516200 0.000000
-13.499600 0.000000
-13.483000 0.000000
-13.466400 0.000000
-13.449900 0.000000
-13.433300 0.000000
-13.416700 0.000000
-13.400100 0.000000
-13.383600 0.000000
-13.367000 0.000000
-13.350400 0.000000
-13.333800 0.000000
-13.317200 0.000000
-13.300700 0.000000
-13.284100 0.000000
-13.267500 0.000000
-13.250900 0.000000
-13.234400 0.000000
-13.217800 0.000000
-13.201200 0.000000
-13.184600 0.000000
-13.168000 0.000000
-13.151500 0.000000
-13.134900 0.000000
-13.118300 0.000000
-13.101700 0.000000
-13.085200 0.000000
-13.068600 0.000000
-13.052000 0.000000
-13.035400 0.000000
-13.018800 0.000000
-13.002300 0.000000
-12.985700 0.000000
-12.969100 0.000000
-12.952500 0.000000
-12.936000 0.000000
-12.919400 0.000000
-12.902800 0.000000
-12.886200 0.000000
-12.869600 0.000000
-12.853100 0.000000
-12.836500 0.000000
-12.819900 0.000000
-12.803300 0.000000
-12.786800 0.000000
-12.770200 0.000000
-12.753600 0.000000
-12.737000 0.000000
-12.720400 0.000000
-12.703900 0.000000
-12.687300 0.000000
-12.670700 0.000000
-12.654100 0.000000
-12.637600 0.000000
-12.621000 0.000000
-12.604400 0.000000
-12.587800 0.000000
-12.571200 0.000000
-12.554700 0.000000
-12.538100 0.000000
-12.521500 0.000000
-12.504900 0.000000
-12.488400 0.000000
-12.471800 0.000000
-12.455200 0.000000
-12.438600 0.000000
-12.422000 0.000000
-12.405500 0.000000
-12.388900 0.000000
-12.372300 0.000000
-12.355700 0.000000
-12.339200 0.000000
-12.322600 0.000000
-12.306000 0.000000
-12.289400 0.000000
-12.272800 0.000000
-12.256300 0.000000
-12.239700 0.000000
-12.223100 0.000000
-12.206500 0.000000
-12.190000 0.000000
-12.173400 0.000000
-12.156800 0.000000
-12.140200 0.000000
-12.123600 0.000000
-12.107100 0.000000
-12.090500 0.000000
-12.073900 0.000000
-12.057300 0.000000
-12.040800 0.000000
-12.024200 0.000000
-12.007600 0.000000
-11.991000 0.000000
-11.974400 0.000000
-11.957900 0.000000
-11.941300 0.000000
-11.924700 0.000000
-11.908100 0.000000
-11.891600 0.000000
-11.875000 0.000000
-11.858400 0.000000
-11.841800 0.000000
-11.825200 0.000000
-11.808700 0.000000
-11.792100 0.000000
-11.775500 0.000000
-11.758900 0.000000
-11.742400 0.000000
-11.725800 0.000000
-11.709200 0.000000
-11.692600 0.000000
-11.676000 0.000000
-11.659500 0.000000
-11.642900 0.000000
-11.626300 0.000000
-11.609700 0.000000
-11.593200 0.000000
-11.576600 0.000000
-11.560000 0.000000
-11.543400 0.000000
-11.526800 0.000000
-11.510300 0.000000
-11.493700 0.000000
-11.477100 0.000000
-11.460500 0.000000
-11.444000 0.000000
-11.427400 0.000000
-11.410800 0.000000
-11.394200 0.000000
-11.377600 0.000000
-11.361100 0.000000
-11.344500 0.000000
-11.327900 0.000000
-11.311300 0.000000
-11.294800 0.000000
-11.278200 0.000000
-11.261600 0.000000
-11.245000 0.000000
-11.228400 0.000000
-11.211900 0.000000
-11.195300 0.000000
-11.178700 0.000000
-11.162100 0.000000
-11.145600 0.000000
-11.129000 0.000000
-11.112400 0.000000
-11.095800 0.000000
-11.079200 0.000000
-11.062700 0.000000
-11.046100 0.000000
-11.029500 0.000000
-11.012900 0.000000
-10.996400 0.000000
-10.979800 0.000000
-10.963200 0.000000
-10.946600 0.000000
-10.930000 0.000000
-10.913500 0.000000
-10.896900 0.000000
-10.880300 0.000000
-10.863700 0.000000
-10.847200 0.000000
-10.830600 0.000000
-10.814000 0.000000
-10.797400 0.000000
-10.780800 0.000000
-10.764300 0.000000
-10.747700 0.000000
-10.731100 0.000000
-10.714500 0.000000
-10.698000 0.000000
-10.681400 0.000000
-10.664800 0.000000
-10.648200 0.000000
-10.631600 0.000000
-10.615100 0.000000
-10.598500 0.000000
-10.581900 0.000000
-10.565300 0.000000
-10.548800 0.000000
-10.532200 0.000000
-10.515600 0.000000
-10.499000 0.000000
-10.482400 0.000000
-10.465900 0.000000
-10.449300 0.000000
-10.432700 0.000000
-10.416100 0.000000
-10.399600 0.000000
-10.383000 0.000000
-10.366400 0.000000
-10.349800 0.000000
-10.333200 0.000000
-10.316700 0.000000
-10.300100 0.000000
-10.283500 0.000000
-10.266900 0.000000
-10.250400 0.000000
-10.233800 0.000000
-10.217200 0.000000
-10.200600 0.000000
-10.184000 0.000000
-10.167500 0.000000
-10.150900 0.000000
-10.134300 0.000000
-10.117700 0.000000
-10.101200 0.000000
-10.084600 0.000000
-10.068000 0.000000
-10.051400 0.000000
-10.034800 0.000000
-10.018300 0.000000
-10.001700 0.000000
-9.985100 0.000000
-9.968500 0.000000
-9.952000 0.000000
-9.935400 0.000000
-9.918800 0.000000
-9.902200 0.000000
-9.885600 0.000000
-9.869100 0.000000
-9.852500 0.000000
-9.835900 0.000000
-9.819300 0.000000
-9.802800 0.000000
-9.786200 0.000000
-9.769600 0.000000
-9.753000 0.000000
-9.736400 0.000000
-9.719900 0.000000
-9.703300 0.000000
-9.686700 0.000000
-9.670100 0.000000
-9.653600 0.000000
-9.637000 0.000000
-9.620400 0.000000
-9.603800 0.000000
-9.587200 0.000000
-9.570700 0.000000
-9.554100 0.000000
-9.537500 0.000000
-9.520900 0.000000
-9.504400 0.000000
-9.487800 0.000000
-9.471200 0.000000
-9.454600 0.000000
-9.438000 0.000000
-9.421500 0.000000
-9.404900 0.000000
-9.388300 0.000000
-9.371700 0.000000
-9.355200 0.000000
-9.338600 0.000000
-9.322000 0.000000
-9.305400 0.000000
-9.288800 0.000000
-9.272300 0.000000
-9.255700 0.000000
-9.239100 0.000000
-9.222500 0.000000
-9.206000 0.000000
-9.189400 0.000000
-9.172800 0.000000
-9.156200 0.000000
-9.139600 0.000000
-9.123100 0.000000
-9.106500 0.000000
-9.089900 0.000000
-9.073300 0.000000
-9.056800 0.000000
-9.040200 0.000000
-9.023600 0.000000
-9.007000 0.000000
-8.990500 0.000000
-8.973900 0.000000
-8.957300 0.000000
-8.940700 0.000000
-8.924100 0.000000
-8.907600 0.000000
-8.891000 0.000000
-8.874400 0.000000
-8.857800 0.000000
-8.841300 0.000000
-8.824700 0.000000
-8.808100 0.000000
-8.791500 0.000000
-8.774900 0.000000
-8.758400 0.000000
-8.741800 0.000000
-8.725200 0.000000
-8.708600 0.000000
-8.692100 0.000000
-8.675500 0.000000
-8.658900 0.000000
-8.642300 0.000000
-8.625700 0.000000
-8.609200 0.000000
-8.592600 0.000000
-8.576000 0.000000
-8.559400 0.000000
-8.542900 0.000000
-8.526300 0.000000
-8.509700 0.000000
-8.493100 0.000000
-8.476500 0.000000
-8.460000 0.000000
-8.443400 0.000000
-8.426800 0.000000
-8.410200 0.000000
-8.393700 0.000000
-8.377100 0.000000
-8.360500 0.000000
-8.343900 0.000000
-8.327300 0.000000
-8.310800 0.000000
-8.294200 0.000000
-8.277600 0.000000
-8.261000 0.000000
-8.244500 0.000000
-8.227900 0.000000
-8.211300 0.000000
-8.194700 0.000000
-8.178100 0.000000
-8.161600 0.000000
-8.145000 0.000000
-8.128400 0.000000
-8.111800 0.000000
-8.095300 0.000000
-8.078700 0.000000
-8.062100 0.000000
-8.045500 0.000000
-8.028900 0.000000
-8.012400 0.000000
-7.995800 0.000000
-7.979200 0.000000
-7.962600 0.000000
-7.946100 0.000000
-7.929500 0.000000
-7.912900 0.000000
-7.896300 0.000000
-7.879700 0.000000
-7.863200 0.000000
-7.846600 0.000000
-7.830000 0.000000
-7.813400 0.000000
-7.796900 0.000000
-7.780300 0.000000
-7.763700 0.000000
-7.747100 0.000000
-7.730500 0.000000
-7.714000 0.000000
-7.697400 0.000000
-7.680800 0.000000
-7.664200 0.000000
-7.647700 0.000000
-7.631100 0.000000
-7.614500 0.000000
-7.597900 0.000000
-7.581300 0.000000
-7.564800 0.000000
-7.548200 0.000000
-7.531600 0.000000
-7.515000 0.000000
-7.498500 0.000000
-7.481900 0.000000
-7.465300 0.000000
-7.448700 0.000000
-7.432100 0.000000
-7.415600 0.000000
-7.399000 0.000000
-7.382400 0.000000
-7.365800 0.000000
-7.349300 0.000000
-7.332700 0.000000
-7.316100 0.000000
-7.299500 0.000000
-7.282900 0.000000
-7.266400 0.000000
-7.249800 0.000000
-7.233200 0.000000
-7.216600 0.000000
-7.200100 0.000000
-7.183500 0.000000
-7.166900 0.000000
-7.150300 0.000000
-7.133700 0.000000
-7.117200 0.000000
-7.100600 0.000000
-7.084000 0.000000
-7.067400 0.000000
-7.050900 0.000000
-7.034300 0.000000
-7.017700 0.000000
-7.001100 0.000000
-6.984500 0.000000
-6.968000 0.000000
-6.951400 0.000000
-6.934800 0.000000
-6.918200 0.000000
-6.901700 0.000000
-6.885100 0.000000
-6.868500 0.000000
-6.851900 0.000000
-6.835300 0.000000
-6.818800 0.000000
-6.802200 0.000000
-6.785600 0.000000
-6.769000 0.000000
-6.752500 0.000000
-6.735900 0.000000
-6.719300 0.000000
-6.702700 0.000000
-6.686100 0.000000
-6.669600 0.000000
-6.653000 0.000000
-6.636400 0.000000
-6.619800 0.000000
-6.603300 0.000000
-6.586700 0.000000
-6.570100 0.000000
-6.553500 0.000000
-6.536900 0.000000
-6.520400 0.000000
-6.503800 0.000000
-6.487200 0.000000
-6.470600 0.000000
-6.454100 0.000000
-6.437500 2.345900
-6.420900 19.122000
-6.404300 34.011500
-6.387700 38.156900
-6.371200 47.376500
-6.354600 50.352200
-6.338000 71.209100
-6.321400 62.462200
-6.304900 92.247600
-6.288300 17.523200
-6.271700 16.343100
-6.255100 72.745300
-6.238500 43.818100
-6.222000 38.784000
-6.205400 35.683100
-6.188800 35.433400
-6.172200 2.149100
-6.155700 5.518600
-6.139100 8.906200
-6.122500 20.920400
-6.105900 82.488800
-6.089300 89.135500
-6.072800 119.354600
-6.056200 12.113300
-6.039600 8.361000
-6.023000 101.716700
-6.006500 40.641900
-5.989900 116.133700
-5.973300 52.774300
-5.956700 26.609800
-5.940100 111.585100
-5.923600 111.211300
-5.907000 58.041300
-5.890400 27.812500
-5.873800 119.602600
-5.857300 70.985300
-5.840700 21.088700
-5.824100 0.000000
-5.807500 0.000000
-5.790900 0.000000
-5.774400 0.000000
-5.757800 0.000000
-5.741200 0.000000
-5.724600 0.000000
-5.708100 0.000000
-5.691500 0.000000
-5.674900 0.000000
-5.658300 0.000000
-5.641700 0.000000
-5.625200 0.000000
-5.608600 0.000000
-5.592000 0.000000
-5.575400 0.000000
-5.558900 0.000000
-5.542300 0.000000
-5.525700 0.000000
-5.509100 0.000000
-5.492500 0.000000
-5.476000 0.000000
-5.459400 0.000000
-5.442800 0.000000
-5.426200 0.000000
-5.409700 0.000000
-5.393100 0.000000
-5.376500 0.000000
-5.359900 0.000000
-5.343300 0.000000
-5.326800 0.000000
-5.310200 0.000000
-5.293600 0.000000
-5.277000 0.000000
-5.260500 0.000000
-5.243900 0.000000
-5.227300 0.000000
-5.210700 0.000000
-5.194100 0.000000
-5.177600 0.000000
-5.161000 0.000000
-5.144400 0.000000
-5.127800 0.000000
-5.111300 0.000000
-5.094700 0.000000
-5.078100 0.000000
-5.061500 0.000000
-5.044900 0.000000
-5.028400 0.000000
-5.011800 0.000000
-4.995200 0.000000
-4.978600 0.000000
-4.962100 0.000000
-4.945500 0.000000
-4.928900 0.000000
-4.912300 0.000000
-4.895700 0.000000
-4.879200 0.000000
-4.862600 0.000000
-4.846000 0.000000
-4.829400 0.000000
-4.812900 0.000000
-4.796300 0.067100
-4.779700 0.527300
-4.763100 1.546200
-4.746500 3.522500
-4.730000 6.316700
-4.713400 10.093100
-4.696800 14.429900
-4.680200 18.741300
-4.663700 22.580800
-4.647100 23.841000
-4.630500 25.331900
-4.613900 32.995900
-4.597300 30.266900
-4.580800 14.762300
-4.564200 14.020200
-4.547600 9.269600
-4.531000 4.348700
-4.514500 0.000000
-4.497900 0.595900
-4.481300 7.245600
-4.464700 13.353700
-4.448100 12.908700
-4.431600 12.703100
-4.415000 6.479700
-4.398400 6.233900
-4.381800 5.992700
-4.365300 5.755800
-4.348700 5.523500
-4.332100 5.317100
-4.315500 5.655700
-4.298900 5.630700
-4.282400 5.242100
-4.265800 4.243400
-4.249200 3.723400
-4.232600 3.201500
-4.216100 2.656400
-4.199500 1.832600
-4.182900 1.264000
-4.166300 0.918800
-4.149800 0.643200
-4.133200 0.416600
-4.116600 0.239000
-4.100000 0.110400
-4.083400 0.030900
-4.066900 0.000400
-4.050300 0.000000
-4.033700 0.000000
-4.017100 0.000000
-4.000600 0.000000
-3.984000 0.000000
-3.967400 0.000000
-3.950800 0.000000
-3.934200 0.000000
-3.917700 0.000000
-3.901100 0.000000
-3.884500 0.000000
-3.867900 0.000000
-3.851400 0.000000
-3.834800 0.000000
-3.818200 0.000000
-3.801600 0.000000
-3.785000 0.000000
-3.768500 0.000000
-3.751900 0.000000
-3.735300 0.000000
-3.718700 0.000000
-3.702200 0.000000
-3.685600 0.000000
-3.669000 0.000000
-3.652400 0.000000
-3.635800 0.000000
-3.619300 0.000000
-3.602700 0.000000
-3.586100 0.012500
-3.569500 0.067700
-3.553000 0.166900
-3.536400 0.310000
-3.519800 0.497100
-3.503200 0.728100
-3.486600 1.009100
-3.470100 1.344500
-3.453500 1.734400
-3.436900 2.178800
-3.420300 2.677700
-3.403800 3.586700
-3.387200 4.620700
-3.370600 5.529500
-3.354000 6.313100
-3.337400 6.971600
-3.320900 7.522800
-3.304300 7.996800
-3.287700 8.106000
-3.271100 8.787600
-3.254600 9.188400
-3.238000 8.820600
-3.221400 7.602400
-3.204800 6.946000
-3.188200 6.470000
-3.171700 6.174800
-3.155100 6.060600
-3.138500 6.545200
-3.121900 7.218900
-3.105400 7.869700
-3.088800 10.155100
-3.072200 10.700300
-3.055600 8.567800
-3.039000 7.893800
-3.022500 7.341000
-3.005900 6.761500
-2.989300 6.159300
-2.972700 5.530400
-2.956200 5.012200
-2.939600 4.717700
-2.923000 4.555800
-2.906400 4.564800
-2.889800 4.747700
-2.873300 5.104700
-2.856700 5.635600
-2.840100 6.308000
-2.823500 6.898200
-2.807000 9.654000
-2.790400 7.809000
-2.773800 7.478500
-2.757200 7.805800
-2.740600 8.171100
-2.724100 8.577100
-2.707500 9.023600
-2.690900 9.334500
-2.674300 12.095800
-2.657800 14.576900
-2.641200 13.263800
-2.624600 11.630600
-2.608000 10.532200
-2.591400 10.578900
-2.574900 10.690600
-2.558300 10.836400
-2.541700 11.046000
-2.525100 12.047200
-2.508600 14.152800
-2.492000 17.000100
-2.475400 17.012400
-2.458800 17.061300
-2.442200 15.987500
-2.425700 15.813000
-2.409100 16.716700
-2.392500 19.109300
-2.375900 27.454600
-2.359400 26.018900
-2.342800 12.151300
-2.326200 11.291300
-2.309600 14.196900
-2.293000 16.046200
-2.276500 15.356900
-2.259900 14.405000
-2.243300 12.936300
-2.226700 11.557500
-2.210200 10.214600
-2.193600 9.261300
-2.177000 8.880100
-2.160400 8.598700
-2.143800 8.432300
-2.127300 8.616300
-2.110700 10.226900
-2.094100 7.718100
-2.077500 8.057400
-2.061000 7.839300
-2.044400 7.529400
-2.027800 6.522300
-2.011200 5.780400
-1.994600 5.326500
-1.978100 8.329300
-1.961500 9.807800
-1.944900 18.169300
-1.928300 15.977800
-1.911800 19.194200
-1.895200 18.320000
-1.878600 16.646200
-1.862000 15.261100
-1.845400 13.704500
-1.828900 12.087700
-1.812300 10.198400
-1.795700 8.470900
-1.779100 7.461700
-1.762600 6.921200
-1.746000 6.557800
-1.729400 6.175600
-1.712800 5.778000
-1.696200 5.364900
-1.679700 4.936300
-1.663100 4.492300
-1.646500 4.032900
-1.629900 3.557900
-1.613400 4.973400
-1.596800 3.663800
-1.580200 2.746000
-1.563600 1.804200
-1.547000 2.972600
-1.530500 3.598700
-1.513900 2.902700
-1.497300 3.733700
-1.480700 5.024800
-1.464200 10.487800
-1.447600 9.380300
-1.431000 9.834200
-1.414400 10.166500
-1.397800 10.821700
-1.381300 14.314200
-1.364700 17.435100
-1.348100 20.741200
-1.331500 24.649700
-1.315000 27.014100
-1.298400 24.230300
-1.281800 24.717600
-1.265200 25.266700
-1.248600 25.615400
-1.232100 27.031600
-1.215500 24.942200
-1.198900 20.248800
-1.182300 15.760400
-1.165800 14.100200
-1.149200 15.810400
-1.132600 24.751800
-1.116000 36.172300
-1.099400 50.793900
-1.082900 41.452500
-1.066300 32.119100
-1.049700 11.059200
-1.033100 14.243000
-1.016600 32.268300
-1.000000 36.142300
-0.983400 23.329700
-0.966800 5.572800
-0.950200 3.497500
-0.933700 1.680300
-0.917100 0.534200
-0.900500 0.029600
-0.883900 0.000000
-0.867400 0.000000
-0.850800 0.000000
-0.834200 0.000000
-0.817600 0.000000
-0.801000 0.000000
-0.784500 0.000000
-0.767900 0.000000
-0.751300 0.000000
-0.734700 0.000000
-0.718200 0.000000
-0.701600 0.000000
-0.685000 0.000000
-0.668400 0.000000
-0.651800 0.000000
-0.635300 0.000000
-0.618700 0.000000
-0.602100 0.000000
-0.585500 0.000000
-0.569000 0.000000
-0.552400 0.000000
-0.535800 0.000000
-0.519200 0.000000
-0.502600 0.000000
-0.486100 0.000000
-0.469500 0.000000
-0.452900 0.000000
-0.436300 0.000000
-0.419800 0.000000
-0.403200 0.000000
-0.386600 0.000000
-0.370000 0.000000
-0.353400 0.000000
-0.336900 0.000000
-0.320300 0.000000
-0.303700 0.000000
-0.287100 0.000000
-0.270600 0.000000
-0.254000 0.000000
-0.237400 0.000000
-0.220800 0.000000
-0.204200 0.000000
-0.187700 0.000000
-0.171100 0.000000
-0.154500 0.000000
-0.137900 0.000000
-0.121400 0.000000
-0.104800 0.000000
-0.088200 0.000000
-0.071600 0.000000
-0.055000 0.000000
-0.038500 0.000000
-0.021900 0.000000
-0.005300 0.000000
0.011300 0.000000
0.027800 0.000000
0.044400 0.000000
0.061000 0.000000
0.077600 0.000000
0.094200 0.000000
0.110700 0.000000
0.127300 0.000000
0.143900 0.000000
0.160500 0.000000
0.177000 0.000000
0.193600 0.000000
0.210200 0.000000
0.226800 0.000000
0.243400 0.000000
0.259900 0.000000
0.276500 0.000000
0.293100 0.000000
0.309700 0.000000
0.326200 0.000000
0.342800 0.000000
0.359400 0.000000
0.376000 0.000000
0.392600 0.000000
0.409100 0.000000
0.425700 0.000000
0.442300 0.000000
0.458900 0.000000
0.475400 0.000000
0.492000 0.000000
0.508600 0.000000
0.525200 0.000000
0.541700 0.000000
0.558300 0.000000
0.574900 0.000000
0.591500 0.000000
0.608100 0.000000
0.624600 0.000000
0.641200 0.000000
0.657800 0.000000
0.674400 0.000000
0.690900 0.000000
0.707500 0.000000
0.724100 0.000000
0.740700 0.000000
0.757300 0.000000
0.773800 0.000000
0.790400 0.000000
0.807000 0.000700
0.823600 0.002500
0.840100 0.005200
0.856700 0.009000
0.873300 0.013800
0.889900 0.019700
0.906500 0.026600
0.923000 0.034500
0.939600 0.043400
0.956200 0.053300
0.972800 0.064300
0.989300 0.076300
1.005900 0.089400
1.022500 0.103400
1.039100 0.118500
1.055700 0.134600
1.072200 0.151800
1.088800 0.169900
1.105400 0.189100
1.122000 0.209300
1.138500 0.230600
1.155100 0.252900
1.171700 0.276200
1.188300 0.300700
1.204900 0.329500
1.221400 0.363700
1.238000 0.403400
1.254600 0.448500
1.271200 0.499000
1.287700 0.555000
1.304300 0.616500
1.320900 0.683400
1.337500 0.755700
1.354100 0.846600
1.370600 0.993800
1.387200 1.176900
1.403800 1.395900
1.420400 1.728900
1.436900 2.259100
1.453500 2.986500
1.470100 3.907900
1.486700 4.947500
1.503300 6.072400
1.519800 7.282700
1.536400 8.578500
1.553000 10.379000
1.569600 10.755500
1.586100 9.565200
1.602700 9.141300
1.619300 9.096700
1.635900 8.605200
1.652500 9.374800
1.669000 10.080900
1.685600 11.051700
1.702200 12.287300
1.718800 15.121700
1.735300 23.063100
1.751900 23.478700
1.768500 20.214200
1.785100 19.084300
1.801700 18.476100
1.818200 19.690000
1.834800 22.347100
1.851400 22.737000
1.868000 9.377800
1.884500 6.454600
1.901100 3.463300
1.917700 2.017300
1.934300 1.399800
1.950900 0.895000
1.967400 0.502800
1.984000 0.223300
2.000600 0.056400
2.017200 0.000200
2.033700 0.000000
2.050300 0.000000
2.066900 0.000000
2.083500 0.000000
2.100100 0.000000
2.116600 0.000000
2.133200 0.000000
2.149800 0.000000
2.166400 0.000000
2.182900 0.000000
2.199500 0.000000
2.216100 0.000000
2.232700 0.000000
2.249300 0.000000
2.265800 0.000000
2.282400 0.000000
2.299000 0.000000
2.315600 0.000000
2.332100 0.000000
2.348700 0.000000
2.365300 0.000000
2.381900 0.000000
2.398500 0.000000
2.415000 0.000000
2.431600 0.000000
2.448200 0.000000
2.464800 0.000000
2.481300 0.000000
2.497900 0.000000
2.514500 0.000000
2.531100 0.000000
2.547700 0.000000
2.564200 0.000000
2.580800 0.000000
2.597400 0.000000
2.614000 0.000000
2.630500 0.000000
2.647100 0.000000
2.663700 0.000000
2.680300 0.000000
2.696900 0.000000
2.713400 0.000000
2.730000 0.000000
2.746600 0.000000
2.763200 0.000000
2.779700 0.000000
2.796300 0.000000
2.812900 0.000000
2.829500 0.000000
2.846100 0.000000
2.862600 0.000000
2.879200 0.000000
2.895800 0.000000
2.912400 0.000000
2.928900 0.000000
2.945500 0.000000
2.962100 0.000000
2.978700 0.000000
2.995300 0.000000
3.011800 0.000000
3.028400 0.000000
3.045000 0.000000
3.061600 0.000000
3.078100 0.000000
3.094700 0.000000
3.111300 0.000000
3.127900 0.000000
3.144500 0.000000
3.161000 0.000000
3.177600 0.000000
3.194200 0.000000
3.210800 0.000000
3.227300 0.000000
3.243900 0.000000
3.260500 0.000000
3.277100 0.000000
3.293700 0.000000
3.310200 0.000000
3.326800 0.000000
3.343400 0.000000
3.360000 0.000000
3.376500 0.000000
3.393100 0.000000
3.409700 0.000000
3.426300 0.000000
3.442900 0.000000
3.459400 0.000000
3.476000 0.000000
3.492600 0.000000
3.509200 0.000000
3.525700 0.000000
3.542300 0.000000
3.558900 0.000000
3.575500 0.000000
3.592100 0.000000
3.608600 0.000000
3.625200 0.000000
3.641800 0.000000
3.658400 0.000000
3.674900 0.000000
3.691500 0.000000
3.708100 0.000000
3.724700 0.000000
3.741300 0.000000
3.757800 0.000000
3.774400 0.000000
3.791000 0.000000
3.807600 0.000000
3.824100 0.000000
3.840700 0.000000
3.857300 0.000000
3.873900 0.000000
3.890500 0.000000
3.907000 0.000000
3.923600 0.000000
3.940200 0.000000
3.956800 0.000000
3.973300 0.000000
3.989900 0.000000
4.006500 0.000000
4.023100 0.000000
4.039700 0.000000
4.056200 0.000000
4.072800 0.000000
4.089400 0.000000
4.106000 0.000000
4.122500 0.000000
4.139100 0.000300
4.155700 0.002900
4.172300 0.008300
4.188900 0.016500
4.205400 0.027500
4.222000 0.041300
4.238600 0.058100
4.255200 0.078800
4.271700 0.103500
4.288300 0.132100
4.304900 0.164100
4.321500 0.196500
4.338100 0.229000
4.354600 0.261400
4.371200 0.293800
4.387800 0.326200
4.404400 0.358600
4.420900 0.391000
4.437500 0.423300
4.454100 0.455700
4.470700 0.488100
4.487300 0.520500
4.503800 0.552800
4.520400 0.585200
4.537000 0.617500
4.553600 0.649900
4.570100 0.682200
4.586700 0.714600
4.603300 0.746900
4.619900 0.779300
4.636500 0.811600
4.653000 0.843900
4.669600 0.876200
4.686200 0.908500
4.702800 0.940900
4.719300 0.973200
4.735900 1.005500
4.752500 1.038000
4.769100 1.370500
4.785700 1.756800
4.802200 2.196600
4.818800 3.027700
4.835400 3.936700
4.852000 4.758500
4.868500 5.453900
4.885100 6.072300
4.901700 6.613700
4.918300 7.078100
4.934900 7.465500
4.951400 7.198900
4.968000 7.471000
4.984600 8.984900
5.001200 4.442800
5.017700 4.296300
5.034300 4.165900
5.050900 4.051800
5.067500 3.953900
5.084100 3.872300
5.100600 3.806800
5.117200 3.757600
5.133800 3.811500
5.150400 3.835900
5.166900 3.843200
5.183500 3.857200
5.200100 3.951100
5.216700 4.063200
5.233300 4.208800
5.249800 4.375800
5.266400 4.564100
5.283000 4.773800
5.299600 5.004800
5.316100 5.257200
5.332700 5.351400
5.349300 5.727800
5.365900 6.118600
5.382400 6.523800
5.399000 6.945100
5.415600 7.218300
5.432200 7.576000
5.448800 7.767900
5.465300 7.861600
5.481900 7.822400
5.498500 7.652200
5.515100 7.351000
5.531600 6.918800
5.548200 6.369000
5.564800 5.789300
5.581400 5.205900
5.598000 4.698500
5.614500 4.275400
5.631100 3.936800
5.647700 3.682000
5.664300 3.462900
5.680800 3.256900
5.697400 3.068500
5.714000 2.919900
5.730600 2.797500
5.747200 2.675000
5.763700 2.552400
5.780300 2.429800
5.796900 2.307000
5.813500 2.181300
5.830000 2.059100
5.846600 1.949100
5.863200 1.851100
5.879800 1.765200
5.896400 2.772300
5.912900 3.201300
5.929500 2.453900
5.946100 1.931000
5.962700 1.632700
5.979200 1.508300
5.995800 1.399800
6.012400 1.296100
6.029000 1.198900
6.045600 3.031800
6.062100 9.570000
6.078700 10.842200
6.095300 10.366400
6.111900 9.699000
6.128400 9.186700
6.145000 8.666100
6.161600 8.137300
6.178200 7.863700
6.194800 7.232700
6.211300 6.667200
6.227900 6.163800
6.244500 5.717500
6.261100 5.328200
6.277600 4.996000
6.294200 4.720700
6.310800 4.422500
6.327400 4.319000
6.344000 4.247500
6.360500 4.214900
6.377100 4.514500
6.393700 4.530400
6.410300 4.518800
6.426800 4.479800
6.443400 4.413300
6.460000 4.319400
6.476600 4.198100
6.493200 4.049300
6.509700 3.942100
6.526300 3.887100
6.542900 3.832500
6.559500 3.778100
6.576000 3.487000
6.592600 3.670300
6.609200 3.896600
6.625800 4.118900
6.642400 4.337200
6.658900 4.551500
6.675500 4.761700
6.692100 4.967600
6.708700 5.168500
6.725200 5.364500
6.741800 5.555600
6.758400 5.741700
6.775000 5.302600
6.791600 5.410400
6.808100 5.497900
6.824700 6.623200
6.841300 7.071100
6.857900 7.649800
6.874400 8.381900
6.891000 13.468500
6.907600 21.175700
6.924200 16.631800
6.940800 16.068200
6.957300 12.158800
6.973900 10.325500
6.990500 8.576200
7.007100 6.895700
7.023600 7.069800
7.040200 8.999900
7.056800 10.849500
7.073400 12.725600
7.090000 13.547400
7.106500 15.225800
7.123100 15.574800
7.139700 15.035200
7.156300 14.418900
7.172800 14.943300
7.189400 16.889200
7.206000 24.833800
7.222600 29.244300
7.239200 20.181200
7.255700 14.776000
7.272300 10.105700
7.288900 12.588300
7.305500 14.411700
7.322000 14.802200
7.338600 9.816300
7.355200 9.415700
7.371800 8.722600
7.388400 8.582700
7.404900 7.457400
7.421500 5.724400
7.438100 2.522500
7.454700 1.513000
7.471200 1.106000
7.487800 0.762600
7.504400 0.482800
7.521000 0.290300
7.537600 0.296300
7.554100 0.565900
7.570700 1.108100
7.587300 1.885100
7.603900 5.197700
7.620400 7.899000
7.637000 10.540800
7.653600 14.604500
7.670200 14.323400
7.686800 13.211100
7.703300 12.878700
7.719900 11.420800
7.736500 9.981500
7.753100 8.974100
7.769600 7.974800
7.786200 6.984200
7.802800 6.002300
7.819400 5.029200
7.836000 4.779900
7.852500 5.214000
7.869100 5.961700
7.885700 6.783500
7.902300 7.254500
7.918800 7.230900
7.935400 7.561400
7.952000 7.420800
7.968600 7.352200
7.985200 8.329900
8.001700 9.570000
8.018300 11.141900
8.034900 12.756500
8.051500 14.321300
8.068000 15.954300
8.084600 17.009400
8.101200 13.851300
8.117800 7.817200
8.134400 5.039900
8.150900 4.717200
8.167500 4.435700
8.184100 4.228800
8.200700 4.096700
8.217200 4.039300
8.233800 4.070200
8.250400 4.229800
8.267000 4.525700
8.283600 4.958200
8.300100 5.524100
8.316700 8.687600
8.333300 10.042200
8.349900 10.184100
8.366400 11.991000
8.383000 10.411400
8.399600 9.913700
8.416200 9.971500
8.432800 10.421000
8.449300 11.053600
8.465900 12.256100
8.482500 12.450500
8.499100 12.417200
8.515600 12.189100
8.532200 11.703400
8.548800 10.512900
8.565400 9.635400
8.582000 11.264800
8.598500 12.592700
8.615100 12.800500
8.631700 13.085100
8.648300 12.559000
8.664800 10.941700
8.681400 10.119700
8.698000 9.382700
8.714600 8.685900
8.731200 8.056600
8.747700 7.486100
8.764300 6.945600
8.780900 6.435600
8.797500 5.804500
8.814000 5.311800
8.830600 4.957600
8.847200 4.708500
8.863800 4.511000
8.880400 4.458500
8.896900 4.565700
8.913500 4.832400
8.930100 5.258700
8.946700 5.844600
8.963200 6.590000
8.979800 7.492000
8.996400 1.397000
9.013000 1.936100
9.029600 2.774300
9.046100 4.653000
9.062700 6.681600
9.079300 9.668300
9.095900 13.577800
9.112400 17.984600
9.129000 13.203200
9.145600 12.733300
9.162200 13.150400
9.178800 14.658400
9.195300 15.566800
9.211900 15.934800
9.228500 16.157900
9.245100 15.753200
9.261600 15.267600
9.278200 13.768000
9.294800 11.342600
9.311400 10.588600
9.328000 9.708000
9.344500 8.896400
9.361100 8.552700
9.377700 8.248500
9.394300 7.983600
9.410800 7.758200
9.427400 6.924300
9.444000 6.176800
9.460600 5.689600
9.477200 5.279500
9.493700 4.779600
9.510300 4.015700
9.526900 3.360400
9.543500 2.829300
9.560000 2.413800
9.576600 2.237900
9.593200 2.137100
9.609800 2.038800
9.626400 1.942900
9.642900 1.849500
9.659500 1.758500
9.676100 1.670000
9.692700 1.584000
9.709200 1.583100
9.725800 1.616600
9.742400 1.673500
9.759000 1.745900
9.775600 1.825200
9.792100 1.912100
9.808700 2.006600
9.825300 2.108700
9.841900 2.218400
9.858400 2.335600
9.875000 2.460500
9.891600 2.643100
9.908200 2.923500
9.924800 3.145200
9.941300 3.308800
9.957900 3.438500
9.974500 3.566600
9.991100 3.692000
10.007600 3.815100
10.024200 3.935800
10.040800 4.054200
10.057400 4.170100
10.073900 4.283500
10.090500 4.393900
10.107100 4.501500
10.123700 4.606200
10.140300 4.708000
10.156800 4.818400
10.173400 4.979500
10.190000 5.179600
10.206600 5.346200
10.223100 5.491800
10.239700 5.619500
10.256300 5.729100
10.272900 5.820900
10.289500 5.894600
10.306000 5.950400
10.322600 6.514400
10.339200 6.448900
10.355800 6.667900
10.372300 6.569000
10.388900 6.164600
10.405500 6.182100
10.422100 6.209100
10.438700 5.594200
10.455200 5.232200
10.471800 5.590100
10.488400 5.753600
10.505000 5.889700
10.521500 5.969200
10.538100 6.017000
10.554700 6.049900
10.571300 6.068600
10.587900 6.073100
10.604400 5.887100
10.621000 5.703800
10.637600 7.043700
10.654200 4.197300
10.670700 4.095500
10.687300 3.992700
10.703900 3.888700
10.720500 3.783800
10.737100 3.677800
10.753600 3.570700
10.770200 3.478300
10.786800 3.611100
10.803400 3.728000
10.819900 3.931600
10.836500 4.597100
10.853100 4.928100
10.869700 5.229500
10.886300 5.503300
10.902800 5.768800
10.919400 6.173400
10.936000 6.407100
10.952600 6.540100
10.969100 6.604200
10.985700 6.675800
11.002300 6.755500
11.018900 6.847300
11.035500 6.951900
11.052000 6.904800
11.068600 6.912900
11.085200 7.255200
11.101800 7.555000
11.118300 7.812300
11.134900 8.026900
11.151500 8.274500
11.168100 8.318000
11.184700 8.307000
11.201200 8.107400
11.217800 7.268500
11.234400 6.535900
11.251000 5.858000
11.267500 5.351200
11.284100 4.813700
11.300700 4.374200
11.317300 4.061200
11.333900 7.334400
11.350400 6.724900
11.367000 7.287300
11.383600 8.152900
11.400200 9.153300
11.416700 10.566500
11.433300 11.864400
11.449900 7.936700
11.466500 6.679000
11.483100 6.586400
11.499600 6.738500
11.516200 6.802300
11.532800 6.937500
11.549400 7.065100
11.565900 7.180500
11.582500 7.271100
11.599100 7.333200
11.615700 7.370900
11.632300 7.384000
11.648800 7.372600
11.665400 7.336600
11.682000 7.482000
11.698600 8.064400
11.715100 8.264200
11.731700 8.506400
11.748300 9.043400
11.764900 9.324500
11.781500 9.632400
11.798000 9.511100
11.814600 9.659300
11.831200 9.736500
11.847800 9.677000
11.864300 9.584800
11.880900 9.541500
11.897500 9.407500
11.914100 9.199000
11.930700 8.916200
11.947200 8.558900
11.963800 8.127900
11.980400 9.512600
11.997000 9.862400
12.013500 9.781000
12.030100 9.457800
12.046700 8.183700
12.063300 7.552200
12.079900 7.146200
12.096400 6.850300
12.113000 6.637300
12.129600 6.479300
12.146200 6.376300
12.162700 6.328400
12.179300 6.279500
12.195900 6.175500
12.212500 6.333300
12.229100 6.516700
12.245600 6.710800
12.262200 6.907600
12.278800 7.107100
12.295400 7.309300
12.311900 7.747000
12.328500 7.987900
12.345100 7.897500
12.361700 7.812600
12.378300 7.883400
12.394800 7.886100
12.411400 7.864900
12.428000 8.068700
12.444600 8.457300
12.461100 8.789900
12.477700 8.721400
12.494300 8.535100
12.510900 8.297700
12.527500 8.009200
12.544000 7.592600
12.560600 7.424700
12.577200 7.382800
12.593800 7.364600
12.610300 7.373300
12.626900 7.408800
12.643500 7.350000
12.660100 7.462900
12.676700 7.543200
12.693200 7.524900
12.709800 7.371100
12.726400 7.190600
12.743000 7.026400
12.759500 6.915000
12.776100 6.857300
12.792700 7.322300
12.809300 7.356600
12.825900 7.387000
12.842400 7.413500
12.859000 7.434700
12.875600 7.402300
12.892200 8.371700
12.908700 6.839400
12.925300 8.090500
12.941900 12.759500
12.958500 13.561000
12.975100 13.053000
12.991600 15.376000
13.008200 16.364000
13.024800 14.082900
13.041400 12.234000
13.057900 10.287200
13.074500 9.001800
13.091100 9.165400
13.107700 25.138300
13.124300 11.400600
13.140800 12.542100
13.157400 13.898300
13.174000 15.135200
13.190600 14.040400
13.207100 11.463400
13.223700 10.497800
13.240300 9.995400
13.256900 9.648600
13.273500 9.467900
13.290000 9.316700
13.306600 9.158700
13.323200 8.993900
13.339800 8.959600
13.356300 9.169500
13.372900 9.353000
13.389500 9.481000
13.406100 9.624100
13.422700 9.739800
13.439200 9.778300
13.455800 9.789600
13.472400 9.763700
13.489000 9.570000
13.505500 9.559000
13.522100 9.551800
13.538700 10.584500
13.555300 11.164400
13.571900 11.306600
13.588400 11.065400
13.605000 10.225300
13.621600 9.815500
13.638200 9.146700
13.654700 7.955900
13.671300 6.970400
13.687900 6.190000
13.704500 5.614600
13.721100 5.317300
13.737600 5.633800
13.754200 5.995600
13.770800 6.398600
13.787400 6.842700
13.803900 7.330900
13.820500 7.869500
13.837100 8.458700
13.853700 9.434500
13.870300 10.753600
13.886800 10.080800
13.903400 9.298100
13.920000 8.823400
13.936600 8.455700
13.953100 8.004000
13.969700 7.772800
13.986300 7.605500
14.002900 7.525500
14.019500 7.313000
14.036000 7.690400
14.052600 8.025800
14.069200 8.142600
14.085800 8.269600
14.102300 8.141700
14.118900 7.887400
14.135500 7.506700
14.152100 7.213900
14.168700 7.102600
14.185200 7.000400
14.201800 6.952800
14.218400 7.150100
14.235000 7.438000
14.251500 7.735000
14.268100 7.818600
14.284700 8.027800
14.301300 8.190100
14.317900 10.683300
14.334400 10.529800
14.351000 10.720300
14.367600 10.846500
14.384200 10.886400
14.400700 10.006800
14.417300 9.753000
14.433900 9.460500
14.450500 9.148800
14.467100 9.342300
14.483600 9.517900
14.500200 9.768600
14.516800 10.129800
14.533400 10.531700
14.549900 13.137100
14.566500 11.745800
14.583100 10.239100
14.599700 8.726600
14.616300 7.746400
14.632800 10.132900
14.649400 7.048100
14.666000 6.571500
14.682600 6.357300
14.699100 6.158000
14.715700 5.973500
14.732300 5.814200
14.748900 5.742500
14.765500 5.771900
14.782000 5.949400
14.798600 6.313800
14.815200 7.623700
14.831800 8.106600
14.848300 8.029800
14.864900 7.876900
14.881500 7.717900
14.898100 7.737800
14.914600 7.512100
14.931200 7.278100
14.947800 7.035700
14.964400 6.785100
14.981000 6.526100
14.997500 6.897200
15.014100 7.183500
15.030700 4.780400
15.047300 3.619400
15.063800 3.063400
15.080400 2.820600
15.097000 2.621500
15.113600 2.422400
15.130200 2.200300
15.146700 1.949400
15.163300 1.720700
15.179900 1.575900
15.196500 1.389200
15.213000 1.213200
15.229600 1.047800
15.246200 0.893200
15.262800 0.749200
15.279400 0.616000
15.295900 0.493400
15.312500 0.208400
15.329100 0.059200
15.345700 0.050500
15.362200 0.042500
15.378800 0.035200
15.395400 0.028600
15.412000 0.022600
15.428600 0.017400
15.445100 0.012800
15.461700 0.009000
15.478300 0.005800
15.494900 0.003300
15.511400 0.001500
15.528000 0.000400
15.544600 0.000000
15.561200 0.000000
15.577800 0.000000
15.594300 0.000000
15.610900 0.000000
15.627500 0.000000
15.644100 0.000000
15.660600 0.000000
15.677200 0.000000
15.693800 0.000000
15.710400 0.000000
15.727000 0.000000
15.743500 0.000000
15.760100 0.000000
15.776700 0.000000
15.793300 0.000000
15.809800 0.000000
15.826400 0.000000
15.843000 0.000000
15.859600 0.000000
15.876200 0.000000
15.892700 0.000000
15.909300 0.000000
15.925900 0.000000
15.942500 0.000000
15.959000 0.000000
15.975600 0.000000
15.992200 0.000000
16.008800 0.000000
16.025400 0.000000
16.041900 0.000000
16.058500 0.000000
16.075100 0.000000
16.091700 0.000000
16.108200 0.000000
16.124800 0.000000
16.141400 0.000000
16.158000 0.000000
16.174600 0.000000
16.191100 0.000000
16.207700 0.000000
16.224300 0.000000
16.240900 0.000000
16.257400 0.000000
16.274000 0.000000
16.290600 0.000000
16.307200 0.000000
16.323800 0.000000
16.340300 0.000000
16.356900 0.000000
16.373500 0.000000
16.390100 0.000000
16.406600 0.000000
16.423200 0.000000
16.439800 0.000000
16.456400 0.000000
16.473000 0.000000
16.489500 0.000000
16.506100 0.000000
16.522700 0.000000
16.539300 0.000000
16.555800 0.000000
16.572400 0.000000
16.589000 0.000000
16.605600 0.000000
16.622200 0.000000
16.638700 0.000000
16.655300 0.000000
16.671900 0.000000
16.688500 0.000000
16.705000 0.000000
16.721600 0.000000
16.738200 0.000000
16.754800 0.000000
16.771400 0.000000
16.787900 0.000000
16.804500 0.000000
16.821100 0.000000
16.837700 0.000000
16.854200 0.000000
16.870800 0.000000
16.887400 0.000000
16.904000 0.000000
16.920600 0.000000
16.937100 0.000000
16.953700 0.000000
16.970300 0.000000
16.986900 0.000000
17.003400 0.000000
17.020000 0.000000
17.036600 0.000000
17.053200 0.000000
e
