set title 'mp-1203 - Density of States'
set xlabel 'Energy (eV)'
set ylabel 'DOS (states/eV)'
set grid
set xrange [-10:10]
set yrange [0:21.447]
set xzeroaxis lt -1
set terminal png size 800,600
set output 'mp-1203_dos_gnuplot.png'
plot '-' using 1:2 with lines title 'DOS'
-29.666100 0.000000
-29.637200 0.000000
-29.608300 0.000000
-29.579400 0.000000
-29.550400 0.000000
-29.521500 0.000000
-29.492600 0.000000
-29.463700 0.000000
-29.434800 0.000000
-29.405900 0.000000
-29.377000 0.000000
-29.348100 0.000000
-29.319200 0.000000
-29.290300 0.000000
-29.261400 0.000000
-29.232500 0.000000
-29.203600 0.000000
-29.174600 0.000000
-29.145700 0.000000
-29.116800 0.000000
-29.087900 0.000000
-29.059000 0.000000
-29.030100 0.000000
-29.001200 0.000000
-28.972300 0.000000
-28.943400 0.000000
-28.914500 0.000000
-28.885600 0.000000
-28.856700 0.000000
-28.827700 0.000000
-28.798800 0.000000
-28.769900 0.000000
-28.741000 0.000000
-28.712100 0.000000
-28.683200 0.000000
-28.654300 0.000000
-28.625400 0.000000
-28.596500 0.000000
-28.567600 0.000000
-28.538700 0.000000
-28.509800 0.000000
-28.480900 0.000000
-28.451900 0.000000
-28.423000 0.000000
-28.394100 0.000000
-28.365200 0.000000
-28.336300 0.000000
-28.307400 0.000000
-28.278500 0.000000
-28.249600 0.000000
-28.220700 0.000000
-28.191800 0.000000
-28.162900 0.000000
-28.134000 0.000000
-28.105100 0.000000
-28.076100 0.000000
-28.047200 0.000000
-28.018300 0.000000
-27.989400 0.000000
-27.960500 0.000000
-27.931600 0.000000
-27.902700 0.000000
-27.873800 0.000000
-27.844900 0.000000
-27.816000 0.000000
-27.787100 0.000000
-27.758200 0.000000
-27.729200 0.000000
-27.700300 0.000000
-27.671400 0.000000
-27.642500 0.000000
-27.613600 0.000000
-27.584700 0.000000
-27.555800 0.000000
-27.526900 0.000000
-27.498000 0.000000
-27.469100 0.000000
-27.440200 0.000000
-27.411300 0.000000
-27.382400 0.000000
-27.353400 0.000000
-27.324500 0.000000
-27.295600 0.000000
-27.266700 0.000000
-27.237800 0.000000
-27.208900 0.000000
-27.180000 0.000000
-27.151100 0.000000
-27.122200 0.000000
-27.093300 0.000000
-27.064400 0.000000
-27.035500 0.533200
-27.006600 14.703400
-26.977600 15.151700
-26.948700 12.461500
-26.919800 11.662700
-26.890900 14.917600
-26.862000 34.381900
-26.833100 72.808700
-26.804200 61.928500
-26.775300 25.075800
-26.746400 26.015100
-26.717500 32.331000
-26.688600 22.290800
-26.659700 10.874400
-26.630700 56.695500
-26.601800 78.775900
-26.572900 14.116200
-26.544000 25.270400
-26.515100 33.809100
-26.486200 6.218000
-26.457300 13.876100
-26.428400 28.927500
-26.399500 15.858900
-26.370600 14.419500
-26.341700 22.558600
-26.312800 23.638200
-26.283900 28.482900
-26.254900 13.563600
-26.226000 16.988600
-26.197100 31.205800
-26.168200 42.842200
-26.139300 39.573600
-26.110400 46.830800
-26.081500 32.695600
-26.052600 15.939800
-26.023700 3.967500
-25.994800 0.000000
-25.965900 0.000000
-25.937000 0.000000
-25.908100 0.000000
-25.879100 0.000000
-25.850200 0.000000
-25.821300 0.000000
-25.792400 0.000000
-25.763500 0.000000
-25.734600 0.000000
-25.705700 0.000000
-25.676800 0.000000
-25.647900 0.000000
-25.619000 0.000000
-25.590100 0.000000
-25.561200 0.000000
-25.532200 0.000000
-25.503300 0.000000
-25.474400 0.000000
-25.445500 0.000000
-25.416600 0.000000
-25.387700 0.000000
-25.358800 0.000000
-25.329900 0.000000
-25.301000 0.000000
-25.272100 0.000000
-25.243200 0.000000
-25.214300 0.000000
-25.185400 0.000000
-25.156400 0.000000
-25.127500 0.000000
-25.098600 0.000000
-25.069700 0.000000
-25.040800 0.000000
-25.011900 0.000000
-24.983000 0.000000
-24.954100 0.000000
-24.925200 0.000000
-24.896300 0.000000
-24.867400 0.000000
-24.838500 0.000000
-24.809600 0.000000
-24.780600 0.000000
-24.751700 0.000000
-24.722800 0.000000
-24.693900 0.000000
-24.665000 0.000000
-24.636100 0.000000
-24.607200 0.000000
-24.578300 0.000000
-24.549400 0.000000
-24.520500 0.000000
-24.491600 0.000000
-24.462700 0.000000
-24.433700 0.000000
-24.404800 0.000000
-24.375900 0.000000
-24.347000 0.000000
-24.318100 0.000000
-24.289200 0.000000
-24.260300 0.000000
-24.231400 0.000000
-24.202500 0.000000
-24.173600 0.000000
-24.144700 0.000000
-24.115800 0.000000
-24.086900 0.000000
-24.057900 0.000000
-24.029000 0.000000
-24.000100 0.000000
-23.971200 0.000000
-23.942300 0.000000
-23.913400 0.000000
-23.884500 0.000000
-23.855600 0.000000
-23.826700 0.000000
-23.797800 0.000000
-23.768900 0.000000
-23.740000 0.000000
-23.711100 0.000000
-23.682100 0.000000
-23.653200 0.000000
-23.624300 0.000000
-23.595400 0.000000
-23.566500 0.000000
-23.537600 0.000000
-23.508700 0.000000
-23.479800 0.000000
-23.450900 0.000000
-23.422000 0.000000
-23.393100 0.000000
-23.364200 0.000000
-23.335200 0.000000
-23.306300 0.000000
-23.277400 0.000000
-23.248500 0.000000
-23.219600 0.000000
-23.190700 0.000000
-23.161800 0.000000
-23.132900 0.000000
-23.104000 0.000000
-23.075100 0.000000
-23.046200 0.000000
-23.017300 0.000000
-22.988400 0.000000
-22.959400 0.000000
-22.930500 0.000000
-22.901600 0.000000
-22.872700 0.000000
-22.843800 0.000000
-22.814900 0.000000
-22.786000 0.000000
-22.757100 0.000000
-22.728200 0.000000
-22.699300 0.000000
-22.670400 0.000000
-22.641500 0.000000
-22.612600 0.000000
-22.583600 0.000000
-22.554700 0.000000
-22.525800 0.000000
-22.496900 0.000000
-22.468000 0.000000
-22.439100 0.000000
-22.410200 0.000000
-22.381300 0.000000
-22.352400 0.000000
-22.323500 0.000000
-22.294600 0.000000
-22.265700 0.000000
-22.236700 0.000000
-22.207800 0.000000
-22.178900 0.000000
-22.150000 0.000000
-22.121100 0.000000
-22.092200 0.000000
-22.063300 0.000000
-22.034400 0.000000
-22.005500 0.000000
-21.976600 0.000000
-21.947700 0.000000
-21.918800 0.000000
-21.889900 0.000000
-21.860900 0.000000
-21.832000 0.000000
-21.803100 0.000000
-21.774200 0.000000
-21.745300 0.000000
-21.716400 0.000000
-21.687500 0.000000
-21.658600 0.000000
-21.629700 0.000000
-21.600800 0.000000
-21.571900 0.000000
-21.543000 0.000000
-21.514100 0.000000
-21.485100 0.000000
-21.456200 0.000000
-21.427300 0.000000
-21.398400 0.000000
-21.369500 0.000000
-21.340600 0.000000
-21.311700 0.000000
-21.282800 0.000000
-21.253900 0.000000
-21.225000 0.000000
-21.196100 0.000000
-21.167200 0.000000
-21.138200 0.000000
-21.109300 0.000000
-21.080400 0.000000
-21.051500 0.000000
-21.022600 0.000000
-20.993700 0.000000
-20.964800 0.000000
-20.935900 0.000000
-20.907000 0.000000
-20.878100 0.000000
-20.849200 0.000000
-20.820300 0.000000
-20.791400 0.000000
-20.762400 0.000000
-20.733500 0.000000
-20.704600 0.000000
-20.675700 0.000000
-20.646800 0.000000
-20.617900 0.000000
-20.589000 0.000000
-20.560100 0.000000
-20.531200 0.000000
-20.502300 0.000000
-20.473400 0.000000
-20.444500 0.000000
-20.415600 0.000000
-20.386600 0.000000
-20.357700 0.000000
-20.328800 0.000000
-20.299900 0.000000
-20.271000 0.000000
-20.242100 0.000000
-20.213200 0.000000
-20.184300 0.000000
-20.155400 0.000000
-20.126500 0.000000
-20.097600 0.000000
-20.068700 0.000000
-20.039700 0.000000
-20.010800 0.000000
-19.981900 0.000000
-19.953000 0.000000
-19.924100 0.000000
-19.895200 0.000000
-19.866300 0.000000
-19.837400 0.000000
-19.808500 0.000000
-19.779600 0.000000
-19.750700 0.000000
-19.721800 0.000000
-19.692900 0.000000
-19.663900 0.000000
-19.635000 0.000000
-19.606100 0.000000
-19.577200 0.000000
-19.548300 0.000000
-19.519400 0.000000
-19.490500 0.000000
-19.461600 0.000000
-19.432700 0.000000
-19.403800 0.000000
-19.374900 0.000000
-19.346000 0.000000
-19.317100 0.000000
-19.288100 0.000000
-19.259200 0.000000
-19.230300 0.000000
-19.201400 0.000000
-19.172500 0.000000
-19.143600 0.000000
-19.114700 0.000000
-19.085800 0.000000
-19.056900 0.000000
-19.028000 0.000000
-18.999100 0.000000
-18.970200 0.000000
-18.941200 0.000000
-18.912300 0.000000
-18.883400 0.000000
-18.854500 0.000000
-18.825600 0.000000
-18.796700 0.000000
-18.767800 0.000000
-18.738900 0.000000
-18.710000 0.000000
-18.681100 0.000000
-18.652200 0.000000
-18.623300 0.000000
-18.594400 0.000000
-18.565400 0.000000
-18.536500 0.000000
-18.507600 0.000000
-18.478700 0.000000
-18.449800 0.000000
-18.420900 0.000000
-18.392000 0.000000
-18.363100 0.000000
-18.334200 0.000000
-18.305300 0.000000
-18.276400 0.000000
-18.247500 0.000000
-18.218600 0.000000
-18.189600 0.000000
-18.160700 0.000000
-18.131800 0.000000
-18.102900 0.000000
-18.074000 0.000000
-18.045100 0.000000
-18.016200 0.000000
-17.987300 0.000000
-17.958400 0.000000
-17.929500 0.000000
-17.900600 0.000000
-17.871700 0.000000
-17.842700 0.000000
-17.813800 0.000000
-17.784900 0.000000
-17.756000 0.000000
-17.727100 0.000000
-17.698200 0.000000
-17.669300 0.000000
-17.640400 0.000000
-17.611500 0.000000
-17.582600 0.000000
-17.553700 0.000000
-17.524800 0.000000
-17.495900 0.000000
-17.466900 0.000000
-17.438000 0.000000
-17.409100 0.000000
-17.380200 0.000000
-17.351300 0.000000
-17.322400 0.000000
-17.293500 0.000000
-17.264600 0.000000
-17.235700 0.000000
-17.206800 0.000000
-17.177900 0.000000
-17.149000 0.000000
-17.120100 0.000000
-17.091100 0.000000
-17.062200 0.000000
-17.033300 0.000000
-17.004400 0.000000
-16.975500 0.000000
-16.946600 0.000000
-16.917700 0.000000
-16.888800 0.000000
-16.859900 0.000000
-16.831000 0.000000
-16.802100 0.000000
-16.773200 0.000000
-16.744200 0.000000
-16.715300 0.000000
-16.686400 0.000000
-16.657500 0.000000
-16.628600 0.000000
-16.599700 0.000000
-16.570800 0.000000
-16.541900 0.000000
-16.513000 0.000000
-16.484100 0.000000
-16.455200 0.000000
-16.426300 0.000000
-16.397400 0.000000
-16.368400 0.000000
-16.339500 0.000000
-16.310600 0.000000
-16.281700 0.000000
-16.252800 0.000000
-16.223900 0.000000
-16.195000 0.000000
-16.166100 0.000000
-16.137200 0.000000
-16.108300 0.000000
-16.079400 0.000000
-16.050500 0.000000
-16.021600 0.000000
-15.992600 0.000000
-15.963700 0.000000
-15.934800 0.000000
-15.905900 0.000000
-15.877000 0.000000
-15.848100 0.000000
-15.819200 0.000000
-15.790300 0.000000
-15.761400 0.000000
-15.732500 0.000000
-15.703600 0.000000
-15.674700 0.000000
-15.645800 0.000000
-15.616800 0.000000
-15.587900 0.000000
-15.559000 0.000000
-15.530100 0.000000
-15.501200 0.000000
-15.472300 0.000000
-15.443400 0.000000
-15.414500 0.000000
-15.385600 0.000000
-15.356700 0.000000
-15.327800 0.000000
-15.298900 0.000000
-15.269900 0.000000
-15.241000 0.000000
-15.212100 0.000000
-15.183200 0.000000
-15.154300 0.000000
-15.125400 0.000000
-15.096500 0.000000
-15.067600 0.000000
-15.038700 0.000000
-15.009800 0.000000
-14.980900 0.000000
-14.952000 0.000000
-14.923100 0.000000
-14.894100 0.000000
-14.865200 0.000000
-14.836300 0.000000
-14.807400 0.000000
-14.778500 0.000000
-14.749600 0.000000
-14.720700 0.000000
-14.691800 0.000000
-14.662900 0.000000
-14.634000 0.000000
-14.605100 0.000000
-14.576200 0.000000
-14.547300 0.000000
-14.518300 0.000000
-14.489400 0.000000
-14.460500 0.000000
-14.431600 0.000000
-14.402700 0.000000
-14.373800 0.000000
-14.344900 0.000000
-14.316000 0.000000
-14.287100 0.000000
-14.258200 0.000000
-14.229300 0.000000
-14.200400 0.000000
-14.171400 0.000000
-14.142500 0.000000
-14.113600 0.000000
-14.084700 0.000000
-14.055800 0.000000
-14.026900 0.000000
-13.998000 0.000000
-13.969100 0.000000
-13.940200 0.000000
-13.911300 0.000000
-13.882400 0.000000
-13.853500 0.000000
-13.824600 0.000000
-13.795600 0.000000
-13.766700 0.000000
-13.737800 0.000000
-13.708900 0.000200
-13.680000 0.274400
-13.651100 0.546500
-13.622200 0.699200
-13.593300 0.879600
-13.564400 1.015600
-13.535500 1.183800
-13.506600 1.346900
-13.477700 1.525300
-13.448800 1.728300
-13.419800 1.975300
-13.390900 2.339900
-13.362000 2.413600
-13.333100 2.513400
-13.304200 2.705800
-13.275300 2.907700
-13.246400 3.184600
-13.217500 3.461700
-13.188600 3.303600
-13.159700 3.150500
-13.130800 4.033900
-13.101900 5.325200
-13.072900 5.824700
-13.044000 7.254800
-13.015100 8.039300
-12.986200 10.342300
-12.957300 10.663700
-12.928400 11.234000
-12.899500 11.088100
-12.870600 11.400900
-12.841700 13.547300
-12.812800 12.585200
-12.783900 13.613400
-12.755000 17.789000
-12.726100 14.358800
-12.697100 13.867000
-12.668200 12.648600
-12.639300 10.186200
-12.610400 11.885300
-12.581500 10.795000
-12.552600 5.838000
-12.523700 6.761300
-12.494800 7.446000
-12.465900 2.128600
-12.437000 0.000000
-12.408100 0.896300
-12.379200 15.050800
-12.350300 15.291100
-12.321300 10.923100
-12.292400 9.905300
-12.263500 10.611800
-12.234600 3.592100
-12.205700 0.000000
-12.176800 0.000000
-12.147900 0.000000
-12.119000 0.000000
-12.090100 0.000000
-12.061200 0.000000
-12.032300 0.000000
-12.003400 0.000000
-11.974400 0.000000
-11.945500 0.000000
-11.916600 0.000000
-11.887700 0.000000
-11.858800 0.000000
-11.829900 0.000000
-11.801000 0.000000
-11.772100 0.000000
-11.743200 0.000000
-11.714300 0.000000
-11.685400 0.000000
-11.656500 0.000000
-11.627600 0.000000
-11.598600 0.000000
-11.569700 0.000000
-11.540800 0.000000
-11.511900 0.000000
-11.483000 0.000000
-11.454100 0.000000
-11.425200 0.000000
-11.396300 0.000000
-11.367400 0.000000
-11.338500 0.000000
-11.309600 0.000000
-11.280700 0.000000
-11.251800 0.000000
-11.222800 0.000000
-11.193900 0.000000
-11.165000 0.000000
-11.136100 0.000000
-11.107200 0.000000
-11.078300 0.000000
-11.049400 0.000000
-11.020500 0.000000
-10.991600 0.000000
-10.962700 0.000000
-10.933800 0.000000
-10.904900 0.000000
-10.875900 0.000000
-10.847000 0.000000
-10.818100 0.000000
-10.789200 0.000000
-10.760300 0.000000
-10.731400 0.000000
-10.702500 0.000000
-10.673600 0.000000
-10.644700 0.000000
-10.615800 0.000000
-10.586900 0.000000
-10.558000 0.000000
-10.529100 0.000000
-10.500100 0.000000
-10.471200 0.000000
-10.442300 0.000000
-10.413400 0.000000
-10.384500 0.000000
-10.355600 0.000000
-10.326700 0.000000
-10.297800 0.000000
-10.268900 0.000000
-10.240000 0.000000
-10.211100 0.000000
-10.182200 0.000000
-10.153300 0.000000
-10.124300 0.000000
-10.095400 0.000000
-10.066500 0.000000
-10.037600 0.000000
-10.008700 0.000000
-9.979800 0.000000
-9.950900 0.000000
-9.922000 0.000000
-9.893100 0.000000
-9.864200 0.000000
-9.835300 0.000000
-9.806400 0.000000
-9.777400 0.000000
-9.748500 0.000000
-9.719600 0.000000
-9.690700 0.000000
-9.661800 0.000000
-9.632900 0.000000
-9.604000 0.000000
-9.575100 0.000000
-9.546200 0.000000
-9.517300 0.000000
-9.488400 0.000000
-9.459500 0.000000
-9.430600 0.000000
-9.401600 0.000000
-9.372700 0.000000
-9.343800 0.000000
-9.314900 0.000000
-9.286000 0.000000
-9.257100 0.000000
-9.228200 0.000000
-9.199300 0.000000
-9.170400 0.000000
-9.141500 0.000000
-9.112600 0.000000
-9.083700 0.000000
-9.054800 0.000000
-9.025800 0.000000
-8.996900 0.000000
-8.968000 0.000000
-8.939100 0.000000
-8.910200 0.000000
-8.881300 0.000000
-8.852400 0.000000
-8.823500 0.000000
-8.794600 0.000000
-8.765700 0.000000
-8.736800 0.000000
-8.707900 0.000000
-8.678900 0.000000
-8.650000 0.000000
-8.621100 0.000000
-8.592200 0.000000
-8.563300 0.000000
-8.534400 0.000000
-8.505500 0.000000
-8.476600 0.000000
-8.447700 0.000000
-8.418800 0.000000
-8.389900 0.000000
-8.361000 0.000000
-8.332100 0.000000
-8.303100 0.000000
-8.274200 0.000000
-8.245300 0.000000
-8.216400 0.000000
-8.187500 0.000000
-8.158600 0.000000
-8.129700 0.000000
-8.100800 0.000000
-8.071900 0.000000
-8.043000 0.000000
-8.014100 0.000000
-7.985200 0.000000
-7.956300 0.000000
-7.927300 0.000000
-7.898400 0.000000
-7.869500 0.000000
-7.840600 0.000000
-7.811700 0.000000
-7.782800 0.000000
-7.753900 0.000000
-7.725000 0.000000
-7.696100 0.000000
-7.667200 0.000000
-7.638300 0.000000
-7.609400 0.000000
-7.580400 0.000000
-7.551500 0.000000
-7.522600 0.000000
-7.493700 0.000000
-7.464800 0.000000
-7.435900 0.000000
-7.407000 0.000000
-7.378100 0.000000
-7.349200 0.000000
-7.320300 0.000000
-7.291400 0.000000
-7.262500 0.000000
-7.233600 0.000000
-7.204600 0.000000
-7.175700 0.000000
-7.146800 0.000000
-7.117900 0.000000
-7.089000 0.000000
-7.060100 0.000000
-7.031200 0.000000
-7.002300 0.000000
-6.973400 0.000000
-6.944500 0.000000
-6.915600 0.000000
-6.886700 0.000000
-6.857800 0.000000
-6.828800 0.000000
-6.799900 0.000000
-6.771000 0.000000
-6.742100 0.000000
-6.713200 0.000000
-6.684300 0.000000
-6.655400 0.000000
-6.626500 0.000000
-6.597600 0.000000
-6.568700 0.000000
-6.539800 0.000000
-6.510900 0.000000
-6.481900 0.000000
-6.453000 0.000000
-6.424100 0.000000
-6.395200 0.000000
-6.366300 0.000000
-6.337400 0.000000
-6.308500 0.000000
-6.279600 0.000000
-6.250700 0.000000
-6.221800 0.000000
-6.192900 0.000000
-6.164000 0.000000
-6.135100 0.000000
-6.106100 0.000000
-6.077200 0.000000
-6.048300 0.000000
-6.019400 0.000000
-5.990500 0.000000
-5.961600 0.000000
-5.932700 0.000000
-5.903800 0.000000
-5.874900 0.000000
-5.846000 0.000000
-5.817100 0.000000
-5.788200 0.000000
-5.759300 0.000000
-5.730300 0.000000
-5.701400 0.000000
-5.672500 0.000000
-5.643600 0.000000
-5.614700 0.000000
-5.585800 0.000000
-5.556900 0.000000
-5.528000 0.000000
-5.499100 0.000000
-5.470200 0.000000
-5.441300 0.000000
-5.412400 0.000000
-5.383400 0.000000
-5.354500 0.000000
-5.325600 0.000000
-5.296700 0.000000
-5.267800 0.000000
-5.238900 0.000000
-5.210000 0.000000
-5.181100 0.000000
-5.152200 0.000000
-5.123300 0.000000
-5.094400 0.000000
-5.065500 0.000000
-5.036600 0.000000
-5.007600 0.000000
-4.978700 0.000000
-4.949800 0.000000
-4.920900 0.000000
-4.892000 0.000000
-4.863100 0.000000
-4.834200 0.000000
-4.805300 0.000000
-4.776400 0.000000
-4.747500 0.000000
-4.718600 0.000000
-4.689700 0.000000
-4.660800 0.000000
-4.631800 0.000000
-4.602900 0.000000
-4.574000 0.000000
-4.545100 0.000000
-4.516200 0.000000
-4.487300 0.000000
-4.458400 0.000000
-4.429500 0.000000
-4.400600 0.000000
-4.371700 0.000000
-4.342800 0.000000
-4.313900 0.000000
-4.284900 0.000000
-4.256000 0.000000
-4.227100 0.000000
-4.198200 0.000000
-4.169300 0.000000
-4.140400 0.000000
-4.111500 0.000000
-4.082600 0.000000
-4.053700 0.000000
-4.024800 0.000000
-3.995900 0.000000
-3.967000 0.000000
-3.938100 0.000000
-3.909100 0.000000
-3.880200 0.000000
-3.851300 0.000000
-3.822400 0.000000
-3.793500 0.000000
-3.764600 0.000000
-3.735700 0.000000
-3.706800 0.000000
-3.677900 0.000000
-3.649000 0.000000
-3.620100 0.000000
-3.591200 0.000000
-3.562300 0.000000
-3.533300 0.000000
-3.504400 0.000000
-3.475500 0.000000
-3.446600 0.000000
-3.417700 0.000000
-3.388800 0.000000
-3.359900 0.000000
-3.331000 0.000000
-3.302100 0.000000
-3.273200 0.000000
-3.244300 0.000000
-3.215400 0.000000
-3.186400 0.000000
-3.157500 0.000000
-3.128600 0.000000
-3.099700 0.000000
-3.070800 0.000000
-3.041900 0.000000
-3.013000 0.000000
-2.984100 0.000000
-2.955200 0.000000
-2.926300 0.000000
-2.897400 0.000000
-2.868500 0.000000
-2.839600 0.000000
-2.810600 0.000000
-2.781700 0.000000
-2.752800 0.000000
-2.723900 0.000000
-2.695000 0.000000
-2.666100 0.000000
-2.637200 0.000000
-2.608300 0.000000
-2.579400 0.000000
-2.550500 0.000000
-2.521600 0.000000
-2.492700 0.000000
-2.463800 0.000000
-2.434800 0.000000
-2.405900 0.000000
-2.377000 0.000000
-2.348100 0.000000
-2.319200 0.000000
-2.290300 0.000000
-2.261400 0.000000
-2.232500 0.000000
-2.203600 0.000000
-2.174700 0.000000
-2.145800 0.000000
-2.116900 0.000000
-2.087900 0.000000
-2.059000 0.000000
-2.030100 0.000000
-2.001200 0.000000
-1.972300 0.000000
-1.943400 0.000000
-1.914500 0.000000
-1.885600 0.000000
-1.856700 0.000000
-1.827800 0.000000
-1.798900 0.000000
-1.770000 0.000000
-1.741100 0.000000
-1.712100 0.000000
-1.683200 0.000000
-1.654300 0.000000
-1.625400 0.000000
-1.596500 0.000000
-1.567600 0.000000
-1.538700 0.000000
-1.509800 0.000000
-1.480900 0.000000
-1.452000 0.000000
-1.423100 0.000000
-1.394200 0.000000
-1.365300 0.000000
-1.336300 0.000000
-1.307400 0.000000
-1.278500 0.000000
-1.249600 0.000000
-1.220700 0.000000
-1.191800 0.000000
-1.162900 0.000000
-1.134000 0.000000
-1.105100 0.000000
-1.076200 0.000000
-1.047300 0.000000
-1.018400 0.000000
-0.989500 0.000000
-0.960500 0.000000
-0.931600 0.000000
-0.902700 0.070000
-0.873800 0.348300
-0.844900 0.609200
-0.816000 0.783100
-0.787100 1.357300
-0.758200 1.954800
-0.729300 2.298600
-0.700400 2.561100
-0.671500 2.977800
-0.642600 3.327500
-0.613600 3.825700
-0.584700 3.944100
-0.555800 4.123800
-0.526900 4.437100
-0.498000 4.535300
-0.469100 4.832800
-0.440200 5.093700
-0.411300 5.586000
-0.382400 5.637000
-0.353500 6.086800
-0.324600 7.286700
-0.295700 8.333000
-0.266800 9.036900
-0.237800 9.443800
-0.208900 9.620500
-0.180000 9.653200
-0.151100 8.426900
-0.122200 7.598000
-0.093300 7.299100
-0.064400 7.214400
-0.035500 7.179300
-0.006600 7.328000
0.022300 7.650200
0.051200 8.845500
0.080100 8.538500
0.109000 7.737200
0.138000 7.476500
0.166900 7.393300
0.195800 8.162600
0.224700 9.006100
0.253600 9.142000
0.282500 9.489300
0.311400 8.934100
0.340300 8.935800
0.369200 10.116600
0.398100 10.509100
0.427000 10.608100
0.455900 10.053200
0.484900 8.911400
0.513800 8.796200
0.542700 9.262500
0.571600 9.281800
0.600500 8.459800
0.629400 8.176600
0.658300 11.878100
0.687200 12.497700
0.716100 13.853400
0.745000 14.692800
0.773900 14.185200
0.802800 15.985900
0.831700 13.700600
0.860700 11.767900
0.889600 11.724900
0.918500 12.496300
0.947400 13.232400
0.976300 12.514000
1.005200 12.284000
1.034100 13.310400
1.063000 12.299300
1.091900 11.516200
1.120800 10.819400
1.149700 9.714600
1.178600 9.247600
1.207500 10.218600
1.236500 9.388500
1.265400 8.928100
1.294300 8.968600
1.323200 8.800400
1.352100 8.669500
1.381000 8.401400
1.409900 8.110900
1.438800 7.596300
1.467700 7.006600
1.496600 6.938900
1.525500 7.004200
1.554400 7.064600
1.583400 7.177500
1.612300 7.794100
1.641200 8.976600
1.670100 9.236300
1.699000 9.485400
1.727900 9.068000
1.756800 8.760200
1.785700 8.365100
1.814600 7.927600
1.843500 7.498100
1.872400 7.286900
1.901300 7.506400
1.930200 7.406400
1.959200 7.537700
1.988100 7.812600
2.017000 8.644600
2.045900 9.083000
2.074800 9.687300
2.103700 10.559400
2.132600 9.159700
2.161500 8.737500
2.190400 8.311700
2.219300 7.716000
2.248200 7.367700
2.277100 7.171700
2.306000 5.641300
2.335000 4.735600
2.363900 4.290700
2.392800 4.461300
2.421700 5.146600
2.450600 5.080400
2.479500 5.171300
2.508400 5.016300
2.537300 4.246200
2.566200 4.666700
2.595100 4.646400
2.624000 4.717800
2.652900 4.946100
2.681900 4.547200
2.710800 4.114000
2.739700 4.095800
2.768600 4.172300
2.797500 4.424800
2.826400 4.616400
2.855300 4.589900
2.884200 4.345500
2.913100 4.063600
2.942000 4.406100
2.970900 4.508100
2.999800 5.061800
3.028700 4.495900
3.057700 4.104400
3.086600 3.509100
3.115500 0.000000
3.144400 0.000000
3.173300 0.000000
3.202200 0.000000
3.231100 0.000000
3.260000 0.000000
3.288900 0.000000
3.317800 0.000000
3.346700 0.000000
3.375600 0.000000
3.404500 0.000000
3.433500 0.000000
3.462400 0.000000
3.491300 0.000000
3.520200 0.000000
3.549100 0.000000
3.578000 0.000000
3.606900 0.000000
3.635800 0.000000
3.664700 0.000000
3.693600 0.000000
3.722500 0.000000
3.751400 0.000000
3.780400 0.000000
3.809300 0.000000
3.838200 0.000000
3.867100 0.000000
3.896000 0.000000
3.924900 0.000000
3.953800 0.000000
3.982700 0.000000
4.011600 0.000000
4.040500 0.000000
4.069400 0.000000
4.098300 0.000000
4.127200 0.000000
4.156200 0.000000
4.185100 0.000000
4.214000 0.000000
4.242900 0.000000
4.271800 0.000000
4.300700 0.000000
4.329600 0.000000
4.358500 0.000000
4.387400 0.000000
4.416300 0.000000
4.445200 0.000000
4.474100 0.000000
4.503000 0.000000
4.532000 0.000000
4.560900 0.000000
4.589800 0.010200
4.618700 0.060900
4.647600 0.151800
4.676500 0.235800
4.705400 0.304900
4.734300 0.373400
4.763200 0.466000
4.792100 0.823600
4.821000 1.265000
4.849900 1.461000
4.878900 1.435400
4.907800 1.555500
4.936700 1.726500
4.965600 2.028000
4.994500 2.227600
5.023400 2.287500
5.052300 2.292900
5.081200 2.386400
5.110100 2.435100
5.139000 2.070900
5.167900 1.726800
5.196800 1.674100
5.225700 1.604000
5.254700 1.544500
5.283600 1.485200
5.312500 1.419200
5.341400 1.348400
5.370300 1.342500
5.399200 1.332400
5.428100 1.355500
5.457000 1.507200
5.485900 1.741800
5.514800 1.934000
5.543700 2.121300
5.572600 2.273600
5.601500 2.404400
5.630500 2.577600
5.659400 2.728300
5.688300 2.914100
5.717200 3.027700
5.746100 3.190200
5.775000 3.479000
5.803900 3.775300
5.832800 4.121100
5.861700 4.717600
5.890600 5.345100
5.919500 4.508600
5.948400 3.383600
5.977400 2.982100
6.006300 3.093700
6.035200 3.203100
6.064100 3.413500
6.093000 3.531100
6.121900 3.626600
6.150800 3.709800
6.179700 3.778400
6.208600 3.859400
6.237500 4.112200
6.266400 4.565300
6.295300 5.113900
6.324200 5.741300
6.353200 6.601600
6.382100 8.639600
6.411000 6.085600
6.439900 4.237600
6.468800 3.345300
6.497700 3.119800
6.526600 3.224100
6.555500 3.676000
6.584400 4.367500
6.613300 4.703200
6.642200 5.326500
6.671100 5.962600
6.700000 6.367600
6.729000 6.472500
6.757900 6.995400
6.786800 8.258400
6.815700 5.603200
6.844600 3.916300
6.873500 4.522200
6.902400 6.098500
6.931300 7.665100
6.960200 8.099700
6.989100 6.925700
7.018000 5.353600
7.046900 5.026700
7.075900 3.666800
7.104800 3.939900
7.133700 5.317600
7.162600 6.052600
7.191500 7.977200
7.220400 6.413100
7.249300 4.749900
7.278200 3.460500
7.307100 2.311500
7.336000 2.285800
7.364900 2.293600
7.393800 2.417600
7.422700 2.639900
7.451700 3.066500
7.480600 3.480400
7.509500 3.756400
7.538400 4.799700
7.567300 5.160600
7.596200 5.004100
7.625100 4.879500
7.654000 4.521400
7.682900 4.144300
7.711800 4.013100
7.740700 4.441100
7.769600 4.998900
7.798500 5.914500
7.827500 5.041900
7.856400 5.073100
7.885300 6.254300
7.914200 6.581800
7.943100 6.956000
7.972000 8.935800
8.000900 8.485400
8.029800 9.638200
8.058700 10.710300
8.087600 10.844000
8.116500 11.060400
8.145400 10.465200
8.174400 8.902300
8.203300 8.570000
8.232200 9.997600
8.261100 8.397700
8.290000 8.132600
8.318900 7.407000
8.347800 7.002700
8.376700 6.686600
8.405600 6.835500
8.434500 6.925300
8.463400 6.113800
8.492300 6.578000
8.521200 7.139600
8.550200 8.028800
8.579100 7.362500
8.608000 7.437600
8.636900 7.439300
8.665800 6.842200
8.694700 7.189700
8.723600 8.736400
8.752500 9.453900
8.781400 9.711400
8.810300 10.302000
8.839200 10.534400
8.868100 11.832300
8.897000 11.894800
8.926000 11.669300
8.954900 12.129200
8.983800 12.633500
9.012700 15.081100
9.041600 15.790600
9.070500 15.702800
9.099400 14.226000
9.128300 15.575900
9.157200 19.497400
9.186100 17.675200
9.215000 17.878800
9.243900 15.063400
9.272900 14.401100
9.301800 14.818400
9.330700 15.210500
9.359600 15.110000
9.388500 13.866900
9.417400 14.147200
9.446300 12.070500
9.475200 10.792200
9.504100 10.913700
9.533000 11.628100
9.561900 11.587900
9.590800 11.836800
9.619700 12.046900
9.648700 13.162100
9.677600 11.943500
9.706500 11.307900
9.735400 10.983500
9.764300 11.115100
9.793200 11.578600
9.822100 12.637800
9.851000 13.509600
9.879900 12.169600
9.908800 10.607100
9.937700 10.797500
9.966600 11.369800
9.995500 11.767200
10.024500 11.783200
10.053400 11.122700
10.082300 11.703600
10.111200 12.658000
10.140100 12.949600
10.169000 11.783800
10.197900 10.642200
10.226800 11.877300
10.255700 12.717400
10.284600 11.843900
10.313500 11.714300
10.342400 12.185200
10.371400 12.912100
10.400300 16.633800
10.429200 10.782500
10.458100 10.012800
10.487000 11.145800
10.515900 12.117000
10.544800 13.430700
10.573700 12.884400
10.602600 13.606000
10.631500 10.489100
10.660400 10.539500
10.689300 11.487600
10.718200 9.134700
10.747200 7.822000
10.776100 7.483300
10.805000 7.227700
10.833900 6.253000
10.862800 6.258700
10.891700 6.153900
10.920600 6.122600
10.949500 6.102100
10.978400 5.593400
11.007300 5.125000
11.036200 4.935800
11.065100 5.344300
11.094000 5.465900
11.123000 5.500800
11.151900 4.939000
11.180800 4.575900
11.209700 4.848300
11.238600 7.018100
11.267500 7.282500
11.296400 7.176600
11.325300 8.298200
11.354200 7.714700
11.383100 7.476500
11.412000 7.308300
11.440900 7.540200
11.469900 6.667200
11.498800 5.824200
11.527700 7.475500
11.556600 5.344300
11.585500 4.093100
11.614400 4.072100
11.643300 4.006200
11.672200 4.301700
11.701100 4.621300
11.730000 5.002900
11.758900 4.284700
11.787800 3.664200
11.816700 3.370400
11.845700 2.835700
11.874600 2.323400
11.903500 1.973800
11.932400 1.708800
11.961300 1.419500
11.990200 1.206200
12.019100 1.256000
12.048000 1.374900
12.076900 1.374700
12.105800 1.440900
12.134700 1.530000
12.163600 1.619100
12.192500 1.749300
12.221500 1.837500
12.250400 1.911900
12.279300 2.032900
12.308200 2.182300
12.337100 2.268300
12.366000 2.436300
12.394900 2.639900
12.423800 2.721500
12.452700 2.739300
12.481600 2.617500
12.510500 2.497700
12.539400 2.509300
12.568300 2.372400
12.597300 2.247800
12.626200 1.837500
12.655100 1.315800
12.684000 1.163600
12.712900 1.056400
12.741800 0.951100
12.770700 0.854500
12.799600 0.815500
12.828500 0.836100
12.857400 0.863300
12.886300 0.834400
12.915200 0.861600
12.944200 0.962700
12.973100 1.078600
13.002000 1.159600
13.030900 1.375900
13.059800 1.406900
13.088700 1.516500
13.117600 1.627100
13.146500 1.711300
13.175400 1.775700
13.204300 1.784500
13.233200 1.787400
13.262100 1.811000
13.291000 1.845100
13.320000 1.889400
13.348900 1.942000
13.377800 1.990500
13.406700 2.045900
13.435600 2.081100
13.464500 2.159000
13.493400 2.447900
13.522300 2.213700
13.551200 2.078200
13.580100 1.982600
13.609000 1.888100
13.637900 1.785000
13.666800 1.699900
13.695800 1.679300
13.724700 1.689900
13.753600 1.618800
13.782500 1.579900
13.811400 1.628200
13.840300 2.136900
13.869200 2.201900
13.898100 2.193200
13.927000 2.165400
13.955900 2.215100
13.984800 2.129400
14.013700 2.069600
14.042700 2.083500
14.071600 2.134100
14.100500 2.123900
14.129400 2.079100
14.158300 2.084000
14.187200 2.107900
14.216100 2.187000
14.245000 2.139000
14.273900 2.221200
14.302800 2.447000
14.331700 2.342900
14.360600 2.168400
14.389500 2.168900
14.418500 2.180400
14.447400 2.066900
14.476300 2.079700
14.505200 2.109200
14.534100 2.061600
14.563000 2.072900
14.591900 2.111600
14.620800 2.144700
14.649700 2.193600
14.678600 2.248200
14.707500 2.421600
14.736400 2.472800
14.765300 2.461200
14.794300 2.470800
14.823200 2.534200
14.852100 2.300400
14.881000 2.249600
14.909900 2.232400
14.938800 2.185500
14.967700 2.078300
14.996600 2.018100
15.025500 1.940500
15.054400 1.952100
15.083300 1.894900
15.112200 1.853000
15.141200 1.865500
15.170100 1.905300
15.199000 1.950400
15.227900 2.007900
15.256800 2.079400
15.285700 2.492600
15.314600 2.314800
15.343500 2.197700
15.372400 2.082100
15.401300 2.079400
15.430200 2.073400
15.459100 2.102700
15.488000 2.179100
15.517000 2.337000
15.545900 2.272300
15.574800 2.318800
15.603700 2.448000
15.632600 2.605600
15.661500 2.803500
15.690400 2.906700
15.719300 2.833700
15.748200 2.861400
15.777100 2.920300
15.806000 2.877100
15.834900 2.783600
15.863800 2.713000
15.892800 2.614500
15.921700 3.072000
15.950600 3.379000
15.979500 3.534300
16.008400 2.709400
16.037300 2.466900
16.066200 2.359500
16.095100 2.336300
16.124000 2.350300
16.152900 2.402600
16.181800 2.461400
16.210700 2.536200
16.239700 2.555100
16.268600 2.562200
16.297500 2.600200
16.326400 2.564900
16.355300 2.579200
16.384200 2.572100
16.413100 2.571100
16.442000 2.601600
16.470900 2.638800
16.499800 2.668300
16.528700 2.747100
16.557600 2.811100
16.586500 2.798800
16.615500 2.767700
16.644400 2.667200
16.673300 2.578400
16.702200 2.490900
16.731100 2.397100
16.760000 2.358200
16.788900 2.337500
16.817800 2.306200
16.846700 2.354300
16.875600 2.223600
16.904500 2.156300
16.933400 2.168200
16.962300 2.077300
16.991300 2.002000
17.020200 2.111200
17.049100 2.224800
17.078000 2.224800
17.106900 2.375600
17.135800 2.409600
17.164700 2.428700
17.193600 2.373300
17.222500 2.302300
17.251400 1.889100
17.280300 1.565600
17.309200 1.381300
17.338200 1.268000
17.367100 1.211700
17.396000 0.964200
17.424900 0.954300
17.453800 1.106900
17.482700 1.465600
17.511600 1.975900
17.540500 2.591500
17.569400 4.095500
17.598300 3.991200
17.627200 4.016300
17.656100 4.199100
17.685000 4.153100
17.714000 4.348400
17.742900 3.947500
17.771800 3.482300
17.800700 3.184800
17.829600 3.015900
17.858500 2.981300
17.887400 2.995100
17.916300 2.911700
17.945200 2.726700
17.974100 2.383100
18.003000 2.028800
18.031900 1.883100
18.060800 1.755300
18.089800 1.745700
18.118700 1.988300
18.147600 1.988700
18.176500 2.145100
18.205400 2.372800
18.234300 2.384500
18.263200 2.326200
18.292100 2.448500
18.321000 2.659400
18.349900 2.831400
18.378800 2.711600
18.407700 2.603900
18.436700 2.545700
18.465600 2.565400
18.494500 2.646400
18.523400 2.577200
18.552300 2.581700
18.581200 2.626500
18.610100 2.793900
18.639000 2.922000
18.667900 2.796800
18.696800 2.828100
18.725700 2.896400
18.754600 2.803200
18.783500 2.663600
18.812500 2.549500
18.841400 2.527500
18.870300 2.507800
18.899200 2.487700
18.928100 2.434200
18.957000 2.392600
18.985900 2.385800
19.014800 2.427800
19.043700 2.425200
19.072600 2.480700
19.101500 2.650500
19.130400 2.754900
19.159300 2.846500
19.188300 2.913600
19.217200 2.989500
19.246100 3.041500
19.275000 3.157400
19.303900 3.457700
19.332800 3.814900
19.361700 4.222800
19.390600 4.404000
19.419500 4.325500
19.448400 4.284500
19.477300 4.060500
19.506200 4.070900
19.535200 4.422600
19.564100 4.792000
19.593000 5.057000
19.621900 5.366500
19.650800 6.065500
19.679700 6.399400
19.708600 6.469100
19.737500 6.397100
19.766400 6.163900
19.795300 5.912700
19.824200 5.689400
19.853100 4.876700
19.882000 4.288200
19.911000 4.001300
19.939900 4.117700
19.968800 4.564600
19.997700 5.074900
20.026600 5.464700
20.055500 5.219300
20.084400 4.936500
20.113300 4.758000
20.142200 4.730400
20.171100 4.583600
20.200000 4.331200
20.228900 4.149500
20.257800 4.146700
20.286800 4.275100
20.315700 4.666500
20.344600 5.010100
20.373500 5.130400
20.402400 4.595300
20.431300 4.828500
20.460200 5.235600
20.489100 5.358500
20.518000 4.936600
20.546900 4.562400
20.575800 4.157100
20.604700 3.795300
20.633700 3.614000
20.662600 3.812700
20.691500 3.519400
20.720400 3.307800
20.749300 3.320100
20.778200 3.405800
20.807100 3.541100
20.836000 3.734400
20.864900 3.985500
20.893800 4.011300
20.922700 3.752900
20.951600 4.231500
20.980500 4.386600
21.009500 3.912900
21.038400 3.806500
21.067300 3.954600
21.096200 4.299000
21.125100 4.675400
21.154000 4.919300
21.182900 5.184300
21.211800 5.430300
21.240700 5.932900
21.269600 5.771200
21.298500 5.958300
21.327400 5.719300
21.356300 5.324500
21.385300 5.069600
21.414200 4.912400
21.443100 4.413100
21.472000 4.261100
21.500900 4.308500
21.529800 4.286100
21.558700 4.213100
21.587600 4.276700
21.616500 4.006000
21.645400 4.073500
21.674300 4.191400
21.703200 4.492000
21.732200 4.940300
21.761100 5.346900
21.790000 5.136300
21.818900 4.991300
21.847800 4.886000
21.876700 4.660500
21.905600 4.640000
21.934500 4.521900
21.963400 4.477000
21.992300 4.510800
22.021200 4.630500
22.050100 4.548500
22.079000 4.342900
22.108000 4.269300
22.136900 4.251200
22.165800 4.265600
22.194700 3.827400
22.223600 3.785700
22.252500 3.794300
22.281400 3.770100
22.310300 3.780400
22.339200 4.062000
22.368100 4.016600
22.397000 4.177200
22.425900 4.443200
22.454800 4.393300
22.483800 4.547000
22.512700 4.464900
22.541600 4.306400
22.570500 4.157100
22.599400 3.718200
22.628300 3.476300
22.657200 3.254400
22.686100 3.083400
22.715000 2.923800
22.743900 2.795900
22.772800 2.674900
22.801700 2.606100
22.830700 2.581800
22.859600 2.526800
22.888500 2.478100
22.917400 2.475200
22.946300 2.601900
22.975200 2.740700
23.004100 2.936200
23.033000 2.993300
23.061900 3.138900
23.090800 3.276100
23.119700 3.168100
23.148600 3.204900
23.177500 3.304300
23.206500 3.288500
23.235400 3.103500
23.264300 2.963400
23.293200 2.882900
23.322100 2.837600
23.351000 2.728300
23.379900 2.586900
23.408800 2.454800
23.437700 2.370300
23.466600 2.283700
23.495500 2.226200
23.524400 2.227400
23.553300 2.304100
23.582300 2.335700
23.611200 2.427000
23.640100 2.467800
23.669000 2.450800
23.697900 2.464000
23.726800 2.527700
23.755700 2.537400
23.784600 2.513200
23.813500 2.523300
23.842400 2.593400
23.871300 2.678100
23.900200 2.884500
23.929200 2.938700
23.958100 3.182600
23.987000 3.501400
24.015900 3.760100
24.044800 3.856200
24.073700 3.728500
24.102600 3.686800
24.131500 3.761600
24.160400 3.809200
24.189300 3.916900
24.218200 4.184200
24.247100 4.223600
24.276000 4.246000
24.305000 4.048700
24.333900 4.333800
24.362800 3.953500
24.391700 3.790300
24.420600 3.726500
24.449500 3.790300
24.478400 3.723600
24.507300 3.888300
24.536200 4.272600
24.565100 4.423400
24.594000 4.570900
24.622900 4.843800
24.651800 4.815600
24.680800 4.772900
24.709700 4.349400
24.738600 3.890900
24.767500 3.586600
24.796400 3.408200
24.825300 3.254800
24.854200 3.099100
24.883100 2.848000
24.912000 2.599700
24.940900 2.140700
24.969800 1.930000
24.998700 1.765200
25.027700 1.738800
25.056600 1.758400
25.085500 1.854100
25.114400 1.513600
25.143300 1.102500
25.172200 0.648100
25.201100 0.359200
25.230000 0.152400
25.258900 0.126300
25.287800 0.104500
25.316700 0.085000
25.345600 0.068000
25.374500 0.053500
25.403500 0.041400
25.432400 0.028900
25.461300 0.013000
25.490200 0.003500
25.519100 0.000000
25.548000 0.000000
25.576900 0.000000
25.605800 0.000000
25.634700 0.000000
25.663600 0.000000
25.692500 0.000000
25.721400 0.000000
25.750300 0.000000
25.779300 0.000000
25.808200 0.000000
25.837100 0.000000
25.866000 0.000000
25.894900 0.000000
25.923800 0.000000
25.952700 0.000000
25.981600 0.000000
26.010500 0.000000
26.039400 0.000000
26.068300 0.000000
26.097200 0.000000
26.126100 0.000000
26.155100 0.000000
26.184000 0.000000
26.212900 0.000000
26.241800 0.000000
26.270700 0.000000
26.299600 0.000000
26.328500 0.000000
26.357400 0.000000
26.386300 0.000000
26.415200 0.000000
26.444100 0.000000
26.473000 0.000000
26.502000 0.000000
26.530900 0.000000
26.559800 0.000000
26.588700 0.000000
26.617600 0.000000
26.646500 0.000000
26.675400 0.000000
26.704300 0.000000
26.733200 0.000000
26.762100 0.000000
26.791000 0.000000
26.819900 0.000000
26.848800 0.000000
26.877800 0.000000
26.906700 0.000000
26.935600 0.000000
26.964500 0.000000
26.993400 0.000000
27.022300 0.000000
27.051200 0.000000
27.080100 0.000000
27.109000 0.000000
27.137900 0.000000
27.166800 0.000000
27.195700 0.000000
27.224600 0.000000
27.253600 0.000000
27.282500 0.000000
27.311400 0.000000
27.340300 0.000000
27.369200 0.000000
27.398100 0.000000
27.427000 0.000000
27.455900 0.000000
27.484800 0.000000
27.513700 0.000000
27.542600 0.000000
27.571500 0.000000
27.600500 0.000000
27.629400 0.000000
27.658300 0.000000
27.687200 0.000000
27.716100 0.000000
27.745000 0.000000
27.773900 0.000000
27.802800 0.000000
27.831700 0.000000
27.860600 0.000000
27.889500 0.000000
27.918400 0.000000
27.947300 0.000000
27.976300 0.000000
28.005200 0.000000
28.034100 0.000000
28.063000 0.000000
28.091900 0.000000
28.120800 0.000000
28.149700 0.000000
e
