set title 'mp-1221583 - Density of States'
set xlabel 'Energy (eV)'
set ylabel 'DOS (states/eV)'
set grid
set xrange [-10:10]
set yrange [0:2.161]
set xzeroaxis lt -1
set terminal png size 800,600
set output 'mp-1221583_dos_gnuplot.png'
plot '-' using 1:2 with lines title 'DOS'
-45.839900 0.000000
-45.780500 0.000000
-45.721000 0.000000
-45.661600 0.000000
-45.602200 0.000000
-45.542800 0.000000
-45.483400 0.000000
-45.423900 0.000000
-45.364500 0.000000
-45.305100 0.000000
-45.245700 0.000000
-45.186200 0.000000
-45.126800 0.000000
-45.067400 0.000000
-45.008000 0.000000
-44.948600 0.000000
-44.889100 0.000000
-44.829700 0.000000
-44.770300 0.000000
-44.710900 0.000000
-44.651500 0.000000
-44.592000 0.000000
-44.532600 0.000000
-44.473200 0.000000
-44.413800 0.000000
-44.354400 0.000000
-44.294900 0.000000
-44.235500 0.000000
-44.176100 0.000000
-44.116700 0.000000
-44.057300 0.000000
-43.997800 0.000000
-43.938400 0.000000
-43.879000 0.000000
-43.819600 0.000000
-43.760200 0.000000
-43.700700 0.000000
-43.641300 0.000000
-43.581900 0.000000
-43.522500 0.000000
-43.463100 0.000000
-43.403600 0.000000
-43.344200 0.000000
-43.284800 0.000000
-43.225400 0.000000
-43.166000 0.000000
-43.106500 0.000000
-43.047100 0.000000
-42.987700 0.000000
-42.928300 0.000000
-42.868900 0.000000
-42.809400 0.000000
-42.750000 0.000000
-42.690600 0.000000
-42.631200 0.000000
-42.571800 0.000000
-42.512300 0.000000
-42.452900 0.000000
-42.393500 0.000000
-42.334100 0.000000
-42.274700 0.000000
-42.215200 0.000000
-42.155800 0.000000
-42.096400 0.000000
-42.037000 0.000000
-41.977600 0.000000
-41.918100 0.000000
-41.858700 0.000000
-41.799300 0.000000
-41.739900 0.000000
-41.680500 0.000000
-41.621000 0.000000
-41.561600 0.000000
-41.502200 0.000000
-41.442800 0.000000
-41.383300 0.000000
-41.323900 0.000000
-41.264500 0.000000
-41.205100 0.000000
-41.145700 0.000000
-41.086200 0.000000
-41.026800 0.000000
-40.967400 0.000000
-40.908000 0.000000
-40.848600 0.000000
-40.789100 0.000000
-40.729700 0.000000
-40.670300 0.000000
-40.610900 0.000000
-40.551500 0.000000
-40.492000 0.000000
-40.432600 5.231200
-40.373200 10.795200
-40.313800 3.786900
-40.254400 5.493000
-40.194900 12.389300
-40.135500 6.688900
-40.076100 0.000000
-40.016700 0.000000
-39.957300 0.000000
-39.897800 0.000000
-39.838400 0.000000
-39.779000 0.000000
-39.719600 0.000000
-39.660200 0.000000
-39.600700 0.000000
-39.541300 0.000000
-39.481900 0.000000
-39.422500 0.000000
-39.363100 0.000000
-39.303600 0.000000
-39.244200 0.000000
-39.184800 0.000000
-39.125400 0.000000
-39.066000 0.000000
-39.006500 0.000000
-38.947100 0.000000
-38.887700 0.000000
-38.828300 0.000000
-38.768900 0.000000
-38.709400 0.000000
-38.650000 0.000000
-38.590600 0.000000
-38.531200 0.000000
-38.471800 0.000000
-38.412300 0.000000
-38.352900 0.000000
-38.293500 0.000000
-38.234100 0.000000
-38.174700 0.000000
-38.115200 0.000000
-38.055800 0.000000
-37.996400 0.000000
-37.937000 0.000000
-37.877600 0.000000
-37.818100 0.000000
-37.758700 0.000000
-37.699300 0.000000
-37.639900 0.000000
-37.580400 0.000000
-37.521000 0.000000
-37.461600 0.000000
-37.402200 0.000000
-37.342800 0.000000
-37.283300 0.000000
-37.223900 0.000000
-37.164500 0.000000
-37.105100 0.000000
-37.045700 0.000000
-36.986200 0.000000
-36.926800 0.000000
-36.867400 0.000000
-36.808000 0.000000
-36.748600 0.000000
-36.689100 0.000000
-36.629700 0.000000
-36.570300 0.000000
-36.510900 0.000000
-36.451500 0.000000
-36.392000 0.000000
-36.332600 0.000000
-36.273200 0.000000
-36.213800 0.000000
-36.154400 0.000000
-36.094900 0.000000
-36.035500 0.000000
-35.976100 0.000000
-35.916700 0.000000
-35.857300 0.000000
-35.797800 0.000000
-35.738400 0.000000
-35.679000 0.000000
-35.619600 0.000000
-35.560200 0.000000
-35.500700 0.000000
-35.441300 0.000000
-35.381900 0.000000
-35.322500 0.000000
-35.263100 0.000000
-35.203600 0.000000
-35.144200 0.000000
-35.084800 0.000000
-35.025400 0.000000
-34.966000 0.000000
-34.906500 0.000000
-34.847100 0.000000
-34.787700 0.000000
-34.728300 0.000000
-34.668900 0.000000
-34.609400 0.000000
-34.550000 0.000000
-34.490600 0.000000
-34.431200 0.000000
-34.371800 0.000000
-34.312300 0.000000
-34.252900 0.000000
-34.193500 0.000000
-34.134100 0.000000
-34.074700 0.000000
-34.015200 0.000000
-33.955800 0.000000
-33.896400 0.000000
-33.837000 0.000000
-33.777500 0.000000
-33.718100 0.000000
-33.658700 0.000000
-33.599300 0.000000
-33.539900 0.000000
-33.480400 0.000000
-33.421000 0.000000
-33.361600 0.000000
-33.302200 0.000000
-33.242800 0.000000
-33.183300 0.000000
-33.123900 0.000000
-33.064500 0.000000
-33.005100 0.000000
-32.945700 0.000000
-32.886200 0.000000
-32.826800 0.000000
-32.767400 0.000000
-32.708000 0.000000
-32.648600 0.000000
-32.589100 0.000000
-32.529700 0.000000
-32.470300 0.000000
-32.410900 0.000000
-32.351500 0.000000
-32.292000 0.000000
-32.232600 0.000000
-32.173200 0.000000
-32.113800 0.000000
-32.054400 0.000000
-31.994900 0.000000
-31.935500 0.000000
-31.876100 0.000000
-31.816700 0.000000
-31.757300 0.000000
-31.697800 0.000000
-31.638400 0.000000
-31.579000 0.000000
-31.519600 0.000000
-31.460200 0.000000
-31.400700 0.000000
-31.341300 0.000000
-31.281900 0.000000
-31.222500 0.000000
-31.163100 0.000000
-31.103600 0.000000
-31.044200 0.000000
-30.984800 0.000000
-30.925400 0.000000
-30.866000 0.000000
-30.806500 0.000000
-30.747100 0.000000
-30.687700 0.000000
-30.628300 0.000000
-30.568900 0.000000
-30.509400 0.000000
-30.450000 0.000000
-30.390600 0.000000
-30.331200 0.000000
-30.271800 0.000000
-30.212300 0.000000
-30.152900 0.000000
-30.093500 0.000000
-30.034100 0.000000
-29.974600 0.000000
-29.915200 0.000000
-29.855800 0.000000
-29.796400 0.000000
-29.737000 0.000000
-29.677500 0.000000
-29.618100 0.000000
-29.558700 0.000000
-29.499300 0.000000
-29.439900 0.000000
-29.380400 0.000000
-29.321000 0.000000
-29.261600 0.000000
-29.202200 0.000000
-29.142800 0.000000
-29.083300 0.000000
-29.023900 0.000000
-28.964500 0.000000
-28.905100 0.000000
-28.845700 0.000000
-28.786200 0.000000
-28.726800 0.000000
-28.667400 0.000000
-28.608000 0.000000
-28.548600 0.000000
-28.489100 0.000000
-28.429700 0.000000
-28.370300 0.000000
-28.310900 0.000000
-28.251500 0.000000
-28.192000 0.000000
-28.132600 0.000000
-28.073200 0.000000
-28.013800 0.000000
-27.954400 0.000000
-27.894900 0.000000
-27.835500 0.000000
-27.776100 0.000000
-27.716700 0.000000
-27.657300 0.000000
-27.597800 0.000000
-27.538400 0.000000
-27.479000 0.000000
-27.419600 0.000000
-27.360200 0.000000
-27.300700 0.000000
-27.241300 0.000000
-27.181900 0.000000
-27.122500 0.000000
-27.063100 0.000000
-27.003600 0.000000
-26.944200 0.000000
-26.884800 0.000000
-26.825400 0.000000
-26.766000 0.000000
-26.706500 0.000000
-26.647100 0.000000
-26.587700 0.000000
-26.528300 0.000000
-26.468900 0.000000
-26.409400 0.000000
-26.350000 0.000000
-26.290600 0.000000
-26.231200 0.000000
-26.171700 0.000000
-26.112300 0.000000
-26.052900 0.000000
-25.993500 0.000000
-25.934100 0.000000
-25.874600 0.000000
-25.815200 0.000000
-25.755800 0.000000
-25.696400 0.000000
-25.637000 0.000000
-25.577500 0.000000
-25.518100 0.000000
-25.458700 0.000000
-25.399300 0.000000
-25.339900 0.000000
-25.280400 0.000000
-25.221000 0.000000
-25.161600 0.000000
-25.102200 0.000000
-25.042800 0.000000
-24.983300 0.000000
-24.923900 0.000000
-24.864500 0.000000
-24.805100 0.000000
-24.745700 0.000000
-24.686200 0.000000
-24.626800 0.000000
-24.567400 0.000000
-24.508000 0.000000
-24.448600 0.000000
-24.389100 0.000000
-24.329700 0.000000
-24.270300 0.000000
-24.210900 0.000000
-24.151500 0.000000
-24.092000 0.000000
-24.032600 0.000000
-23.973200 0.000000
-23.913800 0.000000
-23.854400 0.000000
-23.794900 0.000000
-23.735500 0.000000
-23.676100 0.000000
-23.616700 0.000000
-23.557300 0.000000
-23.497800 0.000000
-23.438400 0.000000
-23.379000 0.000000
-23.319600 0.000000
-23.260200 0.000000
-23.200700 0.000000
-23.141300 0.000000
-23.081900 0.000000
-23.022500 0.000000
-22.963100 0.000000
-22.903600 0.000000
-22.844200 0.000000
-22.784800 0.000000
-22.725400 0.000000
-22.666000 0.000000
-22.606500 0.000000
-22.547100 0.000000
-22.487700 0.000000
-22.428300 0.000000
-22.368900 0.000000
-22.309400 0.000000
-22.250000 0.000000
-22.190600 0.000000
-22.131200 0.000000
-22.071700 0.000000
-22.012300 0.000000
-21.952900 0.000000
-21.893500 0.000000
-21.834100 0.000000
-21.774600 0.000000
-21.715200 0.000000
-21.655800 0.000000
-21.596400 0.000000
-21.537000 0.000000
-21.477500 0.000000
-21.418100 0.000000
-21.358700 0.000000
-21.299300 0.000000
-21.239900 0.000000
-21.180400 0.000000
-21.121000 0.000000
-21.061600 0.000000
-21.002200 0.000000
-20.942800 0.000000
-20.883300 0.000000
-20.823900 0.000000
-20.764500 0.000000
-20.705100 0.000000
-20.645700 0.000000
-20.586200 0.000000
-20.526800 0.000000
-20.467400 0.000000
-20.408000 0.000000
-20.348600 0.000000
-20.289100 0.000000
-20.229700 0.000000
-20.170300 0.000000
-20.110900 0.000000
-20.051500 0.000000
-19.992000 0.000000
-19.932600 0.000000
-19.873200 0.000000
-19.813800 0.000000
-19.754400 0.000000
-19.694900 0.000000
-19.635500 0.000000
-19.576100 0.000000
-19.516700 0.000000
-19.457300 0.000000
-19.397800 0.000000
-19.338400 0.000000
-19.279000 0.000000
-19.219600 0.000000
-19.160200 0.000000
-19.100700 0.000000
-19.041300 0.000000
-18.981900 0.000000
-18.922500 0.000000
-18.863100 0.000000
-18.803600 0.000000
-18.744200 0.000000
-18.684800 0.000000
-18.625400 0.000000
-18.566000 0.000000
-18.506500 0.000000
-18.447100 0.000000
-18.387700 0.000000
-18.328300 0.000000
-18.268800 0.000000
-18.209400 0.000000
-18.150000 0.000000
-18.090600 0.000000
-18.031200 0.000000
-17.971700 0.000000
-17.912300 0.000000
-17.852900 0.000000
-17.793500 0.000000
-17.734100 0.000000
-17.674600 0.000000
-17.615200 0.000000
-17.555800 0.000000
-17.496400 0.000000
-17.437000 0.000000
-17.377500 0.000000
-17.318100 0.000000
-17.258700 0.000000
-17.199300 0.000000
-17.139900 0.000000
-17.080400 0.000000
-17.021000 0.000000
-16.961600 0.000000
-16.902200 0.000000
-16.842800 0.000000
-16.783300 0.000000
-16.723900 0.000000
-16.664500 0.000000
-16.605100 0.000000
-16.545700 0.000000
-16.486200 0.000000
-16.426800 0.000000
-16.367400 0.000000
-16.308000 0.000000
-16.248600 0.000000
-16.189100 0.000000
-16.129700 0.000000
-16.070300 0.000000
-16.010900 0.000000
-15.951500 0.000000
-15.892000 0.000000
-15.832600 0.000000
-15.773200 0.000000
-15.713800 0.000000
-15.654400 0.000000
-15.594900 0.000000
-15.535500 0.000000
-15.476100 0.000000
-15.416700 0.000000
-15.357300 0.000000
-15.297800 0.000000
-15.238400 0.000000
-15.179000 0.000000
-15.119600 0.000000
-15.060200 0.000000
-15.000700 0.000000
-14.941300 0.000000
-14.881900 0.000000
-14.822500 0.000000
-14.763100 0.000000
-14.703600 0.000000
-14.644200 0.000000
-14.584800 0.000000
-14.525400 0.000000
-14.465900 0.000000
-14.406500 0.000000
-14.347100 0.000000
-14.287700 0.000000
-14.228300 0.000000
-14.168800 0.000000
-14.109400 0.000000
-14.050000 0.000000
-13.990600 0.000000
-13.931200 0.000000
-13.871700 0.000000
-13.812300 0.000000
-13.752900 0.000000
-13.693500 0.000000
-13.634100 0.000000
-13.574600 0.000000
-13.515200 0.000000
-13.455800 0.000000
-13.396400 0.000000
-13.337000 0.000000
-13.277500 0.000000
-13.218100 0.000000
-13.158700 0.000000
-13.099300 0.000000
-13.039900 0.000000
-12.980400 0.000000
-12.921000 0.000000
-12.861600 0.000000
-12.802200 0.000000
-12.742800 0.000000
-12.683300 0.000000
-12.623900 0.000000
-12.564500 0.000000
-12.505100 0.000000
-12.445700 0.000000
-12.386200 0.000000
-12.326800 0.000000
-12.267400 0.000000
-12.208000 0.000000
-12.148600 0.000000
-12.089100 0.000000
-12.029700 0.000000
-11.970300 0.000000
-11.910900 0.000000
-11.851500 0.000000
-11.792000 0.000000
-11.732600 0.000000
-11.673200 0.000000
-11.613800 0.000000
-11.554400 0.000000
-11.494900 0.000000
-11.435500 0.000000
-11.376100 0.000000
-11.316700 0.000000
-11.257300 0.000000
-11.197800 0.000000
-11.138400 0.000000
-11.079000 0.000000
-11.019600 0.000000
-10.960200 0.000000
-10.900700 0.000000
-10.841300 0.000000
-10.781900 0.000000
-10.722500 0.000000
-10.663000 0.000000
-10.603600 0.000000
-10.544200 0.000000
-10.484800 0.000000
-10.425400 0.000000
-10.365900 0.000000
-10.306500 0.000000
-10.247100 0.000000
-10.187700 0.000000
-10.128300 0.000000
-10.068800 0.000000
-10.009400 0.000000
-9.950000 0.000000
-9.890600 0.000000
-9.831200 0.000000
-9.771700 0.000000
-9.712300 0.000000
-9.652900 0.000000
-9.593500 0.000000
-9.534100 0.000000
-9.474600 0.000000
-9.415200 0.000000
-9.355800 0.000000
-9.296400 0.000000
-9.237000 0.000000
-9.177500 0.000000
-9.118100 0.000000
-9.058700 0.000000
-8.999300 0.000000
-8.939900 0.000000
-8.880400 0.000000
-8.821000 0.000000
-8.761600 0.000000
-8.702200 0.000000
-8.642800 0.000000
-8.583300 0.000000
-8.523900 0.000000
-8.464500 0.000000
-8.405100 0.000000
-8.345700 0.000000
-8.286200 0.000000
-8.226800 0.000000
-8.167400 0.000000
-8.108000 0.000000
-8.048600 0.000000
-7.989100 0.000000
-7.929700 0.000000
-7.870300 0.000000
-7.810900 0.000000
-7.751500 0.000000
-7.692000 0.000000
-7.632600 0.000000
-7.573200 0.000000
-7.513800 0.000000
-7.454400 0.000000
-7.394900 0.000000
-7.335500 0.000000
-7.276100 0.000000
-7.216700 0.000000
-7.157300 0.000000
-7.097800 0.000000
-7.038400 0.000000
-6.979000 0.000000
-6.919600 0.000000
-6.860100 0.000000
-6.800700 0.000000
-6.741300 0.000000
-6.681900 0.000000
-6.622500 0.000000
-6.563000 0.000000
-6.503600 0.000000
-6.444200 0.000000
-6.384800 0.000000
-6.325400 0.000000
-6.265900 0.000000
-6.206500 0.000000
-6.147100 0.000000
-6.087700 0.000000
-6.028300 0.000000
-5.968800 0.000000
-5.909400 0.000000
-5.850000 0.000000
-5.790600 0.000000
-5.731200 0.000000
-5.671700 0.000000
-5.612300 0.000000
-5.552900 0.000000
-5.493500 0.000000
-5.434100 0.000000
-5.374600 0.000000
-5.315200 0.000000
-5.255800 0.000000
-5.196400 0.000000
-5.137000 0.000000
-5.077500 0.000000
-5.018100 0.000000
-4.958700 0.000000
-4.899300 0.000000
-4.839900 0.000000
-4.780400 0.000000
-4.721000 0.000000
-4.661600 0.000000
-4.602200 0.000000
-4.542800 0.000000
-4.483300 0.000000
-4.423900 0.000000
-4.364500 0.000000
-4.305100 0.000000
-4.245700 0.000000
-4.186200 0.000000
-4.126800 0.000000
-4.067400 0.000000
-4.008000 0.000000
-3.948600 0.000000
-3.889100 0.000000
-3.829700 0.000000
-3.770300 0.000000
-3.710900 0.000000
-3.651500 0.000000
-3.592000 0.000000
-3.532600 0.000000
-3.473200 0.000000
-3.413800 0.000000
-3.354400 0.000000
-3.294900 0.000000
-3.235500 0.000000
-3.176100 0.000000
-3.116700 0.000000
-3.057200 0.000000
-2.997800 0.000000
-2.938400 0.000000
-2.879000 0.000000
-2.819600 0.000000
-2.760100 0.000000
-2.700700 0.000000
-2.641300 0.000000
-2.581900 0.000000
-2.522500 0.000000
-2.463000 0.000000
-2.403600 0.000000
-2.344200 0.000000
-2.284800 0.000000
-2.225400 0.000000
-2.165900 0.000000
-2.106500 0.000000
-2.047100 0.000000
-1.987700 0.000000
-1.928300 0.000000
-1.868800 0.000000
-1.809400 0.000000
-1.750000 0.000000
-1.690600 0.000000
-1.631200 0.001600
-1.571700 0.010100
-1.512300 0.022000
-1.452900 0.024600
-1.393500 0.028400
-1.334100 0.032300
-1.274600 0.036800
-1.215200 0.040900
-1.155800 0.045200
-1.096400 0.048500
-1.037000 0.051300
-0.977500 0.054200
-0.918100 0.057600
-0.858700 0.061300
-0.799300 0.065300
-0.739900 0.069500
-0.680400 0.074000
-0.621000 0.079800
-0.561600 0.087000
-0.502200 0.093800
-0.442800 0.097800
-0.383300 0.094500
-0.323900 0.096400
-0.264500 0.098300
-0.205100 0.100200
-0.145700 0.102000
-0.086200 0.103500
-0.026800 0.104500
0.032600 0.105700
0.092000 0.107500
0.151400 0.109600
0.210900 0.111600
0.270300 0.114000
0.329700 0.116600
0.389100 0.119300
0.448500 0.122200
0.508000 0.125300
0.567400 0.128700
0.626800 0.132900
0.686200 0.137600
0.745700 0.142600
0.805100 0.148300
0.864500 0.154500
0.923900 0.163000
0.983300 0.256300
1.042800 0.373700
1.102200 0.486100
1.161600 0.539600
1.221000 0.559700
1.280400 0.609400
1.339900 0.640700
1.399300 0.645300
1.458700 0.616700
1.518100 0.553300
1.577500 0.479300
1.637000 0.408100
1.696400 0.388500
1.755800 0.401000
1.815200 0.484400
1.874600 0.530100
1.934100 0.570800
1.993500 0.609700
2.052900 0.643900
2.112300 0.689100
2.171700 0.741300
2.231200 0.799200
2.290600 0.872000
2.350000 0.981900
2.409400 0.990000
2.468800 1.012200
2.528300 1.077000
2.587700 1.172800
2.647100 1.471700
2.706500 1.328900
2.765900 1.146200
2.825400 1.166800
2.884800 1.081800
2.944200 1.094100
3.003600 0.995400
3.063000 0.934000
3.122500 0.899400
3.181900 0.695700
3.241300 0.272900
3.300700 0.571300
3.360100 0.752700
3.419600 1.015800
3.479000 1.497900
3.538400 1.515800
3.597800 1.146500
3.657200 1.187300
3.716700 1.142500
3.776100 1.082900
3.835500 1.034400
3.894900 1.068400
3.954300 0.991400
4.013800 0.898900
4.073200 0.916500
4.132600 1.152200
4.192000 1.167100
4.251400 1.282300
4.310900 1.284000
4.370300 1.282500
4.429700 1.465700
4.489100 1.258600
4.548600 1.113800
4.608000 0.987900
4.667400 0.947100
4.726800 0.899200
4.786200 0.873500
4.845700 0.956500
4.905100 0.955100
4.964500 0.938500
5.023900 0.957300
5.083300 0.972200
5.142800 0.978400
5.202200 0.871600
5.261600 0.823100
5.321000 0.780200
5.380400 0.955000
5.439900 1.128500
5.499300 1.171500
5.558700 1.355000
5.618100 1.510500
5.677500 1.469400
5.737000 1.269700
5.796400 1.312500
5.855800 1.688100
5.915200 1.747300
5.974600 1.809100
6.034100 1.666700
6.093500 1.600600
6.152900 1.616600
6.212300 1.678100
6.271700 1.807400
6.331200 1.740900
6.390600 1.820300
6.450000 1.324500
6.509400 1.511300
6.568800 1.228900
6.628300 1.538900
6.687700 1.626000
6.747100 1.583800
6.806500 1.877000
6.865900 1.763400
6.925400 1.585200
6.984800 1.660600
7.044200 1.681300
7.103600 1.590300
7.163000 1.351800
7.222500 1.380600
7.281900 1.581200
7.341300 1.672300
7.400700 1.262800
7.460100 1.470200
7.519600 1.853400
7.579000 1.843100
7.638400 1.608700
7.697800 1.432000
7.757200 1.518200
7.816700 1.501100
7.876100 1.426700
7.935500 1.365000
7.994900 1.306300
8.054300 1.277000
8.113800 1.220000
8.173200 1.140300
8.232600 1.145800
8.292000 1.173400
8.351500 1.198900
8.410900 1.222800
8.470300 1.252500
8.529700 1.309300
8.589100 1.396300
8.648600 1.448700
8.708000 1.598400
8.767400 1.636900
8.826800 1.678200
8.886200 1.964800
8.945700 1.838200
9.005100 1.893500
9.064500 1.500400
9.123900 1.555600
9.183300 1.566100
9.242800 1.619700
9.302200 1.549100
9.361600 1.415300
9.421000 1.325800
9.480400 1.387700
9.539900 0.740600
9.599300 0.719100
9.658700 0.501700
9.718100 0.418800
9.777500 0.365800
9.837000 0.361000
9.896400 0.348500
9.955800 0.334100
10.015200 0.327000
10.074600 0.329100
10.134100 0.322200
10.193500 0.313800
10.252900 0.307300
10.312300 0.305100
10.371700 0.303200
10.431200 0.301500
10.490600 0.299900
10.550000 0.299600
10.609400 0.299300
10.668800 0.299000
10.728300 0.298400
10.787700 0.297600
10.847100 0.298200
10.906500 0.299100
10.965900 0.299100
11.025400 0.299200
11.084800 0.299300
11.144200 0.299400
11.203600 0.299500
11.263000 0.299800
11.322500 0.302600
11.381900 0.311300
11.441300 0.291300
11.500700 0.285500
11.560100 0.285000
11.619600 0.283300
11.679000 0.280600
11.738400 0.278000
11.797800 0.274500
11.857200 0.271300
11.916700 0.268500
11.976100 0.265900
12.035500 0.263300
12.094900 0.261000
12.154400 0.259000
12.213800 0.257400
12.273200 0.256300
12.332600 0.255100
12.392000 0.254400
12.451500 0.255500
12.510900 0.257400
12.570300 0.266200
12.629700 0.261600
12.689100 0.248400
12.748600 0.245200
12.808000 0.245700
12.867400 0.247200
12.926800 0.245100
12.986200 0.241900
13.045700 0.236500
13.105100 0.232400
13.164500 0.231000
13.223900 0.232900
13.283300 0.241000
13.342800 0.258500
13.402200 0.252500
13.461600 0.230400
13.521000 0.222900
13.580400 0.213800
13.639900 0.201700
13.699300 0.192500
13.758700 0.184400
13.818100 0.179700
13.877500 0.177200
13.937000 0.187800
13.996400 0.193700
14.055800 0.183900
14.115200 0.180700
14.174600 0.185600
14.234100 0.193600
14.293500 0.206300
14.352900 0.226400
14.412300 0.234100
14.471700 0.232000
14.531200 0.221000
14.590600 0.211200
14.650000 0.201800
14.709400 0.192100
14.768800 0.183000
14.828300 0.170800
14.887700 0.157600
14.947100 0.148000
15.006500 0.141200
15.065900 0.136200
15.125400 0.129400
15.184800 0.123200
15.244200 0.126200
15.303600 0.131300
15.363000 0.137800
15.422500 0.143600
15.481900 0.150100
15.541300 0.154100
15.600700 0.160500
15.660100 0.175400
15.719600 0.202500
15.779000 0.233300
15.838400 0.289600
15.897800 0.353700
15.957300 0.335200
16.016700 0.313100
16.076100 0.323400
16.135500 0.312700
16.194900 0.287400
16.254400 0.278500
16.313800 0.277300
16.373200 0.419600
16.432600 0.390600
16.492000 0.361600
16.551500 0.348500
16.610900 0.338400
16.670300 0.332700
16.729700 0.322800
16.789100 0.306600
16.848600 0.296000
16.908000 0.288100
16.967400 0.282300
17.026800 0.280600
17.086200 0.281800
17.145700 0.285200
17.205100 0.288600
17.264500 0.292600
17.323900 0.298800
17.383300 0.297300
17.442800 0.291500
17.502200 0.285800
17.561600 0.279200
17.621000 0.271200
17.680400 0.264600
17.739900 0.255500
17.799300 0.243700
17.858700 0.231600
17.918100 0.222300
17.977500 0.214900
18.037000 0.206900
18.096400 0.204100
18.155800 0.200400
18.215200 0.199100
18.274600 0.202500
18.334100 0.204000
18.393500 0.208700
18.452900 0.219700
18.512300 0.240700
18.571700 0.261800
18.631200 0.279800
18.690600 0.302000
18.750000 0.332400
18.809400 0.353400
18.868800 0.370400
18.928300 0.376500
18.987700 0.367500
19.047100 0.348700
19.106500 0.337100
19.165900 0.336800
19.225400 0.337800
19.284800 0.340100
19.344200 0.344400
19.403600 0.336500
19.463000 0.350800
19.522500 0.356900
19.581900 0.409600
19.641300 0.449500
19.700700 0.434800
19.760200 0.415800
19.819600 0.417300
19.879000 0.428200
19.938400 0.430400
19.997800 0.429900
20.057300 0.421500
20.116700 0.412800
20.176100 0.453300
20.235500 0.447600
20.294900 0.460200
20.354400 0.468000
20.413800 0.469900
20.473200 0.460500
20.532600 0.459100
20.592000 0.451600
20.651500 0.428700
20.710900 0.419400
20.770300 0.416700
20.829700 0.417100
20.889100 0.420400
20.948600 0.426100
21.008000 0.440100
21.067400 0.450300
21.126800 0.456700
21.186200 0.476700
21.245700 0.496200
21.305100 0.510000
21.364500 0.511100
21.423900 0.517300
21.483300 0.522400
21.542800 0.526600
21.602200 0.561300
21.661600 0.575200
21.721000 0.560500
21.780400 0.560600
21.839900 0.566200
21.899300 0.555000
21.958700 0.531600
22.018100 0.516900
22.077500 0.506400
22.137000 0.500900
22.196400 0.495700
22.255800 0.491600
22.315200 0.488900
22.374600 0.483800
22.434100 0.481100
22.493500 0.484100
22.552900 0.480400
22.612300 0.477200
22.671700 0.475000
22.731200 0.473800
22.790600 0.475100
22.850000 0.476200
22.909400 0.479900
22.968800 0.482600
23.028300 0.485200
23.087700 0.484900
23.147100 0.485000
23.206500 0.484000
23.265900 0.491900
23.325400 0.485200
23.384800 0.488800
23.444200 0.488600
23.503600 0.486000
23.563100 0.485200
23.622500 0.481300
23.681900 0.475200
23.741300 0.449800
23.800700 0.452700
23.860200 0.457700
23.919600 0.466100
23.979000 0.467600
24.038400 0.467100
24.097800 0.469500
24.157300 0.473900
24.216700 0.481400
24.276100 0.489400
24.335500 0.496800
24.394900 0.504700
24.454400 0.548600
24.513800 0.560400
24.573200 0.526800
24.632600 0.511200
24.692000 0.509100
24.751500 0.478900
24.810900 0.456300
24.870300 0.445700
24.929700 0.438600
24.989100 0.436100
25.048600 0.455800
25.108000 0.517900
25.167400 0.565800
25.226800 0.648000
25.286200 0.654400
25.345700 0.637200
25.405100 0.626800
25.464500 0.626900
25.523900 0.605200
25.583300 0.581000
25.642800 0.583400
25.702200 0.540100
25.761600 0.508800
25.821000 0.478100
25.880400 0.454900
25.939900 0.460200
25.999300 0.500200
26.058700 0.592000
26.118100 0.646600
26.177500 0.629500
26.237000 0.622300
26.296400 0.605500
26.355800 0.624800
26.415200 0.591000
26.474600 0.564200
26.534100 0.552900
26.593500 0.551200
26.652900 0.552300
26.712300 0.542000
26.771700 0.533500
26.831200 0.531100
26.890600 0.525700
26.950000 0.515900
27.009400 0.512100
27.068800 0.511100
27.128300 0.506000
27.187700 0.488100
27.247100 0.475100
27.306500 0.455300
27.366000 0.433500
27.425400 0.427000
27.484800 0.423600
27.544200 0.422400
27.603600 0.423000
27.663100 0.424100
27.722500 0.425800
27.781900 0.425500
27.841300 0.430700
27.900700 0.432300
27.960200 0.410600
28.019600 0.391200
28.079000 0.369300
28.138400 0.356500
28.197800 0.357500
28.257300 0.357500
28.316700 0.365500
28.376100 0.391700
28.435500 0.390000
28.494900 0.402900
28.554400 0.422200
28.613800 0.449600
28.673200 0.482600
28.732600 0.485000
28.792000 0.496200
28.851500 0.483200
28.910900 0.461900
28.970300 0.472400
29.029700 0.472800
29.089100 0.475400
29.148600 0.491500
29.208000 0.505300
29.267400 0.522600
29.326800 0.544500
29.386200 0.554900
29.445700 0.551800
29.505100 0.575900
29.564500 0.558200
29.623900 0.541000
29.683300 0.499200
29.742800 0.498900
29.802200 0.505500
29.861600 0.520100
29.921000 0.534900
29.980400 0.551100
30.039900 0.591200
30.099300 0.614500
30.158700 0.627000
30.218100 0.606300
30.277500 0.595300
30.337000 0.579300
30.396400 0.558100
30.455800 0.545500
30.515200 0.552800
30.574600 0.573100
30.634100 0.572100
30.693500 0.584800
30.752900 0.619600
30.812300 0.688600
30.871700 0.748100
30.931200 0.810900
30.990600 0.766600
31.050000 0.723300
31.109400 0.702100
31.168900 0.693900
31.228300 0.695500
31.287700 0.692500
31.347100 0.687000
31.406500 0.684100
31.466000 0.665000
31.525400 0.626400
31.584800 0.566200
31.644200 0.531600
31.703600 0.538200
31.763100 0.555100
31.822500 0.546100
31.881900 0.529300
31.941300 0.500200
32.000700 0.503600
32.060200 0.492700
32.119600 0.461300
32.179000 0.457100
32.238400 0.464900
32.297800 0.497000
32.357300 0.541800
32.416700 0.541900
32.476100 0.493500
32.535500 0.470900
32.594900 0.465500
32.654400 0.464000
32.713800 0.456200
32.773200 0.454000
32.832600 0.460800
32.892000 0.436700
32.951500 0.414700
33.010900 0.394900
33.070300 0.378600
33.129700 0.358700
33.189100 0.336200
33.248600 0.320100
33.308000 0.303900
33.367400 0.285300
33.426800 0.261700
33.486200 0.233500
33.545700 0.211400
33.605100 0.190200
33.664500 0.179800
33.723900 0.173300
33.783300 0.171000
33.842800 0.168500
33.902200 0.169500
33.961600 0.174300
34.021000 0.183100
34.080400 0.187600
34.139900 0.214600
34.199300 0.251800
34.258700 0.296700
34.318100 0.347900
34.377500 0.388400
34.437000 0.417600
34.496400 0.474300
34.555800 0.496800
34.615200 0.502700
34.674600 0.509600
34.734100 0.518600
34.793500 0.525100
34.852900 0.520300
34.912300 0.524100
34.971700 0.566000
35.031200 0.555200
35.090600 0.551300
35.150000 0.549000
35.209400 0.556800
35.268900 0.578600
35.328300 0.601900
35.387700 0.613100
35.447100 0.628600
35.506500 0.621300
35.566000 0.610200
35.625400 0.627600
35.684800 0.626300
35.744200 0.565200
35.803600 0.546300
35.863100 0.547800
35.922500 0.546500
35.981900 0.552700
36.041300 0.565600
36.100700 0.575300
36.160200 0.612000
36.219600 0.650100
36.279000 0.697500
36.338400 0.746800
36.397800 0.792200
36.457300 0.843400
36.516700 0.858300
36.576100 0.835600
36.635500 0.843800
36.694900 0.752400
36.754400 0.643300
36.813800 0.589700
36.873200 0.530900
36.932600 0.486900
36.992000 0.474300
37.051500 0.474900
37.110900 0.475800
37.170300 0.471700
37.229700 0.471800
37.289100 0.480000
37.348600 0.491400
37.408000 0.520500
37.467400 0.546100
37.526800 0.552700
37.586200 0.551300
37.645700 0.569500
37.705100 0.558500
37.764500 0.559200
37.823900 0.580600
37.883300 0.618200
37.942800 0.661600
38.002200 0.642800
38.061600 0.621400
38.121000 0.611000
38.180400 0.602700
38.239900 0.609400
38.299300 0.635000
38.358700 0.633800
38.418100 0.650700
38.477500 0.707000
38.537000 0.722000
38.596400 0.708600
38.655800 0.716300
38.715200 0.724100
38.774600 0.704500
38.834100 0.683000
38.893500 0.683600
38.952900 0.684100
39.012300 0.682800
39.071800 0.669200
39.131200 0.666400
39.190600 0.701700
39.250000 0.705200
39.309400 0.679100
39.368900 0.658900
39.428300 0.650800
39.487700 0.650100
39.547100 0.686000
39.606500 0.722900
39.666000 0.788600
39.725400 0.904200
39.784800 0.950500
39.844200 1.004800
39.903600 1.109700
39.963100 1.329200
40.022500 1.533600
40.081900 1.858200
40.141300 2.453800
40.200700 3.646000
40.260200 6.359500
40.319600 12.341500
40.379000 5.174600
40.438400 6.687900
40.497800 3.348200
40.557300 2.780700
40.616700 2.097400
40.676100 1.572600
40.735500 1.332900
40.794900 1.301900
40.854400 1.110100
40.913800 1.028700
40.973200 0.976100
41.032600 0.937600
41.092000 0.851700
41.151500 0.799900
41.210900 0.774400
41.270300 0.741200
41.329700 0.726000
41.389100 0.713400
41.448600 0.707500
41.508000 0.663300
41.567400 0.621300
41.626800 0.617000
41.686200 0.627900
41.745700 0.614000
41.805100 0.603900
41.864500 0.610800
41.923900 0.608500
41.983300 0.603900
42.042800 0.593900
42.102200 0.579000
42.161600 0.573500
42.221000 0.588200
42.280400 0.596200
42.339900 0.578700
42.399300 0.580200
42.458700 0.582900
42.518100 0.568400
42.577500 0.556000
42.637000 0.549800
42.696400 0.546500
42.755800 0.536400
42.815200 0.542400
42.874700 0.552600
42.934100 0.554700
42.993500 0.575000
43.052900 0.588400
43.112300 0.592400
43.171800 0.603900
43.231200 0.618400
43.290600 0.626500
43.350000 0.663700
43.409400 0.656400
43.468900 0.624200
43.528300 0.615300
43.587700 0.609000
43.647100 0.595600
43.706500 0.578500
43.766000 0.571700
43.825400 0.569800
43.884800 0.564200
43.944200 0.554000
44.003600 0.547100
44.063100 0.538200
44.122500 0.539200
44.181900 0.546300
44.241300 0.547600
44.300700 0.548000
44.360200 0.562100
44.419600 0.548300
44.479000 0.537300
44.538400 0.530000
44.597800 0.526600
44.657300 0.525800
44.716700 0.525300
44.776100 0.544400
44.835500 0.548100
44.894900 0.557700
44.954400 0.549800
45.013800 0.542600
45.073200 0.534800
45.132600 0.524800
45.192000 0.528100
45.251500 0.556200
45.310900 0.562000
45.370300 0.564400
45.429700 0.566100
45.489100 0.565700
45.548600 0.556600
45.608000 0.543200
45.667400 0.548500
45.726800 0.566900
45.786200 0.578500
45.845700 0.583000
45.905100 0.587100
45.964500 0.586300
46.023900 0.589100
46.083300 0.592100
46.142800 0.599100
46.202200 0.634700
46.261600 0.635500
46.321000 0.651000
46.380400 0.673600
46.439900 0.697600
46.499300 0.713000
46.558700 0.724900
46.618100 0.715600
46.677600 0.707500
46.737000 0.699500
46.796400 0.699200
46.855800 0.732500
46.915200 0.687900
46.974700 0.677900
47.034100 0.692200
47.093500 0.719500
47.152900 0.716400
47.212300 0.694500
47.271800 0.683400
47.331200 0.673600
47.390600 0.681600
47.450000 0.712900
47.509400 0.735100
47.568900 0.757400
47.628300 0.777700
47.687700 0.805000
47.747100 0.846600
47.806500 0.855500
47.866000 0.867400
47.925400 0.924900
47.984800 0.866900
48.044200 0.899200
48.103600 0.964300
48.163100 0.990200
48.222500 1.029200
48.281900 1.085000
48.341300 1.119800
48.400700 1.102600
48.460200 1.081100
48.519600 1.073100
48.579000 1.081200
48.638400 1.091900
48.697800 1.096400
48.757300 1.091700
48.816700 1.085800
48.876100 1.063800
48.935500 1.060500
48.994900 1.110100
49.054400 1.089600
49.113800 1.084500
49.173200 1.117400
49.232600 1.132100
49.292000 1.008000
49.351500 1.005500
49.410900 0.982300
49.470300 0.964900
49.529700 0.962000
49.589100 0.964900
49.648600 0.972600
49.708000 0.927800
49.767400 0.888900
49.826800 0.871400
49.886200 0.891000
49.945700 0.936700
50.005100 1.011000
50.064500 1.119800
50.123900 1.108300
50.183300 0.985600
50.242800 0.931700
50.302200 0.928700
50.361600 0.951300
50.421000 0.923600
50.480500 0.918100
50.539900 0.893900
50.599300 0.835100
50.658700 0.841100
50.718100 0.865100
50.777600 0.787800
50.837000 0.755400
50.896400 0.736600
50.955800 0.731100
51.015200 0.751300
51.074700 0.761000
51.134100 0.775600
51.193500 0.808200
51.252900 0.806300
51.312300 0.781200
51.371800 0.770800
51.431200 0.772900
51.490600 0.784600
51.550000 0.788200
51.609400 0.788300
51.668900 0.790400
51.728300 0.784200
51.787700 0.751600
51.847100 0.724700
51.906500 0.716100
51.966000 0.729100
52.025400 0.746700
52.084800 0.712800
52.144200 0.651500
52.203600 0.622700
52.263100 0.605300
52.322500 0.564100
52.381900 0.516600
52.441300 0.478600
52.500700 0.459700
52.560200 0.439600
52.619600 0.431400
52.679000 0.441400
52.738400 0.466700
52.797800 0.498900
52.857300 0.548500
52.916700 0.632800
52.976100 0.687900
53.035500 0.698800
53.094900 0.706400
53.154400 0.737500
53.213800 0.725800
53.273200 0.740300
53.332600 0.736100
53.392000 0.744100
53.451500 0.756200
53.510900 0.753600
53.570300 0.792900
53.629700 0.783300
53.689100 0.736300
53.748600 0.724200
53.808000 0.714300
53.867400 0.714100
53.926800 0.722200
53.986200 0.728700
54.045700 0.737800
54.105100 0.718100
54.164500 0.706700
54.223900 0.706400
54.283400 0.700000
54.342800 0.700500
54.402200 0.708400
54.461600 0.739700
54.521000 0.723200
54.580500 0.690300
54.639900 0.637700
54.699300 0.613600
54.758700 0.596300
54.818100 0.564600
54.877600 0.533900
54.937000 0.502500
54.996400 0.489400
55.055800 0.486500
55.115200 0.491000
55.174700 0.513900
55.234100 0.530600
55.293500 0.581300
55.352900 0.616400
55.412300 0.656300
55.471800 0.705200
55.531200 0.782200
55.590600 0.854600
55.650000 0.850300
55.709400 0.819300
55.768900 0.782900
55.828300 0.748600
55.887700 0.730500
55.947100 0.733600
56.006500 0.733600
56.066000 0.743100
56.125400 0.768300
56.184800 0.763000
56.244200 0.756300
56.303600 0.741800
56.363100 0.734400
56.422500 0.714800
56.481900 0.713100
56.541300 0.714700
56.600700 0.721500
56.660200 0.724700
56.719600 0.724500
56.779000 0.724400
56.838400 0.699800
56.897800 0.696300
56.957300 0.660800
57.016700 0.608000
57.076100 0.631800
57.135500 0.665500
57.194900 0.706700
57.254400 0.754100
57.313800 0.768400
57.373200 0.800400
57.432600 0.839700
57.492000 0.857900
57.551500 0.890200
57.610900 0.901400
57.670300 0.902000
57.729700 0.883700
57.789100 0.869500
57.848600 0.854500
57.908000 0.839700
57.967400 0.876000
58.026800 0.859500
58.086300 0.876200
58.145700 0.888000
58.205100 0.903100
58.264500 0.875200
58.323900 0.820700
58.383400 0.784700
58.442800 0.766700
58.502200 0.759900
58.561600 0.759400
58.621000 0.771900
58.680500 0.740600
58.739900 0.727100
58.799300 0.734500
58.858700 0.750200
58.918100 0.781100
58.977600 0.825900
59.037000 0.869500
59.096400 0.889800
59.155800 0.891500
59.215200 0.895100
59.274700 0.907900
59.334100 0.940900
59.393500 0.938800
59.452900 0.931500
59.512300 0.965900
59.571800 0.997400
59.631200 1.010800
59.690600 1.021500
59.750000 0.940900
59.809400 0.902100
59.868900 0.890100
59.928300 0.863100
59.987700 0.839000
60.047100 0.832500
60.106500 0.836100
60.166000 0.849400
60.225400 0.873300
60.284800 0.890200
60.344200 0.890100
60.403600 1.023700
60.463100 0.999300
60.522500 0.968400
60.581900 0.985000
60.641300 1.006500
60.700700 1.062100
60.760200 1.137700
60.819600 1.079700
60.879000 1.003900
60.938400 0.928800
60.997800 0.878500
61.057300 0.809800
61.116700 0.781600
61.176100 0.799500
61.235500 0.931100
61.294900 1.025100
61.354400 1.082200
61.413800 1.088700
61.473200 1.116200
61.532600 1.148200
61.592000 1.121500
61.651500 1.083800
61.710900 0.986300
61.770300 0.928900
61.829700 0.775900
61.889200 0.734600
61.948600 0.710900
62.008000 0.730000
62.067400 0.821100
62.126800 0.887100
62.186300 0.917100
62.245700 0.941100
62.305100 0.982200
62.364500 0.942600
62.423900 0.865200
62.483400 0.841800
62.542800 0.894600
62.602200 0.938200
62.661600 0.924600
62.721000 0.847200
62.780500 0.792500
62.839900 0.755500
62.899300 0.707300
62.958700 0.609500
63.018100 0.563100
63.077600 0.545900
63.137000 0.536900
63.196400 0.525700
63.255800 0.527100
63.315200 0.523200
63.374700 0.521800
63.434100 0.526500
63.493500 0.543600
63.552900 0.571000
63.612300 0.598600
63.671800 0.628000
63.731200 0.642100
63.790600 0.660300
63.850000 0.633800
63.909400 0.626400
63.968900 0.551400
64.028300 0.533800
64.087700 0.530100
64.147100 0.512000
64.206500 0.492500
64.266000 0.472100
64.325400 0.432200
64.384800 0.404800
64.444200 0.392000
64.503600 0.383300
64.563100 0.359600
64.622500 0.310900
64.681900 0.273000
64.741300 0.243500
64.800700 0.223100
64.860200 0.205200
64.919600 0.183500
64.979000 0.170900
65.038400 0.158900
65.097800 0.135300
65.157300 0.117000
65.216700 0.104600
65.276100 0.088400
65.335500 0.085100
65.394900 0.084800
65.454400 0.084800
65.513800 0.085100
65.573200 0.094200
65.632600 0.083200
65.692100 0.078500
65.751500 0.075300
65.810900 0.070700
65.870300 0.064500
65.929700 0.057600
65.989200 0.050300
66.048600 0.040900
66.108000 0.033100
66.167400 0.027400
66.226800 0.024000
66.286300 0.022300
66.345700 0.020300
66.405100 0.018400
66.464500 0.016600
66.523900 0.014900
66.583400 0.013200
66.642800 0.011700
66.702200 0.010100
66.761600 0.008300
66.821000 0.006200
66.880500 0.004000
66.939900 0.002700
66.999300 0.001700
67.058700 0.000900
67.118100 0.000400
67.177600 0.000100
67.237000 0.000000
67.296400 0.000000
67.355800 0.000000
67.415200 0.000000
67.474700 0.000000
67.534100 0.000000
67.593500 0.000000
67.652900 0.000000
67.712300 0.000000
67.771800 0.000000
67.831200 0.000000
67.890600 0.000000
67.950000 0.000000
68.009400 0.000000
68.068900 0.000000
68.128300 0.000000
68.187700 0.000000
68.247100 0.000000
68.306500 0.000000
68.366000 0.000000
68.425400 0.000000
68.484800 0.000000
68.544200 0.000000
68.603600 0.000000
68.663100 0.000000
68.722500 0.000000
68.781900 0.000000
68.841300 0.000000
68.900700 0.000000
68.960200 0.000000
69.019600 0.000000
69.079000 0.000000
69.138400 0.000000
69.197800 0.000000
69.257300 0.000000
69.316700 0.000000
69.376100 0.000000
69.435500 0.000000
69.495000 0.000000
69.554400 0.000000
69.613800 0.000000
69.673200 0.000000
69.732600 0.000000
69.792100 0.000000
69.851500 0.000000
69.910900 0.000000
69.970300 0.000000
70.029700 0.000000
70.089200 0.000000
70.148600 0.000000
70.208000 0.000000
70.267400 0.000000
70.326800 0.000000
70.386300 0.000000
70.445700 0.000000
70.505100 0.000000
70.564500 0.000000
70.623900 0.000000
70.683400 0.000000
70.742800 0.000000
70.802200 0.000000
70.861600 0.000000
70.921000 0.000000
70.980500 0.000000
71.039900 0.000000
71.099300 0.000000
71.158700 0.000000
71.218100 0.000000
71.277600 0.000000
71.337000 0.000000
71.396400 0.000000
71.455800 0.000000
71.515200 0.000000
71.574700 0.000000
71.634100 0.000000
71.693500 0.000000
71.752900 0.000000
71.812300 0.000000
71.871800 0.000000
71.931200 0.000000
71.990600 0.000000
72.050000 0.000000
72.109400 0.000000
72.168900 0.000000
72.228300 0.000000
72.287700 0.000000
72.347100 0.000000
72.406500 0.000000
72.466000 0.000000
72.525400 0.000000
72.584800 0.000000
72.644200 0.000000
72.703600 0.000000
72.763100 0.000000
72.822500 0.000000
72.881900 0.000000
72.941300 0.000000
73.000700 0.000000
e
