set title 'mp-1025565 - Density of States'
set xlabel 'Energy (eV)'
set ylabel 'DOS (states/eV)'
set grid
set xrange [-10:10]
set yrange [0:13.019]
set xzeroaxis lt -1
set terminal png size 800,600
set output 'mp-1025565_dos_gnuplot.png'
plot '-' using 1:2 with lines title 'DOS'
-24.799300 0.000000
-24.773500 0.000000
-24.747700 0.000000
-24.721900 0.000000
-24.696200 0.000000
-24.670400 0.000000
-24.644600 0.000000
-24.618800 0.000000
-24.593000 0.000000
-24.567200 0.000000
-24.541500 0.000000
-24.515700 0.000000
-24.489900 0.000000
-24.464100 0.000000
-24.438300 0.000000
-24.412600 0.000000
-24.386800 0.000000
-24.361000 0.000000
-24.335200 0.000000
-24.309400 0.000000
-24.283600 0.000000
-24.257900 0.000000
-24.232100 0.000000
-24.206300 0.000000
-24.180500 0.000000
-24.154700 0.000000
-24.128900 0.000000
-24.103200 0.000000
-24.077400 0.000000
-24.051600 0.000000
-24.025800 0.000000
-24.000000 0.000000
-23.974200 0.000000
-23.948500 0.000000
-23.922700 0.000000
-23.896900 0.000000
-23.871100 0.000000
-23.845300 0.000000
-23.819600 0.000000
-23.793800 0.000000
-23.768000 0.000000
-23.742200 0.000000
-23.716400 0.000000
-23.690600 0.000000
-23.664900 0.000000
-23.639100 0.000000
-23.613300 0.000000
-23.587500 0.000000
-23.561700 0.000000
-23.535900 0.000000
-23.510200 0.000000
-23.484400 0.000000
-23.458600 0.000000
-23.432800 0.000000
-23.407000 0.000000
-23.381200 0.000000
-23.355500 0.000000
-23.329700 0.000000
-23.303900 0.000000
-23.278100 0.000000
-23.252300 0.000000
-23.226600 0.000000
-23.200800 0.000000
-23.175000 0.000000
-23.149200 0.000000
-23.123400 0.000000
-23.097600 0.000000
-23.071900 0.000000
-23.046100 0.000000
-23.020300 0.000000
-22.994500 0.000000
-22.968700 0.000000
-22.942900 0.000000
-22.917200 0.000000
-22.891400 0.000000
-22.865600 0.000000
-22.839800 0.000000
-22.814000 0.000000
-22.788200 0.000000
-22.762500 0.000000
-22.736700 0.000000
-22.710900 0.000000
-22.685100 0.000000
-22.659300 0.000000
-22.633600 0.000000
-22.607800 0.000000
-22.582000 0.000000
-22.556200 0.000000
-22.530400 0.000000
-22.504600 0.000000
-22.478900 0.000000
-22.453100 0.000000
-22.427300 0.000000
-22.401500 0.000000
-22.375700 0.000000
-22.349900 0.000000
-22.324200 0.000000
-22.298400 5.373800
-22.272600 5.700400
-22.246800 3.954300
-22.221000 7.684600
-22.195200 6.600100
-22.169500 6.244200
-22.143700 6.582100
-22.117900 7.763200
-22.092100 9.470600
-22.066300 6.787200
-22.040600 5.388400
-22.014800 2.220000
-21.989000 2.721600
-21.963200 3.738000
-21.937400 4.476700
-21.911600 4.591900
-21.885900 5.185400
-21.860100 6.188300
-21.834300 5.893100
-21.808500 6.962700
-21.782700 6.534600
-21.756900 7.494600
-21.731200 7.755800
-21.705400 17.125300
-21.679600 25.148700
-21.653800 15.127200
-21.628000 3.820800
-21.602200 3.272600
-21.576500 2.894700
-21.550700 2.895300
-21.524900 3.584100
-21.499100 5.546500
-21.473300 3.712100
-21.447600 0.150600
-21.421800 0.000000
-21.396000 0.000000
-21.370200 0.000000
-21.344400 0.000000
-21.318600 0.000000
-21.292900 0.000000
-21.267100 0.000000
-21.241300 0.000000
-21.215500 0.000000
-21.189700 0.000000
-21.163900 0.000000
-21.138200 0.000000
-21.112400 0.000000
-21.086600 0.000000
-21.060800 0.000000
-21.035000 0.000000
-21.009200 0.000000
-20.983500 0.000000
-20.957700 0.000000
-20.931900 0.000000
-20.906100 0.000000
-20.880300 0.000000
-20.854600 0.000000
-20.828800 0.000000
-20.803000 0.000000
-20.777200 0.000000
-20.751400 0.000000
-20.725600 0.000000
-20.699900 0.000000
-20.674100 0.000000
-20.648300 0.000000
-20.622500 0.000000
-20.596700 0.000000
-20.570900 0.000000
-20.545200 0.000000
-20.519400 0.000000
-20.493600 0.000000
-20.467800 0.000000
-20.442000 0.000000
-20.416200 0.000000
-20.390500 0.000000
-20.364700 0.000000
-20.338900 0.000000
-20.313100 0.000000
-20.287300 0.000000
-20.261600 0.000000
-20.235800 0.000000
-20.210000 0.000000
-20.184200 0.000000
-20.158400 0.000000
-20.132600 0.000000
-20.106900 0.000000
-20.081100 0.000000
-20.055300 0.000000
-20.029500 0.000000
-20.003700 0.000000
-19.977900 0.000000
-19.952200 0.000000
-19.926400 0.000000
-19.900600 0.000000
-19.874800 0.000000
-19.849000 0.000000
-19.823200 0.000000
-19.797500 0.000000
-19.771700 0.000000
-19.745900 0.000000
-19.720100 0.000000
-19.694300 0.000000
-19.668500 0.000000
-19.642800 0.000000
-19.617000 0.000000
-19.591200 0.000000
-19.565400 0.000000
-19.539600 0.000000
-19.513900 0.000000
-19.488100 0.000000
-19.462300 0.000000
-19.436500 0.000000
-19.410700 0.000000
-19.384900 0.000000
-19.359200 0.000000
-19.333400 0.000000
-19.307600 0.000000
-19.281800 0.000000
-19.256000 0.000000
-19.230200 0.000000
-19.204500 0.000000
-19.178700 0.000000
-19.152900 0.000000
-19.127100 0.000000
-19.101300 0.000000
-19.075500 0.000000
-19.049800 0.000000
-19.024000 0.000000
-18.998200 0.000000
-18.972400 0.000000
-18.946600 0.000000
-18.920900 0.000000
-18.895100 0.000000
-18.869300 0.000000
-18.843500 0.000000
-18.817700 0.000000
-18.791900 0.000000
-18.766200 0.000000
-18.740400 0.000000
-18.714600 0.000000
-18.688800 0.000000
-18.663000 0.000000
-18.637200 0.000000
-18.611500 0.000000
-18.585700 0.000000
-18.559900 0.000000
-18.534100 0.000000
-18.508300 0.000000
-18.482500 0.000000
-18.456800 0.000000
-18.431000 0.000000
-18.405200 0.000000
-18.379400 0.000000
-18.353600 0.000000
-18.327900 0.000000
-18.302100 0.000000
-18.276300 0.000000
-18.250500 0.000000
-18.224700 0.000000
-18.198900 0.000000
-18.173200 0.000000
-18.147400 0.000000
-18.121600 0.000000
-18.095800 0.000000
-18.070000 0.000000
-18.044200 0.000000
-18.018500 0.000000
-17.992700 0.000000
-17.966900 0.000000
-17.941100 0.000000
-17.915300 0.000000
-17.889500 0.000000
-17.863800 0.000000
-17.838000 0.000000
-17.812200 0.000000
-17.786400 0.000000
-17.760600 0.000000
-17.734900 0.000000
-17.709100 0.000000
-17.683300 0.000000
-17.657500 0.000000
-17.631700 0.000000
-17.605900 0.000000
-17.580200 0.000000
-17.554400 0.000000
-17.528600 0.000000
-17.502800 0.000000
-17.477000 0.000000
-17.451200 0.000000
-17.425500 0.000000
-17.399700 0.000000
-17.373900 0.000000
-17.348100 0.000000
-17.322300 0.013500
-17.296500 0.091300
-17.270800 0.167800
-17.245000 0.198500
-17.219200 0.230900
-17.193400 0.275400
-17.167600 0.312800
-17.141900 0.344000
-17.116100 0.382500
-17.090300 0.418700
-17.064500 0.456400
-17.038700 0.494700
-17.012900 0.532900
-16.987200 0.581800
-16.961400 0.637900
-16.935600 0.705500
-16.909800 0.781300
-16.884000 0.862900
-16.858200 1.078200
-16.832500 0.962100
-16.806700 0.967900
-16.780900 0.956900
-16.755100 0.932200
-16.729300 0.927000
-16.703500 0.806900
-16.677800 0.780700
-16.652000 0.756100
-16.626200 0.734300
-16.600400 0.713700
-16.574600 0.702000
-16.548900 0.791600
-16.523100 0.841000
-16.497300 0.919100
-16.471500 1.014800
-16.445700 1.121100
-16.419900 1.575800
-16.394200 1.550800
-16.368400 1.649100
-16.342600 1.722800
-16.316800 1.800000
-16.291000 1.880000
-16.265200 1.968700
-16.239500 2.142000
-16.213700 2.265000
-16.187900 2.368800
-16.162100 2.549300
-16.136300 2.732000
-16.110500 3.388300
-16.084800 3.862200
-16.059000 4.481100
-16.033200 5.736100
-16.007400 3.725100
-15.981600 2.853200
-15.955900 2.465500
-15.930100 19.168700
-15.904300 6.900500
-15.878500 2.768300
-15.852700 2.509300
-15.826900 2.268000
-15.801200 0.092800
-15.775400 0.010600
-15.749600 0.000000
-15.723800 1.199000
-15.698000 1.225200
-15.672200 1.261100
-15.646500 1.306900
-15.620700 1.321700
-15.594900 1.388300
-15.569100 1.506800
-15.543300 1.680900
-15.517500 2.033100
-15.491800 2.326100
-15.466000 2.856800
-15.440200 3.774600
-15.414400 5.735600
-15.388600 5.421500
-15.362900 4.522300
-15.337100 4.391300
-15.311300 4.467200
-15.285500 4.429900
-15.259700 4.544600
-15.233900 5.239800
-15.208200 6.621300
-15.182400 8.837300
-15.156600 10.720300
-15.130800 7.701100
-15.105000 4.492800
-15.079200 5.696200
-15.053500 6.123600
-15.027700 2.403100
-15.001900 0.000000
-14.976100 0.000000
-14.950300 0.000000
-14.924500 0.000000
-14.898800 0.000000
-14.873000 0.000000
-14.847200 0.000000
-14.821400 0.000000
-14.795600 0.000000
-14.769900 0.000000
-14.744100 0.000000
-14.718300 0.000000
-14.692500 0.000000
-14.666700 0.000000
-14.640900 0.000000
-14.615200 0.000000
-14.589400 0.000000
-14.563600 0.000000
-14.537800 0.000000
-14.512000 0.000000
-14.486200 0.000000
-14.460500 0.000000
-14.434700 0.000000
-14.408900 0.000000
-14.383100 0.000000
-14.357300 0.000000
-14.331500 0.000000
-14.305800 0.000000
-14.280000 0.000000
-14.254200 0.000000
-14.228400 0.000000
-14.202600 0.000000
-14.176900 0.000000
-14.151100 0.000000
-14.125300 0.000000
-14.099500 0.000000
-14.073700 0.000000
-14.047900 0.000000
-14.022200 0.000000
-13.996400 0.000000
-13.970600 0.000000
-13.944800 0.000000
-13.919000 0.000000
-13.893200 0.000000
-13.867500 0.000000
-13.841700 0.000000
-13.815900 0.000000
-13.790100 0.000000
-13.764300 0.000000
-13.738500 0.000000
-13.712800 0.000000
-13.687000 0.000000
-13.661200 0.000000
-13.635400 0.000000
-13.609600 0.000000
-13.583900 0.000000
-13.558100 0.000000
-13.532300 0.000000
-13.506500 0.000000
-13.480700 0.000000
-13.454900 0.000000
-13.429200 0.000000
-13.403400 0.000000
-13.377600 0.000000
-13.351800 0.000000
-13.326000 0.000000
-13.300200 0.000000
-13.274500 0.000000
-13.248700 0.000000
-13.222900 0.000000
-13.197100 0.000000
-13.171300 0.000000
-13.145500 0.000000
-13.119800 0.000000
-13.094000 0.000000
-13.068200 0.000000
-13.042400 0.000000
-13.016600 0.000000
-12.990900 0.000000
-12.965100 0.000000
-12.939300 0.000000
-12.913500 0.000000
-12.887700 0.000000
-12.861900 0.000000
-12.836200 0.000000
-12.810400 0.000000
-12.784600 0.000000
-12.758800 0.000000
-12.733000 0.000000
-12.707200 0.000000
-12.681500 0.000000
-12.655700 0.000000
-12.629900 0.000000
-12.604100 0.000000
-12.578300 0.000000
-12.552500 0.000000
-12.526800 0.000000
-12.501000 0.000000
-12.475200 0.000000
-12.449400 0.000000
-12.423600 0.000000
-12.397900 0.000000
-12.372100 0.000000
-12.346300 0.000000
-12.320500 0.000000
-12.294700 0.000000
-12.268900 0.000000
-12.243200 0.000000
-12.217400 0.000000
-12.191600 0.000000
-12.165800 0.000000
-12.140000 0.000000
-12.114200 0.000000
-12.088500 0.000000
-12.062700 0.000000
-12.036900 0.000000
-12.011100 0.000000
-11.985300 0.000000
-11.959500 0.000000
-11.933800 0.000000
-11.908000 0.000000
-11.882200 0.000000
-11.856400 0.000000
-11.830600 0.000000
-11.804900 0.000000
-11.779100 0.000000
-11.753300 0.000000
-11.727500 0.000000
-11.701700 0.000000
-11.675900 0.000000
-11.650200 0.000000
-11.624400 0.000000
-11.598600 0.000000
-11.572800 0.000000
-11.547000 0.000000
-11.521200 0.000000
-11.495500 0.000000
-11.469700 0.000000
-11.443900 0.000000
-11.418100 0.000000
-11.392300 0.000000
-11.366500 0.000000
-11.340800 0.000000
-11.315000 0.000000
-11.289200 0.000000
-11.263400 0.000000
-11.237600 0.000000
-11.211900 0.000000
-11.186100 0.000000
-11.160300 0.000000
-11.134500 0.000000
-11.108700 0.000000
-11.082900 0.000000
-11.057200 0.000000
-11.031400 0.000000
-11.005600 0.000000
-10.979800 0.000000
-10.954000 0.000000
-10.928200 0.000000
-10.902500 0.000000
-10.876700 0.000000
-10.850900 0.000000
-10.825100 0.000000
-10.799300 0.000000
-10.773500 0.000000
-10.747800 0.000000
-10.722000 0.000000
-10.696200 0.000000
-10.670400 0.000000
-10.644600 0.000000
-10.618900 0.000000
-10.593100 0.000000
-10.567300 0.000000
-10.541500 0.000000
-10.515700 0.000000
-10.489900 0.000000
-10.464200 0.000000
-10.438400 0.000000
-10.412600 0.000000
-10.386800 0.000000
-10.361000 0.000000
-10.335200 0.000000
-10.309500 0.000000
-10.283700 0.000000
-10.257900 0.000000
-10.232100 0.000000
-10.206300 0.000000
-10.180500 0.000000
-10.154800 0.000000
-10.129000 0.000000
-10.103200 0.000000
-10.077400 0.000000
-10.051600 0.000000
-10.025900 0.000000
-10.000100 0.000000
-9.974300 0.000000
-9.948500 0.000000
-9.922700 0.000000
-9.896900 0.000000
-9.871200 0.000000
-9.845400 0.000000
-9.819600 0.000000
-9.793800 0.000000
-9.768000 0.000000
-9.742200 0.000000
-9.716500 0.000000
-9.690700 0.000000
-9.664900 0.000000
-9.639100 0.000000
-9.613300 0.000000
-9.587500 0.000000
-9.561800 0.000000
-9.536000 0.000000
-9.510200 0.000000
-9.484400 0.000000
-9.458600 0.000000
-9.432900 0.000000
-9.407100 0.000000
-9.381300 0.000000
-9.355500 0.000000
-9.329700 0.000000
-9.303900 0.000000
-9.278200 0.000000
-9.252400 0.000000
-9.226600 0.000000
-9.200800 0.000000
-9.175000 0.000000
-9.149200 0.000000
-9.123500 0.000000
-9.097700 0.000000
-9.071900 0.000000
-9.046100 0.000000
-9.020300 0.000000
-8.994500 0.000000
-8.968800 0.000000
-8.943000 0.000000
-8.917200 0.000000
-8.891400 0.000000
-8.865600 0.000000
-8.839900 0.000000
-8.814100 0.000000
-8.788300 0.000000
-8.762500 0.000000
-8.736700 0.000000
-8.710900 0.000000
-8.685200 0.000000
-8.659400 0.000000
-8.633600 0.000000
-8.607800 0.000000
-8.582000 0.000000
-8.556200 0.000000
-8.530500 0.000000
-8.504700 0.000000
-8.478900 0.000000
-8.453100 0.000000
-8.427300 0.000000
-8.401500 0.000000
-8.375800 0.000000
-8.350000 0.000000
-8.324200 0.000000
-8.298400 0.000000
-8.272600 0.000000
-8.246900 0.000000
-8.221100 0.000000
-8.195300 0.000000
-8.169500 0.000000
-8.143700 0.000000
-8.117900 0.000000
-8.092200 0.000000
-8.066400 0.000000
-8.040600 0.000000
-8.014800 0.000000
-7.989000 0.000000
-7.963200 0.000000
-7.937500 0.000000
-7.911700 0.000000
-7.885900 0.000000
-7.860100 0.000000
-7.834300 0.000000
-7.808500 0.000000
-7.782800 0.000000
-7.757000 0.000000
-7.731200 0.000000
-7.705400 0.000000
-7.679600 0.000000
-7.653900 0.000000
-7.628100 0.000000
-7.602300 0.000000
-7.576500 0.000000
-7.550700 0.000000
-7.524900 0.000000
-7.499200 0.000000
-7.473400 0.000000
-7.447600 0.000000
-7.421800 0.000000
-7.396000 0.000000
-7.370200 0.000000
-7.344500 0.000000
-7.318700 0.000000
-7.292900 0.000000
-7.267100 0.000000
-7.241300 0.000000
-7.215500 0.000000
-7.189800 0.000000
-7.164000 0.000000
-7.138200 0.000000
-7.112400 0.000000
-7.086600 0.000000
-7.060900 0.000000
-7.035100 0.000000
-7.009300 0.000000
-6.983500 0.000000
-6.957700 0.000000
-6.931900 0.000000
-6.906200 0.000000
-6.880400 0.000000
-6.854600 0.000000
-6.828800 0.000000
-6.803000 0.000000
-6.777200 0.000000
-6.751500 0.000000
-6.725700 0.000000
-6.699900 0.000000
-6.674100 0.000000
-6.648300 0.000000
-6.622500 0.000000
-6.596800 0.000000
-6.571000 0.000000
-6.545200 0.000000
-6.519400 0.000000
-6.493600 0.000000
-6.467900 0.000000
-6.442100 0.000000
-6.416300 0.000000
-6.390500 0.000000
-6.364700 0.000000
-6.338900 0.000000
-6.313200 0.000000
-6.287400 0.000000
-6.261600 0.000000
-6.235800 0.000000
-6.210000 0.000000
-6.184200 0.000000
-6.158500 0.000000
-6.132700 0.000000
-6.106900 0.000000
-6.081100 0.000000
-6.055300 0.000000
-6.029500 0.000000
-6.003800 0.000000
-5.978000 0.000000
-5.952200 0.000000
-5.926400 0.000000
-5.900600 0.000000
-5.874900 0.000000
-5.849100 0.000000
-5.823300 0.000000
-5.797500 0.000000
-5.771700 0.000000
-5.745900 0.000000
-5.720200 0.000000
-5.694400 0.000000
-5.668600 0.000000
-5.642800 0.000000
-5.617000 0.000000
-5.591200 0.000000
-5.565500 0.000000
-5.539700 0.000000
-5.513900 0.000000
-5.488100 0.000000
-5.462300 0.000000
-5.436500 0.000000
-5.410800 0.000000
-5.385000 0.000000
-5.359200 0.000000
-5.333400 0.000000
-5.307600 0.000000
-5.281900 0.000000
-5.256100 0.000000
-5.230300 0.000000
-5.204500 0.000000
-5.178700 0.000000
-5.152900 0.000000
-5.127200 0.000000
-5.101400 0.000000
-5.075600 0.000000
-5.049800 0.000000
-5.024000 0.000000
-4.998200 0.000000
-4.972500 0.000000
-4.946700 0.000000
-4.920900 0.000000
-4.895100 0.000000
-4.869300 0.000000
-4.843500 0.000000
-4.817800 0.000000
-4.792000 0.000000
-4.766200 0.000000
-4.740400 0.000000
-4.714600 0.000000
-4.688900 0.000000
-4.663100 0.000000
-4.637300 0.000000
-4.611500 0.000000
-4.585700 0.000000
-4.559900 0.000000
-4.534200 0.000000
-4.508400 0.000000
-4.482600 0.000000
-4.456800 0.000000
-4.431000 0.000000
-4.405200 0.000000
-4.379500 0.000000
-4.353700 0.000000
-4.327900 0.000000
-4.302100 0.000000
-4.276300 0.000000
-4.250500 0.000000
-4.224800 0.000000
-4.199000 0.000000
-4.173200 0.000000
-4.147400 0.000000
-4.121600 0.000000
-4.095900 0.000000
-4.070100 0.000000
-4.044300 0.000000
-4.018500 0.014600
-3.992700 0.200100
-3.966900 0.280600
-3.941200 0.347200
-3.915400 0.429600
-3.889600 0.494800
-3.863800 0.544300
-3.838000 0.610500
-3.812200 0.925900
-3.786500 1.815900
-3.760700 2.952200
-3.734900 2.981400
-3.709100 3.148200
-3.683300 3.641800
-3.657500 3.575900
-3.631800 3.694800
-3.606000 3.462000
-3.580200 3.146000
-3.554400 5.246500
-3.528600 4.650000
-3.502900 5.186700
-3.477100 5.432500
-3.451300 5.092500
-3.425500 4.535600
-3.399700 3.871300
-3.373900 3.751400
-3.348200 4.889700
-3.322400 6.234300
-3.296600 6.193600
-3.270800 4.915800
-3.245000 4.482400
-3.219200 3.873500
-3.193500 3.410600
-3.167700 3.178800
-3.141900 2.626800
-3.116100 1.772400
-3.090300 1.662000
-3.064500 1.526800
-3.038800 1.457300
-3.013000 1.520300
-2.987200 1.411500
-2.961400 2.020400
-2.935600 2.148500
-2.909900 2.324700
-2.884100 2.505200
-2.858300 2.803300
-2.832500 4.388400
-2.806700 5.360200
-2.780900 4.139800
-2.755200 3.697300
-2.729400 3.383300
-2.703600 3.673500
-2.677800 4.478000
-2.652000 4.262700
-2.626200 4.685100
-2.600500 5.491900
-2.574700 5.834300
-2.548900 4.964600
-2.523100 4.022300
-2.497300 3.926500
-2.471500 5.826200
-2.445800 3.751700
-2.420000 3.984900
-2.394200 4.659600
-2.368400 5.441700
-2.342600 4.945100
-2.316900 3.122500
-2.291100 1.994700
-2.265300 2.263700
-2.239500 3.036700
-2.213700 3.922700
-2.187900 4.205700
-2.162200 4.813300
-2.136400 6.188500
-2.110600 5.634400
-2.084800 6.184300
-2.059000 10.945600
-2.033200 8.412000
-2.007500 5.296400
-1.981700 4.283700
-1.955900 6.394000
-1.930100 6.975300
-1.904300 8.120900
-1.878500 10.098300
-1.852800 6.201800
-1.827000 4.417500
-1.801200 7.665800
-1.775400 7.350700
-1.749600 3.807400
-1.723900 2.600200
-1.698100 2.556000
-1.672300 2.744400
-1.646500 3.955100
-1.620700 4.755500
-1.594900 4.187200
-1.569200 3.433900
-1.543400 4.307500
-1.517600 4.190000
-1.491800 4.086000
-1.466000 4.324900
-1.440200 4.625600
-1.414500 5.257600
-1.388700 5.516100
-1.362900 4.941500
-1.337100 1.997700
-1.311300 1.831100
-1.285500 1.797200
-1.259800 1.857700
-1.234000 1.879600
-1.208200 2.140000
-1.182400 2.092300
-1.156600 2.059800
-1.130800 2.058600
-1.105100 2.069700
-1.079300 2.059100
-1.053500 2.063300
-1.027700 2.047600
-1.001900 1.981500
-0.976200 1.836300
-0.950400 1.526400
-0.924600 1.225100
-0.898800 1.116100
-0.873000 1.060300
-0.847200 1.043600
-0.821500 1.028100
-0.795700 1.014000
-0.769900 1.032600
-0.744100 1.148800
-0.718300 1.514500
-0.692500 1.911700
-0.666800 1.048400
-0.641000 0.697500
-0.615200 0.446100
-0.589400 0.152200
-0.563600 0.000000
-0.537800 0.000000
-0.512100 0.000000
-0.486300 0.000000
-0.460500 0.000000
-0.434700 0.000000
-0.408900 0.000000
-0.383200 0.000000
-0.357400 0.976900
-0.331600 3.152500
-0.305800 2.974800
-0.280000 1.616700
-0.254200 1.299700
-0.228500 1.204200
-0.202700 1.172100
-0.176900 1.006500
-0.151100 1.226300
-0.125300 1.441300
-0.099500 1.789200
-0.073800 2.815700
-0.048000 3.133300
-0.022200 3.233300
0.003600 2.885600
0.029400 2.831000
0.055200 2.741300
0.080900 2.831600
0.106700 2.939800
0.132500 2.962500
0.158300 3.069700
0.184100 2.967100
0.209800 3.134900
0.235600 3.522600
0.261400 3.637300
0.287200 4.326000
0.313000 5.100000
0.338800 6.211900
0.364500 7.305900
0.390300 7.024000
0.416100 6.411900
0.441900 6.304600
0.467700 6.431100
0.493500 6.912700
0.519200 6.717700
0.545000 6.611800
0.570800 7.714300
0.596600 6.240300
0.622400 7.149600
0.648200 8.630400
0.673900 11.835700
0.699700 10.056500
0.725500 8.532500
0.751300 7.129800
0.777100 6.490400
0.802800 7.481900
0.828600 8.127600
0.854400 4.670300
0.880200 3.458300
0.906000 4.636500
0.931800 0.000900
0.957500 0.000000
0.983300 0.000000
1.009100 0.000000
1.034900 0.000000
1.060700 0.000000
1.086500 0.000000
1.112200 0.000000
1.138000 0.000000
1.163800 0.000000
1.189600 0.000000
1.215400 0.000000
1.241200 0.000000
1.266900 0.000000
1.292700 0.000000
1.318500 0.000000
1.344300 0.000000
1.370100 0.000000
1.395800 0.000000
1.421600 0.000000
1.447400 0.000000
1.473200 0.000000
1.499000 0.000000
1.524800 0.000000
1.550500 0.000000
1.576300 0.000000
1.602100 0.000000
1.627900 0.000000
1.653700 0.000000
1.679500 0.000000
1.705200 0.000000
1.731000 0.000000
1.756800 0.000000
1.782600 0.000000
1.808400 0.000000
1.834200 0.000000
1.859900 0.000000
1.885700 0.000000
1.911500 0.000000
1.937300 0.000000
1.963100 0.000000
1.988800 0.000000
2.014600 0.000000
2.040400 0.000000
2.066200 0.000000
2.092000 0.000000
2.117800 0.000000
2.143500 0.000000
2.169300 0.000000
2.195100 0.000000
2.220900 0.000000
2.246700 0.000000
2.272500 0.000000
2.298200 0.000000
2.324000 0.000000
2.349800 0.000000
2.375600 0.000000
2.401400 0.000000
2.427200 0.000000
2.452900 0.000000
2.478700 0.000000
2.504500 0.000000
2.530300 0.000000
2.556100 0.000000
2.581800 0.000000
2.607600 0.000000
2.633400 0.000000
2.659200 0.000000
2.685000 0.000000
2.710800 0.000000
2.736500 0.000000
2.762300 0.000000
2.788100 0.000000
2.813900 0.000000
2.839700 0.000000
2.865500 0.000000
2.891200 0.000000
2.917000 0.000000
2.942800 0.000000
2.968600 0.000000
2.994400 0.000000
3.020200 0.000000
3.045900 0.000000
3.071700 0.000000
3.097500 0.000000
3.123300 0.000000
3.149100 0.000000
3.174800 0.000000
3.200600 0.000000
3.226400 0.000000
3.252200 0.000000
3.278000 0.000000
3.303800 0.000000
3.329500 0.000000
3.355300 0.000000
3.381100 0.000000
3.406900 0.000000
3.432700 0.000000
3.458500 0.000000
3.484200 0.000000
3.510000 0.000000
3.535800 0.000000
3.561600 0.000000
3.587400 0.000000
3.613200 0.000000
3.638900 0.000000
3.664700 0.000000
3.690500 0.000000
3.716300 0.000000
3.742100 0.000000
3.767800 0.000000
3.793600 0.000000
3.819400 0.000000
3.845200 0.000000
3.871000 0.000000
3.896800 0.000000
3.922500 0.000000
3.948300 0.000000
3.974100 0.000000
3.999900 0.000000
4.025700 0.000000
4.051500 0.000000
4.077200 0.000000
4.103000 0.000000
4.128800 0.000000
4.154600 0.000000
4.180400 0.000000
4.206200 0.000000
4.231900 0.000000
4.257700 0.000000
4.283500 0.000000
4.309300 0.000000
4.335100 0.000000
4.360800 0.000000
4.386600 0.000000
4.412400 0.000000
4.438200 0.000000
4.464000 0.000000
4.489800 0.000000
4.515500 0.000000
4.541300 0.000000
4.567100 0.000000
4.592900 0.000000
4.618700 0.000000
4.644500 0.000000
4.670200 0.000000
4.696000 0.000000
4.721800 0.000000
4.747600 0.000000
4.773400 0.000000
4.799200 0.000000
4.824900 0.000000
4.850700 0.000000
4.876500 0.000000
4.902300 0.000000
4.928100 0.000000
4.953800 0.000000
4.979600 0.000000
5.005400 0.000000
5.031200 0.000000
5.057000 0.000000
5.082800 0.000000
5.108500 0.000000
5.134300 0.000000
5.160100 0.000000
5.185900 0.000000
5.211700 0.000000
5.237500 0.000000
5.263200 0.000000
5.289000 0.000000
5.314800 0.000000
5.340600 0.000000
5.366400 0.000000
5.392200 0.000000
5.417900 0.000000
5.443700 0.000000
5.469500 0.000000
5.495300 0.000000
5.521100 0.000000
5.546800 0.000000
5.572600 0.000000
5.598400 0.000000
5.624200 0.115200
5.650000 0.661100
5.675800 1.194000
5.701500 1.214800
5.727300 1.079100
5.753100 0.910600
5.778900 0.819400
5.804700 0.801000
5.830500 0.780100
5.856200 0.722900
5.882000 0.619500
5.907800 0.581000
5.933600 0.541800
5.959400 0.505600
5.985200 0.461600
6.010900 0.441300
6.036700 0.485500
6.062500 0.526100
6.088300 0.544700
6.114100 0.582900
6.139800 0.625200
6.165600 0.668700
6.191400 0.698500
6.217200 0.802800
6.243000 0.935200
6.268800 0.976800
6.294500 0.986900
6.320300 0.985800
6.346100 0.973700
6.371900 0.962700
6.397700 0.945900
6.423500 0.941500
6.449200 0.940000
6.475000 0.941400
6.500800 0.944300
6.526600 0.948600
6.552400 0.961600
6.578200 0.987000
6.603900 0.987700
6.629700 0.990300
6.655500 1.032600
6.681300 1.001400
6.707100 0.988900
6.732800 0.989000
6.758600 0.990100
6.784400 1.112500
6.810200 1.183800
6.836000 1.493900
6.861800 1.406700
6.887500 1.374100
6.913300 1.391800
6.939100 1.386000
6.964900 1.375900
6.990700 1.318600
7.016500 1.412700
7.042200 1.754800
7.068000 1.951300
7.093800 2.046600
7.119600 2.150600
7.145400 2.296000
7.171200 2.582200
7.196900 3.118800
7.222700 4.007800
7.248500 4.960100
7.274300 6.236100
7.300100 5.068400
7.325800 4.222800
7.351600 3.724900
7.377400 3.176100
7.403200 2.996700
7.429000 2.714400
7.454800 2.154200
7.480500 1.938300
7.506300 2.068900
7.532100 2.363600
7.557900 2.695300
7.583700 2.965700
7.609500 3.250300
7.635200 3.715100
7.661000 4.181400
7.686800 4.214100
7.712600 5.070600
7.738400 6.302900
7.764200 6.251400
7.789900 6.502000
7.815700 5.101400
7.841500 3.874700
7.867300 4.295700
7.893100 6.134800
7.918800 5.996900
7.944600 5.857300
7.970400 5.515600
7.996200 5.180800
8.022000 5.441000
8.047800 4.544600
8.073500 3.380900
8.099300 2.987100
8.125100 2.783100
8.150900 2.984200
8.176700 2.713700
8.202500 1.959800
8.228200 2.223700
8.254000 2.628100
8.279800 3.337700
8.305600 4.438800
8.331400 3.988000
8.357200 4.222700
8.382900 3.520900
8.408700 4.084700
8.434500 6.385500
8.460300 6.921900
8.486100 5.411800
8.511800 5.008600
8.537600 4.911200
8.563400 4.732800
8.589200 4.701000
8.615000 3.969100
8.640800 3.763900
8.666500 3.446700
8.692300 3.035600
8.718100 2.812100
8.743900 2.444200
8.769700 2.319300
8.795500 2.265600
8.821200 2.273400
8.847000 2.354800
8.872800 2.467900
8.898600 2.624600
8.924400 2.840600
8.950200 3.294400
8.975900 3.612200
9.001700 4.009100
9.027500 4.539300
9.053300 5.098500
9.079100 5.841700
9.104800 5.114300
9.130600 4.141000
9.156400 3.512000
9.182200 2.889800
9.208000 2.594700
9.233800 2.221800
9.259500 2.118700
9.285300 2.125500
9.311100 2.158700
9.336900 2.194000
9.362700 2.313400
9.388500 2.478600
9.414200 2.754100
9.440000 3.330800
9.465800 3.264000
9.491600 2.897400
9.517400 2.779700
9.543200 2.630600
9.568900 2.432700
9.594700 2.107700
9.620500 1.908400
9.646300 1.795900
9.672100 1.728000
9.697800 1.412300
9.723600 1.126600
9.749400 0.859700
9.775200 0.746400
9.801000 0.641900
9.826800 0.635700
9.852500 0.624900
9.878300 0.613700
9.904100 0.602700
9.929900 0.593800
9.955700 0.585000
9.981500 0.574000
10.007200 0.559800
10.033000 0.548900
10.058800 0.572500
10.084600 0.579400
10.110400 0.586400
10.136200 0.585800
10.161900 0.591200
10.187700 0.596500
10.213500 0.601800
10.239300 0.605600
10.265100 0.610200
10.290800 0.615100
10.316600 0.620600
10.342400 0.626800
10.368200 0.633400
10.394000 0.637600
10.419800 0.643300
10.445500 0.649000
10.471300 0.654600
10.497100 0.660000
10.522900 0.665300
10.548700 1.532000
10.574500 1.519400
10.600200 1.008500
10.626000 0.470600
10.651800 0.476300
10.677600 0.482000
10.703400 0.488100
10.729200 0.494500
10.754900 0.499900
10.780700 0.506300
10.806500 0.512900
10.832300 0.519600
10.858100 0.526200
10.883800 0.532800
10.909600 0.539300
10.935400 0.545900
10.961200 0.553600
10.987000 0.563700
11.012800 0.572700
11.038500 0.578900
11.064300 0.584500
11.090100 0.590000
11.115900 0.679100
11.141700 0.916400
11.167500 1.139200
11.193200 1.360500
11.219000 1.182500
11.244800 1.208900
11.270600 0.980800
11.296400 0.885900
11.322200 0.890200
11.347900 0.895100
11.373700 0.900700
11.399500 0.907000
11.425300 0.912100
11.451100 0.914200
11.476800 0.910700
11.502600 0.901600
11.528400 0.888400
11.554200 0.873500
11.580000 0.858500
11.605800 0.847300
11.631500 0.836000
11.657300 0.810700
11.683100 0.791100
11.708900 0.768900
11.734700 0.755100
11.760500 0.752100
11.786200 0.754400
11.812000 0.762800
11.837800 0.782800
11.863600 0.708800
11.889400 0.738000
11.915200 0.826300
11.940900 0.850900
11.966700 0.858800
11.992500 0.861500
12.018300 0.860800
12.044100 0.858500
12.069800 0.857800
12.095600 0.858600
12.121400 0.874900
12.147200 0.884200
12.173000 0.896300
12.198800 0.911400
12.224500 0.930500
12.250300 0.954000
12.276100 0.983200
12.301900 1.118800
12.327700 1.315000
12.353500 1.231600
12.379200 1.266500
12.405000 1.378800
12.430800 1.305200
12.456600 1.159400
12.482400 1.033100
12.508200 0.986800
12.533900 0.984700
12.559700 1.027000
12.585500 1.111200
12.611300 1.140800
12.637100 1.118900
12.662800 1.156500
12.688600 1.188300
12.714400 1.136100
12.740200 1.131300
12.766000 1.134100
12.791800 1.142600
12.817500 1.134700
12.843300 1.118900
12.869100 1.107700
12.894900 1.107000
12.920700 1.113000
12.946500 1.124800
12.972200 1.138500
12.998000 1.190800
13.023800 1.297700
13.049600 1.433800
13.075400 1.456800
13.101200 1.319500
13.126900 1.228200
13.152700 1.313700
13.178500 1.383300
13.204300 1.171900
13.230100 1.128400
13.255800 1.099600
13.281600 1.119200
13.307400 1.261600
13.333200 1.344400
13.359000 1.461500
13.384800 1.628600
13.410500 1.625200
13.436300 1.605600
13.462100 1.659100
13.487900 1.721300
13.513700 1.786000
13.539500 1.835600
13.565200 1.852900
13.591000 1.920300
13.616800 1.903900
13.642600 1.880600
13.668400 1.914200
13.694200 1.902500
13.719900 1.880700
13.745700 1.816900
13.771500 1.777600
13.797300 1.732500
13.823100 1.656900
13.848800 1.827300
13.874600 1.618900
13.900400 1.796400
13.926200 1.745500
13.952000 1.755600
13.977800 1.760500
14.003500 1.771500
14.029300 1.626000
14.055100 1.824900
14.080900 1.897700
14.106700 1.954200
14.132500 1.936300
14.158200 1.738700
14.184000 1.676300
14.209800 1.614800
14.235600 1.404700
14.261400 1.374800
14.287200 1.446500
14.312900 1.615500
14.338700 1.841100
14.364500 1.974400
14.390300 1.850100
14.416100 1.884600
14.441800 1.912300
14.467600 1.954000
14.493400 2.025200
14.519200 2.292200
14.545000 2.582600
14.570800 2.706700
14.596500 2.781700
14.622300 2.835100
14.648100 2.668200
14.673900 2.683000
14.699700 2.764100
14.725500 2.975300
14.751200 2.968100
14.777000 2.799600
14.802800 2.791300
14.828600 2.321300
14.854400 1.785100
14.880200 1.443300
14.905900 1.823100
14.931700 1.570300
14.957500 1.501000
14.983300 1.720100
15.009100 1.682600
15.034800 1.613800
15.060600 1.560600
15.086400 1.538900
15.112200 1.539600
15.138000 1.548500
15.163800 1.571700
15.189500 1.562500
15.215300 1.546000
15.241100 1.545400
15.266900 1.550000
15.292700 1.482700
15.318500 1.485100
15.344200 1.463700
15.370000 1.439300
15.395800 1.477400
15.421600 1.570300
15.447400 1.698400
15.473200 1.259400
15.498900 1.248500
15.524700 1.230900
15.550500 1.211400
15.576300 1.242400
15.602100 1.197900
15.627800 1.138900
15.653600 1.063300
15.679400 1.037400
15.705200 1.016000
15.731000 0.999300
15.756800 1.014800
15.782500 1.021900
15.808300 1.014300
15.834100 1.009000
15.859900 0.978300
15.885700 0.927400
15.911500 0.879500
15.937200 0.849900
15.963000 0.829900
15.988800 0.805100
16.014600 0.777300
16.040400 0.747300
16.066200 0.802500
16.091900 0.866700
16.117700 0.858100
16.143500 0.830100
16.169300 0.776200
16.195100 0.780900
16.220800 0.786200
16.246600 0.791900
16.272400 0.799700
16.298200 0.807400
16.324000 0.816000
16.349800 0.826600
16.375500 0.839500
16.401300 0.855800
16.427100 0.874400
16.452900 0.895500
16.478700 0.919300
16.504500 0.946000
16.530200 0.979000
16.556000 1.006400
16.581800 1.045000
16.607600 1.077800
16.633400 1.059300
16.659200 1.075500
16.684900 1.186400
16.710700 1.262400
16.736500 1.408100
16.762300 1.264400
16.788100 1.086000
16.813800 0.981900
16.839600 0.982000
16.865400 1.163300
16.891200 1.467000
16.917000 1.661500
16.942800 1.603800
16.968500 1.779500
16.994300 1.657100
17.020100 1.489600
17.045900 1.488300
17.071700 1.542800
17.097500 1.658900
17.123200 1.964700
17.149000 2.747700
17.174800 3.665500
17.200600 3.686200
17.226400 3.200300
17.252200 2.865800
17.277900 2.463600
17.303700 2.186300
17.329500 2.000000
17.355300 2.054500
17.381100 2.199000
17.406900 2.328600
17.432600 2.458600
17.458400 2.627600
17.484200 3.077400
17.510000 2.994800
17.535800 2.906500
17.561500 3.330900
17.587300 3.567000
17.613100 3.889500
17.638900 3.506900
17.664700 2.006000
17.690500 1.966500
17.716200 1.925400
17.742000 1.880400
17.767800 2.012100
17.793600 2.494600
17.819400 2.615900
17.845200 2.725600
17.870900 2.626700
17.896700 2.357300
17.922500 2.244400
17.948300 2.514100
17.974100 2.972200
17.999900 3.355300
18.025600 2.528500
18.051400 2.493600
18.077200 2.340600
18.103000 2.159700
18.128800 2.082400
18.154500 2.007500
18.180300 2.045500
18.206100 1.962600
18.231900 1.953700
18.257700 1.852000
18.283500 1.856900
18.309200 1.943600
18.335000 2.077300
18.360800 2.171400
18.386600 3.097900
18.412400 3.535400
18.438200 3.833200
18.463900 3.717200
18.489700 3.074100
18.515500 2.488500
18.541300 2.124500
18.567100 1.905300
18.592900 1.805500
18.618600 1.983000
18.644400 1.826600
18.670200 1.535600
18.696000 1.450900
18.721800 1.390200
18.747500 1.369700
18.773300 1.403800
18.799100 1.447200
18.824900 1.522500
18.850700 1.603400
18.876500 1.687000
18.902200 1.859800
18.928000 1.575800
18.953800 1.346600
18.979600 1.264400
19.005400 1.250500
19.031200 1.276300
19.056900 1.325800
19.082700 1.468000
19.108500 1.550900
19.134300 1.578400
19.160100 1.622000
19.185900 1.691900
19.211600 1.855300
19.237400 1.959700
19.263200 1.947100
19.289000 1.909600
19.314800 1.958900
19.340500 1.919900
19.366300 1.922000
19.392100 1.883300
19.417900 1.896400
19.443700 1.971800
19.469500 2.064900
19.495200 2.134900
19.521000 2.131600
19.546800 2.171700
19.572600 2.119400
19.598400 2.233900
19.624200 2.315400
19.649900 2.403100
19.675700 2.411400
19.701500 2.489200
19.727300 2.621600
19.753100 2.791500
19.778900 2.579400
19.804600 2.527100
19.830400 2.477300
19.856200 2.391000
19.882000 2.248400
19.907800 2.191700
19.933500 2.138000
19.959300 2.146700
19.985100 2.042000
20.010900 1.889600
20.036700 1.611900
20.062500 1.617100
20.088200 1.609600
20.114000 1.661600
20.139800 1.766700
20.165600 1.887800
20.191400 2.007800
20.217200 2.142400
20.242900 2.079900
20.268700 2.065600
20.294500 2.234400
20.320300 1.913500
20.346100 1.712400
20.371900 1.697300
20.397600 1.774800
20.423400 1.861600
20.449200 1.884600
20.475000 2.007300
20.500800 1.688500
20.526500 1.707400
20.552300 1.713000
20.578100 1.866000
20.603900 2.050000
20.629700 1.993600
20.655500 2.008200
20.681200 2.077500
20.707000 2.064200
20.732800 2.060200
20.758600 2.022300
20.784400 1.949500
20.810200 1.861800
20.835900 1.781800
20.861700 1.700500
20.887500 1.543100
20.913300 1.564500
20.939100 2.233900
20.964900 1.770100
20.990600 1.985800
21.016400 2.798800
21.042200 3.953900
21.068000 4.373800
21.093800 3.787600
21.119500 3.340500
21.145300 3.023200
21.171100 2.731000
21.196900 2.510600
21.222700 2.197700
21.248500 1.808800
21.274200 1.679200
21.300000 1.624500
21.325800 1.547900
21.351600 1.434100
21.377400 1.310900
21.403200 1.233200
21.428900 1.195400
21.454700 1.154800
21.480500 1.125100
21.506300 1.091900
21.532100 1.131700
21.557900 1.080500
21.583600 1.217800
21.609400 1.298000
21.635200 1.365500
21.661000 1.434100
21.686800 1.511900
21.712500 1.648300
21.738300 1.775700
21.764100 1.771200
21.789900 1.557800
21.815700 1.322300
21.841500 1.048300
21.867200 0.926800
21.893000 0.842200
21.918800 0.822800
21.944600 0.904800
21.970400 1.071900
21.996200 1.190100
22.021900 1.284900
22.047700 1.392700
22.073500 1.449100
22.099300 1.496100
22.125100 1.511500
22.150900 1.513900
22.176600 1.533600
22.202400 1.387000
22.228200 1.336300
22.254000 1.525300
22.279800 1.635000
22.305500 1.977900
22.331300 2.677400
22.357100 3.517700
22.382900 3.278500
22.408700 2.306700
22.434500 1.713400
22.460200 1.760800
22.486000 2.183100
22.511800 2.637700
22.537600 2.778600
22.563400 2.636500
22.589200 2.409800
22.614900 2.268900
22.640700 2.131200
22.666500 2.017400
22.692300 2.148900
22.718100 2.253900
22.743900 2.447000
22.769600 2.637900
22.795400 2.840000
22.821200 3.008600
22.847000 3.114400
22.872800 3.170800
22.898500 3.151300
22.924300 3.055500
22.950100 2.997800
22.975900 2.927500
23.001700 2.609300
23.027500 2.517400
23.053200 2.480200
23.079000 2.145300
23.104800 1.903400
23.130600 1.797200
23.156400 1.839800
23.182200 1.970300
23.207900 2.109500
23.233700 2.184000
23.259500 2.268900
23.285300 2.349700
23.311100 2.506800
23.336900 3.007900
23.362600 2.924000
23.388400 2.624000
23.414200 2.381500
23.440000 2.017700
23.465800 1.878500
23.491500 1.822600
23.517300 1.579000
23.543100 1.762200
23.568900 2.057600
23.594700 1.867800
23.620500 1.803300
23.646200 1.793800
23.672000 1.765800
23.697800 1.677000
23.723600 1.573600
23.749400 1.426500
23.775200 1.263700
23.800900 1.130500
23.826700 0.978900
23.852500 0.895200
23.878300 0.818200
23.904100 0.718300
23.929900 0.626100
23.955600 0.552300
23.981400 0.486700
24.007200 0.472500
24.033000 0.438100
24.058800 0.400800
24.084500 0.360700
24.110300 0.319900
24.136100 0.283900
24.161900 0.252900
24.187700 0.225400
24.213500 0.203800
24.239200 0.193800
24.265000 0.175300
24.290800 0.160800
24.316600 0.125400
24.342400 0.119400
24.368200 0.114300
24.393900 0.155200
24.419700 0.007100
24.445500 0.000000
24.471300 0.000000
24.497100 0.000000
24.522900 0.000000
24.548600 0.000000
24.574400 0.000000
24.600200 0.000000
24.626000 0.000000
24.651800 0.000000
24.677500 0.000000
24.703300 0.000000
24.729100 0.000000
24.754900 0.000000
24.780700 0.000000
24.806500 0.000000
24.832200 0.000000
24.858000 0.000000
24.883800 0.000000
24.909600 0.000000
24.935400 0.000000
24.961200 0.000000
24.986900 0.000000
25.012700 0.000000
25.038500 0.000000
25.064300 0.000000
25.090100 0.000000
25.115900 0.000000
25.141600 0.000000
25.167400 0.000000
25.193200 0.000000
25.219000 0.000000
25.244800 0.000000
25.270500 0.000000
25.296300 0.000000
25.322100 0.000000
25.347900 0.000000
25.373700 0.000000
25.399500 0.000000
25.425200 0.000000
25.451000 0.000000
25.476800 0.000000
25.502600 0.000000
25.528400 0.000000
25.554200 0.000000
25.579900 0.000000
25.605700 0.000000
25.631500 0.000000
25.657300 0.000000
25.683100 0.000000
25.708900 0.000000
25.734600 0.000000
25.760400 0.000000
25.786200 0.000000
25.812000 0.000000
25.837800 0.000000
25.863500 0.000000
25.889300 0.000000
25.915100 0.000000
25.940900 0.000000
25.966700 0.000000
25.992500 0.000000
26.018200 0.000000
26.044000 0.000000
26.069800 0.000000
26.095600 0.000000
26.121400 0.000000
26.147200 0.000000
26.172900 0.000000
26.198700 0.000000
26.224500 0.000000
26.250300 0.000000
26.276100 0.000000
26.301900 0.000000
26.327600 0.000000
26.353400 0.000000
26.379200 0.000000
26.405000 0.000000
26.430800 0.000000
26.456500 0.000000
26.482300 0.000000
26.508100 0.000000
26.533900 0.000000
26.559700 0.000000
26.585500 0.000000
26.611200 0.000000
26.637000 0.000000
26.662800 0.000000
26.688600 0.000000
26.714400 0.000000
26.740200 0.000000
26.765900 0.000000
e
