set title 'mp-25302 - Density of States'
set xlabel 'Energy (eV)'
set ylabel 'DOS (states/eV)'
set grid
set xrange [-10:10]
set yrange [0:9.363]
set xzeroaxis lt -1
set terminal png size 800,600
set output 'mp-25302_dos_gnuplot.png'
plot '-' using 1:2 with lines title 'DOS'
-48.943200 0.000000
-48.888700 0.000000
-48.834200 0.000000
-48.779700 0.000000
-48.725200 0.000000
-48.670700 0.000000
-48.616200 0.000000
-48.561700 0.000000
-48.507200 0.000000
-48.452700 0.000000
-48.398200 0.000000
-48.343700 0.000000
-48.289200 0.000000
-48.234700 0.000000
-48.180200 0.000000
-48.125700 0.000000
-48.071200 0.000000
-48.016700 0.000000
-47.962200 0.000000
-47.907700 0.000000
-47.853200 0.000000
-47.798700 0.000000
-47.744200 0.000000
-47.689700 0.000000
-47.635200 0.000000
-47.580700 0.000000
-47.526200 0.000000
-47.471700 0.000000
-47.417200 0.000000
-47.362700 0.000000
-47.308200 0.000000
-47.253700 0.000000
-47.199200 0.000000
-47.144700 0.000000
-47.090200 0.000000
-47.035700 0.000000
-46.981100 0.000000
-46.926600 0.000000
-46.872100 0.000000
-46.817600 0.000000
-46.763100 0.000000
-46.708600 0.000000
-46.654100 0.000000
-46.599600 0.000000
-46.545100 0.000000
-46.490600 0.000000
-46.436100 0.000000
-46.381600 0.000000
-46.327100 0.000000
-46.272600 0.000000
-46.218100 0.000000
-46.163600 0.000000
-46.109100 0.000000
-46.054600 0.000000
-46.000100 0.000000
-45.945600 0.000000
-45.891100 0.000000
-45.836600 0.000000
-45.782100 0.000000
-45.727600 0.000000
-45.673100 0.000000
-45.618600 0.000000
-45.564100 0.000000
-45.509600 0.000000
-45.455100 0.000000
-45.400600 0.000000
-45.346100 0.000000
-45.291600 0.000000
-45.237100 0.000000
-45.182600 0.000000
-45.128100 0.000000
-45.073600 0.000000
-45.019100 0.000000
-44.964600 0.000000
-44.910100 0.000000
-44.855600 0.000000
-44.801000 0.000000
-44.746500 0.000000
-44.692000 0.000000
-44.637500 0.000000
-44.583000 0.000000
-44.528500 0.000000
-44.474000 0.000000
-44.419500 0.000000
-44.365000 0.000000
-44.310500 0.000000
-44.256000 0.000000
-44.201500 0.000000
-44.147000 0.000000
-44.092500 0.000000
-44.038000 0.000000
-43.983500 0.000000
-43.929000 0.000000
-43.874500 0.000000
-43.820000 0.000000
-43.765500 0.000000
-43.711000 0.000000
-43.656500 0.000000
-43.602000 0.000000
-43.547500 0.000000
-43.493000 0.000000
-43.438500 0.000000
-43.384000 0.000000
-43.329500 0.000000
-43.275000 0.000000
-43.220500 0.000000
-43.166000 0.000000
-43.111500 0.000000
-43.057000 0.000000
-43.002500 0.000000
-42.948000 0.000000
-42.893500 0.000000
-42.839000 0.000000
-42.784500 0.000000
-42.730000 0.000000
-42.675500 0.000000
-42.620900 0.000000
-42.566400 0.000000
-42.511900 0.000000
-42.457400 0.000000
-42.402900 0.000000
-42.348400 0.000000
-42.293900 0.000000
-42.239400 0.000000
-42.184900 0.000000
-42.130400 0.000000
-42.075900 0.000000
-42.021400 0.000000
-41.966900 0.000000
-41.912400 0.000000
-41.857900 0.000000
-41.803400 0.000000
-41.748900 0.000000
-41.694400 0.000000
-41.639900 0.000000
-41.585400 0.000000
-41.530900 0.000000
-41.476400 0.000000
-41.421900 2.751800
-41.367400 5.414100
-41.312900 7.204000
-41.258400 16.294100
-41.203900 0.000000
-41.149400 0.000000
-41.094900 0.000000
-41.040400 0.000000
-40.985900 0.000000
-40.931400 0.000000
-40.876900 0.000000
-40.822400 0.000000
-40.767900 0.000000
-40.713400 0.000000
-40.658900 0.000000
-40.604400 0.000000
-40.549900 0.000000
-40.495300 0.000000
-40.440800 0.000000
-40.386300 0.000000
-40.331800 0.000000
-40.277300 0.000000
-40.222800 0.000000
-40.168300 0.000000
-40.113800 0.000000
-40.059300 0.000000
-40.004800 0.000000
-39.950300 0.000000
-39.895800 0.000000
-39.841300 0.000000
-39.786800 0.000000
-39.732300 0.000000
-39.677800 0.000000
-39.623300 0.000000
-39.568800 0.000000
-39.514300 0.000000
-39.459800 0.000000
-39.405300 0.000000
-39.350800 0.000000
-39.296300 0.000000
-39.241800 0.000000
-39.187300 0.000000
-39.132800 0.000000
-39.078300 0.000000
-39.023800 0.000000
-38.969300 0.000000
-38.914800 0.000000
-38.860300 0.000000
-38.805800 0.000000
-38.751300 0.000000
-38.696800 0.000000
-38.642300 0.000000
-38.587800 0.000000
-38.533300 0.000000
-38.478800 0.000000
-38.424300 0.000000
-38.369800 0.000000
-38.315200 0.000000
-38.260700 0.000000
-38.206200 0.000000
-38.151700 0.000000
-38.097200 0.000000
-38.042700 0.000000
-37.988200 0.000000
-37.933700 0.000000
-37.879200 0.000000
-37.824700 0.000000
-37.770200 0.000000
-37.715700 0.000000
-37.661200 0.000000
-37.606700 0.000000
-37.552200 0.000000
-37.497700 0.000000
-37.443200 0.000000
-37.388700 0.000000
-37.334200 0.000000
-37.279700 0.000000
-37.225200 0.000000
-37.170700 0.000000
-37.116200 0.000000
-37.061700 0.000000
-37.007200 0.000000
-36.952700 0.000000
-36.898200 0.000000
-36.843700 0.000000
-36.789200 0.000000
-36.734700 0.000000
-36.680200 0.000000
-36.625700 0.000000
-36.571200 0.000000
-36.516700 0.000000
-36.462200 0.000000
-36.407700 0.000000
-36.353200 0.000000
-36.298700 0.000000
-36.244200 0.000000
-36.189600 0.000000
-36.135100 0.000000
-36.080600 0.000000
-36.026100 0.000000
-35.971600 0.000000
-35.917100 0.000000
-35.862600 0.000000
-35.808100 0.000000
-35.753600 0.000000
-35.699100 0.000000
-35.644600 0.000000
-35.590100 0.000000
-35.535600 0.000000
-35.481100 0.000000
-35.426600 0.000000
-35.372100 0.000000
-35.317600 0.000000
-35.263100 0.000000
-35.208600 0.000000
-35.154100 0.000000
-35.099600 0.000000
-35.045100 0.000000
-34.990600 0.000000
-34.936100 0.000000
-34.881600 0.000000
-34.827100 0.000000
-34.772600 0.000000
-34.718100 0.000000
-34.663600 0.000000
-34.609100 0.000000
-34.554600 0.000000
-34.500100 0.000000
-34.445600 0.000000
-34.391100 0.000000
-34.336600 0.000000
-34.282100 0.000000
-34.227600 0.000000
-34.173100 0.000000
-34.118600 0.000000
-34.064100 0.000000
-34.009500 0.000000
-33.955000 0.000000
-33.900500 0.000000
-33.846000 0.000000
-33.791500 0.000000
-33.737000 0.000000
-33.682500 0.000000
-33.628000 0.000000
-33.573500 0.000000
-33.519000 0.000000
-33.464500 0.000000
-33.410000 0.000000
-33.355500 0.000000
-33.301000 0.000000
-33.246500 0.000000
-33.192000 0.000000
-33.137500 0.000000
-33.083000 0.000000
-33.028500 0.000000
-32.974000 0.000000
-32.919500 0.000000
-32.865000 0.000000
-32.810500 0.000000
-32.756000 0.000000
-32.701500 0.000000
-32.647000 0.000000
-32.592500 0.000000
-32.538000 0.000000
-32.483500 0.000000
-32.429000 0.000000
-32.374500 0.000000
-32.320000 0.000000
-32.265500 0.000000
-32.211000 0.000000
-32.156500 0.000000
-32.102000 0.000000
-32.047500 0.000000
-31.993000 0.000000
-31.938500 0.000000
-31.883900 0.000000
-31.829400 0.000000
-31.774900 0.000000
-31.720400 0.000000
-31.665900 0.000000
-31.611400 0.000000
-31.556900 0.000000
-31.502400 0.000000
-31.447900 0.000000
-31.393400 0.000000
-31.338900 0.000000
-31.284400 0.000000
-31.229900 0.000000
-31.175400 0.000000
-31.120900 0.000000
-31.066400 0.000000
-31.011900 0.000000
-30.957400 0.000000
-30.902900 0.000000
-30.848400 0.000000
-30.793900 0.000000
-30.739400 0.000000
-30.684900 0.000000
-30.630400 0.000000
-30.575900 0.000000
-30.521400 0.000000
-30.466900 0.000000
-30.412400 0.000000
-30.357900 0.000000
-30.303400 0.000000
-30.248900 0.000000
-30.194400 0.000000
-30.139900 0.000000
-30.085400 0.000000
-30.030900 0.000000
-29.976400 0.000000
-29.921900 0.000000
-29.867400 0.000000
-29.812900 0.000000
-29.758400 0.000000
-29.703800 0.000000
-29.649300 0.000000
-29.594800 0.000000
-29.540300 0.000000
-29.485800 0.000000
-29.431300 0.000000
-29.376800 0.000000
-29.322300 0.000000
-29.267800 0.000000
-29.213300 0.000000
-29.158800 0.000000
-29.104300 0.000000
-29.049800 0.000000
-28.995300 0.000000
-28.940800 0.000000
-28.886300 0.000000
-28.831800 0.000000
-28.777300 0.000000
-28.722800 0.000000
-28.668300 0.000000
-28.613800 0.000000
-28.559300 0.000000
-28.504800 0.000000
-28.450300 0.000000
-28.395800 0.000000
-28.341300 0.000000
-28.286800 0.000000
-28.232300 0.000000
-28.177800 0.000000
-28.123300 0.000000
-28.068800 0.000000
-28.014300 0.000000
-27.959800 0.000000
-27.905300 0.000000
-27.850800 0.000000
-27.796300 0.000000
-27.741800 0.000000
-27.687300 0.000000
-27.632800 0.000000
-27.578200 0.000000
-27.523700 0.000000
-27.469200 0.000000
-27.414700 0.000000
-27.360200 0.000000
-27.305700 0.000000
-27.251200 0.000000
-27.196700 0.000000
-27.142200 0.000000
-27.087700 0.000000
-27.033200 0.000000
-26.978700 0.000000
-26.924200 0.000000
-26.869700 0.000000
-26.815200 0.000000
-26.760700 0.000000
-26.706200 0.000000
-26.651700 0.000000
-26.597200 0.000000
-26.542700 0.000000
-26.488200 0.000000
-26.433700 0.000000
-26.379200 0.000000
-26.324700 0.000000
-26.270200 0.000000
-26.215700 0.000000
-26.161200 0.000000
-26.106700 0.000000
-26.052200 0.000000
-25.997700 0.000000
-25.943200 0.000000
-25.888700 0.000000
-25.834200 0.000000
-25.779700 0.000000
-25.725200 0.000000
-25.670700 0.000000
-25.616200 0.000000
-25.561700 0.000000
-25.507200 0.000000
-25.452700 0.000000
-25.398100 0.000000
-25.343600 0.000000
-25.289100 0.000000
-25.234600 0.000000
-25.180100 0.000000
-25.125600 0.000000
-25.071100 0.000000
-25.016600 0.000000
-24.962100 0.000000
-24.907600 0.000000
-24.853100 0.000000
-24.798600 0.000000
-24.744100 0.000000
-24.689600 0.000000
-24.635100 0.000000
-24.580600 0.000000
-24.526100 0.000000
-24.471600 0.000000
-24.417100 0.000000
-24.362600 0.000000
-24.308100 0.000000
-24.253600 0.000000
-24.199100 0.000000
-24.144600 0.000000
-24.090100 0.000000
-24.035600 0.000000
-23.981100 0.000000
-23.926600 0.000000
-23.872100 0.000000
-23.817600 0.000000
-23.763100 0.000000
-23.708600 0.000000
-23.654100 0.000000
-23.599600 0.000000
-23.545100 0.000000
-23.490600 0.000000
-23.436100 0.000000
-23.381600 0.000000
-23.327100 0.000000
-23.272500 0.000000
-23.218000 0.000000
-23.163500 0.000000
-23.109000 0.000000
-23.054500 0.000000
-23.000000 0.000000
-22.945500 0.000000
-22.891000 0.000000
-22.836500 0.000000
-22.782000 0.000000
-22.727500 0.000000
-22.673000 0.000000
-22.618500 0.000000
-22.564000 0.000000
-22.509500 0.000000
-22.455000 0.000000
-22.400500 0.000000
-22.346000 0.000000
-22.291500 0.000000
-22.237000 0.000000
-22.182500 0.000000
-22.128000 0.000000
-22.073500 0.000000
-22.019000 0.000000
-21.964500 0.000000
-21.910000 0.000000
-21.855500 0.000000
-21.801000 0.000000
-21.746500 0.000000
-21.692000 0.000000
-21.637500 0.000000
-21.583000 0.000000
-21.528500 0.000000
-21.474000 0.000000
-21.419500 0.000000
-21.365000 0.000000
-21.310500 0.000000
-21.256000 0.000000
-21.201500 0.000000
-21.147000 0.000000
-21.092400 0.000000
-21.037900 0.000000
-20.983400 0.000000
-20.928900 0.000000
-20.874400 0.000000
-20.819900 0.000000
-20.765400 0.000000
-20.710900 0.000000
-20.656400 0.000000
-20.601900 0.000000
-20.547400 0.000000
-20.492900 0.000000
-20.438400 0.000000
-20.383900 0.000000
-20.329400 0.000000
-20.274900 0.000000
-20.220400 0.000000
-20.165900 0.000000
-20.111400 0.000000
-20.056900 0.000000
-20.002400 0.000000
-19.947900 0.000000
-19.893400 0.000000
-19.838900 0.000000
-19.784400 0.000000
-19.729900 0.000000
-19.675400 0.000000
-19.620900 0.000000
-19.566400 0.000000
-19.511900 0.000000
-19.457400 0.000000
-19.402900 0.000000
-19.348400 0.000000
-19.293900 0.000000
-19.239400 0.000000
-19.184900 0.000000
-19.130400 0.000000
-19.075900 0.000000
-19.021400 0.000000
-18.966800 0.000000
-18.912300 0.000000
-18.857800 0.000000
-18.803300 0.000000
-18.748800 0.000000
-18.694300 0.000000
-18.639800 0.000000
-18.585300 0.000000
-18.530800 0.000000
-18.476300 0.000000
-18.421800 0.000000
-18.367300 0.000000
-18.312800 0.000000
-18.258300 0.000000
-18.203800 0.000000
-18.149300 0.000000
-18.094800 0.000000
-18.040300 0.000000
-17.985800 0.000000
-17.931300 0.000000
-17.876800 0.000000
-17.822300 0.000000
-17.767800 0.000000
-17.713300 0.000000
-17.658800 0.000000
-17.604300 0.000000
-17.549800 0.000000
-17.495300 0.187300
-17.440800 0.334800
-17.386300 0.331100
-17.331800 0.353300
-17.277300 0.344500
-17.222800 0.359500
-17.168300 0.381000
-17.113800 0.387700
-17.059300 0.395300
-17.004800 0.409900
-16.950300 0.427000
-16.895800 0.445300
-16.841300 0.466300
-16.786700 0.487300
-16.732200 0.508200
-16.677700 0.529000
-16.623200 0.568400
-16.568700 0.618600
-16.514200 0.659100
-16.459700 0.699100
-16.405200 0.755000
-16.350700 0.893400
-16.296200 1.019200
-16.241700 1.163600
-16.187200 1.587700
-16.132700 1.549800
-16.078200 1.324400
-16.023700 0.820400
-15.969200 5.646300
-15.914700 3.073800
-15.860200 2.326300
-15.805700 1.873100
-15.751200 1.561700
-15.696700 1.350700
-15.642200 1.185100
-15.587700 1.110500
-15.533200 0.546700
-15.478700 0.176000
-15.424200 0.000000
-15.369700 0.000000
-15.315200 0.000000
-15.260700 0.000000
-15.206200 0.000000
-15.151700 0.000000
-15.097200 0.000000
-15.042700 0.000000
-14.988200 0.000000
-14.933700 0.000000
-14.879200 0.000000
-14.824700 0.000000
-14.770200 0.000000
-14.715700 0.000000
-14.661100 0.000000
-14.606600 0.000000
-14.552100 0.000000
-14.497600 0.000000
-14.443100 0.000000
-14.388600 0.000000
-14.334100 0.000000
-14.279600 0.000000
-14.225100 0.000000
-14.170600 0.000000
-14.116100 0.000000
-14.061600 0.000000
-14.007100 0.000000
-13.952600 0.000000
-13.898100 0.000000
-13.843600 0.000000
-13.789100 0.000000
-13.734600 0.000000
-13.680100 0.000000
-13.625600 0.000000
-13.571100 0.000000
-13.516600 0.000000
-13.462100 0.000000
-13.407600 0.000000
-13.353100 0.000000
-13.298600 0.000000
-13.244100 0.000000
-13.189600 0.000000
-13.135100 0.000000
-13.080600 0.000000
-13.026100 0.000000
-12.971600 0.000000
-12.917100 0.000000
-12.862600 0.000000
-12.808100 0.000000
-12.753600 0.000000
-12.699100 0.000000
-12.644600 0.000000
-12.590100 0.000000
-12.535600 0.000000
-12.481000 0.000000
-12.426500 0.000000
-12.372000 0.000000
-12.317500 0.000000
-12.263000 0.000000
-12.208500 0.000000
-12.154000 0.000000
-12.099500 0.000000
-12.045000 0.000000
-11.990500 0.000000
-11.936000 0.000000
-11.881500 0.000000
-11.827000 0.000000
-11.772500 0.000000
-11.718000 0.000000
-11.663500 0.000000
-11.609000 0.000000
-11.554500 0.000000
-11.500000 0.000000
-11.445500 0.000000
-11.391000 0.000000
-11.336500 0.000000
-11.282000 0.000000
-11.227500 0.000000
-11.173000 0.000000
-11.118500 0.000000
-11.064000 0.000000
-11.009500 0.000000
-10.955000 0.000000
-10.900500 0.000000
-10.846000 0.000000
-10.791500 0.000000
-10.737000 0.000000
-10.682500 0.000000
-10.628000 0.000000
-10.573500 0.000000
-10.519000 0.000000
-10.464500 0.000000
-10.410000 0.000000
-10.355400 0.000000
-10.300900 0.000000
-10.246400 0.000000
-10.191900 0.000000
-10.137400 0.000000
-10.082900 0.000000
-10.028400 0.000000
-9.973900 0.000000
-9.919400 0.000000
-9.864900 0.000000
-9.810400 0.000000
-9.755900 0.000000
-9.701400 0.000000
-9.646900 0.000000
-9.592400 0.000000
-9.537900 0.000000
-9.483400 0.000000
-9.428900 0.000000
-9.374400 0.000000
-9.319900 0.000000
-9.265400 0.000000
-9.210900 0.000000
-9.156400 0.000000
-9.101900 0.000000
-9.047400 0.000000
-8.992900 0.000000
-8.938400 0.000000
-8.883900 0.000000
-8.829400 0.000000
-8.774900 0.000000
-8.720400 0.000000
-8.665900 0.000000
-8.611400 0.000000
-8.556900 0.000000
-8.502400 0.000000
-8.447900 0.000000
-8.393400 0.000000
-8.338900 0.000000
-8.284400 0.000000
-8.229900 0.000000
-8.175300 0.000000
-8.120800 0.000000
-8.066300 0.000000
-8.011800 0.000000
-7.957300 0.000000
-7.902800 0.000000
-7.848300 0.000000
-7.793800 0.000000
-7.739300 0.000000
-7.684800 0.000000
-7.630300 0.000000
-7.575800 0.000000
-7.521300 0.000000
-7.466800 0.000000
-7.412300 0.000000
-7.357800 0.000000
-7.303300 0.000000
-7.248800 0.000000
-7.194300 0.000000
-7.139800 0.000000
-7.085300 0.000000
-7.030800 0.000000
-6.976300 0.000000
-6.921800 0.000000
-6.867300 0.000000
-6.812800 0.000000
-6.758300 0.000000
-6.703800 0.000000
-6.649300 0.000000
-6.594800 0.000000
-6.540300 0.000000
-6.485800 0.000000
-6.431300 0.000000
-6.376800 0.000000
-6.322300 0.000000
-6.267800 0.000000
-6.213300 0.000000
-6.158800 0.000000
-6.104300 0.000000
-6.049700 0.000000
-5.995200 0.000000
-5.940700 0.000000
-5.886200 0.000000
-5.831700 0.000000
-5.777200 0.000000
-5.722700 0.000000
-5.668200 0.000000
-5.613700 0.000000
-5.559200 0.000000
-5.504700 0.000000
-5.450200 0.000000
-5.395700 0.000000
-5.341200 0.000000
-5.286700 0.000000
-5.232200 0.000000
-5.177700 0.000000
-5.123200 0.000000
-5.068700 0.000000
-5.014200 0.000000
-4.959700 0.000000
-4.905200 0.000000
-4.850700 0.000000
-4.796200 0.000000
-4.741700 0.000000
-4.687200 0.000000
-4.632700 0.000000
-4.578200 0.000000
-4.523700 0.000000
-4.469200 0.000000
-4.414700 0.000000
-4.360200 0.000000
-4.305700 0.000000
-4.251200 0.000000
-4.196700 0.095800
-4.142200 0.283300
-4.087700 0.369300
-4.033200 0.527300
-3.978700 0.628400
-3.924200 0.617700
-3.869600 0.654500
-3.815100 0.695800
-3.760600 0.743100
-3.706100 0.796100
-3.651600 0.871400
-3.597100 1.166500
-3.542600 1.695000
-3.488100 2.340800
-3.433600 2.283500
-3.379100 2.046100
-3.324600 1.745800
-3.270100 0.652100
-3.215600 2.049900
-3.161100 2.111100
-3.106600 2.363200
-3.052100 2.398200
-2.997600 2.689700
-2.943100 3.129600
-2.888600 2.484900
-2.834100 1.617600
-2.779600 1.438700
-2.725100 1.142700
-2.670600 1.379300
-2.616100 1.673500
-2.561600 2.003900
-2.507100 1.711300
-2.452600 2.365900
-2.398100 1.370500
-2.343600 1.256400
-2.289100 1.054900
-2.234600 0.800100
-2.180100 0.539500
-2.125600 0.404000
-2.071100 0.278700
-2.016600 0.153200
-1.962100 0.028800
-1.907600 0.188100
-1.853100 0.463500
-1.798600 0.653300
-1.744000 0.875800
-1.689500 1.251700
-1.635000 1.716300
-1.580500 1.990800
-1.526000 2.055100
-1.471500 1.777400
-1.417000 1.972800
-1.362500 2.064400
-1.308000 1.823200
-1.253500 1.990500
-1.199000 2.226700
-1.144500 2.192300
-1.090000 1.971100
-1.035500 1.787900
-0.981000 1.905900
-0.926500 0.880200
-0.872000 0.600800
-0.817500 0.603600
-0.763000 0.623200
-0.708500 0.644800
-0.654000 0.681100
-0.599500 0.764300
-0.545000 0.863600
-0.490500 0.811200
-0.436000 0.877500
-0.381500 1.092200
-0.327000 1.121500
-0.272500 1.182100
-0.218000 1.307400
-0.163500 1.132300
-0.109000 1.087400
-0.054500 1.073200
0.000000 1.201300
0.054500 1.040300
0.109000 0.938500
0.163500 1.059600
0.218000 1.304200
0.272500 1.444000
0.327000 1.057300
0.381500 0.846500
0.436100 0.708500
0.490600 0.629500
0.545100 0.000000
0.599600 0.000000
0.654100 0.000000
0.708600 0.000000
0.763100 0.000000
0.817600 0.000000
0.872100 0.000000
0.926600 0.000000
0.981100 0.000000
1.035600 0.000000
1.090100 0.000000
1.144600 0.000000
1.199100 0.000000
1.253600 0.000000
1.308100 0.000000
1.362600 0.000000
1.417100 0.000000
1.471600 0.000000
1.526100 0.000000
1.580600 0.000000
1.635100 0.000000
1.689600 0.000000
1.744100 0.000000
1.798600 0.000000
1.853100 0.000000
1.907600 0.000000
1.962100 0.000000
2.016600 0.000000
2.071100 0.000000
2.125600 0.000000
2.180100 0.000000
2.234600 0.000000
2.289100 0.000000
2.343600 0.000000
2.398100 0.000000
2.452600 0.000000
2.507100 0.000000
2.561700 0.000000
2.616200 0.000000
2.670700 0.000000
2.725200 0.000000
2.779700 0.000000
2.834200 0.645000
2.888700 1.044700
2.943200 1.612700
2.997700 1.701300
3.052200 1.433700
3.106700 1.051800
3.161200 0.935000
3.215700 0.845100
3.270200 0.771600
3.324700 0.721100
3.379200 0.692900
3.433700 0.670200
3.488200 0.653300
3.542700 0.646200
3.597200 0.646500
3.651700 0.648000
3.706200 0.679900
3.760700 1.348300
3.815200 1.783200
3.869700 0.771600
3.924200 0.231800
3.978700 0.313700
4.033200 0.401500
4.087700 0.489700
4.142200 3.221400
4.196700 1.193600
4.251200 1.476700
4.305700 1.612900
4.360200 2.044400
4.414700 2.746800
4.469200 2.076600
4.523700 2.252200
4.578200 7.057000
4.632700 8.511700
4.687200 1.726600
4.741800 0.941800
4.796300 1.119100
4.850800 1.090100
4.905300 0.000000
4.959800 0.000000
5.014300 0.000000
5.068800 0.000000
5.123300 0.224100
5.177800 1.131300
5.232300 1.826800
5.286800 3.260400
5.341300 4.780800
5.395800 3.107500
5.450300 1.005100
5.504800 1.881500
5.559300 2.273200
5.613800 1.905300
5.668300 1.764700
5.722800 1.796900
5.777300 2.367600
5.831800 2.431400
5.886300 1.867900
5.940800 1.636100
5.995300 1.231200
6.049800 0.524600
6.104300 0.559700
6.158800 0.488600
6.213300 0.469800
6.267800 0.013400
6.322300 0.000000
6.376800 0.000000
6.431300 0.000000
6.485800 0.000000
6.540300 0.000000
6.594800 0.000000
6.649300 0.000000
6.703800 0.000000
6.758300 0.000000
6.812800 0.000000
6.867400 0.000000
6.921900 0.000000
6.976400 0.000000
7.030900 0.000000
7.085400 0.000000
7.139900 0.000000
7.194400 0.000000
7.248900 0.000000
7.303400 0.000000
7.357900 0.000000
7.412400 0.000000
7.466900 0.000000
7.521400 0.000000
7.575900 0.000000
7.630400 0.000000
7.684900 0.000000
7.739400 0.000000
7.793900 0.000000
7.848400 0.000000
7.902900 0.000000
7.957400 0.000000
8.011900 0.000000
8.066400 0.000000
8.120900 0.000000
8.175400 0.002400
8.229900 0.008600
8.284400 0.017200
8.338900 0.025000
8.393400 0.025000
8.447900 0.028500
8.502400 0.032200
8.556900 0.035100
8.611400 0.038500
8.665900 0.042100
8.720400 0.045800
8.774900 0.049100
8.829400 0.051800
8.883900 0.054300
8.938400 0.057100
8.992900 0.060100
9.047500 0.063300
9.102000 0.066500
9.156500 0.069900
9.211000 0.073400
9.265500 0.077000
9.320000 0.080600
9.374500 0.084300
9.429000 0.087900
9.483500 0.091700
9.538000 0.095700
9.592500 0.100200
9.647000 0.104700
9.701500 0.109500
9.756000 0.114300
9.810500 0.119300
9.865000 0.124700
9.919500 0.135300
9.974000 0.143700
10.028500 0.148100
10.083000 0.149200
10.137500 0.153900
10.192000 0.158700
10.246500 0.163400
10.301000 0.167700
10.355500 0.171300
10.410000 0.175300
10.464500 0.180300
10.519000 0.185300
10.573500 0.190300
10.628000 0.194900
10.682500 0.199000
10.737000 0.203400
10.791500 0.209100
10.846000 0.219100
10.900500 0.229100
10.955000 0.237900
11.009500 0.245700
11.064000 0.251800
11.118500 0.258500
11.173000 0.266000
11.227600 0.273600
11.282100 0.281200
11.336600 0.289000
11.391100 0.296600
11.445600 0.302200
11.500100 0.307700
11.554600 0.315700
11.609100 0.325000
11.663600 0.336200
11.718100 0.351800
11.772600 0.366700
11.827100 0.378300
11.881600 0.384100
11.936100 0.377600
11.990600 0.382500
12.045100 0.388600
12.099600 0.395500
12.154100 0.402700
12.208600 0.410200
12.263100 0.418100
12.317600 0.439200
12.372100 0.438100
12.426600 0.427500
12.481100 0.427400
12.535600 0.423200
12.590100 0.421600
12.644600 0.425800
12.699100 0.430900
12.753600 0.439500
12.808100 0.460500
12.862600 0.504300
12.917100 0.395500
12.971600 0.379600
13.026100 0.371700
13.080600 0.365200
13.135100 0.360300
13.189600 0.357500
13.244100 0.350700
13.298600 0.398400
13.353200 0.466200
13.407700 0.419700
13.462200 0.445500
13.516700 0.475500
13.571200 0.518500
13.625700 0.528000
13.680200 0.511300
13.734700 0.504700
13.789200 0.494100
13.843700 0.488500
13.898200 0.492600
13.952700 0.518900
14.007200 0.500900
14.061700 0.459600
14.116200 0.466800
14.170700 0.576400
14.225200 0.528500
14.279700 0.543000
14.334200 0.567900
14.388700 0.590900
14.443200 0.554100
14.497700 0.545900
14.552200 0.576100
14.606700 0.574500
14.661200 0.543400
14.715700 0.517100
14.770200 0.483300
14.824700 0.483800
14.879200 0.498000
14.933700 0.426500
14.988200 0.345900
15.042700 0.301700
15.097200 0.276800
15.151700 0.282200
15.206200 0.316400
15.260700 0.426700
15.315200 0.534400
15.369700 0.620200
15.424200 0.779400
15.478700 0.949200
15.533300 1.240100
15.587800 1.272700
15.642300 1.188900
15.696800 1.062300
15.751300 0.860700
15.805800 0.685500
15.860300 0.616000
15.914800 0.499300
15.969300 0.524100
16.023800 0.673400
16.078300 0.862100
16.132800 0.956300
16.187300 0.998900
16.241800 1.021200
16.296300 1.011300
16.350800 0.960600
16.405300 0.914500
16.459800 0.867600
16.514300 0.765200
16.568800 0.724000
16.623300 0.737500
16.677800 0.749800
16.732300 0.712300
16.786800 0.679200
16.841300 0.577300
16.895800 0.541800
16.950300 0.530700
17.004800 0.520100
17.059300 0.519200
17.113800 0.504200
17.168300 0.471200
17.222800 0.440200
17.277300 0.442700
17.331800 0.452900
17.386300 0.474300
17.440800 0.634700
17.495300 0.623000
17.549800 0.521900
17.604300 0.448200
17.658900 0.537700
17.713400 0.685900
17.767900 0.735500
17.822400 0.710900
17.876900 0.695000
17.931400 0.683800
17.985900 0.679000
18.040400 0.678200
18.094900 0.693700
18.149400 0.706700
18.203900 0.705400
18.258400 0.709800
18.312900 0.704800
18.367400 0.718200
18.421900 0.710700
18.476400 0.726900
18.530900 0.728000
18.585400 0.730800
18.639900 0.748700
18.694400 0.790200
18.748900 1.116900
18.803400 0.763600
18.857900 0.647300
18.912400 0.611300
18.966900 0.557700
19.021400 0.498800
19.075900 0.455700
19.130400 0.456700
19.184900 0.463900
19.239400 0.475300
19.293900 0.467000
19.348400 0.448600
19.402900 0.436200
19.457400 0.427700
19.511900 0.422000
19.566400 0.416700
19.620900 0.409200
19.675400 0.401300
19.729900 0.394800
19.784400 0.388700
19.839000 0.382500
19.893500 0.375700
19.948000 0.368600
20.002500 0.361700
20.057000 0.355800
20.111500 0.353700
20.166000 0.349600
20.220500 0.345900
20.275000 0.341800
20.329500 0.337600
20.384000 0.333400
20.438500 0.329300
20.493000 0.325800
20.547500 0.322800
20.602000 0.318000
20.656500 0.319000
20.711000 0.355400
20.765500 0.411800
20.820000 0.448900
20.874500 0.396000
20.929000 0.388300
20.983500 0.383900
21.038000 0.386400
21.092500 0.392100
21.147000 0.422300
21.201500 0.492300
21.256000 0.548000
21.310500 0.505800
21.365000 0.539600
21.419500 0.611300
21.474000 0.638900
21.528500 0.673300
21.583000 0.727900
21.637500 0.780800
21.692000 0.877500
21.746500 0.939100
21.801000 0.928300
21.855500 0.836200
21.910000 0.780300
21.964600 0.793700
22.019100 0.911200
22.073600 1.160500
22.128100 1.224500
22.182600 1.183200
22.237100 0.921000
22.291600 0.830600
22.346100 0.897600
22.400600 1.027500
22.455100 1.139500
22.509600 1.129300
22.564100 1.299600
22.618600 1.256800
22.673100 1.167400
22.727600 0.949300
22.782100 0.778900
22.836600 0.735400
22.891100 0.740500
22.945600 0.733200
23.000100 0.748300
23.054600 0.784800
23.109100 0.781800
23.163600 0.786800
23.218100 0.794500
23.272600 0.765700
23.327100 0.680100
23.381600 0.542000
23.436100 0.502800
23.490600 0.566400
23.545100 0.637200
23.599600 0.648200
23.654100 0.626200
23.708600 0.597300
23.763100 0.573500
23.817600 0.562700
23.872100 0.559700
23.926600 0.559800
23.981100 0.564400
24.035600 0.569700
24.090100 0.589600
24.144700 0.611900
24.199200 0.638200
24.253700 0.658100
24.308200 0.663700
24.362700 0.668400
24.417200 0.676400
24.471700 0.688700
24.526200 0.701700
24.580700 0.703500
24.635200 0.675400
24.689700 0.685400
24.744200 0.732600
24.798700 0.720900
24.853200 0.650400
24.907700 0.616200
24.962200 0.582500
25.016700 0.551100
25.071200 0.525700
25.125700 0.499200
25.180200 0.481600
25.234700 0.481800
25.289200 0.487200
25.343700 0.487300
25.398200 0.485200
25.452700 0.525600
25.507200 0.546500
25.561700 0.584500
25.616200 0.623900
25.670700 0.617200
25.725200 0.614800
25.779700 0.666200
25.834200 0.593700
25.888700 0.554500
25.943200 0.534500
25.997700 0.484900
26.052200 0.442500
26.106700 0.431100
26.161200 0.427000
26.215700 0.422600
26.270300 0.424700
26.324800 0.437600
26.379300 0.456300
26.433800 0.480400
26.488300 0.516000
26.542800 0.534400
26.597300 0.550100
26.651800 0.602200
26.706300 0.668700
26.760800 0.709700
26.815300 0.735100
26.869800 0.778500
26.924300 0.754000
26.978800 0.753100
27.033300 0.788900
27.087800 0.764100
27.142300 0.738600
27.196800 0.717400
27.251300 0.671900
27.305800 0.605500
27.360300 0.523600
27.414800 0.442900
27.469300 0.406100
27.523800 0.407300
27.578300 0.396400
27.632800 0.375300
27.687300 0.371800
27.741800 0.386900
27.796300 0.457100
27.850800 0.500300
27.905300 0.495600
27.959800 0.508100
28.014300 0.529800
28.068800 0.563200
28.123300 0.621600
28.177800 0.705600
28.232300 0.920100
28.286800 0.924600
28.341300 0.947000
28.395800 0.868900
28.450400 0.783400
28.504900 0.737900
28.559400 0.704100
28.613900 0.669600
28.668400 0.624800
28.722900 0.577100
28.777400 0.511000
28.831900 0.474100
28.886400 0.472200
28.940900 0.532400
28.995400 0.650300
29.049900 0.711900
29.104400 0.693000
29.158900 0.728900
29.213400 0.690900
29.267900 0.700200
29.322400 0.733900
29.376900 0.718000
29.431400 0.686600
29.485900 0.724000
29.540400 0.675800
29.594900 0.641200
29.649400 0.617500
29.703900 0.613800
29.758400 0.632000
29.812900 0.732200
29.867400 0.715600
29.921900 0.747900
29.976400 0.730300
30.030900 0.720500
30.085400 0.704500
30.139900 0.676300
30.194400 0.655100
30.248900 0.633200
30.303400 0.619700
30.357900 0.615900
30.412400 0.617400
30.466900 0.602100
30.521400 0.590000
30.576000 0.581400
30.630500 0.581300
30.685000 0.629500
30.739500 0.648800
30.794000 0.651500
30.848500 0.653800
30.903000 0.664400
30.957500 0.696900
31.012000 0.656300
31.066500 0.638800
31.121000 0.635000
31.175500 0.630100
31.230000 0.619300
31.284500 0.615600
31.339000 0.619500
31.393500 0.609200
31.448000 0.596500
31.502500 0.631400
31.557000 0.607400
31.611500 0.644300
31.666000 0.706900
31.720500 0.733200
31.775000 0.742100
31.829500 0.725500
31.884000 0.765500
31.938500 0.842400
31.993000 0.936000
32.047500 1.070500
32.102000 1.218800
32.156500 1.259500
32.211000 1.221800
32.265500 1.049900
32.320000 1.014700
32.374500 0.973500
32.429000 0.874200
32.483500 0.850900
32.538000 0.909900
32.592500 0.954400
32.647000 0.976400
32.701500 0.984200
32.756100 0.981000
32.810600 1.022000
32.865100 1.102000
32.919600 1.158500
32.974100 1.168400
33.028600 1.076200
33.083100 0.991800
33.137600 0.996700
33.192100 1.009200
33.246600 1.018500
33.301100 1.128200
33.355600 1.176700
33.410100 1.256400
33.464600 1.340900
33.519100 1.455800
33.573600 1.379300
33.628100 1.349000
33.682600 1.295600
33.737100 1.162600
33.791600 1.091600
33.846100 1.052300
33.900600 1.027000
33.955100 0.997000
34.009600 1.146800
34.064100 1.250300
34.118600 1.320100
34.173100 1.316200
34.227600 1.579800
34.282100 1.781600
34.336600 1.693200
34.391100 1.416200
34.445600 1.577900
34.500100 1.908100
34.554600 2.155700
34.609100 2.087800
34.663600 1.572000
34.718100 1.134900
34.772600 1.012700
34.827100 1.095600
34.881700 0.938900
34.936200 0.947000
34.990700 1.081400
35.045200 1.118100
35.099700 1.166500
35.154200 1.198500
35.208700 1.126000
35.263200 1.008500
35.317700 0.952800
35.372200 0.959400
35.426700 0.955800
35.481200 0.941800
35.535700 0.917800
35.590200 0.908500
35.644700 0.896600
35.699200 0.916000
35.753700 0.962300
35.808200 1.014300
35.862700 1.069000
35.917200 1.125700
35.971700 1.132500
36.026200 1.152300
36.080700 1.203900
36.135200 1.155800
36.189700 1.161600
36.244200 1.162600
36.298700 1.122600
36.353200 1.075600
36.407700 1.008600
36.462200 0.981000
36.516700 0.935400
36.571200 0.902100
36.625700 0.854000
36.680200 0.769200
36.734700 0.709300
36.789200 0.683700
36.843700 0.619300
36.898200 0.605500
36.952700 0.585100
37.007200 0.542700
37.061800 0.493000
37.116300 0.559400
37.170800 0.542800
37.225300 0.553500
37.279800 0.570200
37.334300 0.610300
37.388800 0.660000
37.443300 0.666700
37.497800 0.694600
37.552300 0.724500
37.606800 0.748600
37.661300 0.763000
37.715800 0.766000
37.770300 0.753200
37.824800 0.754500
37.879300 0.756300
37.933800 0.764800
37.988300 0.783200
38.042800 0.791600
38.097300 0.818000
38.151800 0.824800
38.206300 0.809100
38.260800 0.806000
38.315300 0.809800
38.369800 0.870800
38.424300 0.892900
38.478800 0.910400
38.533300 0.940400
38.587800 0.989900
38.642300 0.972100
38.696800 0.938400
38.751300 0.921600
38.805800 0.920600
38.860300 0.934300
38.914800 0.930500
38.969300 0.929800
39.023800 0.954100
39.078300 0.823900
39.132800 0.674100
39.187400 0.662300
39.241900 0.666600
39.296400 0.681200
39.350900 0.713700
39.405400 0.774100
39.459900 0.835900
39.514400 0.820900
39.568900 0.846500
39.623400 0.873400
39.677900 0.899700
39.732400 0.930200
39.786900 0.897400
39.841400 0.857800
39.895900 0.839800
39.950400 0.828800
40.004900 0.824300
40.059400 0.845700
40.113900 0.869000
40.168400 0.893100
40.222900 0.889500
40.277400 0.956800
40.331900 0.990400
40.386400 1.049200
40.440900 1.013700
40.495400 0.985400
40.549900 0.963400
40.604400 0.986400
40.658900 0.976100
40.713400 0.901900
40.767900 0.891000
40.822400 0.923900
40.876900 0.945400
40.931400 0.963700
40.985900 0.973100
41.040400 0.912200
41.094900 0.868400
41.149400 0.842500
41.203900 0.821600
41.258400 0.866100
41.312900 0.897800
41.367500 0.908900
41.422000 0.865700
41.476500 0.877500
41.531000 0.918800
41.585500 0.717800
41.640000 0.671300
41.694500 0.663500
41.749000 0.661300
41.803500 0.613400
41.858000 0.594300
41.912500 0.611500
41.967000 0.626900
42.021500 0.635200
42.076000 0.657700
42.130500 0.664300
42.185000 0.679500
42.239500 0.706200
42.294000 0.739900
42.348500 0.752100
42.403000 0.727100
42.457500 0.735300
42.512000 0.719200
42.566500 0.719300
42.621000 0.622100
42.675500 0.590000
42.730000 0.574200
42.784500 0.569900
42.839000 0.585000
42.893500 0.593000
42.948000 0.672700
43.002500 0.739000
43.057000 0.817400
43.111500 0.894000
43.166000 0.882300
43.220500 0.834800
43.275000 0.848700
43.329500 0.931700
43.384000 0.912500
43.438500 0.889400
43.493100 0.799800
43.547600 0.756400
43.602100 0.619900
43.656600 0.545200
43.711100 0.532500
43.765600 0.569700
43.820100 0.561000
43.874600 0.525500
43.929100 0.504700
43.983600 0.545900
44.038100 0.640200
44.092600 0.763700
44.147100 0.944200
44.201600 1.092500
44.256100 1.099100
44.310600 1.117200
44.365100 1.107200
44.419600 1.071100
44.474100 1.123100
44.528600 0.943000
44.583100 0.835600
44.637600 0.762300
44.692100 0.698200
44.746600 0.688800
44.801100 0.790500
44.855600 0.894000
44.910100 0.966700
44.964600 1.021200
45.019100 1.068400
45.073600 1.168100
45.128100 1.094300
45.182600 1.113100
45.237100 1.165200
45.291600 1.181000
45.346100 1.138600
45.400600 1.113300
45.455100 1.051900
45.509600 1.043400
45.564100 1.051500
45.618600 1.037300
45.673200 1.066200
45.727700 1.149900
45.782200 1.129500
45.836700 1.325400
45.891200 1.449100
45.945700 1.617700
46.000200 1.417200
46.054700 1.279400
46.109200 1.142000
46.163700 1.014200
46.218200 1.029500
46.272700 0.989500
46.327200 1.010200
46.381700 1.036900
46.436200 1.032000
46.490700 1.026600
46.545200 1.015500
46.599700 1.046400
46.654200 1.074300
46.708700 1.046400
46.763200 0.981200
46.817700 0.976200
46.872200 1.010100
46.926700 1.022100
46.981200 1.054800
47.035700 1.085100
47.090200 1.170900
47.144700 1.212300
47.199200 1.207000
47.253700 1.193100
47.308200 1.131000
47.362700 1.023300
47.417200 1.046500
47.471700 1.107500
47.526200 1.101400
47.580700 1.097900
47.635200 1.108000
47.689700 1.116200
47.744200 1.112500
47.798800 1.102200
47.853300 1.072200
47.907800 1.047000
47.962300 0.970900
48.016800 0.931100
48.071300 1.035100
48.125800 1.113400
48.180300 1.246000
48.234800 1.138500
48.289300 1.199500
48.343800 1.280600
48.398300 1.233700
48.452800 1.188300
48.507300 1.150800
48.561800 1.145000
48.616300 1.149000
48.670800 1.130200
48.725300 1.128800
48.779800 1.032300
48.834300 1.044000
48.888800 1.024700
48.943300 1.063200
48.997800 0.939300
49.052300 0.902300
49.106800 0.999800
49.161300 1.055700
49.215800 0.982000
49.270300 0.926000
49.324800 0.882300
49.379300 0.850500
49.433800 0.819900
49.488300 0.860300
49.542800 0.783700
49.597300 0.851100
49.651800 0.962200
49.706300 1.018600
49.760800 1.104800
49.815300 1.191700
49.869800 1.269400
49.924300 1.291300
49.978900 1.188300
50.033400 1.129100
50.087900 1.060800
50.142400 0.996300
50.196900 0.919600
50.251400 0.883400
50.305900 0.873100
50.360400 0.885200
50.414900 0.920500
50.469400 0.983700
50.523900 1.061400
50.578400 1.192500
50.632900 1.018100
50.687400 0.960500
50.741900 0.884800
50.796400 0.851500
50.850900 0.849000
50.905400 0.904400
50.959900 0.935900
51.014400 1.074100
51.068900 0.875700
51.123400 0.782100
51.177900 0.714000
51.232400 0.665800
51.286900 0.646500
51.341400 0.630400
51.395900 0.571600
51.450400 0.548400
51.504900 0.547300
51.559400 0.534900
51.613900 0.506500
51.668400 0.460700
51.722900 0.387900
51.777400 0.315800
51.831900 0.294100
51.886400 0.282800
51.940900 0.250900
51.995400 0.241800
52.049900 0.233800
52.104500 0.228000
52.159000 0.216300
52.213500 0.224000
52.268000 0.244400
52.322500 0.225000
52.377000 0.217100
52.431500 0.208400
52.486000 0.200000
52.540500 0.192700
52.595000 0.190700
52.649500 0.171500
52.704000 0.139200
52.758500 0.111600
52.813000 0.095600
52.867500 0.085700
52.922000 0.075300
52.976500 0.071100
53.031000 0.067200
53.085500 0.063600
53.140000 0.060400
53.194500 0.057700
53.249000 0.055300
53.303500 0.053500
53.358000 0.054100
53.412500 0.053500
53.467000 0.050400
53.521500 0.045400
53.576000 0.040300
53.630500 0.035000
53.685000 0.031000
53.739500 0.026600
53.794000 0.022800
53.848500 0.019400
53.903000 0.016100
53.957500 0.013100
54.012000 0.011100
54.066500 0.010200
54.121000 0.009300
54.175500 0.008500
54.230000 0.007600
54.284600 0.006800
54.339100 0.006000
54.393600 0.005200
54.448100 0.004500
54.502600 0.003900
54.557100 0.003300
54.611600 0.002700
54.666100 0.002200
54.720600 0.001800
54.775100 0.001300
54.829600 0.000900
54.884100 0.000500
54.938600 0.000300
54.993100 0.000100
55.047600 0.000000
55.102100 0.000000
55.156600 0.000000
55.211100 0.000000
55.265600 0.000000
55.320100 0.000000
55.374600 0.000000
55.429100 0.000000
55.483600 0.000000
55.538100 0.000000
55.592600 0.000000
55.647100 0.000000
55.701600 0.000000
55.756100 0.000000
55.810600 0.000000
55.865100 0.000000
55.919600 0.000000
55.974100 0.000000
56.028600 0.000000
56.083100 0.000000
56.137600 0.000000
56.192100 0.000000
56.246600 0.000000
56.301100 0.000000
56.355600 0.000000
56.410200 0.000000
56.464700 0.000000
56.519200 0.000000
56.573700 0.000000
56.628200 0.000000
56.682700 0.000000
56.737200 0.000000
56.791700 0.000000
56.846200 0.000000
56.900700 0.000000
56.955200 0.000000
57.009700 0.000000
57.064200 0.000000
57.118700 0.000000
57.173200 0.000000
57.227700 0.000000
57.282200 0.000000
57.336700 0.000000
57.391200 0.000000
57.445700 0.000000
57.500200 0.000000
57.554700 0.000000
57.609200 0.000000
57.663700 0.000000
57.718200 0.000000
57.772700 0.000000
57.827200 0.000000
57.881700 0.000000
57.936200 0.000000
57.990700 0.000000
58.045200 0.000000
58.099700 0.000000
58.154200 0.000000
58.208700 0.000000
58.263200 0.000000
58.317700 0.000000
58.372200 0.000000
58.426700 0.000000
58.481200 0.000000
58.535700 0.000000
58.590300 0.000000
58.644800 0.000000
58.699300 0.000000
58.753800 0.000000
58.808300 0.000000
58.862800 0.000000
58.917300 0.000000
58.971800 0.000000
59.026300 0.000000
59.080800 0.000000
59.135300 0.000000
59.189800 0.000000
59.244300 0.000000
59.298800 0.000000
59.353300 0.000000
59.407800 0.000000
59.462300 0.000000
59.516800 0.000000
59.571300 0.000000
59.625800 0.000000
59.680300 0.000000
59.734800 0.000000
59.789300 0.000000
59.843800 0.000000
59.898300 0.000000
59.952800 0.000000
60.007300 0.000000
60.061800 0.000000
e
