set title 'mp-9548 - Density of States'
set xlabel 'Energy (eV)'
set ylabel 'DOS (states/eV)'
set grid
set xrange [-10:10]
set yrange [0:13.324]
set xzeroaxis lt -1
set terminal png size 800,600
set output 'mp-9548_dos_gnuplot.png'
plot '-' using 1:2 with lines title 'DOS'
-23.787600 0.000000
-23.769000 0.000000
-23.750400 0.000000
-23.731700 0.000000
-23.713100 0.000000
-23.694500 0.000000
-23.675800 0.000000
-23.657200 0.000000
-23.638600 0.000000
-23.619900 0.000000
-23.601300 0.000000
-23.582700 0.000000
-23.564000 0.000000
-23.545400 0.000000
-23.526800 0.000000
-23.508100 0.000000
-23.489500 0.000000
-23.470900 0.000000
-23.452200 0.000000
-23.433600 0.000000
-23.415000 0.000000
-23.396300 0.000000
-23.377700 0.000000
-23.359100 0.000000
-23.340400 0.000000
-23.321800 0.000000
-23.303200 0.000000
-23.284500 0.000000
-23.265900 0.000000
-23.247300 0.000000
-23.228600 0.000000
-23.210000 0.000000
-23.191400 0.000000
-23.172700 0.000000
-23.154100 0.000000
-23.135500 0.000000
-23.116800 0.000000
-23.098200 0.000000
-23.079500 0.000000
-23.060900 0.000000
-23.042300 0.000000
-23.023600 0.000000
-23.005000 0.000000
-22.986400 0.000000
-22.967700 0.000000
-22.949100 0.000000
-22.930500 0.000000
-22.911800 0.000000
-22.893200 0.000000
-22.874600 0.000000
-22.855900 0.000000
-22.837300 0.000000
-22.818700 0.000000
-22.800000 0.000000
-22.781400 0.000000
-22.762800 0.000000
-22.744100 0.000000
-22.725500 0.000000
-22.706900 0.000000
-22.688200 0.000000
-22.669600 0.000000
-22.651000 0.000000
-22.632300 0.000000
-22.613700 0.000000
-22.595100 0.000000
-22.576400 0.000000
-22.557800 0.000000
-22.539200 0.000000
-22.520500 0.000000
-22.501900 0.000000
-22.483300 0.000000
-22.464600 0.000000
-22.446000 0.000000
-22.427400 0.000000
-22.408700 0.000000
-22.390100 0.000000
-22.371500 0.000000
-22.352800 0.000000
-22.334200 0.000000
-22.315600 0.000000
-22.296900 0.000000
-22.278300 0.000000
-22.259700 0.000000
-22.241000 0.000000
-22.222400 0.000000
-22.203700 0.000000
-22.185100 0.000000
-22.166500 0.000000
-22.147800 0.000000
-22.129200 0.000000
-22.110600 0.000000
-22.091900 489.632300
-22.073300 0.000000
-22.054700 0.000000
-22.036000 0.000000
-22.017400 210.530600
-21.998800 1344.273100
-21.980100 255.286800
-21.961500 0.000000
-21.942900 0.000000
-21.924200 0.000000
-21.905600 0.000000
-21.887000 0.000000
-21.868300 0.000000
-21.849700 0.000000
-21.831100 0.000000
-21.812400 0.000000
-21.793800 0.000000
-21.775200 0.000000
-21.756500 0.000000
-21.737900 0.000000
-21.719300 0.000000
-21.700600 0.000000
-21.682000 0.000000
-21.663400 0.000000
-21.644700 0.000000
-21.626100 0.000000
-21.607500 0.000000
-21.588800 0.000000
-21.570200 0.000000
-21.551600 0.000000
-21.532900 0.000000
-21.514300 0.000000
-21.495700 0.000000
-21.477000 0.000000
-21.458400 0.000000
-21.439800 0.000000
-21.421100 0.000000
-21.402500 0.000000
-21.383900 0.000000
-21.365200 0.000000
-21.346600 0.000000
-21.327900 0.000000
-21.309300 0.000000
-21.290700 0.000000
-21.272000 0.000000
-21.253400 0.000000
-21.234800 0.000000
-21.216100 0.000000
-21.197500 0.000000
-21.178900 0.000000
-21.160200 0.000000
-21.141600 0.000000
-21.123000 0.000000
-21.104300 0.000000
-21.085700 0.000000
-21.067100 0.000000
-21.048400 0.000000
-21.029800 0.000000
-21.011200 0.000000
-20.992500 0.000000
-20.973900 0.000000
-20.955300 0.000000
-20.936600 0.000000
-20.918000 0.000000
-20.899400 0.000000
-20.880700 0.000000
-20.862100 0.000000
-20.843500 0.000000
-20.824800 0.000000
-20.806200 0.000000
-20.787600 0.000000
-20.768900 0.000000
-20.750300 0.000000
-20.731700 0.000000
-20.713000 0.000000
-20.694400 0.000000
-20.675800 0.000000
-20.657100 0.000000
-20.638500 0.000000
-20.619900 0.000000
-20.601200 0.000000
-20.582600 0.000000
-20.564000 0.000000
-20.545300 0.000000
-20.526700 0.000000
-20.508100 0.000000
-20.489400 0.000000
-20.470800 0.000000
-20.452100 0.000000
-20.433500 0.000000
-20.414900 0.000000
-20.396200 0.000000
-20.377600 0.000000
-20.359000 0.000000
-20.340300 0.000000
-20.321700 0.000000
-20.303100 0.000000
-20.284400 0.000000
-20.265800 0.000000
-20.247200 0.000000
-20.228500 0.000000
-20.209900 0.000000
-20.191300 0.000000
-20.172600 0.000000
-20.154000 0.000000
-20.135400 0.000000
-20.116700 0.000000
-20.098100 0.000000
-20.079500 0.000000
-20.060800 0.000000
-20.042200 0.000000
-20.023600 0.000000
-20.004900 0.000000
-19.986300 0.000000
-19.967700 0.000000
-19.949000 0.000000
-19.930400 0.000000
-19.911800 0.000000
-19.893100 0.000000
-19.874500 0.000000
-19.855900 0.000000
-19.837200 0.000000
-19.818600 0.000000
-19.800000 0.000000
-19.781300 0.000000
-19.762700 0.000000
-19.744100 0.000000
-19.725400 0.000000
-19.706800 0.000000
-19.688200 0.000000
-19.669500 0.000000
-19.650900 0.000000
-19.632300 0.000000
-19.613600 0.000000
-19.595000 0.000000
-19.576400 0.000000
-19.557700 0.000000
-19.539100 0.000000
-19.520400 0.000000
-19.501800 0.000000
-19.483200 0.000000
-19.464500 0.000000
-19.445900 0.000000
-19.427300 0.000000
-19.408600 0.000000
-19.390000 0.000000
-19.371400 0.000000
-19.352700 0.000000
-19.334100 0.000000
-19.315500 0.000000
-19.296800 0.000000
-19.278200 0.000000
-19.259600 0.000000
-19.240900 0.000000
-19.222300 0.000000
-19.203700 0.000000
-19.185000 0.000000
-19.166400 0.000000
-19.147800 0.000000
-19.129100 0.000000
-19.110500 0.000000
-19.091900 0.000000
-19.073200 0.000000
-19.054600 0.000000
-19.036000 0.000000
-19.017300 0.000000
-18.998700 0.000000
-18.980100 0.000000
-18.961400 0.000000
-18.942800 0.000000
-18.924200 0.000000
-18.905500 0.000000
-18.886900 0.000000
-18.868300 0.000000
-18.849600 0.000000
-18.831000 0.000000
-18.812400 0.000000
-18.793700 0.000000
-18.775100 0.000000
-18.756500 0.000000
-18.737800 0.000000
-18.719200 0.000000
-18.700600 0.000000
-18.681900 0.000000
-18.663300 0.000000
-18.644600 0.000000
-18.626000 0.000000
-18.607400 0.000000
-18.588700 0.000000
-18.570100 0.000000
-18.551500 0.000000
-18.532800 0.000000
-18.514200 0.000000
-18.495600 0.000000
-18.476900 0.000000
-18.458300 0.000000
-18.439700 0.000000
-18.421000 0.000000
-18.402400 0.000000
-18.383800 0.000000
-18.365100 0.000000
-18.346500 0.000000
-18.327900 0.000000
-18.309200 0.000000
-18.290600 0.000000
-18.272000 0.000000
-18.253300 0.000000
-18.234700 0.000000
-18.216100 0.000000
-18.197400 0.000000
-18.178800 0.000000
-18.160200 0.000000
-18.141500 0.000000
-18.122900 0.000000
-18.104300 0.000000
-18.085600 0.000000
-18.067000 0.000000
-18.048400 0.000000
-18.029700 0.000000
-18.011100 0.000000
-17.992500 0.000000
-17.973800 0.000000
-17.955200 0.000000
-17.936600 0.000000
-17.917900 0.000000
-17.899300 0.000000
-17.880700 0.000000
-17.862000 0.000000
-17.843400 0.000000
-17.824800 0.000000
-17.806100 0.000000
-17.787500 0.000000
-17.768800 0.000000
-17.750200 0.000000
-17.731600 0.000000
-17.712900 0.000000
-17.694300 0.000000
-17.675700 0.000000
-17.657000 0.000000
-17.638400 0.000000
-17.619800 0.000000
-17.601100 0.000000
-17.582500 0.000000
-17.563900 0.000000
-17.545200 0.000000
-17.526600 0.000000
-17.508000 0.000000
-17.489300 0.000000
-17.470700 0.000000
-17.452100 0.000000
-17.433400 0.000000
-17.414800 0.000000
-17.396200 0.000000
-17.377500 0.000000
-17.358900 0.000000
-17.340300 0.000000
-17.321600 0.000000
-17.303000 0.000000
-17.284400 0.000000
-17.265700 0.000000
-17.247100 0.000000
-17.228500 0.000000
-17.209800 0.000000
-17.191200 0.000000
-17.172600 0.000000
-17.153900 0.000000
-17.135300 0.000000
-17.116700 0.000000
-17.098000 0.000000
-17.079400 0.000000
-17.060800 0.000000
-17.042100 0.000000
-17.023500 0.000000
-17.004900 0.000000
-16.986200 0.000000
-16.967600 0.000000
-16.949000 0.000000
-16.930300 0.000000
-16.911700 0.000000
-16.893000 0.000000
-16.874400 0.000000
-16.855800 0.000000
-16.837100 0.000000
-16.818500 0.000000
-16.799900 0.000000
-16.781200 0.000000
-16.762600 0.000000
-16.744000 0.000000
-16.725300 0.000000
-16.706700 0.000000
-16.688100 0.000000
-16.669400 0.000000
-16.650800 0.000000
-16.632200 0.000000
-16.613500 0.000000
-16.594900 0.000000
-16.576300 0.000000
-16.557600 0.000000
-16.539000 0.000000
-16.520400 0.000000
-16.501700 0.000000
-16.483100 0.000000
-16.464500 0.000000
-16.445800 0.000000
-16.427200 0.000000
-16.408600 0.000000
-16.389900 0.000000
-16.371300 0.000000
-16.352700 0.000000
-16.334000 0.000000
-16.315400 0.000000
-16.296800 0.000000
-16.278100 0.000000
-16.259500 0.000000
-16.240900 0.000000
-16.222200 0.000000
-16.203600 0.000000
-16.185000 0.000000
-16.166300 0.000000
-16.147700 0.000000
-16.129100 0.000000
-16.110400 0.000000
-16.091800 0.000000
-16.073200 0.000000
-16.054500 0.000000
-16.035900 0.000000
-16.017200 0.000000
-15.998600 0.000000
-15.980000 0.000000
-15.961300 0.000000
-15.942700 0.000000
-15.924100 0.000000
-15.905400 0.000000
-15.886800 0.000000
-15.868200 0.000000
-15.849500 0.000000
-15.830900 0.000000
-15.812300 0.000000
-15.793600 0.000000
-15.775000 0.000000
-15.756400 0.000000
-15.737700 0.000000
-15.719100 0.000000
-15.700500 0.000000
-15.681800 0.000000
-15.663200 0.000000
-15.644600 0.000000
-15.625900 0.000000
-15.607300 0.000000
-15.588700 0.000000
-15.570000 0.000000
-15.551400 0.000000
-15.532800 0.000000
-15.514100 0.000000
-15.495500 0.000000
-15.476900 0.000000
-15.458200 0.000000
-15.439600 0.000000
-15.421000 0.000000
-15.402300 0.000000
-15.383700 0.000000
-15.365100 0.000000
-15.346400 0.000000
-15.327800 0.000000
-15.309200 0.000000
-15.290500 0.000000
-15.271900 0.000000
-15.253300 0.000000
-15.234600 0.000000
-15.216000 0.000000
-15.197400 0.000000
-15.178700 0.000000
-15.160100 0.000000
-15.141400 0.000000
-15.122800 0.000000
-15.104200 0.000000
-15.085500 0.000000
-15.066900 0.000000
-15.048300 0.000000
-15.029600 0.000000
-15.011000 0.000000
-14.992400 0.000000
-14.973700 0.000000
-14.955100 0.000000
-14.936500 0.000000
-14.917800 0.000000
-14.899200 0.000000
-14.880600 0.000000
-14.861900 0.000000
-14.843300 0.000000
-14.824700 0.000000
-14.806000 0.000000
-14.787400 0.000000
-14.768800 0.000000
-14.750100 0.000000
-14.731500 0.000000
-14.712900 0.000000
-14.694200 0.000000
-14.675600 0.000000
-14.657000 0.000000
-14.638300 0.000000
-14.619700 0.000000
-14.601100 0.000000
-14.582400 0.000000
-14.563800 0.000000
-14.545200 0.000000
-14.526500 0.000000
-14.507900 0.000000
-14.489300 0.000000
-14.470600 0.000000
-14.452000 0.000000
-14.433400 0.000000
-14.414700 0.000000
-14.396100 0.000000
-14.377500 0.000000
-14.358800 0.000000
-14.340200 0.000000
-14.321600 0.000000
-14.302900 0.000000
-14.284300 0.000000
-14.265600 0.000000
-14.247000 0.000000
-14.228400 0.000000
-14.209700 0.000000
-14.191100 0.000000
-14.172500 0.000000
-14.153800 0.000000
-14.135200 0.000000
-14.116600 0.000000
-14.097900 0.000000
-14.079300 0.000000
-14.060700 0.000000
-14.042000 0.000000
-14.023400 0.000000
-14.004800 0.000000
-13.986100 0.000000
-13.967500 0.000000
-13.948900 0.000000
-13.930200 0.000000
-13.911600 0.000000
-13.893000 0.000000
-13.874300 0.000000
-13.855700 0.000000
-13.837100 0.000000
-13.818400 0.000000
-13.799800 0.000000
-13.781200 0.000000
-13.762500 0.000000
-13.743900 0.000000
-13.725300 0.000000
-13.706600 0.000000
-13.688000 0.000000
-13.669400 0.000000
-13.650700 0.000000
-13.632100 0.000000
-13.613500 0.000000
-13.594800 0.000000
-13.576200 0.000000
-13.557600 0.000000
-13.538900 0.000000
-13.520300 0.000000
-13.501700 0.000000
-13.483000 0.000000
-13.464400 0.000000
-13.445800 0.000000
-13.427100 0.000000
-13.408500 0.000000
-13.389900 0.000000
-13.371200 0.000000
-13.352600 0.000000
-13.333900 0.000000
-13.315300 0.000000
-13.296700 0.000000
-13.278000 0.000000
-13.259400 0.000000
-13.240800 0.000000
-13.222100 0.000000
-13.203500 0.000000
-13.184900 0.000000
-13.166200 0.000000
-13.147600 0.000000
-13.129000 0.000000
-13.110300 0.000000
-13.091700 0.000000
-13.073100 0.000000
-13.054400 0.000000
-13.035800 0.000000
-13.017200 0.000000
-12.998500 0.000000
-12.979900 0.000000
-12.961300 0.000000
-12.942600 0.000000
-12.924000 0.000000
-12.905400 0.000000
-12.886700 0.000000
-12.868100 0.000000
-12.849500 0.000000
-12.830800 0.000000
-12.812200 0.000000
-12.793600 0.000000
-12.774900 0.000000
-12.756300 0.000000
-12.737700 0.000000
-12.719000 0.000000
-12.700400 0.000000
-12.681800 0.000000
-12.663100 0.000000
-12.644500 0.000000
-12.625900 0.000000
-12.607200 0.000000
-12.588600 0.000000
-12.570000 0.000000
-12.551300 0.000000
-12.532700 0.000000
-12.514100 0.000000
-12.495400 0.000000
-12.476800 0.000000
-12.458100 0.000000
-12.439500 0.000000
-12.420900 0.000000
-12.402200 0.000000
-12.383600 0.000000
-12.365000 0.000000
-12.346300 0.000000
-12.327700 0.000000
-12.309100 0.000000
-12.290400 0.000000
-12.271800 0.000000
-12.253200 0.000000
-12.234500 0.000000
-12.215900 0.000000
-12.197300 0.000000
-12.178600 0.000000
-12.160000 0.000000
-12.141400 0.000000
-12.122700 0.000000
-12.104100 0.000000
-12.085500 0.000000
-12.066800 0.000000
-12.048200 0.000000
-12.029600 0.000000
-12.010900 0.000000
-11.992300 0.000000
-11.973700 0.000000
-11.955000 0.000000
-11.936400 0.000000
-11.917800 0.000000
-11.899100 0.000000
-11.880500 0.000000
-11.861900 0.000000
-11.843200 0.000000
-11.824600 0.000000
-11.806000 0.000000
-11.787300 0.000000
-11.768700 0.000000
-11.750100 0.000000
-11.731400 0.000000
-11.712800 0.000000
-11.694200 0.000000
-11.675500 0.000000
-11.656900 0.000000
-11.638300 0.000000
-11.619600 0.000000
-11.601000 0.000000
-11.582300 0.000000
-11.563700 0.000000
-11.545100 0.000000
-11.526400 0.000000
-11.507800 0.000000
-11.489200 0.000000
-11.470500 0.000000
-11.451900 0.000000
-11.433300 0.000000
-11.414600 0.000000
-11.396000 0.000000
-11.377400 0.000000
-11.358700 0.000000
-11.340100 0.000000
-11.321500 0.000000
-11.302800 0.000000
-11.284200 0.000000
-11.265600 0.000000
-11.246900 0.000000
-11.228300 0.000000
-11.209700 0.000000
-11.191000 0.000000
-11.172400 0.000000
-11.153800 0.000000
-11.135100 0.000000
-11.116500 0.000000
-11.097900 0.000000
-11.079200 0.000000
-11.060600 0.000000
-11.042000 0.000000
-11.023300 0.000000
-11.004700 0.000000
-10.986100 0.000000
-10.967400 0.000000
-10.948800 0.000000
-10.930200 0.000000
-10.911500 0.000000
-10.892900 0.000000
-10.874300 0.000000
-10.855600 0.000000
-10.837000 0.000000
-10.818400 0.000000
-10.799700 0.000000
-10.781100 0.000000
-10.762500 0.000000
-10.743800 0.000000
-10.725200 0.000000
-10.706500 0.000000
-10.687900 0.000000
-10.669300 0.000000
-10.650600 0.000000
-10.632000 0.000000
-10.613400 0.000000
-10.594700 0.000000
-10.576100 0.000000
-10.557500 0.000000
-10.538800 0.000000
-10.520200 0.000000
-10.501600 0.000000
-10.482900 0.000000
-10.464300 0.182100
-10.445700 0.673700
-10.427000 0.892900
-10.408400 1.071000
-10.389800 1.291700
-10.371100 1.500700
-10.352500 1.736600
-10.333900 2.003400
-10.315200 2.452400
-10.296600 3.079700
-10.278000 3.074500
-10.259300 3.029900
-10.240700 2.650600
-10.222100 2.097500
-10.203400 1.994100
-10.184800 1.888800
-10.166200 1.744400
-10.147500 1.615700
-10.128900 1.466400
-10.110300 1.464100
-10.091600 1.558700
-10.073000 1.856000
-10.054400 2.065900
-10.035700 2.184100
-10.017100 2.642100
-9.998500 2.521400
-9.979800 2.505100
-9.961200 2.532700
-9.942600 2.608500
-9.923900 2.671600
-9.905300 2.707200
-9.886700 2.735600
-9.868000 2.783000
-9.849400 2.840700
-9.830700 3.118900
-9.812100 3.226400
-9.793500 3.274900
-9.774800 3.184900
-9.756200 3.175800
-9.737600 2.988600
-9.718900 2.710200
-9.700300 2.531800
-9.681700 2.440000
-9.663000 2.368100
-9.644400 2.305100
-9.625800 2.510700
-9.607100 2.979700
-9.588500 3.228700
-9.569900 3.686000
-9.551200 3.944200
-9.532600 3.939900
-9.514000 3.949800
-9.495300 3.976400
-9.476700 4.020200
-9.458100 4.203900
-9.439400 4.468100
-9.420800 4.905500
-9.402200 4.716400
-9.383500 4.091400
-9.364900 3.809800
-9.346300 3.723000
-9.327600 3.611900
-9.309000 3.424700
-9.290400 3.257600
-9.271700 3.165400
-9.253100 3.116100
-9.234500 3.069100
-9.215800 3.027100
-9.197200 3.258000
-9.178600 3.494500
-9.159900 3.492600
-9.141300 3.780000
-9.122700 3.898600
-9.104000 4.020200
-9.085400 4.035600
-9.066800 4.074600
-9.048100 4.074400
-9.029500 4.111900
-9.010900 4.116900
-8.992200 4.112600
-8.973600 4.145700
-8.954900 4.179300
-8.936300 4.222800
-8.917700 4.308800
-8.899000 4.463100
-8.880400 4.650900
-8.861800 4.874900
-8.843100 5.174800
-8.824500 5.043400
-8.805900 4.582000
-8.787200 4.585700
-8.768600 5.094300
-8.750000 5.491300
-8.731300 5.716200
-8.712700 6.230300
-8.694100 6.958000
-8.675400 7.346300
-8.656800 8.618700
-8.638200 7.985300
-8.619500 6.817200
-8.600900 6.633000
-8.582300 6.538500
-8.563600 6.465200
-8.545000 6.298700
-8.526400 6.179500
-8.507700 6.337300
-8.489100 6.913500
-8.470500 6.904500
-8.451800 6.474900
-8.433200 5.212000
-8.414600 3.864400
-8.395900 4.465600
-8.377300 6.699000
-8.358700 7.089900
-8.340000 7.094600
-8.321400 8.053800
-8.302800 11.883600
-8.284100 10.651700
-8.265500 6.965000
-8.246900 6.142300
-8.228200 5.802400
-8.209600 5.714600
-8.191000 6.741800
-8.172300 7.520300
-8.153700 8.754800
-8.135100 10.880200
-8.116400 11.058300
-8.097800 8.451700
-8.079100 6.965400
-8.060500 9.146800
-8.041900 9.636400
-8.023200 8.820900
-8.004600 8.065600
-7.986000 5.569800
-7.967300 6.405600
-7.948700 5.226100
-7.930100 3.886400
-7.911400 3.924300
-7.892800 3.978400
-7.874200 4.589000
-7.855500 5.458800
-7.836900 4.999900
-7.818300 4.346800
-7.799600 4.058400
-7.781000 2.313200
-7.762400 0.696700
-7.743700 0.000000
-7.725100 0.000000
-7.706500 0.000000
-7.687800 0.000000
-7.669200 0.000000
-7.650600 0.000000
-7.631900 0.000000
-7.613300 0.000000
-7.594700 0.000000
-7.576000 0.000000
-7.557400 0.000000
-7.538800 0.000000
-7.520100 0.000000
-7.501500 0.000000
-7.482900 0.000000
-7.464200 0.000000
-7.445600 0.000000
-7.427000 0.000000
-7.408300 0.000000
-7.389700 0.000000
-7.371100 0.000000
-7.352400 0.000000
-7.333800 0.000000
-7.315200 0.000000
-7.296500 0.000000
-7.277900 0.000000
-7.259300 0.000000
-7.240600 0.000000
-7.222000 0.000000
-7.203300 0.000000
-7.184700 0.000000
-7.166100 0.000000
-7.147400 0.000000
-7.128800 0.000000
-7.110200 0.000000
-7.091500 0.000000
-7.072900 0.000000
-7.054300 0.000000
-7.035600 0.000000
-7.017000 0.000000
-6.998400 0.000000
-6.979700 0.000000
-6.961100 0.000000
-6.942500 0.000000
-6.923800 0.000000
-6.905200 0.000000
-6.886600 0.000000
-6.867900 0.000000
-6.849300 0.000000
-6.830700 0.000000
-6.812000 0.000000
-6.793400 0.000000
-6.774800 0.000000
-6.756100 0.000000
-6.737500 0.000000
-6.718900 0.000000
-6.700200 0.000000
-6.681600 0.668900
-6.663000 1.487900
-6.644300 1.706800
-6.625700 1.689900
-6.607100 1.669000
-6.588400 1.739400
-6.569800 1.824100
-6.551200 1.936500
-6.532500 2.049700
-6.513900 2.162400
-6.495300 2.295600
-6.476600 2.446000
-6.458000 2.623700
-6.439400 2.876100
-6.420700 3.281700
-6.402100 4.070400
-6.383500 4.394700
-6.364800 4.230900
-6.346200 3.791900
-6.327600 4.066900
-6.308900 4.085800
-6.290300 4.122200
-6.271600 3.924500
-6.253000 3.530500
-6.234400 3.541900
-6.215700 3.929800
-6.197100 4.371400
-6.178500 4.210900
-6.159800 4.245000
-6.141200 4.612200
-6.122600 4.349300
-6.103900 4.183000
-6.085300 4.163100
-6.066700 4.345800
-6.048000 4.008000
-6.029400 3.738700
-6.010800 3.709300
-5.992100 3.687200
-5.973500 3.569300
-5.954900 3.508300
-5.936200 3.366600
-5.917600 3.264900
-5.899000 3.191000
-5.880300 3.076000
-5.861700 2.956800
-5.843100 2.872100
-5.824400 2.759100
-5.805800 2.643500
-5.787200 2.583100
-5.768500 2.502900
-5.749900 2.361800
-5.731300 2.240300
-5.712600 2.094000
-5.694000 1.937900
-5.675400 1.890200
-5.656700 1.914600
-5.638100 2.002300
-5.619500 2.114300
-5.600800 2.267000
-5.582200 2.405700
-5.563600 2.488000
-5.544900 2.466100
-5.526300 2.450300
-5.507700 2.441900
-5.489000 2.426100
-5.470400 2.419500
-5.451800 2.404900
-5.433100 2.325500
-5.414500 2.264400
-5.395800 2.217800
-5.377200 2.188000
-5.358600 2.171300
-5.339900 2.170300
-5.321300 2.185700
-5.302700 2.212700
-5.284000 2.271800
-5.265400 2.317400
-5.246800 2.304000
-5.228100 2.287000
-5.209500 2.274500
-5.190900 2.266000
-5.172200 2.296600
-5.153600 2.393100
-5.135000 2.415600
-5.116300 2.507100
-5.097700 2.741800
-5.079100 2.557000
-5.060400 2.065600
-5.041800 1.851300
-5.023200 1.756600
-5.004500 1.663300
-4.985900 1.557600
-4.967300 1.455700
-4.948600 1.388300
-4.930000 1.738900
-4.911400 3.905800
-4.892700 5.282000
-4.874100 6.607700
-4.855500 6.053300
-4.836800 4.670700
-4.818200 3.097200
-4.799600 3.462700
-4.780900 3.781200
-4.762300 3.976100
-4.743700 4.161400
-4.725000 5.019800
-4.706400 5.390100
-4.687800 5.586300
-4.669100 5.888600
-4.650500 5.870900
-4.631900 5.662200
-4.613200 5.439900
-4.594600 5.351500
-4.576000 5.237500
-4.557300 5.150200
-4.538700 5.100700
-4.520000 5.018300
-4.501400 4.843000
-4.482800 4.577100
-4.464100 4.526700
-4.445500 4.396200
-4.426900 4.276100
-4.408200 4.164400
-4.389600 4.091000
-4.371000 4.109200
-4.352300 4.140200
-4.333700 4.196900
-4.315100 4.248100
-4.296400 4.382900
-4.277800 4.457300
-4.259200 4.333900
-4.240500 4.215400
-4.221900 4.304700
-4.203300 4.455000
-4.184600 4.796900
-4.166000 5.344100
-4.147400 7.194900
-4.128700 7.585300
-4.110100 5.938300
-4.091500 5.321600
-4.072800 4.441400
-4.054200 3.623400
-4.035600 3.125100
-4.016900 2.786800
-3.998300 2.539400
-3.979700 2.381000
-3.961000 2.214300
-3.942400 1.986000
-3.923800 1.683200
-3.905100 1.426700
-3.886500 1.349600
-3.867900 1.351000
-3.849200 1.350700
-3.830600 1.350400
-3.812000 1.350100
-3.793300 1.349800
-3.774700 1.349600
-3.756100 1.349300
-3.737400 1.349100
-3.718800 1.348800
-3.700200 1.370300
-3.681500 1.475600
-3.662900 1.545900
-3.644200 1.604500
-3.625600 1.662800
-3.607000 1.730000
-3.588300 1.769200
-3.569700 1.807800
-3.551100 1.973200
-3.532400 2.349200
-3.513800 2.796200
-3.495200 3.020500
-3.476500 2.881200
-3.457900 2.867000
-3.439300 2.935400
-3.420600 2.947700
-3.402000 2.966400
-3.383400 3.092700
-3.364700 3.025700
-3.346100 2.865100
-3.327500 2.569500
-3.308800 2.449600
-3.290200 2.398900
-3.271600 2.346100
-3.252900 2.297800
-3.234300 2.265400
-3.215700 2.245000
-3.197000 2.218400
-3.178400 2.183600
-3.159800 2.212700
-3.141100 1.999600
-3.122500 1.804300
-3.103900 1.655900
-3.085200 1.263800
-3.066600 0.716800
-3.048000 0.716300
-3.029300 0.715700
-3.010700 0.715300
-2.992100 0.725800
-2.973400 0.751000
-2.954800 0.780900
-2.936200 0.806600
-2.917500 0.831900
-2.898900 0.858300
-2.880300 0.885200
-2.861600 0.920500
-2.843000 0.982800
-2.824400 1.081900
-2.805700 1.217200
-2.787100 1.416600
-2.768400 1.533200
-2.749800 1.570500
-2.731200 1.552300
-2.712500 1.511100
-2.693900 1.514800
-2.675300 1.519900
-2.656600 1.531600
-2.638000 1.555000
-2.619400 1.588500
-2.600700 1.642400
-2.582100 1.718600
-2.563500 1.760200
-2.544800 1.765300
-2.526200 1.737900
-2.507600 1.601100
-2.488900 1.606300
-2.470300 1.427700
-2.451700 1.216900
-2.433000 1.065300
-2.414400 0.921400
-2.395800 0.796400
-2.377100 0.701400
-2.358500 0.620700
-2.339900 0.548000
-2.321200 0.490700
-2.302600 0.446500
-2.284000 0.396400
-2.265300 0.301800
-2.246700 0.167200
-2.228100 0.061500
-2.209400 0.007600
-2.190800 0.000000
-2.172200 0.000000
-2.153500 0.000000
-2.134900 0.000000
-2.116300 0.000000
-2.097600 0.000000
-2.079000 0.000000
-2.060400 0.000000
-2.041700 0.000000
-2.023100 0.000000
-2.004500 0.000000
-1.985800 0.000000
-1.967200 0.000000
-1.948600 0.000000
-1.929900 0.000100
-1.911300 0.382800
-1.892600 0.662200
-1.874000 0.763100
-1.855400 0.901700
-1.836700 1.062400
-1.818100 1.224000
-1.799500 1.374700
-1.780800 1.545700
-1.762200 1.752800
-1.743600 1.986000
-1.724900 2.255500
-1.706300 2.698600
-1.687700 3.203300
-1.669000 3.079500
-1.650400 2.995000
-1.631800 3.352900
-1.613100 3.663300
-1.594500 3.575900
-1.575900 3.460600
-1.557200 3.435100
-1.538600 3.619800
-1.520000 4.069400
-1.501300 4.792900
-1.482700 5.524700
-1.464100 5.628000
-1.445400 5.595000
-1.426800 5.405400
-1.408200 5.246900
-1.389500 5.354800
-1.370900 5.549600
-1.352300 6.449500
-1.333600 8.344800
-1.315000 9.055500
-1.296400 9.205000
-1.277700 9.767000
-1.259100 9.953400
-1.240500 9.907400
-1.221800 9.271900
-1.203200 9.418800
-1.184600 9.639300
-1.165900 9.338900
-1.147300 8.432100
-1.128700 8.517700
-1.110000 8.459600
-1.091400 8.244500
-1.072800 8.302200
-1.054100 8.368300
-1.035500 8.318000
-1.016800 8.904700
-0.998200 7.770700
-0.979600 6.367800
-0.960900 5.782300
-0.942300 5.498600
-0.923700 5.679000
-0.905000 6.113400
-0.886400 6.888800
-0.867800 8.225000
-0.849100 8.833500
-0.830500 7.789000
-0.811900 6.707600
-0.793200 6.494200
-0.774600 6.655800
-0.756000 6.816600
-0.737300 6.930100
-0.718700 8.256600
-0.700100 8.299700
-0.681400 7.690000
-0.662800 7.299900
-0.644200 6.939500
-0.625500 6.835400
-0.606900 6.115000
-0.588300 5.307200
-0.569600 5.152700
-0.551000 5.095300
-0.532400 5.200300
-0.513700 5.328900
-0.495100 5.778600
-0.476500 5.604500
-0.457800 6.395400
-0.439200 6.989300
-0.420600 7.323000
-0.401900 8.953100
-0.383300 7.607800
-0.364700 7.267000
-0.346000 7.193400
-0.327400 7.165700
-0.308800 7.134000
-0.290100 6.860700
-0.271500 6.684400
-0.252900 6.643500
-0.234200 6.670500
-0.215600 6.900000
-0.197000 7.944500
-0.178300 8.791700
-0.159700 8.961300
-0.141100 9.186600
-0.122400 9.320700
-0.103800 9.237700
-0.085100 9.153400
-0.066500 8.615800
-0.047900 8.181800
-0.029200 7.492700
-0.010600 7.255500
0.008000 8.045500
0.026700 8.903600
0.045300 7.639600
0.063900 7.680400
0.082600 7.845200
0.101200 8.090700
0.119800 8.848000
0.138500 9.872000
0.157100 10.779100
0.175700 10.552900
0.194400 9.657700
0.213000 9.056600
0.231600 9.130700
0.250300 9.637700
0.268900 9.821900
0.287500 10.756900
0.306200 10.307600
0.324800 9.935300
0.343400 9.342100
0.362100 8.771900
0.380700 8.368500
0.399300 8.249600
0.418000 8.283500
0.436600 8.286900
0.455200 8.413500
0.473900 8.739100
0.492500 9.093000
0.511100 9.526900
0.529800 10.138500
0.548400 10.653600
0.567000 10.688100
0.585700 10.991900
0.604300 10.803200
0.622900 10.598100
0.641600 10.863200
0.660200 11.337900
0.678800 11.263400
0.697500 11.221000
0.716100 10.487100
0.734700 10.789700
0.753400 11.210500
0.772000 11.433200
0.790700 11.525100
0.809300 11.933100
0.827900 12.112500
0.846600 11.962900
0.865200 11.285700
0.883800 10.486300
0.902500 10.298600
0.921100 10.031400
0.939700 9.801800
0.958400 9.484600
0.977000 9.251900
0.995600 8.988800
1.014300 8.604900
1.032900 8.408900
1.051500 8.475100
1.070200 8.644900
1.088800 8.714200
1.107400 8.568700
1.126100 8.847500
1.144700 9.011800
1.163300 9.199000
1.182000 9.391200
1.200600 9.513900
1.219200 9.858600
1.237900 9.592500
1.256500 9.737200
1.275100 9.360400
1.293800 9.284800
1.312400 9.366400
1.331000 9.193400
1.349700 9.073200
1.368300 8.952400
1.386900 8.790500
1.405600 8.445100
1.424200 8.161000
1.442800 8.005400
1.461500 7.817800
1.480100 7.445300
1.498700 7.256300
1.517400 7.017400
1.536000 6.889900
1.554600 6.895000
1.573300 6.900200
1.591900 6.850700
1.610500 6.857900
1.629200 6.747000
1.647800 6.332300
1.666500 6.144800
1.685100 5.998000
1.703700 5.668900
1.722400 5.569300
1.741000 5.463600
1.759600 5.347500
1.778300 5.242600
1.796900 5.133000
1.815500 4.855200
1.834200 4.762900
1.852800 4.692900
1.871400 4.553000
1.890100 4.553500
1.908700 4.316300
1.927300 3.931700
1.946000 3.296100
1.964600 3.345700
1.983200 3.620900
2.001900 3.716700
2.020500 3.180900
2.039100 2.557900
2.057800 2.333700
2.076400 2.208100
2.095000 2.116600
2.113700 2.022900
2.132300 1.936400
2.150900 1.872700
2.169600 1.819400
2.188200 1.768300
2.206800 1.744100
2.225500 1.804100
2.244100 1.901600
2.262700 1.387600
2.281400 1.024800
2.300000 0.961300
2.318600 0.939200
2.337300 0.918200
2.355900 0.897100
2.374500 0.876000
2.393200 0.853700
2.411800 0.831500
2.430400 0.811100
2.449100 0.799400
2.467700 0.806200
2.486300 0.844300
2.505000 0.905000
2.523600 0.976800
2.542300 1.032500
2.560900 1.033400
2.579500 0.991900
2.598200 1.141200
2.616800 0.957000
2.635400 0.455000
2.654100 0.178700
2.672700 0.003200
2.691300 0.000000
2.710000 0.000000
2.728600 0.000000
2.747200 0.000000
2.765900 0.000000
2.784500 0.000000
2.803100 0.000000
2.821800 0.000000
2.840400 0.000000
2.859000 0.000000
2.877700 0.000000
2.896300 0.000000
2.914900 0.000000
2.933600 0.000000
2.952200 0.000000
2.970800 0.000000
2.989500 0.000000
3.008100 0.000000
3.026700 0.000000
3.045400 0.000000
3.064000 0.000000
3.082600 0.000000
3.101300 0.000000
3.119900 0.000000
3.138500 0.000000
3.157200 0.000000
3.175800 0.000000
3.194400 0.000000
3.213100 0.000000
3.231700 0.000000
3.250300 0.000000
3.269000 0.000000
3.287600 0.000000
3.306200 0.000000
3.324900 0.028300
3.343500 0.039400
3.362100 0.052300
3.380800 0.067000
3.399400 0.083700
3.418100 0.119700
3.436700 0.219000
3.455300 0.390400
3.474000 0.720300
3.492600 1.335100
3.511200 1.505500
3.529900 1.630100
3.548500 1.716800
3.567100 1.827400
3.585800 1.992800
3.604400 2.202000
3.623000 2.403200
3.641700 2.736600
3.660300 3.029300
3.678900 3.320000
3.697600 3.607500
3.716200 3.861000
3.734800 4.089400
3.753500 4.392500
3.772100 4.945200
3.790700 5.273500
3.809400 5.227400
3.828000 5.270500
3.846600 5.499500
3.865300 5.676000
3.883900 6.064400
3.902500 6.310300
3.921200 6.486200
3.939800 6.490000
3.958400 6.627400
3.977100 6.741700
3.995700 6.835400
4.014300 6.802100
4.033000 6.880400
4.051600 7.078300
4.070200 7.077400
4.088900 7.250700
4.107500 7.471400
4.126100 7.518600
4.144800 7.501000
4.163400 7.533000
4.182000 7.742700
4.200700 8.016900
4.219300 8.353700
4.237900 8.594900
4.256600 8.121800
4.275200 7.884300
4.293900 7.664300
4.312500 7.525900
4.331100 7.522000
4.349800 7.616800
4.368400 7.825400
4.387000 8.228100
4.405700 8.049800
4.424300 8.041800
4.442900 8.460400
4.461600 8.504700
4.480200 8.659100
4.498800 8.789100
4.517500 8.896400
4.536100 9.017900
4.554700 8.921500
4.573400 8.671600
4.592000 8.288700
4.610600 7.927600
4.629300 7.466200
4.647900 7.070900
4.666500 6.861600
4.685200 6.762000
4.703800 6.784400
4.722400 6.764500
4.741100 6.963600
4.759700 7.135700
4.778300 6.924300
4.797000 6.838800
4.815600 6.458500
4.834200 6.171100
4.852900 6.133600
4.871500 5.935100
4.890100 5.894700
4.908800 6.237200
4.927400 6.443400
4.946000 6.912700
4.964700 7.151200
4.983300 7.423100
5.001900 7.438600
5.020600 7.341300
5.039200 7.267400
5.057800 7.321900
5.076500 7.659400
5.095100 7.414800
5.113700 7.257700
5.132400 7.242300
5.151000 7.225100
5.169700 7.175600
5.188300 7.070500
5.206900 7.191900
5.225600 7.025600
5.244200 6.929000
5.262800 6.951800
5.281500 7.225100
5.300100 7.726500
5.318700 7.580400
5.337400 7.476000
5.356000 7.442200
5.374600 7.310800
5.393300 7.579600
5.411900 8.062600
5.430500 9.055300
5.449200 9.547700
5.467800 10.190200
5.486400 10.453100
5.505100 10.319700
5.523700 9.932600
5.542300 9.785800
5.561000 9.927300
5.579600 10.163100
5.598200 11.116500
5.616900 10.228900
5.635500 9.916600
5.654100 10.199500
5.672800 11.179700
5.691400 11.572300
5.710000 11.189500
5.728700 10.495200
5.747300 9.376000
5.765900 8.975400
5.784600 8.755300
5.803200 8.410800
5.821800 8.723300
5.840500 8.754300
5.859100 7.982600
5.877700 7.759600
5.896400 7.650900
5.915000 7.219000
5.933600 6.680600
5.952300 6.356900
5.970900 6.461200
5.989500 6.668100
6.008200 7.029900
6.026800 7.434200
6.045500 7.590100
6.064100 7.723400
6.082700 7.803200
6.101400 7.860500
6.120000 7.802600
6.138600 7.714300
6.157300 7.637700
6.175900 7.960800
6.194500 8.096400
6.213200 8.709600
6.231800 9.148700
6.250400 9.880600
6.269100 9.582400
6.287700 9.392900
6.306300 8.828900
6.325000 7.886600
6.343600 7.541100
6.362200 7.459200
6.380900 7.714300
6.399500 8.484400
6.418100 9.304500
6.436800 9.782300
6.455400 10.143300
6.474000 9.911000
6.492700 9.433600
6.511300 9.189900
6.529900 8.883900
6.548600 8.538700
6.567200 8.182000
6.585800 8.189100
6.604500 7.937100
6.623100 7.640200
6.641700 7.735100
6.660400 7.878000
6.679000 8.391100
6.697600 8.811200
6.716300 9.831100
6.734900 9.415000
6.753500 7.902600
6.772200 7.666600
6.790800 7.921900
6.809400 8.057300
6.828100 8.178000
6.846700 7.953800
6.865300 7.037300
6.884000 6.095700
6.902600 6.240600
6.921200 7.118400
6.939900 8.295100
6.958500 9.027400
6.977200 6.760600
6.995800 6.435900
7.014400 6.937100
7.033100 6.360100
7.051700 5.951200
7.070300 5.697200
7.089000 5.463000
7.107600 5.403000
7.126200 4.946800
7.144900 4.692700
7.163500 4.692200
7.182100 5.111800
7.200800 6.138700
7.219400 7.011100
7.238000 6.870000
7.256700 6.944800
7.275300 6.932400
7.293900 7.153300
7.312600 7.924000
7.331200 7.879000
7.349800 7.190600
7.368500 7.459400
7.387100 8.038600
7.405700 8.802000
7.424400 9.368900
7.443000 9.361500
7.461600 9.539000
7.480300 9.142000
7.498900 8.912100
7.517500 8.790300
7.536200 8.723800
7.554800 7.931300
7.573400 8.122900
7.592100 8.268000
7.610700 8.532400
7.629300 8.578600
7.648000 8.390000
7.666600 8.036100
7.685200 7.865100
7.703900 7.409100
7.722500 7.343200
7.741100 7.196000
7.759800 7.173300
7.778400 7.053200
7.797000 6.799500
7.815700 6.523300
7.834300 6.405000
7.853000 6.380600
7.871600 6.516400
7.890200 6.823500
7.908900 7.040100
7.927500 6.777600
7.946100 6.705300
7.964800 6.652900
7.983400 6.719000
8.002000 7.144600
8.020700 7.271300
8.039300 7.436700
8.057900 8.058700
8.076600 8.299900
8.095200 8.217000
8.113800 8.403900
8.132500 8.550400
8.151100 8.424600
8.169700 8.511100
8.188400 8.094600
8.207000 7.962100
8.225600 8.031900
8.244300 7.813500
8.262900 7.949200
8.281500 8.066000
8.300200 8.185200
8.318800 8.050300
8.337400 8.126200
8.356100 7.818600
8.374700 7.231100
8.393300 7.168100
8.412000 7.135600
8.430600 7.206100
8.449200 7.309800
8.467900 7.099300
8.486500 6.919800
8.505100 6.619200
8.523800 6.148600
8.542400 5.796300
8.561000 5.633600
8.579700 5.499200
8.598300 5.367200
8.616900 5.221700
8.635600 5.258200
8.654200 5.269000
8.672800 5.230200
8.691500 5.181900
8.710100 5.169400
8.728800 5.287300
8.747400 5.419600
8.766000 5.621000
8.784700 5.756100
8.803300 5.913400
8.821900 5.829500
8.840600 5.841600
8.859200 5.761200
8.877800 5.803900
8.896500 5.722900
8.915100 5.516000
8.933700 5.241400
8.952400 4.706300
8.971000 4.473600
8.989600 4.391900
9.008300 4.243300
9.026900 4.181800
9.045500 4.158200
9.064200 4.127400
9.082800 4.222300
9.101400 4.286400
9.120100 4.622500
9.138700 5.367200
9.157300 6.088100
9.176000 6.742700
9.194600 7.236000
9.213200 7.265700
9.231900 7.185000
9.250500 7.450500
9.269100 7.295000
9.287800 6.919400
9.306400 6.549800
9.325000 6.086900
9.343700 5.700500
9.362300 5.430500
9.380900 5.179600
9.399600 5.115400
9.418200 5.016400
9.436800 4.919200
9.455500 4.869000
9.474100 4.785400
9.492700 4.724300
9.511400 4.812800
9.530000 4.854400
9.548600 4.829200
9.567300 4.839800
9.585900 4.717300
9.604600 4.552600
9.623200 4.732000
9.641800 4.879300
9.660500 5.130400
9.679100 5.623200
9.697700 5.459300
9.716400 5.221700
9.735000 5.247200
9.753600 5.364400
9.772300 5.512800
9.790900 5.175700
9.809500 5.024200
9.828200 4.891900
9.846800 4.960400
9.865400 5.100000
9.884100 5.169400
9.902700 5.295000
9.921300 5.512700
9.940000 5.720800
9.958600 5.965700
9.977200 6.171200
9.995900 6.025700
10.014500 6.121400
10.033100 6.463100
10.051800 6.516300
10.070400 6.716900
10.089000 6.943100
10.107700 6.698300
10.126300 6.581900
10.144900 6.554100
10.163600 6.614100
10.182200 6.599400
10.200800 6.803500
10.219500 7.134500
10.238100 7.336200
10.256700 7.636100
10.275400 7.828200
10.294000 7.924900
10.312600 7.731800
10.331300 7.243300
10.349900 7.062600
10.368500 7.005700
10.387200 6.959700
10.405800 6.851400
10.424400 6.628800
10.443100 7.040100
10.461700 7.143000
10.480400 7.143800
10.499000 7.447700
10.517600 7.331700
10.536300 7.345800
10.554900 7.259100
10.573500 7.112300
10.592200 6.909400
10.610800 6.585800
10.629400 6.564000
10.648100 6.085500
10.666700 5.744300
10.685300 5.501500
10.704000 5.519300
10.722600 5.726000
10.741200 6.114400
10.759900 6.471000
10.778500 7.111900
10.797100 7.560800
10.815800 7.515800
10.834400 7.482900
10.853000 7.699300
10.871700 7.104700
10.890300 6.687500
10.908900 6.394800
10.927600 6.092500
10.946200 5.867400
10.964800 5.673000
10.983500 5.719000
11.002100 5.424100
11.020700 4.972800
11.039400 4.654700
11.058000 4.174700
11.076600 3.879000
11.095300 3.747900
11.113900 3.687200
11.132500 3.786800
11.151200 4.061000
11.169800 4.041800
11.188400 4.129300
11.207100 3.928700
11.225700 3.596800
11.244300 3.132100
11.263000 2.814900
11.281600 2.621500
11.300200 2.550400
11.318900 2.553400
11.337500 2.347500
11.356200 2.092400
11.374800 1.952800
11.393400 1.905100
11.412100 1.726200
11.430700 1.635900
11.449300 1.561500
11.468000 1.542000
11.486600 1.527700
11.505200 1.488100
11.523900 1.364900
11.542500 1.175700
11.561100 1.000800
11.579800 0.876200
11.598400 0.720400
11.617000 0.523100
11.635700 0.390000
11.654300 0.284400
11.672900 0.206100
11.691600 0.153200
11.710200 0.104100
11.728800 0.032100
11.747500 0.008300
11.766100 0.002200
11.784700 0.000000
11.803400 0.000000
11.822000 0.000000
11.840600 0.000000
11.859300 0.000000
11.877900 0.000000
11.896500 0.000000
11.915200 0.000000
11.933800 0.000000
11.952400 0.000000
11.971100 0.000000
11.989700 0.000000
12.008300 0.000000
12.027000 0.000000
12.045600 0.000000
12.064200 0.000000
12.082900 0.000000
12.101500 0.000000
12.120100 0.000000
12.138800 0.000000
12.157400 0.000000
12.176000 0.000000
12.194700 0.000000
12.213300 0.000000
12.232000 0.000000
12.250600 0.000000
12.269200 0.000000
12.287900 0.000000
12.306500 0.000000
12.325100 0.000000
12.343800 0.000000
12.362400 0.000000
12.381000 0.000000
12.399700 0.000000
12.418300 0.000000
12.436900 0.000000
12.455600 0.000000
12.474200 0.000000
12.492800 0.000000
12.511500 0.000000
12.530100 0.000000
12.548700 0.000000
12.567400 0.000000
12.586000 0.000000
12.604600 0.000000
12.623300 0.000000
12.641900 0.000000
12.660500 0.000000
12.679200 0.000000
12.697800 0.000000
12.716400 0.000000
12.735100 0.000000
12.753700 0.000000
12.772300 0.000000
12.791000 0.000000
12.809600 0.000000
12.828200 0.000000
12.846900 0.000000
12.865500 0.000000
12.884100 0.000000
12.902800 0.000000
12.921400 0.000000
12.940000 0.000000
12.958700 0.000000
12.977300 0.000000
12.995900 0.000000
13.014600 0.000000
13.033200 0.000000
13.051800 0.000000
13.070500 0.000000
13.089100 0.000000
13.107700 0.000000
13.126400 0.000000
13.145000 0.000000
13.163700 0.000000
13.182300 0.000000
13.200900 0.000000
13.219600 0.000000
13.238200 0.000000
13.256800 0.000000
13.275500 0.000000
13.294100 0.000000
13.312700 0.000000
13.331400 0.000000
13.350000 0.000000
13.368600 0.000000
13.387300 0.000000
13.405900 0.000000
13.424500 0.000000
13.443200 0.000000
13.461800 0.000000
13.480400 0.000000
e
