set title 'mp-555280 - Density of States'
set xlabel 'Energy (eV)'
set ylabel 'DOS (states/eV)'
set grid
set xrange [-10:10]
set yrange [0:189.861]
set xzeroaxis lt -1
set terminal png size 800,600
set output 'mp-555280_dos_gnuplot.png'
plot '-' using 1:2 with lines title 'DOS'
-12.497500 0.000000
-12.482000 0.000000
-12.466400 0.000000
-12.450900 0.000000
-12.435300 0.000000
-12.419800 0.000000
-12.404200 0.000000
-12.388700 0.000000
-12.373100 0.000000
-12.357600 0.000000
-12.342000 0.000000
-12.326400 0.000000
-12.310900 0.000000
-12.295300 0.000000
-12.279800 0.000000
-12.264200 0.000000
-12.248700 0.000000
-12.233100 0.000000
-12.217600 0.000000
-12.202000 0.000000
-12.186500 0.000000
-12.170900 0.000000
-12.155300 0.000000
-12.139800 0.000000
-12.124200 0.000000
-12.108700 0.000000
-12.093100 0.000000
-12.077600 0.000000
-12.062000 0.000000
-12.046500 0.000000
-12.030900 0.000000
-12.015300 0.000000
-11.999800 0.000000
-11.984200 0.000000
-11.968700 0.000000
-11.953100 0.000000
-11.937600 0.000000
-11.922000 0.000000
-11.906500 0.000000
-11.890900 0.000000
-11.875400 0.000000
-11.859800 0.000000
-11.844200 0.000000
-11.828700 0.000000
-11.813100 0.000000
-11.797600 0.000000
-11.782000 0.000000
-11.766500 0.000000
-11.750900 0.000000
-11.735400 0.000000
-11.719800 0.000000
-11.704300 0.000000
-11.688700 0.000000
-11.673100 0.000000
-11.657600 0.000000
-11.642000 0.000000
-11.626500 0.000000
-11.610900 0.000000
-11.595400 0.000000
-11.579800 0.000000
-11.564300 0.000000
-11.548700 0.000000
-11.533200 0.000000
-11.517600 0.000000
-11.502000 0.000000
-11.486500 0.000000
-11.470900 0.000000
-11.455400 0.000000
-11.439800 0.000000
-11.424300 0.000000
-11.408700 0.000000
-11.393200 0.000000
-11.377600 0.000000
-11.362100 0.000000
-11.346500 0.000000
-11.330900 0.000000
-11.315400 0.000000
-11.299800 0.000000
-11.284300 0.000000
-11.268700 0.000000
-11.253200 0.000000
-11.237600 0.000000
-11.222100 0.000000
-11.206500 0.000000
-11.191000 0.000000
-11.175400 0.000000
-11.159800 0.000000
-11.144300 0.000000
-11.128700 0.000000
-11.113200 0.000000
-11.097600 0.000000
-11.082100 0.002200
-11.066500 0.044300
-11.051000 0.127000
-11.035400 0.216600
-11.019900 0.306200
-11.004300 0.395800
-10.988700 0.498600
-10.973200 0.624200
-10.957600 0.761100
-10.942100 0.909300
-10.926500 1.071700
-10.911000 1.257100
-10.895400 1.442500
-10.879900 1.627900
-10.864300 1.813300
-10.848800 1.998700
-10.833200 2.196500
-10.817600 2.423400
-10.802100 2.658600
-10.786500 2.902100
-10.771000 3.154000
-10.755400 3.414200
-10.739900 3.682800
-10.724300 3.973800
-10.708800 3.937300
-10.693200 4.024500
-10.677700 4.284400
-10.662100 4.544300
-10.646500 4.737900
-10.631000 4.883100
-10.615400 5.060100
-10.599900 5.295400
-10.584300 5.531000
-10.568800 5.766600
-10.553200 6.053800
-10.537700 6.339600
-10.522100 6.615500
-10.506600 6.900100
-10.491000 7.221700
-10.475400 7.547100
-10.459900 7.875500
-10.444300 8.200600
-10.428800 8.521100
-10.413200 8.837200
-10.397700 9.153900
-10.382100 9.585800
-10.366600 10.026300
-10.351000 10.479100
-10.335500 10.950300
-10.319900 11.439900
-10.304300 11.968400
-10.288800 12.550100
-10.273200 13.141400
-10.257700 13.736800
-10.242100 14.336400
-10.226600 32.372400
-10.211000 12.610000
-10.195500 13.430100
-10.179900 28.185000
-10.164400 34.102800
-10.148800 12.918300
-10.133200 13.858400
-10.117700 24.739300
-10.102100 32.799900
-10.086600 14.642300
-10.071000 13.792400
-10.055500 14.726000
-10.039900 22.640100
-10.024400 34.370400
-10.008800 20.119000
-9.993200 14.866900
-9.977700 16.043700
-9.962100 39.945300
-9.946600 17.575400
-9.931000 10.205600
-9.915500 10.955500
-9.899900 32.900500
-9.884400 0.000000
-9.868800 0.000000
-9.853300 0.000000
-9.837700 0.000000
-9.822100 0.000000
-9.806600 0.000000
-9.791000 0.000000
-9.775500 0.000000
-9.759900 0.000000
-9.744400 0.000000
-9.728800 0.000000
-9.713300 0.000000
-9.697700 0.000000
-9.682200 0.000000
-9.666600 0.000000
-9.651000 0.000000
-9.635500 0.000000
-9.619900 0.000000
-9.604400 0.000000
-9.588800 0.000000
-9.573300 0.000000
-9.557700 0.000000
-9.542200 0.000000
-9.526600 0.000000
-9.511100 0.000000
-9.495500 0.000000
-9.479900 0.000000
-9.464400 0.000000
-9.448800 0.000000
-9.433300 0.000000
-9.417700 0.000000
-9.402200 0.000000
-9.386600 0.000000
-9.371100 0.000000
-9.355500 0.000000
-9.340000 0.000000
-9.324400 0.000000
-9.308800 0.000000
-9.293300 0.000000
-9.277700 0.000000
-9.262200 0.000000
-9.246600 0.000000
-9.231100 0.000000
-9.215500 0.000000
-9.200000 0.000000
-9.184400 0.000000
-9.168900 0.000000
-9.153300 0.000000
-9.137700 0.000000
-9.122200 0.000000
-9.106600 0.000000
-9.091100 0.000000
-9.075500 0.000000
-9.060000 0.000000
-9.044400 0.000000
-9.028900 0.000000
-9.013300 0.000000
-8.997800 0.000000
-8.982200 0.000000
-8.966600 0.000000
-8.951100 0.000000
-8.935500 0.000000
-8.920000 0.000000
-8.904400 0.000000
-8.888900 0.000000
-8.873300 0.000000
-8.857800 0.000000
-8.842200 0.000000
-8.826700 0.000000
-8.811100 0.000000
-8.795500 0.000000
-8.780000 0.000000
-8.764400 0.000000
-8.748900 0.000000
-8.733300 0.000000
-8.717800 0.000000
-8.702200 0.000000
-8.686700 0.000000
-8.671100 0.000000
-8.655600 0.000000
-8.640000 0.000000
-8.624400 0.000000
-8.608900 0.000000
-8.593300 0.000000
-8.577800 0.000000
-8.562200 0.000000
-8.546700 0.000000
-8.531100 0.000000
-8.515600 0.000000
-8.500000 0.000000
-8.484500 0.000000
-8.468900 0.000000
-8.453300 0.000000
-8.437800 0.000000
-8.422200 0.000000
-8.406700 0.000000
-8.391100 0.000000
-8.375600 0.000000
-8.360000 0.000000
-8.344500 0.000000
-8.328900 0.000000
-8.313400 0.000000
-8.297800 0.000000
-8.282200 0.000000
-8.266700 0.000000
-8.251100 0.000000
-8.235600 0.000000
-8.220000 0.000000
-8.204500 0.000000
-8.188900 0.000000
-8.173400 0.000000
-8.157800 0.000000
-8.142200 0.000000
-8.126700 0.000000
-8.111100 0.000000
-8.095600 0.000000
-8.080000 0.000000
-8.064500 0.000000
-8.048900 0.000000
-8.033400 0.000000
-8.017800 0.000000
-8.002300 0.000000
-7.986700 0.000000
-7.971100 0.000000
-7.955600 0.000000
-7.940000 0.000000
-7.924500 0.000000
-7.908900 0.000000
-7.893400 0.000000
-7.877800 0.000000
-7.862300 0.000000
-7.846700 0.000000
-7.831200 0.000000
-7.815600 0.000000
-7.800000 0.000000
-7.784500 0.000000
-7.768900 0.000000
-7.753400 0.000000
-7.737800 0.000000
-7.722300 0.000000
-7.706700 0.000000
-7.691200 0.000000
-7.675600 0.000000
-7.660100 0.000000
-7.644500 0.000000
-7.628900 0.000000
-7.613400 0.000000
-7.597800 0.000000
-7.582300 0.000000
-7.566700 0.000000
-7.551200 0.000000
-7.535600 0.000000
-7.520100 0.000000
-7.504500 0.000000
-7.489000 0.000000
-7.473400 0.000000
-7.457800 0.000000
-7.442300 0.000000
-7.426700 0.000000
-7.411200 0.000000
-7.395600 0.000000
-7.380100 0.000000
-7.364500 0.000000
-7.349000 0.000000
-7.333400 0.000000
-7.317900 0.000000
-7.302300 0.000000
-7.286700 0.000000
-7.271200 0.000000
-7.255600 0.000000
-7.240100 0.000000
-7.224500 0.000000
-7.209000 0.000000
-7.193400 0.000000
-7.177900 0.000000
-7.162300 0.000000
-7.146800 0.000000
-7.131200 0.000000
-7.115600 0.000000
-7.100100 0.000000
-7.084500 0.000000
-7.069000 0.000000
-7.053400 0.000000
-7.037900 0.000000
-7.022300 0.000000
-7.006800 0.000000
-6.991200 0.000000
-6.975700 0.000000
-6.960100 0.000000
-6.944500 0.000000
-6.929000 0.000000
-6.913400 0.000000
-6.897900 0.000000
-6.882300 0.000000
-6.866800 0.000000
-6.851200 0.000000
-6.835700 0.000000
-6.820100 0.000000
-6.804600 0.000000
-6.789000 0.000000
-6.773400 0.000000
-6.757900 0.000000
-6.742300 0.000000
-6.726800 0.000000
-6.711200 0.000000
-6.695700 0.000000
-6.680100 0.000000
-6.664600 0.000000
-6.649000 0.000000
-6.633500 0.000000
-6.617900 0.000000
-6.602300 0.000000
-6.586800 0.000000
-6.571200 0.000000
-6.555700 0.000000
-6.540100 0.000000
-6.524600 0.000000
-6.509000 0.000000
-6.493500 0.000000
-6.477900 0.000000
-6.462400 0.000000
-6.446800 0.000000
-6.431200 0.000000
-6.415700 0.000000
-6.400100 0.000000
-6.384600 0.000000
-6.369000 0.000000
-6.353500 0.000000
-6.337900 0.000000
-6.322400 0.000000
-6.306800 0.000000
-6.291200 0.000000
-6.275700 0.000000
-6.260100 0.000000
-6.244600 0.000000
-6.229000 0.000000
-6.213500 0.000000
-6.197900 0.000000
-6.182400 0.000000
-6.166800 0.000000
-6.151300 0.000000
-6.135700 0.000000
-6.120100 0.000000
-6.104600 0.000000
-6.089000 0.000000
-6.073500 0.000000
-6.057900 0.000000
-6.042400 0.000000
-6.026800 0.000000
-6.011300 0.000000
-5.995700 0.000000
-5.980200 0.000000
-5.964600 0.000000
-5.949000 0.000000
-5.933500 0.000000
-5.917900 0.000000
-5.902400 0.000000
-5.886800 0.000000
-5.871300 0.000000
-5.855700 0.000000
-5.840200 0.000000
-5.824600 0.000000
-5.809100 0.000000
-5.793500 0.000000
-5.777900 0.000000
-5.762400 0.000000
-5.746800 0.000000
-5.731300 0.000000
-5.715700 0.000000
-5.700200 0.000000
-5.684600 0.000000
-5.669100 0.000000
-5.653500 0.000000
-5.638000 0.000000
-5.622400 0.000000
-5.606800 0.000000
-5.591300 0.000000
-5.575700 0.000000
-5.560200 0.000000
-5.544600 0.000000
-5.529100 0.000000
-5.513500 0.000000
-5.498000 0.000000
-5.482400 0.000000
-5.466900 0.000000
-5.451300 0.000000
-5.435700 0.000000
-5.420200 0.000000
-5.404600 0.000000
-5.389100 0.000000
-5.373500 0.000000
-5.358000 0.000000
-5.342400 0.000000
-5.326900 0.000000
-5.311300 0.000000
-5.295800 0.000000
-5.280200 0.000000
-5.264600 0.000000
-5.249100 0.000000
-5.233500 0.000000
-5.218000 0.000000
-5.202400 0.000000
-5.186900 0.000000
-5.171300 0.000000
-5.155800 0.000000
-5.140200 0.000000
-5.124700 0.000000
-5.109100 0.000000
-5.093500 0.000000
-5.078000 0.000000
-5.062400 0.000000
-5.046900 0.000000
-5.031300 0.000000
-5.015800 0.000000
-5.000200 0.000000
-4.984700 0.000000
-4.969100 0.000000
-4.953600 0.000000
-4.938000 0.000000
-4.922400 0.000000
-4.906900 0.000000
-4.891300 0.000000
-4.875800 0.000000
-4.860200 0.000000
-4.844700 0.000000
-4.829100 0.000000
-4.813600 0.000000
-4.798000 0.000000
-4.782500 0.000000
-4.766900 0.000000
-4.751300 0.000000
-4.735800 0.000000
-4.720200 0.000000
-4.704700 0.000000
-4.689100 0.000000
-4.673600 0.000000
-4.658000 0.000000
-4.642500 0.000000
-4.626900 0.000000
-4.611400 0.000000
-4.595800 0.000000
-4.580200 0.000000
-4.564700 0.000000
-4.549100 0.000000
-4.533600 0.000000
-4.518000 0.000000
-4.502500 0.000000
-4.486900 0.000000
-4.471400 0.000000
-4.455800 0.000000
-4.440200 11.277600
-4.424700 22.699000
-4.409100 32.740400
-4.393600 39.137100
-4.378000 78.767400
-4.362500 89.392600
-4.346900 105.774600
-4.331400 94.292700
-4.315800 118.182600
-4.300300 172.601200
-4.284700 105.738200
-4.269100 104.633300
-4.253600 102.604100
-4.238000 133.105400
-4.222500 95.372400
-4.206900 79.778000
-4.191400 63.742200
-4.175800 85.655200
-4.160300 62.832100
-4.144700 133.318700
-4.129200 78.468800
-4.113600 77.168100
-4.098000 52.127100
-4.082500 42.033900
-4.066900 62.289700
-4.051400 17.787100
-4.035800 85.262300
-4.020300 25.167200
-4.004700 62.401500
-3.989200 84.724900
-3.973600 88.969000
-3.958100 152.222500
-3.942500 139.175600
-3.926900 80.208700
-3.911400 78.266900
-3.895800 103.583600
-3.880300 144.130800
-3.864700 95.535100
-3.849200 73.037200
-3.833600 72.941200
-3.818100 48.222900
-3.802500 41.830800
-3.787000 41.749900
-3.771400 32.977900
-3.755800 22.981800
-3.740300 34.500700
-3.724700 31.618800
-3.709200 21.446600
-3.693600 22.352000
-3.678100 23.335700
-3.662500 22.497900
-3.647000 23.319100
-3.631400 16.578200
-3.615900 9.379700
-3.600300 8.190900
-3.584700 6.984800
-3.569200 5.761300
-3.553600 0.000000
-3.538100 0.000000
-3.522500 0.000000
-3.507000 0.000000
-3.491400 0.000000
-3.475900 0.000000
-3.460300 0.000000
-3.444800 0.000000
-3.429200 0.000000
-3.413600 0.000000
-3.398100 0.000000
-3.382500 0.000000
-3.367000 0.000000
-3.351400 0.000000
-3.335900 0.000000
-3.320300 0.000000
-3.304800 0.000000
-3.289200 0.000000
-3.273700 0.000000
-3.258100 0.000000
-3.242500 0.000000
-3.227000 0.000000
-3.211400 0.000000
-3.195900 0.010400
-3.180300 0.028300
-3.164800 0.048200
-3.149200 0.096000
-3.133700 0.180900
-3.118100 0.293300
-3.102600 0.459700
-3.087000 0.631900
-3.071400 0.806100
-3.055900 0.982200
-3.040300 1.160300
-3.024800 1.340500
-3.009200 1.522600
-2.993700 1.706700
-2.978100 1.892800
-2.962600 2.106100
-2.947000 2.362200
-2.931500 2.655500
-2.915900 2.971400
-2.900300 3.310200
-2.884800 3.722100
-2.869200 4.142500
-2.853700 4.563800
-2.838100 4.986000
-2.822600 5.409200
-2.807000 5.833300
-2.791500 6.258300
-2.775900 6.684200
-2.760400 7.506400
-2.744800 8.331200
-2.729200 9.154200
-2.713700 9.869600
-2.698100 10.538300
-2.682600 11.243800
-2.667000 11.984800
-2.651500 12.424400
-2.635900 12.296400
-2.620400 11.600600
-2.604800 17.641100
-2.589300 8.512700
-2.573700 8.724600
-2.558100 8.729800
-2.542600 12.530100
-2.527000 6.976400
-2.511500 5.493800
-2.495900 6.074700
-2.480400 6.633100
-2.464800 7.203700
-2.449300 7.815500
-2.433700 8.281500
-2.418100 8.774900
-2.402600 9.626800
-2.387000 10.576500
-2.371500 10.343000
-2.355900 8.926600
-2.340400 6.327000
-2.324800 5.999400
-2.309300 6.107000
-2.293700 6.242600
-2.278200 6.415300
-2.262600 6.633100
-2.247000 6.871000
-2.231500 7.129000
-2.215900 7.407100
-2.200400 8.245000
-2.184800 8.799200
-2.169300 8.942800
-2.153700 8.727800
-2.138200 8.098800
-2.122600 6.969200
-2.107100 6.510500
-2.091500 6.525600
-2.075900 6.468800
-2.060400 6.340100
-2.044800 6.139500
-2.029300 5.866900
-2.013700 5.700300
-1.998200 5.820800
-1.982600 7.550800
-1.967100 8.296700
-1.951500 6.996400
-1.936000 3.847700
-1.920400 3.821600
-1.904800 3.795600
-1.889300 3.837600
-1.873700 4.018100
-1.858200 4.158100
-1.842600 4.257800
-1.827100 4.317000
-1.811500 4.335700
-1.796000 4.314100
-1.780400 4.252000
-1.764900 4.157300
-1.749300 4.049500
-1.733700 3.929500
-1.718200 3.797200
-1.702600 3.652600
-1.687100 3.495900
-1.671500 3.403500
-1.656000 3.332300
-1.640400 3.278400
-1.624900 3.241800
-1.609300 3.223800
-1.593800 3.230300
-1.578200 3.261800
-1.562600 3.316600
-1.547100 3.249100
-1.531500 3.183000
-1.516000 3.118200
-1.500400 3.054800
-1.484900 2.992700
-1.469300 2.931900
-1.453800 2.872500
-1.438200 2.814400
-1.422700 2.757600
-1.407100 2.702200
-1.391500 2.648100
-1.376000 2.595300
-1.360400 2.543900
-1.344900 2.578700
-1.329300 2.536000
-1.313800 2.493600
-1.298200 2.451600
-1.282700 2.410000
-1.267100 2.368700
-1.251600 2.327800
-1.236000 2.287300
-1.220400 2.247200
-1.204900 2.207400
-1.189300 2.167900
-1.173800 2.128900
-1.158200 2.115700
-1.142700 2.098600
-1.127100 2.074400
-1.111600 2.048700
-1.096000 2.023100
-1.080500 1.997600
-1.064900 1.972200
-1.049300 1.946800
-1.033800 1.921500
-1.018200 1.896300
-1.002700 1.871200
-0.987100 6.548400
-0.971600 9.061300
-0.956000 5.865300
-0.940500 5.792500
-0.924900 5.731600
-0.909400 6.921200
-0.893800 9.841100
-0.878200 10.111200
-0.862700 7.731400
-0.847100 7.756600
-0.831600 7.851000
-0.816000 8.307000
-0.800500 9.437100
-0.784900 10.264900
-0.769400 10.784000
-0.753800 10.970000
-0.738300 10.769600
-0.722700 10.241700
-0.707100 9.735400
-0.691600 9.621700
-0.676000 9.505100
-0.660500 9.379500
-0.644900 9.282100
-0.629400 15.830100
-0.613800 11.034100
-0.598300 10.632300
-0.582700 10.446900
-0.567100 10.367100
-0.551600 10.298100
-0.536000 10.122400
-0.520500 9.827500
-0.504900 9.425200
-0.489400 9.088700
-0.473800 8.818200
-0.458300 12.243600
-0.442700 13.068400
-0.427200 10.908000
-0.411600 9.472700
-0.396000 9.155300
-0.380500 8.847900
-0.364900 9.607200
-0.349400 11.067300
-0.333800 11.554200
-0.318300 11.036200
-0.302700 9.508700
-0.287200 9.153400
-0.271600 9.079000
-0.256100 9.005900
-0.240500 8.926400
-0.224900 8.841100
-0.209400 8.747500
-0.193800 8.651800
-0.178300 8.557400
-0.162700 8.464200
-0.147200 8.372200
-0.131600 8.281500
-0.116100 10.558600
-0.100500 10.372600
-0.085000 10.238000
-0.069400 10.104500
-0.053800 9.973300
-0.038300 9.842400
-0.022700 9.709900
-0.007200 9.573100
0.008400 11.415600
0.023900 11.011800
0.039500 10.900600
0.055000 10.793700
0.070600 10.691000
0.086100 10.592600
0.101700 10.498300
0.117300 10.392800
0.132800 10.245800
0.148400 10.095000
0.163900 10.536600
0.179500 11.572700
0.195000 12.222700
0.210600 12.486500
0.226100 12.364200
0.241700 11.855600
0.257200 11.038900
0.272800 10.885000
0.288400 10.728200
0.303900 10.571500
0.319500 10.414700
0.335000 10.251000
0.350600 10.104900
0.366100 9.961800
0.381700 9.821200
0.397200 9.682500
0.412800 9.545700
0.428300 9.414100
0.443900 9.766700
0.459500 10.915400
0.475000 11.682600
0.490600 12.072200
0.506100 12.088900
0.521700 11.737300
0.537200 11.017700
0.552800 10.781400
0.568300 10.611200
0.583900 10.427800
0.599400 10.232400
0.615000 10.027200
0.630600 9.823400
0.646100 9.621100
0.661700 9.420300
0.677200 9.221000
0.692800 9.024000
0.708300 18.731500
0.723900 13.049200
0.739400 12.681200
0.755000 12.313300
0.770500 11.937900
0.786100 11.566200
0.801700 11.192300
0.817200 13.769700
0.832800 16.422300
0.848300 15.669500
0.863900 13.541700
0.879400 13.108300
0.895000 12.755100
0.910500 12.425500
0.926100 12.104400
0.941600 11.791700
0.957200 11.487500
0.972800 11.202300
0.988300 11.022700
1.003900 10.753400
1.019400 10.458500
1.035000 10.180900
1.050500 9.909300
1.066100 9.641100
1.081600 9.372300
1.097200 9.105100
1.112700 8.839500
1.128300 8.581600
1.143900 8.331600
1.159400 8.090000
1.175000 7.864200
1.190500 7.614900
1.206100 7.371500
1.221600 7.138200
1.237200 6.914900
1.252700 6.720800
1.268300 6.543700
1.283900 6.352100
1.299400 6.153900
1.315000 5.942500
1.330500 5.719900
1.346100 5.501600
1.361600 5.310800
1.377200 5.148800
1.392700 4.956700
1.408300 4.765900
1.423800 4.637300
1.439400 4.647700
1.455000 4.510800
1.470500 4.276200
1.486100 4.046300
1.501600 3.825400
1.517200 3.614500
1.532700 3.406800
1.548300 3.202200
1.563800 3.000800
1.579400 2.802500
1.594900 2.611800
1.610500 2.425300
1.626100 2.239700
1.641600 2.055100
1.657200 1.871600
1.672700 1.689000
1.688300 1.508900
1.703800 1.339800
1.719400 1.173400
1.734900 1.009700
1.750500 0.848700
1.766000 0.690400
1.781600 0.556100
1.797200 0.431000
1.812700 0.317200
1.828300 0.209800
1.843800 0.102400
1.859400 0.034700
1.874900 0.000000
1.890500 0.000000
1.906000 0.000000
1.921600 0.000000
1.937100 0.000000
1.952700 0.000000
1.968300 0.000000
1.983800 0.000000
1.999400 0.000000
2.014900 0.000000
2.030500 0.000000
2.046000 0.000000
2.061600 0.000000
2.077100 0.000000
2.092700 0.000000
2.108200 0.000000
2.123800 0.000000
2.139400 0.000000
2.154900 0.000000
2.170500 0.000000
2.186000 0.000000
2.201600 0.000000
2.217100 0.000000
2.232700 0.000000
2.248200 0.000000
2.263800 0.000000
2.279300 0.000000
2.294900 0.000000
2.310500 0.000000
2.326000 0.000000
2.341600 0.000000
2.357100 0.000000
2.372700 0.000000
2.388200 0.000000
2.403800 0.000000
2.419300 0.000000
2.434900 0.000000
2.450400 0.000000
2.466000 0.000000
2.481600 0.000000
2.497100 0.000000
2.512700 0.000000
2.528200 0.000000
2.543800 0.000000
2.559300 0.000000
2.574900 0.000000
2.590400 0.000000
2.606000 0.000000
2.621500 0.000000
2.637100 0.000000
2.652700 0.000000
2.668200 0.000000
2.683800 0.000000
2.699300 0.000000
2.714900 0.000000
2.730400 0.000000
2.746000 0.000000
2.761500 0.000000
2.777100 0.000000
2.792600 0.000000
2.808200 0.000000
2.823800 0.000000
2.839300 0.000000
2.854900 0.000000
2.870400 0.000000
2.886000 0.000000
2.901500 0.000000
2.917100 0.000000
2.932600 0.000000
2.948200 0.000000
2.963700 0.000000
2.979300 0.000000
2.994900 0.000000
3.010400 0.000000
3.026000 0.000000
3.041500 0.000000
3.057100 0.000000
3.072600 0.000000
3.088200 0.000000
3.103700 0.000000
3.119300 0.000000
3.134800 0.000000
3.150400 0.000000
3.166000 0.000000
3.181500 0.000000
3.197100 0.000000
3.212600 0.000000
3.228200 0.000000
3.243700 0.000000
3.259300 0.000000
3.274800 0.000000
3.290400 0.000000
3.306000 0.000000
3.321500 0.000000
3.337100 0.000000
3.352600 0.000000
3.368200 0.000000
3.383700 0.000000
3.399300 0.000000
3.414800 0.000000
3.430400 0.000000
3.445900 0.000000
3.461500 0.000000
3.477100 0.000000
3.492600 0.000000
3.508200 0.000000
3.523700 0.000000
3.539300 0.000000
3.554800 0.000000
3.570400 0.000000
3.585900 0.000000
3.601500 0.000000
3.617000 0.000000
3.632600 0.000000
3.648200 0.000000
3.663700 0.000000
3.679300 0.000000
3.694800 0.000000
3.710400 0.000000
3.725900 0.000000
3.741500 0.000000
3.757000 0.000000
3.772600 0.000000
3.788100 0.000000
3.803700 0.000000
3.819300 0.000000
3.834800 0.000000
3.850400 0.000000
3.865900 0.000000
3.881500 0.000000
3.897000 0.000000
3.912600 0.000000
3.928100 0.000000
3.943700 0.000500
3.959200 0.002000
3.974800 0.003700
3.990400 0.005600
4.005900 0.007700
4.021500 0.010000
4.037000 0.012400
4.052600 0.015100
4.068100 0.017900
4.083700 0.020900
4.099200 0.024000
4.114800 0.027400
4.130300 0.031000
4.145900 0.034700
4.161500 0.038600
4.177000 0.042700
4.192600 0.047000
4.208100 0.052600
4.223700 0.058900
4.239200 0.065100
4.254800 0.071400
4.270300 0.077600
4.285900 0.083900
4.301400 0.090200
4.317000 0.096400
4.332600 0.102700
4.348100 0.109000
4.363700 0.115200
4.379200 0.121500
4.394800 0.127800
4.410300 0.134100
4.425900 0.140300
4.441400 0.146600
4.457000 0.152900
4.472500 0.159200
4.488100 0.165500
4.503700 0.171800
4.519200 0.178100
4.534800 0.184400
4.550300 0.190700
4.565900 0.197000
4.581400 0.205600
4.597000 0.214600
4.612500 0.223900
4.628100 0.233400
4.643600 0.243100
4.659200 0.253100
4.674800 0.263400
4.690300 0.273900
4.705900 0.284700
4.721400 0.295700
4.737000 0.306900
4.752500 0.318400
4.768100 0.330200
4.783600 0.342200
4.799200 0.354500
4.814700 0.367000
4.830300 0.379700
4.845900 0.392700
4.861400 0.406000
4.877000 0.419500
4.892500 0.433300
4.908100 0.449200
4.923600 0.466700
4.939200 0.484200
4.954700 0.501700
4.970300 0.519300
4.985800 0.536800
5.001400 0.554400
5.017000 0.572100
5.032500 0.589700
5.048100 0.609300
5.063600 0.636700
5.079200 0.666200
5.094700 0.695900
5.110300 0.725500
5.125800 0.755200
5.141400 0.791800
5.157000 0.832600
5.172500 0.873300
5.188100 0.915900
5.203600 0.988500
5.219200 1.074700
5.234700 1.170800
5.250300 1.274100
5.265800 1.384500
5.281400 1.502000
5.296900 1.640300
5.312500 1.793200
5.328100 1.960700
5.343600 2.164900
5.359200 2.414700
5.374700 2.677300
5.390300 2.962900
5.405800 3.287500
5.421400 3.622200
5.436900 3.924000
5.452500 4.190100
5.468000 4.375700
5.483600 4.462300
5.499200 4.549000
5.514700 4.635700
5.530300 4.722400
5.545800 4.809100
5.561400 4.895900
5.576900 4.982700
5.592500 5.069500
5.608000 5.156400
5.623600 5.258700
5.639100 5.387700
5.654700 5.549100
5.670300 5.726300
5.685800 5.921300
5.701400 6.139800
5.716900 6.349700
5.732500 6.550700
5.748000 6.743000
5.763600 6.926500
5.779100 7.101200
5.794700 7.267200
5.810200 7.428100
5.825800 7.554400
5.841400 7.667300
5.856900 7.786700
5.872500 7.910300
5.888000 8.038300
5.903600 8.170500
5.919100 8.307100
5.934700 8.448000
5.950200 8.593100
5.965800 8.753100
5.981300 8.919800
5.996900 9.086700
6.012500 9.329600
6.028000 9.583700
6.043600 9.831000
6.059100 10.071300
6.074700 10.232200
6.090200 10.306000
6.105800 10.315100
6.121300 10.298700
6.136900 10.287700
6.152400 10.427300
6.168000 10.797900
6.183600 10.809100
6.199100 10.704200
6.214700 11.246700
6.230200 11.637400
6.245800 11.769600
6.261300 11.647600
6.276900 11.359300
6.292400 10.779200
6.308000 9.887400
6.323500 9.588500
6.339100 11.178200
6.354700 15.175100
6.370200 8.546800
6.385800 8.417400
6.401300 8.292300
6.416900 8.178200
6.432400 8.064200
6.448000 7.950300
6.463500 7.838200
6.479100 7.728500
6.494600 9.027000
6.510200 10.970500
6.525800 9.837900
6.541300 6.661400
6.556900 6.634500
6.572400 6.520200
6.588000 6.380900
6.603500 6.241800
6.619100 6.102800
6.634600 5.964100
6.650200 6.410400
6.665700 6.709400
6.681300 6.806600
6.696900 6.702000
6.712400 6.395600
6.728000 5.887500
6.743500 5.261400
6.759100 4.592100
6.774600 4.631300
6.790200 4.666500
6.805700 4.717100
6.821300 4.781700
6.836800 5.410600
6.852400 6.214400
6.868000 6.622100
6.883500 6.633800
6.899100 6.249400
6.914600 5.468900
6.930200 4.570300
6.945700 4.552800
6.961300 4.535300
6.976800 4.517700
6.992400 4.500200
7.008000 4.482700
7.023500 4.465200
7.039100 4.447700
7.054600 4.430200
7.070200 4.412600
7.085700 4.395100
7.101300 4.378900
7.116800 4.385900
7.132400 4.396400
7.147900 4.410200
7.163500 4.427500
7.179100 4.705200
7.194600 5.054700
7.210200 5.311000
7.225700 5.474200
7.241300 5.544200
7.256800 5.521000
7.272400 5.404700
7.287900 5.195200
7.303500 5.449000
7.319000 6.482800
7.334600 6.721100
7.350200 6.634500
7.365700 6.551300
7.381300 6.471400
7.396800 6.395000
7.412400 6.322000
7.427900 6.318900
7.443500 6.360100
7.459000 6.406800
7.474600 6.458900
7.490100 6.516500
7.505700 6.579600
7.521300 6.648100
7.536800 6.722100
7.552400 6.801600
7.567900 6.886500
7.583500 6.976900
7.599000 7.219200
7.614600 8.509400
7.630100 9.278600
7.645700 9.819800
7.661200 17.012800
7.676800 10.398800
7.692400 10.221700
7.707900 8.862400
7.723500 7.462200
7.739000 6.859800
7.754600 3.889900
7.770100 1.525400
7.785700 1.476800
7.801200 1.428200
7.816800 1.379600
7.832300 1.331000
7.847900 1.282400
7.863500 1.685600
7.879000 11.115300
7.894600 5.209800
7.910100 5.237800
7.925700 5.271500
7.941200 5.311100
7.956800 5.356400
7.972300 5.407500
7.987900 5.464400
8.003400 5.527000
8.019000 5.595500
8.034600 5.623200
8.050100 5.589200
8.065700 5.519800
8.081200 6.364500
8.096800 7.283400
8.112300 7.980400
8.127900 8.380900
8.143400 8.498200
8.159000 8.424600
8.174500 8.160200
8.190100 7.796800
8.205700 7.775600
8.221200 10.438400
8.236800 12.292900
8.252300 13.424200
8.267900 11.606300
8.283400 8.707800
8.299000 6.625700
8.314500 6.253100
8.330100 5.943000
8.345600 5.509300
8.361200 4.956200
8.376800 10.850200
8.392300 6.546900
8.407900 5.657700
8.423400 4.829800
8.439000 4.063400
8.454500 3.362400
8.470100 3.306100
8.485600 2.371300
8.501200 3.729900
8.516700 4.983100
8.532300 6.130900
8.547900 7.186200
8.563400 8.135000
8.579000 8.920500
8.594500 9.526100
8.610100 9.783800
8.625600 9.754900
8.641200 9.408900
8.656700 8.772800
8.672300 8.578700
8.687800 8.697800
8.703400 8.868200
8.719000 9.089800
8.734500 9.362600
8.750100 8.737900
8.765600 4.999700
8.781200 3.099100
8.796700 3.347300
8.812300 3.905400
8.827800 7.210200
8.843400 12.001400
8.858900 18.217000
8.874500 51.489900
8.890100 26.420000
8.905600 16.516500
8.921200 6.174700
8.936700 5.787500
8.952300 6.304800
8.967800 6.628200
8.983400 6.768900
8.998900 6.869100
9.014500 6.971300
9.030100 7.075300
9.045600 7.188200
9.061200 17.258600
9.076700 10.808800
9.092300 9.692900
9.107800 8.720300
9.123400 7.890800
9.138900 7.206700
9.154500 6.672300
9.170000 6.820500
9.185600 7.149700
9.201200 7.409000
9.216700 7.598200
9.232300 7.717400
9.247800 7.782000
9.263400 7.764000
9.278900 7.728800
9.294500 7.719200
9.310000 7.699500
9.325600 7.669700
9.341100 7.668300
9.356700 8.429700
9.372300 9.862600
9.387800 10.541700
9.403400 10.484300
9.418900 9.814300
9.434500 8.853500
9.450000 8.744700
9.465600 8.637200
9.481100 8.536300
9.496700 8.462600
9.512200 8.414600
9.527800 8.374100
9.543400 8.341200
9.558900 8.315900
9.574500 8.298200
9.590000 8.288100
9.605600 8.285500
9.621100 9.881400
9.636700 9.791200
9.652200 9.727200
9.667800 9.762300
9.683300 9.780800
9.698900 9.782800
9.714500 9.768300
9.730000 9.737200
9.745600 9.686600
9.761100 9.602700
9.776700 10.865000
9.792200 15.816700
9.807800 10.491700
9.823300 10.212800
9.838900 9.905400
9.854400 9.629400
9.870000 9.486400
9.885600 9.756900
9.901100 13.495100
9.916700 14.428400
9.932200 12.599600
9.947800 12.766800
9.963300 12.018700
9.978900 11.021400
9.994400 9.904000
10.010000 9.924300
10.025500 10.679800
10.041100 11.186600
10.056700 11.150200
10.072200 10.803200
10.087800 10.142900
10.103300 9.147200
10.118900 8.999400
10.134400 8.838300
10.150000 8.652000
10.165500 8.440500
10.181100 8.321300
10.196600 8.518500
10.212200 8.776900
10.227800 9.074000
10.243300 8.721700
10.258900 8.367800
10.274400 8.052700
10.290000 7.763500
10.305500 7.527200
10.321100 8.963500
10.336600 9.654100
10.352200 9.598900
10.367700 9.031600
10.383300 7.899100
10.398900 7.765000
10.414400 7.653100
10.430000 7.584300
10.445500 7.541800
10.461100 7.420200
10.476600 8.584700
10.492200 9.640000
10.507700 9.854300
10.523300 9.227200
10.538800 7.758600
10.554400 7.130300
10.570000 6.876200
10.585500 6.714200
10.601100 6.554600
10.616600 6.561300
10.632200 6.570600
10.647700 6.574300
10.663300 6.572500
10.678800 6.613400
10.694400 6.699200
10.709900 6.695300
10.725500 6.627500
10.741100 6.534900
10.756600 6.423600
10.772200 6.524200
10.787700 8.214300
10.803300 13.336300
10.818800 8.238800
10.834400 8.354200
10.849900 7.414000
10.865500 6.057700
10.881100 5.620900
10.896600 5.308800
10.912200 5.095800
10.927700 4.988200
10.943300 4.975700
10.958800 4.975100
10.974400 4.973100
10.989900 4.969500
11.005500 4.964400
11.021000 4.957900
11.036600 4.949800
11.052200 4.949100
11.067700 6.735300
11.083300 7.580000
11.098800 7.509800
11.114400 6.529400
11.129900 5.148600
11.145500 5.061400
11.161000 4.975000
11.176600 4.889600
11.192100 4.805100
11.207700 4.721500
11.223300 4.638800
11.238800 4.557000
11.254400 4.476100
11.269900 4.396200
11.285500 4.317100
11.301000 4.239000
11.316600 4.167000
11.332100 4.097800
11.347700 4.028600
11.363200 3.959400
11.378800 3.890300
11.394400 3.821200
11.409900 3.753100
11.425500 3.688300
11.441000 3.626800
11.456600 3.568600
11.472100 3.513800
11.487700 3.462200
11.503200 3.414000
11.518800 3.369100
11.534300 3.333300
11.549900 3.304300
11.565500 3.280000
11.581000 3.371200
11.596600 3.916600
11.612100 4.346200
11.627700 4.649900
11.643200 4.827600
11.658800 4.879400
11.674300 4.808300
11.689900 4.611900
11.705400 4.288200
11.721000 3.869200
11.736600 3.892300
11.752100 3.915700
11.767700 3.939500
11.783200 3.963500
11.798800 3.971300
11.814300 3.962000
11.829900 3.949800
11.845400 3.934700
11.861000 3.916700
11.876500 3.895800
11.892100 3.872000
11.907700 3.845300
11.923200 3.815700
11.938800 3.783200
11.954300 3.747700
11.969900 3.709400
11.985400 3.668200
12.001000 3.624000
12.016500 3.577000
12.032100 3.527100
12.047600 3.792900
12.063200 4.031500
12.078800 4.222400
12.094300 4.346500
12.109900 4.406200
12.125400 4.467300
12.141000 4.536200
12.156500 4.607400
12.172100 4.679700
12.187600 4.753000
12.203200 4.835500
12.218700 9.897900
12.234300 9.263800
12.249900 5.625000
12.265400 5.694300
12.281000 5.806600
12.296500 5.878600
12.312100 5.842700
12.327600 5.805300
12.343200 5.766200
12.358700 5.725600
12.374300 5.683300
12.389800 5.639500
12.405400 5.594000
12.421000 5.547000
12.436500 5.498400
12.452100 5.448200
12.467600 5.421100
12.483200 5.454800
12.498700 5.547100
12.514300 5.814900
12.529800 6.213800
12.545400 6.430300
12.560900 6.620000
12.576500 6.937500
12.592100 7.522500
12.607600 8.076000
12.623200 7.966800
12.638700 7.824100
12.654300 7.647800
12.669800 7.438000
12.685400 7.194700
12.700900 6.917900
12.716500 6.610300
12.732100 6.315400
12.747600 6.226700
12.763200 6.412500
12.778700 6.539500
12.794300 6.565600
12.809800 6.848700
12.825400 7.410100
12.840900 7.790400
12.856500 7.989600
12.872000 8.007800
12.887600 7.844900
12.903200 7.500800
12.918700 6.975700
12.934300 6.659200
12.949800 6.724200
12.965400 6.760000
12.980900 6.766700
12.996500 6.744300
13.012000 6.692700
13.027600 6.612000
13.043100 6.502200
13.058700 6.363200
13.074300 6.195100
13.089800 6.611600
13.105400 7.309400
13.120900 7.626900
13.136500 7.564000
13.152000 7.234600
13.167600 7.052100
13.183100 7.840900
13.198700 8.311300
13.214200 7.490700
13.229800 7.426400
13.245400 7.055300
13.260900 6.349200
13.276500 7.637200
13.292000 9.467000
13.307600 8.337800
13.323100 8.178200
13.338700 7.917700
13.354200 7.560400
13.369800 7.104900
13.385300 6.549300
13.400900 5.909400
13.416500 5.262000
13.432000 5.009200
13.447600 4.747200
13.463100 4.481800
13.478700 4.218600
13.494200 12.558200
13.509800 5.040900
13.525300 4.965200
13.540900 4.904300
13.556400 5.000500
13.572000 5.124700
13.587600 5.251200
13.603100 5.379800
13.618700 5.516100
13.634200 5.654300
13.649800 5.791100
13.665300 5.954900
13.680900 6.355000
13.696400 6.740000
13.712000 6.940300
13.727500 7.065200
13.743100 7.131200
13.758700 7.151400
13.774200 7.121600
13.789800 6.991900
13.805300 6.741500
13.820900 6.113800
13.836400 5.943200
13.852000 5.830200
13.867500 5.833100
13.883100 5.786100
13.898600 5.739700
13.914200 5.694000
13.929800 5.649900
13.945300 5.611400
13.960900 5.574800
13.976400 5.540200
13.992000 5.507600
14.007500 5.479300
14.023100 5.438100
14.038600 5.376500
14.054200 5.294600
14.069700 5.135600
14.085300 4.897700
14.100900 4.775100
14.116400 4.700300
14.132000 4.628900
14.147500 4.560400
14.163100 4.494900
14.178600 4.432300
14.194200 4.375900
14.209700 4.334500
14.225300 4.302300
14.240800 4.277100
14.256400 4.258900
14.272000 4.252200
14.287500 4.253400
14.303100 4.259900
14.318600 4.272000
14.334200 4.287400
14.349700 4.307700
14.365300 4.331200
14.380800 4.356800
14.396400 4.383700
14.411900 4.426200
14.427500 4.495300
14.443100 4.580500
14.458600 4.664800
14.474200 4.748100
14.489700 4.830400
14.505300 4.911600
14.520800 4.991800
14.536400 5.071000
14.551900 5.149100
14.567500 5.226200
14.583100 5.302300
14.598600 5.377300
14.614200 5.451400
14.629700 5.524700
14.645300 5.597500
14.660800 5.669400
14.676400 5.755300
14.691900 5.855100
14.707500 5.963100
14.723000 6.078200
14.738600 6.223400
14.754200 6.371000
14.769700 6.519100
14.785300 6.666600
14.800800 6.811400
14.816400 6.957400
14.831900 7.104400
14.847500 7.252500
14.863000 7.401700
14.878600 7.552000
14.894100 7.703400
14.909700 7.855800
14.925300 8.009400
14.940800 8.164700
14.956400 8.321800
14.971900 8.480800
14.987500 8.641200
15.003000 8.801900
15.018600 10.529500
15.034100 10.995600
15.049700 9.957600
15.065200 7.415100
15.080800 7.234100
15.096400 7.342800
15.111900 7.451700
15.127500 7.560900
15.143000 7.670400
15.158600 11.293400
15.174100 12.821400
15.189700 12.697500
15.205200 12.555600
15.220800 12.126100
15.236300 11.409000
15.251900 10.444500
15.267500 10.820300
15.283000 11.736600
15.298600 13.347800
15.314100 14.164700
15.329700 13.987300
15.345200 12.824000
15.360800 10.707400
15.376300 8.709100
15.391900 9.145900
15.407400 9.641200
15.423000 10.191400
15.438600 10.769900
15.454100 11.336300
15.469700 11.917600
15.485200 24.479100
15.500800 9.444900
15.516300 9.957000
15.531900 10.654500
15.547400 11.382100
15.563000 12.151200
15.578500 15.407200
15.594100 14.771400
15.609700 9.754400
15.625200 9.657300
15.640800 9.561000
15.656300 9.465500
15.671900 9.370700
15.687400 9.276700
15.703000 9.183400
15.718500 9.090900
15.734100 9.078700
15.749600 9.631600
15.765200 9.783800
15.780800 9.535000
15.796300 8.885500
15.811900 7.835100
15.827400 6.383900
15.843000 5.829100
15.858500 5.701100
15.874100 5.572600
15.889600 5.443900
15.905200 5.314700
15.920700 5.332600
15.936300 9.915200
15.951900 3.435900
15.967400 3.669700
15.983000 4.231500
15.998500 6.922400
16.014100 7.410900
16.029600 5.792000
16.045200 3.951700
16.060700 4.239100
16.076300 4.728900
16.091800 5.194600
16.107400 5.622100
16.123000 6.011500
16.138500 6.362800
16.154100 6.675800
16.169600 6.950800
16.185200 7.187500
16.200700 7.476400
16.216300 7.845600
16.231800 8.226600
16.247400 8.619400
16.262900 15.971100
16.278500 4.654600
16.294100 5.007200
16.309600 5.284500
16.325200 5.968700
16.340700 6.696900
16.356300 7.870400
16.371800 9.513700
16.387400 16.143000
16.402900 8.963800
16.418500 6.215100
16.434000 6.419200
16.449600 6.638600
16.465200 7.022800
16.480700 7.854200
16.496300 8.908000
16.511800 10.574700
16.527400 12.519500
16.542900 13.154900
16.558500 12.375200
16.574000 10.180200
16.589600 9.376500
16.605200 9.705900
16.620700 9.882500
16.636300 9.892200
16.651800 9.288700
16.667400 9.143300
16.682900 9.353800
16.698500 18.550800
16.714000 5.854400
16.729600 5.638400
16.745100 5.435700
16.760700 5.247100
16.776300 5.196200
16.791800 5.145100
16.807400 5.093900
16.822900 5.042700
16.838500 4.991300
16.854000 4.938000
16.869600 4.626400
16.885100 4.268700
16.900700 3.835600
16.916200 3.249000
16.931800 2.521000
16.947400 2.299800
16.962900 2.280000
16.978500 2.260100
16.994000 2.240100
17.009600 2.220100
17.025100 2.199900
17.040700 2.036300
17.056200 1.867300
17.071800 1.708600
17.087300 1.560200
17.102900 1.422200
17.118500 1.294500
17.134000 1.177000
17.149600 1.046000
17.165100 0.883300
17.180700 0.688900
17.196200 0.069800
17.211800 0.000000
17.227300 0.000000
17.242900 0.000000
17.258400 0.000000
17.274000 0.000000
17.289600 0.000000
17.305100 0.000000
17.320700 0.000000
17.336200 0.000000
17.351800 0.000000
17.367300 0.000000
17.382900 0.000000
17.398400 0.000000
17.414000 0.000000
17.429500 0.000000
17.445100 0.000000
17.460700 0.000000
17.476200 0.000000
17.491800 0.000000
17.507300 0.000000
17.522900 0.000000
17.538400 0.000000
17.554000 0.000000
17.569500 0.000000
17.585100 0.000000
17.600600 0.000000
17.616200 0.000000
17.631800 0.000000
17.647300 0.000000
17.662900 0.000000
17.678400 0.000000
17.694000 0.000000
17.709500 0.000000
17.725100 0.000000
17.740600 0.000000
17.756200 0.000000
17.771700 0.000000
17.787300 0.000000
17.802900 0.000000
17.818400 0.000000
17.834000 0.000000
17.849500 0.000000
17.865100 0.000000
17.880600 0.000000
17.896200 0.000000
17.911700 0.000000
17.927300 0.000000
17.942800 0.000000
17.958400 0.000000
17.974000 0.000000
17.989500 0.000000
18.005100 0.000000
18.020600 0.000000
18.036200 0.000000
18.051700 0.000000
18.067300 0.000000
18.082800 0.000000
18.098400 0.000000
18.113900 0.000000
18.129500 0.000000
18.145100 0.000000
18.160600 0.000000
18.176200 0.000000
18.191700 0.000000
18.207300 0.000000
18.222800 0.000000
18.238400 0.000000
18.253900 0.000000
18.269500 0.000000
18.285000 0.000000
18.300600 0.000000
18.316200 0.000000
18.331700 0.000000
18.347300 0.000000
18.362800 0.000000
18.378400 0.000000
18.393900 0.000000
18.409500 0.000000
18.425000 0.000000
18.440600 0.000000
18.456200 0.000000
18.471700 0.000000
18.487300 0.000000
18.502800 0.000000
18.518400 0.000000
18.533900 0.000000
18.549500 0.000000
18.565000 0.000000
18.580600 0.000000
18.596100 0.000000
18.611700 0.000000
e
