set title 'mp-1217312 - Density of States'
set xlabel 'Energy (eV)'
set ylabel 'DOS (states/eV)'
set grid
set xrange [-10:10]
set yrange [0:21.950]
set xzeroaxis lt -1
set terminal png size 800,600
set output 'mp-1217312_dos_gnuplot.png'
plot '-' using 1:2 with lines title 'DOS'
-13.162000 0.000000
-13.146500 0.000000
-13.131000 0.000000
-13.115400 0.000000
-13.099900 0.000000
-13.084300 0.000000
-13.068800 0.000000
-13.053300 0.000000
-13.037700 0.000000
-13.022200 0.000000
-13.006700 0.000000
-12.991100 0.000000
-12.975600 0.000000
-12.960000 0.000000
-12.944500 0.000000
-12.929000 0.000000
-12.913400 0.000000
-12.897900 0.000000
-12.882300 0.000000
-12.866800 0.000000
-12.851300 0.000000
-12.835700 0.000000
-12.820200 0.000000
-12.804700 0.000000
-12.789100 0.000000
-12.773600 0.000000
-12.758000 0.000000
-12.742500 0.000000
-12.727000 0.000000
-12.711400 0.000000
-12.695900 0.000000
-12.680400 0.000000
-12.664800 0.000000
-12.649300 0.000000
-12.633700 0.000000
-12.618200 0.000000
-12.602700 0.000000
-12.587100 0.000000
-12.571600 0.000000
-12.556000 0.000000
-12.540500 0.000000
-12.525000 0.000000
-12.509400 0.000000
-12.493900 0.000000
-12.478400 0.000000
-12.462800 0.000000
-12.447300 0.000000
-12.431700 0.000000
-12.416200 0.000000
-12.400700 0.000000
-12.385100 0.000000
-12.369600 0.000000
-12.354100 0.000000
-12.338500 0.000000
-12.323000 0.000000
-12.307400 0.000000
-12.291900 0.000000
-12.276400 0.000000
-12.260800 0.000000
-12.245300 0.000000
-12.229700 0.000000
-12.214200 0.000000
-12.198700 0.000000
-12.183100 0.000000
-12.167600 0.000000
-12.152100 0.000000
-12.136500 0.000000
-12.121000 0.000000
-12.105400 0.000000
-12.089900 0.000000
-12.074400 0.000000
-12.058800 0.000000
-12.043300 0.000000
-12.027800 0.000000
-12.012200 0.000000
-11.996700 0.000000
-11.981100 0.000000
-11.965600 0.000000
-11.950100 0.000000
-11.934500 0.000000
-11.919000 0.000000
-11.903400 0.000000
-11.887900 0.000000
-11.872400 0.000000
-11.856800 0.000000
-11.841300 0.000000
-11.825800 0.000000
-11.810200 0.000000
-11.794700 0.000000
-11.779100 0.000000
-11.763600 0.000000
-11.748100 0.015500
-11.732500 1.015500
-11.717000 2.854600
-11.701500 5.197300
-11.685900 5.197400
-11.670400 5.197400
-11.654800 5.197500
-11.639300 5.197600
-11.623800 4.611200
-11.608200 3.502500
-11.592700 1.814200
-11.577100 1.814200
-11.561600 1.814200
-11.546100 1.814300
-11.530500 1.814300
-11.515000 1.814300
-11.499500 1.814300
-11.483900 1.814300
-11.468400 1.814300
-11.452800 1.814300
-11.437300 1.814300
-11.421800 1.814300
-11.406200 1.814300
-11.390700 1.814300
-11.375200 1.814300
-11.359600 1.814300
-11.344100 1.814300
-11.328500 1.814300
-11.313000 1.754400
-11.297500 1.592600
-11.281900 1.232700
-11.266400 1.232700
-11.250800 1.232700
-11.235300 1.232800
-11.219800 1.232800
-11.204200 1.232800
-11.188700 1.232800
-11.173200 1.232800
-11.157600 1.232800
-11.142100 1.232800
-11.126500 1.232800
-11.111000 1.232800
-11.095500 1.232800
-11.079900 1.232800
-11.064400 1.232800
-11.048800 1.232800
-11.033300 1.232800
-11.017800 1.232800
-11.002200 1.232800
-10.986700 1.232800
-10.971200 1.232800
-10.955600 1.232800
-10.940100 1.232800
-10.924500 1.232800
-10.909000 1.232800
-10.893500 1.232800
-10.877900 1.232800
-10.862400 1.232800
-10.846900 4.236300
-10.831300 11.217900
-10.815800 0.000000
-10.800200 0.000000
-10.784700 0.000000
-10.769200 0.000000
-10.753600 0.000000
-10.738100 0.000000
-10.722500 0.000000
-10.707000 0.000000
-10.691500 0.000000
-10.675900 0.000000
-10.660400 0.000000
-10.644900 0.000000
-10.629300 0.000000
-10.613800 0.000000
-10.598200 0.000000
-10.582700 0.000000
-10.567200 0.000000
-10.551600 0.000000
-10.536100 0.000000
-10.520600 0.000000
-10.505000 0.000000
-10.489500 1.759600
-10.473900 4.715000
-10.458400 6.662500
-10.442900 7.758700
-10.427300 9.929700
-10.411800 8.934500
-10.396200 7.479200
-10.380700 5.485700
-10.365200 5.492000
-10.349600 5.498400
-10.334100 5.652100
-10.318600 6.747900
-10.303000 8.073200
-10.287500 11.031800
-10.271900 11.153000
-10.256400 31.957300
-10.240900 0.000000
-10.225300 28.291700
-10.209800 1.455000
-10.194300 1.455000
-10.178700 1.455000
-10.163200 1.455000
-10.147600 1.454900
-10.132100 1.454900
-10.116600 1.454900
-10.101000 1.454900
-10.085500 1.454800
-10.069900 1.454800
-10.054400 1.454800
-10.038900 1.454800
-10.023300 1.454800
-10.007800 1.454800
-9.992300 1.454800
-9.976700 1.454800
-9.961200 1.454800
-9.945600 1.454800
-9.930100 1.454800
-9.914600 1.454800
-9.899000 1.454800
-9.883500 1.454800
-9.868000 1.454800
-9.852400 1.566000
-9.836900 1.789500
-9.821300 2.212500
-9.805800 2.571800
-9.790300 2.571600
-9.774700 2.571400
-9.759200 2.571300
-9.743600 2.571200
-9.728100 2.571100
-9.712600 2.571100
-9.697000 2.571100
-9.681500 2.571200
-9.666000 2.571300
-9.650400 2.722300
-9.634900 3.882500
-9.619300 5.725400
-9.603800 7.156000
-9.588300 7.434700
-9.572700 6.441800
-9.557200 5.324500
-9.541600 3.766300
-9.526100 3.320300
-9.510600 3.675900
-9.495000 4.704700
-9.479500 7.622600
-9.464000 8.559000
-9.448400 10.330700
-9.432900 12.798600
-9.417300 13.532000
-9.401800 13.492400
-9.386300 12.861300
-9.370700 19.114700
-9.355200 12.710800
-9.339700 10.735700
-9.324100 0.000000
-9.308600 0.000000
-9.293000 0.000000
-9.277500 0.000000
-9.262000 0.000000
-9.246400 0.000000
-9.230900 0.000000
-9.215300 0.000000
-9.199800 0.000000
-9.184300 0.000000
-9.168700 0.000000
-9.153200 0.000000
-9.137700 0.000000
-9.122100 0.000000
-9.106600 0.000000
-9.091000 0.000000
-9.075500 0.000000
-9.060000 0.000000
-9.044400 0.000000
-9.028900 0.000000
-9.013400 0.000000
-8.997800 0.000000
-8.982300 0.000000
-8.966700 0.000000
-8.951200 0.000000
-8.935700 0.000000
-8.920100 0.000000
-8.904600 0.000000
-8.889000 0.000000
-8.873500 0.000000
-8.858000 0.000000
-8.842400 0.000000
-8.826900 0.000000
-8.811400 0.000000
-8.795800 0.000000
-8.780300 0.000000
-8.764700 0.000000
-8.749200 0.000000
-8.733700 0.000000
-8.718100 0.000000
-8.702600 0.000000
-8.687100 0.000000
-8.671500 0.000000
-8.656000 0.000000
-8.640400 0.000000
-8.624900 0.000000
-8.609400 0.000000
-8.593800 0.000000
-8.578300 0.000000
-8.562700 0.000000
-8.547200 0.000000
-8.531700 0.000000
-8.516100 0.000000
-8.500600 0.000000
-8.485100 0.000000
-8.469500 0.000000
-8.454000 0.000000
-8.438400 5.162100
-8.422900 19.955000
-8.407400 7.884800
-8.391800 6.881100
-8.376300 6.404600
-8.360800 5.928000
-8.345200 5.354100
-8.329700 4.898200
-8.314100 4.582500
-8.298600 4.549800
-8.283100 4.685000
-8.267500 4.937400
-8.252000 5.111700
-8.236400 5.010700
-8.220900 4.931200
-8.205400 4.986100
-8.189800 5.130700
-8.174300 5.017300
-8.158800 4.729700
-8.143200 4.232300
-8.127700 3.459300
-8.112100 2.514700
-8.096600 1.722100
-8.081100 1.052400
-8.065500 0.435100
-8.050000 0.000000
-8.034500 0.000000
-8.018900 0.000000
-8.003400 0.000000
-7.987800 0.000000
-7.972300 0.000000
-7.956800 0.000000
-7.941200 0.000000
-7.925700 0.000000
-7.910100 0.000000
-7.894600 0.000000
-7.879100 0.000000
-7.863500 0.000000
-7.848000 0.000000
-7.832500 0.000000
-7.816900 0.000000
-7.801400 0.000000
-7.785800 0.000000
-7.770300 0.000000
-7.754800 0.000000
-7.739200 0.000000
-7.723700 0.000000
-7.708100 0.000000
-7.692600 0.000000
-7.677100 0.000000
-7.661500 0.000000
-7.646000 0.000000
-7.630500 0.000000
-7.614900 0.000000
-7.599400 0.000000
-7.583800 0.000000
-7.568300 0.000000
-7.552800 0.000000
-7.537200 0.000000
-7.521700 0.000000
-7.506200 0.000000
-7.490600 0.000000
-7.475100 0.000000
-7.459500 0.000000
-7.444000 0.000000
-7.428500 0.000000
-7.412900 0.000000
-7.397400 0.000000
-7.381800 0.000000
-7.366300 0.000000
-7.350800 0.000000
-7.335200 0.000000
-7.319700 0.000000
-7.304200 0.000000
-7.288600 0.000000
-7.273100 0.000000
-7.257500 0.000000
-7.242000 0.000000
-7.226500 0.000000
-7.210900 0.000000
-7.195400 0.000000
-7.179900 0.000000
-7.164300 0.000000
-7.148800 0.000000
-7.133200 0.000000
-7.117700 0.000000
-7.102200 0.000000
-7.086600 0.000000
-7.071100 0.000000
-7.055500 0.000000
-7.040000 0.000000
-7.024500 0.000000
-7.008900 0.000000
-6.993400 0.000000
-6.977900 0.000000
-6.962300 0.000000
-6.946800 0.000000
-6.931200 0.000000
-6.915700 0.000000
-6.900200 0.000000
-6.884600 0.000000
-6.869100 0.000000
-6.853600 0.000000
-6.838000 0.000000
-6.822500 0.000000
-6.806900 0.000000
-6.791400 0.000000
-6.775900 0.000000
-6.760300 0.000000
-6.744800 0.000000
-6.729200 0.000000
-6.713700 0.000000
-6.698200 0.000000
-6.682600 0.000000
-6.667100 0.000000
-6.651600 0.000000
-6.636000 0.000000
-6.620500 0.000000
-6.604900 0.000000
-6.589400 0.000000
-6.573900 0.000000
-6.558300 0.000000
-6.542800 0.000000
-6.527300 0.000000
-6.511700 0.000000
-6.496200 0.000000
-6.480600 0.000000
-6.465100 0.000000
-6.449600 0.000000
-6.434000 0.000000
-6.418500 0.000000
-6.402900 0.000000
-6.387400 0.000000
-6.371900 0.000000
-6.356300 0.000000
-6.340800 0.000000
-6.325300 0.000000
-6.309700 0.000000
-6.294200 0.000000
-6.278600 0.000000
-6.263100 0.000000
-6.247600 0.000000
-6.232000 0.000000
-6.216500 0.000000
-6.201000 0.000000
-6.185400 0.000000
-6.169900 0.000000
-6.154300 0.000000
-6.138800 0.000000
-6.123300 0.000000
-6.107700 0.000000
-6.092200 0.000000
-6.076600 0.000000
-6.061100 0.000000
-6.045600 0.000000
-6.030000 0.000000
-6.014500 0.000000
-5.999000 0.000000
-5.983400 0.000000
-5.967900 0.000000
-5.952300 0.000000
-5.936800 0.000000
-5.921300 0.000000
-5.905700 0.000000
-5.890200 0.000000
-5.874600 0.000000
-5.859100 0.000000
-5.843600 0.000000
-5.828000 0.000000
-5.812500 0.000000
-5.797000 0.000000
-5.781400 0.000000
-5.765900 0.000000
-5.750300 0.000000
-5.734800 0.000000
-5.719300 0.000000
-5.703700 0.000000
-5.688200 0.000000
-5.672700 0.000000
-5.657100 0.000000
-5.641600 0.000000
-5.626000 0.000000
-5.610500 0.000000
-5.595000 0.000000
-5.579400 0.000000
-5.563900 0.000000
-5.548300 0.000000
-5.532800 0.000000
-5.517300 0.000000
-5.501700 0.000000
-5.486200 0.000000
-5.470700 0.000000
-5.455100 0.000000
-5.439600 0.000000
-5.424000 0.000000
-5.408500 0.000000
-5.393000 0.000000
-5.377400 0.000000
-5.361900 0.000000
-5.346400 0.000000
-5.330800 0.000000
-5.315300 0.000000
-5.299700 0.000000
-5.284200 0.000000
-5.268700 0.000000
-5.253100 0.000000
-5.237600 0.000000
-5.222000 0.000000
-5.206500 0.000000
-5.191000 0.000000
-5.175400 0.000000
-5.159900 0.000000
-5.144400 0.000000
-5.128800 0.000000
-5.113300 0.000000
-5.097700 0.000000
-5.082200 0.000000
-5.066700 0.000000
-5.051100 0.000000
-5.035600 0.000000
-5.020100 0.000000
-5.004500 0.000000
-4.989000 0.000000
-4.973400 0.000000
-4.957900 0.000000
-4.942400 0.000000
-4.926800 0.000000
-4.911300 0.000000
-4.895700 0.000000
-4.880200 0.000000
-4.864700 0.000000
-4.849100 0.000000
-4.833600 0.000000
-4.818100 0.000000
-4.802500 0.000000
-4.787000 0.000000
-4.771400 0.000000
-4.755900 0.000000
-4.740400 0.000000
-4.724800 0.000000
-4.709300 0.000000
-4.693800 0.000000
-4.678200 0.000000
-4.662700 0.000000
-4.647100 0.000000
-4.631600 0.000000
-4.616100 0.000000
-4.600500 0.000000
-4.585000 0.000000
-4.569400 0.000000
-4.553900 0.000000
-4.538400 0.000000
-4.522800 0.000000
-4.507300 0.000000
-4.491800 0.000000
-4.476200 0.000000
-4.460700 0.000000
-4.445100 0.000000
-4.429600 0.000000
-4.414100 0.000000
-4.398500 0.000000
-4.383000 0.000000
-4.367500 0.000000
-4.351900 0.000000
-4.336400 0.000000
-4.320800 0.000000
-4.305300 0.000000
-4.289800 0.000000
-4.274200 0.000000
-4.258700 0.000000
-4.243100 0.000000
-4.227600 0.000000
-4.212100 0.000000
-4.196500 0.000000
-4.181000 0.000000
-4.165500 0.000000
-4.149900 0.000000
-4.134400 0.000000
-4.118800 0.000000
-4.103300 0.000000
-4.087800 0.000000
-4.072200 0.000000
-4.056700 0.000000
-4.041100 0.000000
-4.025600 0.000000
-4.010100 0.000000
-3.994500 0.000000
-3.979000 0.000000
-3.963500 0.000000
-3.947900 0.000000
-3.932400 0.000000
-3.916800 0.000000
-3.901300 0.000000
-3.885800 0.000000
-3.870200 0.000000
-3.854700 0.000000
-3.839200 0.000000
-3.823600 0.000000
-3.808100 0.000000
-3.792500 0.000000
-3.777000 0.000000
-3.761500 0.000000
-3.745900 0.000000
-3.730400 0.000000
-3.714800 0.000000
-3.699300 0.000000
-3.683800 0.000000
-3.668200 0.000000
-3.652700 0.000000
-3.637200 0.000000
-3.621600 0.000000
-3.606100 0.000000
-3.590500 0.000000
-3.575000 0.000000
-3.559500 0.000000
-3.543900 0.000000
-3.528400 0.000000
-3.512900 0.000000
-3.497300 0.000000
-3.481800 0.000000
-3.466200 0.000000
-3.450700 0.000000
-3.435200 0.000000
-3.419600 0.000000
-3.404100 0.000000
-3.388500 0.000000
-3.373000 0.000000
-3.357500 0.000000
-3.341900 0.000000
-3.326400 0.000000
-3.310900 0.000000
-3.295300 0.000000
-3.279800 0.000000
-3.264200 0.000000
-3.248700 0.000000
-3.233200 0.000000
-3.217600 0.000000
-3.202100 0.000000
-3.186600 0.000000
-3.171000 0.000000
-3.155500 0.000000
-3.139900 0.000000
-3.124400 0.000000
-3.108900 0.000000
-3.093300 0.000000
-3.077800 0.000000
-3.062200 0.000000
-3.046700 0.000000
-3.031200 0.000000
-3.015600 0.000000
-3.000100 0.000000
-2.984600 0.000000
-2.969000 4.732300
-2.953500 5.205100
-2.937900 6.300600
-2.922400 5.309000
-2.906900 2.013600
-2.891300 1.740400
-2.875800 1.739400
-2.860300 1.738400
-2.844700 1.737500
-2.829200 1.736500
-2.813600 1.736200
-2.798100 2.286700
-2.782600 3.396800
-2.767000 5.292400
-2.751500 7.785800
-2.735900 7.663300
-2.720400 6.170500
-2.704900 4.481700
-2.689300 3.743700
-2.673800 3.707000
-2.658300 3.675400
-2.642700 3.657900
-2.627200 3.661300
-2.611600 3.669100
-2.596100 3.679100
-2.580600 3.691600
-2.565000 3.720800
-2.549500 3.765600
-2.534000 3.824000
-2.518400 3.896800
-2.502900 3.878200
-2.487300 3.822400
-2.471800 3.776300
-2.456300 3.720300
-2.440700 3.649700
-2.425200 3.664700
-2.409600 4.136100
-2.394100 4.757900
-2.378600 5.509500
-2.363000 6.469000
-2.347500 6.493100
-2.332000 6.670100
-2.316400 6.664600
-2.300900 7.033700
-2.285300 6.844500
-2.269800 5.887600
-2.254300 5.122700
-2.238700 4.832300
-2.223200 3.603600
-2.207600 1.859300
-2.192100 1.689600
-2.176600 1.693500
-2.161000 1.933900
-2.145500 2.248700
-2.130000 2.658800
-2.114400 3.253300
-2.098900 4.180900
-2.083300 5.308400
-2.067800 6.187900
-2.052300 6.944200
-2.036700 7.687000
-2.021200 8.441400
-2.005700 8.497500
-1.990100 10.397200
-1.974600 13.705200
-1.959000 9.496200
-1.943500 9.065800
-1.928000 7.473100
-1.912400 4.096600
-1.896900 4.098100
-1.881300 4.236400
-1.865800 4.461600
-1.850300 4.563000
-1.834700 4.370100
-1.819200 4.365100
-1.803700 4.254600
-1.788100 3.762500
-1.772600 2.887900
-1.757000 2.683700
-1.741500 2.498700
-1.726000 2.177500
-1.710400 1.954100
-1.694900 1.708500
-1.679400 1.474700
-1.663800 1.302100
-1.648300 1.171100
-1.632700 1.049000
-1.617200 0.931200
-1.601700 0.816800
-1.586100 0.712200
-1.570600 0.612100
-1.555000 0.509900
-1.539500 0.398700
-1.524000 0.263200
-1.508400 0.041200
-1.492900 0.000000
-1.477400 0.000000
-1.461800 0.000000
-1.446300 0.000000
-1.430700 0.000000
-1.415200 0.000000
-1.399700 0.000000
-1.384100 0.000000
-1.368600 0.000000
-1.353100 0.000000
-1.337500 0.000000
-1.322000 0.000000
-1.306400 0.000000
-1.290900 0.000000
-1.275400 0.000000
-1.259800 0.000000
-1.244300 0.000000
-1.228700 0.000000
-1.213200 0.000000
-1.197700 0.000000
-1.182100 0.000000
-1.166600 0.000000
-1.151100 0.000000
-1.135500 0.000000
-1.120000 0.000000
-1.104400 0.000000
-1.088900 0.000000
-1.073400 0.000000
-1.057800 0.000000
-1.042300 0.000000
-1.026800 0.000000
-1.011200 0.000000
-0.995700 0.000000
-0.980100 0.000000
-0.964600 0.000000
-0.949100 0.000000
-0.933500 0.000000
-0.918000 0.000000
-0.902400 0.000000
-0.886900 0.000000
-0.871400 0.000000
-0.855800 0.000000
-0.840300 0.000000
-0.824800 0.000000
-0.809200 0.000000
-0.793700 0.000000
-0.778100 0.000000
-0.762600 0.000000
-0.747100 0.000000
-0.731500 0.000000
-0.716000 0.000000
-0.700400 0.000000
-0.684900 0.000000
-0.669400 0.000000
-0.653800 0.000000
-0.638300 0.000000
-0.622800 0.000000
-0.607200 0.000000
-0.591700 0.000000
-0.576100 0.000000
-0.560600 0.001600
-0.545100 0.062500
-0.529500 0.199000
-0.514000 0.549900
-0.498500 1.475700
-0.482900 3.899300
-0.467400 6.987500
-0.451800 7.633200
-0.436300 8.014500
-0.420800 8.508000
-0.405200 10.206400
-0.389700 11.113300
-0.374100 10.711700
-0.358600 8.778800
-0.343100 7.500500
-0.327500 7.135300
-0.312000 6.722100
-0.296500 6.758500
-0.280900 7.439500
-0.265400 8.855400
-0.249800 9.553300
-0.234300 9.800500
-0.218800 10.581000
-0.203200 11.194600
-0.187700 11.552600
-0.172200 11.308100
-0.156600 9.775200
-0.141100 8.640100
-0.125500 8.426200
-0.110000 8.384700
-0.094500 8.036100
-0.078900 7.900200
-0.063400 7.562700
-0.047800 7.835300
-0.032300 8.032200
-0.016800 8.089600
-0.001200 7.629900
0.014300 8.136200
0.029800 7.455000
0.045400 6.030200
0.060900 6.253700
0.076500 7.344000
0.092000 7.592600
0.107500 7.238800
0.123100 6.910200
0.138600 7.232600
0.154100 7.701600
0.169700 8.627900
0.185200 8.368300
0.200800 9.804900
0.216300 12.001300
0.231800 13.139300
0.247400 13.778600
0.262900 14.535100
0.278500 15.283000
0.294000 14.741000
0.309500 12.303200
0.325100 8.119300
0.340600 5.529000
0.356100 3.949000
0.371700 3.251600
0.387200 2.776500
0.402800 2.378400
0.418300 2.116700
0.433800 1.917500
0.449400 1.730300
0.464900 1.514700
0.480400 1.331300
0.496000 1.224300
0.511500 1.191700
0.527100 1.254800
0.542600 1.351800
0.558100 1.473500
0.573700 1.862000
0.589200 2.548500
0.604800 2.620800
0.620300 2.546600
0.635800 2.446600
0.651400 2.501600
0.666900 2.527800
0.682400 2.528200
0.698000 2.524000
0.713500 2.612800
0.729100 2.777400
0.744600 3.012000
0.760100 3.262300
0.775700 3.727400
0.791200 4.383600
0.806700 4.479200
0.822300 4.940800
0.837800 5.717600
0.853400 6.223600
0.868900 6.023300
0.884400 5.907600
0.900000 6.636300
0.915500 6.477400
0.931100 6.696200
0.946600 6.822300
0.962100 6.873800
0.977700 7.120300
0.993200 7.274800
1.008700 7.523800
1.024300 7.726200
1.039800 7.877500
1.055400 8.514800
1.070900 10.090200
1.086400 12.902000
1.102000 12.821600
1.117500 12.174100
1.133100 11.697600
1.148600 12.294500
1.164100 11.658700
1.179700 12.217900
1.195200 13.431000
1.210700 11.579900
1.226300 10.677900
1.241800 10.469900
1.257400 10.490200
1.272900 9.367600
1.288400 8.997000
1.304000 9.070600
1.319500 9.942500
1.335000 10.433000
1.350600 11.377200
1.366100 10.780800
1.381700 9.667100
1.397200 9.240900
1.412700 9.139700
1.428300 9.298600
1.443800 10.902300
1.459400 11.529300
1.474900 12.517200
1.490400 13.535600
1.506000 14.053300
1.521500 14.264100
1.537000 13.949000
1.552600 13.121300
1.568100 12.140000
1.583700 11.438300
1.599200 11.017300
1.614700 10.337500
1.630300 9.716500
1.645800 9.485000
1.661300 9.347400
1.676900 8.887600
1.692400 8.806300
1.708000 8.297600
1.723500 6.873900
1.739000 5.699900
1.754600 4.743200
1.770100 3.633700
1.785700 2.893500
1.801200 2.206300
1.816700 1.510100
1.832300 0.937600
1.847800 0.483700
1.863300 0.082000
1.878900 0.000000
1.894400 0.000000
1.910000 0.000000
1.925500 0.000000
1.941000 0.000000
1.956600 0.000000
1.972100 0.000000
1.987600 0.000000
2.003200 0.000000
2.018700 0.000000
2.034300 0.000000
2.049800 0.010800
2.065300 0.022600
2.080900 0.034700
2.096400 0.047900
2.112000 0.062700
2.127500 0.079100
2.143000 0.097300
2.158600 0.117000
2.174100 0.138500
2.189600 0.163300
2.205200 0.192500
2.220700 0.230800
2.236300 0.276300
2.251800 0.324400
2.267300 0.375100
2.282900 0.430700
2.298400 0.496900
2.313900 0.574100
2.329500 0.653500
2.345000 0.729000
2.360600 0.800200
2.376100 0.896100
2.391600 1.023000
2.407200 1.162200
2.422700 1.307300
2.438300 1.458100
2.453800 1.618100
2.469300 1.793600
2.484900 1.999200
2.500400 2.232700
2.515900 2.486900
2.531500 2.492300
2.547000 2.424700
2.562600 2.370000
2.578100 2.328100
2.593600 2.299400
2.609200 2.327800
2.624700 2.432900
2.640200 2.781600
2.655800 3.088200
2.671300 3.074000
2.686900 2.933800
2.702400 2.879900
2.717900 3.034200
2.733500 3.258600
2.749000 3.362800
2.764600 3.421500
2.780100 3.949400
2.795600 4.594400
2.811200 5.235300
2.826700 7.912600
2.842200 9.109400
2.857800 9.228300
2.873300 6.891700
2.888900 5.426100
2.904400 4.041900
2.919900 4.113400
2.935500 4.127600
2.951000 4.123100
2.966600 4.101000
2.982100 4.078300
2.997600 4.103200
3.013200 4.104800
3.028700 4.143400
3.044200 4.189300
3.059800 4.259500
3.075300 4.360700
3.090900 4.589000
3.106400 4.833400
3.121900 4.836400
3.137500 4.991100
3.153000 4.588700
3.168500 4.165700
3.184100 3.821200
3.199600 3.474900
3.215200 3.167800
3.230700 2.922200
3.246200 2.710100
3.261800 2.533400
3.277300 2.434000
3.292900 2.368800
3.308400 2.455200
3.323900 2.570000
3.339500 2.601600
3.355000 2.652900
3.370500 2.715200
3.386100 2.785800
3.401600 2.910600
3.417200 3.223000
3.432700 3.226700
3.448200 2.600400
3.463800 2.313900
3.479300 2.044100
3.494800 2.043200
3.510400 1.592400
3.525900 1.061700
3.541500 0.548300
3.557000 0.080800
3.572500 0.000000
3.588100 0.000000
3.603600 0.000000
3.619200 0.000000
3.634700 0.000000
3.650200 0.000000
3.665800 0.000000
3.681300 0.000000
3.696800 0.000000
3.712400 0.000000
3.727900 0.000000
3.743500 0.000000
3.759000 0.000000
3.774500 0.000000
3.790100 0.000000
3.805600 0.000000
3.821100 0.000000
3.836700 0.000000
3.852200 0.000000
3.867800 0.000000
3.883300 0.000000
3.898800 0.000000
3.914400 0.000000
3.929900 0.000000
3.945500 0.000000
3.961000 0.000000
3.976500 0.000000
3.992100 0.000000
4.007600 0.000000
4.023100 0.000000
4.038700 0.000000
4.054200 0.053800
4.069800 0.504100
4.085300 1.017800
4.100800 1.255600
4.116400 1.359900
4.131900 1.552300
4.147400 1.756000
4.163000 1.984600
4.178500 2.379400
4.194100 2.835900
4.209600 3.482700
4.225100 4.400700
4.240700 4.505500
4.256200 5.007900
4.271800 5.648900
4.287300 6.245900
4.302800 7.221300
4.318400 8.338300
4.333900 12.219400
4.349400 11.845800
4.365000 10.589700
4.380500 9.739300
4.396100 8.836100
4.411600 4.523600
4.427100 3.111900
4.442700 2.357900
4.458200 1.714900
4.473700 1.419100
4.489300 1.141200
4.504800 0.883500
4.520400 0.786600
4.535900 0.424200
4.551400 0.072500
4.567000 0.000000
4.582500 0.000000
4.598100 0.000000
4.613600 0.000000
4.629100 0.000000
4.644700 0.000000
4.660200 0.000000
4.675700 0.000000
4.691300 0.000000
4.706800 0.000000
4.722400 0.000000
4.737900 0.000000
4.753400 0.000000
4.769000 0.000000
4.784500 0.000000
4.800100 0.000000
4.815600 0.000000
4.831100 0.000000
4.846700 0.000000
4.862200 0.000000
4.877700 0.000000
4.893300 0.000000
4.908800 0.000000
4.924400 0.000000
4.939900 0.000000
4.955400 0.000000
4.971000 0.000000
4.986500 0.000000
5.002000 0.000000
5.017600 0.000000
5.033100 0.000000
5.048700 0.000000
5.064200 0.000000
5.079700 0.000000
5.095300 0.000000
5.110800 0.000000
5.126400 0.000000
5.141900 0.000000
5.157400 0.000000
5.173000 0.000000
5.188500 0.000000
5.204000 0.000000
5.219600 0.000000
5.235100 0.000000
5.250700 0.000000
5.266200 0.000000
5.281700 0.000000
5.297300 0.000000
5.312800 0.000000
5.328300 0.000000
5.343900 0.000000
5.359400 0.000000
5.375000 0.000000
5.390500 0.000000
5.406000 0.000000
5.421600 0.000000
5.437100 0.000000
5.452700 0.000000
5.468200 0.000000
5.483700 0.000000
5.499300 0.000000
5.514800 0.000000
5.530300 0.000000
5.545900 0.000000
5.561400 0.000000
5.577000 0.000000
5.592500 0.000000
5.608000 0.000000
5.623600 0.000000
5.639100 0.000000
5.654600 0.000000
5.670200 0.000000
5.685700 0.000000
5.701300 0.000000
5.716800 0.000000
5.732300 0.000000
5.747900 0.000000
5.763400 0.000000
5.779000 0.000000
5.794500 0.000000
5.810000 0.000000
5.825600 0.000000
5.841100 0.000000
5.856600 0.000000
5.872200 0.000000
5.887700 0.000000
5.903300 0.000000
5.918800 0.000000
5.934300 0.000000
5.949900 0.000000
5.965400 0.000000
5.980900 0.000000
5.996500 0.000000
6.012000 0.000000
6.027600 0.000000
6.043100 0.000000
6.058600 0.000000
6.074200 0.000000
6.089700 0.000000
6.105300 0.000000
6.120800 0.000000
6.136300 0.000000
6.151900 0.000000
6.167400 0.000000
6.182900 0.000000
6.198500 0.000000
6.214000 0.000000
6.229600 0.000000
6.245100 0.000000
6.260600 0.000000
6.276200 0.000000
6.291700 0.000000
6.307200 0.000000
6.322800 0.000000
6.338300 0.000000
6.353900 0.000000
6.369400 0.000000
6.384900 0.000000
6.400500 0.000000
6.416000 0.000000
6.431600 0.000000
6.447100 0.000000
6.462600 0.031500
6.478200 0.081300
6.493700 0.131000
6.509200 0.186100
6.524800 0.246100
6.540300 0.312200
6.555900 0.385500
6.571400 0.465600
6.586900 0.553900
6.602500 0.678600
6.618000 0.839400
6.633600 0.977300
6.649100 1.079700
6.664600 1.174400
6.680200 1.264300
6.695700 1.357800
6.711200 1.449100
6.726800 1.551700
6.742300 1.560200
6.757900 1.560400
6.773400 1.560600
6.788900 1.560700
6.804500 1.560900
6.820000 1.561000
6.835500 1.561200
6.851100 1.561100
6.866600 1.535000
6.882200 1.494400
6.897700 1.455800
6.913200 1.412300
6.928800 1.365500
6.944300 1.314400
6.959900 1.259500
6.975400 1.196000
6.990900 1.090500
7.006500 1.016600
7.022000 0.977100
7.037500 0.947900
7.053100 0.932300
7.068600 0.927600
7.084200 0.926900
7.099700 0.926000
7.115200 0.925200
7.130800 0.964200
7.146300 1.303700
7.161800 1.590600
7.177400 1.682800
7.192900 1.782200
7.208500 1.855200
7.224000 1.898400
7.239500 1.909100
7.255100 1.891500
7.270600 1.891300
7.286200 1.913500
7.301700 1.953000
7.317200 2.001700
7.332800 2.059400
7.348300 2.123400
7.363800 2.206400
7.379400 2.363900
7.394900 2.565000
7.410500 2.666700
7.426000 2.711600
7.441500 2.820300
7.457100 2.904300
7.472600 2.910100
7.488100 2.894300
7.503700 2.842600
7.519200 2.799500
7.534800 2.796000
7.550300 2.783100
7.565800 2.787400
7.581400 2.804100
7.596900 2.834000
7.612500 2.876800
7.628000 2.940000
7.643500 3.036800
7.659100 3.174100
7.674600 3.345900
7.690100 3.496800
7.705700 3.683800
7.721200 3.939100
7.736800 4.283900
7.752300 3.898200
7.767800 3.919000
7.783400 3.914700
7.798900 4.001500
7.814400 4.142700
7.830000 4.263000
7.845500 4.352000
7.861100 4.552700
7.876600 4.907700
7.892100 5.253800
7.907700 5.438100
7.923200 5.517100
7.938800 5.476100
7.954300 5.406900
7.969800 5.133800
7.985400 4.963400
8.000900 4.805900
8.016400 4.675200
8.032000 4.567000
8.047500 4.305300
8.063100 3.891700
8.078600 3.433500
8.094100 3.124200
8.109700 3.232900
8.125200 3.189700
8.140800 3.303300
8.156300 3.667900
8.171800 4.109500
8.187400 4.760000
8.202900 6.053900
8.218400 6.668300
8.234000 6.430400
8.249500 6.191600
8.265100 6.401100
8.280600 6.342900
8.296100 6.344500
8.311700 6.538200
8.327200 6.750800
8.342700 6.673000
8.358300 6.839000
8.373800 6.912300
8.389400 7.199500
8.404900 6.282800
8.420400 4.962200
8.436000 4.481700
8.451500 4.329500
8.467100 4.130800
8.482600 4.364000
8.498100 4.743800
8.513700 4.958300
8.529200 5.056900
8.544700 5.090400
8.560300 5.133500
8.575800 5.117500
8.591400 5.219800
8.606900 5.250400
8.622400 5.323500
8.638000 5.369500
8.653500 5.389800
8.669000 5.434400
8.684600 5.495300
8.700100 5.543400
8.715700 5.528600
8.731200 5.658000
8.746700 5.731600
8.762300 5.704400
8.777800 5.601200
8.793400 5.576600
8.808900 5.679500
8.824400 5.909600
8.840000 6.083800
8.855500 6.221500
8.871000 6.079500
8.886600 5.940900
8.902100 5.818800
8.917700 5.672100
8.933200 5.716100
8.948700 5.880900
8.964300 6.245300
8.979800 6.510100
8.995300 7.383200
9.010900 7.521200
9.026400 7.748600
9.042000 7.934500
9.057500 8.097100
9.073000 8.327900
9.088600 8.627600
9.104100 8.262500
9.119700 7.831900
9.135200 7.598900
9.150700 7.405800
9.166300 7.321400
9.181800 6.985300
9.197300 7.017700
9.212900 7.282700
9.228400 7.459000
9.244000 7.351700
9.259500 7.031900
9.275000 6.634300
9.290600 6.376600
9.306100 6.569500
9.321600 6.974800
9.337200 7.512900
9.352700 7.331100
9.368300 7.662100
9.383800 7.662100
9.399300 7.704000
9.414900 7.741400
9.430400 8.096900
9.446000 8.587000
9.461500 8.717700
9.477000 8.192600
9.492600 7.675700
9.508100 7.368900
9.523600 7.206000
9.539200 7.026200
9.554700 6.912100
9.570300 6.261200
9.585800 6.016400
9.601300 5.850400
9.616900 6.107000
9.632400 7.481000
9.647900 8.099800
9.663500 8.603800
9.679000 9.049900
9.694600 9.072800
9.710100 8.733700
9.725600 7.716400
9.741200 6.853400
9.756700 6.158800
9.772300 5.650500
9.787800 5.232800
9.803300 4.764400
9.818900 4.473800
9.834400 3.919600
9.849900 3.768000
9.865500 3.695700
9.881000 3.718000
9.896600 3.845900
9.912100 4.005700
9.927600 4.343600
9.943200 4.896100
9.958700 5.245200
9.974300 5.701500
9.989800 6.065800
10.005300 6.433200
10.020900 6.300300
10.036400 5.982300
10.051900 5.705500
10.067500 5.662500
10.083000 5.631100
10.098600 5.373200
10.114100 5.073200
10.129600 4.666700
10.145200 4.739900
10.160700 4.856100
10.176200 4.984300
10.191800 5.235100
10.207300 5.334700
10.222900 5.345000
10.238400 5.681800
10.253900 5.709600
10.269500 5.554000
10.285000 5.652300
10.300600 5.728100
10.316100 5.842200
10.331600 7.213400
10.347200 7.277300
10.362700 7.080500
10.378200 6.873000
10.393800 6.571600
10.409300 6.036600
10.424900 5.624200
10.440400 5.358700
10.455900 5.258200
10.471500 5.227900
10.487000 5.213200
10.502500 5.318000
10.518100 5.672000
10.533600 6.157800
10.549200 6.656800
10.564700 7.290600
10.580200 7.296500
10.595800 6.607900
10.611300 5.576600
10.626900 5.303700
10.642400 5.571600
10.657900 5.656000
10.673500 5.103300
10.689000 4.989500
10.704500 4.950600
10.720100 5.122800
10.735600 5.574200
10.751200 5.898200
10.766700 6.010600
10.782200 6.127500
10.797800 6.557100
10.813300 7.122600
10.828800 7.801300
10.844400 8.924300
10.859900 10.571200
10.875500 10.348100
10.891000 9.401100
10.906500 8.347300
10.922100 8.022000
10.937600 7.750300
10.953200 7.470400
10.968700 7.229000
10.984200 6.986300
10.999800 6.827800
11.015300 6.317800
11.030800 6.170000
11.046400 6.119600
11.061900 6.118400
11.077500 6.190900
11.093000 6.428700
11.108500 6.831100
11.124100 7.260600
11.139600 8.004000
11.155100 8.255000
11.170700 7.773000
11.186200 7.374900
11.201800 6.552300
11.217300 6.238800
11.232800 6.205800
11.248400 6.154000
11.263900 6.214700
11.279500 6.282500
11.295000 6.410900
11.310500 6.458500
11.326100 6.633100
11.341600 7.357900
11.357100 8.294000
11.372700 8.249000
11.388200 8.327900
11.403800 8.038500
11.419300 7.064000
11.434800 6.434600
11.450400 6.043600
11.465900 5.857000
11.481400 5.490100
11.497000 5.449300
11.512500 5.410700
11.528100 5.362400
11.543600 5.350500
11.559100 5.349000
11.574700 5.413000
11.590200 5.409900
11.605800 5.454200
11.621300 5.620700
11.636800 5.488700
11.652400 5.198200
11.667900 5.006500
11.683400 4.889400
11.699000 4.830900
11.714500 4.815000
11.730100 4.885400
11.745600 4.938500
11.761100 5.008800
11.776700 5.098000
11.792200 5.193500
11.807800 5.336700
11.823300 5.597900
11.838800 5.707200
11.854400 5.672100
11.869900 5.641800
11.885400 5.663800
11.901000 5.708100
11.916500 5.752500
11.932100 5.802500
11.947600 5.929800
11.963100 6.135300
11.978700 6.288200
11.994200 6.362600
12.009700 6.429500
12.025300 6.101800
12.040800 5.827700
12.056400 5.778600
12.071900 5.782500
12.087400 5.798400
12.103000 5.828100
12.118500 5.966200
12.134100 6.339600
12.149600 6.334100
12.165100 6.386100
12.180700 6.483300
12.196200 6.393100
12.211700 6.299200
12.227300 6.268200
12.242800 6.251400
12.258400 6.262800
12.273900 6.310500
12.289400 6.522600
12.305000 6.341900
12.320500 6.339100
12.336000 6.614100
12.351600 6.574100
12.367100 6.502000
12.382700 6.332000
12.398200 6.251700
12.413700 6.185800
12.429300 5.730000
12.444800 5.664900
12.460400 5.528200
12.475900 5.556700
12.491400 5.633800
12.507000 5.786700
12.522500 6.015300
12.538000 6.255200
12.553600 6.522300
12.569100 6.860700
12.584700 7.182800
12.600200 7.489800
12.615700 7.732000
12.631300 7.640400
12.646800 7.488000
12.662300 7.329100
12.677900 7.136300
12.693400 7.095700
12.709000 6.915700
12.724500 6.573300
12.740000 6.285800
12.755600 6.045900
12.771100 5.912800
12.786700 5.628800
12.802200 5.142600
12.817700 4.940700
12.833300 4.787700
12.848800 4.696600
12.864300 4.663000
12.879900 4.692600
12.895400 4.569000
12.911000 4.705200
12.926500 4.875200
12.942000 5.167500
12.957600 5.296900
12.973100 5.371600
12.988600 5.539100
13.004200 5.700400
13.019700 5.924600
13.035300 6.379300
13.050800 6.598700
13.066300 6.781600
13.081900 7.080600
13.097400 7.287000
13.113000 7.287000
13.128500 6.714500
13.144000 6.324500
13.159600 6.215500
13.175100 6.302500
13.190600 6.493400
13.206200 6.801600
13.221700 6.981300
13.237300 7.086300
13.252800 7.342300
13.268300 7.506800
13.283900 7.475600
13.299400 7.493600
13.314900 7.489300
13.330500 7.761400
13.346000 7.644700
13.361600 7.528500
13.377100 7.436900
13.392600 7.340200
13.408200 7.202600
13.423700 7.080600
13.439300 7.032200
13.454800 7.037200
13.470300 7.055400
13.485900 6.951900
13.501400 6.747200
13.516900 6.523900
13.532500 6.385600
13.548000 6.267100
13.563600 6.212800
13.579100 6.416800
13.594600 6.295000
13.610200 6.204500
13.625700 6.086200
13.641300 5.912700
13.656800 5.684700
13.672300 5.548700
13.687900 5.736400
13.703400 5.376600
13.718900 5.618600
13.734500 6.262600
13.750000 6.856300
13.765600 7.039700
13.781100 7.159600
13.796600 7.423200
13.812200 7.500600
13.827700 7.116700
13.843200 6.916200
13.858800 6.667900
13.874300 6.620300
13.889900 6.472500
13.905400 6.214800
13.920900 5.954800
13.936500 5.746000
13.952000 5.559000
13.967600 5.407800
13.983100 5.240400
13.998600 5.362900
14.014200 5.796300
14.029700 6.104500
14.045200 6.429500
14.060800 6.935400
14.076300 7.515400
14.091900 8.136600
14.107400 8.734800
14.122900 8.804100
14.138500 8.580900
14.154000 8.368700
14.169500 8.403500
14.185100 8.007600
14.200600 7.743500
14.216200 7.852400
14.231700 8.339900
14.247200 7.855600
14.262800 7.700800
14.278300 7.421900
14.293900 7.346500
14.309400 7.303500
14.324900 7.124800
14.340500 6.906000
14.356000 6.975500
14.371500 7.120600
14.387100 7.270900
14.402600 7.134300
14.418200 6.865100
14.433700 6.713800
14.449200 6.598800
14.464800 6.519600
14.480300 6.593900
14.495800 6.659500
14.511400 6.701000
14.526900 6.780500
14.542500 7.044000
14.558000 7.218300
14.573500 7.020100
14.589100 7.051300
14.604600 6.776600
14.620200 6.337000
14.635700 6.211900
14.651200 6.239800
14.666800 6.304900
14.682300 6.456300
14.697800 6.569000
14.713400 6.494800
14.728900 6.521700
14.744500 6.754700
14.760000 7.117000
14.775500 7.642000
14.791100 7.923500
14.806600 8.092900
14.822100 8.260200
14.837700 8.320900
14.853200 7.920600
14.868800 7.325900
14.884300 7.013900
14.899800 6.830000
14.915400 6.251400
14.930900 5.932300
14.946500 5.862800
14.962000 6.098900
14.977500 6.863100
14.993100 6.851000
15.008600 6.759500
15.024100 6.643900
15.039700 6.685300
15.055200 6.890800
15.070800 7.001300
15.086300 7.103500
15.101800 7.206300
15.117400 7.413200
15.132900 7.500900
15.148500 7.389000
15.164000 7.130200
15.179500 6.979800
15.195100 6.882900
15.210600 6.642700
15.226100 6.667700
15.241700 6.775400
15.257200 6.838200
15.272800 6.930900
15.288300 7.222300
15.303800 7.644600
15.319400 7.942800
15.334900 8.372600
15.350400 8.152900
15.366000 7.510700
15.381500 6.711000
15.397100 6.144800
15.412600 5.851200
15.428100 5.603700
15.443700 5.548500
15.459200 5.686400
15.474800 6.019700
15.490300 6.214600
15.505800 6.534300
15.521400 6.881500
15.536900 7.205800
15.552400 7.500500
15.568000 7.821400
15.583500 7.976500
15.599100 7.636000
15.614600 7.758800
15.630100 7.505400
15.645700 7.308800
15.661200 7.039200
15.676700 6.820700
15.692300 6.594500
15.707800 6.426400
15.723400 6.501200
15.738900 6.854300
15.754400 6.992200
15.770000 7.058600
15.785500 7.718600
15.801100 8.403900
15.816600 7.803800
15.832100 7.667400
15.847700 7.497100
15.863200 7.221100
15.878700 6.861700
15.894300 6.439200
15.909800 6.321400
15.925400 6.122000
15.940900 5.848100
15.956400 5.622800
15.972000 5.832700
15.987500 6.152500
16.003000 6.364200
16.018600 6.437500
16.034100 6.353400
16.049700 6.560600
16.065200 6.250800
16.080700 5.472900
16.096300 4.987300
16.111800 4.565900
16.127400 3.947200
16.142900 3.715400
16.158400 3.451000
16.174000 3.173800
16.189500 2.900700
16.205000 2.633000
16.220600 2.268500
16.236100 1.894400
16.251700 1.542100
16.267200 1.174600
16.282700 0.833500
16.298300 0.561500
16.313800 0.306700
16.329300 0.139100
16.344900 0.062200
16.360400 0.049700
16.376000 0.039400
16.391500 0.030200
16.407000 0.022300
16.422600 0.015600
16.438100 0.010100
16.453700 0.005700
16.469200 0.002600
16.484700 0.000700
16.500300 0.000000
16.515800 0.000000
16.531300 0.000000
16.546900 0.000000
16.562400 0.000000
16.578000 0.000000
16.593500 0.000000
16.609000 0.000000
16.624600 0.000000
16.640100 0.000000
16.655600 0.000000
16.671200 0.000000
16.686700 0.000000
16.702300 0.000000
16.717800 0.000000
16.733300 0.000000
16.748900 0.000000
16.764400 0.000000
16.780000 0.000000
16.795500 0.000000
16.811000 0.000000
16.826600 0.000000
16.842100 0.000000
16.857600 0.000000
16.873200 0.000000
16.888700 0.000000
16.904300 0.000000
16.919800 0.000000
16.935300 0.000000
16.950900 0.000000
16.966400 0.000000
16.982000 0.000000
16.997500 0.000000
17.013000 0.000000
17.028600 0.000000
17.044100 0.000000
17.059600 0.000000
17.075200 0.000000
17.090700 0.000000
17.106300 0.000000
17.121800 0.000000
17.137300 0.000000
17.152900 0.000000
17.168400 0.000000
17.183900 0.000000
17.199500 0.000000
17.215000 0.000000
17.230600 0.000000
17.246100 0.000000
17.261600 0.000000
17.277200 0.000000
17.292700 0.000000
17.308300 0.000000
17.323800 0.000000
17.339300 0.000000
17.354900 0.000000
17.370400 0.000000
17.385900 0.000000
17.401500 0.000000
17.417000 0.000000
17.432600 0.000000
17.448100 0.000000
17.463600 0.000000
17.479200 0.000000
17.494700 0.000000
17.510200 0.000000
17.525800 0.000000
17.541300 0.000000
17.556900 0.000000
17.572400 0.000000
17.587900 0.000000
17.603500 0.000000
17.619000 0.000000
17.634600 0.000000
17.650100 0.000000
17.665600 0.000000
17.681200 0.000000
17.696700 0.000000
17.712200 0.000000
17.727800 0.000000
17.743300 0.000000
17.758900 0.000000
17.774400 0.000000
17.789900 0.000000
17.805500 0.000000
17.821000 0.000000
17.836500 0.000000
17.852100 0.000000
17.867600 0.000000
17.883200 0.000000
17.898700 0.000000
17.914200 0.000000
e
