set title 'mp-128 - Density of States'
set xlabel 'Energy (eV)'
set ylabel 'DOS (states/eV)'
set grid
set xrange [-10:10]
set yrange [0:7.465]
set xzeroaxis lt -1
set terminal png size 800,600
set output 'mp-128_dos_gnuplot.png'
plot '-' using 1:2 with lines title 'DOS'
-23.619200 0.000000
-23.597800 0.000000
-23.576400 0.000000
-23.555000 0.000000
-23.533600 0.000000
-23.512200 0.000000
-23.490800 0.000000
-23.469400 0.000000
-23.448000 0.000000
-23.426600 0.000000
-23.405200 0.000000
-23.383800 0.000000
-23.362400 0.000000
-23.341000 0.000000
-23.319600 0.000000
-23.298200 0.000000
-23.276800 0.000000
-23.255400 0.000000
-23.234000 0.000000
-23.212600 0.000000
-23.191200 0.000000
-23.169800 0.000000
-23.148400 0.000000
-23.127000 0.000000
-23.105600 0.000000
-23.084200 0.000000
-23.062800 0.000000
-23.041400 0.000000
-23.020000 0.000000
-22.998600 0.000000
-22.977200 0.000000
-22.955800 0.000000
-22.934400 0.000000
-22.913000 0.000000
-22.891600 0.000000
-22.870200 0.000000
-22.848800 0.000000
-22.827400 0.000000
-22.806000 0.000000
-22.784600 0.000000
-22.763200 0.000000
-22.741800 0.000000
-22.720400 0.000000
-22.699000 0.000000
-22.677600 0.000000
-22.656200 0.000000
-22.634800 0.000000
-22.613400 0.000000
-22.592000 0.000000
-22.570600 0.000000
-22.549200 0.000000
-22.527800 0.000000
-22.506400 0.000000
-22.485000 0.000000
-22.463600 0.000000
-22.442100 0.000000
-22.420700 0.000000
-22.399300 0.000000
-22.377900 0.000000
-22.356500 0.000000
-22.335100 0.000000
-22.313700 0.000000
-22.292300 0.000000
-22.270900 0.000000
-22.249500 0.000000
-22.228100 0.000000
-22.206700 0.000000
-22.185300 0.000000
-22.163900 0.000000
-22.142500 0.000000
-22.121100 0.000000
-22.099700 0.000000
-22.078300 0.000000
-22.056900 0.000000
-22.035500 0.000000
-22.014100 0.000000
-21.992700 0.000000
-21.971300 0.000000
-21.949900 0.000000
-21.928500 0.000000
-21.907100 0.000000
-21.885700 0.000000
-21.864300 0.000000
-21.842900 0.000000
-21.821500 0.000000
-21.800100 0.000000
-21.778700 0.000000
-21.757300 0.000000
-21.735900 0.000000
-21.714500 0.000000
-21.693100 0.000000
-21.671700 772.747300
-21.650300 175.035400
-21.628900 178.750100
-21.607500 150.218900
-21.586100 130.781100
-21.564700 285.942600
-21.543300 324.151100
-21.521900 216.958100
-21.500500 265.877500
-21.479100 305.743000
-21.457700 265.189000
-21.436300 198.779400
-21.414900 273.820800
-21.393500 329.579700
-21.372100 264.710100
-21.350700 0.000000
-21.329300 0.000000
-21.307900 0.000000
-21.286500 0.000000
-21.265100 0.000000
-21.243700 0.000000
-21.222200 0.000000
-21.200800 0.000000
-21.179400 0.000000
-21.158000 0.000000
-21.136600 0.000000
-21.115200 0.000000
-21.093800 0.000000
-21.072400 0.000000
-21.051000 0.000000
-21.029600 0.000000
-21.008200 0.000000
-20.986800 0.000000
-20.965400 0.000000
-20.944000 0.000000
-20.922600 0.000000
-20.901200 0.000000
-20.879800 0.000000
-20.858400 0.000000
-20.837000 0.000000
-20.815600 0.000000
-20.794200 0.000000
-20.772800 0.000000
-20.751400 0.000000
-20.730000 0.000000
-20.708600 0.000000
-20.687200 0.000000
-20.665800 0.000000
-20.644400 0.000000
-20.623000 0.000000
-20.601600 0.000000
-20.580200 0.000000
-20.558800 0.000000
-20.537400 0.000000
-20.516000 0.000000
-20.494600 0.000000
-20.473200 0.000000
-20.451800 0.000000
-20.430400 0.000000
-20.409000 0.000000
-20.387600 0.000000
-20.366200 0.000000
-20.344800 0.000000
-20.323400 0.000000
-20.302000 0.000000
-20.280600 0.000000
-20.259200 0.000000
-20.237800 0.000000
-20.216400 0.000000
-20.195000 0.000000
-20.173600 0.000000
-20.152200 0.000000
-20.130800 0.000000
-20.109400 0.000000
-20.088000 0.000000
-20.066600 0.000000
-20.045200 0.000000
-20.023800 0.000000
-20.002400 0.000000
-19.980900 0.000000
-19.959500 0.000000
-19.938100 0.000000
-19.916700 0.000000
-19.895300 0.000000
-19.873900 0.000000
-19.852500 0.000000
-19.831100 0.000000
-19.809700 0.000000
-19.788300 0.000000
-19.766900 0.000000
-19.745500 0.000000
-19.724100 0.000000
-19.702700 0.000000
-19.681300 0.000000
-19.659900 0.000000
-19.638500 0.000000
-19.617100 0.000000
-19.595700 0.000000
-19.574300 0.000000
-19.552900 0.000000
-19.531500 0.000000
-19.510100 0.000000
-19.488700 0.000000
-19.467300 0.000000
-19.445900 0.000000
-19.424500 0.000000
-19.403100 0.000000
-19.381700 0.000000
-19.360300 0.000000
-19.338900 0.000000
-19.317500 0.000000
-19.296100 0.000000
-19.274700 0.000000
-19.253300 0.000000
-19.231900 0.000000
-19.210500 0.000000
-19.189100 0.000000
-19.167700 0.000000
-19.146300 0.000000
-19.124900 0.000000
-19.103500 0.000000
-19.082100 0.000000
-19.060700 0.000000
-19.039300 0.000000
-19.017900 0.000000
-18.996500 0.000000
-18.975100 0.000000
-18.953700 0.000000
-18.932300 0.000000
-18.910900 0.000000
-18.889500 0.000000
-18.868100 0.000000
-18.846700 0.000000
-18.825300 0.000000
-18.803900 0.000000
-18.782500 0.000000
-18.761000 0.000000
-18.739600 0.000000
-18.718200 0.000000
-18.696800 0.000000
-18.675400 0.000000
-18.654000 0.000000
-18.632600 0.000000
-18.611200 0.000000
-18.589800 0.000000
-18.568400 0.000000
-18.547000 0.000000
-18.525600 0.000000
-18.504200 0.000000
-18.482800 0.000000
-18.461400 0.000000
-18.440000 0.000000
-18.418600 0.000000
-18.397200 0.000000
-18.375800 0.000000
-18.354400 0.000000
-18.333000 0.000000
-18.311600 0.000000
-18.290200 0.000000
-18.268800 0.000000
-18.247400 0.000000
-18.226000 0.000000
-18.204600 0.000000
-18.183200 0.000000
-18.161800 0.000000
-18.140400 0.000000
-18.119000 0.000000
-18.097600 0.000000
-18.076200 0.000000
-18.054800 0.000000
-18.033400 0.000000
-18.012000 0.000000
-17.990600 0.000000
-17.969200 0.000000
-17.947800 0.000000
-17.926400 0.000000
-17.905000 0.000000
-17.883600 0.000000
-17.862200 0.000000
-17.840800 0.000000
-17.819400 0.000000
-17.798000 0.000000
-17.776600 0.000000
-17.755200 0.000000
-17.733800 0.000000
-17.712400 0.000000
-17.691000 0.000000
-17.669600 0.000000
-17.648200 0.000000
-17.626800 0.000000
-17.605400 0.000000
-17.584000 0.000000
-17.562600 0.000000
-17.541200 0.000000
-17.519700 0.000000
-17.498300 0.000000
-17.476900 0.000000
-17.455500 0.000000
-17.434100 0.000000
-17.412700 0.000000
-17.391300 0.000000
-17.369900 0.000000
-17.348500 0.000000
-17.327100 0.000000
-17.305700 0.000000
-17.284300 0.000000
-17.262900 0.000000
-17.241500 0.000000
-17.220100 0.000000
-17.198700 0.000000
-17.177300 0.000000
-17.155900 0.000000
-17.134500 0.000000
-17.113100 0.000000
-17.091700 0.000000
-17.070300 0.000000
-17.048900 0.000000
-17.027500 0.000000
-17.006100 0.000000
-16.984700 0.000000
-16.963300 0.000000
-16.941900 0.000000
-16.920500 0.000000
-16.899100 0.000000
-16.877700 0.000000
-16.856300 0.000000
-16.834900 0.000000
-16.813500 0.000000
-16.792100 0.000000
-16.770700 0.000000
-16.749300 0.000000
-16.727900 0.000000
-16.706500 0.000000
-16.685100 0.000000
-16.663700 0.000000
-16.642300 0.000000
-16.620900 0.000000
-16.599500 0.000000
-16.578100 0.000000
-16.556700 0.000000
-16.535300 0.000000
-16.513900 0.000000
-16.492500 0.000000
-16.471100 0.000000
-16.449700 0.000000
-16.428300 0.000000
-16.406900 0.000000
-16.385500 0.000000
-16.364100 0.000000
-16.342700 0.000000
-16.321300 0.000000
-16.299900 0.000000
-16.278400 0.000000
-16.257000 0.000000
-16.235600 0.000000
-16.214200 0.000000
-16.192800 0.000000
-16.171400 0.000000
-16.150000 0.000000
-16.128600 0.000000
-16.107200 0.000000
-16.085800 0.000000
-16.064400 0.000000
-16.043000 0.000000
-16.021600 0.000000
-16.000200 0.000000
-15.978800 0.000000
-15.957400 0.000000
-15.936000 0.000000
-15.914600 0.000000
-15.893200 0.000000
-15.871800 0.000000
-15.850400 0.000000
-15.829000 0.000000
-15.807600 0.000000
-15.786200 0.000000
-15.764800 0.000000
-15.743400 0.000000
-15.722000 0.000000
-15.700600 0.000000
-15.679200 0.000000
-15.657800 0.000000
-15.636400 0.000000
-15.615000 0.000000
-15.593600 0.000000
-15.572200 0.000000
-15.550800 0.000000
-15.529400 0.000000
-15.508000 0.000000
-15.486600 0.000000
-15.465200 0.000000
-15.443800 0.000000
-15.422400 0.000000
-15.401000 0.000000
-15.379600 0.000000
-15.358200 0.000000
-15.336800 0.000000
-15.315400 0.000000
-15.294000 0.000000
-15.272600 0.000000
-15.251200 0.000000
-15.229800 0.000000
-15.208400 0.000000
-15.187000 0.000000
-15.165600 0.000000
-15.144200 0.000000
-15.122800 0.000000
-15.101400 0.000000
-15.080000 0.000000
-15.058500 0.000000
-15.037100 0.000000
-15.015700 0.000000
-14.994300 0.000000
-14.972900 0.000000
-14.951500 0.000000
-14.930100 0.000000
-14.908700 0.000000
-14.887300 0.000000
-14.865900 0.000000
-14.844500 0.000000
-14.823100 0.000000
-14.801700 0.000000
-14.780300 0.000000
-14.758900 0.000000
-14.737500 0.000000
-14.716100 0.000000
-14.694700 0.000000
-14.673300 0.000000
-14.651900 0.000000
-14.630500 0.000000
-14.609100 0.000000
-14.587700 0.000000
-14.566300 0.000000
-14.544900 0.000000
-14.523500 0.000000
-14.502100 0.000000
-14.480700 0.000000
-14.459300 0.000000
-14.437900 0.000000
-14.416500 0.000000
-14.395100 0.000000
-14.373700 0.000000
-14.352300 0.000000
-14.330900 0.000000
-14.309500 0.000000
-14.288100 0.000000
-14.266700 0.000000
-14.245300 0.000000
-14.223900 0.000000
-14.202500 0.000000
-14.181100 0.000000
-14.159700 0.000000
-14.138300 0.000000
-14.116900 0.000000
-14.095500 0.000000
-14.074100 0.000000
-14.052700 0.000000
-14.031300 0.000000
-14.009900 0.000000
-13.988500 0.000000
-13.967100 0.000000
-13.945700 0.000000
-13.924300 0.000000
-13.902900 0.000000
-13.881500 0.000000
-13.860100 0.000000
-13.838700 0.000000
-13.817200 0.000000
-13.795800 0.000000
-13.774400 0.000000
-13.753000 0.000000
-13.731600 0.000000
-13.710200 0.000000
-13.688800 0.000000
-13.667400 0.000000
-13.646000 0.000000
-13.624600 0.000000
-13.603200 0.000000
-13.581800 0.000000
-13.560400 0.000000
-13.539000 0.000000
-13.517600 0.000000
-13.496200 0.000000
-13.474800 0.000000
-13.453400 0.000000
-13.432000 0.000000
-13.410600 0.000000
-13.389200 0.000000
-13.367800 0.000000
-13.346400 0.000000
-13.325000 0.000000
-13.303600 0.000000
-13.282200 0.000000
-13.260800 0.000000
-13.239400 0.000000
-13.218000 0.000000
-13.196600 0.000000
-13.175200 0.000000
-13.153800 0.000000
-13.132400 0.000000
-13.111000 0.000000
-13.089600 0.000000
-13.068200 0.000000
-13.046800 0.000000
-13.025400 0.000000
-13.004000 0.000000
-12.982600 0.000000
-12.961200 0.000000
-12.939800 0.000000
-12.918400 0.000000
-12.897000 0.000000
-12.875600 0.000000
-12.854200 0.000000
-12.832800 0.000000
-12.811400 0.000000
-12.790000 0.000000
-12.768600 0.000000
-12.747200 0.000000
-12.725800 0.000000
-12.704400 0.000000
-12.683000 0.000000
-12.661600 0.000000
-12.640200 0.000000
-12.618800 0.000000
-12.597300 0.000000
-12.575900 0.000000
-12.554500 0.000000
-12.533100 0.000000
-12.511700 0.000000
-12.490300 0.000000
-12.468900 0.000000
-12.447500 0.000000
-12.426100 0.000000
-12.404700 0.000000
-12.383300 0.000000
-12.361900 0.000000
-12.340500 0.000000
-12.319100 0.000000
-12.297700 0.000000
-12.276300 0.000000
-12.254900 0.000000
-12.233500 0.000000
-12.212100 0.000000
-12.190700 0.000000
-12.169300 0.000000
-12.147900 0.000000
-12.126500 0.000000
-12.105100 0.000000
-12.083700 0.000000
-12.062300 0.000000
-12.040900 0.000000
-12.019500 0.000000
-11.998100 0.000000
-11.976700 0.000000
-11.955300 0.000000
-11.933900 0.000000
-11.912500 0.000000
-11.891100 0.000000
-11.869700 0.000000
-11.848300 0.000000
-11.826900 0.000000
-11.805500 0.000000
-11.784100 0.000000
-11.762700 0.000000
-11.741300 0.000000
-11.719900 0.000000
-11.698500 0.000000
-11.677100 0.000000
-11.655700 0.000000
-11.634300 0.000000
-11.612900 0.000000
-11.591500 0.000000
-11.570100 0.000000
-11.548700 0.000000
-11.527300 0.000000
-11.505900 0.000000
-11.484500 0.000000
-11.463100 0.000000
-11.441700 0.000000
-11.420300 0.000000
-11.398900 0.000000
-11.377500 0.000000
-11.356000 0.000000
-11.334600 0.000000
-11.313200 0.000000
-11.291800 0.000000
-11.270400 0.000000
-11.249000 0.000000
-11.227600 0.000000
-11.206200 0.000000
-11.184800 0.000000
-11.163400 0.000000
-11.142000 0.000000
-11.120600 0.000000
-11.099200 0.000000
-11.077800 0.000000
-11.056400 0.000000
-11.035000 0.000000
-11.013600 0.000000
-10.992200 0.000000
-10.970800 0.000000
-10.949400 0.000000
-10.928000 0.000000
-10.906600 0.000000
-10.885200 0.000000
-10.863800 0.000000
-10.842400 0.000000
-10.821000 0.000000
-10.799600 0.000000
-10.778200 0.000000
-10.756800 0.000000
-10.735400 0.000000
-10.714000 0.000000
-10.692600 0.000000
-10.671200 0.000000
-10.649800 0.000000
-10.628400 0.000000
-10.607000 0.000000
-10.585600 0.000000
-10.564200 0.000000
-10.542800 0.000000
-10.521400 0.000000
-10.500000 0.000000
-10.478600 0.000000
-10.457200 0.000000
-10.435800 0.000000
-10.414400 0.000000
-10.393000 0.000000
-10.371600 0.000000
-10.350200 0.000000
-10.328800 0.000000
-10.307400 0.000000
-10.286000 0.000000
-10.264600 0.000000
-10.243200 0.000000
-10.221800 0.000000
-10.200400 0.000000
-10.179000 0.000000
-10.157600 0.000000
-10.136200 0.000000
-10.114700 0.000000
-10.093300 0.000000
-10.071900 0.000000
-10.050500 0.000000
-10.029100 0.000000
-10.007700 0.000000
-9.986300 0.000000
-9.964900 0.000000
-9.943500 0.000000
-9.922100 0.000000
-9.900700 0.000000
-9.879300 0.000000
-9.857900 0.000000
-9.836500 0.000000
-9.815100 0.000000
-9.793700 0.000000
-9.772300 0.000000
-9.750900 0.000000
-9.729500 0.000000
-9.708100 0.000000
-9.686700 0.000000
-9.665300 0.000000
-9.643900 0.000000
-9.622500 0.000000
-9.601100 0.000000
-9.579700 0.000000
-9.558300 0.000000
-9.536900 0.000000
-9.515500 0.000000
-9.494100 0.000000
-9.472700 0.001800
-9.451300 0.075800
-9.429900 0.240300
-9.408500 0.293500
-9.387100 0.366700
-9.365700 0.440400
-9.344300 0.496300
-9.322900 0.528800
-9.301500 0.556100
-9.280100 0.596200
-9.258700 0.645600
-9.237300 0.675000
-9.215900 0.719800
-9.194500 0.758300
-9.173100 0.771100
-9.151700 0.801900
-9.130300 0.834100
-9.108900 0.865900
-9.087500 0.891300
-9.066100 0.911700
-9.044700 0.938400
-9.023300 0.973200
-9.001900 1.010500
-8.980500 1.037900
-8.959100 1.061300
-8.937700 1.081800
-8.916300 1.104400
-8.894800 1.129100
-8.873400 1.154900
-8.852000 1.180300
-8.830600 1.205300
-8.809200 1.231700
-8.787800 1.259900
-8.766400 1.289500
-8.745000 1.322600
-8.723600 1.353200
-8.702200 1.383900
-8.680800 1.416100
-8.659400 1.444900
-8.638000 1.472900
-8.616600 1.503700
-8.595200 1.542500
-8.573800 1.587600
-8.552400 1.637400
-8.531000 1.695500
-8.509600 1.760600
-8.488200 1.884300
-8.466800 2.003800
-8.445400 2.095800
-8.424000 2.129100
-8.402600 2.273300
-8.381200 2.160800
-8.359800 2.130600
-8.338400 2.115100
-8.317000 2.126400
-8.295600 2.120300
-8.274200 2.092300
-8.252800 2.055200
-8.231400 2.005600
-8.210000 1.966300
-8.188600 1.913200
-8.167200 1.819500
-8.145800 1.721100
-8.124400 1.573300
-8.103000 1.438800
-8.081600 1.347900
-8.060200 1.156900
-8.038800 1.057500
-8.017400 0.955400
-7.996000 0.906600
-7.974600 0.852500
-7.953200 0.820000
-7.931800 0.803500
-7.910400 0.847500
-7.889000 0.879900
-7.867600 0.903300
-7.846200 0.957800
-7.824800 1.028600
-7.803400 1.100200
-7.782000 1.157200
-7.760600 1.187000
-7.739200 1.204400
-7.717800 1.240600
-7.696400 1.369700
-7.675000 1.574400
-7.653500 1.905600
-7.632100 2.467600
-7.610700 3.051300
-7.589300 3.232000
-7.567900 3.123600
-7.546500 3.017700
-7.525100 2.833600
-7.503700 2.642600
-7.482300 2.513500
-7.460900 2.545800
-7.439500 2.693700
-7.418100 2.719800
-7.396700 2.600100
-7.375300 2.421300
-7.353900 2.054300
-7.332500 1.960800
-7.311100 1.890900
-7.289700 1.821300
-7.268300 1.811500
-7.246900 1.816900
-7.225500 1.757000
-7.204100 1.756200
-7.182700 1.764100
-7.161300 1.775900
-7.139900 1.844000
-7.118500 1.901700
-7.097100 1.945100
-7.075700 2.010600
-7.054300 2.069300
-7.032900 2.135500
-7.011500 2.197000
-6.990100 2.242100
-6.968700 2.319500
-6.947300 2.444100
-6.925900 2.469300
-6.904500 2.536700
-6.883100 2.600000
-6.861700 2.672600
-6.840300 2.765400
-6.818900 2.862000
-6.797500 2.930000
-6.776100 3.155400
-6.754700 3.133300
-6.733300 3.193800
-6.711900 3.272100
-6.690500 3.297800
-6.669100 3.206500
-6.647700 2.993100
-6.626300 2.971400
-6.604900 3.000800
-6.583500 3.004800
-6.562100 3.057500
-6.540700 3.082900
-6.519300 3.122800
-6.497900 3.171000
-6.476500 3.116600
-6.455100 3.147100
-6.433600 3.207900
-6.412200 3.298400
-6.390800 3.278200
-6.369400 3.237900
-6.348000 3.187500
-6.326600 3.168200
-6.305200 3.131700
-6.283800 3.122000
-6.262400 3.179100
-6.241000 3.105800
-6.219600 3.103700
-6.198200 3.129200
-6.176800 3.227100
-6.155400 3.487600
-6.134000 4.096200
-6.112600 4.506800
-6.091200 4.602200
-6.069800 4.513200
-6.048400 4.390800
-6.027000 4.239600
-6.005600 4.226600
-5.984200 4.098700
-5.962800 3.991400
-5.941400 3.914400
-5.920000 3.861500
-5.898600 3.816300
-5.877200 3.607500
-5.855800 3.227800
-5.834400 2.632500
-5.813000 2.284300
-5.791600 2.158600
-5.770200 1.975200
-5.748800 1.828100
-5.727400 1.773100
-5.706000 1.757700
-5.684600 1.593500
-5.663200 1.559600
-5.641800 1.556800
-5.620400 1.555800
-5.599000 1.623600
-5.577600 1.673600
-5.556200 1.673100
-5.534800 1.616200
-5.513400 1.643000
-5.492000 1.574700
-5.470600 1.585000
-5.449200 1.574600
-5.427800 1.614500
-5.406400 1.711500
-5.385000 1.881700
-5.363600 1.739500
-5.342200 1.741300
-5.320800 1.892200
-5.299400 1.970700
-5.278000 2.045400
-5.256600 2.146400
-5.235200 2.318200
-5.213800 2.415400
-5.192300 2.416200
-5.170900 2.278600
-5.149500 2.176800
-5.128100 2.080900
-5.106700 2.000700
-5.085300 1.924900
-5.063900 1.883400
-5.042500 1.851400
-5.021100 1.828700
-4.999700 1.808100
-4.978300 1.794100
-4.956900 1.782500
-4.935500 1.789000
-4.914100 1.792300
-4.892700 1.779600
-4.871300 1.771800
-4.849900 1.765900
-4.828500 1.757800
-4.807100 1.753700
-4.785700 1.759400
-4.764300 1.774300
-4.742900 1.778100
-4.721500 1.763700
-4.700100 1.750700
-4.678700 1.738600
-4.657300 1.729200
-4.635900 1.726100
-4.614500 1.736800
-4.593100 1.736300
-4.571700 1.646100
-4.550300 1.611800
-4.528900 1.578900
-4.507500 1.548200
-4.486100 1.531400
-4.464700 1.522500
-4.443300 1.518600
-4.421900 1.516300
-4.400500 1.543200
-4.379100 1.586400
-4.357700 1.641600
-4.336300 1.724800
-4.314900 1.795800
-4.293500 1.817800
-4.272100 1.831100
-4.250700 1.806800
-4.229300 1.842400
-4.207900 1.874900
-4.186500 1.914700
-4.165100 1.946400
-4.143700 1.969700
-4.122300 1.987800
-4.100900 2.006200
-4.079500 2.035500
-4.058100 2.087200
-4.036700 2.142700
-4.015300 2.247500
-3.993900 2.370400
-3.972400 2.496600
-3.951000 2.663300
-3.929600 2.764200
-3.908200 2.801400
-3.886800 2.812300
-3.865400 2.841000
-3.844000 2.957800
-3.822600 2.987900
-3.801200 3.089500
-3.779800 3.022000
-3.758400 2.793400
-3.737000 2.428900
-3.715600 2.133800
-3.694200 1.836300
-3.672800 1.445800
-3.651400 0.946300
-3.630000 0.783900
-3.608600 0.739800
-3.587200 0.724500
-3.565800 0.721600
-3.544400 0.746400
-3.523000 0.789900
-3.501600 0.829600
-3.480200 0.849100
-3.458800 0.897500
-3.437400 0.905700
-3.416000 0.935800
-3.394600 0.941900
-3.373200 0.961600
-3.351800 1.030000
-3.330400 1.068600
-3.309000 1.108900
-3.287600 1.148200
-3.266200 1.188900
-3.244800 1.241300
-3.223400 1.347100
-3.202000 1.497000
-3.180600 1.582700
-3.159200 1.683100
-3.137800 1.808600
-3.116400 2.014100
-3.095000 1.998300
-3.073600 2.237200
-3.052200 2.633500
-3.030800 3.009200
-3.009400 3.313500
-2.988000 3.405100
-2.966600 3.485100
-2.945200 3.498400
-2.923800 3.515300
-2.902400 3.554100
-2.881000 3.627500
-2.859600 3.722400
-2.838200 3.909900
-2.816800 4.266400
-2.795400 4.281100
-2.774000 4.087300
-2.752600 3.665400
-2.731100 3.276600
-2.709700 3.033400
-2.688300 2.871700
-2.666900 2.874800
-2.645500 3.005700
-2.624100 3.018600
-2.602700 2.845900
-2.581300 2.626500
-2.559900 2.523600
-2.538500 2.429200
-2.517100 2.362800
-2.495700 2.412200
-2.474300 2.354200
-2.452900 2.723900
-2.431500 3.387200
-2.410100 3.621500
-2.388700 3.465200
-2.367300 3.094500
-2.345900 2.925700
-2.324500 2.785400
-2.303100 2.657400
-2.281700 2.550700
-2.260300 2.413000
-2.238900 2.008900
-2.217500 1.714800
-2.196100 1.639600
-2.174700 1.575400
-2.153300 1.485700
-2.131900 1.423800
-2.110500 1.362000
-2.089100 1.303600
-2.067700 1.247700
-2.046300 1.192700
-2.024900 1.125200
-2.003500 1.057900
-1.982100 1.016000
-1.960700 0.984700
-1.939300 0.956600
-1.917900 0.920600
-1.896500 0.859000
-1.875100 0.834500
-1.853700 0.811800
-1.832300 0.792300
-1.810900 0.774800
-1.789500 0.756500
-1.768100 0.736300
-1.746700 0.714100
-1.725300 0.689800
-1.703900 0.665600
-1.682500 0.644000
-1.661100 0.627700
-1.639700 0.611100
-1.618300 0.593900
-1.596900 0.574800
-1.575500 0.553300
-1.554100 0.529100
-1.532700 0.505400
-1.511300 0.530800
-1.489800 0.737800
-1.468400 0.948200
-1.447000 1.200100
-1.425600 1.374800
-1.404200 1.512400
-1.382800 1.657400
-1.361400 1.879400
-1.340000 2.125600
-1.318600 2.236500
-1.297200 2.374400
-1.275800 2.421900
-1.254400 2.177600
-1.233000 1.979000
-1.211600 1.883400
-1.190200 1.833000
-1.168800 1.809400
-1.147400 1.828100
-1.126000 1.882300
-1.104600 1.977400
-1.083200 2.053700
-1.061800 2.110600
-1.040400 2.153700
-1.019000 2.193600
-0.997600 2.219000
-0.976200 2.195000
-0.954800 2.199200
-0.933400 2.214800
-0.912000 2.230200
-0.890600 2.244700
-0.869200 2.261500
-0.847800 2.284300
-0.826400 2.311800
-0.805000 2.372700
-0.783600 2.378900
-0.762200 2.381300
-0.740800 2.385500
-0.719400 2.447600
-0.698000 2.495100
-0.676600 2.535400
-0.655200 2.576800
-0.633800 2.643100
-0.612400 2.695200
-0.591000 2.733300
-0.569600 2.769000
-0.548200 2.828800
-0.526800 2.934700
-0.505400 3.029100
-0.484000 2.939300
-0.462600 2.970800
-0.441200 3.174900
-0.419800 3.309500
-0.398400 3.599500
-0.377000 3.481300
-0.355600 3.483900
-0.334200 3.365200
-0.312800 3.348900
-0.291400 3.302300
-0.269900 3.253500
-0.248500 3.278800
-0.227100 3.469700
-0.205700 3.688700
-0.184300 3.785800
-0.162900 3.937000
-0.141500 4.149000
-0.120100 4.755500
-0.098700 4.159600
-0.077300 4.396400
-0.055900 4.291300
-0.034500 4.141000
-0.013100 4.328500
0.008300 4.157600
0.029700 3.983300
0.051100 4.071700
0.072500 3.975800
0.093900 3.827300
0.115300 3.735500
0.136700 3.641400
0.158100 3.769900
0.179500 4.060600
0.200900 4.303800
0.222300 4.585300
0.243700 4.662900
0.265100 4.537100
0.286500 4.319100
0.307900 3.934200
0.329300 3.609600
0.350700 3.548000
0.372100 3.623400
0.393500 3.771800
0.414900 3.725400
0.436300 3.778900
0.457700 3.911300
0.479100 4.074500
0.500500 4.210600
0.521900 4.380100
0.543300 4.536200
0.564700 4.775900
0.586100 5.051000
0.607500 5.272800
0.628900 5.403700
0.650300 5.273200
0.671700 5.330500
0.693100 4.811400
0.714500 4.521800
0.735900 4.390900
0.757300 4.527400
0.778700 4.407800
0.800100 4.280600
0.821500 4.215200
0.842900 4.311200
0.864300 4.460700
0.885700 4.692900
0.907100 4.615500
0.928500 4.588800
0.949900 4.656000
0.971400 4.702200
0.992800 4.837300
1.014200 4.973700
1.035600 5.151700
1.057000 5.304300
1.078400 5.630900
1.099800 5.705800
1.121200 5.948000
1.142600 5.976900
1.164000 6.014100
1.185400 6.072800
1.206800 5.845800
1.228200 5.567100
1.249600 5.311900
1.271000 5.236500
1.292400 5.258700
1.313800 5.248700
1.335200 5.235600
1.356600 5.330600
1.378000 5.454200
1.399400 5.752800
1.420800 6.003500
1.442200 6.161300
1.463600 6.270400
1.485000 6.395100
1.506400 6.529200
1.527800 6.661500
1.549200 6.786500
1.570600 6.620400
1.592000 6.183800
1.613400 5.677600
1.634800 5.282800
1.656200 5.080600
1.677600 5.099200
1.699000 5.245600
1.720400 5.538400
1.741800 5.939600
1.763200 6.047300
1.784600 6.022700
1.806000 6.055200
1.827400 6.123800
1.848800 5.864300
1.870200 5.043900
1.891600 4.454800
1.913000 4.141000
1.934400 3.962400
1.955800 3.831000
1.977200 3.746700
1.998600 4.003500
2.020000 3.950900
2.041400 3.952000
2.062800 3.998800
2.084200 3.976300
2.105600 4.026500
2.127000 4.351000
2.148400 4.542600
2.169800 4.489500
2.191300 4.473000
2.212700 4.527900
2.234100 4.540400
2.255500 4.566400
2.276900 4.531700
2.298300 4.618300
2.319700 4.072900
2.341100 3.665300
2.362500 3.222200
2.383900 2.892100
2.405300 2.578800
2.426700 2.395300
2.448100 2.236800
2.469500 2.006100
2.490900 1.818900
2.512300 1.660900
2.533700 1.525000
2.555100 1.389100
2.576500 1.258400
2.597900 1.140400
2.619300 1.058100
2.640700 0.989600
2.662100 0.930500
2.683500 0.874400
2.704900 0.818900
2.726300 0.765300
2.747700 0.714100
2.769100 0.665500
2.790500 0.621100
2.811900 0.589300
2.833300 0.572500
2.854700 0.588800
2.876100 0.525200
2.897500 0.500700
2.918900 0.474300
2.940300 0.449200
2.961700 0.438100
2.983100 0.424700
3.004500 0.407700
3.025900 0.404100
3.047300 0.446200
3.068700 0.568700
3.090100 0.648100
3.111500 0.777200
3.132900 0.938800
3.154300 1.083800
3.175700 1.227300
3.197100 1.429000
3.218500 1.652500
3.239900 1.856800
3.261300 2.016400
3.282700 2.154900
3.304100 2.249100
3.325500 2.346300
3.346900 2.448300
3.368300 2.519500
3.389700 2.573100
3.411100 2.623100
3.432600 2.747000
3.454000 2.873900
3.475400 2.946100
3.496800 2.947900
3.518200 2.865300
3.539600 2.761700
3.561000 2.733000
3.582400 2.555400
3.603800 2.540100
3.625200 2.536100
3.646600 2.391100
3.668000 2.248100
3.689400 2.174500
3.710800 2.083000
3.732200 2.030000
3.753600 1.993700
3.775000 1.977200
3.796400 1.973200
3.817800 2.070500
3.839200 2.156400
3.860600 2.266200
3.882000 2.382000
3.903400 2.525000
3.924800 2.747300
3.946200 3.331100
3.967600 3.416700
3.989000 3.531000
4.010400 3.586800
4.031800 3.644300
4.053200 3.381300
4.074600 3.496600
4.096000 3.424500
4.117400 3.370100
4.138800 3.320200
4.160200 3.213300
4.181600 3.138800
4.203000 3.039900
4.224400 2.943700
4.245800 2.794800
4.267200 2.743700
4.288600 2.693500
4.310000 2.614700
4.331400 2.527100
4.352800 2.403600
4.374200 2.272700
4.395600 2.225700
4.417000 2.230300
4.438400 2.199000
4.459800 2.157300
4.481200 2.113800
4.502600 2.156100
4.524000 2.199100
4.545400 2.227100
4.566800 2.366900
4.588200 2.638300
4.609600 2.875300
4.631000 3.307200
4.652400 3.667300
4.673900 4.342000
4.695300 5.083500
4.716700 5.741700
4.738100 6.453400
4.759500 6.567400
4.780900 6.238500
4.802300 5.585300
4.823700 4.718700
4.845100 4.335600
4.866500 4.086800
4.887900 3.981100
4.909300 4.061400
4.930700 4.154800
4.952100 4.455900
4.973500 4.522500
4.994900 4.743900
5.016300 4.804700
5.037700 4.612200
5.059100 4.356100
5.080500 4.177400
5.101900 3.999800
5.123300 3.860200
5.144700 3.800500
5.166100 3.726600
5.187500 3.767500
5.208900 3.839300
5.230300 3.858000
5.251700 3.880600
5.273100 3.907200
5.294500 3.842400
5.315900 3.759300
5.337300 3.765900
5.358700 3.813500
5.380100 3.720300
5.401500 3.754400
5.422900 3.817800
5.444300 3.920300
5.465700 4.027600
5.487100 4.112700
5.508500 4.226900
5.529900 4.321200
5.551300 4.440100
5.572700 4.524500
5.594100 4.666700
5.615500 4.865000
5.636900 4.852600
5.658300 4.880000
5.679700 4.938000
5.701100 5.010100
5.722500 4.886000
5.743900 4.798000
5.765300 4.565500
5.786700 4.447400
5.808100 4.382100
5.829500 4.318300
5.850900 4.323200
5.872300 4.282500
5.893800 4.324500
5.915200 4.303400
5.936600 4.153200
5.958000 4.121000
5.979400 4.192600
6.000800 4.252300
6.022200 4.297900
6.043600 4.388200
6.065000 4.521700
6.086400 4.700700
6.107800 5.149300
6.129200 4.705900
6.150600 4.617100
6.172000 4.545500
6.193400 4.647400
6.214800 4.731100
6.236200 4.640900
6.257600 4.669300
6.279000 4.607800
6.300400 4.538700
6.321800 4.513900
6.343200 4.212100
6.364600 4.049500
6.386000 3.937400
6.407400 3.913500
6.428800 3.895700
6.450200 4.242000
6.471600 4.347700
6.493000 4.309400
6.514400 4.410600
6.535800 4.516800
6.557200 4.733800
6.578600 4.847300
6.600000 4.899200
6.621400 4.865300
6.642800 4.804900
6.664200 4.799000
6.685600 4.865900
6.707000 5.055900
6.728400 5.070800
6.749800 5.209600
6.771200 5.521900
6.792600 5.439600
6.814000 5.560100
6.835400 5.542400
6.856800 5.681800
6.878200 5.285900
6.899600 5.055900
6.921000 4.866300
6.942400 4.733700
6.963800 4.639100
6.985200 4.421500
7.006600 4.290400
7.028000 4.246200
7.049400 4.352200
7.070800 4.368000
7.092200 4.410100
7.113600 4.562400
7.135100 4.715400
7.156500 4.856800
7.177900 4.923200
7.199300 4.959600
7.220700 5.251900
7.242100 5.904800
7.263500 5.603600
7.284900 5.568000
7.306300 5.244900
7.327700 5.217900
7.349100 5.244600
7.370500 5.100900
7.391900 5.076700
7.413300 5.090900
7.434700 5.133300
7.456100 5.329000
7.477500 5.442100
7.498900 5.520500
7.520300 5.739900
7.541700 5.951200
7.563100 5.799800
7.584500 5.654400
7.605900 5.439600
7.627300 5.373100
7.648700 5.043900
7.670100 4.790800
7.691500 4.517900
7.712900 4.434100
7.734300 4.385600
7.755700 4.342500
7.777100 4.289200
7.798500 4.269800
7.819900 4.333300
7.841300 4.237500
7.862700 4.178300
7.884100 4.340800
7.905500 4.456100
7.926900 4.392000
7.948300 4.321400
7.969700 4.341000
7.991100 4.382700
8.012500 4.378300
8.033900 4.431800
8.055300 4.492600
8.076700 4.647200
8.098100 4.873400
8.119500 5.079200
8.140900 5.585800
8.162300 5.083800
8.183700 4.577500
8.205100 4.357900
8.226500 4.230900
8.247900 4.107800
8.269300 4.060400
8.290700 4.068300
8.312100 4.081000
8.333500 4.041400
8.355000 4.114400
8.376400 4.246400
8.397800 4.178300
8.419200 4.370300
8.440600 4.836400
8.462000 5.063100
8.483400 5.173300
8.504800 5.194800
8.526200 5.134200
8.547600 4.652700
8.569000 4.339600
8.590400 4.174400
8.611800 3.993300
8.633200 3.814500
8.654600 3.741200
8.676000 3.724600
8.697400 3.719200
8.718800 3.729600
8.740200 3.767300
8.761600 3.787200
8.783000 3.779800
8.804400 3.645000
8.825800 3.539700
8.847200 3.555100
8.868600 3.615500
8.890000 3.679600
8.911400 3.712500
8.932800 3.661300
8.954200 3.781700
8.975600 3.896600
8.997000 3.993700
9.018400 4.133300
9.039800 4.242200
9.061200 4.370500
9.082600 4.541100
9.104000 4.768300
9.125400 4.995400
9.146800 4.817000
9.168200 4.616500
9.189600 4.403800
9.211000 4.013500
9.232400 3.691200
9.253800 3.750400
9.275200 4.118000
9.296600 3.987200
9.318000 4.303900
9.339400 4.494700
9.360800 4.779100
9.382200 5.293900
9.403600 5.741400
9.425000 6.082400
9.446400 6.194800
9.467800 6.307400
9.489200 6.220500
9.510600 5.755300
9.532000 5.292100
9.553400 4.835000
9.574800 4.641000
9.596300 4.555000
9.617700 4.590300
9.639100 4.602600
9.660500 4.556600
9.681900 4.695300
9.703300 4.874200
9.724700 5.037400
9.746100 5.204600
9.767500 5.298400
9.788900 5.369900
9.810300 5.536800
9.831700 5.543400
9.853100 5.471200
9.874500 4.836000
9.895900 4.600100
9.917300 4.549200
9.938700 4.374200
9.960100 4.269600
9.981500 4.306300
10.002900 4.516500
10.024300 5.020400
10.045700 5.328600
10.067100 4.990500
10.088500 4.487500
10.109900 4.405300
10.131300 4.477900
10.152700 4.564900
10.174100 4.584200
10.195500 4.481600
10.216900 4.118400
10.238300 3.971100
10.259700 3.975700
10.281100 3.894800
10.302500 3.757100
10.323900 3.668300
10.345300 3.670200
10.366700 3.442600
10.388100 3.435600
10.409500 3.614900
10.430900 3.435100
10.452300 3.473700
10.473700 3.549700
10.495100 3.646700
10.516500 3.778200
10.537900 3.844100
10.559300 3.814900
10.580700 3.782600
10.602100 3.734700
10.623500 3.731800
10.644900 3.693500
10.666300 3.567800
10.687700 3.404200
10.709100 3.382300
10.730500 3.438000
10.751900 3.472200
10.773300 3.574000
10.794700 3.655100
10.816100 3.663600
10.837600 3.522600
10.859000 3.374500
10.880400 3.269900
10.901800 3.029200
10.923200 3.140500
10.944600 3.110800
10.966000 3.175300
10.987400 3.300300
11.008800 3.491600
11.030200 3.617700
11.051600 3.706800
11.073000 3.735400
11.094400 3.862900
11.115800 4.055100
11.137200 4.346000
11.158600 4.573100
11.180000 4.728900
11.201400 4.843300
11.222800 4.801000
11.244200 4.964000
11.265600 5.243400
11.287000 5.395400
11.308400 4.945500
11.329800 4.771500
11.351200 4.449800
11.372600 4.007200
11.394000 3.786000
11.415400 3.582800
11.436800 3.422300
11.458200 3.527100
11.479600 3.799800
11.501000 3.874700
11.522400 3.981500
11.543800 4.311100
11.565200 4.728700
11.586600 5.287100
11.608000 5.661200
11.629400 5.996000
11.650800 5.922300
11.672200 5.583600
11.693600 5.154900
11.715000 4.918400
11.736400 4.900700
11.757800 4.916100
11.779200 4.373700
11.800600 4.161800
11.822000 4.100600
11.843400 4.127700
11.864800 4.039800
11.886200 4.120600
11.907600 4.325900
11.929000 4.289300
11.950400 4.368800
11.971800 4.316200
11.993200 4.298400
12.014600 4.420400
12.036000 4.583300
12.057500 4.487300
12.078900 4.578100
12.100300 4.680100
12.121700 4.685700
12.143100 4.686900
12.164500 4.686000
12.185900 4.755200
12.207300 4.846000
12.228700 4.746100
12.250100 4.724900
12.271500 4.572500
12.292900 4.415100
12.314300 4.303600
12.335700 4.199700
12.357100 4.008400
12.378500 3.808500
12.399900 3.765000
12.421300 3.809000
12.442700 3.862400
12.464100 3.927900
12.485500 3.997000
12.506900 4.046300
12.528300 4.141500
12.549700 4.217500
12.571100 4.297300
12.592500 4.393800
12.613900 4.471700
12.635300 4.599400
12.656700 4.799200
12.678100 5.042100
12.699500 5.274000
12.720900 5.500800
12.742300 5.784300
12.763700 5.727200
12.785100 5.796000
12.806500 5.810500
12.827900 5.637900
12.849300 5.418300
12.870700 5.227700
12.892100 5.103800
12.913500 4.998500
12.934900 4.910800
12.956300 4.840900
12.977700 4.844100
12.999100 4.745500
13.020500 4.732700
13.041900 4.784600
13.063300 4.868900
13.084700 4.921600
13.106100 4.912900
13.127500 5.119200
13.148900 5.155200
13.170300 5.004300
13.191700 5.057800
13.213100 5.202800
13.234500 5.560400
13.255900 5.994400
13.277300 6.290300
13.298800 6.196400
13.320200 6.058100
13.341600 5.694300
13.363000 5.696300
13.384400 5.378400
13.405800 5.402400
13.427200 5.467800
13.448600 5.398500
13.470000 5.532500
13.491400 5.445800
13.512800 5.090600
13.534200 5.034200
13.555600 5.225000
13.577000 5.415600
13.598400 5.187600
13.619800 5.329300
13.641200 5.540000
13.662600 5.828800
13.684000 6.031600
13.705400 6.165600
13.726800 6.233400
13.748200 6.130800
13.769600 5.996800
13.791000 5.842100
13.812400 5.646200
13.833800 5.817200
13.855200 5.708400
13.876600 5.635100
13.898000 5.692400
13.919400 5.588700
13.940800 5.363000
13.962200 5.255900
13.983600 5.314100
14.005000 5.444500
14.026400 5.149800
14.047800 4.906800
14.069200 4.935700
14.090600 5.045700
14.112000 5.141100
14.133400 5.232500
14.154800 5.289600
14.176200 5.339700
14.197600 5.361400
14.219000 5.385600
14.240400 5.450800
14.261800 5.612300
14.283200 5.753800
14.304600 5.790800
14.326000 5.726200
14.347400 5.731900
14.368800 5.577200
14.390200 5.328200
14.411600 5.225300
14.433000 5.164300
14.454400 5.121200
14.475800 5.198200
14.497200 5.216700
14.518700 5.185800
14.540100 5.110600
14.561500 5.131900
14.582900 5.155300
14.604300 5.126100
14.625700 5.097100
14.647100 4.908200
14.668500 4.803900
14.689900 4.845600
14.711300 4.930200
14.732700 4.983700
14.754100 5.083400
14.775500 5.275600
14.796900 5.585400
14.818300 5.930200
14.839700 6.319800
14.861100 6.386600
14.882500 6.320800
14.903900 6.318900
14.925300 5.879500
14.946700 5.615800
14.968100 5.385500
14.989500 5.215000
15.010900 4.950200
15.032300 4.682500
15.053700 4.711200
15.075100 4.507600
15.096500 4.444000
15.117900 4.434500
15.139300 4.481800
15.160700 4.560300
15.182100 4.647200
15.203500 4.710000
15.224900 4.827200
15.246300 4.749000
15.267700 4.563900
15.289100 4.406900
15.310500 4.310200
15.331900 4.278100
15.353300 4.349600
15.374700 4.253500
15.396100 4.124400
15.417500 4.037800
15.438900 3.942800
15.460300 3.978400
15.481700 4.053700
15.503100 4.217000
15.524500 4.376800
15.545900 4.664200
15.567300 4.572900
15.588700 4.518600
15.610100 4.342900
15.631500 4.157000
15.652900 3.884200
15.674300 3.604400
15.695700 3.306900
15.717100 2.975400
15.738500 2.622000
15.760000 2.301200
15.781400 2.105800
15.802800 1.908400
15.824200 1.689300
15.845600 1.502400
15.867000 1.341300
15.888400 1.191500
15.909800 1.046400
15.931200 0.897000
15.952600 0.927500
15.974000 0.597300
15.995400 0.534100
16.016800 0.473100
16.038200 0.432900
16.059600 0.402500
16.081000 0.385000
16.102400 0.368800
16.123800 0.353100
16.145200 0.350700
16.166600 0.344600
16.188000 0.328700
16.209400 0.258500
16.230800 0.253900
16.252200 0.249600
16.273600 0.248000
16.295000 0.250900
16.316400 0.250000
16.337800 0.247200
16.359200 0.244400
16.380600 0.239900
16.402000 0.232300
16.423400 0.221700
16.444800 0.207900
16.466200 0.191000
16.487600 0.180700
16.509000 0.169900
16.530400 0.158200
16.551800 0.146500
16.573200 0.095200
16.594600 0.094600
16.616000 0.094700
16.637400 0.093000
16.658800 0.090800
16.680200 0.088400
16.701600 0.085700
16.723000 0.082900
16.744400 0.079900
16.765800 0.076600
16.787200 0.073200
16.808600 0.069600
16.830000 0.065800
16.851400 0.061800
16.872800 0.057600
16.894200 0.025300
16.915600 0.022300
16.937000 0.019400
16.958400 0.016800
16.979800 0.014300
17.001300 0.012000
17.022700 0.010000
17.044100 0.008100
17.065500 0.006400
17.086900 0.004900
17.108300 0.003600
17.129700 0.002500
17.151100 0.001600
17.172500 0.000900
17.193900 0.000400
17.215300 0.000100
17.236700 0.000000
17.258100 0.000000
17.279500 0.000000
17.300900 0.000000
17.322300 0.000000
17.343700 0.000000
17.365100 0.000000
17.386500 0.000000
17.407900 0.000000
17.429300 0.000000
17.450700 0.000000
17.472100 0.000000
17.493500 0.000000
17.514900 0.000000
17.536300 0.000000
17.557700 0.000000
17.579100 0.000000
17.600500 0.000000
17.621900 0.000000
17.643300 0.000000
17.664700 0.000000
17.686100 0.000000
17.707500 0.000000
17.728900 0.000000
17.750300 0.000000
17.771700 0.000000
17.793100 0.000000
17.814500 0.000000
17.835900 0.000000
17.857300 0.000000
17.878700 0.000000
17.900100 0.000000
17.921500 0.000000
17.942900 0.000000
17.964300 0.000000
17.985700 0.000000
18.007100 0.000000
18.028500 0.000000
18.049900 0.000000
18.071300 0.000000
18.092700 0.000000
18.114100 0.000000
18.135500 0.000000
18.156900 0.000000
18.178300 0.000000
18.199700 0.000000
18.221200 0.000000
18.242600 0.000000
18.264000 0.000000
18.285400 0.000000
18.306800 0.000000
18.328200 0.000000
18.349600 0.000000
18.371000 0.000000
18.392400 0.000000
18.413800 0.000000
18.435200 0.000000
18.456600 0.000000
18.478000 0.000000
18.499400 0.000000
18.520800 0.000000
18.542200 0.000000
18.563600 0.000000
18.585000 0.000000
18.606400 0.000000
18.627800 0.000000
18.649200 0.000000
18.670600 0.000000
18.692000 0.000000
18.713400 0.000000
18.734800 0.000000
18.756200 0.000000
18.777600 0.000000
18.799000 0.000000
18.820400 0.000000
18.841800 0.000000
18.863200 0.000000
18.884600 0.000000
18.906000 0.000000
18.927400 0.000000
18.948800 0.000000
18.970200 0.000000
18.991600 0.000000
19.013000 0.000000
19.034400 0.000000
19.055800 0.000000
19.077200 0.000000
19.098600 0.000000
19.120000 0.000000
19.141400 0.000000
19.162800 0.000000
19.184200 0.000000
e
