set title 'mp-862901 - Density of States'
set xlabel 'Energy (eV)'
set ylabel 'DOS (states/eV)'
set grid
set xrange [-10:10]
set yrange [0:14.026]
set xzeroaxis lt -1
set terminal png size 800,600
set output 'mp-862901_dos_gnuplot.png'
plot '-' using 1:2 with lines title 'DOS'
-39.477800 0.000000
-39.434000 0.000000
-39.390200 0.000000
-39.346400 0.000000
-39.302600 0.000000
-39.258800 0.000000
-39.215000 0.000000
-39.171200 0.000000
-39.127400 0.000000
-39.083600 0.000000
-39.039800 0.000000
-38.996000 0.000000
-38.952200 0.000000
-38.908400 0.000000
-38.864600 0.000000
-38.820800 0.000000
-38.777000 0.000000
-38.733200 0.000000
-38.689400 0.000000
-38.645600 0.000000
-38.601800 0.000000
-38.558000 0.000000
-38.514200 0.000000
-38.470400 0.000000
-38.426600 0.000000
-38.382800 0.000000
-38.339000 0.000000
-38.295200 0.000000
-38.251400 0.000000
-38.207600 0.000000
-38.163800 0.000000
-38.120000 0.000000
-38.076200 0.000000
-38.032400 0.000000
-37.988600 0.000000
-37.944800 0.000000
-37.901000 0.000000
-37.857200 0.000000
-37.813400 0.000000
-37.769600 0.000000
-37.725800 0.000000
-37.682000 0.000000
-37.638200 0.000000
-37.594400 0.000000
-37.550600 0.000000
-37.506800 0.000000
-37.463000 0.000000
-37.419200 0.000000
-37.375400 0.000000
-37.331600 0.000000
-37.287800 0.000000
-37.244000 0.000000
-37.200200 0.000000
-37.156400 0.000000
-37.112600 0.000000
-37.068800 0.000000
-37.025000 0.000000
-36.981200 0.000000
-36.937400 0.000000
-36.893600 0.000000
-36.849800 0.000000
-36.806000 0.000000
-36.762200 0.000000
-36.718400 0.000000
-36.674600 0.000000
-36.630800 0.000000
-36.587000 0.000000
-36.543200 0.000000
-36.499400 0.000000
-36.455600 0.000000
-36.411800 0.000000
-36.368000 0.000000
-36.324200 0.000000
-36.280400 0.000000
-36.236600 0.000000
-36.192800 0.000000
-36.149000 0.000000
-36.105200 0.000000
-36.061400 0.000000
-36.017600 0.000000
-35.973800 0.000000
-35.930000 0.000000
-35.886200 0.000000
-35.842400 0.000000
-35.798600 0.000000
-35.754800 0.000000
-35.711000 0.000000
-35.667200 0.000000
-35.623400 0.000200
-35.579600 0.016800
-35.535800 0.482900
-35.492000 4.634100
-35.448200 15.533100
-35.404400 17.723000
-35.360500 6.521400
-35.316700 0.726700
-35.272900 0.022900
-35.229100 0.000200
-35.185300 0.000000
-35.141500 0.000000
-35.097700 0.000000
-35.053900 0.000000
-35.010100 0.000000
-34.966300 0.000000
-34.922500 0.000000
-34.878700 0.000000
-34.834900 0.000000
-34.791100 0.000000
-34.747300 0.000000
-34.703500 0.000000
-34.659700 0.000000
-34.615900 0.000000
-34.572100 0.000000
-34.528300 0.000000
-34.484500 0.000000
-34.440700 0.000000
-34.396900 0.000000
-34.353100 0.000000
-34.309300 0.000000
-34.265500 0.000000
-34.221700 0.000000
-34.177900 0.000000
-34.134100 0.000000
-34.090300 0.000000
-34.046500 0.000000
-34.002700 0.000000
-33.958900 0.000000
-33.915100 0.000000
-33.871300 0.000000
-33.827500 0.000000
-33.783700 0.000000
-33.739900 0.000000
-33.696100 0.000000
-33.652300 0.000000
-33.608500 0.000000
-33.564700 0.000000
-33.520900 0.000000
-33.477100 0.000000
-33.433300 0.000000
-33.389500 0.000000
-33.345700 0.000000
-33.301900 0.000000
-33.258100 0.000000
-33.214300 0.000000
-33.170500 0.000000
-33.126700 0.000000
-33.082900 0.000000
-33.039100 0.000000
-32.995300 0.000000
-32.951500 0.000000
-32.907700 0.000000
-32.863900 0.000000
-32.820100 0.000000
-32.776300 0.000000
-32.732500 0.000000
-32.688700 0.000000
-32.644900 0.000000
-32.601100 0.000000
-32.557300 0.000000
-32.513500 0.000000
-32.469700 0.000000
-32.425900 0.000000
-32.382100 0.000000
-32.338300 0.000000
-32.294500 0.000000
-32.250700 0.000000
-32.206900 0.000000
-32.163100 0.000000
-32.119300 0.000000
-32.075500 0.000000
-32.031700 0.000000
-31.987900 0.000000
-31.944100 0.000000
-31.900300 0.000000
-31.856500 0.000000
-31.812700 0.000000
-31.768900 0.000000
-31.725100 0.000000
-31.681300 0.000000
-31.637500 0.000000
-31.593700 0.000000
-31.549900 0.000000
-31.506100 0.000000
-31.462300 0.000000
-31.418500 0.000000
-31.374700 0.000000
-31.330900 0.000000
-31.287100 0.000000
-31.243300 0.000000
-31.199500 0.000000
-31.155700 0.000000
-31.111900 0.000000
-31.068100 0.000000
-31.024300 0.000000
-30.980500 0.000000
-30.936700 0.000000
-30.892900 0.000000
-30.849100 0.000000
-30.805300 0.000000
-30.761500 0.000000
-30.717700 0.000000
-30.673900 0.000000
-30.630100 0.000000
-30.586300 0.000000
-30.542500 0.000000
-30.498700 0.000000
-30.454900 0.000000
-30.411100 0.000000
-30.367300 0.000000
-30.323500 0.000000
-30.279700 0.000000
-30.235900 0.000000
-30.192100 0.000000
-30.148300 0.000000
-30.104500 0.000000
-30.060700 0.000000
-30.016900 0.000000
-29.973100 0.000000
-29.929300 0.000000
-29.885500 0.000000
-29.841700 0.000000
-29.797900 0.000000
-29.754100 0.000000
-29.710300 0.000000
-29.666500 0.000000
-29.622700 0.000000
-29.578900 0.000000
-29.535100 0.000000
-29.491300 0.000000
-29.447500 0.000000
-29.403700 0.000000
-29.359900 0.000000
-29.316100 0.000000
-29.272200 0.000000
-29.228400 0.000000
-29.184600 0.000000
-29.140800 0.000000
-29.097000 0.000000
-29.053200 0.000000
-29.009400 0.000000
-28.965600 0.000000
-28.921800 0.000000
-28.878000 0.000000
-28.834200 0.000000
-28.790400 0.000000
-28.746600 0.000000
-28.702800 0.000000
-28.659000 0.000000
-28.615200 0.000000
-28.571400 0.000000
-28.527600 0.000000
-28.483800 0.000000
-28.440000 0.000000
-28.396200 0.000000
-28.352400 0.000000
-28.308600 0.000000
-28.264800 0.000000
-28.221000 0.000000
-28.177200 0.000000
-28.133400 0.000000
-28.089600 0.000000
-28.045800 0.000000
-28.002000 0.000000
-27.958200 0.000000
-27.914400 0.000000
-27.870600 0.000000
-27.826800 0.000000
-27.783000 0.000000
-27.739200 0.000000
-27.695400 0.000000
-27.651600 0.000000
-27.607800 0.000000
-27.564000 0.000000
-27.520200 0.000000
-27.476400 0.000000
-27.432600 0.000000
-27.388800 0.000000
-27.345000 0.000000
-27.301200 0.000000
-27.257400 0.000000
-27.213600 0.000000
-27.169800 0.000000
-27.126000 0.000000
-27.082200 0.000000
-27.038400 0.000000
-26.994600 0.000000
-26.950800 0.000000
-26.907000 0.000000
-26.863200 0.000000
-26.819400 0.000000
-26.775600 0.000000
-26.731800 0.000000
-26.688000 0.000000
-26.644200 0.000000
-26.600400 0.000000
-26.556600 0.000000
-26.512800 0.000000
-26.469000 0.000000
-26.425200 0.000000
-26.381400 0.000000
-26.337600 0.000000
-26.293800 0.000000
-26.250000 0.000000
-26.206200 0.000000
-26.162400 0.000000
-26.118600 0.000000
-26.074800 0.000000
-26.031000 0.000000
-25.987200 0.000000
-25.943400 0.000000
-25.899600 0.000000
-25.855800 0.000000
-25.812000 0.000000
-25.768200 0.000000
-25.724400 0.000000
-25.680600 0.000000
-25.636800 0.000000
-25.593000 0.000000
-25.549200 0.000000
-25.505400 0.000000
-25.461600 0.000000
-25.417800 0.000000
-25.374000 0.000000
-25.330200 0.000000
-25.286400 0.000000
-25.242600 0.000000
-25.198800 0.000000
-25.155000 0.000000
-25.111200 0.000000
-25.067400 0.000000
-25.023600 0.000000
-24.979800 0.000000
-24.936000 0.000000
-24.892200 0.000000
-24.848400 0.000000
-24.804600 0.000000
-24.760800 0.000000
-24.717000 0.000000
-24.673200 0.000000
-24.629400 0.000000
-24.585600 0.000000
-24.541800 0.000000
-24.498000 0.000000
-24.454200 0.000000
-24.410400 0.000000
-24.366600 0.000000
-24.322800 0.000000
-24.279000 0.000000
-24.235200 0.000000
-24.191400 0.000000
-24.147600 0.000000
-24.103800 0.000000
-24.060000 0.000000
-24.016200 0.000000
-23.972400 0.000000
-23.928600 0.000000
-23.884800 0.000000
-23.841000 0.000000
-23.797200 0.000000
-23.753400 0.000000
-23.709600 0.000000
-23.665800 0.000000
-23.622000 0.000000
-23.578200 0.000000
-23.534400 0.000000
-23.490600 0.000000
-23.446800 0.000000
-23.403000 0.000000
-23.359200 0.000000
-23.315400 0.000000
-23.271600 0.000000
-23.227700 0.000000
-23.183900 0.000000
-23.140100 0.000000
-23.096300 0.000000
-23.052500 0.000000
-23.008700 0.000000
-22.964900 0.000000
-22.921100 0.000000
-22.877300 0.000000
-22.833500 0.000000
-22.789700 0.000000
-22.745900 0.000000
-22.702100 0.000000
-22.658300 0.000000
-22.614500 0.000000
-22.570700 0.000000
-22.526900 0.000000
-22.483100 0.000000
-22.439300 0.000000
-22.395500 0.000000
-22.351700 0.000000
-22.307900 0.000000
-22.264100 0.000000
-22.220300 0.000000
-22.176500 0.000000
-22.132700 0.000000
-22.088900 0.000000
-22.045100 0.000000
-22.001300 0.000000
-21.957500 0.000000
-21.913700 0.000000
-21.869900 0.000000
-21.826100 0.000000
-21.782300 0.000000
-21.738500 0.000000
-21.694700 0.000000
-21.650900 0.000000
-21.607100 0.000000
-21.563300 0.000000
-21.519500 0.000000
-21.475700 0.000000
-21.431900 0.000000
-21.388100 0.000000
-21.344300 0.000000
-21.300500 0.000000
-21.256700 0.000000
-21.212900 0.000000
-21.169100 0.000000
-21.125300 0.000000
-21.081500 0.000000
-21.037700 0.000000
-20.993900 0.000000
-20.950100 0.000000
-20.906300 0.000000
-20.862500 0.000000
-20.818700 0.000000
-20.774900 0.000000
-20.731100 0.000000
-20.687300 0.000000
-20.643500 0.000000
-20.599700 0.000000
-20.555900 0.000000
-20.512100 0.000500
-20.468300 0.011000
-20.424500 0.079200
-20.380700 0.261700
-20.336900 0.613500
-20.293100 0.881300
-20.249300 0.985100
-20.205500 1.780600
-20.161700 3.806000
-20.117900 6.782700
-20.074100 8.076800
-20.030300 6.343000
-19.986500 5.244300
-19.942700 4.564500
-19.898900 2.688600
-19.855100 1.671400
-19.811300 1.816900
-19.767500 1.940800
-19.723700 2.290300
-19.679900 2.599300
-19.636100 3.726500
-19.592300 5.023700
-19.548500 4.292400
-19.504700 3.706300
-19.460900 4.265800
-19.417100 3.967700
-19.373300 2.587500
-19.329500 2.022700
-19.285700 2.616700
-19.241900 2.535600
-19.198100 1.820800
-19.154300 1.377800
-19.110500 0.736600
-19.066700 0.185400
-19.022900 0.019000
-18.979100 0.000700
-18.935300 0.000000
-18.891500 0.000000
-18.847700 0.000000
-18.803900 0.000000
-18.760100 0.000000
-18.716300 0.000200
-18.672500 0.009200
-18.628700 0.137600
-18.584900 0.708300
-18.541100 1.964400
-18.497300 4.065800
-18.453500 6.276900
-18.409700 8.152100
-18.365900 7.487900
-18.322100 5.152400
-18.278300 3.817500
-18.234500 2.818400
-18.190700 2.012600
-18.146900 1.531000
-18.103100 0.970700
-18.059300 0.435800
-18.015500 0.110300
-17.971700 0.009800
-17.927900 0.000200
-17.884100 0.000000
-17.840300 0.000000
-17.796500 0.000000
-17.752700 0.000000
-17.708900 0.000000
-17.665100 0.000000
-17.621300 0.000000
-17.577500 0.000000
-17.533700 0.000000
-17.489900 0.000000
-17.446100 0.000000
-17.402300 0.000000
-17.358500 0.000000
-17.314700 0.000000
-17.270900 0.000000
-17.227100 0.000000
-17.183300 0.000000
-17.139400 0.000000
-17.095600 0.000000
-17.051800 0.000000
-17.008000 0.000000
-16.964200 0.000000
-16.920400 0.000000
-16.876600 0.000000
-16.832800 0.000000
-16.789000 0.000000
-16.745200 0.000000
-16.701400 0.000000
-16.657600 0.000000
-16.613800 0.000000
-16.570000 0.000000
-16.526200 0.000000
-16.482400 0.000000
-16.438600 0.000000
-16.394800 0.000000
-16.351000 0.000000
-16.307200 0.000000
-16.263400 0.000000
-16.219600 0.000000
-16.175800 0.000000
-16.132000 0.000000
-16.088200 0.000000
-16.044400 0.002300
-16.000600 0.045600
-15.956800 0.291500
-15.913000 0.723800
-15.869200 0.969900
-15.825400 1.561400
-15.781600 3.100300
-15.737800 5.189300
-15.694000 8.218000
-15.650200 13.098000
-15.606400 16.882500
-15.562600 17.984600
-15.518800 10.486400
-15.475000 4.844600
-15.431200 4.950500
-15.387400 4.497100
-15.343600 3.078500
-15.299800 3.193000
-15.256000 5.650800
-15.212200 8.527100
-15.168400 8.061700
-15.124600 5.061700
-15.080800 3.813300
-15.037000 2.888500
-14.993200 1.347400
-14.949400 0.667500
-14.905600 0.666300
-14.861800 0.536300
-14.818000 0.279900
-14.774200 0.239600
-14.730400 0.109700
-14.686600 0.016200
-14.642800 0.000700
-14.599000 0.000000
-14.555200 0.000000
-14.511400 0.000000
-14.467600 0.000000
-14.423800 0.000000
-14.380000 0.000000
-14.336200 0.000000
-14.292400 0.000000
-14.248600 0.000000
-14.204800 0.000000
-14.161000 0.000000
-14.117200 0.000000
-14.073400 0.000000
-14.029600 0.000000
-13.985800 0.000000
-13.942000 0.000000
-13.898200 0.000000
-13.854400 0.000000
-13.810600 0.000000
-13.766800 0.000000
-13.723000 0.000000
-13.679200 0.000000
-13.635400 0.000000
-13.591600 0.000000
-13.547800 0.000000
-13.504000 0.000000
-13.460200 0.000000
-13.416400 0.000000
-13.372600 0.000000
-13.328800 0.000000
-13.285000 0.000000
-13.241200 0.000000
-13.197400 0.000000
-13.153600 0.000000
-13.109800 0.000000
-13.066000 0.000000
-13.022200 0.000000
-12.978400 0.000000
-12.934600 0.000000
-12.890800 0.000000
-12.847000 0.000000
-12.803200 0.000000
-12.759400 0.000000
-12.715600 0.000000
-12.671800 0.000000
-12.628000 0.000000
-12.584200 0.000000
-12.540400 0.000000
-12.496600 0.000000
-12.452800 0.000000
-12.409000 0.000000
-12.365200 0.000000
-12.321400 0.000000
-12.277600 0.000000
-12.233800 0.000000
-12.190000 0.000000
-12.146200 0.000000
-12.102400 0.000000
-12.058600 0.000000
-12.014800 0.000000
-11.971000 0.000000
-11.927200 0.000000
-11.883400 0.000000
-11.839600 0.000000
-11.795800 0.000000
-11.752000 0.000000
-11.708200 0.000000
-11.664400 0.000000
-11.620600 0.000000
-11.576800 0.000000
-11.533000 0.000000
-11.489200 0.000000
-11.445400 0.000000
-11.401600 0.000000
-11.357800 0.000000
-11.314000 0.000000
-11.270200 0.000000
-11.226400 0.000000
-11.182600 0.000000
-11.138800 0.000000
-11.094900 0.000000
-11.051100 0.000000
-11.007300 0.000000
-10.963500 0.000000
-10.919700 0.000000
-10.875900 0.000000
-10.832100 0.000000
-10.788300 0.000000
-10.744500 0.000000
-10.700700 0.000000
-10.656900 0.000000
-10.613100 0.000000
-10.569300 0.000000
-10.525500 0.000000
-10.481700 0.000000
-10.437900 0.000000
-10.394100 0.000000
-10.350300 0.000000
-10.306500 0.000000
-10.262700 0.000000
-10.218900 0.000000
-10.175100 0.000000
-10.131300 0.000000
-10.087500 0.000000
-10.043700 0.000000
-9.999900 0.000000
-9.956100 0.000000
-9.912300 0.000000
-9.868500 0.000000
-9.824700 0.000000
-9.780900 0.000000
-9.737100 0.000000
-9.693300 0.000000
-9.649500 0.000000
-9.605700 0.000000
-9.561900 0.000000
-9.518100 0.000000
-9.474300 0.000000
-9.430500 0.000000
-9.386700 0.000000
-9.342900 0.000000
-9.299100 0.000000
-9.255300 0.000000
-9.211500 0.000000
-9.167700 0.000000
-9.123900 0.000000
-9.080100 0.000000
-9.036300 0.000000
-8.992500 0.000000
-8.948700 0.000000
-8.904900 0.000000
-8.861100 0.000000
-8.817300 0.000000
-8.773500 0.000000
-8.729700 0.000000
-8.685900 0.000000
-8.642100 0.000000
-8.598300 0.000000
-8.554500 0.000000
-8.510700 0.000000
-8.466900 0.000000
-8.423100 0.000000
-8.379300 0.000000
-8.335500 0.000000
-8.291700 0.000000
-8.247900 0.000000
-8.204100 0.000000
-8.160300 0.000000
-8.116500 0.000000
-8.072700 0.000000
-8.028900 0.000000
-7.985100 0.000000
-7.941300 0.000000
-7.897500 0.000000
-7.853700 0.000000
-7.809900 0.000000
-7.766100 0.000000
-7.722300 0.000000
-7.678500 0.000000
-7.634700 0.000000
-7.590900 0.000000
-7.547100 0.000000
-7.503300 0.000000
-7.459500 0.000000
-7.415700 0.000000
-7.371900 0.000000
-7.328100 0.000000
-7.284300 0.000000
-7.240500 0.000000
-7.196700 0.000000
-7.152900 0.000000
-7.109100 0.000000
-7.065300 0.000000
-7.021500 0.000000
-6.977700 0.000000
-6.933900 0.000000
-6.890100 0.000000
-6.846300 0.000000
-6.802500 0.000000
-6.758700 0.000000
-6.714900 0.000000
-6.671100 0.000000
-6.627300 0.000000
-6.583500 0.000000
-6.539700 0.000000
-6.495900 0.000000
-6.452100 0.000000
-6.408300 0.000000
-6.364500 0.000000
-6.320700 0.000000
-6.276900 0.000000
-6.233100 0.000000
-6.189300 0.000000
-6.145500 0.000000
-6.101700 0.000000
-6.057900 0.000000
-6.014100 0.000000
-5.970300 0.000000
-5.926500 0.000000
-5.882700 0.000000
-5.838900 0.000000
-5.795100 0.000000
-5.751300 0.000000
-5.707500 0.000000
-5.663700 0.000000
-5.619900 0.000000
-5.576100 0.000000
-5.532300 0.000000
-5.488500 0.000000
-5.444700 0.000000
-5.400900 0.000000
-5.357100 0.000000
-5.313300 0.000000
-5.269500 0.000000
-5.225700 0.000000
-5.181900 0.000000
-5.138100 0.000000
-5.094300 0.000000
-5.050500 0.000000
-5.006600 0.000000
-4.962800 0.000000
-4.919000 0.000000
-4.875200 0.000000
-4.831400 0.000000
-4.787600 0.000000
-4.743800 0.000000
-4.700000 0.000000
-4.656200 0.000000
-4.612400 0.000000
-4.568600 0.000000
-4.524800 0.000000
-4.481000 0.000000
-4.437200 0.000000
-4.393400 0.000000
-4.349600 0.000000
-4.305800 0.000000
-4.262000 0.000000
-4.218200 0.000000
-4.174400 0.000000
-4.130600 0.000000
-4.086800 0.000000
-4.043000 0.000000
-3.999200 0.000000
-3.955400 0.000000
-3.911600 0.000000
-3.867800 0.000000
-3.824000 0.000000
-3.780200 0.000000
-3.736400 0.000000
-3.692600 0.000000
-3.648800 0.000000
-3.605000 0.000000
-3.561200 0.000000
-3.517400 0.000000
-3.473600 0.000000
-3.429800 0.000000
-3.386000 0.000000
-3.342200 0.000000
-3.298400 0.000000
-3.254600 0.000000
-3.210800 0.000000
-3.167000 0.000000
-3.123200 0.000000
-3.079400 0.000000
-3.035600 0.000600
-2.991800 0.015400
-2.948000 0.104100
-2.904200 0.239000
-2.860400 0.355900
-2.816600 0.357200
-2.772800 0.767500
-2.729000 2.140700
-2.685200 2.787700
-2.641400 3.354000
-2.597600 5.261400
-2.553800 6.016900
-2.510000 5.844900
-2.466200 4.938200
-2.422400 3.569900
-2.378600 3.011600
-2.334800 2.317900
-2.291000 2.804800
-2.247200 3.193100
-2.203400 3.908200
-2.159600 5.518100
-2.115800 6.438000
-2.072000 6.367000
-2.028200 5.669200
-1.984400 4.712500
-1.940600 3.256400
-1.896800 3.703700
-1.853000 6.252000
-1.809200 8.209500
-1.765400 8.084100
-1.721600 6.509100
-1.677800 4.818100
-1.634000 4.766200
-1.590200 5.391900
-1.546400 5.452900
-1.502600 4.752600
-1.458800 3.930200
-1.415000 3.025400
-1.371200 4.379900
-1.327400 5.150000
-1.283600 3.439300
-1.239800 2.940900
-1.196000 3.588100
-1.152200 4.173700
-1.108400 4.915900
-1.064600 4.363900
-1.020800 4.659600
-0.977000 5.728600
-0.933200 5.088300
-0.889400 3.066100
-0.845600 1.759200
-0.801800 1.699900
-0.758000 3.631900
-0.714200 6.119800
-0.670400 5.764100
-0.626600 4.160700
-0.582800 3.218300
-0.539000 2.560200
-0.495200 2.231600
-0.451400 2.682200
-0.407600 3.562200
-0.363800 3.932700
-0.320000 3.693600
-0.276200 2.942100
-0.232400 3.182000
-0.188600 4.665400
-0.144800 3.893400
-0.101000 2.295700
-0.057200 2.680500
-0.013400 3.213600
0.030400 2.838400
0.074200 3.136200
0.118000 2.984000
0.161800 3.297500
0.205600 4.358900
0.249400 5.559000
0.293200 6.662800
0.337000 6.739700
0.380800 7.173100
0.424600 7.137800
0.468400 6.946400
0.512200 7.710600
0.556000 7.040800
0.599800 5.438300
0.643600 4.526200
0.687400 4.088300
0.731200 4.391800
0.775000 4.431500
0.818800 2.999000
0.862600 1.527400
0.906400 1.594600
0.950200 1.749400
0.994000 1.468700
1.037800 1.127800
1.081700 0.871200
1.125500 2.004900
1.169300 6.665500
1.213100 12.750600
1.256900 11.297200
1.300700 4.364200
1.344500 0.766200
1.388300 0.071500
1.432100 0.003100
1.475900 0.000000
1.519700 0.000000
1.563500 0.000000
1.607300 0.000000
1.651100 0.000000
1.694900 0.000000
1.738700 0.000000
1.782500 0.000000
1.826300 0.000000
1.870100 0.000000
1.913900 0.000000
1.957700 0.000000
2.001500 0.000000
2.045300 0.000000
2.089100 0.000000
2.132900 0.000000
2.176700 0.000000
2.220500 0.000000
2.264300 0.000000
2.308100 0.000000
2.351900 0.000000
2.395700 0.000000
2.439500 0.000000
2.483300 0.000000
2.527100 0.000000
2.570900 0.000000
2.614700 0.000000
2.658500 0.000000
2.702300 0.000000
2.746100 0.000000
2.789900 0.000000
2.833700 0.000000
2.877500 0.000000
2.921300 0.000000
2.965100 0.000000
3.008900 0.000000
3.052700 0.000000
3.096500 0.000000
3.140300 0.000000
3.184100 0.000000
3.227900 0.000000
3.271700 0.000000
3.315500 0.000000
3.359300 0.000000
3.403100 0.000000
3.446900 0.000000
3.490700 0.000000
3.534500 0.000000
3.578300 0.000000
3.622100 0.000000
3.665900 0.000000
3.709700 0.000000
3.753500 0.000000
3.797300 0.000000
3.841100 0.000000
3.884900 0.000000
3.928700 0.000000
3.972500 0.000000
4.016300 0.000000
4.060100 0.000000
4.103900 0.000000
4.147700 0.000000
4.191500 0.000000
4.235300 0.000000
4.279100 0.000000
4.322900 0.000000
4.366700 0.000000
4.410500 0.000000
4.454300 0.000000
4.498100 0.000000
4.541900 0.000000
4.585700 0.000000
4.629500 0.000000
4.673300 0.000000
4.717100 0.000000
4.760900 0.000000
4.804700 0.000000
4.848500 0.000000
4.892300 0.000000
4.936100 0.000000
4.979900 0.000000
5.023700 0.000000
5.067500 0.000000
5.111300 0.000000
5.155100 0.000000
5.198900 0.000000
5.242700 0.000000
5.286500 0.000000
5.330300 0.000000
5.374100 0.000000
5.417900 0.000000
5.461700 0.000000
5.505500 0.000000
5.549300 0.000000
5.593100 0.000000
5.636900 0.000000
5.680700 0.000000
5.724500 0.000000
5.768300 0.000000
5.812100 0.000000
5.855900 0.000000
5.899700 0.000000
5.943500 0.000000
5.987300 0.000000
6.031100 0.000000
6.074900 0.000000
6.118700 0.000000
6.162500 0.000000
6.206300 0.000000
6.250100 0.000000
6.293900 0.000200
6.337700 0.006500
6.381500 0.045700
6.425300 0.082600
6.469100 0.040600
6.512900 0.037400
6.556700 0.135700
6.600500 0.144100
6.644300 0.039500
6.688100 0.002700
6.731900 0.000200
6.775700 0.005500
6.819500 0.057000
6.863300 0.270800
6.907100 0.632300
6.950900 0.513200
6.994700 0.135300
7.038500 0.110300
7.082300 0.196100
7.126200 0.204300
7.170000 0.265300
7.213800 0.446900
7.257600 0.574600
7.301400 0.562200
7.345200 0.497300
7.389000 0.318300
7.432800 0.472300
7.476600 1.101800
7.520400 1.093700
7.564200 0.723200
7.608000 0.627700
7.651800 1.161500
7.695600 1.979700
7.739400 1.606700
7.783200 1.014700
7.827000 0.984000
7.870800 0.816600
7.914600 0.845200
7.958400 1.022300
8.002200 0.494300
8.046000 0.605900
8.089800 1.916700
8.133600 2.838700
8.177400 2.237000
8.221200 1.565800
8.265000 2.634900
8.308800 4.516800
8.352600 5.769300
8.396400 4.354200
8.440200 2.961000
8.484000 2.632900
8.527800 2.333100
8.571600 1.634100
8.615400 1.386600
8.659200 2.007700
8.703000 2.802500
8.746800 2.894000
8.790600 2.697600
8.834400 4.463600
8.878200 5.691100
8.922000 3.937900
8.965800 2.613500
9.009600 2.567600
9.053400 2.637600
9.097200 3.201400
9.141000 4.022300
9.184800 5.020700
9.228600 5.819900
9.272400 8.026400
9.316200 7.405600
9.360000 3.968600
9.403800 3.286100
9.447600 4.161900
9.491400 4.168600
9.535200 3.109300
9.579000 1.851600
9.622800 2.798400
9.666600 4.607300
9.710400 4.289300
9.754200 3.698700
9.798000 4.367800
9.841800 4.590100
9.885600 3.987400
9.929400 3.287300
9.973200 2.884100
10.017000 3.290200
10.060800 4.478900
10.104600 6.010100
10.148400 6.356300
10.192200 6.392700
10.236000 6.515800
10.279800 4.376400
10.323600 3.039700
10.367400 3.085300
10.411200 2.414900
10.455000 2.230200
10.498800 1.566800
10.542600 1.104900
10.586400 0.919100
10.630200 0.686900
10.674000 0.370600
10.717800 0.082100
10.761600 0.005300
10.805400 0.004400
10.849200 0.069500
10.893000 0.276400
10.936800 0.283300
10.980600 0.076000
11.024400 0.036000
11.068200 0.199600
11.112000 0.327700
11.155800 0.151300
11.199600 0.140300
11.243400 0.323000
11.287200 0.214800
11.331000 0.036600
11.374800 0.003100
11.418600 0.036300
11.462400 0.215600
11.506200 0.370000
11.550000 0.476200
11.593800 0.677900
11.637600 0.382200
11.681400 0.299000
11.725200 0.299600
11.769000 0.088900
11.812800 0.009600
11.856600 0.030700
11.900400 0.080500
11.944200 0.063400
11.988000 0.114400
12.031800 0.311800
12.075600 0.238800
12.119400 0.047000
12.163200 0.002300
12.207000 0.002300
12.250800 0.035700
12.294600 0.139500
12.338400 0.141700
12.382200 0.069300
12.426000 0.207700
12.469800 0.351000
12.513600 0.425300
12.557400 1.106500
12.601200 1.429200
12.645000 0.637800
12.688800 0.090100
12.732600 0.046600
12.776400 0.237300
12.820200 0.431400
12.864000 0.619300
12.907800 0.604600
12.951600 0.188900
12.995400 0.057800
13.039200 0.229700
13.083000 0.328300
13.126800 0.279600
13.170600 0.596200
13.214500 0.539400
13.258300 0.177600
13.302100 0.148900
13.345900 0.361700
13.389700 0.723000
13.433500 0.738100
13.477300 0.265500
13.521100 0.026400
13.564900 0.009500
13.608700 0.108700
13.652500 0.409500
13.696300 0.784800
13.740100 0.890800
13.783900 0.564600
13.827700 0.339300
13.871500 0.131900
13.915300 0.298700
13.959100 0.646900
14.002900 0.389600
14.046700 0.099200
14.090500 0.322300
14.134300 0.815100
14.178100 0.965000
14.221900 0.835900
14.265700 0.788900
14.309500 0.832500
14.353300 0.660200
14.397100 0.458000
14.440900 0.685400
14.484700 1.114500
14.528500 1.178800
14.572300 1.256200
14.616100 0.633600
14.659900 0.126800
14.703700 0.145400
14.747500 0.544500
14.791300 0.857800
14.835100 1.170200
14.878900 1.813000
14.922700 1.181000
14.966500 0.372300
15.010300 0.471900
15.054100 1.127800
15.097900 0.967500
15.141700 0.262900
15.185500 0.209300
15.229300 0.706500
15.273100 1.211100
15.316900 0.900800
15.360700 0.303900
15.404500 0.098900
15.448300 0.193600
15.492100 0.280500
15.535900 0.161500
15.579700 0.031500
15.623500 0.002500
15.667300 0.024300
15.711100 0.188000
15.754900 0.451300
15.798700 0.480900
15.842500 0.241200
15.886300 0.070800
15.930100 0.294200
15.973900 0.717600
16.017700 0.555200
16.061500 0.389400
16.105300 0.379600
16.149100 0.376500
16.192900 0.260800
16.236700 0.320200
16.280500 1.117700
16.324300 1.714700
16.368100 2.016800
16.411900 2.084900
16.455700 1.243100
16.499500 0.446900
16.543300 0.282100
16.587100 0.317700
16.630900 0.168200
16.674700 0.404700
16.718500 0.745700
16.762300 0.843000
16.806100 1.413100
16.849900 1.788700
16.893700 1.759500
16.937500 1.306500
16.981300 0.829100
17.025100 1.402800
17.068900 1.805700
17.112700 1.541700
17.156500 1.156300
17.200300 0.997400
17.244100 1.089800
17.287900 0.695400
17.331700 0.488800
17.375500 0.492000
17.419300 0.502100
17.463100 0.365700
17.506900 0.114400
17.550700 0.145600
17.594500 1.008700
17.638300 2.327000
17.682100 2.364600
17.725900 2.324600
17.769700 2.618800
17.813500 2.350600
17.857300 1.781600
17.901100 1.113900
17.944900 0.460700
17.988700 0.821400
18.032500 1.876000
18.076300 1.649700
18.120100 0.640600
18.163900 0.459200
18.207700 1.065900
18.251500 1.475000
18.295300 1.115100
18.339100 1.011000
18.382900 2.438300
18.426700 2.987100
18.470500 2.006000
18.514300 1.244500
18.558100 0.772600
18.601900 0.553800
18.645700 0.711500
18.689500 1.010200
18.733300 0.795500
18.777100 0.469900
18.820900 0.817200
18.864700 1.240600
18.908500 0.835200
18.952300 0.448000
18.996100 0.586000
19.039900 0.441800
19.083700 0.214200
19.127500 0.200100
19.171300 0.286000
19.215100 0.526900
19.259000 0.613800
19.302800 0.542400
19.346600 0.440300
19.390400 0.374300
19.434200 0.382300
19.478000 0.967100
19.521800 1.534500
19.565600 1.393500
19.609400 1.079400
19.653200 1.111300
19.697000 1.634900
19.740800 1.604400
19.784600 1.303100
19.828400 1.457300
19.872200 1.687000
19.916000 2.264400
19.959800 3.216400
20.003600 3.361000
20.047400 2.625800
20.091200 1.898200
20.135000 2.512100
20.178800 4.200100
20.222600 3.813800
20.266400 2.325600
20.310200 2.043400
20.354000 2.245600
20.397800 1.937000
20.441600 2.000500
20.485400 2.417100
20.529200 2.903900
20.573000 3.151400
20.616800 2.734500
20.660600 1.871700
20.704400 1.956600
20.748200 2.219100
20.792000 2.422900
20.835800 2.603100
20.879600 2.877100
20.923400 2.630300
20.967200 1.591800
21.011000 1.619100
21.054800 2.263500
21.098600 2.542400
21.142400 2.163300
21.186200 3.005800
21.230000 4.766600
21.273800 4.460300
21.317600 2.616100
21.361400 2.390000
21.405200 3.516000
21.449000 3.574300
21.492800 2.441600
21.536600 1.506100
21.580400 1.326600
21.624200 1.720800
21.668000 1.406000
21.711800 1.154900
21.755600 1.447800
21.799400 2.146500
21.843200 2.546000
21.887000 1.702000
21.930800 1.079000
21.974600 1.491300
22.018400 1.872100
22.062200 2.550700
22.106000 3.495200
22.149800 3.206200
22.193600 2.953800
22.237400 2.837200
22.281200 2.960000
22.325000 3.515800
22.368800 2.454000
22.412600 1.728000
22.456400 2.161500
22.500200 2.627600
22.544000 2.730000
22.587800 1.590900
22.631600 1.583000
22.675400 2.309600
22.719200 1.493900
22.763000 1.090500
22.806800 1.180700
22.850600 0.679000
22.894400 0.735700
22.938200 0.888000
22.982000 0.700000
23.025800 0.756400
23.069600 0.692100
23.113400 1.066300
23.157200 1.483900
23.201000 1.208800
23.244800 1.254100
23.288600 1.985300
23.332400 2.516700
23.376200 1.522300
23.420000 0.539800
23.463800 0.848200
23.507600 1.674200
23.551400 1.512000
23.595200 1.021700
23.639000 0.690000
23.682800 0.621900
23.726600 1.547600
23.770400 2.164600
23.814200 1.659200
23.858000 1.053100
23.901800 1.117200
23.945600 1.389800
23.989400 1.925300
24.033200 2.548200
24.077000 2.387700
24.120800 2.320800
24.164600 1.958600
24.208400 1.572700
24.252200 1.382200
24.296000 1.614600
24.339800 2.462600
24.383600 2.462700
24.427400 1.762600
24.471200 1.493600
24.515000 1.134300
24.558800 0.651000
24.602600 1.113000
24.646400 2.342000
24.690200 2.333300
24.734000 1.609900
24.777800 1.587400
24.821600 2.580300
24.865400 2.670000
24.909200 1.523900
24.953000 1.109700
24.996800 1.050500
25.040600 0.490700
25.084400 0.422100
25.128200 0.752300
25.172000 1.905800
25.215800 2.909000
25.259600 2.737400
25.303400 2.276700
25.347300 2.818500
25.391100 3.275300
25.434900 2.438500
25.478700 1.653900
25.522500 0.989200
25.566300 1.129400
25.610100 1.480700
25.653900 2.140000
25.697700 3.339900
25.741500 3.864200
25.785300 3.358400
25.829100 2.389000
25.872900 2.700800
25.916700 2.097900
25.960500 1.364400
26.004300 1.718100
26.048100 2.323500
26.091900 1.982900
26.135700 0.945500
26.179500 0.903500
26.223300 2.090600
26.267100 2.737500
26.310900 2.969200
26.354700 2.852600
26.398500 2.691200
26.442300 2.203400
26.486100 1.713900
26.529900 1.031300
26.573700 0.758500
26.617500 1.065000
26.661300 1.318200
26.705100 1.962700
26.748900 2.504400
26.792700 1.825100
26.836500 1.048700
26.880300 0.784300
26.924100 0.608100
26.967900 1.420600
27.011700 2.605000
27.055500 2.790100
27.099300 2.851300
27.143100 1.868600
27.186900 0.867400
27.230700 1.406500
27.274500 1.960700
27.318300 1.477700
27.362100 1.034300
27.405900 1.743300
27.449700 2.196500
27.493500 1.841900
27.537300 2.068900
27.581100 2.646100
27.624900 3.295900
27.668700 2.859200
27.712500 1.846300
27.756300 1.955300
27.800100 1.856500
27.843900 1.863600
27.887700 1.961100
27.931500 1.408200
27.975300 1.155700
28.019100 1.620800
28.062900 2.633800
28.106700 2.270000
28.150500 2.079200
28.194300 2.465600
28.238100 2.732300
28.281900 3.096200
28.325700 3.041400
28.369500 1.928900
28.413300 0.979800
28.457100 0.531700
28.500900 0.639200
28.544700 0.859100
28.588500 0.929500
28.632300 1.821500
28.676100 2.432100
28.719900 2.381300
28.763700 2.580900
28.807500 1.864000
28.851300 2.091700
28.895100 2.925900
28.938900 2.226600
28.982700 1.493600
29.026500 1.272100
29.070300 1.322400
29.114100 1.641400
29.157900 1.445400
29.201700 1.352800
29.245500 2.428100
29.289300 2.962800
29.333100 3.059900
29.376900 3.290200
29.420700 2.951200
29.464500 2.372100
29.508300 1.850000
29.552100 2.760300
29.595900 3.173900
29.639700 2.210700
29.683500 1.737300
29.727300 2.466000
29.771100 2.621700
29.814900 2.465600
29.858700 2.063700
29.902500 1.245000
29.946300 1.345800
29.990100 2.253600
30.033900 1.922500
30.077700 1.082100
30.121500 0.943300
30.165300 1.874400
30.209100 2.634400
30.252900 1.851200
30.296700 0.766000
30.340500 0.985100
30.384300 1.856300
30.428100 1.868600
30.471900 2.093400
30.515700 1.789000
30.559500 1.218100
30.603300 1.285000
30.647100 1.688000
30.690900 2.046800
30.734700 1.745300
30.778500 2.113900
30.822300 1.872900
30.866100 1.500200
30.909900 2.021700
30.953700 2.436500
30.997500 2.494300
31.041300 2.039700
31.085100 1.978200
31.128900 1.866200
31.172700 1.082800
31.216500 0.973900
31.260300 1.482600
31.304100 1.193200
31.347900 0.552200
31.391700 0.449000
31.435600 1.209500
31.479400 1.891700
31.523200 1.636500
31.567000 2.150700
31.610800 2.742900
31.654600 1.995100
31.698400 1.654300
31.742200 2.653600
31.786000 2.839700
31.829800 1.113900
31.873600 0.387900
31.917400 0.996100
31.961200 1.955300
32.005000 2.307700
32.048800 2.068200
32.092600 1.473800
32.136400 0.916800
32.180200 0.935200
32.224000 0.999000
32.267800 1.504400
32.311600 2.098800
32.355400 2.395600
32.399200 2.592500
32.443000 2.667300
32.486800 2.241400
32.530600 1.175500
32.574400 0.739400
32.618200 1.200700
32.662000 1.532200
32.705800 1.136700
32.749600 1.166700
32.793400 1.367800
32.837200 1.894000
32.881000 2.421000
32.924800 1.478300
32.968600 0.760700
33.012400 1.426700
33.056200 2.233700
33.100000 2.000500
33.143800 1.598200
33.187600 1.694400
33.231400 1.868800
33.275200 2.090800
33.319000 2.386700
33.362800 1.610400
33.406600 0.458400
33.450400 0.463300
33.494200 0.719100
33.538000 0.794800
33.581800 1.263400
33.625600 1.660300
33.669400 2.104000
33.713200 2.410900
33.757000 2.112100
33.800800 1.304700
33.844600 0.751700
33.888400 1.311600
33.932200 1.611300
33.976000 1.389500
34.019800 0.932300
34.063600 1.088400
34.107400 1.883500
34.151200 2.819400
34.195000 3.000600
34.238800 2.084600
34.282600 1.575300
34.326400 1.637100
34.370200 1.471300
34.414000 0.830200
34.457800 0.442200
34.501600 0.482200
34.545400 0.314600
34.589200 0.301900
34.633000 0.719900
34.676800 0.887000
34.720600 1.372100
34.764400 2.203600
34.808200 2.066200
34.852000 1.380600
34.895800 1.906400
34.939600 2.438600
34.983400 1.839400
35.027200 1.709300
35.071000 2.151100
35.114800 2.715700
35.158600 2.666200
35.202400 2.961900
35.246200 3.545200
35.290000 2.654200
35.333800 1.689900
35.377600 1.596200
35.421400 1.249300
35.465200 0.858200
35.509000 0.718300
35.552800 1.745700
35.596600 2.573300
35.640400 2.058200
35.684200 1.338400
35.728000 0.960500
35.771800 1.045000
35.815600 1.905300
35.859400 3.575500
35.903200 3.924800
35.947000 3.408200
35.990800 2.421000
36.034600 1.496400
36.078400 1.537100
36.122200 2.465600
36.166000 3.517900
36.209800 2.536200
36.253600 1.825000
36.297400 2.825600
36.341200 3.310900
36.385000 2.383200
36.428800 1.140400
36.472600 1.155300
36.516400 2.348300
36.560200 3.561600
36.604000 3.656900
36.647800 2.466200
36.691600 1.507300
36.735400 1.781000
36.779200 2.224800
36.823000 2.468900
36.866800 2.415300
36.910600 1.976500
36.954400 1.430500
36.998200 1.096000
37.042000 0.971500
37.085800 1.058900
37.129600 1.288700
37.173400 2.414300
37.217200 3.407300
37.261000 2.861900
37.304800 1.651400
37.348600 1.475200
37.392400 1.609200
37.436200 2.121000
37.480100 3.562900
37.523900 3.466800
37.567700 2.648700
37.611500 3.117100
37.655300 2.965400
37.699100 1.398600
37.742900 1.316400
37.786700 1.757900
37.830500 2.221100
37.874300 2.760600
37.918100 2.908200
37.961900 2.104700
38.005700 1.249900
38.049500 1.393600
38.093300 2.108900
38.137100 2.354500
38.180900 2.301700
38.224700 2.003500
38.268500 2.088500
38.312300 2.379700
38.356100 1.903600
38.399900 1.302800
38.443700 2.062700
38.487500 2.256200
38.531300 1.888900
38.575100 2.390200
38.618900 3.131100
38.662700 2.575400
38.706500 1.483400
38.750300 1.442200
38.794100 1.859100
38.837900 2.573700
38.881700 3.079600
38.925500 2.777400
38.969300 2.873900
39.013100 2.709400
39.056900 1.803400
39.100700 1.927500
39.144500 2.962500
39.188300 2.951200
39.232100 2.338000
39.275900 2.500700
39.319700 3.375300
39.363500 3.660700
39.407300 2.971000
39.451100 2.839100
39.494900 2.243500
39.538700 1.862900
39.582500 1.932900
39.626300 2.137100
39.670100 2.418100
39.713900 2.151700
39.757700 2.483100
39.801500 3.321200
39.845300 2.889700
39.889100 1.912200
39.932900 1.457400
39.976700 1.304300
40.020500 1.952300
40.064300 2.588500
40.108100 2.779900
40.151900 2.248800
40.195700 1.797600
40.239500 2.937200
40.283300 3.671100
40.327100 3.064300
40.370900 3.020500
40.414700 2.714700
40.458500 1.699200
40.502300 1.726800
40.546100 2.726000
40.589900 2.524700
40.633700 1.660000
40.677500 1.876700
40.721300 1.755100
40.765100 1.354900
40.808900 1.323100
40.852700 1.392600
40.896500 2.314300
40.940300 2.921900
40.984100 2.477400
41.027900 1.830500
41.071700 1.946000
41.115500 2.545700
41.159300 2.703300
41.203100 2.440700
41.246900 3.022000
41.290700 3.150100
41.334500 2.382200
41.378300 2.285100
41.422100 3.182800
41.465900 3.133500
41.509700 2.323400
41.553500 1.127400
41.597300 0.507400
41.641100 0.782100
41.684900 1.652400
41.728700 2.892100
41.772500 3.735100
41.816300 4.153000
41.860100 4.169900
41.903900 3.423600
41.947700 2.955200
41.991500 3.217300
42.035300 2.255800
42.079100 1.431600
42.122900 1.786700
42.166700 1.954600
42.210500 1.842700
42.254300 1.218500
42.298100 1.232100
42.341900 1.283700
42.385700 1.529900
42.429500 2.498100
42.473300 2.397100
42.517100 2.074700
42.560900 1.656500
42.604700 1.973400
42.648500 2.935800
42.692300 3.477000
42.736100 3.511200
42.779900 3.080600
42.823700 2.773700
42.867500 3.044900
42.911300 2.838400
42.955100 2.067400
42.998900 1.603000
43.042700 1.656900
43.086500 1.425700
43.130300 1.810000
43.174100 2.574000
43.217900 2.508200
43.261700 1.398200
43.305500 0.893600
43.349300 0.936100
43.393100 1.183400
43.436900 1.015600
43.480700 0.598900
43.524500 1.100400
43.568400 1.435600
43.612200 1.038300
43.656000 0.734400
43.699800 0.381600
43.743600 0.525500
43.787400 0.880200
43.831200 0.709100
43.875000 0.442800
43.918800 0.203600
43.962600 0.154800
44.006400 0.727600
44.050200 1.245900
44.094000 0.769000
44.137800 0.625100
44.181600 0.596300
44.225400 0.172700
44.269200 0.012600
44.313000 0.000200
44.356800 0.000000
44.400600 0.000000
44.444400 0.000000
44.488200 0.000000
44.532000 0.000000
44.575800 0.000000
44.619600 0.000000
44.663400 0.000000
44.707200 0.000000
44.751000 0.000000
44.794800 0.000000
44.838600 0.000000
44.882400 0.000000
44.926200 0.000000
44.970000 0.000000
45.013800 0.000000
45.057600 0.000000
45.101400 0.000000
45.145200 0.000000
45.189000 0.000000
45.232800 0.000000
45.276600 0.000000
45.320400 0.000000
45.364200 0.000000
45.408000 0.000000
45.451800 0.000000
45.495600 0.000000
45.539400 0.000000
45.583200 0.000000
45.627000 0.000000
45.670800 0.000000
45.714600 0.000000
45.758400 0.000000
45.802200 0.000000
45.846000 0.000000
45.889800 0.000000
45.933600 0.000000
45.977400 0.000000
46.021200 0.000000
46.065000 0.000000
46.108800 0.000000
46.152600 0.000000
46.196400 0.000000
46.240200 0.000000
46.284000 0.000000
46.327800 0.000000
46.371600 0.000000
46.415400 0.000000
46.459200 0.000000
46.503000 0.000000
46.546800 0.000000
46.590600 0.000000
46.634400 0.000000
46.678200 0.000000
46.722000 0.000000
46.765800 0.000000
46.809600 0.000000
46.853400 0.000000
46.897200 0.000000
46.941000 0.000000
46.984800 0.000000
47.028600 0.000000
47.072400 0.000000
47.116200 0.000000
47.160000 0.000000
47.203800 0.000000
47.247600 0.000000
47.291400 0.000000
47.335200 0.000000
47.379000 0.000000
47.422800 0.000000
47.466600 0.000000
47.510400 0.000000
47.554200 0.000000
47.598000 0.000000
47.641800 0.000000
47.685600 0.000000
47.729400 0.000000
47.773200 0.000000
47.817000 0.000000
47.860800 0.000000
47.904600 0.000000
47.948400 0.000000
47.992200 0.000000
48.036000 0.000000
48.079800 0.000000
48.123600 0.000000
e
