set title 'mp-6986 - Density of States'
set xlabel 'Energy (eV)'
set ylabel 'DOS (states/eV)'
set grid
set xrange [-10:10]
set yrange [0:1.902]
set xzeroaxis lt -1
set terminal png size 800,600
set output 'mp-6986_dos_gnuplot.png'
plot '-' using 1:2 with lines title 'DOS'
-32.342600 0.000000
-32.306100 0.000000
-32.269700 0.000000
-32.233300 0.000000
-32.196900 0.000000
-32.160500 0.000000
-32.124100 0.000000
-32.087700 0.000000
-32.051300 0.000000
-32.014900 0.000000
-31.978500 0.000000
-31.942100 0.000000
-31.905700 0.000000
-31.869300 0.000000
-31.832900 0.000000
-31.796500 0.000000
-31.760000 0.000000
-31.723600 0.000000
-31.687200 0.000000
-31.650800 0.000000
-31.614400 0.000000
-31.578000 0.000000
-31.541600 0.000000
-31.505200 0.000000
-31.468800 0.000000
-31.432400 0.000000
-31.396000 0.000000
-31.359600 0.000000
-31.323200 0.000000
-31.286800 0.000000
-31.250400 0.000000
-31.213900 0.000000
-31.177500 0.000000
-31.141100 0.000000
-31.104700 0.000000
-31.068300 0.000000
-31.031900 0.000000
-30.995500 0.000000
-30.959100 0.000000
-30.922700 0.000000
-30.886300 0.000000
-30.849900 0.000000
-30.813500 0.000000
-30.777100 0.000000
-30.740700 0.000000
-30.704300 0.000000
-30.667800 0.000000
-30.631400 0.000000
-30.595000 0.000000
-30.558600 0.000000
-30.522200 0.000000
-30.485800 0.000000
-30.449400 0.000000
-30.413000 0.000000
-30.376600 0.000000
-30.340200 0.000000
-30.303800 0.000000
-30.267400 0.000000
-30.231000 0.000000
-30.194600 0.000000
-30.158200 0.000000
-30.121700 0.000000
-30.085300 0.000000
-30.048900 0.000000
-30.012500 0.000000
-29.976100 0.000000
-29.939700 0.000000
-29.903300 0.000000
-29.866900 0.000000
-29.830500 0.000000
-29.794100 0.000000
-29.757700 0.000000
-29.721300 0.000000
-29.684900 0.000000
-29.648500 0.000000
-29.612100 0.000000
-29.575600 0.000000
-29.539200 0.000000
-29.502800 0.000000
-29.466400 0.000000
-29.430000 0.000000
-29.393600 0.000000
-29.357200 0.000000
-29.320800 0.000000
-29.284400 0.000000
-29.248000 0.000000
-29.211600 0.000000
-29.175200 0.000000
-29.138800 0.000000
-29.102400 0.000000
-29.066000 0.000000
-29.029500 0.358300
-28.993100 1.328000
-28.956700 2.601900
-28.920300 3.980700
-28.883900 5.795700
-28.847500 9.291900
-28.811100 8.430000
-28.774700 7.268400
-28.738300 3.945400
-28.701900 1.808400
-28.665500 2.912100
-28.629100 3.387500
-28.592700 3.820400
-28.556300 4.155100
-28.519900 4.444700
-28.483400 4.657900
-28.447000 4.986500
-28.410600 5.140500
-28.374200 9.677900
-28.337800 10.097300
-28.301400 10.376200
-28.265000 10.712300
-28.228600 11.171900
-28.192200 11.741200
-28.155800 9.255000
-28.119400 6.327200
-28.083000 4.452100
-28.046600 2.211800
-28.010200 0.000000
-27.973800 0.000000
-27.937300 0.000000
-27.900900 0.000000
-27.864500 0.000000
-27.828100 0.000000
-27.791700 0.000000
-27.755300 0.000000
-27.718900 0.000000
-27.682500 0.000000
-27.646100 0.000000
-27.609700 0.000000
-27.573300 0.000000
-27.536900 0.000000
-27.500500 0.000000
-27.464100 0.000000
-27.427700 0.000000
-27.391200 0.000000
-27.354800 0.000000
-27.318400 0.000000
-27.282000 0.000000
-27.245600 0.000000
-27.209200 0.000000
-27.172800 0.000000
-27.136400 0.000000
-27.100000 0.000000
-27.063600 0.000000
-27.027200 0.000000
-26.990800 0.000000
-26.954400 0.000000
-26.918000 0.000000
-26.881600 0.000000
-26.845100 0.000000
-26.808700 0.000000
-26.772300 0.000000
-26.735900 0.000000
-26.699500 0.000000
-26.663100 0.000000
-26.626700 0.000000
-26.590300 0.000000
-26.553900 0.000000
-26.517500 0.000000
-26.481100 0.000000
-26.444700 0.000000
-26.408300 0.000000
-26.371900 0.000000
-26.335500 0.000000
-26.299000 0.000000
-26.262600 0.000000
-26.226200 0.000000
-26.189800 0.000000
-26.153400 0.000000
-26.117000 0.000000
-26.080600 0.000000
-26.044200 0.000000
-26.007800 0.000000
-25.971400 0.000000
-25.935000 0.000000
-25.898600 0.000000
-25.862200 0.000000
-25.825800 0.000000
-25.789400 0.000000
-25.752900 0.000000
-25.716500 0.000000
-25.680100 0.000000
-25.643700 0.000000
-25.607300 0.000000
-25.570900 0.000000
-25.534500 0.000000
-25.498100 0.000000
-25.461700 0.000000
-25.425300 0.000000
-25.388900 0.000000
-25.352500 0.000000
-25.316100 0.000000
-25.279700 0.000000
-25.243300 0.000000
-25.206800 0.000000
-25.170400 0.000000
-25.134000 0.000000
-25.097600 0.000000
-25.061200 0.000000
-25.024800 0.000000
-24.988400 0.000000
-24.952000 0.000000
-24.915600 0.000000
-24.879200 0.000000
-24.842800 0.000000
-24.806400 0.000000
-24.770000 0.000000
-24.733600 0.000000
-24.697200 0.000000
-24.660700 0.000000
-24.624300 0.000000
-24.587900 0.000000
-24.551500 0.000000
-24.515100 0.000000
-24.478700 0.000000
-24.442300 0.000000
-24.405900 0.000000
-24.369500 0.000000
-24.333100 0.000000
-24.296700 0.000000
-24.260300 0.000000
-24.223900 0.000000
-24.187500 0.000000
-24.151100 0.000000
-24.114600 0.000000
-24.078200 0.000000
-24.041800 0.000000
-24.005400 0.000000
-23.969000 0.000000
-23.932600 0.000000
-23.896200 0.000000
-23.859800 0.000000
-23.823400 0.000000
-23.787000 0.000000
-23.750600 0.000000
-23.714200 0.000000
-23.677800 0.000000
-23.641400 0.000000
-23.605000 0.000000
-23.568500 0.000000
-23.532100 0.000000
-23.495700 0.000000
-23.459300 0.000000
-23.422900 0.000000
-23.386500 0.000000
-23.350100 0.000000
-23.313700 0.000000
-23.277300 0.000000
-23.240900 0.000000
-23.204500 0.000000
-23.168100 0.000000
-23.131700 0.000000
-23.095300 0.000000
-23.058800 0.000000
-23.022400 0.000000
-22.986000 0.000000
-22.949600 0.000000
-22.913200 0.000000
-22.876800 0.000000
-22.840400 0.000000
-22.804000 0.000000
-22.767600 0.000000
-22.731200 0.000000
-22.694800 0.000000
-22.658400 0.000000
-22.622000 0.000000
-22.585600 0.000000
-22.549200 0.000000
-22.512700 0.000000
-22.476300 0.000000
-22.439900 0.000000
-22.403500 0.000000
-22.367100 0.000000
-22.330700 0.000000
-22.294300 0.000000
-22.257900 0.000000
-22.221500 0.000000
-22.185100 0.000000
-22.148700 0.000000
-22.112300 0.000000
-22.075900 0.000000
-22.039500 0.000000
-22.003100 0.000000
-21.966600 0.000000
-21.930200 0.000000
-21.893800 0.000000
-21.857400 0.000000
-21.821000 0.000000
-21.784600 0.000000
-21.748200 0.000000
-21.711800 0.000000
-21.675400 0.000000
-21.639000 0.000000
-21.602600 0.000000
-21.566200 0.000000
-21.529800 0.000000
-21.493400 0.000000
-21.457000 0.000000
-21.420500 0.000000
-21.384100 0.000000
-21.347700 0.000000
-21.311300 0.000000
-21.274900 0.000000
-21.238500 0.000000
-21.202100 0.000000
-21.165700 0.000000
-21.129300 0.000000
-21.092900 0.000000
-21.056500 0.000000
-21.020100 0.000000
-20.983700 0.000000
-20.947300 0.000000
-20.910900 0.000000
-20.874400 0.000000
-20.838000 0.000000
-20.801600 0.000000
-20.765200 0.000000
-20.728800 0.000000
-20.692400 0.000000
-20.656000 0.000000
-20.619600 0.000000
-20.583200 0.000000
-20.546800 0.000000
-20.510400 0.000000
-20.474000 0.000000
-20.437600 0.000000
-20.401200 0.000000
-20.364800 0.000000
-20.328300 0.000000
-20.291900 0.000000
-20.255500 0.000000
-20.219100 0.000000
-20.182700 0.000000
-20.146300 0.000000
-20.109900 0.000000
-20.073500 0.000000
-20.037100 0.000000
-20.000700 0.000000
-19.964300 0.000000
-19.927900 0.000000
-19.891500 0.000000
-19.855100 0.000000
-19.818700 0.000000
-19.782200 0.000000
-19.745800 0.000000
-19.709400 0.000000
-19.673000 0.000000
-19.636600 0.000000
-19.600200 0.000000
-19.563800 0.000000
-19.527400 0.000000
-19.491000 0.000000
-19.454600 0.000000
-19.418200 0.000000
-19.381800 0.000000
-19.345400 0.000000
-19.309000 0.000000
-19.272600 0.000000
-19.236100 0.000000
-19.199700 0.000000
-19.163300 0.000000
-19.126900 0.000000
-19.090500 0.000000
-19.054100 0.000000
-19.017700 0.000000
-18.981300 0.000000
-18.944900 0.000000
-18.908500 0.000000
-18.872100 0.000000
-18.835700 0.000000
-18.799300 0.000000
-18.762900 0.000000
-18.726500 0.000000
-18.690000 0.000000
-18.653600 0.000000
-18.617200 0.000000
-18.580800 0.000000
-18.544400 0.000000
-18.508000 0.000000
-18.471600 0.000000
-18.435200 0.000000
-18.398800 0.000000
-18.362400 0.000000
-18.326000 0.000000
-18.289600 0.000000
-18.253200 0.000000
-18.216800 0.000000
-18.180400 0.000000
-18.143900 0.000000
-18.107500 0.000000
-18.071100 0.000000
-18.034700 0.000000
-17.998300 0.000000
-17.961900 0.000000
-17.925500 0.000000
-17.889100 0.000000
-17.852700 0.000000
-17.816300 0.000000
-17.779900 0.000000
-17.743500 0.000000
-17.707100 0.000000
-17.670700 0.000000
-17.634300 0.000000
-17.597800 0.000000
-17.561400 0.000000
-17.525000 0.000000
-17.488600 0.000000
-17.452200 0.000000
-17.415800 0.000000
-17.379400 0.000000
-17.343000 0.000000
-17.306600 0.000000
-17.270200 0.000000
-17.233800 0.000000
-17.197400 0.000000
-17.161000 0.000000
-17.124600 0.000000
-17.088200 0.000000
-17.051700 0.000000
-17.015300 0.000000
-16.978900 0.000000
-16.942500 0.000000
-16.906100 0.000000
-16.869700 0.000000
-16.833300 0.000000
-16.796900 0.000000
-16.760500 0.000000
-16.724100 0.000000
-16.687700 0.000000
-16.651300 0.000000
-16.614900 0.000000
-16.578500 0.000000
-16.542100 0.000000
-16.505600 0.000000
-16.469200 0.000000
-16.432800 0.000000
-16.396400 0.000000
-16.360000 0.000000
-16.323600 0.000000
-16.287200 0.000000
-16.250800 0.000000
-16.214400 0.000000
-16.178000 0.000000
-16.141600 0.000000
-16.105200 0.000000
-16.068800 0.000000
-16.032400 0.000000
-15.996000 0.000000
-15.959500 0.000000
-15.923100 0.000000
-15.886700 0.000000
-15.850300 0.000000
-15.813900 0.000000
-15.777500 0.000000
-15.741100 0.000000
-15.704700 0.000000
-15.668300 0.000000
-15.631900 0.000000
-15.595500 0.000000
-15.559100 0.000000
-15.522700 0.000000
-15.486300 0.000000
-15.449900 0.000000
-15.413400 0.000000
-15.377000 0.000000
-15.340600 0.000000
-15.304200 0.000000
-15.267800 0.000000
-15.231400 0.000000
-15.195000 0.000000
-15.158600 0.000000
-15.122200 0.000000
-15.085800 0.000000
-15.049400 0.000000
-15.013000 0.000000
-14.976600 0.000000
-14.940200 0.000000
-14.903800 0.000000
-14.867300 0.000000
-14.830900 0.000000
-14.794500 0.000000
-14.758100 0.000000
-14.721700 0.000000
-14.685300 0.000000
-14.648900 0.000000
-14.612500 0.000000
-14.576100 0.000000
-14.539700 0.000000
-14.503300 0.000000
-14.466900 0.000000
-14.430500 0.000000
-14.394100 0.000000
-14.357700 0.000000
-14.321200 0.000000
-14.284800 0.000000
-14.248400 0.000000
-14.212000 0.000000
-14.175600 0.000000
-14.139200 0.000000
-14.102800 0.000000
-14.066400 0.000000
-14.030000 0.000000
-13.993600 0.000000
-13.957200 0.000000
-13.920800 0.000000
-13.884400 0.000000
-13.848000 0.000000
-13.811600 0.000000
-13.775100 0.000000
-13.738700 0.000000
-13.702300 0.000000
-13.665900 0.000000
-13.629500 0.000000
-13.593100 0.000000
-13.556700 0.000000
-13.520300 0.000000
-13.483900 0.000000
-13.447500 0.000000
-13.411100 0.000000
-13.374700 0.000000
-13.338300 0.000000
-13.301900 0.000000
-13.265500 0.000000
-13.229000 0.000000
-13.192600 0.000000
-13.156200 0.000000
-13.119800 0.000000
-13.083400 0.000000
-13.047000 0.000000
-13.010600 0.000000
-12.974200 0.000000
-12.937800 0.000000
-12.901400 0.000000
-12.865000 0.000000
-12.828600 0.000000
-12.792200 0.000000
-12.755800 0.000000
-12.719300 0.000000
-12.682900 0.000000
-12.646500 0.000000
-12.610100 0.000000
-12.573700 0.000000
-12.537300 0.000000
-12.500900 0.000000
-12.464500 0.000000
-12.428100 0.000000
-12.391700 0.000000
-12.355300 0.000000
-12.318900 0.000000
-12.282500 0.000000
-12.246100 0.000000
-12.209700 0.000000
-12.173200 0.000000
-12.136800 0.000000
-12.100400 0.000000
-12.064000 0.000000
-12.027600 0.000000
-11.991200 0.000000
-11.954800 0.000000
-11.918400 0.000000
-11.882000 0.000000
-11.845600 0.000000
-11.809200 0.000000
-11.772800 0.000000
-11.736400 0.000000
-11.700000 0.000000
-11.663600 0.000000
-11.627100 0.000000
-11.590700 0.000000
-11.554300 0.000000
-11.517900 0.000000
-11.481500 0.000000
-11.445100 0.000000
-11.408700 0.000000
-11.372300 0.000000
-11.335900 0.000000
-11.299500 0.000000
-11.263100 0.000000
-11.226700 0.000000
-11.190300 0.000000
-11.153900 0.000000
-11.117500 0.000000
-11.081000 0.000000
-11.044600 0.000000
-11.008200 0.000000
-10.971800 0.000000
-10.935400 0.000000
-10.899000 0.000000
-10.862600 0.000000
-10.826200 0.000000
-10.789800 0.000000
-10.753400 0.000000
-10.717000 0.000000
-10.680600 0.000000
-10.644200 0.000000
-10.607800 0.000000
-10.571400 0.000000
-10.534900 0.000000
-10.498500 0.000000
-10.462100 0.000000
-10.425700 0.000000
-10.389300 0.000000
-10.352900 0.000000
-10.316500 0.000000
-10.280100 0.000000
-10.243700 0.000000
-10.207300 0.000000
-10.170900 0.000000
-10.134500 0.000000
-10.098100 0.000000
-10.061700 0.000000
-10.025300 0.000000
-9.988800 0.000000
-9.952400 0.000000
-9.916000 0.000000
-9.879600 0.000000
-9.843200 0.000000
-9.806800 0.000000
-9.770400 0.000000
-9.734000 0.000000
-9.697600 0.000000
-9.661200 0.000000
-9.624800 0.000000
-9.588400 0.000000
-9.552000 0.000000
-9.515600 0.000000
-9.479200 0.000000
-9.442700 0.000000
-9.406300 0.000000
-9.369900 0.000000
-9.333500 0.000000
-9.297100 0.000000
-9.260700 0.000000
-9.224300 0.000000
-9.187900 0.000000
-9.151500 0.000000
-9.115100 0.000000
-9.078700 0.000000
-9.042300 0.000000
-9.005900 0.000000
-8.969500 0.000000
-8.933100 0.000000
-8.896600 0.000000
-8.860200 0.000000
-8.823800 0.000000
-8.787400 0.000000
-8.751000 0.000000
-8.714600 0.000000
-8.678200 0.000000
-8.641800 0.000000
-8.605400 0.000000
-8.569000 0.000000
-8.532600 0.000000
-8.496200 0.000000
-8.459800 0.000000
-8.423400 0.000000
-8.387000 0.000000
-8.350500 0.000000
-8.314100 0.000000
-8.277700 0.000000
-8.241300 0.000000
-8.204900 0.000000
-8.168500 0.000000
-8.132100 0.000000
-8.095700 0.000000
-8.059300 0.000000
-8.022900 0.000000
-7.986500 0.000000
-7.950100 0.000000
-7.913700 0.000000
-7.877300 0.000000
-7.840900 0.000000
-7.804400 0.000000
-7.768000 0.000000
-7.731600 0.000000
-7.695200 0.000000
-7.658800 0.000000
-7.622400 0.000000
-7.586000 0.000000
-7.549600 0.000000
-7.513200 0.000000
-7.476800 0.000000
-7.440400 0.000000
-7.404000 0.000000
-7.367600 0.000000
-7.331200 0.000000
-7.294800 0.000000
-7.258300 0.000000
-7.221900 0.000000
-7.185500 0.000000
-7.149100 0.000000
-7.112700 0.000000
-7.076300 0.000000
-7.039900 0.000000
-7.003500 0.000000
-6.967100 0.000000
-6.930700 0.000000
-6.894300 0.000000
-6.857900 0.000000
-6.821500 0.000000
-6.785100 0.000000
-6.748700 0.000000
-6.712200 0.000000
-6.675800 0.000000
-6.639400 0.000000
-6.603000 0.000000
-6.566600 0.000000
-6.530200 0.000000
-6.493800 0.000000
-6.457400 0.000000
-6.421000 0.000000
-6.384600 0.000000
-6.348200 0.000000
-6.311800 0.000000
-6.275400 0.000000
-6.239000 0.000000
-6.202600 0.000000
-6.166100 0.000000
-6.129700 0.000000
-6.093300 0.000000
-6.056900 0.000000
-6.020500 0.000000
-5.984100 0.000000
-5.947700 0.000000
-5.911300 0.000000
-5.874900 0.000000
-5.838500 0.000000
-5.802100 0.000000
-5.765700 0.000000
-5.729300 0.000000
-5.692900 0.000000
-5.656500 0.000000
-5.620000 0.000000
-5.583600 0.000000
-5.547200 0.000000
-5.510800 0.000000
-5.474400 0.000000
-5.438000 0.000000
-5.401600 0.000000
-5.365200 0.000000
-5.328800 0.000000
-5.292400 0.000000
-5.256000 0.000000
-5.219600 0.000000
-5.183200 0.000000
-5.146800 0.000000
-5.110400 0.000000
-5.073900 0.000000
-5.037500 0.000000
-5.001100 0.000000
-4.964700 0.000000
-4.928300 0.000000
-4.891900 0.000000
-4.855500 0.000000
-4.819100 0.000000
-4.782700 0.000000
-4.746300 0.000000
-4.709900 0.000000
-4.673500 0.000000
-4.637100 0.000000
-4.600700 0.000000
-4.564300 0.000000
-4.527800 0.000000
-4.491400 0.000000
-4.455000 0.000000
-4.418600 0.000000
-4.382200 0.000000
-4.345800 0.000000
-4.309400 0.000000
-4.273000 0.000000
-4.236600 0.000000
-4.200200 0.000000
-4.163800 0.000000
-4.127400 0.000000
-4.091000 0.000000
-4.054600 0.000000
-4.018200 0.000000
-3.981700 0.000000
-3.945300 0.000000
-3.908900 0.000000
-3.872500 0.000000
-3.836100 0.000000
-3.799700 0.000000
-3.763300 0.000000
-3.726900 0.000000
-3.690500 0.000000
-3.654100 0.000000
-3.617700 0.000000
-3.581300 0.000000
-3.544900 0.000000
-3.508500 0.000000
-3.472100 0.000000
-3.435600 0.000000
-3.399200 0.000000
-3.362800 0.000000
-3.326400 0.000000
-3.290000 0.000000
-3.253600 0.000000
-3.217200 0.000000
-3.180800 0.000000
-3.144400 0.000000
-3.108000 0.000000
-3.071600 0.000000
-3.035200 0.000000
-2.998800 0.000000
-2.962400 0.000000
-2.925900 0.000000
-2.889500 0.000000
-2.853100 0.000000
-2.816700 0.000000
-2.780300 0.000000
-2.743900 0.000000
-2.707500 0.000000
-2.671100 0.000000
-2.634700 0.000000
-2.598300 0.000000
-2.561900 0.000100
-2.525500 0.005700
-2.489100 0.019100
-2.452700 0.018300
-2.416300 0.022200
-2.379800 0.026400
-2.343400 0.030500
-2.307000 0.032700
-2.270600 0.033900
-2.234200 0.036500
-2.197800 0.039100
-2.161400 0.041700
-2.125000 0.044500
-2.088600 0.046800
-2.052200 0.048400
-2.015800 0.050200
-1.979400 0.052000
-1.943000 0.053800
-1.906600 0.055800
-1.870200 0.057900
-1.833700 0.060100
-1.797300 0.062400
-1.760900 0.064400
-1.724500 0.065900
-1.688100 0.067500
-1.651700 0.069300
-1.615300 0.071100
-1.578900 0.072900
-1.542500 0.074700
-1.506100 0.076700
-1.469700 0.078700
-1.433300 0.080700
-1.396900 0.082800
-1.360500 0.084800
-1.324100 0.086500
-1.287600 0.088200
-1.251200 0.090000
-1.214800 0.091800
-1.178400 0.093800
-1.142000 0.095700
-1.105600 0.097700
-1.069200 0.099800
-1.032800 0.101800
-0.996400 0.104000
-0.960000 0.106100
-0.923600 0.108300
-0.887200 0.110500
-0.850800 0.112500
-0.814400 0.114600
-0.778000 0.116700
-0.741500 0.118900
-0.705100 0.121100
-0.668700 0.123400
-0.632300 0.125800
-0.595900 0.128300
-0.559500 0.130800
-0.523100 0.133300
-0.486700 0.135900
-0.450300 0.138600
-0.413900 0.141300
-0.377500 0.144100
-0.341100 0.146700
-0.304700 0.149500
-0.268300 0.152400
-0.231900 0.155400
-0.195400 0.158500
-0.159000 0.161700
-0.122600 0.165000
-0.086200 0.168500
-0.049800 0.172100
-0.013400 0.175800
0.023000 0.179600
0.059400 0.183500
0.095800 0.187600
0.132200 0.191800
0.168600 0.196100
0.205000 0.200400
0.241400 0.205100
0.277800 0.210200
0.314200 0.215600
0.350700 0.221400
0.387100 0.227600
0.423500 0.234100
0.459900 0.241000
0.496300 0.248300
0.532700 0.255900
0.569100 0.264000
0.605500 0.272400
0.641900 0.281100
0.678300 0.291000
0.714700 0.306300
0.751100 0.322600
0.787500 0.339700
0.823900 0.358200
0.860300 0.377900
0.896800 0.422100
0.933200 0.487300
0.969600 0.518700
1.006000 0.500100
1.042400 0.512400
1.078800 0.522900
1.115200 0.526900
1.151600 0.544100
1.188000 0.625100
1.224400 0.676000
1.260800 0.748000
1.297200 0.827700
1.333600 0.795400
1.370000 0.802800
1.406400 0.802800
1.442900 0.790900
1.479300 0.791500
1.515700 0.799200
1.552100 0.802300
1.588500 0.807700
1.624900 0.804700
1.661300 0.804000
1.697700 0.803900
1.734100 0.803900
1.770500 0.803900
1.806900 0.803800
1.843300 0.802200
1.879700 0.801300
1.916100 0.802600
1.952500 0.805100
1.989000 0.805100
2.025400 0.802700
2.061800 0.798100
2.098200 0.791200
2.134600 0.785500
2.171000 0.778900
2.207400 0.837000
2.243800 0.874300
2.280200 0.888300
2.316600 0.911100
2.353000 0.921000
2.389400 0.922600
2.425800 0.928200
2.462200 0.938200
2.498600 0.945900
2.535100 0.948300
2.571500 0.952000
2.607900 0.955100
2.644300 0.964600
2.680700 0.978600
2.717100 1.004400
2.753500 1.046900
2.789900 1.046400
2.826300 1.020300
2.862700 1.002600
2.899100 0.987100
2.935500 0.968000
2.971900 0.872700
3.008300 0.846400
3.044700 0.821900
3.081200 0.784500
3.117600 0.740600
3.154000 0.700000
3.190400 0.666800
3.226800 0.582400
3.263200 0.619300
3.299600 0.664000
3.336000 0.715800
3.372400 0.764500
3.408800 0.870600
3.445200 1.437000
3.481600 1.630500
3.518000 1.383400
3.554400 1.294600
3.590800 1.190800
3.627300 1.146000
3.663700 1.133100
3.700100 1.096500
3.736500 1.042700
3.772900 0.995300
3.809300 0.964400
3.845700 0.951500
3.882100 0.957500
3.918500 0.894900
3.954900 0.869400
3.991300 0.852500
4.027700 0.836800
4.064100 0.836000
4.100500 0.871300
4.136900 0.856100
4.173400 0.879500
4.209800 0.907800
4.246200 1.041600
4.282600 1.126000
4.319000 1.158000
4.355400 1.124300
4.391800 1.141400
4.428200 1.219300
4.464600 1.264800
4.501000 1.280300
4.537400 1.290000
4.573800 1.299800
4.610200 1.325000
4.646600 1.346600
4.683000 1.353100
4.719500 1.366100
4.755900 1.409700
4.792300 1.342400
4.828700 1.309000
4.865100 1.288200
4.901500 1.284200
4.937900 1.296400
4.974300 1.316400
5.010700 1.339800
5.047100 1.369100
5.083500 1.397800
5.119900 1.562300
5.156300 1.576600
5.192700 1.573300
5.229100 1.587000
5.265600 1.631000
5.302000 1.598700
5.338400 1.445800
5.374800 1.353300
5.411200 1.292400
5.447600 1.249300
5.484000 1.217000
5.520400 1.195700
5.556800 1.181300
5.593200 1.143200
5.629600 1.100900
5.666000 1.057800
5.702400 1.044200
5.738800 1.081000
5.775200 1.158400
5.811700 1.255900
5.848100 1.159900
5.884500 1.188600
5.920900 1.113900
5.957300 0.905500
5.993700 1.029900
6.030100 1.030300
6.066500 1.124800
6.102900 1.335600
6.139300 1.209000
6.175700 1.147100
6.212100 1.176500
6.248500 1.205900
6.284900 1.273100
6.321300 1.729400
6.357800 1.701200
6.394200 1.298300
6.430600 1.141800
6.467000 1.066200
6.503400 1.016700
6.539800 0.973000
6.576200 0.930700
6.612600 0.907500
6.649000 0.879400
6.685400 0.860200
6.721800 0.840700
6.758200 0.820300
6.794600 0.799200
6.831000 0.789600
6.867400 0.784400
6.903900 0.784200
6.940300 0.782400
6.976700 0.781300
7.013100 0.781300
7.049500 0.782500
7.085900 0.780800
7.122300 0.787900
7.158700 0.807500
7.195100 0.841700
7.231500 0.807500
7.267900 0.781900
7.304300 0.770100
7.340700 0.781600
7.377100 0.801400
7.413600 0.783400
7.450000 0.774700
7.486400 0.772400
7.522800 0.785500
7.559200 0.842900
7.595600 0.955600
7.632000 1.084400
7.668400 1.171200
7.704800 1.191400
7.741200 1.313500
7.777600 1.315200
7.814000 1.421600
7.850400 1.167900
7.886800 1.092100
7.923200 1.048400
7.959700 1.025000
7.996100 1.002900
8.032500 0.982200
8.068900 0.971700
8.105300 0.919500
8.141700 0.885600
8.178100 0.858400
8.214500 0.837700
8.250900 0.820000
8.287300 0.801700
8.323700 0.783400
8.360100 0.765400
8.396500 0.749800
8.432900 0.735200
8.469300 0.723900
8.505800 0.711500
8.542200 0.696300
8.578600 0.678000
8.615000 0.660700
8.651400 0.644800
8.687800 0.635800
8.724200 0.636700
8.760600 0.637500
8.797000 0.632000
8.833400 0.646800
8.869800 0.677200
8.906200 0.793300
8.942600 0.812200
8.979000 0.758400
9.015400 0.744400
9.051900 0.735400
9.088300 0.734200
9.124700 0.725000
9.161100 0.713700
9.197500 0.713000
9.233900 0.714300
9.270300 0.716900
9.306700 0.718700
9.343100 0.720000
9.379500 0.716600
9.415900 0.713900
9.452300 0.714700
9.488700 0.711900
9.525100 0.711500
9.561500 0.711400
9.598000 0.711000
9.634400 0.713300
9.670800 0.716800
9.707200 0.722100
9.743600 0.728100
9.780000 0.733600
9.816400 0.738500
9.852800 0.741300
9.889200 0.743400
9.925600 0.747600
9.962000 0.757800
9.998400 0.767800
10.034800 0.777900
10.071200 0.786400
10.107600 0.795900
10.144100 0.806400
10.180500 0.818000
10.216900 0.830700
10.253300 0.844800
10.289700 0.860300
10.326100 0.874400
10.362500 0.886500
10.398900 0.905900
10.435300 0.944700
10.471700 0.974500
10.508100 1.005600
10.544500 1.043600
10.580900 1.082100
10.617300 1.231500
10.653700 1.228900
10.690200 1.243500
10.726600 1.249400
10.763000 1.236100
10.799400 1.238500
10.835800 1.237600
10.872200 1.237700
10.908600 1.242300
10.945000 1.245300
10.981400 1.239500
11.017800 1.233900
11.054200 1.262100
11.090600 1.230200
11.127000 1.257000
11.163400 1.234100
11.199800 1.057700
11.236300 1.038500
11.272700 1.015700
11.309100 0.977800
11.345500 0.932800
11.381900 0.895900
11.418300 0.871000
11.454700 0.853300
11.491100 0.835600
11.527500 0.811100
11.563900 0.806600
11.600300 0.771100
11.636700 0.762800
11.673100 0.729000
11.709500 0.704200
11.745900 0.686800
11.782400 0.671800
11.818800 1.672900
11.855200 0.458400
11.891600 0.448700
11.928000 0.446800
11.964400 0.441500
12.000800 0.440300
12.037200 0.440800
12.073600 0.441700
12.110000 0.448600
12.146400 0.445200
12.182800 0.450100
12.219200 0.459300
12.255600 0.472500
12.292000 0.479900
12.328500 0.482100
12.364900 0.484700
12.401300 0.508000
12.437700 0.554700
12.474100 0.597700
12.510500 0.646500
12.546900 0.702000
12.583300 0.815100
12.619700 1.036200
12.656100 1.039600
12.692500 0.867800
12.728900 0.795200
12.765300 0.739200
12.801700 0.702700
12.838100 0.649100
12.874600 0.612500
12.911000 0.589500
12.947400 0.569900
12.983800 0.544200
13.020200 0.524400
13.056600 0.506800
13.093000 0.489900
13.129400 0.473400
13.165800 0.459100
13.202200 0.447100
13.238600 0.434700
13.275000 0.420400
13.311400 0.407000
13.347800 0.394500
13.384200 0.383900
13.420700 0.376700
13.457100 0.371500
13.493500 0.364400
13.529900 0.355000
13.566300 0.344200
13.602700 0.330600
13.639100 0.318700
13.675500 0.309000
13.711900 0.300400
13.748300 0.294100
13.784700 0.290300
13.821100 0.278900
13.857500 0.269200
13.893900 0.261900
13.930300 0.256900
13.966800 0.251200
14.003200 0.241800
14.039600 0.223800
14.076000 0.199900
14.112400 0.167100
14.148800 0.160100
14.185200 0.152900
14.221600 0.146300
14.258000 0.140400
14.294400 0.135100
14.330800 0.133300
14.367200 0.140300
14.403600 0.154800
14.440000 0.196100
14.476400 0.246600
14.512900 0.327100
14.549300 0.520800
14.585700 0.594500
14.622100 0.546700
14.658500 0.546600
14.694900 0.535000
14.731300 0.529800
14.767700 0.531400
14.804100 0.532400
14.840500 0.544900
14.876900 0.554100
14.913300 0.527200
14.949700 0.519300
14.986100 0.515000
15.022500 0.519200
15.059000 0.525900
15.095400 0.531100
15.131800 0.538300
15.168200 0.546300
15.204600 0.554000
15.241000 0.560400
15.277400 0.568800
15.313800 0.579600
15.350200 0.589700
15.386600 0.585700
15.423000 0.592200
15.459400 0.588700
15.495800 0.564300
15.532200 0.554700
15.568600 0.543700
15.605100 0.533300
15.641500 0.523700
15.677900 0.515000
15.714300 0.745900
15.750700 0.480700
15.787100 0.465600
15.823500 0.462200
15.859900 0.460100
15.896300 0.454300
15.932700 0.464400
15.969100 0.450800
16.005500 0.443900
16.041900 0.446300
16.078300 0.443600
16.114700 0.438600
16.151200 0.442100
16.187600 0.463500
16.224000 0.429100
16.260400 0.425000
16.296800 0.422000
16.333200 0.429300
16.369600 0.429000
16.406000 0.422200
16.442400 0.418500
16.478800 0.423400
16.515200 0.436900
16.551600 0.435400
16.588000 0.434600
16.624400 0.432800
16.660800 0.468500
16.697300 0.488200
16.733700 0.476200
16.770100 0.487400
16.806500 0.485100
16.842900 0.480000
16.879300 0.475700
16.915700 0.476000
16.952100 0.495700
16.988500 0.525300
17.024900 0.502600
17.061300 0.500500
17.097700 0.497300
17.134100 0.501800
17.170500 0.507300
17.206900 0.536800
17.243400 0.477700
17.279800 0.457400
17.316200 0.441100
17.352600 0.426000
17.389000 0.417800
17.425400 0.415700
17.461800 0.414800
17.498200 0.413300
17.534600 0.414100
17.571000 0.422100
17.607400 0.433000
17.643800 0.443900
17.680200 0.453200
17.716600 0.463600
17.753100 0.478300
17.789500 0.496500
17.825900 0.515300
17.862300 0.541600
17.898700 0.576300
17.935100 0.624200
17.971500 0.676900
18.007900 0.758600
18.044300 0.863000
18.080700 1.028800
18.117100 1.337800
18.153500 1.836900
18.189900 3.848200
18.226300 7.436200
18.262700 1.650200
18.299200 1.292100
18.335600 1.075900
18.372000 0.939900
18.408400 0.851300
18.444800 0.784100
18.481200 0.747000
18.517600 0.711000
18.554000 0.700100
18.590400 0.692900
18.626800 0.687800
18.663200 0.683900
18.699600 0.679400
18.736000 0.672800
18.772400 0.667400
18.808800 0.658800
18.845300 0.655500
18.881700 0.652800
18.918100 0.652900
18.954500 0.655900
18.990900 0.659900
19.027300 0.663900
19.063700 0.667600
19.100100 0.670400
19.136500 0.669900
19.172900 0.669700
19.209300 0.677300
19.245700 0.685000
19.282100 0.691800
19.318500 0.695100
19.354900 0.696400
19.391400 0.696700
19.427800 0.696200
19.464200 0.696500
19.500600 0.709400
19.537000 0.718600
19.573400 0.720700
19.609800 0.720400
19.646200 0.724200
19.682600 0.726200
19.719000 0.723800
19.755400 0.726100
19.791800 0.734100
19.828200 0.743400
19.864600 0.751800
19.901000 0.758900
19.937500 0.767800
19.973900 0.777800
20.010300 0.788900
20.046700 0.802500
20.083100 0.833200
20.119500 0.865600
20.155900 0.913700
20.192300 1.148000
20.228700 1.069900
20.265100 1.066800
20.301500 1.049700
20.337900 1.044200
20.374300 1.027100
20.410700 0.999700
20.447100 0.981400
20.483600 1.004900
20.520000 1.021000
20.556400 1.010400
20.592800 0.988200
20.629200 0.962300
20.665600 0.938200
20.702000 0.926300
20.738400 0.895000
20.774800 0.881000
20.811200 0.871200
20.847600 0.866900
20.884000 0.904400
20.920400 0.902300
20.956800 0.901500
20.993200 0.909100
21.029700 0.920900
21.066100 0.979000
21.102500 1.013000
21.138900 1.032500
21.175300 1.019500
21.211700 0.974100
21.248100 0.977600
21.284500 0.982700
21.320900 1.018600
21.357300 1.059000
21.393700 1.093300
21.430100 1.120500
21.466500 1.164600
21.502900 1.215600
21.539300 1.257100
21.575800 1.229100
21.612200 1.181800
21.648600 1.134600
21.685000 1.063300
21.721400 1.021600
21.757800 0.971300
21.794200 0.926100
21.830600 0.911800
21.867000 0.873800
21.903400 0.840100
21.939800 0.813400
21.976200 0.792200
22.012600 0.772600
22.049000 0.753600
22.085400 0.736100
22.121900 0.719000
22.158300 0.696700
22.194700 0.674700
22.231100 0.658600
22.267500 0.643400
22.303900 0.629100
22.340300 0.615600
22.376700 0.608900
22.413100 0.604300
22.449500 0.567100
22.485900 0.557700
22.522300 0.550900
22.558700 0.532300
22.595100 0.501300
22.631500 0.485300
22.668000 0.467600
22.704400 0.448100
22.740800 0.425000
22.777200 0.402200
22.813600 0.395800
22.850000 0.408800
22.886400 0.421800
22.922800 0.403900
22.959200 0.398800
22.995600 0.399500
23.032000 0.413100
23.068400 0.436600
23.104800 0.457100
23.141200 0.485100
23.177600 0.535700
23.214100 0.522800
23.250500 0.542800
23.286900 0.579200
23.323300 0.618800
23.359700 0.685300
23.396100 0.735200
23.432500 0.717500
23.468900 0.742900
23.505300 0.689200
23.541700 0.701200
23.578100 0.739400
23.614500 0.780100
23.650900 0.789400
23.687300 0.745300
23.723700 0.758600
23.760200 0.757600
23.796600 0.736700
23.833000 0.714700
23.869400 0.701900
23.905800 0.696900
23.942200 0.693200
23.978600 0.691700
24.015000 0.692200
24.051400 0.691700
24.087800 0.689500
24.124200 0.688200
24.160600 0.688200
24.197000 0.688300
24.233400 0.688400
24.269800 0.690000
24.306300 0.694100
24.342700 0.696900
24.379100 0.697400
24.415500 0.698000
24.451900 0.700700
24.488300 0.702500
24.524700 0.705800
24.561100 0.711300
24.597500 0.717800
24.633900 0.725000
24.670300 0.733300
24.706700 0.743200
24.743100 0.754800
24.779500 0.767200
24.815900 0.779900
24.852400 0.791700
24.888800 0.802600
24.925200 0.816800
24.961600 0.832500
24.998000 0.875000
25.034400 0.903700
25.070800 0.917700
25.107200 0.940700
25.143600 0.975000
25.180000 1.019500
25.216400 1.043700
25.252800 1.150600
25.289200 0.987500
25.325600 0.953800
25.362000 0.910800
25.398500 0.895500
25.434900 0.883900
25.471300 0.874000
25.507700 0.864800
25.544100 0.845300
25.580500 0.830900
25.616900 0.816200
25.653300 0.801900
25.689700 0.796300
25.726100 0.799400
25.762500 0.740800
25.798900 0.713100
25.835300 0.686800
25.871700 0.666400
25.908100 0.639700
25.944600 0.591000
25.981000 0.559600
26.017400 0.539500
26.053800 0.514100
26.090200 0.486000
26.126600 0.453600
26.163000 0.420900
26.199400 0.390900
26.235800 0.365600
26.272200 0.342800
26.308600 0.321000
26.345000 0.300300
26.381400 0.281100
26.417800 0.263300
26.454200 0.252700
26.490700 0.246700
26.527100 0.245700
26.563500 0.273400
26.599900 0.274700
26.636300 0.275500
26.672700 0.280700
26.709100 0.289500
26.745500 0.277200
26.781900 0.282300
26.818300 0.289600
26.854700 0.287900
26.891100 0.288000
26.927500 0.289000
26.963900 0.290300
27.000300 0.293100
27.036800 0.297900
27.073200 0.303700
27.109600 0.311000
27.146000 0.319400
27.182400 0.324600
27.218800 0.334700
27.255200 0.345000
27.291600 0.355800
27.328000 0.367600
27.364400 0.378600
27.400800 0.387800
27.437200 0.395300
27.473600 0.401500
27.510000 0.410100
27.546400 0.421700
27.582900 0.431300
27.619300 0.439400
27.655700 0.448500
27.692100 0.458800
27.728500 0.469500
27.764900 0.480600
27.801300 0.494000
27.837700 0.504900
27.874100 0.515800
27.910500 0.526200
27.946900 0.537000
27.983300 0.553000
28.019700 0.569800
28.056100 0.589000
28.092600 0.609800
28.129000 0.631400
28.165400 0.652300
28.201800 0.680800
28.238200 0.708200
28.274600 0.727300
28.311000 0.791500
28.347400 0.717500
28.383800 0.697700
28.420200 0.698300
28.456600 0.696300
28.493000 0.695100
28.529400 0.695900
28.565800 0.699400
28.602200 0.709100
28.638700 0.721900
28.675100 0.743400
28.711500 0.775600
28.747900 0.816500
28.784300 0.860000
28.820700 0.847400
28.857100 0.823100
28.893500 0.808100
28.929900 0.796500
28.966300 0.783000
29.002700 0.875900
29.039100 0.845800
29.075500 0.805200
29.111900 0.784900
29.148300 0.763600
29.184800 0.740800
29.221200 0.726100
29.257600 0.710600
29.294000 0.692400
29.330400 0.680100
29.366800 0.677300
29.403200 0.674100
29.439600 0.674300
29.476000 0.675600
29.512400 0.684000
29.548800 0.696900
29.585200 0.706000
29.621600 0.707800
29.658000 0.708300
29.694400 0.708500
29.730900 0.700000
29.767300 0.696100
29.803700 0.666000
29.840100 0.666400
29.876500 0.660600
29.912900 0.647500
29.949300 0.632700
29.985700 0.619700
30.022100 0.613800
30.058500 0.594300
30.094900 0.582400
30.131300 0.575900
30.167700 0.568100
30.204100 0.568300
30.240500 0.569400
30.277000 0.569500
30.313400 0.567400
30.349800 0.559900
30.386200 0.554300
30.422600 0.548400
30.459000 0.544000
30.495400 0.541400
30.531800 0.540700
30.568200 0.543800
30.604600 0.552300
30.641000 0.557900
30.677400 0.552500
30.713800 0.555500
30.750200 0.560200
30.786600 0.567800
30.823100 0.578300
30.859500 0.591000
30.895900 0.605000
30.932300 0.619900
30.968700 0.634800
31.005100 0.648500
31.041500 0.669800
31.077900 0.705000
31.114300 0.890100
31.150700 0.890500
31.187100 0.946100
31.223500 0.946500
31.259900 0.921600
31.296300 0.938800
31.332700 1.003600
31.369200 1.011300
31.405600 0.937100
31.442000 0.854000
31.478400 0.815800
31.514800 0.793800
31.551200 0.780700
31.587600 0.773200
31.624000 0.762700
31.660400 0.754800
31.696800 0.760900
31.733200 0.755900
31.769600 0.744500
31.806000 0.735100
31.842400 0.756100
31.878800 0.764900
31.915300 0.777900
31.951700 0.782800
31.988100 0.766300
32.024500 0.767600
32.060900 0.778000
32.097300 0.784200
32.133700 0.785300
32.170100 0.792200
32.206500 0.797200
32.242900 0.805400
32.279300 0.817600
32.315700 0.836500
32.352100 0.868900
32.388500 0.891300
32.424900 0.953400
32.461400 0.927900
32.497800 0.912700
32.534200 0.911100
32.570600 0.943600
32.607000 0.935900
32.643400 0.859100
32.679800 0.742700
32.716200 0.643200
32.752600 0.560600
32.789000 0.416200
32.825400 0.307500
32.861800 0.252700
32.898200 0.210000
32.934600 0.175300
32.971000 0.148300
33.007500 0.123000
33.043900 0.095200
33.080300 0.062100
33.116700 0.052100
33.153100 0.043300
33.189500 0.034500
33.225900 0.026600
33.262300 0.019100
33.298700 0.012900
33.335100 0.009400
33.371500 0.008600
33.407900 0.008500
33.444300 0.008300
33.480700 0.008200
33.517100 0.008100
33.553600 0.007900
33.590000 0.007800
33.626400 0.007700
33.662800 0.007500
33.699200 0.007400
33.735600 0.007300
33.772000 0.007200
33.808400 0.007000
33.844800 0.006900
33.881200 0.006800
33.917600 0.006700
33.954000 0.006500
33.990400 0.006400
34.026800 0.006300
34.063200 0.006200
34.099700 0.006100
34.136100 0.005900
34.172500 0.005800
34.208900 0.005700
34.245300 0.005600
34.281700 0.005400
34.318100 0.005300
34.354500 0.005200
34.390900 0.005100
34.427300 0.004900
34.463700 0.004800
34.500100 0.004700
34.536500 0.004600
34.572900 0.004500
34.609300 0.004400
34.645800 0.004300
34.682200 0.004200
34.718600 0.004100
34.755000 0.004000
34.791400 0.003900
34.827800 0.003800
34.864200 0.003700
34.900600 0.003700
34.937000 0.003600
34.973400 0.003500
35.009800 0.003400
35.046200 0.003400
35.082600 0.003300
35.119000 0.003200
35.155400 0.003100
35.191900 0.003100
35.228300 0.003000
35.264700 0.002900
35.301100 0.002900
35.337500 0.002800
35.373900 0.002700
35.410300 0.002700
35.446700 0.002600
35.483100 0.002500
35.519500 0.002500
35.555900 0.002400
35.592300 0.002300
35.628700 0.002300
35.665100 0.002200
35.701500 0.002100
35.738000 0.002100
35.774400 0.002000
35.810800 0.002000
35.847200 0.001900
35.883600 0.001900
35.920000 0.001800
35.956400 0.001700
35.992800 0.001600
36.029200 0.001500
36.065600 0.001400
36.102000 0.001300
36.138400 0.001200
36.174800 0.001100
36.211200 0.001000
36.247600 0.001000
36.284100 0.000900
36.320500 0.000800
36.356900 0.000700
36.393300 0.000700
36.429700 0.000600
36.466100 0.000600
36.502500 0.000500
36.538900 0.000400
36.575300 0.000400
36.611700 0.000300
36.648100 0.000300
36.684500 0.000300
36.720900 0.000200
36.757300 0.000200
36.793700 0.000200
36.830200 0.000100
36.866600 0.000100
36.903000 0.000100
36.939400 0.000100
36.975800 0.000000
37.012200 0.000000
37.048600 0.000000
37.085000 0.000000
37.121400 0.000000
37.157800 0.000000
37.194200 0.000000
37.230600 0.000000
37.267000 0.000000
37.303400 0.000000
37.339800 0.000000
37.376300 0.000000
37.412700 0.000000
37.449100 0.000000
37.485500 0.000000
37.521900 0.000000
37.558300 0.000000
37.594700 0.000000
37.631100 0.000000
37.667500 0.000000
37.703900 0.000000
37.740300 0.000000
37.776700 0.000000
37.813100 0.000000
37.849500 0.000000
37.886000 0.000000
37.922400 0.000000
37.958800 0.000000
37.995200 0.000000
38.031600 0.000000
38.068000 0.000000
38.104400 0.000000
38.140800 0.000000
38.177200 0.000000
38.213600 0.000000
38.250000 0.000000
38.286400 0.000000
38.322800 0.000000
38.359200 0.000000
38.395600 0.000000
38.432100 0.000000
38.468500 0.000000
38.504900 0.000000
38.541300 0.000000
38.577700 0.000000
38.614100 0.000000
38.650500 0.000000
38.686900 0.000000
38.723300 0.000000
38.759700 0.000000
38.796100 0.000000
38.832500 0.000000
38.868900 0.000000
38.905300 0.000000
38.941700 0.000000
38.978200 0.000000
39.014600 0.000000
39.051000 0.000000
39.087400 0.000000
39.123800 0.000000
39.160200 0.000000
39.196600 0.000000
39.233000 0.000000
39.269400 0.000000
39.305800 0.000000
39.342200 0.000000
39.378600 0.000000
39.415000 0.000000
39.451400 0.000000
39.487800 0.000000
39.524300 0.000000
39.560700 0.000000
39.597100 0.000000
39.633500 0.000000
39.669900 0.000000
39.706300 0.000000
39.742700 0.000000
39.779100 0.000000
39.815500 0.000000
39.851900 0.000000
39.888300 0.000000
39.924700 0.000000
39.961100 0.000000
39.997500 0.000000
40.033900 0.000000
40.070400 0.000000
40.106800 0.000000
40.143200 0.000000
40.179600 0.000000
40.216000 0.000000
40.252400 0.000000
40.288800 0.000000
40.325200 0.000000
40.361600 0.000000
40.398000 0.000000
40.434400 0.000000
40.470800 0.000000
e
