set title 'mp-20652 - Density of States'
set xlabel 'Energy (eV)'
set ylabel 'DOS (states/eV)'
set grid
set xrange [-10:10]
set yrange [0:132.579]
set xzeroaxis lt -1
set terminal png size 800,600
set output 'mp-20652_dos_gnuplot.png'
plot '-' using 1:2 with lines title 'DOS'
-23.460300 0.000000
-23.436100 0.000000
-23.411800 0.000000
-23.387600 0.000000
-23.363400 0.000000
-23.339200 0.000000
-23.315000 0.000000
-23.290800 0.000000
-23.266600 0.000000
-23.242400 0.000000
-23.218200 0.000000
-23.194000 0.000000
-23.169800 0.000000
-23.145600 0.000000
-23.121400 0.000000
-23.097100 0.000000
-23.072900 0.000000
-23.048700 0.000000
-23.024500 0.000000
-23.000300 0.000000
-22.976100 0.000000
-22.951900 0.000000
-22.927700 0.000000
-22.903500 0.000000
-22.879300 0.000000
-22.855100 0.000000
-22.830900 0.000000
-22.806700 0.000000
-22.782400 0.000000
-22.758200 0.000000
-22.734000 0.000000
-22.709800 0.000000
-22.685600 0.000000
-22.661400 0.000000
-22.637200 0.000000
-22.613000 0.000000
-22.588800 0.000000
-22.564600 0.000000
-22.540400 0.000000
-22.516200 0.000000
-22.492000 0.000000
-22.467700 0.000000
-22.443500 0.000000
-22.419300 0.000000
-22.395100 0.000000
-22.370900 0.000000
-22.346700 0.000000
-22.322500 0.000000
-22.298300 0.000000
-22.274100 0.000000
-22.249900 0.000000
-22.225700 0.000000
-22.201500 0.000000
-22.177300 0.000000
-22.153000 0.000000
-22.128800 0.000000
-22.104600 0.000000
-22.080400 0.000000
-22.056200 0.000000
-22.032000 0.000000
-22.007800 0.000000
-21.983600 0.000000
-21.959400 0.000000
-21.935200 0.000000
-21.911000 0.000000
-21.886800 0.000000
-21.862600 0.000000
-21.838300 0.000000
-21.814100 0.000000
-21.789900 0.000000
-21.765700 0.000000
-21.741500 0.000000
-21.717300 0.000000
-21.693100 0.000000
-21.668900 0.000000
-21.644700 0.000000
-21.620500 0.000000
-21.596300 0.000000
-21.572100 0.000000
-21.547900 0.000000
-21.523600 0.000000
-21.499400 0.000000
-21.475200 0.000000
-21.451000 0.000000
-21.426800 0.000000
-21.402600 0.000000
-21.378400 0.000000
-21.354200 0.000000
-21.330000 0.000000
-21.305800 0.000000
-21.281600 0.000000
-21.257400 0.037300
-21.233200 5.401500
-21.208900 18.552600
-21.184700 37.005400
-21.160500 25.521700
-21.136300 0.000000
-21.112100 7.559100
-21.087900 19.462300
-21.063700 18.475700
-21.039500 18.376900
-21.015300 11.955900
-20.991100 136.432700
-20.966900 0.000000
-20.942700 0.000000
-20.918500 0.000000
-20.894200 0.000000
-20.870000 115.862700
-20.845800 34.011200
-20.821600 70.242700
-20.797400 156.816600
-20.773200 115.171700
-20.749000 0.000000
-20.724800 0.000000
-20.700600 0.000000
-20.676400 40.640100
-20.652200 6.649800
-20.628000 0.000000
-20.603800 0.000000
-20.579500 0.000000
-20.555300 234.315100
-20.531100 0.000000
-20.506900 0.000000
-20.482700 0.000000
-20.458500 0.000000
-20.434300 0.000000
-20.410100 0.000000
-20.385900 0.000000
-20.361700 0.000000
-20.337500 0.000000
-20.313300 0.000000
-20.289100 0.000000
-20.264800 0.000000
-20.240600 0.000000
-20.216400 0.000000
-20.192200 0.000000
-20.168000 0.000000
-20.143800 0.000000
-20.119600 0.000000
-20.095400 0.000000
-20.071200 0.000000
-20.047000 0.000000
-20.022800 0.000000
-19.998600 0.000000
-19.974400 0.000000
-19.950100 0.000000
-19.925900 0.000000
-19.901700 0.000000
-19.877500 0.000000
-19.853300 0.000000
-19.829100 0.000000
-19.804900 0.000000
-19.780700 0.000000
-19.756500 0.000000
-19.732300 0.000000
-19.708100 0.000000
-19.683900 0.000000
-19.659700 0.000000
-19.635400 0.000000
-19.611200 0.000000
-19.587000 0.000000
-19.562800 0.000000
-19.538600 0.000000
-19.514400 0.000000
-19.490200 0.000000
-19.466000 0.000000
-19.441800 0.000000
-19.417600 0.000000
-19.393400 0.000000
-19.369200 0.000000
-19.345000 0.000000
-19.320700 0.000000
-19.296500 0.000000
-19.272300 0.000000
-19.248100 0.000000
-19.223900 0.000000
-19.199700 0.000000
-19.175500 0.000000
-19.151300 0.000000
-19.127100 0.000000
-19.102900 0.000000
-19.078700 0.000000
-19.054500 0.000000
-19.030300 0.000000
-19.006000 0.000000
-18.981800 0.000000
-18.957600 0.000000
-18.933400 0.000000
-18.909200 0.000000
-18.885000 0.000000
-18.860800 0.000000
-18.836600 0.000000
-18.812400 0.000000
-18.788200 0.000000
-18.764000 0.000000
-18.739800 0.000000
-18.715600 0.000000
-18.691300 0.000000
-18.667100 0.000000
-18.642900 0.000000
-18.618700 0.000000
-18.594500 0.000000
-18.570300 0.000000
-18.546100 0.000000
-18.521900 0.000000
-18.497700 0.000000
-18.473500 0.000000
-18.449300 0.000000
-18.425100 0.000000
-18.400900 0.000000
-18.376600 0.000000
-18.352400 0.000000
-18.328200 0.000000
-18.304000 0.000000
-18.279800 0.000000
-18.255600 0.000000
-18.231400 0.000000
-18.207200 0.000000
-18.183000 0.000000
-18.158800 0.000000
-18.134600 0.000000
-18.110400 0.000000
-18.086200 0.000000
-18.061900 0.000000
-18.037700 0.000000
-18.013500 0.000000
-17.989300 0.000000
-17.965100 0.000000
-17.940900 0.000000
-17.916700 0.000000
-17.892500 0.000000
-17.868300 0.000000
-17.844100 0.000000
-17.819900 0.000000
-17.795700 0.000000
-17.771500 0.000000
-17.747200 0.000000
-17.723000 0.000000
-17.698800 0.000000
-17.674600 0.000000
-17.650400 0.000000
-17.626200 0.000000
-17.602000 0.000000
-17.577800 0.000000
-17.553600 0.000000
-17.529400 0.000000
-17.505200 0.000000
-17.481000 0.000000
-17.456800 0.000000
-17.432500 0.000000
-17.408300 0.000000
-17.384100 0.000000
-17.359900 0.000000
-17.335700 0.000000
-17.311500 0.000000
-17.287300 0.000000
-17.263100 0.000000
-17.238900 0.000000
-17.214700 0.000000
-17.190500 0.000000
-17.166300 0.000000
-17.142100 0.000000
-17.117800 0.000000
-17.093600 0.000000
-17.069400 0.000000
-17.045200 0.000000
-17.021000 0.000000
-16.996800 0.000000
-16.972600 0.000000
-16.948400 0.000000
-16.924200 0.000000
-16.900000 0.000000
-16.875800 0.000000
-16.851600 0.000000
-16.827400 0.000000
-16.803100 0.000000
-16.778900 0.000000
-16.754700 0.000000
-16.730500 0.000000
-16.706300 0.000000
-16.682100 0.000000
-16.657900 0.000000
-16.633700 0.000000
-16.609500 0.000000
-16.585300 0.000000
-16.561100 0.000000
-16.536900 0.000000
-16.512700 0.000000
-16.488400 0.000000
-16.464200 0.000000
-16.440000 0.000000
-16.415800 0.000000
-16.391600 0.000000
-16.367400 0.000000
-16.343200 0.000000
-16.319000 0.000000
-16.294800 0.000000
-16.270600 0.000000
-16.246400 0.000000
-16.222200 0.000000
-16.198000 0.000000
-16.173700 0.000000
-16.149500 0.000000
-16.125300 0.000000
-16.101100 0.000000
-16.076900 0.000000
-16.052700 0.000000
-16.028500 0.000000
-16.004300 0.000000
-15.980100 0.000000
-15.955900 0.000000
-15.931700 0.000000
-15.907500 0.000000
-15.883300 0.000000
-15.859000 0.000000
-15.834800 0.000000
-15.810600 0.000000
-15.786400 0.000000
-15.762200 0.000000
-15.738000 0.000000
-15.713800 0.000000
-15.689600 0.000000
-15.665400 0.000000
-15.641200 0.000000
-15.617000 0.000000
-15.592800 0.000000
-15.568600 0.000000
-15.544300 0.000000
-15.520100 0.000000
-15.495900 0.000000
-15.471700 0.000000
-15.447500 0.000000
-15.423300 0.000000
-15.399100 0.000000
-15.374900 0.000000
-15.350700 0.000000
-15.326500 0.000000
-15.302300 0.000000
-15.278100 0.000000
-15.253900 0.000000
-15.229600 0.000000
-15.205400 0.000000
-15.181200 0.000000
-15.157000 0.000000
-15.132800 0.000000
-15.108600 0.000000
-15.084400 0.000000
-15.060200 0.000000
-15.036000 0.000000
-15.011800 0.000000
-14.987600 0.000000
-14.963400 0.000000
-14.939200 0.000000
-14.914900 0.000000
-14.890700 0.000000
-14.866500 0.000000
-14.842300 0.000000
-14.818100 0.000000
-14.793900 0.000000
-14.769700 562.129500
-14.745500 0.000000
-14.721300 0.397400
-14.697100 29.209700
-14.672900 34.082700
-14.648700 22.281300
-14.624500 84.807700
-14.600200 5.786800
-14.576000 90.128500
-14.551800 21.615700
-14.527600 40.736900
-14.503400 0.000000
-14.479200 0.000000
-14.455000 0.000000
-14.430800 0.000000
-14.406600 0.000000
-14.382400 0.000000
-14.358200 0.000000
-14.334000 225.122900
-14.309800 14.460300
-14.285500 32.700500
-14.261300 64.683400
-14.237100 8.796700
-14.212900 56.354100
-14.188700 18.328000
-14.164500 35.420700
-14.140300 42.863800
-14.116100 9.825400
-14.091900 0.674200
-14.067700 0.000000
-14.043500 0.000000
-14.019300 0.000000
-13.995100 0.000000
-13.970800 0.000000
-13.946600 0.000000
-13.922400 0.000000
-13.898200 0.000000
-13.874000 0.000000
-13.849800 0.000000
-13.825600 0.000000
-13.801400 0.000000
-13.777200 0.000000
-13.753000 0.000000
-13.728800 0.000000
-13.704600 0.000000
-13.680400 0.000000
-13.656100 0.000000
-13.631900 0.000000
-13.607700 0.000000
-13.583500 0.000000
-13.559300 0.000000
-13.535100 0.000000
-13.510900 0.000000
-13.486700 0.000000
-13.462500 0.000000
-13.438300 0.000000
-13.414100 0.000000
-13.389900 0.000000
-13.365700 0.000000
-13.341400 0.000000
-13.317200 0.000000
-13.293000 0.000000
-13.268800 0.000000
-13.244600 0.000000
-13.220400 0.000000
-13.196200 0.000000
-13.172000 0.000000
-13.147800 0.000000
-13.123600 0.000000
-13.099400 0.000000
-13.075200 0.000000
-13.051000 0.000000
-13.026700 0.000000
-13.002500 0.000000
-12.978300 0.000000
-12.954100 0.000000
-12.929900 0.000000
-12.905700 0.000000
-12.881500 0.000000
-12.857300 0.000000
-12.833100 0.000000
-12.808900 0.000000
-12.784700 0.000000
-12.760500 0.000000
-12.736300 0.000000
-12.712000 0.000000
-12.687800 0.000000
-12.663600 0.000000
-12.639400 0.000000
-12.615200 0.000000
-12.591000 0.000000
-12.566800 0.000000
-12.542600 0.000000
-12.518400 0.000000
-12.494200 0.000000
-12.470000 0.000000
-12.445800 0.000000
-12.421600 0.000000
-12.397300 0.000000
-12.373100 0.000000
-12.348900 0.000000
-12.324700 0.000000
-12.300500 0.000000
-12.276300 0.000000
-12.252100 0.000000
-12.227900 0.000000
-12.203700 0.000000
-12.179500 0.000000
-12.155300 0.000000
-12.131100 0.000000
-12.106900 0.000000
-12.082600 0.000000
-12.058400 0.000000
-12.034200 0.000000
-12.010000 0.000000
-11.985800 0.000000
-11.961600 0.000000
-11.937400 0.000000
-11.913200 0.000000
-11.889000 0.000000
-11.864800 0.000000
-11.840600 0.000000
-11.816400 0.000000
-11.792200 0.000000
-11.767900 0.000000
-11.743700 0.000000
-11.719500 0.000000
-11.695300 0.000000
-11.671100 0.000000
-11.646900 0.000000
-11.622700 0.000000
-11.598500 0.000000
-11.574300 0.000000
-11.550100 0.000000
-11.525900 0.000000
-11.501700 0.000000
-11.477500 0.000000
-11.453200 0.000000
-11.429000 0.000000
-11.404800 0.000000
-11.380600 0.000000
-11.356400 0.000000
-11.332200 0.000000
-11.308000 0.000000
-11.283800 0.000000
-11.259600 0.000000
-11.235400 0.000000
-11.211200 0.000000
-11.187000 0.000000
-11.162800 0.000000
-11.138500 0.000000
-11.114300 0.000000
-11.090100 0.000000
-11.065900 0.000000
-11.041700 0.000000
-11.017500 0.000000
-10.993300 0.000000
-10.969100 0.000000
-10.944900 0.000000
-10.920700 0.000000
-10.896500 0.000000
-10.872300 0.000000
-10.848100 0.000000
-10.823800 0.000000
-10.799600 0.000000
-10.775400 0.000000
-10.751200 0.000000
-10.727000 0.000000
-10.702800 0.000000
-10.678600 0.000000
-10.654400 0.000000
-10.630200 0.000000
-10.606000 0.000000
-10.581800 0.000000
-10.557600 0.000000
-10.533400 0.000000
-10.509100 0.000000
-10.484900 0.000000
-10.460700 0.000000
-10.436500 0.000000
-10.412300 0.000000
-10.388100 0.000000
-10.363900 0.000000
-10.339700 0.000000
-10.315500 0.000000
-10.291300 0.000000
-10.267100 0.000000
-10.242900 0.000000
-10.218700 0.000000
-10.194400 0.000000
-10.170200 0.000000
-10.146000 0.000000
-10.121800 0.000000
-10.097600 0.000000
-10.073400 0.000000
-10.049200 0.000000
-10.025000 0.000000
-10.000800 0.000000
-9.976600 0.000000
-9.952400 0.000000
-9.928200 0.000000
-9.904000 0.000000
-9.879700 0.000000
-9.855500 0.000000
-9.831300 0.000000
-9.807100 0.000000
-9.782900 0.000000
-9.758700 0.000000
-9.734500 0.000000
-9.710300 0.000000
-9.686100 0.000000
-9.661900 0.000000
-9.637700 0.000000
-9.613500 0.000000
-9.589300 0.000000
-9.565000 0.000000
-9.540800 0.000000
-9.516600 0.000000
-9.492400 0.000000
-9.468200 0.000000
-9.444000 0.000000
-9.419800 0.000000
-9.395600 0.000000
-9.371400 0.000000
-9.347200 0.000000
-9.323000 0.000000
-9.298800 0.000000
-9.274600 0.000000
-9.250300 0.000000
-9.226100 0.000000
-9.201900 0.000000
-9.177700 0.000000
-9.153500 0.000000
-9.129300 0.000000
-9.105100 0.000000
-9.080900 0.000000
-9.056700 0.000000
-9.032500 0.000000
-9.008300 0.000000
-8.984100 0.000000
-8.959900 0.000000
-8.935600 0.000000
-8.911400 0.000000
-8.887200 0.000000
-8.863000 0.000000
-8.838800 0.000000
-8.814600 0.000000
-8.790400 0.000000
-8.766200 0.000000
-8.742000 0.000000
-8.717800 0.000000
-8.693600 0.000000
-8.669400 0.000000
-8.645200 0.000000
-8.620900 0.000000
-8.596700 0.000000
-8.572500 0.000000
-8.548300 0.000000
-8.524100 0.000000
-8.499900 0.000000
-8.475700 0.000000
-8.451500 0.000000
-8.427300 0.000000
-8.403100 0.000000
-8.378900 0.000000
-8.354700 0.000000
-8.330500 0.000000
-8.306200 0.000000
-8.282000 0.000000
-8.257800 0.000000
-8.233600 0.000000
-8.209400 0.000000
-8.185200 0.000000
-8.161000 0.000000
-8.136800 0.000000
-8.112600 0.000000
-8.088400 0.000000
-8.064200 0.000000
-8.040000 0.000000
-8.015800 0.000000
-7.991500 0.000000
-7.967300 0.000000
-7.943100 0.000000
-7.918900 0.000000
-7.894700 0.000000
-7.870500 0.000000
-7.846300 0.000000
-7.822100 0.000000
-7.797900 0.000000
-7.773700 0.000000
-7.749500 0.000000
-7.725300 0.000000
-7.701100 0.000000
-7.676800 0.000000
-7.652600 0.000000
-7.628400 0.000000
-7.604200 0.000000
-7.580000 0.000000
-7.555800 0.000000
-7.531600 0.001500
-7.507400 0.035800
-7.483200 0.115700
-7.459000 0.241100
-7.434800 0.412000
-7.410600 0.710700
-7.386400 1.044100
-7.362100 1.391700
-7.337900 1.725300
-7.313700 1.999000
-7.289500 2.212800
-7.265300 2.415200
-7.241100 2.305700
-7.216900 2.200700
-7.192700 2.205200
-7.168500 2.354700
-7.144300 2.705500
-7.120100 3.061500
-7.095900 4.571300
-7.071700 6.172800
-7.047400 7.793000
-7.023200 10.241900
-6.999000 11.231400
-6.974800 11.437100
-6.950600 9.488900
-6.926400 9.262000
-6.902200 4.861200
-6.878000 6.032100
-6.853800 7.376000
-6.829600 15.565000
-6.805400 28.547900
-6.781200 3.274100
-6.757000 2.569100
-6.732700 1.939800
-6.708500 1.386200
-6.684300 0.908300
-6.660100 0.506100
-6.635900 0.000000
-6.611700 0.000000
-6.587500 0.000000
-6.563300 0.000000
-6.539100 0.000000
-6.514900 0.000000
-6.490700 0.000000
-6.466500 0.000000
-6.442300 0.000000
-6.418000 0.000000
-6.393800 0.000000
-6.369600 0.000000
-6.345400 0.000000
-6.321200 0.000000
-6.297000 0.000000
-6.272800 0.000000
-6.248600 0.000000
-6.224400 0.000000
-6.200200 0.000000
-6.176000 0.000000
-6.151800 0.000000
-6.127600 0.000000
-6.103300 0.349100
-6.079100 0.587600
-6.054900 0.866500
-6.030700 1.190800
-6.006500 1.601800
-5.982300 2.108800
-5.958100 6.573100
-5.933900 9.782800
-5.909700 13.570100
-5.885500 13.807400
-5.861300 8.219700
-5.837100 6.682900
-5.812900 3.092000
-5.788600 2.682700
-5.764400 2.308100
-5.740200 2.674900
-5.716000 3.058400
-5.691800 3.387000
-5.667600 3.268100
-5.643400 3.180600
-5.619200 3.124300
-5.595000 3.312500
-5.570800 3.103100
-5.546600 2.936700
-5.522400 2.946600
-5.498200 3.921300
-5.473900 3.836000
-5.449700 3.758000
-5.425500 3.687300
-5.401300 3.623900
-5.377100 3.567900
-5.352900 2.955600
-5.328700 2.806200
-5.304500 2.649200
-5.280300 2.484400
-5.256100 2.312000
-5.231900 2.131800
-5.207700 1.635700
-5.183500 1.561700
-5.159200 1.486400
-5.135000 1.977300
-5.110800 1.891400
-5.086600 1.804200
-5.062400 1.633400
-5.038200 1.365900
-5.014000 1.114600
-4.989800 0.936000
-4.965600 0.782100
-4.941400 0.653000
-4.917200 0.562600
-4.893000 0.520200
-4.868800 0.479100
-4.844500 0.439200
-4.820300 0.400500
-4.796100 0.363100
-4.771900 0.326800
-4.747700 0.291800
-4.723500 0.258000
-4.699300 0.225400
-4.675100 0.194100
-4.650900 0.163900
-4.626700 0.149400
-4.602500 0.139400
-4.578300 0.129700
-4.554100 0.120300
-4.529800 0.111300
-4.505600 0.102700
-4.481400 0.094400
-4.457200 0.086400
-4.433000 0.078800
-4.408800 0.071600
-4.384600 0.064700
-4.360400 0.058100
-4.336200 0.051900
-4.312000 0.046100
-4.287800 0.040600
-4.263600 0.035400
-4.239400 0.030600
-4.215100 0.026200
-4.190900 0.022100
-4.166700 0.018300
-4.142500 0.014900
-4.118300 0.011800
-4.094100 0.009100
-4.069900 0.006800
-4.045700 0.004800
-4.021500 0.003100
-3.997300 0.558600
-3.973100 7.785500
-3.948900 20.684100
-3.924700 32.633800
-3.900400 10.283600
-3.876200 10.095600
-3.852000 11.633400
-3.827800 14.423600
-3.803600 20.146700
-3.779400 24.038500
-3.755200 15.140600
-3.731000 0.000000
-3.706800 1.195100
-3.682600 3.390000
-3.658400 6.278400
-3.634200 17.543800
-3.610000 23.428900
-3.585700 8.021800
-3.561500 7.415100
-3.537300 7.426100
-3.513100 7.164900
-3.488900 8.982400
-3.464700 7.805000
-3.440500 8.807800
-3.416300 10.711000
-3.392100 18.771600
-3.367900 24.967100
-3.343700 15.312800
-3.319500 13.095800
-3.295300 11.102700
-3.271000 10.497700
-3.246800 10.418700
-3.222600 9.487100
-3.198400 6.276500
-3.174200 2.642900
-3.150000 1.807400
-3.125800 1.214100
-3.101600 0.863100
-3.077400 0.948900
-3.053200 1.002400
-3.029000 2.942000
-3.004800 3.790100
-2.980600 4.792200
-2.956300 5.951300
-2.932100 6.155600
-2.907900 7.639400
-2.883700 8.379700
-2.859500 8.972400
-2.835300 7.044300
-2.811100 6.458000
-2.786900 5.380100
-2.762700 4.469200
-2.738500 4.154300
-2.714300 4.405500
-2.690100 4.531800
-2.665900 4.904600
-2.641600 5.527500
-2.617400 7.988900
-2.593200 20.825100
-2.569000 15.295500
-2.544800 17.225000
-2.520600 21.513300
-2.496400 23.881100
-2.472200 23.864700
-2.448000 19.311400
-2.423800 18.523100
-2.399600 33.492600
-2.375400 24.833100
-2.351200 39.632200
-2.326900 41.784400
-2.302700 10.124000
-2.278500 51.892300
-2.254300 17.712700
-2.230100 38.269600
-2.205900 26.829000
-2.181700 15.203000
-2.157500 12.861000
-2.133300 26.093200
-2.109100 31.785800
-2.084900 17.989200
-2.060700 14.134600
-2.036500 42.743200
-2.012200 38.525700
-1.988000 24.756200
-1.963800 30.158200
-1.939600 20.299000
-1.915400 18.250200
-1.891200 24.545400
-1.867000 27.276400
-1.842800 44.255800
-1.818600 17.439800
-1.794400 61.385100
-1.770200 29.636300
-1.746000 24.905100
-1.721800 62.365500
-1.697500 46.599500
-1.673300 35.797000
-1.649100 120.526200
-1.624900 20.516000
-1.600700 31.583300
-1.576500 21.411800
-1.552300 25.379700
-1.528100 52.822400
-1.503900 35.677300
-1.479700 37.470900
-1.455500 30.523400
-1.431300 73.812100
-1.407100 30.433400
-1.382800 29.879300
-1.358600 54.257400
-1.334400 41.587500
-1.310200 74.161000
-1.286000 20.943500
-1.261800 4.527800
-1.237600 33.047200
-1.213400 22.341400
-1.189200 12.785600
-1.165000 87.655900
-1.140800 72.251900
-1.116600 36.891600
-1.092400 70.240000
-1.068100 25.079500
-1.043900 13.227600
-1.019700 2.813300
-0.995500 0.971000
-0.971300 1.901700
-0.947100 2.222700
-0.922900 2.472900
-0.898700 2.655400
-0.874500 2.452800
-0.850300 2.339100
-0.826100 2.250600
-0.801900 2.187400
-0.777700 2.149500
-0.753400 2.136900
-0.729200 2.326000
-0.705000 2.607400
-0.680800 2.867500
-0.656600 3.106300
-0.632400 3.347400
-0.608200 3.631100
-0.584000 3.907000
-0.559800 10.877600
-0.535600 8.036700
-0.511400 7.093500
-0.487200 9.436300
-0.463000 6.930900
-0.438700 1.336400
-0.414500 5.127000
-0.390300 3.695600
-0.366100 4.257700
-0.341900 4.811000
-0.317700 5.225400
-0.293500 5.579400
-0.269300 5.900900
-0.245100 6.190000
-0.220900 5.902400
-0.196700 5.782700
-0.172500 5.805000
-0.148300 5.075400
-0.124000 3.698000
-0.099800 3.126300
-0.075600 1.876700
-0.051400 1.498600
-0.027200 1.156800
-0.003000 0.851200
0.021200 0.581900
0.045400 0.348900
0.069600 0.152200
0.093800 0.000000
0.118000 0.000000
0.142200 0.000000
0.166400 0.000000
0.190700 0.000000
0.214900 0.000000
0.239100 0.000000
0.263300 0.000000
0.287500 0.000000
0.311700 0.000000
0.335900 0.000000
0.360100 0.000000
0.384300 0.000000
0.408500 0.000000
0.432700 0.000000
0.456900 0.000000
0.481100 0.000000
0.505400 0.000000
0.529600 0.000000
0.553800 0.000000
0.578000 0.000000
0.602200 0.000000
0.626400 0.000000
0.650600 0.000000
0.674800 0.000000
0.699000 0.000000
0.723200 0.000000
0.747400 0.000000
0.771600 0.000000
0.795800 0.000000
0.820100 0.000000
0.844300 0.000000
0.868500 0.000000
0.892700 0.000000
0.916900 0.000000
0.941100 0.000000
0.965300 0.000000
0.989500 0.000000
1.013700 0.000000
1.037900 0.000000
1.062100 0.000000
1.086300 0.000000
1.110500 0.000000
1.134800 0.000000
1.159000 0.000000
1.183200 0.000000
1.207400 0.000000
1.231600 0.000000
1.255800 0.000000
1.280000 0.000000
1.304200 0.000000
1.328400 0.000000
1.352600 0.000000
1.376800 0.000000
1.401000 0.000000
1.425200 0.000000
1.449500 0.000000
1.473700 0.000000
1.497900 0.000000
1.522100 0.000000
1.546300 0.000000
1.570500 0.000000
1.594700 0.000000
1.618900 0.000000
1.643100 0.000000
1.667300 0.000000
1.691500 0.000000
1.715700 0.000000
1.739900 0.000000
1.764200 0.000000
1.788400 0.000000
1.812600 0.000000
1.836800 0.000000
1.861000 0.000000
1.885200 0.000000
1.909400 0.000000
1.933600 0.000000
1.957800 0.000000
1.982000 0.000000
2.006200 0.000000
2.030400 0.000000
2.054600 0.000000
2.078900 0.000000
2.103100 0.000000
2.127300 0.000000
2.151500 0.000000
2.175700 0.000000
2.199900 0.681100
2.224100 1.780700
2.248300 3.261000
2.272500 4.953700
2.296700 6.373200
2.320900 17.008600
2.345100 6.972000
2.369300 5.922100
2.393600 5.507500
2.417800 5.202800
2.442000 4.740000
2.466200 4.231900
2.490400 3.753900
2.514600 3.305700
2.538800 4.423600
2.563000 4.308500
2.587200 4.323200
2.611400 3.459200
2.635600 2.848900
2.659800 2.661700
2.684000 2.922000
2.708300 3.182800
2.732500 3.444200
2.756700 4.700100
2.780900 5.690000
2.805100 6.362500
2.829300 6.496400
2.853500 7.358900
2.877700 7.459800
2.901900 7.178300
2.926100 5.708900
2.950300 3.602500
2.974500 1.174600
2.998700 1.017900
3.023000 0.866000
3.047200 0.718800
3.071400 0.576400
3.095600 0.438700
3.119800 0.305800
3.144000 0.223000
3.168200 0.169700
3.192400 0.123600
3.216600 0.084900
3.240800 0.053400
3.265000 0.029200
3.289200 0.012200
3.313400 0.002500
3.337700 0.000000
3.361900 0.000000
3.386100 0.000000
3.410300 0.000000
3.434500 0.000000
3.458700 0.000000
3.482900 0.000000
3.507100 0.000000
3.531300 0.000000
3.555500 0.000000
3.579700 0.000000
3.603900 0.000000
3.628100 0.000000
3.652400 0.000000
3.676600 0.000000
3.700800 0.000000
3.725000 0.000000
3.749200 0.000000
3.773400 0.000000
3.797600 0.000000
3.821800 0.000000
3.846000 0.000000
3.870200 0.000000
3.894400 0.000000
3.918600 0.000000
3.942800 0.000000
3.967100 0.000000
3.991300 0.000000
4.015500 0.000000
4.039700 0.000000
4.063900 0.000000
4.088100 0.000000
4.112300 0.000000
4.136500 0.000000
4.160700 0.000000
4.184900 0.000000
4.209100 0.000000
4.233300 0.000000
4.257500 0.000000
4.281800 0.000000
4.306000 0.000000
4.330200 0.000000
4.354400 0.000000
4.378600 0.000000
4.402800 0.000000
4.427000 0.000000
4.451200 0.000000
4.475400 0.000000
4.499600 0.000000
4.523800 0.000000
4.548000 0.000000
4.572200 0.000000
4.596500 0.000000
4.620700 0.000000
4.644900 0.000000
4.669100 0.000000
4.693300 0.000000
4.717500 0.000000
4.741700 0.000000
4.765900 0.000000
4.790100 0.000000
4.814300 0.000000
4.838500 0.000000
4.862700 0.000000
4.886900 0.000000
4.911200 0.000000
4.935400 0.000000
4.959600 0.000000
4.983800 0.000000
5.008000 0.000000
5.032200 0.000000
5.056400 0.000000
5.080600 0.000000
5.104800 0.000000
5.129000 0.000000
5.153200 0.000000
5.177400 0.000000
5.201600 0.000000
5.225900 0.000000
5.250100 0.000000
5.274300 0.000000
5.298500 0.000000
5.322700 0.000000
5.346900 0.000000
5.371100 0.000000
5.395300 0.000000
5.419500 0.000000
5.443700 0.000000
5.467900 0.000000
5.492100 0.000000
5.516300 0.000000
5.540600 0.000000
5.564800 0.000000
5.589000 0.000000
5.613200 0.000000
5.637400 0.000000
5.661600 0.000000
5.685800 0.000000
5.710000 0.000000
5.734200 0.000000
5.758400 0.081800
5.782600 0.403400
5.806800 0.775900
5.831000 1.199100
5.855300 1.700600
5.879500 2.220400
5.903700 2.748900
5.927900 3.285900
5.952100 3.831500
5.976300 4.385700
6.000500 7.552900
6.024700 8.563800
6.048900 7.431700
6.073100 6.775100
6.097300 6.102100
6.121500 5.412800
6.145700 3.313300
6.170000 2.801300
6.194200 2.397600
6.218400 2.281800
6.242600 2.103500
6.266800 1.862900
6.291000 1.203500
6.315200 1.037100
6.339400 6.598600
6.363600 8.024600
6.387800 9.591500
6.412000 11.313600
6.436200 9.846200
6.460400 10.122000
6.484700 7.296700
6.508900 5.249300
6.533100 8.214200
6.557300 9.516900
6.581500 11.621600
6.605700 13.928500
6.629900 13.373800
6.654100 9.268700
6.678300 8.682000
6.702500 8.985500
6.726700 10.275900
6.750900 6.089800
6.775100 7.952300
6.799400 8.400800
6.823600 8.913700
6.847800 5.988200
6.872000 5.912200
6.896200 5.820500
6.920400 6.840600
6.944600 7.147200
6.968800 8.124300
6.993000 8.055400
7.017200 9.293700
7.041400 8.332600
7.065600 8.207300
7.089800 12.003400
7.114100 9.799700
7.138300 9.703000
7.162500 9.448500
7.186700 7.857400
7.210900 6.846200
7.235100 6.453100
7.259300 6.249200
7.283500 6.221700
7.307700 6.830600
7.331900 7.637800
7.356100 7.802400
7.380300 8.456900
7.404500 9.088300
7.428800 8.087300
7.453000 6.317300
7.477200 4.817300
7.501400 3.306800
7.525600 2.079800
7.549800 0.962100
7.574000 0.000500
7.598200 0.000000
7.622400 0.000000
7.646600 0.000000
7.670800 0.000000
7.695000 0.000000
7.719200 0.000000
7.743500 0.000000
7.767700 0.000000
7.791900 0.000000
7.816100 0.000000
7.840300 0.000000
7.864500 0.000000
7.888700 0.000000
7.912900 0.000000
7.937100 0.000000
7.961300 0.000000
7.985500 0.000000
8.009700 0.000000
8.033900 0.000000
8.058200 0.000000
8.082400 0.000000
8.106600 0.000000
8.130800 0.000000
8.155000 0.000000
8.179200 0.000000
8.203400 0.000000
8.227600 0.000000
8.251800 0.000000
8.276000 0.000000
8.300200 0.000000
8.324400 0.000000
8.348600 0.000000
8.372900 0.000000
8.397100 0.000000
8.421300 0.000000
8.445500 0.000000
8.469700 0.000000
8.493900 0.000000
8.518100 0.000000
8.542300 0.000000
8.566500 0.000000
8.590700 0.000000
8.614900 0.000000
8.639100 0.002200
8.663300 0.010800
8.687600 0.025700
8.711800 0.047100
8.736000 0.074900
8.760200 0.109000
8.784400 0.170800
8.808600 0.292600
8.832800 0.456900
8.857000 0.641600
8.881200 0.847000
8.905400 1.072800
8.929600 1.319300
8.953800 1.586300
8.978000 1.873800
9.002300 2.181900
9.026500 2.510500
9.050700 2.859700
9.074900 3.966000
9.099100 9.476800
9.123300 16.076400
9.147500 14.245000
9.171700 14.342700
9.195900 12.261400
9.220100 2.238300
9.244300 4.060100
9.268500 5.439700
9.292700 6.279100
9.317000 7.280700
9.341200 8.059600
9.365400 8.615600
9.389600 9.286500
9.413800 10.686800
9.438000 8.845900
9.462200 8.041100
9.486400 4.875900
9.510600 4.463200
9.534800 4.109200
9.559000 3.813600
9.583200 3.576600
9.607400 4.307700
9.631700 4.116800
9.655900 4.189300
9.680100 4.344500
9.704300 4.546300
9.728500 6.764100
9.752700 8.281900
9.776900 9.289800
9.801100 19.827800
9.825300 14.654400
9.849500 15.442700
9.873700 9.821600
9.897900 18.313000
9.922100 17.501300
9.946400 16.271500
9.970600 14.416700
9.994800 12.768000
10.019000 9.435100
10.043200 7.235100
10.067400 4.630700
10.091600 3.966000
10.115800 9.663500
10.140000 8.374200
10.164200 8.392100
10.188400 11.086500
10.212600 10.487200
10.236800 9.180700
10.261100 4.373600
10.285300 4.088900
10.309500 3.811700
10.333700 3.542200
10.357900 4.429100
10.382100 4.416900
10.406300 3.569900
10.430500 2.335200
10.454700 1.675500
10.478900 1.353600
10.503100 1.090100
10.527300 0.851900
10.551500 0.620400
10.575800 0.389500
10.600000 0.162200
10.624200 0.055700
10.648400 0.022800
10.672600 0.038700
10.696800 0.055800
10.721000 0.072900
10.745200 0.090000
10.769400 0.107100
10.793600 0.124200
10.817800 0.141300
10.842000 0.158400
10.866200 0.175500
10.890500 0.192600
10.914700 0.209700
10.938900 0.226800
10.963100 0.243900
10.987300 0.260900
11.011500 0.278000
11.035700 0.295100
11.059900 0.312200
11.084100 0.329300
11.108300 0.346300
11.132500 0.363400
11.156700 0.380500
11.180900 0.397600
11.205200 0.414600
11.229400 0.431700
11.253600 0.448800
11.277800 0.465900
11.302000 0.482900
11.326200 0.547800
11.350400 0.783300
11.374600 1.006600
11.398800 1.164100
11.423000 1.334000
11.447200 1.516400
11.471400 1.710400
11.495600 1.904400
11.519900 2.094300
11.544100 2.135000
11.568300 2.315700
11.592500 2.530600
11.616700 2.721000
11.640900 2.919500
11.665100 3.126000
11.689300 3.340500
11.713500 3.738700
11.737700 3.962900
11.761900 4.225900
11.786100 4.507100
11.810300 4.812600
11.834600 5.196900
11.858800 5.680700
11.883000 6.089700
11.907200 6.049300
11.931400 6.280800
11.955600 7.105000
11.979800 7.109600
12.004000 7.144700
12.028200 7.213600
12.052400 7.413200
12.076600 7.427500
12.100800 7.495500
12.125000 7.555600
12.149300 7.582400
12.173500 7.566700
12.197700 7.921100
12.221900 7.886900
12.246100 7.795100
12.270300 7.562000
12.294500 7.248300
12.318700 6.940400
12.342900 6.638700
12.367100 6.170800
12.391300 5.982500
12.415500 5.796800
12.439700 5.632700
12.464000 5.510400
12.488200 4.987100
12.512400 4.640000
12.536600 4.282700
12.560800 3.660600
12.585000 3.713300
12.609200 3.756700
12.633400 3.783600
12.657600 3.836700
12.681800 3.916200
12.706000 4.196700
12.730200 4.270200
12.754400 4.320400
12.778700 4.347600
12.802900 4.370900
12.827100 4.400900
12.851300 4.437600
12.875500 4.843600
12.899700 5.100500
12.923900 5.338500
12.948100 5.551900
12.972300 5.272500
12.996500 5.342900
13.020700 5.760600
13.044900 6.030600
13.069100 5.276700
13.093400 5.432200
13.117600 6.536300
13.141800 6.073600
13.166000 5.659000
13.190200 5.516900
13.214400 5.692300
13.238600 5.964500
13.262800 6.206700
13.287000 6.418800
13.311200 6.600800
13.335400 14.072900
13.359600 5.270700
13.383800 6.393100
13.408100 6.993000
13.432300 23.075300
13.456500 4.140800
13.480700 4.734900
13.504900 5.365100
13.529100 6.031300
13.553300 9.613700
13.577500 8.328700
13.601700 7.179300
13.625900 7.019100
13.650100 6.433800
13.674300 7.777300
13.698500 7.980000
13.722800 6.115400
13.747000 4.770800
13.771200 1.669500
13.795400 1.608600
13.819600 1.547900
13.843800 1.487300
13.868000 1.426900
13.892200 4.624300
13.916400 5.195800
13.940600 5.717200
13.964800 6.188700
13.989000 5.846200
14.013200 6.890100
14.037500 8.669500
14.061700 9.006200
14.085900 8.897900
14.110100 13.638800
14.134300 13.080500
14.158500 12.104600
14.182700 10.199200
14.206900 8.850600
14.231100 8.621600
14.255300 7.635000
14.279500 7.919500
14.303700 9.617100
14.327900 10.691100
14.352200 11.448800
14.376400 11.231900
14.400600 10.760600
14.424800 8.942400
14.449000 8.303300
14.473200 7.277700
14.497400 6.270200
14.521600 5.184300
14.545800 4.691000
14.570000 4.385400
14.594200 4.572600
14.618400 4.768600
14.642600 5.292100
14.666900 8.569500
14.691100 10.313300
14.715300 12.533400
14.739500 12.163500
14.763700 11.187000
14.787900 9.115600
14.812100 7.125700
14.836300 6.597600
14.860500 5.621900
14.884700 5.874200
14.908900 7.895900
14.933100 9.057900
14.957300 10.066300
14.981600 10.418800
15.005800 16.226200
15.030000 11.735700
15.054200 11.349500
15.078400 11.273400
15.102600 10.897400
15.126800 10.498200
15.151000 9.984600
15.175200 8.179100
15.199400 7.958800
15.223600 7.663000
15.247800 7.331600
15.272000 6.859100
15.296300 7.414900
15.320500 7.861000
15.344700 8.629900
15.368900 9.216300
15.393100 9.475100
15.417300 8.413300
15.441500 8.601000
15.465700 9.182000
15.489900 7.480500
15.514100 6.370500
15.538300 6.362000
15.562500 6.328800
15.586700 6.932900
15.611000 6.988200
15.635200 6.962800
15.659400 6.845000
15.683600 26.104600
15.707800 5.644000
15.732000 5.931000
15.756200 6.130400
15.780400 6.004000
15.804600 6.754900
15.828800 6.492900
15.853000 6.317800
15.877200 6.229600
15.901400 6.228300
15.925700 6.357200
15.949900 6.815400
15.974100 7.225200
15.998300 8.331100
16.022500 9.300000
16.046700 8.423600
16.070900 7.747000
16.095100 7.213800
16.119300 6.248300
16.143500 6.139300
16.167700 5.859600
16.191900 4.714800
16.216100 6.703500
16.240400 7.417100
16.264600 8.325800
16.288800 11.237000
16.313000 9.545800
16.337200 5.055300
16.361400 4.061800
16.385600 3.173600
16.409800 2.084800
16.434000 2.123400
16.458200 2.276100
16.482400 2.846900
16.506600 4.141400
16.530800 5.723500
16.555100 14.595400
16.579300 11.720000
16.603500 6.930600
16.627700 6.611800
16.651900 6.243300
16.676100 5.487200
16.700300 4.641900
16.724500 3.707300
16.748700 2.683200
16.772900 1.719300
16.797100 1.637900
16.821300 1.699100
16.845500 1.965300
16.869800 2.144700
16.894000 21.400900
16.918200 15.366200
16.942400 10.192500
16.966600 5.740300
16.990800 4.459400
17.015000 2.907300
17.039200 23.198500
17.063400 6.290200
17.087600 6.691100
17.111800 7.750600
17.136000 6.762000
17.160200 4.003400
17.184500 4.928500
17.208700 6.053000
17.232900 7.303100
17.257100 6.669900
17.281300 5.817900
17.305500 5.002800
17.329700 4.224700
17.353900 3.904700
17.378100 3.833400
17.402300 3.761400
17.426500 3.688600
17.450700 3.594800
17.474900 3.550000
17.499200 3.557700
17.523400 3.572600
17.547600 5.437700
17.571800 5.469700
17.596000 4.059300
17.620200 4.573100
17.644400 4.630400
17.668600 4.692700
17.692800 4.760300
17.717000 4.832900
17.741200 4.910700
17.765400 4.578300
17.789600 4.747000
17.813900 4.851300
17.838100 4.958000
17.862300 6.193500
17.886500 5.954600
17.910700 6.152400
17.934900 6.522200
17.959100 6.784900
17.983300 7.068500
18.007500 7.696500
18.031700 8.039100
18.055900 8.397200
18.080100 8.494800
18.104300 8.608900
18.128600 8.530800
18.152800 7.751500
18.177000 7.791600
18.201200 7.943000
18.225400 8.144200
18.249600 7.917800
18.273800 7.091800
18.298000 6.841700
18.322200 6.709100
18.346400 6.536600
18.370600 6.327400
18.394800 6.097500
18.419000 6.085500
18.443300 5.930200
18.467500 5.607000
18.491700 5.116000
18.515900 4.627100
18.540100 4.295300
18.564300 4.089500
18.588500 4.975600
18.612700 6.051300
18.636900 5.699100
18.661100 6.120500
18.685300 6.367700
18.709500 6.398200
18.733700 6.410900
18.758000 6.525100
18.782200 6.775100
18.806400 6.955800
18.830600 7.669800
18.854800 6.870700
18.879000 6.988400
18.903200 7.115000
18.927400 7.245800
18.951600 7.288700
18.975800 7.253700
19.000000 7.200800
19.024200 7.133400
19.048400 7.113700
19.072700 7.140200
19.096900 7.166900
19.121100 7.185100
19.145300 7.179300
19.169500 7.959300
19.193700 7.958900
19.217900 8.223300
19.242100 7.890100
19.266300 8.131400
19.290500 8.415800
19.314700 7.800100
19.338900 7.592600
19.363100 7.241700
19.387400 6.971700
19.411600 6.733500
19.435800 6.523300
19.460000 6.077900
19.484200 6.171900
19.508400 5.806300
19.532600 5.885200
19.556800 5.886400
19.581000 5.924600
19.605200 5.951400
19.629400 6.741900
19.653600 6.867000
19.677800 7.014000
19.702100 7.182900
19.726300 8.477000
19.750500 8.680900
19.774700 9.462300
19.798900 10.094800
19.823100 10.186700
19.847300 10.511800
19.871500 11.289700
19.895700 10.403500
19.919900 10.387800
19.944100 9.799700
19.968300 9.253500
19.992500 8.529200
20.016800 8.458500
20.041000 8.325100
20.065200 8.215500
20.089400 8.135900
20.113600 8.057300
20.137800 8.756600
20.162000 8.952400
20.186200 8.564500
20.210400 8.484700
20.234600 8.394600
20.258800 8.294200
20.283000 8.335500
20.307200 8.563700
20.331500 9.042900
20.355700 8.593100
20.379900 9.141500
20.404100 8.873700
20.428300 9.115100
20.452500 9.542800
20.476700 11.420500
20.500900 14.245300
20.525100 11.127200
20.549300 15.054800
20.573500 13.221500
20.597700 11.440000
20.621900 7.410600
20.646200 3.250300
20.670400 2.519200
20.694600 5.143300
20.718800 12.021900
20.743000 19.666800
20.767200 15.497900
20.791400 14.327500
20.815600 14.471100
20.839800 13.390900
20.864000 12.350900
20.888200 9.227600
20.912400 7.223900
20.936600 6.489200
20.960900 5.830100
20.985100 8.526600
21.009300 8.577700
21.033500 8.556400
21.057700 8.795300
21.081900 9.918400
21.106100 8.556200
21.130300 9.321300
21.154500 10.182000
21.178700 10.993900
21.202900 10.811400
21.227100 14.675300
21.251300 15.369500
21.275600 11.854500
21.299800 8.396300
21.324000 4.913100
21.348200 4.778900
21.372400 6.529600
21.396600 13.442700
21.420800 14.278300
21.445000 15.014800
21.469200 16.227600
21.493400 16.642900
21.517600 15.600700
21.541800 13.851600
21.566000 11.376200
21.590300 7.761300
21.614500 6.729600
21.638700 6.339800
21.662900 5.888500
21.687100 20.575200
21.711300 10.779700
21.735500 10.024600
21.759700 9.493800
21.783900 8.916400
21.808100 8.410000
21.832300 10.132200
21.856500 8.651000
21.880700 12.805700
21.905000 12.726400
21.929200 12.566600
21.953400 12.394600
21.977600 11.881200
22.001800 9.815800
22.026000 9.264900
22.050200 9.230500
22.074400 10.732700
22.098600 12.459000
22.122800 14.432400
22.147000 14.032500
22.171200 10.452100
22.195400 22.502300
22.219700 20.398400
22.243900 18.603300
22.268100 16.875600
22.292300 13.076800
22.316500 11.711700
22.340700 13.850600
22.364900 17.308500
22.389100 18.158300
22.413300 11.088400
22.437500 11.985100
22.461700 12.579800
22.485900 12.396000
22.510100 11.426900
22.534400 10.528000
22.558600 11.082800
22.582800 8.705900
22.607000 8.666400
22.631200 7.918600
22.655400 6.237900
22.679600 5.156200
22.703800 4.872000
22.728000 6.562800
22.752200 0.023500
22.776400 0.000000
22.800600 0.000000
22.824800 0.000000
22.849100 0.000000
22.873300 0.000000
22.897500 0.000000
22.921700 0.000000
22.945900 0.000000
22.970100 0.000000
22.994300 0.000000
23.018500 0.000000
23.042700 0.000000
23.066900 0.000000
23.091100 0.000000
23.115300 0.000000
23.139500 0.000000
23.163800 0.000000
23.188000 0.000000
23.212200 0.000000
23.236400 0.000000
23.260600 0.000000
23.284800 0.000000
23.309000 0.000000
23.333200 0.000000
23.357400 0.000000
23.381600 0.000000
23.405800 0.000000
23.430000 0.000000
23.454200 0.000000
23.478500 0.000000
23.502700 0.000000
23.526900 0.000000
23.551100 0.000000
23.575300 0.000000
23.599500 0.000000
23.623700 0.000000
23.647900 0.000000
23.672100 0.000000
23.696300 0.000000
23.720500 0.000000
23.744700 0.000000
23.768900 0.000000
23.793200 0.000000
23.817400 0.000000
23.841600 0.000000
23.865800 0.000000
23.890000 0.000000
23.914200 0.000000
23.938400 0.000000
23.962600 0.000000
23.986800 0.000000
24.011000 0.000000
24.035200 0.000000
24.059400 0.000000
24.083600 0.000000
24.107900 0.000000
24.132100 0.000000
24.156300 0.000000
24.180500 0.000000
24.204700 0.000000
24.228900 0.000000
24.253100 0.000000
24.277300 0.000000
24.301500 0.000000
24.325700 0.000000
24.349900 0.000000
24.374100 0.000000
24.398300 0.000000
24.422600 0.000000
24.446800 0.000000
24.471000 0.000000
24.495200 0.000000
24.519400 0.000000
24.543600 0.000000
24.567800 0.000000
24.592000 0.000000
24.616200 0.000000
24.640400 0.000000
24.664600 0.000000
24.688800 0.000000
24.713000 0.000000
24.737300 0.000000
24.761500 0.000000
24.785700 0.000000
24.809900 0.000000
24.834100 0.000000
24.858300 0.000000
24.882500 0.000000
24.906700 0.000000
24.930900 0.000000
24.955100 0.000000
e
