set title 'mp-1008617 - Density of States'
set xlabel 'Energy (eV)'
set ylabel 'DOS (states/eV)'
set grid
set xrange [-10:10]
set yrange [0:29.966]
set xzeroaxis lt -1
set terminal png size 800,600
set output 'mp-1008617_dos_gnuplot.png'
plot '-' using 1:2 with lines title 'DOS'
-21.289300 0.000000
-21.270500 0.000000
-21.251700 0.000000
-21.233000 0.000000
-21.214200 0.000000
-21.195400 0.000000
-21.176600 0.000000
-21.157900 0.000000
-21.139100 0.000000
-21.120300 0.000000
-21.101500 0.000000
-21.082700 0.000000
-21.064000 0.000000
-21.045200 0.000000
-21.026400 0.000000
-21.007600 0.000000
-20.988900 0.000000
-20.970100 0.000000
-20.951300 0.000000
-20.932500 0.000000
-20.913700 0.000000
-20.895000 0.000000
-20.876200 0.000000
-20.857400 0.000000
-20.838600 0.000000
-20.819900 0.000000
-20.801100 0.000000
-20.782300 0.000000
-20.763500 0.000000
-20.744800 0.000000
-20.726000 0.000000
-20.707200 0.000000
-20.688400 0.000000
-20.669600 0.000000
-20.650900 0.000000
-20.632100 0.000000
-20.613300 0.000000
-20.594500 0.000000
-20.575800 0.000000
-20.557000 0.000000
-20.538200 0.000000
-20.519400 0.000000
-20.500600 0.000000
-20.481900 0.000000
-20.463100 0.000000
-20.444300 0.000000
-20.425500 0.000000
-20.406800 0.000000
-20.388000 0.000000
-20.369200 0.000000
-20.350400 0.000000
-20.331600 0.000000
-20.312900 0.000000
-20.294100 0.000000
-20.275300 0.000000
-20.256500 0.000000
-20.237800 0.000000
-20.219000 0.000000
-20.200200 0.000000
-20.181400 0.000000
-20.162600 0.000000
-20.143900 0.000000
-20.125100 0.000000
-20.106300 0.000000
-20.087500 0.000000
-20.068800 0.000000
-20.050000 0.000000
-20.031200 0.000000
-20.012400 0.000000
-19.993700 0.000000
-19.974900 0.000000
-19.956100 0.000000
-19.937300 0.000000
-19.918500 0.000000
-19.899800 0.000000
-19.881000 0.000000
-19.862200 0.000000
-19.843400 0.000000
-19.824700 0.000000
-19.805900 0.000000
-19.787100 0.000000
-19.768300 0.000000
-19.749500 0.000000
-19.730800 0.000000
-19.712000 0.000000
-19.693200 0.000000
-19.674400 0.000000
-19.655700 0.000000
-19.636900 0.000000
-19.618100 0.000000
-19.599300 0.000000
-19.580500 14.931000
-19.561800 22.902200
-19.543000 19.941500
-19.524200 17.744100
-19.505400 13.780300
-19.486700 28.531500
-19.467900 63.597400
-19.449100 74.672800
-19.430300 12.552500
-19.411600 14.226200
-19.392800 18.705700
-19.374000 32.955300
-19.355200 17.882600
-19.336400 0.000000
-19.317700 0.000000
-19.298900 0.000000
-19.280100 0.000000
-19.261300 0.000000
-19.242600 0.000000
-19.223800 0.000000
-19.205000 0.000000
-19.186200 0.000000
-19.167400 0.000000
-19.148700 0.000000
-19.129900 0.000000
-19.111100 0.000000
-19.092300 0.000000
-19.073600 0.000000
-19.054800 0.000000
-19.036000 0.000000
-19.017200 0.000000
-18.998400 0.000000
-18.979700 0.000000
-18.960900 0.000000
-18.942100 0.000000
-18.923300 0.000000
-18.904600 0.000000
-18.885800 0.000000
-18.867000 0.000000
-18.848200 0.000000
-18.829400 0.000000
-18.810700 0.000000
-18.791900 0.000000
-18.773100 0.000000
-18.754300 0.000000
-18.735600 0.000000
-18.716800 0.000000
-18.698000 0.000000
-18.679200 0.000000
-18.660500 0.000000
-18.641700 0.000000
-18.622900 0.000000
-18.604100 0.000000
-18.585300 0.000000
-18.566600 0.000000
-18.547800 0.000000
-18.529000 0.000000
-18.510200 0.000000
-18.491500 0.000000
-18.472700 0.000000
-18.453900 0.000000
-18.435100 0.000000
-18.416300 0.000000
-18.397600 0.000000
-18.378800 0.000000
-18.360000 0.000000
-18.341200 0.000000
-18.322500 0.000000
-18.303700 0.000000
-18.284900 0.000000
-18.266100 0.000000
-18.247300 0.000000
-18.228600 0.000000
-18.209800 0.000000
-18.191000 0.000000
-18.172200 0.000000
-18.153500 0.000000
-18.134700 0.000000
-18.115900 0.000000
-18.097100 0.000000
-18.078400 0.000000
-18.059600 0.000000
-18.040800 0.000000
-18.022000 0.000000
-18.003200 0.000000
-17.984500 0.000000
-17.965700 0.000000
-17.946900 0.000000
-17.928100 0.000000
-17.909400 0.000000
-17.890600 0.000000
-17.871800 0.000000
-17.853000 0.000000
-17.834200 0.000000
-17.815500 0.000000
-17.796700 0.000000
-17.777900 0.000000
-17.759100 0.000000
-17.740400 0.000000
-17.721600 0.000000
-17.702800 0.000000
-17.684000 0.000000
-17.665200 0.000000
-17.646500 0.000000
-17.627700 0.000000
-17.608900 0.000000
-17.590100 0.000000
-17.571400 0.000000
-17.552600 0.000000
-17.533800 0.000000
-17.515000 0.000000
-17.496200 0.000000
-17.477500 0.000000
-17.458700 0.000000
-17.439900 0.000000
-17.421100 0.000000
-17.402400 0.000000
-17.383600 0.000000
-17.364800 0.000000
-17.346000 0.000000
-17.327300 0.000000
-17.308500 0.000000
-17.289700 0.000000
-17.270900 0.000000
-17.252100 0.000000
-17.233400 0.000000
-17.214600 0.000000
-17.195800 0.000000
-17.177000 0.000000
-17.158300 0.000000
-17.139500 0.000000
-17.120700 0.000000
-17.101900 0.000000
-17.083100 0.000000
-17.064400 0.000000
-17.045600 0.000000
-17.026800 0.000000
-17.008000 0.000000
-16.989300 0.000000
-16.970500 0.000000
-16.951700 0.000000
-16.932900 0.000000
-16.914100 0.000000
-16.895400 0.000000
-16.876600 0.000000
-16.857800 0.000000
-16.839000 0.000000
-16.820300 0.000000
-16.801500 0.000000
-16.782700 0.000000
-16.763900 0.000000
-16.745200 0.000000
-16.726400 0.000000
-16.707600 0.000000
-16.688800 0.000000
-16.670000 0.000000
-16.651300 0.000000
-16.632500 0.000000
-16.613700 0.000000
-16.594900 0.000000
-16.576200 0.000000
-16.557400 0.000000
-16.538600 0.000000
-16.519800 0.000000
-16.501000 0.000000
-16.482300 0.000000
-16.463500 0.000000
-16.444700 0.000000
-16.425900 0.000000
-16.407200 0.000000
-16.388400 0.000000
-16.369600 0.000000
-16.350800 0.000000
-16.332000 0.000000
-16.313300 0.000000
-16.294500 0.000000
-16.275700 0.000000
-16.256900 0.000000
-16.238200 0.000000
-16.219400 0.000000
-16.200600 0.000000
-16.181800 0.000000
-16.163000 0.000000
-16.144300 0.000000
-16.125500 0.000000
-16.106700 0.000000
-16.087900 0.000000
-16.069200 0.000000
-16.050400 0.000000
-16.031600 0.000000
-16.012800 0.000000
-15.994100 0.000000
-15.975300 0.000000
-15.956500 0.000000
-15.937700 0.000000
-15.918900 0.000000
-15.900200 0.000000
-15.881400 0.000000
-15.862600 0.000000
-15.843800 0.000000
-15.825100 0.000000
-15.806300 0.000000
-15.787500 0.000000
-15.768700 0.000000
-15.749900 0.000000
-15.731200 0.000000
-15.712400 0.000000
-15.693600 0.000000
-15.674800 0.000000
-15.656100 0.000000
-15.637300 0.000000
-15.618500 0.000000
-15.599700 0.000000
-15.580900 0.000000
-15.562200 0.000000
-15.543400 0.000000
-15.524600 0.000000
-15.505800 0.000000
-15.487100 0.000000
-15.468300 0.000000
-15.449500 0.000000
-15.430700 0.000000
-15.412000 0.000000
-15.393200 0.000000
-15.374400 0.000000
-15.355600 0.000000
-15.336800 0.000000
-15.318100 0.000000
-15.299300 0.000000
-15.280500 0.000000
-15.261700 0.000000
-15.243000 0.000000
-15.224200 0.000000
-15.205400 0.000000
-15.186600 0.000000
-15.167800 0.000000
-15.149100 0.000000
-15.130300 0.000000
-15.111500 0.000000
-15.092700 0.000000
-15.074000 0.000000
-15.055200 0.000000
-15.036400 0.000000
-15.017600 0.000000
-14.998800 0.000000
-14.980100 0.000000
-14.961300 0.000000
-14.942500 0.000000
-14.923700 0.000000
-14.905000 0.000000
-14.886200 0.000000
-14.867400 0.000000
-14.848600 0.000000
-14.829800 0.000000
-14.811100 0.000000
-14.792300 0.000000
-14.773500 0.000000
-14.754700 0.000000
-14.736000 0.000000
-14.717200 0.000000
-14.698400 0.000000
-14.679600 0.000000
-14.660900 0.000000
-14.642100 0.000000
-14.623300 0.000000
-14.604500 0.000000
-14.585700 0.000000
-14.567000 0.000000
-14.548200 0.000000
-14.529400 0.000000
-14.510600 0.000000
-14.491900 0.000000
-14.473100 0.000000
-14.454300 0.000000
-14.435500 0.000000
-14.416700 0.000000
-14.398000 0.000000
-14.379200 0.000000
-14.360400 0.000000
-14.341600 0.000000
-14.322900 0.000000
-14.304100 0.000000
-14.285300 0.000000
-14.266500 0.000000
-14.247700 0.000000
-14.229000 0.000000
-14.210200 0.000000
-14.191400 0.000000
-14.172600 0.000000
-14.153900 0.000000
-14.135100 0.000000
-14.116300 0.000000
-14.097500 0.000000
-14.078800 0.000000
-14.060000 0.000000
-14.041200 0.000000
-14.022400 0.000000
-14.003600 0.000000
-13.984900 0.000000
-13.966100 0.000000
-13.947300 0.000000
-13.928500 0.000000
-13.909800 0.000000
-13.891000 0.000000
-13.872200 0.000000
-13.853400 0.000000
-13.834600 0.000000
-13.815900 0.000000
-13.797100 0.000000
-13.778300 0.000000
-13.759500 0.000000
-13.740800 0.000000
-13.722000 0.000000
-13.703200 0.000000
-13.684400 0.000000
-13.665600 0.000000
-13.646900 0.000000
-13.628100 0.000000
-13.609300 0.000000
-13.590500 0.000000
-13.571800 0.000000
-13.553000 0.000000
-13.534200 0.000000
-13.515400 0.000000
-13.496600 0.000000
-13.477900 0.000000
-13.459100 0.000000
-13.440300 0.000000
-13.421500 0.000000
-13.402800 0.000000
-13.384000 0.000000
-13.365200 0.000000
-13.346400 0.000000
-13.327700 0.000000
-13.308900 0.000000
-13.290100 0.000000
-13.271300 0.000000
-13.252500 0.000000
-13.233800 0.000000
-13.215000 0.000000
-13.196200 0.000000
-13.177400 0.000000
-13.158700 0.000000
-13.139900 0.000000
-13.121100 0.000000
-13.102300 0.000000
-13.083500 0.000000
-13.064800 0.000000
-13.046000 0.000000
-13.027200 0.000000
-13.008400 0.000000
-12.989700 0.000000
-12.970900 0.000000
-12.952100 0.000000
-12.933300 0.000000
-12.914500 0.000000
-12.895800 0.000000
-12.877000 0.000000
-12.858200 0.000000
-12.839400 0.000000
-12.820700 0.000000
-12.801900 0.000000
-12.783100 0.000000
-12.764300 0.000000
-12.745600 0.000000
-12.726800 0.000000
-12.708000 0.000000
-12.689200 0.000000
-12.670400 0.000000
-12.651700 0.000000
-12.632900 0.000000
-12.614100 0.000000
-12.595300 0.000000
-12.576600 0.000000
-12.557800 0.000000
-12.539000 0.000000
-12.520200 0.000000
-12.501400 0.000000
-12.482700 0.000000
-12.463900 0.000000
-12.445100 0.000000
-12.426300 0.000000
-12.407600 0.000000
-12.388800 0.000000
-12.370000 0.000000
-12.351200 0.000000
-12.332400 0.000000
-12.313700 0.000000
-12.294900 0.000000
-12.276100 0.000000
-12.257300 0.000000
-12.238600 0.000000
-12.219800 0.000000
-12.201000 0.000000
-12.182200 0.000000
-12.163400 0.000000
-12.144700 0.000000
-12.125900 0.000000
-12.107100 0.000000
-12.088300 0.000000
-12.069600 0.000000
-12.050800 0.000000
-12.032000 0.000000
-12.013200 0.000000
-11.994500 0.000000
-11.975700 0.000000
-11.956900 0.000000
-11.938100 0.000000
-11.919300 0.000000
-11.900600 0.000000
-11.881800 0.000000
-11.863000 0.000000
-11.844200 0.000000
-11.825500 0.000000
-11.806700 0.000000
-11.787900 0.000000
-11.769100 0.000000
-11.750300 0.000000
-11.731600 0.000000
-11.712800 0.000000
-11.694000 0.000000
-11.675200 0.000000
-11.656500 0.000000
-11.637700 0.000000
-11.618900 0.000000
-11.600100 0.000000
-11.581300 0.000000
-11.562600 0.000000
-11.543800 0.000000
-11.525000 0.000000
-11.506200 0.000000
-11.487500 0.000000
-11.468700 0.000000
-11.449900 0.000000
-11.431100 0.000000
-11.412400 0.000000
-11.393600 0.000000
-11.374800 0.000000
-11.356000 0.000000
-11.337200 0.000000
-11.318500 0.000000
-11.299700 0.000000
-11.280900 0.000000
-11.262100 0.000000
-11.243400 0.000000
-11.224600 0.000000
-11.205800 0.000000
-11.187000 0.000000
-11.168200 0.000000
-11.149500 0.000000
-11.130700 0.000000
-11.111900 0.000000
-11.093100 0.000000
-11.074400 0.000000
-11.055600 0.000000
-11.036800 0.000000
-11.018000 0.000000
-10.999200 0.000000
-10.980500 0.000000
-10.961700 0.000000
-10.942900 0.000000
-10.924100 0.000000
-10.905400 0.000000
-10.886600 0.000000
-10.867800 0.000000
-10.849000 0.000000
-10.830200 0.000000
-10.811500 0.000000
-10.792700 0.000000
-10.773900 0.000000
-10.755100 0.000000
-10.736400 0.000000
-10.717600 0.000000
-10.698800 0.000000
-10.680000 0.000000
-10.661300 0.000000
-10.642500 0.000000
-10.623700 0.000000
-10.604900 0.000000
-10.586100 0.000000
-10.567400 0.000000
-10.548600 0.000000
-10.529800 0.000000
-10.511000 0.000000
-10.492300 0.000000
-10.473500 0.000000
-10.454700 0.000000
-10.435900 0.000000
-10.417100 0.000000
-10.398400 0.000000
-10.379600 0.000000
-10.360800 0.000000
-10.342000 0.000000
-10.323300 0.000000
-10.304500 0.000000
-10.285700 0.000000
-10.266900 0.000000
-10.248100 0.000000
-10.229400 0.000000
-10.210600 0.000000
-10.191800 0.000000
-10.173000 0.000000
-10.154300 0.000000
-10.135500 0.000000
-10.116700 0.000000
-10.097900 0.000000
-10.079200 0.000000
-10.060400 0.000000
-10.041600 0.000000
-10.022800 0.000000
-10.004000 0.000000
-9.985300 0.000000
-9.966500 0.000000
-9.947700 0.000000
-9.928900 0.000000
-9.910200 0.000000
-9.891400 0.000000
-9.872600 0.000000
-9.853800 0.000000
-9.835000 0.000000
-9.816300 0.000000
-9.797500 0.000000
-9.778700 0.000000
-9.759900 0.000000
-9.741200 0.000000
-9.722400 0.000000
-9.703600 0.000000
-9.684800 0.000000
-9.666000 0.000000
-9.647300 0.000000
-9.628500 0.000000
-9.609700 0.000000
-9.590900 0.000000
-9.572200 0.000000
-9.553400 0.000000
-9.534600 0.000000
-9.515800 0.000000
-9.497000 0.000000
-9.478300 0.000000
-9.459500 0.000000
-9.440700 0.000000
-9.421900 0.000000
-9.403200 0.000000
-9.384400 0.000000
-9.365600 0.000000
-9.346800 0.000000
-9.328100 0.000000
-9.309300 0.000000
-9.290500 0.000000
-9.271700 0.000000
-9.252900 0.000000
-9.234200 0.000000
-9.215400 0.000000
-9.196600 0.000000
-9.177800 0.000000
-9.159100 0.000000
-9.140300 0.000000
-9.121500 0.000000
-9.102700 0.000000
-9.083900 0.000000
-9.065200 0.000000
-9.046400 0.000000
-9.027600 0.000000
-9.008800 0.000000
-8.990100 0.000000
-8.971300 0.000000
-8.952500 0.000000
-8.933700 0.000000
-8.914900 0.000000
-8.896200 0.000000
-8.877400 0.000000
-8.858600 0.000000
-8.839800 0.000000
-8.821100 0.000000
-8.802300 0.000000
-8.783500 0.000000
-8.764700 0.000000
-8.746000 0.000000
-8.727200 0.000000
-8.708400 0.000000
-8.689600 0.000000
-8.670800 0.000000
-8.652100 0.000000
-8.633300 0.000000
-8.614500 0.000000
-8.595700 0.000000
-8.577000 0.000000
-8.558200 0.000000
-8.539400 0.000000
-8.520600 0.000000
-8.501800 0.000000
-8.483100 0.000000
-8.464300 0.000000
-8.445500 0.000000
-8.426700 0.000000
-8.408000 0.000000
-8.389200 0.000000
-8.370400 0.000000
-8.351600 0.000000
-8.332800 0.000000
-8.314100 0.000000
-8.295300 0.000000
-8.276500 0.000000
-8.257700 0.000000
-8.239000 0.000000
-8.220200 0.000000
-8.201400 0.000000
-8.182600 0.000000
-8.163900 0.000000
-8.145100 0.000000
-8.126300 0.000000
-8.107500 0.000000
-8.088700 0.000000
-8.070000 0.000000
-8.051200 0.000000
-8.032400 0.000000
-8.013600 0.000000
-7.994900 0.000000
-7.976100 0.000000
-7.957300 0.000000
-7.938500 0.000000
-7.919700 0.000000
-7.901000 0.000000
-7.882200 0.000000
-7.863400 0.000000
-7.844600 0.000000
-7.825900 0.000000
-7.807100 0.000000
-7.788300 0.000000
-7.769500 0.000000
-7.750700 0.000000
-7.732000 0.000000
-7.713200 0.000000
-7.694400 0.000000
-7.675600 0.000000
-7.656900 0.000000
-7.638100 0.000000
-7.619300 0.000000
-7.600500 0.000000
-7.581700 0.000000
-7.563000 0.000000
-7.544200 0.000000
-7.525400 0.000000
-7.506600 0.000000
-7.487900 0.000000
-7.469100 0.000000
-7.450300 0.000000
-7.431500 0.000000
-7.412800 0.000000
-7.394000 0.000000
-7.375200 0.000000
-7.356400 0.000000
-7.337600 0.000000
-7.318900 0.000000
-7.300100 0.000000
-7.281300 0.000000
-7.262500 0.000000
-7.243800 0.000000
-7.225000 0.000000
-7.206200 0.000000
-7.187400 0.000000
-7.168600 0.000000
-7.149900 0.000000
-7.131100 0.000000
-7.112300 0.000000
-7.093500 0.000000
-7.074800 0.000000
-7.056000 0.000000
-7.037200 0.000000
-7.018400 0.000000
-6.999600 0.000000
-6.980900 0.000000
-6.962100 0.000000
-6.943300 0.000000
-6.924500 0.000000
-6.905800 0.000000
-6.887000 0.000000
-6.868200 0.000000
-6.849400 0.000000
-6.830700 0.000000
-6.811900 0.000000
-6.793100 0.000000
-6.774300 0.000000
-6.755500 0.000000
-6.736800 0.000000
-6.718000 0.000000
-6.699200 0.000000
-6.680400 0.000000
-6.661700 0.000000
-6.642900 0.000000
-6.624100 0.000000
-6.605300 0.000000
-6.586500 0.000000
-6.567800 0.000000
-6.549000 0.000000
-6.530200 0.000000
-6.511400 0.000000
-6.492700 0.000000
-6.473900 0.000000
-6.455100 0.000000
-6.436300 0.000000
-6.417500 0.000000
-6.398800 0.000000
-6.380000 0.000000
-6.361200 0.000000
-6.342400 0.000000
-6.323700 0.000000
-6.304900 0.000000
-6.286100 0.000000
-6.267300 0.000000
-6.248500 0.000000
-6.229800 0.000000
-6.211000 0.000000
-6.192200 0.000000
-6.173400 0.000000
-6.154700 0.000000
-6.135900 0.000000
-6.117100 0.000000
-6.098300 0.000000
-6.079600 0.000000
-6.060800 0.000000
-6.042000 0.000000
-6.023200 0.000000
-6.004400 0.000000
-5.985700 0.000000
-5.966900 0.000000
-5.948100 0.000000
-5.929300 0.000000
-5.910600 0.000000
-5.891800 0.000000
-5.873000 0.000000
-5.854200 0.000000
-5.835400 0.000000
-5.816700 0.000000
-5.797900 0.000000
-5.779100 0.000000
-5.760300 0.000000
-5.741600 0.000000
-5.722800 0.000000
-5.704000 0.000000
-5.685200 0.000000
-5.666400 0.000000
-5.647700 0.000000
-5.628900 0.000000
-5.610100 0.000000
-5.591300 0.000000
-5.572600 0.000000
-5.553800 0.000000
-5.535000 0.000000
-5.516200 0.000000
-5.497500 0.000000
-5.478700 0.000000
-5.459900 0.000000
-5.441100 0.000000
-5.422300 0.000000
-5.403600 0.000000
-5.384800 0.000000
-5.366000 0.000000
-5.347200 0.000000
-5.328500 0.000000
-5.309700 0.000000
-5.290900 0.000000
-5.272100 0.000000
-5.253300 0.000000
-5.234600 0.000000
-5.215800 0.000000
-5.197000 0.000000
-5.178200 0.000000
-5.159500 0.000000
-5.140700 0.000000
-5.121900 0.000000
-5.103100 0.000000
-5.084300 0.000000
-5.065600 0.000000
-5.046800 0.000000
-5.028000 0.000000
-5.009200 0.000000
-4.990500 0.000000
-4.971700 0.000000
-4.952900 0.000000
-4.934100 0.000000
-4.915300 0.000000
-4.896600 0.000000
-4.877800 0.000000
-4.859000 0.000000
-4.840200 0.000000
-4.821500 0.000000
-4.802700 0.000000
-4.783900 0.000000
-4.765100 0.000000
-4.746400 0.000000
-4.727600 0.000000
-4.708800 0.000000
-4.690000 0.000000
-4.671200 0.000000
-4.652500 0.000000
-4.633700 0.000000
-4.614900 0.000000
-4.596100 0.000000
-4.577400 0.000000
-4.558600 0.000000
-4.539800 0.000000
-4.521000 0.000000
-4.502200 0.000000
-4.483500 0.000000
-4.464700 0.000000
-4.445900 0.000000
-4.427100 0.000000
-4.408400 0.000000
-4.389600 0.000000
-4.370800 0.000000
-4.352000 0.000000
-4.333200 0.000000
-4.314500 0.000000
-4.295700 0.000000
-4.276900 0.000000
-4.258100 0.000000
-4.239400 0.000000
-4.220600 0.000000
-4.201800 0.000000
-4.183000 0.000000
-4.164300 0.000000
-4.145500 0.000000
-4.126700 0.000000
-4.107900 0.000000
-4.089100 0.000000
-4.070400 0.000000
-4.051600 0.000000
-4.032800 0.000000
-4.014000 0.000000
-3.995300 0.000000
-3.976500 0.000000
-3.957700 0.000000
-3.938900 0.000000
-3.920100 0.000000
-3.901400 0.000000
-3.882600 0.000000
-3.863800 0.000000
-3.845000 0.004800
-3.826300 0.022100
-3.807500 0.051900
-3.788700 0.076500
-3.769900 0.076800
-3.751100 0.084100
-3.732400 0.093600
-3.713600 0.104400
-3.694800 0.115700
-3.676000 0.125800
-3.657300 0.135800
-3.638500 0.141800
-3.619700 0.145400
-3.600900 0.151800
-3.582100 0.158000
-3.563400 0.164700
-3.544600 0.172000
-3.525800 0.179500
-3.507000 0.186300
-3.488300 0.192600
-3.469500 0.199500
-3.450700 0.207000
-3.431900 0.215000
-3.413200 0.222700
-3.394400 0.229200
-3.375600 0.234800
-3.356800 0.241200
-3.338000 0.247900
-3.319300 0.254700
-3.300500 0.261600
-3.281700 0.268600
-3.262900 0.277500
-3.244200 0.286200
-3.225400 0.295100
-3.206600 0.304300
-3.187800 0.313900
-3.169000 0.323800
-3.150300 0.333800
-3.131500 0.344700
-3.112700 0.356400
-3.093900 0.368800
-3.075200 0.383400
-3.056400 0.400300
-3.037600 0.419000
-3.018800 0.439300
-3.000000 0.467600
-2.981300 0.499300
-2.962500 0.536000
-2.943700 0.577600
-2.924900 0.640600
-2.906200 0.807300
-2.887400 1.960800
-2.868600 5.661600
-2.849800 8.272000
-2.831100 9.154500
-2.812300 9.197200
-2.793500 9.300200
-2.774700 10.320700
-2.755900 11.559200
-2.737200 10.670600
-2.718400 8.308300
-2.699600 8.232300
-2.680800 8.855100
-2.662100 10.010600
-2.643300 8.737400
-2.624500 10.768600
-2.605700 10.058600
-2.586900 11.364400
-2.568200 13.175800
-2.549400 18.742700
-2.530600 23.730900
-2.511800 17.104400
-2.493100 14.147200
-2.474300 16.600500
-2.455500 27.241600
-2.436700 26.585900
-2.417900 21.195400
-2.399200 19.412400
-2.380400 16.276500
-2.361600 15.110900
-2.342800 15.687000
-2.324100 15.861500
-2.305300 15.238000
-2.286500 13.765100
-2.267700 13.284500
-2.248900 12.774000
-2.230200 13.245300
-2.211400 13.143800
-2.192600 12.947700
-2.173800 10.377100
-2.155100 8.702900
-2.136300 8.337800
-2.117500 7.067300
-2.098700 6.209500
-2.080000 5.515100
-2.061200 5.106900
-2.042400 4.862600
-2.023600 4.658400
-2.004800 4.198100
-1.986100 3.438900
-1.967300 3.380900
-1.948500 4.156400
-1.929700 5.530300
-1.911000 6.738500
-1.892200 7.905300
-1.873400 9.895000
-1.854600 11.368000
-1.835800 12.023500
-1.817100 11.670900
-1.798300 11.560300
-1.779500 15.686300
-1.760700 12.091400
-1.742000 11.606300
-1.723200 10.546600
-1.704400 13.196200
-1.685600 11.589500
-1.666800 11.900800
-1.648100 14.066900
-1.629300 14.378100
-1.610500 13.341700
-1.591700 12.695000
-1.573000 12.499300
-1.554200 12.632800
-1.535400 12.194000
-1.516600 12.381000
-1.497900 13.245300
-1.479100 14.770500
-1.460300 20.216700
-1.441500 22.590100
-1.422700 16.969800
-1.404000 13.501100
-1.385200 12.785300
-1.366400 14.094200
-1.347600 15.117000
-1.328900 12.098800
-1.310100 8.537300
-1.291300 7.655700
-1.272500 6.779400
-1.253700 5.411600
-1.235000 5.989800
-1.216200 7.136300
-1.197400 13.051700
-1.178600 11.139200
-1.159900 3.120600
-1.141100 2.222200
-1.122300 1.675100
-1.103500 1.421100
-1.084700 1.256100
-1.066000 1.142800
-1.047200 1.059500
-1.028400 1.000200
-1.009600 0.954600
-0.990900 0.919700
-0.972100 0.891800
-0.953300 0.865800
-0.934500 0.843500
-0.915700 0.823600
-0.897000 0.804300
-0.878200 0.788500
-0.859400 0.774700
-0.840600 0.762400
-0.821900 0.751700
-0.803100 0.744600
-0.784300 0.744900
-0.765500 0.741200
-0.746800 0.732900
-0.728000 0.721700
-0.709200 0.708400
-0.690400 0.703900
-0.671600 0.724000
-0.652900 0.758400
-0.634100 0.762900
-0.615300 0.766100
-0.596500 0.768500
-0.577800 0.766600
-0.559000 0.763300
-0.540200 0.761100
-0.521400 0.761700
-0.502600 0.766400
-0.483900 0.769300
-0.465100 0.764800
-0.446300 0.758500
-0.427500 0.752500
-0.408800 0.749800
-0.390000 0.748600
-0.371200 0.749600
-0.352400 0.750500
-0.333600 0.751000
-0.314900 0.753300
-0.296100 0.756200
-0.277300 0.759800
-0.258500 0.765100
-0.239800 0.771000
-0.221000 0.777300
-0.202200 0.783900
-0.183400 0.803000
-0.164700 0.811700
-0.145900 0.823100
-0.127100 0.834400
-0.108300 0.832400
-0.089500 0.829500
-0.070800 0.826500
-0.052000 0.823500
-0.033200 0.818500
-0.014400 0.813400
0.004300 0.809400
0.023100 0.806800
0.041900 0.804900
0.060700 0.803000
0.079500 0.799600
0.098200 0.796300
0.117000 0.793300
0.135800 0.790300
0.154600 0.787400
0.173300 0.785400
0.192100 0.786300
0.210900 0.791500
0.229700 0.792800
0.248500 0.793400
0.267200 0.794800
0.286000 0.816400
0.304800 0.826700
0.323600 0.800000
0.342300 0.777200
0.361100 0.758400
0.379900 0.741400
0.398700 0.729700
0.417500 0.719400
0.436200 0.710800
0.455000 0.704700
0.473800 0.701200
0.492600 0.700900
0.511300 0.692700
0.530100 0.681500
0.548900 0.675900
0.567700 0.674200
0.586400 0.673200
0.605200 0.672700
0.624000 0.672400
0.642800 0.672300
0.661600 0.671700
0.680300 0.670500
0.699100 0.669100
0.717900 0.668200
0.736700 0.668900
0.755400 0.671300
0.774200 0.673900
0.793000 0.707900
0.811800 0.758200
0.830600 0.814900
0.849300 0.889100
0.868100 0.970100
0.886900 1.049000
0.905700 1.101900
0.924400 1.137200
0.943200 1.164500
0.962000 1.182700
0.980800 1.201900
0.999600 1.219400
1.018300 1.237200
1.037100 1.251800
1.055900 1.260200
1.074700 1.276400
1.093400 1.296300
1.112200 1.318100
1.131000 1.355400
1.149800 1.391600
1.168500 1.417400
1.187300 1.439100
1.206100 1.455200
1.224900 1.464700
1.243700 1.469200
1.262400 1.490100
1.281200 1.608000
1.300000 1.774800
1.318800 1.263000
1.337500 1.094500
1.356300 1.082100
1.375100 1.063000
1.393900 1.050100
1.412700 1.019200
1.431400 0.983500
1.450200 0.974900
1.469000 0.972200
1.487800 0.971300
1.506500 0.970800
1.525300 0.969800
1.544100 0.968300
1.562900 0.966100
1.581700 0.960300
1.600400 0.954500
1.619200 0.952200
1.638000 0.955900
1.656800 0.969400
1.675500 0.975800
1.694300 0.968200
1.713100 0.972700
1.731900 0.977500
1.750700 0.981500
1.769400 0.984700
1.788200 0.987300
1.807000 0.989300
1.825800 0.989800
1.844500 0.986600
1.863300 0.984200
1.882100 0.983200
1.900900 0.984000
1.919600 0.986400
1.938400 0.990100
1.957200 0.994100
1.976000 1.000300
1.994800 1.005000
2.013500 1.008500
2.032300 1.009700
2.051100 1.011100
2.069900 1.013900
2.088600 1.016300
2.107400 1.019800
2.126200 1.023200
2.145000 1.026500
2.163800 1.025500
2.182500 1.019900
2.201300 1.017000
2.220100 1.029000
2.238900 1.038500
2.257600 1.049000
2.276400 1.060600
2.295200 1.077300
2.314000 1.089500
2.332800 1.115700
2.351500 1.061300
2.370300 1.018900
2.389100 1.003600
2.407900 0.983100
2.426600 0.959100
2.445400 0.938800
2.464200 0.925100
2.483000 0.911700
2.501700 0.913200
2.520500 0.918900
2.539300 0.942400
2.558100 0.961600
2.576900 1.000900
2.595600 1.048900
2.614400 1.117400
2.633200 1.174200
2.652000 1.304600
2.670700 1.488500
2.689500 1.535300
2.708300 1.726900
2.727100 1.705500
2.745900 1.693500
2.764600 1.699600
2.783400 1.690900
2.802200 1.642100
2.821000 1.585400
2.839700 1.505100
2.858500 1.473200
2.877300 1.454700
2.896100 1.444800
2.914900 1.437300
2.933600 1.431200
2.952400 1.427600
2.971200 1.423200
2.990000 1.410600
3.008700 1.437800
3.027500 1.321200
3.046300 1.310800
3.065100 1.300200
3.083900 1.292400
3.102600 1.279700
3.121400 1.265800
3.140200 1.258500
3.159000 1.254700
3.177700 1.247500
3.196500 1.228300
3.215300 1.214800
3.234100 1.192200
3.252800 1.184300
3.271600 1.169800
3.290400 1.164700
3.309200 1.138900
3.328000 1.109700
3.346700 1.086800
3.365500 1.069800
3.384300 1.062300
3.403100 1.056600
3.421800 1.054000
3.440600 1.051600
3.459400 1.034700
3.478200 1.020100
3.497000 1.010800
3.515700 1.001200
3.534500 1.001400
3.553300 1.047600
3.572100 1.024800
3.590800 1.061400
3.609600 1.121700
3.628400 1.194900
3.647200 1.199700
3.666000 1.146500
3.684700 1.116200
3.703500 1.100000
3.722300 1.101200
3.741100 1.088500
3.759800 0.948800
3.778600 0.723300
3.797400 0.656700
3.816200 0.580500
3.834900 0.550400
3.853700 0.521300
3.872500 0.493100
3.891300 0.472300
3.910100 0.460800
3.928800 0.455800
3.947600 0.451800
3.966400 0.448000
3.985200 0.444300
4.003900 0.440700
4.022700 0.437200
4.041500 0.436300
4.060300 0.440200
4.079100 0.439600
4.097800 0.443300
4.116600 0.445800
4.135400 0.449600
4.154200 0.455400
4.172900 0.466400
4.191700 0.479500
4.210500 0.492500
4.229300 0.512300
4.248100 0.531400
4.266800 0.529800
4.285600 0.556500
4.304400 0.574200
4.323200 0.588400
4.341900 0.601200
4.360700 0.672600
4.379500 0.663400
4.398300 0.673300
4.417100 0.686600
4.435800 0.705600
4.454600 0.734300
4.473400 0.757800
4.492200 0.781100
4.510900 0.807500
4.529700 0.844200
4.548500 0.860900
4.567300 0.890600
4.586000 0.930700
4.604800 0.971200
4.623600 0.997400
4.642400 1.061500
4.661200 1.107800
4.679900 1.153400
4.698700 1.184900
4.717500 1.246600
4.736300 1.284800
4.755000 1.339900
4.773800 1.424900
4.792600 1.500500
4.811400 1.530500
4.830200 1.598700
4.848900 1.642200
4.867700 1.682300
4.886500 1.726900
4.905300 1.780400
4.924000 1.864100
4.942800 1.909500
4.961600 1.976000
4.980400 2.030200
4.999200 2.098000
5.017900 2.241000
5.036700 2.425000
5.055500 2.485600
5.074300 2.495200
5.093000 2.609300
5.111800 2.601700
5.130600 2.586500
5.149400 2.524700
5.168100 2.571200
5.186900 2.836900
5.205700 2.656700
5.224500 2.926000
5.243300 2.914500
5.262000 2.578200
5.280800 2.148400
5.299600 1.770200
5.318400 1.558800
5.337100 1.402900
5.355900 1.309800
5.374700 1.238000
5.393500 1.180600
5.412300 1.137600
5.431000 1.128600
5.449800 1.154900
5.468600 1.203000
5.487400 1.252900
5.506100 1.303600
5.524900 1.334600
5.543700 1.339300
5.562500 1.320400
5.581300 1.315600
5.600000 1.334000
5.618800 1.387700
5.637600 1.485300
5.656400 1.585200
5.675100 1.780000
5.693900 2.110000
5.712700 2.297400
5.731500 2.491100
5.750300 2.605900
5.769000 2.710500
5.787800 2.781000
5.806600 2.806200
5.825400 2.839600
5.844100 2.875100
5.862900 2.890200
5.881700 2.956000
5.900500 3.240100
5.919200 3.323500
5.938000 3.430000
5.956800 3.584200
5.975600 3.837400
5.994400 4.121600
6.013100 4.313500
6.031900 4.617900
6.050700 4.598300
6.069500 4.552500
6.088200 4.626100
6.107000 4.410200
6.125800 3.892700
6.144600 2.964400
6.163400 2.467800
6.182100 2.386300
6.200900 2.303700
6.219700 2.245500
6.238500 2.191700
6.257200 2.150600
6.276000 2.131100
6.294800 2.120000
6.313600 2.140000
6.332400 2.192500
6.351100 2.221200
6.369900 2.339700
6.388700 2.439500
6.407500 2.583900
6.426200 2.790400
6.445000 2.961700
6.463800 3.063400
6.482600 3.190400
6.501300 3.340900
6.520100 3.559800
6.538900 3.773500
6.557700 3.883800
6.576500 3.827500
6.595200 4.131900
6.614000 4.250500
6.632800 4.438500
6.651600 4.835300
6.670300 5.142100
6.689100 4.861000
6.707900 4.668100
6.726700 4.551900
6.745500 4.691600
6.764200 4.167800
6.783000 3.702500
6.801800 3.521500
6.820600 3.425500
6.839300 3.300300
6.858100 3.157400
6.876900 2.987100
6.895700 2.762900
6.914500 2.509700
6.933200 2.365100
6.952000 2.233100
6.970800 2.050500
6.989600 1.920900
7.008300 1.835700
7.027100 1.750000
7.045900 1.663700
7.064700 1.592300
7.083500 1.532100
7.102200 1.481100
7.121000 1.428900
7.139800 1.382700
7.158600 1.338200
7.177300 1.300900
7.196100 1.267200
7.214900 1.235700
7.233700 1.208400
7.252400 1.161900
7.271200 1.132400
7.290000 1.103700
7.308800 1.074900
7.327600 1.043800
7.346300 1.010100
7.365100 0.978100
7.383900 0.956200
7.402700 0.940200
7.421400 0.922800
7.440200 0.909200
7.459000 0.902900
7.477800 0.891900
7.496600 0.879600
7.515300 0.876300
7.534100 0.874100
7.552900 0.872900
7.571700 0.871100
7.590400 0.868900
7.609200 0.866200
7.628000 0.863800
7.646800 0.863700
7.665600 0.866200
7.684300 0.871300
7.703100 0.880100
7.721900 0.893000
7.740700 0.906100
7.759400 0.922900
7.778200 0.939700
7.797000 0.952000
7.815800 0.943300
7.834500 0.969800
7.853300 0.986600
7.872100 1.007400
7.890900 1.025400
7.909700 1.055500
7.928400 1.047600
7.947200 1.056100
7.966000 1.061100
7.984800 1.065000
8.003500 1.053400
8.022300 1.064500
8.041100 1.056700
8.059900 1.058700
8.078700 1.061200
8.097400 1.061000
8.116200 1.066200
8.135000 1.081100
8.153800 1.111100
8.172500 1.139000
8.191300 1.167100
8.210100 1.193800
8.228900 1.218600
8.247700 1.250400
8.266400 1.276800
8.285200 1.300000
8.304000 1.324200
8.322800 1.348500
8.341500 1.365100
8.360300 1.391400
8.379100 1.416200
8.397900 1.417700
8.416700 1.418600
8.435400 1.414500
8.454200 1.403300
8.473000 1.371900
8.491800 1.321100
8.510500 1.257400
8.529300 1.221100
8.548100 1.196200
8.566900 1.175200
8.585600 1.151000
8.604400 1.126800
8.623200 1.104300
8.642000 1.084500
8.660800 1.066400
8.679500 1.050500
8.698300 1.038600
8.717100 1.039900
8.735900 1.084100
8.754600 1.120400
8.773400 1.060400
8.792200 0.971500
8.811000 0.849600
8.829800 0.619300
8.848500 0.470200
8.867300 0.472700
8.886100 0.478300
8.904900 0.484500
8.923600 0.493700
8.942400 0.503600
8.961200 0.519200
8.980000 0.584600
8.998800 0.611500
9.017500 0.633900
9.036300 0.674600
9.055100 0.731400
9.073900 0.737400
9.092600 0.750600
9.111400 0.769700
9.130200 0.788300
9.149000 0.799100
9.167700 0.801200
9.186500 0.810900
9.205300 0.827800
9.224100 0.843600
9.242900 0.863100
9.261600 0.881700
9.280400 0.904300
9.299200 0.928700
9.318000 0.921900
9.336700 0.885700
9.355500 0.869600
9.374300 0.857500
9.393100 0.849300
9.411900 0.846000
9.430600 0.848600
9.449400 0.852900
9.468200 0.860000
9.487000 0.869100
9.505700 0.878900
9.524500 0.887300
9.543300 0.897500
9.562100 0.916100
9.580900 0.949700
9.599600 1.010100
9.618400 1.056400
9.637200 1.106100
9.656000 1.150600
9.674700 1.179300
9.693500 1.215200
9.712300 1.250600
9.731100 1.286000
9.749900 1.319200
9.768600 1.342500
9.787400 1.341200
9.806200 1.338900
9.825000 1.336000
9.843700 1.336700
9.862500 1.340600
9.881300 1.349000
9.900100 1.362800
9.918800 1.385400
9.937600 1.412700
9.956400 1.444800
9.975200 1.472300
9.994000 1.498500
10.012700 1.523600
10.031500 1.546000
10.050300 1.569500
10.069100 1.589400
10.087800 1.612200
10.106600 1.647700
10.125400 1.696900
10.144200 1.876900
10.163000 1.884800
10.181700 1.920900
10.200500 1.961300
10.219300 2.000800
10.238100 2.039400
10.256800 2.057000
10.275600 2.075800
10.294400 2.098800
10.313200 2.133400
10.332000 2.187000
10.350700 2.423600
10.369500 2.696100
10.388300 3.289600
10.407100 3.432100
10.425800 2.674100
10.444600 2.496800
10.463400 2.455600
10.482200 2.459400
10.500900 2.381400
10.519700 2.183500
10.538500 2.081300
10.557300 2.153900
10.576100 2.275200
10.594800 2.218500
10.613600 2.099300
10.632400 2.026900
10.651200 1.932300
10.669900 1.856500
10.688700 1.927800
10.707500 2.048800
10.726300 2.394200
10.745100 2.299800
10.763800 2.228300
10.782600 2.137400
10.801400 2.113200
10.820200 2.099900
10.838900 2.151700
10.857700 2.222700
10.876500 2.228100
10.895300 2.240500
10.914100 2.209900
10.932800 2.147800
10.951600 2.088000
10.970400 2.039100
10.989200 2.011300
11.007900 2.002300
11.026700 2.006100
11.045500 2.031500
11.064300 2.075300
11.083100 2.133900
11.101800 2.219200
11.120600 2.349400
11.139400 2.468400
11.158200 2.621500
11.176900 2.736700
11.195700 2.842100
11.214500 3.363000
11.233300 3.491300
11.252000 3.238100
11.270800 2.834000
11.289600 2.656600
11.308400 2.559400
11.327200 2.784700
11.345900 2.642300
11.364700 2.395500
11.383500 2.329500
11.402300 2.330300
11.421000 2.332000
11.439800 2.385000
11.458600 2.440300
11.477400 2.406800
11.496200 2.434700
11.514900 2.445500
11.533700 2.475100
11.552500 2.489700
11.571300 2.499700
11.590000 2.514800
11.608800 2.470700
11.627600 2.454200
11.646400 2.450700
11.665200 2.436400
11.683900 2.434600
11.702700 2.442500
11.721500 2.477000
11.740300 2.439400
11.759000 2.402600
11.777800 2.363700
11.796600 2.251900
11.815400 2.080000
11.834100 1.896400
11.852900 1.782200
11.871700 1.703700
11.890500 1.626600
11.909300 1.546600
11.928000 1.463100
11.946800 1.370800
11.965600 1.302400
11.984400 1.273700
12.003100 1.239900
12.021900 1.176700
12.040700 1.217400
12.059500 1.489900
12.078300 2.034400
12.097000 2.719200
12.115800 2.267800
12.134600 2.030200
12.153400 1.974600
12.172100 1.962900
12.190900 1.965500
12.209700 1.945300
12.228500 1.988600
12.247300 1.985300
12.266000 2.085500
12.284800 2.279100
12.303600 2.441100
12.322400 2.524700
12.341100 2.654900
12.359900 2.747300
12.378700 2.752200
12.397500 2.754600
12.416300 2.747200
12.435000 2.738500
12.453800 2.723100
12.472600 2.684000
12.491400 2.638300
12.510100 2.583400
12.528900 2.529300
12.547700 2.472200
12.566500 2.354500
12.585200 2.210800
12.604000 2.101500
12.622800 2.044000
12.641600 2.006100
12.660400 1.989000
12.679100 1.964000
12.697900 1.971300
12.716700 1.905400
12.735500 1.871200
12.754200 1.846900
12.773000 1.792100
12.791800 1.691800
12.810600 1.608700
12.829400 1.532600
12.848100 1.472600
12.866900 1.443500
12.885700 1.288200
12.904500 1.165900
12.923200 1.102500
12.942000 1.049200
12.960800 0.998100
12.979600 0.950800
12.998400 0.909100
13.017100 0.861300
13.035900 0.809000
13.054700 0.765500
13.073500 0.719800
13.092200 0.670000
13.111000 0.617600
13.129800 0.577300
13.148600 0.543200
13.167300 0.515000
13.186100 0.492800
13.204900 0.476900
13.223700 0.465100
13.242500 0.454000
13.261200 0.442900
13.280000 0.429700
13.298800 0.414900
13.317600 0.401100
13.336300 0.388100
13.355100 0.378500
13.373900 0.371000
13.392700 0.363500
13.411500 0.356500
13.430200 0.350900
13.449000 0.346100
13.467800 0.332800
13.486600 0.324000
13.505300 0.318200
13.524100 0.313200
13.542900 0.308800
13.561700 0.306700
13.580500 0.308000
13.599200 0.312300
13.618000 0.317800
13.636800 0.323700
13.655600 0.330400
13.674300 0.333100
13.693100 0.316300
13.711900 0.302700
13.730700 0.289800
13.749500 0.277600
13.768200 0.251300
13.787000 0.235800
13.805800 0.229300
13.824600 0.205500
13.843300 0.182500
13.862100 0.160500
13.880900 0.141000
13.899700 0.122600
13.918400 0.104200
13.937200 0.078200
13.956000 0.058500
13.974800 0.046100
13.993600 0.040100
14.012300 0.037200
14.031100 0.034600
14.049900 0.032100
14.068700 0.029700
14.087400 0.027400
14.106200 0.025200
14.125000 0.023000
14.143800 0.021000
14.162600 0.019100
14.181300 0.017300
14.200100 0.015500
14.218900 0.013800
14.237700 0.012200
14.256400 0.010700
14.275200 0.009300
14.294000 0.007900
14.312800 0.006600
14.331600 0.005400
14.350300 0.004300
14.369100 0.003200
14.387900 0.002300
14.406700 0.001600
14.425400 0.001000
14.444200 0.000700
14.463000 0.000500
14.481800 0.000300
14.500500 0.000200
14.519300 0.000100
14.538100 0.000000
14.556900 0.000000
14.575700 0.000000
14.594400 0.000000
14.613200 0.000000
14.632000 0.000000
14.650800 0.000000
14.669500 0.000000
14.688300 0.000000
14.707100 0.000000
14.725900 0.000000
14.744700 0.000000
14.763400 0.000000
14.782200 0.000000
14.801000 0.000000
14.819800 0.000000
14.838500 0.000000
14.857300 0.000000
14.876100 0.000000
14.894900 0.000000
14.913700 0.000000
14.932400 0.000000
14.951200 0.000000
14.970000 0.000000
14.988800 0.000000
15.007500 0.000000
15.026300 0.000000
15.045100 0.000000
15.063900 0.000000
15.082700 0.000000
15.101400 0.000000
15.120200 0.000000
15.139000 0.000000
15.157800 0.000000
15.176500 0.000000
15.195300 0.000000
15.214100 0.000000
15.232900 0.000000
15.251600 0.000000
15.270400 0.000000
15.289200 0.000000
15.308000 0.000000
15.326800 0.000000
15.345500 0.000000
15.364300 0.000000
15.383100 0.000000
15.401900 0.000000
15.420600 0.000000
15.439400 0.000000
15.458200 0.000000
15.477000 0.000000
15.495800 0.000000
15.514500 0.000000
15.533300 0.000000
15.552100 0.000000
15.570900 0.000000
15.589600 0.000000
15.608400 0.000000
15.627200 0.000000
15.646000 0.000000
15.664800 0.000000
15.683500 0.000000
15.702300 0.000000
15.721100 0.000000
15.739900 0.000000
15.758600 0.000000
15.777400 0.000000
15.796200 0.000000
15.815000 0.000000
15.833700 0.000000
15.852500 0.000000
15.871300 0.000000
15.890100 0.000000
15.908900 0.000000
15.927600 0.000000
15.946400 0.000000
15.965200 0.000000
15.984000 0.000000
16.002700 0.000000
16.021500 0.000000
16.040300 0.000000
16.059100 0.000000
16.077900 0.000000
16.096600 0.000000
16.115400 0.000000
16.134200 0.000000
16.153000 0.000000
16.171700 0.000000
16.190500 0.000000
16.209300 0.000000
16.228100 0.000000
16.246900 0.000000
16.265600 0.000000
e
