set title 'mp-973181 - Density of States'
set xlabel 'Energy (eV)'
set ylabel 'DOS (states/eV)'
set grid
set xrange [-10:10]
set yrange [0:18.799]
set xzeroaxis lt -1
set terminal png size 800,600
set output 'mp-973181_dos_gnuplot.png'
plot '-' using 1:2 with lines title 'DOS'
-47.785600 0.000000
-47.735200 0.000000
-47.684800 0.000000
-47.634400 0.000000
-47.584000 0.000000
-47.533600 0.000000
-47.483200 0.000000
-47.432800 0.000000
-47.382500 0.000000
-47.332100 0.000000
-47.281700 0.000000
-47.231300 0.000000
-47.180900 0.000000
-47.130500 0.000000
-47.080100 0.000000
-47.029700 0.000000
-46.979300 0.000000
-46.929000 0.000000
-46.878600 0.000000
-46.828200 0.000000
-46.777800 0.000000
-46.727400 0.000000
-46.677000 0.000000
-46.626600 0.000000
-46.576200 0.000000
-46.525800 0.000000
-46.475500 0.000000
-46.425100 0.000000
-46.374700 0.000000
-46.324300 0.000000
-46.273900 0.000000
-46.223500 0.000000
-46.173100 0.000000
-46.122700 0.000000
-46.072400 0.000000
-46.022000 0.000000
-45.971600 0.000000
-45.921200 0.000000
-45.870800 0.000000
-45.820400 0.000000
-45.770000 0.000000
-45.719600 0.000000
-45.669200 0.000000
-45.618900 0.000000
-45.568500 0.000000
-45.518100 0.000000
-45.467700 0.000000
-45.417300 0.000000
-45.366900 0.000000
-45.316500 0.000000
-45.266100 0.000000
-45.215700 0.000000
-45.165400 0.000000
-45.115000 0.000000
-45.064600 0.000000
-45.014200 0.000000
-44.963800 0.000000
-44.913400 0.000000
-44.863000 0.000000
-44.812600 0.000000
-44.762300 0.000000
-44.711900 0.000000
-44.661500 0.000000
-44.611100 0.000000
-44.560700 0.000000
-44.510300 0.000000
-44.459900 0.000000
-44.409500 0.000000
-44.359100 0.000000
-44.308800 0.000000
-44.258400 0.000000
-44.208000 0.000000
-44.157600 0.000000
-44.107200 0.000000
-44.056800 0.000000
-44.006400 0.000000
-43.956000 0.000000
-43.905600 0.000000
-43.855300 0.000000
-43.804900 0.000000
-43.754500 0.000000
-43.704100 0.000000
-43.653700 0.000000
-43.603300 0.000000
-43.552900 0.000000
-43.502500 0.000000
-43.452200 0.000000
-43.401800 0.000000
-43.351400 0.000000
-43.301000 0.000000
-43.250600 0.000000
-43.200200 11.632700
-43.149800 48.393800
-43.099400 10.777400
-43.049000 11.603900
-42.998700 11.947000
-42.948300 15.218300
-42.897900 29.770400
-42.847500 19.900800
-42.797100 15.422300
-42.746700 33.343800
-42.696300 0.000000
-42.645900 0.000000
-42.595500 0.000000
-42.545200 0.000000
-42.494800 0.000000
-42.444400 0.000000
-42.394000 0.000000
-42.343600 0.000000
-42.293200 0.000000
-42.242800 0.000000
-42.192400 0.000000
-42.142100 0.000000
-42.091700 0.000000
-42.041300 0.000000
-41.990900 0.000000
-41.940500 0.000000
-41.890100 0.000000
-41.839700 0.000000
-41.789300 0.000000
-41.738900 0.000000
-41.688600 0.000000
-41.638200 0.000000
-41.587800 0.000000
-41.537400 0.000000
-41.487000 0.000000
-41.436600 0.000000
-41.386200 0.000000
-41.335800 0.000000
-41.285400 0.000000
-41.235100 0.000000
-41.184700 0.000000
-41.134300 0.000000
-41.083900 0.000000
-41.033500 0.000000
-40.983100 0.000000
-40.932700 0.000000
-40.882300 0.000000
-40.832000 0.000000
-40.781600 0.000000
-40.731200 0.000000
-40.680800 0.000000
-40.630400 0.000000
-40.580000 0.000000
-40.529600 0.000000
-40.479200 0.000000
-40.428800 0.000000
-40.378500 0.000000
-40.328100 0.000000
-40.277700 0.000000
-40.227300 0.000000
-40.176900 0.000000
-40.126500 0.000000
-40.076100 0.000000
-40.025700 0.000000
-39.975300 0.000000
-39.925000 0.000000
-39.874600 0.000000
-39.824200 0.000000
-39.773800 0.000000
-39.723400 0.000000
-39.673000 0.000000
-39.622600 0.000000
-39.572200 0.000000
-39.521900 0.000000
-39.471500 0.000000
-39.421100 0.000000
-39.370700 0.000000
-39.320300 0.000000
-39.269900 0.000000
-39.219500 0.000000
-39.169100 0.000000
-39.118700 0.000000
-39.068400 0.000000
-39.018000 0.000000
-38.967600 0.000000
-38.917200 0.000000
-38.866800 0.000000
-38.816400 0.000000
-38.766000 0.000000
-38.715600 0.000000
-38.665200 0.000000
-38.614900 0.000000
-38.564500 0.000000
-38.514100 0.000000
-38.463700 0.000000
-38.413300 0.000000
-38.362900 0.000000
-38.312500 0.000000
-38.262100 0.000000
-38.211700 0.000000
-38.161400 0.000000
-38.111000 0.000000
-38.060600 0.000000
-38.010200 0.000000
-37.959800 0.000000
-37.909400 0.000000
-37.859000 0.000000
-37.808600 0.000000
-37.758300 0.000000
-37.707900 0.000000
-37.657500 0.000000
-37.607100 0.000000
-37.556700 0.000000
-37.506300 0.000000
-37.455900 0.000000
-37.405500 0.000000
-37.355100 0.000000
-37.304800 0.000000
-37.254400 0.000000
-37.204000 0.000000
-37.153600 0.000000
-37.103200 0.000000
-37.052800 0.000000
-37.002400 0.000000
-36.952000 0.000000
-36.901600 0.000000
-36.851300 0.000000
-36.800900 0.000000
-36.750500 0.000000
-36.700100 0.000000
-36.649700 0.000000
-36.599300 0.000000
-36.548900 0.000000
-36.498500 0.000000
-36.448200 0.000000
-36.397800 0.000000
-36.347400 0.000000
-36.297000 0.000000
-36.246600 0.000000
-36.196200 0.000000
-36.145800 0.000000
-36.095400 0.000000
-36.045000 0.000000
-35.994700 0.000000
-35.944300 0.000000
-35.893900 0.000000
-35.843500 0.000000
-35.793100 0.000000
-35.742700 0.000000
-35.692300 0.000000
-35.641900 0.000000
-35.591500 0.000000
-35.541200 0.000000
-35.490800 0.000000
-35.440400 0.000000
-35.390000 0.000000
-35.339600 0.000000
-35.289200 0.000000
-35.238800 0.000000
-35.188400 0.000000
-35.138100 0.000000
-35.087700 0.000000
-35.037300 0.000000
-34.986900 0.000000
-34.936500 0.000000
-34.886100 0.000000
-34.835700 0.000000
-34.785300 0.000000
-34.734900 0.000000
-34.684600 0.000000
-34.634200 0.000000
-34.583800 0.000000
-34.533400 0.000000
-34.483000 0.000000
-34.432600 0.000000
-34.382200 0.000000
-34.331800 0.000000
-34.281400 0.000000
-34.231100 0.000000
-34.180700 0.000000
-34.130300 0.000000
-34.079900 0.000000
-34.029500 0.000000
-33.979100 0.000000
-33.928700 0.000000
-33.878300 0.000000
-33.828000 0.000000
-33.777600 0.000000
-33.727200 0.000000
-33.676800 0.000000
-33.626400 0.000000
-33.576000 0.000000
-33.525600 0.000000
-33.475200 0.000000
-33.424800 0.000000
-33.374500 0.000000
-33.324100 0.000000
-33.273700 0.000000
-33.223300 0.000000
-33.172900 0.000000
-33.122500 0.000000
-33.072100 0.000000
-33.021700 0.000000
-32.971300 0.000000
-32.921000 0.000000
-32.870600 0.000000
-32.820200 0.000000
-32.769800 0.000000
-32.719400 0.000000
-32.669000 0.000000
-32.618600 0.000000
-32.568200 0.000000
-32.517900 0.000000
-32.467500 0.000000
-32.417100 0.000000
-32.366700 0.000000
-32.316300 0.000000
-32.265900 0.000000
-32.215500 0.000000
-32.165100 0.000000
-32.114700 0.000000
-32.064400 0.000000
-32.014000 0.000000
-31.963600 0.000000
-31.913200 0.000000
-31.862800 0.000000
-31.812400 0.000000
-31.762000 0.000000
-31.711600 0.000000
-31.661200 0.000000
-31.610900 0.000000
-31.560500 0.000000
-31.510100 0.000000
-31.459700 0.000000
-31.409300 0.000000
-31.358900 0.000000
-31.308500 0.000000
-31.258100 0.000000
-31.207800 0.000000
-31.157400 0.000000
-31.107000 0.000000
-31.056600 0.000000
-31.006200 0.000000
-30.955800 0.000000
-30.905400 0.000000
-30.855000 0.000000
-30.804600 0.000000
-30.754300 0.000000
-30.703900 0.000000
-30.653500 0.000000
-30.603100 0.000000
-30.552700 0.000000
-30.502300 0.000000
-30.451900 0.000000
-30.401500 0.000000
-30.351100 0.000000
-30.300800 0.000000
-30.250400 0.000000
-30.200000 0.000000
-30.149600 0.000000
-30.099200 0.000000
-30.048800 0.000000
-29.998400 0.000000
-29.948000 0.000000
-29.897600 0.000000
-29.847300 0.000000
-29.796900 0.000000
-29.746500 0.000000
-29.696100 0.000000
-29.645700 0.000000
-29.595300 0.000000
-29.544900 0.000000
-29.494500 0.000000
-29.444200 0.000000
-29.393800 0.000000
-29.343400 0.000000
-29.293000 0.000000
-29.242600 0.000000
-29.192200 0.000000
-29.141800 0.000000
-29.091400 0.000000
-29.041000 0.000000
-28.990700 0.000000
-28.940300 0.000000
-28.889900 0.000000
-28.839500 0.000000
-28.789100 0.000000
-28.738700 0.000000
-28.688300 0.000000
-28.637900 0.000000
-28.587500 0.000000
-28.537200 0.000000
-28.486800 0.000000
-28.436400 0.000000
-28.386000 0.000000
-28.335600 0.000000
-28.285200 0.000000
-28.234800 0.000000
-28.184400 0.000000
-28.134100 0.000000
-28.083700 0.000000
-28.033300 0.000000
-27.982900 0.000000
-27.932500 0.000000
-27.882100 0.000000
-27.831700 0.000000
-27.781300 0.000000
-27.730900 0.000000
-27.680600 0.000000
-27.630200 0.000000
-27.579800 0.000000
-27.529400 0.000000
-27.479000 0.000000
-27.428600 0.000000
-27.378200 0.000000
-27.327800 0.000000
-27.277400 0.000000
-27.227100 0.000000
-27.176700 0.000000
-27.126300 0.000000
-27.075900 0.000000
-27.025500 0.000000
-26.975100 0.000000
-26.924700 0.000000
-26.874300 0.000000
-26.824000 0.000000
-26.773600 0.000000
-26.723200 0.000000
-26.672800 0.000000
-26.622400 0.000000
-26.572000 0.000000
-26.521600 0.000000
-26.471200 0.000000
-26.420800 0.000000
-26.370500 0.000000
-26.320100 0.000000
-26.269700 0.000000
-26.219300 0.000000
-26.168900 0.000000
-26.118500 0.000000
-26.068100 0.000000
-26.017700 0.000000
-25.967300 0.000000
-25.917000 0.000000
-25.866600 0.000000
-25.816200 0.000000
-25.765800 0.000000
-25.715400 0.000000
-25.665000 0.000000
-25.614600 0.000000
-25.564200 0.000000
-25.513900 0.000000
-25.463500 0.000000
-25.413100 0.000000
-25.362700 0.000000
-25.312300 0.000000
-25.261900 0.000000
-25.211500 0.000000
-25.161100 0.000000
-25.110700 0.000000
-25.060400 0.000000
-25.010000 0.000000
-24.959600 0.000000
-24.909200 0.000000
-24.858800 0.000000
-24.808400 0.000000
-24.758000 0.000000
-24.707600 0.000000
-24.657200 0.000000
-24.606900 0.000000
-24.556500 0.000000
-24.506100 0.000000
-24.455700 0.000000
-24.405300 0.000000
-24.354900 0.000000
-24.304500 0.000000
-24.254100 0.000000
-24.203800 0.000000
-24.153400 0.000000
-24.103000 0.000000
-24.052600 0.000000
-24.002200 0.000000
-23.951800 0.000000
-23.901400 0.000000
-23.851000 0.000000
-23.800600 0.000000
-23.750300 0.000000
-23.699900 0.000000
-23.649500 0.000000
-23.599100 0.000000
-23.548700 0.000000
-23.498300 0.000000
-23.447900 0.000000
-23.397500 0.000000
-23.347100 0.000000
-23.296800 0.000000
-23.246400 0.000000
-23.196000 0.000000
-23.145600 0.000000
-23.095200 0.000000
-23.044800 0.000000
-22.994400 0.000000
-22.944000 0.000000
-22.893700 0.000000
-22.843300 0.000000
-22.792900 0.000000
-22.742500 0.000000
-22.692100 0.000000
-22.641700 0.000000
-22.591300 0.000000
-22.540900 0.000000
-22.490500 0.000000
-22.440200 0.000000
-22.389800 0.000000
-22.339400 0.000000
-22.289000 0.000000
-22.238600 0.000000
-22.188200 0.000000
-22.137800 0.000000
-22.087400 0.000000
-22.037000 0.000000
-21.986700 0.000000
-21.936300 0.000000
-21.885900 0.000000
-21.835500 0.000000
-21.785100 0.000000
-21.734700 0.000000
-21.684300 0.000000
-21.633900 0.000000
-21.583500 0.000000
-21.533200 0.000000
-21.482800 0.000000
-21.432400 0.000000
-21.382000 0.000000
-21.331600 0.000000
-21.281200 0.000000
-21.230800 0.000000
-21.180400 0.000000
-21.130100 0.000000
-21.079700 0.000000
-21.029300 0.000000
-20.978900 0.000000
-20.928500 0.000000
-20.878100 0.000000
-20.827700 0.000000
-20.777300 0.000000
-20.726900 0.000000
-20.676600 0.000000
-20.626200 0.000000
-20.575800 0.000000
-20.525400 0.000000
-20.475000 0.000000
-20.424600 0.000000
-20.374200 0.000000
-20.323800 0.000000
-20.273400 0.000000
-20.223100 0.000000
-20.172700 0.000000
-20.122300 0.000000
-20.071900 0.000000
-20.021500 0.000000
-19.971100 0.000000
-19.920700 0.000000
-19.870300 0.000000
-19.820000 0.000000
-19.769600 0.000000
-19.719200 0.000000
-19.668800 0.000000
-19.618400 0.000000
-19.568000 0.000000
-19.517600 0.000000
-19.467200 0.000000
-19.416800 0.000000
-19.366500 0.000000
-19.316100 0.000000
-19.265700 0.000000
-19.215300 0.000000
-19.164900 0.000000
-19.114500 0.000000
-19.064100 0.000000
-19.013700 0.000000
-18.963300 0.000000
-18.913000 0.000000
-18.862600 0.000000
-18.812200 0.000000
-18.761800 0.000000
-18.711400 0.000000
-18.661000 0.000000
-18.610600 0.000000
-18.560200 0.000000
-18.509900 0.000000
-18.459500 0.000000
-18.409100 0.000000
-18.358700 0.000000
-18.308300 0.000000
-18.257900 0.000000
-18.207500 0.000000
-18.157100 0.000000
-18.106700 0.000000
-18.056400 0.000000
-18.006000 0.000000
-17.955600 0.000000
-17.905200 0.000000
-17.854800 0.000000
-17.804400 0.000000
-17.754000 0.000000
-17.703600 0.000000
-17.653200 0.000000
-17.602900 0.000000
-17.552500 0.000000
-17.502100 0.000000
-17.451700 0.000000
-17.401300 0.000000
-17.350900 0.000000
-17.300500 0.000000
-17.250100 0.000000
-17.199800 0.000000
-17.149400 0.000000
-17.099000 0.000000
-17.048600 0.000000
-16.998200 0.000000
-16.947800 0.000000
-16.897400 0.000000
-16.847000 0.000000
-16.796600 0.000000
-16.746300 0.000000
-16.695900 0.000000
-16.645500 0.000000
-16.595100 0.000000
-16.544700 0.000000
-16.494300 0.000000
-16.443900 0.000000
-16.393500 0.000000
-16.343100 0.000000
-16.292800 0.000000
-16.242400 0.000000
-16.192000 0.000000
-16.141600 0.000000
-16.091200 0.000000
-16.040800 0.000000
-15.990400 0.000000
-15.940000 0.000000
-15.889700 0.000000
-15.839300 0.000000
-15.788900 0.000000
-15.738500 0.000000
-15.688100 0.000000
-15.637700 0.000000
-15.587300 0.000000
-15.536900 0.000000
-15.486500 0.000000
-15.436200 0.000000
-15.385800 0.000000
-15.335400 0.000000
-15.285000 0.000000
-15.234600 0.000000
-15.184200 0.000000
-15.133800 0.000000
-15.083400 0.000000
-15.033000 0.000000
-14.982700 0.000000
-14.932300 0.000000
-14.881900 0.000000
-14.831500 0.000000
-14.781100 0.000000
-14.730700 0.000000
-14.680300 0.000000
-14.629900 0.000000
-14.579600 0.000000
-14.529200 0.000000
-14.478800 0.000000
-14.428400 0.000000
-14.378000 0.000000
-14.327600 0.000000
-14.277200 0.000000
-14.226800 0.000000
-14.176400 0.000000
-14.126100 0.000000
-14.075700 0.000000
-14.025300 0.000000
-13.974900 0.000000
-13.924500 0.000000
-13.874100 0.000000
-13.823700 0.000000
-13.773300 0.000000
-13.722900 0.000000
-13.672600 0.000000
-13.622200 0.000000
-13.571800 0.000000
-13.521400 0.000000
-13.471000 0.000000
-13.420600 0.000000
-13.370200 0.000000
-13.319800 0.000000
-13.269400 0.000000
-13.219100 0.000000
-13.168700 0.000000
-13.118300 0.000000
-13.067900 0.000000
-13.017500 0.000000
-12.967100 0.000000
-12.916700 0.000000
-12.866300 0.000000
-12.816000 0.000000
-12.765600 0.000000
-12.715200 0.000000
-12.664800 0.000000
-12.614400 0.000000
-12.564000 0.000000
-12.513600 0.000000
-12.463200 0.000000
-12.412800 0.000000
-12.362500 0.000000
-12.312100 0.000000
-12.261700 0.000000
-12.211300 0.000000
-12.160900 0.000000
-12.110500 0.000000
-12.060100 0.000000
-12.009700 0.000000
-11.959300 0.000000
-11.909000 0.000000
-11.858600 0.000000
-11.808200 0.000000
-11.757800 0.000000
-11.707400 0.000000
-11.657000 0.000000
-11.606600 0.000000
-11.556200 0.000000
-11.505900 0.000000
-11.455500 0.000000
-11.405100 0.000000
-11.354700 0.000000
-11.304300 0.000000
-11.253900 0.000000
-11.203500 0.000000
-11.153100 0.000000
-11.102700 0.000000
-11.052400 0.000000
-11.002000 0.000000
-10.951600 0.000000
-10.901200 0.000000
-10.850800 0.000000
-10.800400 0.000000
-10.750000 0.000000
-10.699600 0.000000
-10.649200 0.000000
-10.598900 0.000000
-10.548500 0.000000
-10.498100 0.000000
-10.447700 0.000000
-10.397300 0.000000
-10.346900 0.000000
-10.296500 0.000000
-10.246100 0.000000
-10.195800 0.000000
-10.145400 0.000000
-10.095000 0.000000
-10.044600 0.000000
-9.994200 0.000000
-9.943800 0.000000
-9.893400 0.000000
-9.843000 0.000000
-9.792600 0.000000
-9.742300 0.000000
-9.691900 0.000000
-9.641500 0.000000
-9.591100 0.000000
-9.540700 0.000000
-9.490300 0.000000
-9.439900 0.000000
-9.389500 0.000000
-9.339100 0.000000
-9.288800 0.000000
-9.238400 0.000000
-9.188000 0.000000
-9.137600 0.000000
-9.087200 0.000000
-9.036800 0.000000
-8.986400 0.000000
-8.936000 0.000000
-8.885700 0.000000
-8.835300 0.000000
-8.784900 0.000000
-8.734500 0.000000
-8.684100 0.000000
-8.633700 0.000000
-8.583300 0.000000
-8.532900 0.000000
-8.482500 0.000000
-8.432200 0.000000
-8.381800 0.000000
-8.331400 0.000000
-8.281000 0.000000
-8.230600 0.000000
-8.180200 0.000000
-8.129800 0.000000
-8.079400 0.000000
-8.029000 0.000000
-7.978700 0.000000
-7.928300 0.000000
-7.877900 0.000000
-7.827500 0.000000
-7.777100 0.000000
-7.726700 0.000000
-7.676300 0.000000
-7.625900 0.000000
-7.575600 0.000000
-7.525200 0.000000
-7.474800 0.000000
-7.424400 0.000000
-7.374000 0.000000
-7.323600 0.000000
-7.273200 0.000000
-7.222800 0.000000
-7.172400 0.000000
-7.122100 0.000000
-7.071700 0.000000
-7.021300 0.000000
-6.970900 0.000000
-6.920500 0.000000
-6.870100 0.000000
-6.819700 0.000000
-6.769300 0.000000
-6.718900 0.000000
-6.668600 0.000000
-6.618200 0.000000
-6.567800 0.000000
-6.517400 0.000000
-6.467000 0.000000
-6.416600 0.000000
-6.366200 0.000000
-6.315800 0.000000
-6.265400 0.000000
-6.215100 0.000000
-6.164700 0.000000
-6.114300 0.000000
-6.063900 0.000000
-6.013500 0.000000
-5.963100 0.000000
-5.912700 0.000000
-5.862300 0.000000
-5.812000 0.000000
-5.761600 0.000000
-5.711200 0.000000
-5.660800 0.000000
-5.610400 0.000000
-5.560000 0.000000
-5.509600 0.000000
-5.459200 0.000000
-5.408800 0.000000
-5.358500 0.000000
-5.308100 0.000000
-5.257700 0.000000
-5.207300 0.000000
-5.156900 0.000000
-5.106500 0.000000
-5.056100 0.000000
-5.005700 0.000000
-4.955300 0.000000
-4.905000 0.000000
-4.854600 0.000000
-4.804200 0.000000
-4.753800 0.000000
-4.703400 0.000000
-4.653000 0.000000
-4.602600 0.000000
-4.552200 0.000000
-4.501900 0.000000
-4.451500 0.000000
-4.401100 0.000000
-4.350700 0.000000
-4.300300 0.000000
-4.249900 0.000000
-4.199500 0.000000
-4.149100 0.000000
-4.098700 0.000000
-4.048400 0.000000
-3.998000 0.000000
-3.947600 0.000000
-3.897200 0.000000
-3.846800 0.000000
-3.796400 0.000000
-3.746000 0.000400
-3.695600 0.017700
-3.645200 0.043100
-3.594900 0.050300
-3.544500 0.060100
-3.494100 0.067800
-3.443700 0.078800
-3.393300 0.087200
-3.342900 0.092200
-3.292500 0.098600
-3.242100 0.104600
-3.191800 0.110800
-3.141400 0.117700
-3.091000 0.125300
-3.040600 0.133600
-2.990200 0.139900
-2.939800 0.145800
-2.889400 0.152600
-2.839000 0.159900
-2.788600 0.167300
-2.738300 0.175900
-2.687900 0.185400
-2.637500 0.197000
-2.587100 0.210000
-2.536700 0.225100
-2.486300 0.242800
-2.435900 0.263000
-2.385500 0.288600
-2.335100 0.320700
-2.284800 0.389700
-2.234400 0.480500
-2.184000 0.551800
-2.133600 0.938200
-2.083200 1.432800
-2.032800 3.770300
-1.982400 7.847000
-1.932000 9.353400
-1.881700 10.672300
-1.831300 16.205200
-1.780900 17.090300
-1.730500 14.906600
-1.680100 5.923200
-1.629700 2.275900
-1.579300 1.856100
-1.528900 1.806400
-1.478500 0.456900
-1.428200 0.449400
-1.377800 0.446700
-1.327400 0.424100
-1.277000 0.401400
-1.226600 0.388700
-1.176200 0.387500
-1.125800 0.382700
-1.075400 0.377500
-1.025000 0.379200
-0.974700 0.382100
-0.924300 0.385800
-0.873900 0.391000
-0.823500 0.399400
-0.773100 0.410100
-0.722700 0.425900
-0.672300 0.445700
-0.621900 0.472000
-0.571600 0.520300
-0.521200 0.568500
-0.470800 0.633900
-0.420400 0.688100
-0.370000 0.749400
-0.319600 0.838400
-0.269200 0.820900
-0.218800 0.724300
-0.168400 0.739000
-0.118100 0.718900
-0.067700 0.064000
-0.017300 0.070700
0.033100 0.077500
0.083500 0.085600
0.133900 0.094200
0.184300 0.102500
0.234700 0.112300
0.285100 0.152600
0.335400 0.218900
0.385800 0.252000
0.436200 0.285300
0.486600 0.321600
0.537000 0.376700
0.587400 0.429100
0.637800 0.477800
0.688200 0.534300
0.738500 0.626300
0.788900 0.673600
0.839300 0.699500
0.889700 0.709100
0.940100 0.764600
0.990500 0.822800
1.040900 1.004100
1.091300 1.066300
1.141700 1.085100
1.192000 1.105200
1.242400 1.075700
1.292800 1.064200
1.343200 1.150100
1.393600 0.991700
1.444000 0.985800
1.494400 1.051200
1.544800 1.067800
1.595200 1.084000
1.645500 1.042300
1.695900 0.978200
1.746300 0.975500
1.796700 1.014900
1.847100 1.093600
1.897500 1.294200
1.947900 1.388700
1.998300 1.396200
2.048700 1.696000
2.099000 2.165700
2.149400 2.013600
2.199800 1.853500
2.250200 1.547900
2.300600 2.468700
2.351000 3.007500
2.401400 3.448500
2.451800 3.048400
2.502100 3.074500
2.552500 4.462600
2.602900 3.280900
2.653300 3.959700
2.703700 4.469300
2.754100 3.602300
2.804500 3.968900
2.854900 3.053100
2.905300 2.782600
2.955600 2.913500
3.006000 3.315400
3.056400 4.027200
3.106800 4.696200
3.157200 4.385300
3.207600 3.589200
3.258000 2.852200
3.308400 2.627700
3.358800 2.335000
3.409100 2.269200
3.459500 1.663600
3.509900 1.819100
3.560300 2.056200
3.610700 2.409700
3.661100 2.487400
3.711500 2.761000
3.761900 3.235200
3.812200 3.110900
3.862600 3.216000
3.913000 3.931500
3.963400 4.467800
4.013800 4.004800
4.064200 4.730800
4.114600 4.258600
4.165000 3.419900
4.215400 3.352800
4.265700 3.094500
4.316100 2.759400
4.366500 2.901300
4.416900 2.555800
4.467300 2.335400
4.517700 2.228300
4.568100 2.791100
4.618500 2.223200
4.668900 2.286800
4.719200 4.056800
4.769600 6.080900
4.820000 4.599100
4.870400 3.373000
4.920800 3.526800
4.971200 3.267800
5.021600 3.163600
5.072000 3.467400
5.122300 4.615000
5.172700 5.407100
5.223100 4.182300
5.273500 3.598900
5.323900 2.924700
5.374300 2.907100
5.424700 2.990300
5.475100 3.094500
5.525500 3.562700
5.575800 3.350400
5.626200 3.310700
5.676600 2.745300
5.727000 2.695800
5.777400 2.947100
5.827800 2.518400
5.878200 2.184000
5.928600 1.605500
5.979000 1.804200
6.029300 1.827400
6.079700 6.827300
6.130100 3.236800
6.180500 2.549100
6.230900 3.011600
6.281300 3.100900
6.331700 2.782800
6.382100 2.512900
6.432400 1.872300
6.482800 1.499400
6.533200 1.396700
6.583600 1.307900
6.634000 1.204600
6.684400 1.066000
6.734800 1.002700
6.785200 0.969500
6.835600 0.924300
6.885900 0.874000
6.936300 0.877900
6.986700 0.838400
7.037100 0.732900
7.087500 0.690800
7.137900 0.667000
7.188300 0.646700
7.238700 0.634800
7.289100 0.631400
7.339400 0.637400
7.389800 0.615400
7.440200 0.605400
7.490600 0.594300
7.541000 0.582300
7.591400 0.573400
7.641800 0.566100
7.692200 0.559500
7.742500 0.582400
7.792900 0.580000
7.843300 0.585000
7.893700 0.591000
7.944100 0.597300
7.994500 0.600600
8.044900 0.611300
8.095300 0.627800
8.145700 0.648100
8.196000 0.667800
8.246400 0.680100
8.296800 0.682600
8.347200 0.704300
8.397600 0.719000
8.448000 0.714900
8.498400 0.694700
8.548800 0.654300
8.599200 0.629000
8.649500 0.588300
8.699900 0.547500
8.750300 0.489800
8.800700 0.459000
8.851100 0.447700
8.901500 0.440000
8.951900 0.435600
9.002300 0.419600
9.052600 0.402200
9.103000 0.377400
9.153400 0.365200
9.203800 0.353800
9.254200 0.342700
9.304600 0.338900
9.355000 0.332600
9.405400 0.330800
9.455800 0.330000
9.506100 0.329100
9.556500 0.329800
9.606900 0.337300
9.657300 0.355000
9.707700 0.414900
9.758100 0.476300
9.808500 0.526000
9.858900 0.533700
9.909300 0.512900
9.959600 0.495500
10.010000 0.478300
10.060400 0.460500
10.110800 0.443600
10.161200 0.415300
10.211600 0.398400
10.262000 0.382700
10.312400 0.371700
10.362800 0.364100
10.413100 0.346100
10.463500 0.336200
10.513900 0.327200
10.564300 0.319400
10.614700 0.299200
10.665100 0.288200
10.715500 0.279900
10.765900 0.272200
10.816200 0.270600
10.866600 0.305400
10.917000 0.365300
10.967400 0.438200
11.017800 0.442400
11.068200 0.457200
11.118600 0.553500
11.169000 0.606300
11.219400 0.623500
11.269700 0.632000
11.320100 0.584000
11.370500 0.508800
11.420900 0.468700
11.471300 0.441700
11.521700 0.421900
11.572100 0.392800
11.622500 0.375100
11.672900 0.360500
11.723200 0.357000
11.773600 0.355500
11.824000 0.355700
11.874400 0.362700
11.924800 0.371700
11.975200 0.380400
12.025600 0.387900
12.076000 0.410100
12.126300 0.410500
12.176700 0.440500
12.227100 0.493900
12.277500 0.569600
12.327900 0.617700
12.378300 0.646100
12.428700 0.666000
12.479100 0.672300
12.529500 0.642600
12.579800 0.633300
12.630200 0.627100
12.680600 0.631800
12.731000 0.616200
12.781400 0.614400
12.831800 0.610800
12.882200 0.594000
12.932600 0.587600
12.983000 0.585700
13.033300 0.587600
13.083700 0.580900
13.134100 0.577400
13.184500 0.607900
13.234900 0.600900
13.285300 0.603400
13.335700 0.615400
13.386100 0.616100
13.436400 0.620200
13.486800 0.617300
13.537200 0.618700
13.587600 0.632100
13.638000 0.650600
13.688400 0.623200
13.738800 0.614300
13.789200 0.604100
13.839600 0.585800
13.889900 0.588300
13.940300 0.568500
13.990700 0.555200
14.041100 0.551400
14.091500 0.548700
14.141900 0.545100
14.192300 0.541700
14.242700 0.536800
14.293100 0.534300
14.343400 0.533900
14.393800 0.535000
14.444200 0.536000
14.494600 0.575400
14.545000 0.569600
14.595400 0.577200
14.645800 0.585700
14.696200 0.595900
14.746500 0.603300
14.796900 0.612000
14.847300 0.622700
14.897700 0.640500
14.948100 0.655300
14.998500 0.677700
15.048900 0.699800
15.099300 0.711300
15.149700 0.734200
15.200000 0.757700
15.250400 0.772500
15.300800 0.789600
15.351200 0.818300
15.401600 0.863100
15.452000 0.905900
15.502400 0.927500
15.552800 0.931100
15.603200 0.919700
15.653500 0.902500
15.703900 0.913600
15.754300 0.924800
15.804700 0.930000
15.855100 0.934700
15.905500 0.963500
15.955900 0.846100
16.006300 0.802800
16.056600 0.795800
16.107000 0.769800
16.157400 0.743200
16.207800 0.721300
16.258200 0.711700
16.308600 0.701000
16.359000 0.678300
16.409400 0.676700
16.459800 0.676700
16.510100 0.687400
16.560500 0.702800
16.610900 0.698900
16.661300 0.700100
16.711700 0.695500
16.762100 0.721300
16.812500 0.743800
16.862900 0.718300
16.913300 0.702900
16.963600 0.679500
17.014000 0.738400
17.064400 0.743300
17.114800 0.722400
17.165200 0.712700
17.215600 0.691100
17.266000 0.675600
17.316400 0.685600
17.366700 0.697900
17.417100 0.731600
17.467500 0.767400
17.517900 0.750100
17.568300 0.738500
17.618700 0.726400
17.669100 0.718400
17.719500 0.714800
17.769900 0.719400
17.820200 0.730900
17.870600 0.759900
17.921000 0.776800
17.971400 0.790800
18.021800 0.846200
18.072200 0.827000
18.122600 0.949700
18.173000 0.948400
18.223400 0.928000
18.273700 0.917000
18.324100 0.899300
18.374500 0.843700
18.424900 0.808700
18.475300 0.817800
18.525700 0.819200
18.576100 0.782900
18.626500 0.792700
18.676900 0.788500
18.727200 0.795400
18.777600 0.823700
18.828000 0.856500
18.878400 0.949500
18.928800 0.895500
18.979200 0.900900
19.029600 0.905500
19.080000 0.908100
19.130300 0.910000
19.180700 0.927200
19.231100 0.942400
19.281500 0.964600
19.331900 0.961800
19.382300 0.930500
19.432700 0.884900
19.483100 0.809000
19.533500 0.778800
19.583800 0.809600
19.634200 0.822900
19.684600 0.852300
19.735000 0.881400
19.785400 0.889100
19.835800 0.903600
19.886200 0.931400
19.936600 0.913500
19.987000 0.896000
20.037300 0.891400
20.087700 0.867300
20.138100 0.849600
20.188500 0.857800
20.238900 0.882000
20.289300 0.934100
20.339700 1.034000
20.390100 1.069600
20.440400 1.025000
20.490800 0.958000
20.541200 0.872500
20.591600 0.848100
20.642000 0.821500
20.692400 0.800500
20.742800 0.759700
20.793200 0.753000
20.843600 0.770000
20.893900 0.778800
20.944300 0.771700
20.994700 0.793000
21.045100 0.810200
21.095500 0.825900
21.145900 0.820700
21.196300 0.809000
21.246700 0.808000
21.297100 0.807800
21.347400 0.813500
21.397800 0.816700
21.448200 0.825800
21.498600 0.843700
21.549000 0.839800
21.599400 0.832000
21.649800 0.834600
21.700200 0.841600
21.750500 0.852700
21.800900 0.862200
21.851300 0.891100
21.901700 0.912800
21.952100 0.887200
22.002500 0.878800
22.052900 0.861400
22.103300 0.844300
22.153700 0.834400
22.204000 0.822000
22.254400 0.810900
22.304800 0.797900
22.355200 0.808500
22.405600 0.769600
22.456000 0.742100
22.506400 0.726500
22.556800 0.716900
22.607200 0.706100
22.657500 0.700200
22.707900 0.707000
22.758300 0.716000
22.808700 0.739000
22.859100 0.747800
22.909500 0.759900
22.959900 0.774700
23.010300 0.784300
23.060600 0.798400
23.111000 0.808100
23.161400 0.823400
23.211800 0.847000
23.262200 0.846700
23.312600 0.843000
23.363000 0.792300
23.413400 0.773400
23.463800 0.758900
23.514100 0.749300
23.564500 0.748800
23.614900 0.753800
23.665300 0.733400
23.715700 0.720800
23.766100 0.743600
23.816500 0.739100
23.866900 0.740300
23.917300 0.756900
23.967600 0.798800
24.018000 0.865700
24.068400 0.831100
24.118800 0.808600
24.169200 0.816700
24.219600 0.810200
24.270000 0.794800
24.320400 0.787000
24.370700 0.773400
24.421100 0.759700
24.471500 0.765600
24.521900 0.790600
24.572300 0.813100
24.622700 0.844500
24.673100 0.839100
24.723500 0.827600
24.773900 0.852600
24.824200 0.849500
24.874600 0.842000
24.925000 0.833500
24.975400 0.852700
25.025800 0.878100
25.076200 0.917900
25.126600 0.938100
25.177000 0.949700
25.227400 0.963500
25.277700 0.983300
25.328100 0.953200
25.378500 0.926400
25.428900 0.915400
25.479300 0.919000
25.529700 0.923100
25.580100 0.907700
25.630500 0.853200
25.680800 0.792800
25.731200 0.793700
25.781600 0.811300
25.832000 0.832900
25.882400 0.847800
25.932800 0.893200
25.983200 0.948600
26.033600 0.983900
26.084000 1.028700
26.134300 1.072900
26.184700 1.075100
26.235100 1.077000
26.285500 1.078800
26.335900 1.089700
26.386300 1.118100
26.436700 1.138200
26.487100 1.066200
26.537500 0.982500
26.587800 0.971900
26.638200 0.971800
26.688600 0.977300
26.739000 0.946700
26.789400 0.946700
26.839800 0.916200
26.890200 0.896400
26.940600 0.887300
26.991000 0.888000
27.041300 0.894700
27.091700 0.924800
27.142100 0.988100
27.192500 1.139200
27.242900 1.100600
27.293300 1.097200
27.343700 1.050100
27.394100 1.012300
27.444400 0.990800
27.494800 0.969100
27.545200 0.955600
27.595600 0.949700
27.646000 0.957600
27.696400 0.957100
27.746800 0.959400
27.797200 0.964500
27.847600 0.963800
27.897900 0.981300
27.948300 0.974400
27.998700 0.958800
28.049100 0.937900
28.099500 0.918300
28.149900 0.921200
28.200300 0.928200
28.250700 0.934800
28.301100 0.946100
28.351400 0.965300
28.401800 0.976800
28.452200 0.945600
28.502600 0.962200
28.553000 1.001000
28.603400 0.986100
28.653800 1.045300
28.704200 1.036100
28.754500 0.961300
28.804900 0.923700
28.855300 0.915900
28.905700 0.930600
28.956100 0.971500
29.006500 1.004400
29.056900 0.975800
29.107300 0.941700
29.157700 0.909900
29.208000 0.889300
29.258400 0.863900
29.308800 0.857300
29.359200 0.855300
29.409600 0.863100
29.460000 0.870100
29.510400 0.907300
29.560800 0.864500
29.611200 0.862100
29.661500 0.866300
29.711900 0.874800
29.762300 0.875400
29.812700 0.883500
29.863100 0.893200
29.913500 0.871800
29.963900 0.845900
30.014300 0.843800
30.064600 0.856700
30.115000 0.927700
30.165400 0.943100
30.215800 0.945200
30.266200 0.895500
30.316600 0.817300
30.367000 0.730300
30.417400 0.664400
30.467800 0.634200
30.518100 0.630700
30.568500 0.654000
30.618900 0.691300
30.669300 0.754000
30.719700 0.819900
30.770100 0.893100
30.820500 0.979000
30.870900 1.070400
30.921300 1.192500
30.971600 1.219400
31.022000 1.240600
31.072400 1.221100
31.122800 1.180500
31.173200 1.098700
31.223600 1.011100
31.274000 0.958200
31.324400 0.928700
31.374700 0.884400
31.425100 0.916500
31.475500 0.914600
31.525900 0.901500
31.576300 0.895600
31.626700 0.913900
31.677100 0.909400
31.727500 0.918800
31.777900 0.886800
31.828200 0.886000
31.878600 0.897100
31.929000 0.914500
31.979400 0.942400
32.029800 0.965500
32.080200 0.935800
32.130600 0.894500
32.181000 0.856800
32.231400 0.847300
32.281700 0.837600
32.332100 0.836700
32.382500 0.842700
32.432900 0.845200
32.483300 0.848800
32.533700 0.870700
32.584100 0.877800
32.634500 0.850300
32.684800 0.833200
32.735200 0.832400
32.785600 0.832200
32.836000 0.797700
32.886400 0.777000
32.936800 0.745100
32.987200 0.734400
33.037600 0.732500
33.088000 0.731800
33.138300 0.762600
33.188700 0.766200
33.239100 0.803500
33.289500 0.790800
33.339900 0.813900
33.390300 0.823100
33.440700 0.805900
33.491100 0.798200
33.541500 0.852000
33.591800 0.908900
33.642200 0.979100
33.692600 1.043600
33.743000 1.052100
33.793400 1.073800
33.843800 1.098500
33.894200 1.106400
33.944600 1.132300
33.995000 1.117800
34.045300 1.123100
34.095700 1.105200
34.146100 1.167200
34.196500 1.103700
34.246900 1.117400
34.297300 1.108600
34.347700 1.171400
34.398100 1.213800
34.448400 1.227800
34.498800 1.279200
34.549200 1.311800
34.599600 1.303600
34.650000 1.141800
34.700400 1.155400
34.750800 1.176500
34.801200 1.200600
34.851600 1.166700
34.901900 1.112300
34.952300 1.085300
35.002700 1.082900
35.053100 1.081700
35.103500 1.074700
35.153900 1.061400
35.204300 1.055800
35.254700 1.067800
35.305100 1.080000
35.355400 1.103100
35.405800 1.105000
35.456200 1.113600
35.506600 1.115100
35.557000 1.174600
35.607400 1.198200
35.657800 1.174400
35.708200 1.130000
35.758500 1.065500
35.808900 1.032600
35.859300 1.014600
35.909700 0.995600
35.960100 0.978400
36.010500 0.971900
36.060900 0.981800
36.111300 0.983600
36.161700 1.021800
36.212000 1.020100
36.262400 1.020300
36.312800 1.000300
36.363200 0.968500
36.413600 0.957300
36.464000 0.954400
36.514400 0.960700
36.564800 0.961400
36.615200 0.971900
36.665500 0.973300
36.715900 0.947000
36.766300 0.941900
36.816700 0.948000
36.867100 0.962500
36.917500 1.008900
36.967900 1.052000
37.018300 1.063900
37.068600 1.073500
37.119000 1.091000
37.169400 1.136500
37.219800 1.122100
37.270200 1.093700
37.320600 1.059500
37.371000 1.070900
37.421400 1.084600
37.471800 1.100200
37.522100 1.097700
37.572500 1.057000
37.622900 1.025200
37.673300 1.014100
37.723700 1.022200
37.774100 1.028000
37.824500 1.045400
37.874900 1.066500
37.925300 1.085900
37.975600 1.095000
38.026000 1.103900
38.076400 1.104900
38.126800 1.096500
38.177200 1.104000
38.227600 1.106900
38.278000 1.092700
38.328400 1.093700
38.378700 1.093200
38.429100 1.090200
38.479500 1.090100
38.529900 1.094300
38.580300 1.149200
38.630700 1.162300
38.681100 1.124400
38.731500 1.144800
38.781900 1.168200
38.832200 1.140100
38.882600 1.096500
38.933000 1.081900
38.983400 1.082400
39.033800 1.089600
39.084200 1.109800
39.134600 1.132400
39.185000 1.176900
39.235400 1.178400
39.285700 1.182200
39.336100 1.191300
39.386500 1.198900
39.436900 1.119800
39.487300 1.088800
39.537700 1.068200
39.588100 1.058000
39.638500 1.049300
39.688800 1.049700
39.739200 0.993800
39.789600 0.958800
39.840000 0.940200
39.890400 0.944800
39.940800 0.934200
39.991200 0.929300
40.041600 0.929200
40.092000 0.937100
40.142300 0.951800
40.192700 0.982000
40.243100 0.997600
40.293500 0.994400
40.343900 0.998000
40.394300 1.016000
40.444700 1.036700
40.495100 1.053400
40.545500 1.060200
40.595800 1.056900
40.646200 1.062100
40.696600 1.077900
40.747000 1.096500
40.797400 1.105900
40.847800 1.110600
40.898200 1.149600
40.948600 1.203100
40.998900 1.155200
41.049300 1.116500
41.099700 1.074300
41.150100 1.059200
41.200500 1.025100
41.250900 1.015800
41.301300 1.011800
41.351700 1.023600
41.402100 0.986800
41.452400 0.984800
41.502800 0.987000
41.553200 0.968700
41.603600 0.948800
41.654000 0.958700
41.704400 0.969400
41.754800 0.983200
41.805200 1.020400
41.855600 1.100900
41.905900 1.156400
41.956300 1.197900
42.006700 1.220300
42.057100 1.237800
42.107500 1.256000
42.157900 1.271600
42.208300 1.289900
42.258700 1.309300
42.309100 1.278000
42.359400 1.190100
42.409800 1.163200
42.460200 1.152100
42.510600 1.104600
42.561000 1.083800
42.611400 1.103600
42.661800 1.110900
42.712200 1.127600
42.762500 1.116100
42.812900 1.102900
42.863300 1.084200
42.913700 1.066100
42.964100 1.103200
43.014500 1.141400
43.064900 1.136000
43.115300 1.114700
43.165700 1.084100
43.216000 1.059900
43.266400 1.036200
43.316800 1.004500
43.367200 0.983800
43.417600 0.990100
43.468000 0.996400
43.518400 1.030300
43.568800 1.029700
43.619200 1.031900
43.669500 1.057800
43.719900 1.093100
43.770300 1.147800
43.820700 1.206000
43.871100 1.267000
43.921500 1.197400
43.971900 1.117900
44.022300 1.070000
44.072600 1.078900
44.123000 1.092500
44.173400 1.136500
44.223800 1.186000
44.274200 1.239700
44.324600 1.269900
44.375000 1.294900
44.425400 1.292100
44.475800 1.253700
44.526100 1.182400
44.576500 1.103800
44.626900 0.999600
44.677300 0.950700
44.727700 0.845800
44.778100 0.846800
44.828500 0.681000
44.878900 0.633400
44.929300 0.569000
44.979600 0.535200
45.030000 0.506900
45.080400 0.484200
45.130800 0.467200
45.181200 0.452500
45.231600 0.443500
45.282000 0.441600
45.332400 0.424100
45.382700 0.409800
45.433100 0.395300
45.483500 0.382200
45.533900 0.366300
45.584300 0.346900
45.634700 0.323600
45.685100 0.307200
45.735500 0.298000
45.785900 0.287900
45.836200 0.279700
45.886600 0.279100
45.937000 0.284200
45.987400 0.280600
46.037800 0.278200
46.088200 0.269300
46.138600 0.254200
46.189000 0.243700
46.239400 0.234700
46.289700 0.224900
46.340100 0.214300
46.390500 0.203600
46.440900 0.194600
46.491300 0.184300
46.541700 0.185500
46.592100 0.189800
46.642500 0.185500
46.692800 0.185900
46.743200 0.168000
46.793600 0.155100
46.844000 0.145200
46.894400 0.131500
46.944800 0.117400
46.995200 0.107800
47.045600 0.100500
47.096000 0.092500
47.146300 0.090300
47.196700 0.087400
47.247100 0.082500
47.297500 0.076900
47.347900 0.070900
47.398300 0.062900
47.448700 0.052200
47.499100 0.044600
47.549500 0.039200
47.599800 0.035900
47.650200 0.033700
47.700600 0.031700
47.751000 0.029600
47.801400 0.027400
47.851800 0.025100
47.902200 0.022700
47.952600 0.020200
48.002900 0.021500
48.053300 0.007000
48.103700 0.000500
48.154100 0.000000
48.204500 0.000000
48.254900 0.000000
48.305300 0.000000
48.355700 0.000000
48.406100 0.000000
48.456400 0.000000
48.506800 0.000000
48.557200 0.000000
48.607600 0.000000
48.658000 0.000000
48.708400 0.000000
48.758800 0.000000
48.809200 0.000000
48.859600 0.000000
48.909900 0.000000
48.960300 0.000000
49.010700 0.000000
49.061100 0.000000
49.111500 0.000000
49.161900 0.000000
49.212300 0.000000
49.262700 0.000000
49.313000 0.000000
49.363400 0.000000
49.413800 0.000000
49.464200 0.000000
49.514600 0.000000
49.565000 0.000000
49.615400 0.000000
49.665800 0.000000
49.716200 0.000000
49.766500 0.000000
49.816900 0.000000
49.867300 0.000000
49.917700 0.000000
49.968100 0.000000
50.018500 0.000000
50.068900 0.000000
50.119300 0.000000
50.169700 0.000000
50.220000 0.000000
50.270400 0.000000
50.320800 0.000000
50.371200 0.000000
50.421600 0.000000
50.472000 0.000000
50.522400 0.000000
50.572800 0.000000
50.623200 0.000000
50.673500 0.000000
50.723900 0.000000
50.774300 0.000000
50.824700 0.000000
50.875100 0.000000
50.925500 0.000000
50.975900 0.000000
51.026300 0.000000
51.076600 0.000000
51.127000 0.000000
51.177400 0.000000
51.227800 0.000000
51.278200 0.000000
51.328600 0.000000
51.379000 0.000000
51.429400 0.000000
51.479800 0.000000
51.530100 0.000000
51.580500 0.000000
51.630900 0.000000
51.681300 0.000000
51.731700 0.000000
51.782100 0.000000
51.832500 0.000000
51.882900 0.000000
51.933300 0.000000
51.983600 0.000000
52.034000 0.000000
52.084400 0.000000
52.134800 0.000000
52.185200 0.000000
52.235600 0.000000
52.286000 0.000000
52.336400 0.000000
52.386700 0.000000
52.437100 0.000000
52.487500 0.000000
52.537900 0.000000
52.588300 0.000000
52.638700 0.000000
52.689100 0.000000
52.739500 0.000000
52.789900 0.000000
52.840200 0.000000
52.890600 0.000000
52.941000 0.000000
52.991400 0.000000
e
