set title 'mp-557376 - Density of States'
set xlabel 'Energy (eV)'
set ylabel 'DOS (states/eV)'
set grid
set xrange [-10:10]
set yrange [0:236.100]
set xzeroaxis lt -1
set terminal png size 800,600
set output 'mp-557376_dos_gnuplot.png'
plot '-' using 1:2 with lines title 'DOS'
-17.170300 0.000000
-17.155100 0.000000
-17.139800 0.000000
-17.124600 0.000000
-17.109400 0.000000
-17.094200 0.000000
-17.078900 0.000000
-17.063700 0.000000
-17.048500 0.000000
-17.033300 0.000000
-17.018000 0.000000
-17.002800 0.000000
-16.987600 0.000000
-16.972400 0.000000
-16.957100 0.000000
-16.941900 0.000000
-16.926700 0.000000
-16.911500 0.000000
-16.896200 0.000000
-16.881000 0.000000
-16.865800 0.000000
-16.850600 0.000000
-16.835300 0.000000
-16.820100 0.000000
-16.804900 0.000000
-16.789700 0.000000
-16.774400 0.000000
-16.759200 0.000000
-16.744000 0.000000
-16.728800 0.000000
-16.713500 0.000000
-16.698300 0.000000
-16.683100 0.000000
-16.667900 0.000000
-16.652600 0.000000
-16.637400 0.000000
-16.622200 0.000000
-16.607000 0.000000
-16.591700 0.000000
-16.576500 0.000000
-16.561300 0.000000
-16.546100 0.000000
-16.530800 0.000000
-16.515600 0.000000
-16.500400 0.000000
-16.485200 0.000000
-16.469900 0.000000
-16.454700 0.000000
-16.439500 0.000000
-16.424300 0.000000
-16.409000 0.000000
-16.393800 0.000000
-16.378600 0.000000
-16.363300 0.000000
-16.348100 0.000000
-16.332900 0.000000
-16.317700 0.000000
-16.302400 0.000000
-16.287200 0.000000
-16.272000 0.000000
-16.256800 0.000000
-16.241500 0.000000
-16.226300 0.000000
-16.211100 0.000000
-16.195900 0.000000
-16.180600 0.000000
-16.165400 0.000000
-16.150200 0.000000
-16.135000 0.000000
-16.119700 0.000000
-16.104500 0.000000
-16.089300 0.000000
-16.074100 0.000000
-16.058800 0.000000
-16.043600 0.000000
-16.028400 0.000000
-16.013200 0.000000
-15.997900 0.000000
-15.982700 0.000000
-15.967500 0.000000
-15.952300 0.000000
-15.937000 0.000000
-15.921800 0.000000
-15.906600 0.000000
-15.891400 0.000000
-15.876100 0.000000
-15.860900 0.000000
-15.845700 0.000000
-15.830500 0.000000
-15.815200 0.000000
-15.800000 0.000000
-15.784800 0.084900
-15.769600 12.963100
-15.754300 72.364300
-15.739100 38.805000
-15.723900 96.117000
-15.708700 4.813000
-15.693400 0.000000
-15.678200 0.000000
-15.663000 0.000000
-15.647800 0.000000
-15.632500 0.000000
-15.617300 0.000000
-15.602100 0.000000
-15.586900 0.000000
-15.571600 0.000000
-15.556400 0.000000
-15.541200 0.000000
-15.525900 0.000000
-15.510700 0.000000
-15.495500 0.000000
-15.480300 0.000000
-15.465000 0.000000
-15.449800 0.000000
-15.434600 0.000000
-15.419400 0.000000
-15.404100 0.000000
-15.388900 0.000000
-15.373700 0.000000
-15.358500 0.000000
-15.343200 0.000000
-15.328000 0.000000
-15.312800 0.000000
-15.297600 0.000000
-15.282300 0.000000
-15.267100 0.000000
-15.251900 0.971600
-15.236700 58.709000
-15.221400 112.709600
-15.206200 60.706300
-15.191000 184.296000
-15.175800 0.000000
-15.160500 0.000000
-15.145300 0.000000
-15.130100 0.000000
-15.114900 0.000000
-15.099600 0.000000
-15.084400 0.000000
-15.069200 0.000000
-15.054000 0.000000
-15.038700 0.000000
-15.023500 0.000000
-15.008300 0.000000
-14.993100 0.000000
-14.977800 0.000000
-14.962600 0.000000
-14.947400 0.000000
-14.932200 0.000000
-14.916900 0.000000
-14.901700 0.000000
-14.886500 0.000000
-14.871300 0.000000
-14.856000 0.000000
-14.840800 0.000000
-14.825600 0.000000
-14.810400 0.000000
-14.795100 0.000000
-14.779900 0.000000
-14.764700 0.000000
-14.749500 0.000000
-14.734200 0.000000
-14.719000 0.000000
-14.703800 0.000000
-14.688500 0.000000
-14.673300 0.000000
-14.658100 0.000000
-14.642900 0.000000
-14.627600 0.000000
-14.612400 0.000000
-14.597200 0.000000
-14.582000 0.000000
-14.566700 0.000000
-14.551500 0.000000
-14.536300 0.000000
-14.521100 0.000000
-14.505800 0.000000
-14.490600 0.000000
-14.475400 0.000000
-14.460200 0.000000
-14.444900 0.000000
-14.429700 0.000000
-14.414500 0.000000
-14.399300 0.000000
-14.384000 0.000000
-14.368800 0.000000
-14.353600 0.000000
-14.338400 0.000000
-14.323100 0.000000
-14.307900 0.000000
-14.292700 0.000000
-14.277500 0.000000
-14.262200 0.000000
-14.247000 0.000000
-14.231800 0.000000
-14.216600 0.000000
-14.201300 0.000000
-14.186100 0.000000
-14.170900 0.000000
-14.155700 0.000000
-14.140400 0.000000
-14.125200 0.000000
-14.110000 0.000000
-14.094800 0.000000
-14.079500 0.000000
-14.064300 0.000000
-14.049100 0.000000
-14.033900 0.000000
-14.018600 0.000000
-14.003400 0.000000
-13.988200 0.000000
-13.973000 0.000000
-13.957700 0.000000
-13.942500 0.000000
-13.927300 0.000000
-13.912000 0.000000
-13.896800 0.000000
-13.881600 0.000000
-13.866400 79.958200
-13.851100 127.148700
-13.835900 13.378900
-13.820700 0.000000
-13.805500 0.000000
-13.790200 0.000000
-13.775000 0.000000
-13.759800 0.000000
-13.744600 59.133400
-13.729300 106.411200
-13.714100 109.464900
-13.698900 0.000000
-13.683700 0.000000
-13.668400 0.000000
-13.653200 0.000000
-13.638000 0.000000
-13.622800 0.000000
-13.607500 0.000000
-13.592300 0.000000
-13.577100 0.000000
-13.561900 0.000000
-13.546600 0.000000
-13.531400 0.000000
-13.516200 0.000000
-13.501000 0.000000
-13.485700 0.000000
-13.470500 0.000000
-13.455300 0.000000
-13.440100 0.000000
-13.424800 0.000000
-13.409600 0.000000
-13.394400 0.000000
-13.379200 0.000000
-13.363900 0.000000
-13.348700 0.000000
-13.333500 0.000000
-13.318300 0.000000
-13.303000 0.000000
-13.287800 0.000000
-13.272600 0.000000
-13.257400 0.000000
-13.242100 0.000000
-13.226900 0.000000
-13.211700 0.000000
-13.196500 0.000000
-13.181200 0.000000
-13.166000 0.000000
-13.150800 0.000000
-13.135600 0.000000
-13.120300 0.000000
-13.105100 0.000000
-13.089900 0.000000
-13.074600 0.000000
-13.059400 0.000000
-13.044200 0.000000
-13.029000 0.000000
-13.013700 0.000000
-12.998500 0.000000
-12.983300 0.000000
-12.968100 0.000000
-12.952800 0.000000
-12.937600 0.000000
-12.922400 0.000000
-12.907200 0.000000
-12.891900 0.000000
-12.876700 0.000000
-12.861500 0.000000
-12.846300 0.000000
-12.831000 0.000000
-12.815800 0.000000
-12.800600 0.000000
-12.785400 0.000000
-12.770100 0.000000
-12.754900 0.000000
-12.739700 0.000000
-12.724500 0.000000
-12.709200 0.000000
-12.694000 0.000000
-12.678800 0.000000
-12.663600 0.000000
-12.648300 0.000000
-12.633100 0.000000
-12.617900 0.000000
-12.602700 0.000000
-12.587400 0.000000
-12.572200 0.000000
-12.557000 0.000000
-12.541800 0.000000
-12.526500 0.000000
-12.511300 0.000000
-12.496100 0.000000
-12.480900 0.000000
-12.465600 0.000000
-12.450400 0.000000
-12.435200 0.000000
-12.420000 0.000000
-12.404700 0.000000
-12.389500 0.000000
-12.374300 0.000000
-12.359100 0.000000
-12.343800 0.000000
-12.328600 0.000000
-12.313400 0.000000
-12.298200 0.000000
-12.282900 0.000000
-12.267700 0.000000
-12.252500 0.000000
-12.237200 0.000000
-12.222000 0.000000
-12.206800 0.000000
-12.191600 0.000000
-12.176300 0.000000
-12.161100 0.000000
-12.145900 0.000000
-12.130700 0.000000
-12.115400 0.000000
-12.100200 0.000000
-12.085000 0.000000
-12.069800 0.000000
-12.054500 0.000000
-12.039300 0.000000
-12.024100 0.000000
-12.008900 0.000000
-11.993600 0.000000
-11.978400 0.000000
-11.963200 0.000000
-11.948000 0.000000
-11.932700 0.000000
-11.917500 0.000000
-11.902300 0.000000
-11.887100 44.258600
-11.871800 80.239200
-11.856600 68.426600
-11.841400 56.335000
-11.826200 0.000000
-11.810900 0.000000
-11.795700 0.000000
-11.780500 0.000000
-11.765300 0.000000
-11.750000 0.000000
-11.734800 0.000000
-11.719600 0.000000
-11.704400 0.000000
-11.689100 0.000000
-11.673900 0.000000
-11.658700 0.000000
-11.643500 0.000000
-11.628200 0.000000
-11.613000 9.822800
-11.597800 42.149500
-11.582600 124.646300
-11.567300 58.848800
-11.552100 0.000000
-11.536900 0.000000
-11.521700 0.000000
-11.506400 0.000000
-11.491200 0.000000
-11.476000 0.000000
-11.460800 0.000000
-11.445500 0.000000
-11.430300 0.000000
-11.415100 0.000000
-11.399800 0.000000
-11.384600 0.000000
-11.369400 0.000000
-11.354200 0.000000
-11.338900 0.000000
-11.323700 0.000000
-11.308500 0.000000
-11.293300 0.000000
-11.278000 0.000000
-11.262800 0.000000
-11.247600 0.000000
-11.232400 0.000000
-11.217100 0.000000
-11.201900 0.000000
-11.186700 0.000000
-11.171500 0.000000
-11.156200 0.000000
-11.141000 0.000000
-11.125800 0.000000
-11.110600 0.000000
-11.095300 0.000000
-11.080100 0.000000
-11.064900 0.000000
-11.049700 0.000000
-11.034400 0.000000
-11.019200 0.000000
-11.004000 0.000000
-10.988800 0.000000
-10.973500 0.000000
-10.958300 0.000000
-10.943100 0.000000
-10.927900 0.000000
-10.912600 0.000000
-10.897400 0.000000
-10.882200 0.000000
-10.867000 0.000000
-10.851700 0.000000
-10.836500 0.000000
-10.821300 0.000000
-10.806100 0.000000
-10.790800 0.000000
-10.775600 0.000000
-10.760400 0.000000
-10.745200 0.000000
-10.729900 0.000000
-10.714700 0.000000
-10.699500 0.000000
-10.684300 0.000000
-10.669000 0.000000
-10.653800 0.000000
-10.638600 0.000000
-10.623300 0.000000
-10.608100 0.000000
-10.592900 0.000000
-10.577700 0.000000
-10.562400 0.000000
-10.547200 0.000000
-10.532000 0.000000
-10.516800 0.000000
-10.501500 0.000000
-10.486300 0.000000
-10.471100 0.000000
-10.455900 0.000000
-10.440600 0.000000
-10.425400 0.000000
-10.410200 0.000000
-10.395000 0.000000
-10.379700 0.000000
-10.364500 0.000000
-10.349300 0.000000
-10.334100 0.000000
-10.318800 0.000000
-10.303600 0.000000
-10.288400 0.000000
-10.273200 0.000000
-10.257900 0.000000
-10.242700 0.000000
-10.227500 0.000000
-10.212300 0.000000
-10.197000 0.000000
-10.181800 0.000000
-10.166600 0.000000
-10.151400 0.000000
-10.136100 0.000000
-10.120900 0.000000
-10.105700 0.000000
-10.090500 0.000000
-10.075200 0.000000
-10.060000 0.000000
-10.044800 0.000000
-10.029600 0.000000
-10.014300 0.000000
-9.999100 0.000000
-9.983900 0.000000
-9.968700 0.000000
-9.953400 0.000000
-9.938200 0.000000
-9.923000 0.000000
-9.907800 0.000000
-9.892500 0.000000
-9.877300 0.000000
-9.862100 0.000000
-9.846900 0.000000
-9.831600 0.000000
-9.816400 0.000000
-9.801200 0.000000
-9.785900 0.000000
-9.770700 0.000000
-9.755500 0.000000
-9.740300 0.000000
-9.725000 0.000000
-9.709800 0.000000
-9.694600 0.000000
-9.679400 0.000000
-9.664100 0.000000
-9.648900 0.000000
-9.633700 0.000000
-9.618500 0.000000
-9.603200 0.000000
-9.588000 0.000000
-9.572800 0.000000
-9.557600 0.000000
-9.542300 0.000000
-9.527100 0.000000
-9.511900 100.628200
-9.496700 189.938100
-9.481400 14.728600
-9.466200 0.000000
-9.451000 35.358200
-9.435800 84.771900
-9.420500 0.000000
-9.405300 214.636400
-9.390100 44.158100
-9.374900 6.454900
-9.359600 0.000000
-9.344400 0.000000
-9.329200 0.000000
-9.314000 0.000000
-9.298700 0.000000
-9.283500 0.000000
-9.268300 0.000000
-9.253100 0.000000
-9.237800 0.000000
-9.222600 0.000000
-9.207400 0.000000
-9.192200 0.000000
-9.176900 0.000000
-9.161700 0.000000
-9.146500 0.000000
-9.131300 0.000000
-9.116000 0.000000
-9.100800 0.000000
-9.085600 0.000000
-9.070400 0.000000
-9.055100 0.000000
-9.039900 0.000000
-9.024700 0.000000
-9.009500 0.000000
-8.994200 0.000000
-8.979000 0.000000
-8.963800 0.000000
-8.948500 0.000000
-8.933300 0.000000
-8.918100 0.000000
-8.902900 0.000000
-8.887600 0.000000
-8.872400 0.000000
-8.857200 0.000000
-8.842000 0.000000
-8.826700 0.000000
-8.811500 0.000000
-8.796300 0.000000
-8.781100 0.000000
-8.765800 0.000000
-8.750600 0.000000
-8.735400 0.000000
-8.720200 0.000000
-8.704900 0.000000
-8.689700 0.000000
-8.674500 0.000000
-8.659300 0.000000
-8.644000 0.000000
-8.628800 0.000000
-8.613600 0.000000
-8.598400 0.000000
-8.583100 0.000000
-8.567900 0.000000
-8.552700 0.000000
-8.537500 0.000000
-8.522200 0.000000
-8.507000 0.000000
-8.491800 0.000000
-8.476600 0.000000
-8.461300 0.000000
-8.446100 0.000000
-8.430900 0.000000
-8.415700 0.000000
-8.400400 0.000000
-8.385200 0.000000
-8.370000 0.000000
-8.354800 0.000000
-8.339500 0.000000
-8.324300 0.000000
-8.309100 0.000000
-8.293900 0.000000
-8.278600 0.000000
-8.263400 0.000000
-8.248200 0.000000
-8.233000 0.000000
-8.217700 0.000000
-8.202500 0.000000
-8.187300 0.000000
-8.172000 0.000000
-8.156800 0.000000
-8.141600 0.000000
-8.126400 0.000000
-8.111100 0.000000
-8.095900 7.902400
-8.080700 14.629600
-8.065500 30.717800
-8.050200 31.208800
-8.035000 28.160500
-8.019800 28.962500
-8.004600 48.407400
-7.989300 47.458800
-7.974100 22.418700
-7.958900 3.108800
-7.943700 0.000000
-7.928400 0.000000
-7.913200 0.000000
-7.898000 0.000000
-7.882800 0.000000
-7.867500 0.000000
-7.852300 0.000000
-7.837100 0.000000
-7.821900 0.000000
-7.806600 0.000000
-7.791400 0.000000
-7.776200 0.000000
-7.761000 0.000000
-7.745700 0.000000
-7.730500 0.000000
-7.715300 0.000000
-7.700100 0.000000
-7.684800 0.000000
-7.669600 0.000000
-7.654400 0.000000
-7.639200 0.000000
-7.623900 0.000000
-7.608700 0.000000
-7.593500 0.000000
-7.578300 0.000000
-7.563000 0.000000
-7.547800 0.000000
-7.532600 0.000000
-7.517400 0.000000
-7.502100 0.000000
-7.486900 0.000000
-7.471700 0.000000
-7.456500 0.000000
-7.441200 0.000000
-7.426000 0.000000
-7.410800 0.000000
-7.395600 0.000000
-7.380300 0.000000
-7.365100 0.000000
-7.349900 0.000000
-7.334600 0.000000
-7.319400 0.000000
-7.304200 0.000000
-7.289000 0.000000
-7.273700 0.000000
-7.258500 0.000000
-7.243300 0.000000
-7.228100 0.000000
-7.212800 0.000000
-7.197600 0.000000
-7.182400 0.000000
-7.167200 0.000000
-7.151900 0.000000
-7.136700 0.000000
-7.121500 0.000000
-7.106300 0.000000
-7.091000 0.000000
-7.075800 0.000000
-7.060600 0.000000
-7.045400 0.000000
-7.030100 0.000000
-7.014900 0.000000
-6.999700 0.000000
-6.984500 0.000000
-6.969200 0.000000
-6.954000 0.000000
-6.938800 0.000000
-6.923600 0.000000
-6.908300 0.000000
-6.893100 0.000000
-6.877900 0.000000
-6.862700 0.000000
-6.847400 0.000000
-6.832200 0.000000
-6.817000 0.000000
-6.801800 0.000000
-6.786500 0.000000
-6.771300 0.000000
-6.756100 0.000000
-6.740900 0.000000
-6.725600 0.000000
-6.710400 0.000000
-6.695200 0.000000
-6.680000 0.000000
-6.664700 0.000000
-6.649500 0.000000
-6.634300 0.000000
-6.619100 0.000000
-6.603800 0.000000
-6.588600 0.000000
-6.573400 0.000000
-6.558200 0.000000
-6.542900 0.000000
-6.527700 0.000000
-6.512500 0.000000
-6.497200 0.000000
-6.482000 0.000000
-6.466800 0.000000
-6.451600 0.000000
-6.436300 0.000000
-6.421100 0.000000
-6.405900 0.000000
-6.390700 0.000000
-6.375400 0.000000
-6.360200 0.000000
-6.345000 0.000000
-6.329800 0.000000
-6.314500 0.000000
-6.299300 0.000000
-6.284100 0.000000
-6.268900 0.000000
-6.253600 0.000000
-6.238400 0.000000
-6.223200 0.000000
-6.208000 0.000000
-6.192700 0.000000
-6.177500 0.000000
-6.162300 0.000000
-6.147100 0.000000
-6.131800 0.000000
-6.116600 0.000000
-6.101400 0.000000
-6.086200 0.000000
-6.070900 0.000000
-6.055700 0.000000
-6.040500 0.000000
-6.025300 0.000000
-6.010000 0.000000
-5.994800 0.000000
-5.979600 0.000000
-5.964400 0.000000
-5.949100 0.000000
-5.933900 0.000000
-5.918700 0.000000
-5.903500 0.000000
-5.888200 0.000000
-5.873000 0.000000
-5.857800 0.000000
-5.842600 36.812300
-5.827300 168.048000
-5.812100 93.978700
-5.796900 26.097800
-5.781700 0.000000
-5.766400 0.000000
-5.751200 0.000000
-5.736000 0.000000
-5.720700 0.000000
-5.705500 0.000000
-5.690300 0.000000
-5.675100 0.000000
-5.659800 0.000000
-5.644600 0.000000
-5.629400 0.000000
-5.614200 0.000000
-5.598900 0.000000
-5.583700 0.000000
-5.568500 0.000000
-5.553300 0.000000
-5.538000 0.000000
-5.522800 0.000000
-5.507600 0.000000
-5.492400 0.000000
-5.477100 0.000000
-5.461900 0.000000
-5.446700 0.000000
-5.431500 0.000000
-5.416200 0.000000
-5.401000 0.000000
-5.385800 0.000000
-5.370600 0.000000
-5.355300 0.304500
-5.340100 1.736200
-5.324900 4.340900
-5.309700 10.320100
-5.294400 25.938200
-5.279200 33.450700
-5.264000 37.602000
-5.248800 17.257000
-5.233500 0.000000
-5.218300 0.000000
-5.203100 0.453100
-5.187900 29.204100
-5.172600 31.695300
-5.157400 34.215100
-5.142200 15.861700
-5.127000 9.192600
-5.111700 4.726000
-5.096500 1.501800
-5.081300 0.000000
-5.066100 0.000000
-5.050800 0.000000
-5.035600 0.000000
-5.020400 0.000000
-5.005200 0.838000
-4.989900 3.961300
-4.974700 8.624700
-4.959500 15.275500
-4.944300 40.891500
-4.929000 48.288300
-4.913800 52.957000
-4.898600 45.145700
-4.883300 29.495200
-4.868100 40.596800
-4.852900 0.000000
-4.837700 0.000000
-4.822400 0.000000
-4.807200 0.000000
-4.792000 0.000000
-4.776800 0.000000
-4.761500 0.000000
-4.746300 0.000000
-4.731100 0.000000
-4.715900 0.000000
-4.700600 0.000000
-4.685400 0.000000
-4.670200 0.000000
-4.655000 0.000000
-4.639700 0.000000
-4.624500 0.000000
-4.609300 0.000000
-4.594100 0.000000
-4.578800 0.000000
-4.563600 6.468900
-4.548400 8.904500
-4.533200 12.267900
-4.517900 18.796100
-4.502700 19.297900
-4.487500 20.234500
-4.472300 15.743400
-4.457000 15.377100
-4.441800 14.056500
-4.426600 16.091000
-4.411400 20.892500
-4.396100 30.499700
-4.380900 23.309800
-4.365700 19.259700
-4.350500 9.938800
-4.335200 6.829200
-4.320000 3.594000
-4.304800 0.233400
-4.289600 0.000000
-4.274300 0.000000
-4.259100 0.000000
-4.243900 0.000000
-4.228700 0.000000
-4.213400 0.016300
-4.198200 0.548400
-4.183000 1.831800
-4.167800 5.304500
-4.152500 10.054500
-4.137300 16.189000
-4.122100 19.830700
-4.106900 18.252500
-4.091600 17.032000
-4.076400 20.498500
-4.061200 22.786500
-4.045900 18.125100
-4.030700 13.424800
-4.015500 15.355400
-4.000300 39.947200
-3.985000 33.913600
-3.969800 7.524600
-3.954600 2.840700
-3.939400 0.394100
-3.924100 0.000000
-3.908900 28.036900
-3.893700 29.164000
-3.878500 24.986300
-3.863200 23.640200
-3.848000 38.866500
-3.832800 49.561800
-3.817600 32.157900
-3.802300 18.480100
-3.787100 11.649800
-3.771900 6.637800
-3.756700 3.354900
-3.741400 1.021600
-3.726200 0.000000
-3.711000 0.000000
-3.695800 0.000000
-3.680500 0.000000
-3.665300 0.000000
-3.650100 0.000000
-3.634900 0.000000
-3.619600 0.000000
-3.604400 2.864400
-3.589200 23.990200
-3.574000 28.743400
-3.558700 28.440900
-3.543500 24.006700
-3.528300 11.538500
-3.513100 17.281400
-3.497800 29.700100
-3.482600 31.105000
-3.467400 27.704300
-3.452200 29.402000
-3.436900 10.727100
-3.421700 16.466100
-3.406500 21.684600
-3.391300 100.041600
-3.376000 20.237200
-3.360800 19.932400
-3.345600 20.938800
-3.330400 24.204100
-3.315100 25.197100
-3.299900 22.746300
-3.284700 20.592800
-3.269400 12.338600
-3.254200 9.073000
-3.239000 25.129300
-3.223800 19.819700
-3.208500 20.774800
-3.193300 23.309500
-3.178100 25.464200
-3.162900 23.920200
-3.147600 22.016400
-3.132400 24.348700
-3.117200 32.844500
-3.102000 29.882200
-3.086700 29.849300
-3.071500 27.948700
-3.056300 36.225100
-3.041100 30.890600
-3.025800 34.192500
-3.010600 34.407000
-2.995400 41.354800
-2.980200 14.782500
-2.964900 4.741100
-2.949700 0.000000
-2.934500 0.000000
-2.919300 0.000000
-2.904000 0.000000
-2.888800 0.000000
-2.873600 0.000000
-2.858400 0.000000
-2.843100 0.000000
-2.827900 0.000000
-2.812700 0.000000
-2.797500 0.000000
-2.782200 0.000000
-2.767000 0.000000
-2.751800 0.000000
-2.736600 0.000000
-2.721300 0.000000
-2.706100 0.000000
-2.690900 0.000000
-2.675700 0.000000
-2.660400 0.000000
-2.645200 0.000000
-2.630000 0.000000
-2.614800 0.000000
-2.599500 0.000000
-2.584300 0.000000
-2.569100 0.000000
-2.553900 0.000000
-2.538600 0.000000
-2.523400 0.000000
-2.508200 0.000000
-2.493000 0.000000
-2.477700 0.000000
-2.462500 0.000000
-2.447300 0.000000
-2.432000 0.000000
-2.416800 0.000000
-2.401600 0.000000
-2.386400 0.000000
-2.371100 0.000000
-2.355900 0.000000
-2.340700 0.000000
-2.325500 0.000000
-2.310200 0.000000
-2.295000 0.000000
-2.279800 0.000000
-2.264600 0.000000
-2.249300 0.000000
-2.234100 0.000000
-2.218900 0.000000
-2.203700 0.000000
-2.188400 0.000000
-2.173200 0.000000
-2.158000 0.000000
-2.142800 0.000000
-2.127500 0.000000
-2.112300 0.000000
-2.097100 0.000000
-2.081900 0.000000
-2.066600 0.062500
-2.051400 0.460800
-2.036200 1.226700
-2.021000 2.360400
-2.005700 4.438500
-1.990500 9.015500
-1.975300 18.556800
-1.960100 26.254500
-1.944800 32.522500
-1.929600 22.386200
-1.914400 9.948800
-1.899200 4.286700
-1.883900 25.501500
-1.868700 31.257800
-1.853500 26.208000
-1.838300 18.963000
-1.823000 12.749300
-1.807800 8.388600
-1.792600 5.186200
-1.777400 2.303400
-1.762100 0.088900
-1.746900 0.000000
-1.731700 0.000000
-1.716500 0.000000
-1.701200 0.000000
-1.686000 0.000000
-1.670800 0.000000
-1.655600 0.000000
-1.640300 0.000000
-1.625100 0.024800
-1.609900 0.208600
-1.594600 0.580400
-1.579400 1.341800
-1.564200 2.824000
-1.549000 5.224800
-1.533700 7.824100
-1.518500 10.490700
-1.503300 13.224400
-1.488100 16.025500
-1.472800 37.512400
-1.457600 55.527600
-1.442400 27.453600
-1.427200 30.062300
-1.411900 30.821500
-1.396700 17.558700
-1.381500 11.568700
-1.366300 9.150300
-1.351000 13.598500
-1.335800 22.028500
-1.320600 34.077400
-1.305400 42.720300
-1.290100 47.054200
-1.274900 44.352700
-1.259700 28.830800
-1.244500 55.349000
-1.229200 40.677300
-1.214000 43.283700
-1.198800 46.864700
-1.183600 32.743000
-1.168300 15.101500
-1.153100 12.775100
-1.137900 9.830300
-1.122700 5.245700
-1.107400 0.141700
-1.092200 0.000000
-1.077000 0.000000
-1.061800 0.000000
-1.046500 0.000000
-1.031300 0.000000
-1.016100 0.000000
-1.000900 0.000000
-0.985600 0.022100
-0.970400 1.477600
-0.955200 8.833800
-0.940000 12.410400
-0.924700 13.229900
-0.909500 13.203700
-0.894300 13.177000
-0.879100 13.346300
-0.863800 29.792000
-0.848600 42.171300
-0.833400 89.659700
-0.818100 21.345800
-0.802900 32.935100
-0.787700 41.733700
-0.772500 47.413000
-0.757200 3.244900
-0.742000 8.611300
-0.726800 20.069900
-0.711600 21.051400
-0.696300 27.704800
-0.681100 22.131900
-0.665900 17.527500
-0.650700 9.346700
-0.635400 1.987400
-0.620200 5.810700
-0.605000 25.529900
-0.589800 55.885100
-0.574500 31.113000
-0.559300 20.799200
-0.544100 7.102200
-0.528900 11.017800
-0.513600 20.898300
-0.498400 23.855900
-0.483200 24.987700
-0.468000 16.443400
-0.452700 12.174000
-0.437500 7.025800
-0.422300 1.965600
-0.407100 1.764600
-0.391800 16.523500
-0.376600 45.405300
-0.361400 25.529000
-0.346200 21.442200
-0.330900 14.003000
-0.315700 4.992300
-0.300500 15.741300
-0.285300 46.771200
-0.270000 22.179900
-0.254800 16.247800
-0.239600 11.500200
-0.224400 5.562700
-0.209100 0.000000
-0.193900 0.000000
-0.178700 0.000000
-0.163500 0.000000
-0.148200 0.000000
-0.133000 0.000000
-0.117800 0.000000
-0.102600 0.000000
-0.087300 0.000000
-0.072100 0.000000
-0.056900 0.000000
-0.041700 0.000000
-0.026400 0.000000
-0.011200 0.716100
0.004000 7.359400
0.019300 12.729600
0.034500 16.763400
0.049700 22.116400
0.064900 22.186100
0.080200 21.812100
0.095400 21.479000
0.110600 20.777100
0.125800 25.446700
0.141100 40.214600
0.156300 33.229300
0.171500 20.720200
0.186700 7.385300
0.202000 8.968300
0.217200 10.851500
0.232400 13.034800
0.247600 18.455300
0.262900 14.315400
0.278100 13.396300
0.293300 10.910200
0.308500 7.829200
0.323800 4.629600
0.339000 0.998300
0.354200 0.000000
0.369400 5.413000
0.384700 13.883200
0.399900 21.888100
0.415100 43.042800
0.430300 19.672500
0.445600 13.931500
0.460800 10.760800
0.476000 8.170200
0.491200 0.000000
0.506500 0.000000
0.521700 0.000000
0.536900 0.000000
0.552100 0.000000
0.567400 0.000000
0.582600 0.000000
0.597800 0.000000
0.613000 0.000000
0.628300 0.000000
0.643500 0.000000
0.658700 0.000000
0.673900 0.000000
0.689200 0.000000
0.704400 0.000000
0.719600 0.000000
0.734800 0.000000
0.750100 0.000000
0.765300 0.000000
0.780500 0.000000
0.795700 0.000000
0.811000 0.000000
0.826200 0.000000
0.841400 0.000000
0.856700 0.000000
0.871900 0.000000
0.887100 0.000000
0.902300 0.000000
0.917600 0.000000
0.932800 0.000000
0.948000 0.000000
0.963200 0.000000
0.978500 0.000000
0.993700 0.000000
1.008900 0.000000
1.024100 0.000000
1.039400 0.000000
1.054600 0.000000
1.069800 0.000000
1.085000 0.000000
1.100300 0.000000
1.115500 0.000000
1.130700 0.000000
1.145900 0.000000
1.161200 0.000000
1.176400 0.000000
1.191600 0.000000
1.206800 0.000000
1.222100 0.000000
1.237300 0.000000
1.252500 0.000000
1.267700 0.000000
1.283000 0.000000
1.298200 0.000000
1.313400 0.000000
1.328600 0.000000
1.343900 0.000000
1.359100 0.000000
1.374300 0.000000
1.389500 0.000000
1.404800 0.000000
1.420000 0.000000
1.435200 0.000000
1.450400 0.000000
1.465700 0.000000
1.480900 0.000000
1.496100 0.000000
1.511300 0.000000
1.526600 0.000000
1.541800 0.000000
1.557000 0.000000
1.572200 0.000000
1.587500 0.000000
1.602700 0.000000
1.617900 0.000000
1.633200 0.000000
1.648400 0.000000
1.663600 0.000000
1.678800 0.000000
1.694100 0.000000
1.709300 0.000000
1.724500 0.000000
1.739700 0.000000
1.755000 0.000000
1.770200 0.000000
1.785400 0.000000
1.800600 0.000000
1.815900 0.000000
1.831100 0.000000
1.846300 0.000000
1.861500 0.000000
1.876800 0.000000
1.892000 0.000000
1.907200 0.000000
1.922400 0.000000
1.937700 0.000000
1.952900 0.000000
1.968100 0.000000
1.983300 0.000000
1.998600 0.000000
2.013800 0.000000
2.029000 0.000000
2.044200 0.000000
2.059500 0.000000
2.074700 0.000000
2.089900 0.000000
2.105100 0.000000
2.120400 0.000000
2.135600 0.000000
2.150800 0.000000
2.166000 0.000000
2.181300 0.000000
2.196500 0.000000
2.211700 0.000000
2.226900 0.000000
2.242200 0.000000
2.257400 0.000000
2.272600 0.000000
2.287800 0.000000
2.303100 0.000000
2.318300 0.000000
2.333500 0.000000
2.348700 0.000000
2.364000 0.000000
2.379200 0.000000
2.394400 0.000000
2.409600 0.000000
2.424900 0.000000
2.440100 0.000000
2.455300 0.000000
2.470600 0.000000
2.485800 0.000000
2.501000 0.000000
2.516200 0.000000
2.531500 0.000000
2.546700 0.000000
2.561900 0.000000
2.577100 0.000000
2.592400 0.000000
2.607600 0.000000
2.622800 0.000000
2.638000 0.000000
2.653300 0.000000
2.668500 0.000000
2.683700 0.015700
2.698900 0.882700
2.714200 2.830900
2.729400 4.785700
2.744600 6.835500
2.759800 8.877300
2.775100 11.472800
2.790300 13.510600
2.805500 17.590700
2.820700 22.522700
2.836000 19.137300
2.851200 13.746000
2.866400 7.747000
2.881600 1.175500
2.896900 0.000000
2.912100 28.004000
2.927300 18.139900
2.942500 21.897800
2.957800 25.781200
2.973000 25.565000
2.988200 15.842200
3.003400 9.568700
3.018700 3.346800
3.033900 0.190400
3.049100 0.000000
3.064300 0.002200
3.079600 0.338300
3.094800 1.245800
3.110000 2.724700
3.125200 4.978600
3.140500 9.084100
3.155700 13.418100
3.170900 18.869800
3.186100 26.929900
3.201400 46.268800
3.216600 37.096900
3.231800 29.558000
3.247000 28.398500
3.262300 35.092300
3.277500 39.767900
3.292700 38.941700
3.308000 33.350800
3.323200 32.892300
3.338400 31.474900
3.353600 25.207100
3.368900 22.474600
3.384100 17.675200
3.399300 9.237700
3.414500 5.893000
3.429800 4.911300
3.445000 3.946800
3.460200 2.999400
3.475400 11.430000
3.490700 18.432600
3.505900 28.792300
3.521100 32.152600
3.536300 33.334600
3.551600 14.557400
3.566800 8.953100
3.582000 32.116600
3.597200 38.940400
3.612500 15.279600
3.627700 9.611300
3.642900 27.057200
3.658100 54.511800
3.673400 43.109600
3.688600 24.473100
3.703800 29.307500
3.719000 32.854800
3.734300 37.440700
3.749500 37.521700
3.764700 34.458600
3.779900 32.698900
3.795200 29.504500
3.810400 17.589700
3.825600 16.859000
3.840800 17.722100
3.856100 19.986000
3.871300 23.851600
3.886500 28.604400
3.901700 15.155800
3.917000 11.003300
3.932200 7.521700
3.947400 5.214600
3.962600 4.170900
3.977900 3.545100
3.993100 3.337300
4.008300 3.547500
4.023500 3.995200
4.038800 4.454700
4.054000 4.925400
4.069200 5.611900
4.084500 8.443200
4.099700 11.374000
4.114900 14.404500
4.130100 12.331500
4.145400 11.391900
4.160600 9.981100
4.175800 11.251000
4.191000 23.403200
4.206300 70.919300
4.221500 34.070600
4.236700 19.240700
4.251900 11.213800
4.267200 6.830500
4.282400 3.759700
4.297600 7.429300
4.312800 14.677500
4.328100 23.615100
4.343300 60.864600
4.358500 19.731000
4.373700 8.073900
4.389000 5.666000
4.404200 4.214900
4.419400 6.827500
4.434600 19.556800
4.449900 38.337800
4.465100 43.682400
4.480300 9.571300
4.495500 5.019200
4.510800 6.762400
4.526000 18.651400
4.541200 31.376000
4.556400 25.521500
4.571700 19.165000
4.586900 10.178100
4.602100 7.551400
4.617300 15.718600
4.632600 16.804600
4.647800 21.436400
4.663000 26.229500
4.678200 33.497300
4.693500 25.561900
4.708700 0.266700
4.723900 5.682400
4.739100 9.737400
4.754400 14.159800
4.769600 18.943200
4.784800 21.300100
4.800000 16.165300
4.815300 14.098100
4.830500 13.577100
4.845700 12.402400
4.860900 9.663900
4.876200 7.331000
4.891400 5.887000
4.906600 6.401500
4.921900 7.139800
4.937100 7.442100
4.952300 7.517900
4.967500 7.333000
4.982800 7.022900
4.998000 6.715300
5.013200 6.410400
5.028400 6.108000
5.043700 5.808300
5.058900 5.511100
5.074100 5.227200
5.089300 5.441200
5.104600 6.414700
5.119800 10.855800
5.135000 3.603900
5.150200 3.142300
5.165500 2.707400
5.180700 2.299400
5.195900 1.918100
5.211100 1.563500
5.226400 1.235700
5.241600 0.242400
5.256800 0.000000
5.272000 0.000000
5.287300 0.000000
5.302500 0.000000
5.317700 0.000000
5.332900 0.000000
5.348200 0.000000
5.363400 0.000000
5.378600 0.000000
5.393800 0.000000
5.409100 0.000000
5.424300 0.000000
5.439500 0.000000
5.454700 0.000000
5.470000 0.000000
5.485200 0.000000
5.500400 0.000000
5.515600 0.000000
5.530900 0.000000
5.546100 0.000000
5.561300 0.000000
5.576500 0.000000
5.591800 0.000000
5.607000 0.000000
5.622200 0.000000
5.637400 0.000000
5.652700 0.000000
5.667900 0.000000
5.683100 0.000000
5.698300 0.000000
5.713600 0.000000
5.728800 0.000000
5.744000 0.000000
5.759300 0.000000
5.774500 0.000000
5.789700 0.000000
5.804900 0.000000
5.820200 0.000000
5.835400 0.000000
5.850600 0.000000
5.865800 0.000000
5.881100 0.000000
5.896300 0.000000
5.911500 0.000000
5.926700 0.000000
5.942000 0.000000
5.957200 0.000000
5.972400 0.000000
5.987600 0.000000
6.002900 0.000000
6.018100 0.001600
6.033300 0.011100
6.048500 0.029100
6.063800 0.055800
6.079000 0.091000
6.094200 0.134800
6.109400 0.187200
6.124700 0.248200
6.139900 0.317800
6.155100 0.407200
6.170300 0.555400
6.185600 0.704400
6.200800 0.854000
6.216000 1.004200
6.231200 1.155200
6.246500 1.306800
6.261700 1.459100
6.276900 1.612100
6.292100 1.765700
6.307400 1.920000
6.322600 2.075000
6.337800 2.230600
6.353000 2.386900
6.368300 2.543900
6.383500 2.701500
6.398700 2.859900
6.413900 3.708500
6.429200 4.684000
6.444400 5.304900
6.459600 5.923500
6.474800 6.539600
6.490100 7.153400
6.505300 7.643000
6.520500 7.921700
6.535800 8.151800
6.551000 8.324400
6.566200 8.439600
6.581400 8.497500
6.596700 8.498700
6.611900 8.568100
6.627100 8.796200
6.642300 8.391800
6.657600 11.013100
6.672800 11.532000
6.688000 12.021600
6.703200 12.482200
6.718500 11.512000
6.733700 9.638600
6.748900 7.973700
6.764100 6.648400
6.779400 5.646400
6.794600 5.044800
6.809800 4.985400
6.825000 5.087900
6.840300 4.818300
6.855500 6.258900
6.870700 8.179600
6.885900 10.256100
6.901200 11.455900
6.916400 10.471600
6.931600 9.991500
6.946800 9.731400
6.962100 9.574000
6.977300 9.511700
6.992500 9.553700
7.007700 9.700000
7.023000 9.350500
7.038200 8.478600
7.053400 8.614100
7.068600 12.355000
7.083900 15.736100
7.099100 15.662400
7.114300 15.521100
7.129500 17.411600
7.144800 18.839700
7.160000 18.024100
7.175200 14.718500
7.190400 11.878400
7.205700 9.649300
7.220900 9.105900
7.236100 14.269500
7.251300 18.747800
7.266600 33.458400
7.281800 20.307500
7.297000 16.924800
7.312200 16.202500
7.327500 20.919400
7.342700 17.763600
7.357900 15.778000
7.373200 16.019200
7.388400 14.632700
7.403600 11.128300
7.418800 6.834300
7.434100 5.964800
7.449300 5.199000
7.464500 6.716100
7.479700 10.284500
7.495000 15.357300
7.510200 16.213500
7.525400 21.148000
7.540600 27.295700
7.555900 37.123000
7.571100 28.037300
7.586300 14.642300
7.601500 18.009200
7.616800 27.169700
7.632000 26.683600
7.647200 15.941200
7.662400 7.954500
7.677700 3.373600
7.692900 12.626700
7.708100 21.059300
7.723300 28.456600
7.738600 38.257900
7.753800 30.901700
7.769000 23.417500
7.784200 21.048200
7.799500 22.792000
7.814700 22.860800
7.829900 19.013900
7.845100 15.128400
7.860400 18.807400
7.875600 22.685900
7.890800 28.446300
7.906000 28.272900
7.921300 24.508000
7.936500 19.871600
7.951700 14.178700
7.966900 22.959000
7.982200 32.105300
7.997400 27.958700
8.012600 19.798900
8.027800 12.648300
8.043100 16.954500
8.058300 19.377500
8.073500 22.453800
8.088700 28.197900
8.104000 21.153600
8.119200 4.002100
8.134400 4.028800
8.149600 4.251500
8.164900 5.346900
8.180100 9.864700
8.195300 15.907800
8.210600 23.620600
8.225800 61.816900
8.241000 7.461900
8.256200 6.736700
8.271500 7.866000
8.286700 9.205500
8.301900 10.626600
8.317100 12.129000
8.332400 13.914300
8.347600 16.887400
8.362800 21.296700
8.378000 27.868800
8.393300 27.355500
8.408500 23.237400
8.423700 22.497500
8.438900 25.294700
8.454200 25.099800
8.469400 20.986200
8.484600 15.269900
8.499800 12.308000
8.515100 13.169700
8.530300 21.530900
8.545500 23.057300
8.560700 18.859400
8.576000 19.199400
8.591200 18.435900
8.606400 30.357800
8.621600 32.796100
8.636900 26.596400
8.652100 18.611700
8.667300 11.972300
8.682500 10.931400
8.697800 18.701000
8.713000 28.997800
8.728200 19.776000
8.743400 13.820100
8.758700 13.626900
8.773900 18.489800
8.789100 27.124600
8.804300 40.310800
8.819600 34.696100
8.834800 11.033700
8.850000 8.807000
8.865200 11.003500
8.880500 15.262900
8.895700 24.211600
8.910900 29.346600
8.926100 22.211500
8.941400 16.056100
8.956600 10.589800
8.971800 9.623600
8.987100 11.906300
9.002300 15.776900
9.017500 21.506900
9.032700 53.080200
9.048000 23.600300
9.063200 13.621900
9.078400 9.064700
9.093600 11.308000
9.108900 21.601300
9.124100 24.858600
9.139300 25.031200
9.154500 22.300800
9.169800 17.617600
9.185000 16.923500
9.200200 21.058900
9.215400 25.841300
9.230700 23.352900
9.245900 15.915900
9.261100 11.459000
9.276300 10.708700
9.291600 8.696200
9.306800 16.048300
9.322000 24.126900
9.337200 39.439700
9.352500 27.205600
9.367700 14.843200
9.382900 19.541000
9.398100 25.682700
9.413400 21.414500
9.428600 18.426100
9.443800 15.236100
9.459000 11.149900
9.474300 7.130200
9.489500 4.561300
9.504700 4.654800
9.519900 9.354300
9.535200 20.218600
9.550400 56.363800
9.565600 22.630000
9.580800 19.389300
9.596100 17.540600
9.611300 29.103900
9.626500 32.421500
9.641700 33.820600
9.657000 29.253400
9.672200 12.879500
9.687400 8.398700
9.702600 12.480300
9.717900 18.387800
9.733100 19.434400
9.748300 20.174300
9.763500 18.762100
9.778800 15.133500
9.794000 11.892300
9.809200 9.875700
9.824500 9.028800
9.839700 14.409200
9.854900 56.964100
9.870100 39.875200
9.885400 2.507000
9.900600 5.964100
9.915800 10.218500
9.931000 16.815300
9.946300 24.408300
9.961500 26.685500
9.976700 22.798000
9.991900 18.973500
10.007200 9.589300
10.022400 23.676300
10.037600 38.907600
10.052800 29.257700
10.068100 26.383500
10.083300 19.998400
10.098500 22.236300
10.113700 27.569000
10.129000 31.818400
10.144200 24.115800
10.159400 10.900700
10.174600 11.202500
10.189900 11.274100
10.205100 11.404200
10.220300 11.593000
10.235500 14.187400
10.250800 16.655900
10.266000 22.137000
10.281200 18.389900
10.296400 19.683800
10.311700 22.691000
10.326900 27.314300
10.342100 51.582900
10.357300 12.506900
10.372600 4.312400
10.387800 17.284800
10.403000 22.886500
10.418200 22.478700
10.433500 20.127200
10.448700 16.958600
10.463900 12.810600
10.479100 7.747500
10.494400 9.474500
10.509600 10.804000
10.524800 33.059900
10.540000 30.204600
10.555300 20.285700
10.570500 15.107800
10.585700 10.430700
10.600900 24.927600
10.616200 20.324700
10.631400 16.371600
10.646600 15.369300
10.661900 14.376300
10.677100 13.186000
10.692300 19.256100
10.707500 8.508800
10.722800 11.613900
10.738000 17.528200
10.753200 22.462100
10.768400 28.243700
10.783700 16.045900
10.798900 12.557500
10.814100 9.922000
10.829300 27.144300
10.844600 26.051500
10.859800 21.888000
10.875000 21.220600
10.890200 20.313600
10.905500 20.707200
10.920700 24.686900
10.935900 23.418400
10.951100 24.332200
10.966400 23.738700
10.981600 22.446400
10.996800 19.156000
11.012000 19.097500
11.027300 18.300100
11.042500 17.212900
11.057700 18.815300
11.072900 15.444800
11.088200 14.307800
11.103400 13.858900
11.118600 13.841500
11.133800 18.506000
11.149100 10.617800
11.164300 10.720700
11.179500 10.862800
11.194700 11.383200
11.210000 12.861900
11.225200 16.139100
11.240400 27.094800
11.255600 29.396300
11.270900 26.372500
11.286100 25.262000
11.301300 27.361500
11.316500 33.390000
11.331800 13.463500
11.347000 13.295700
11.362200 21.114000
11.377400 43.773700
11.392700 31.161500
11.407900 7.651000
11.423100 5.021000
11.438400 4.925900
11.453600 8.486400
11.468800 11.356800
11.484000 14.382400
11.499300 19.767000
11.514500 23.678300
11.529700 24.065000
11.544900 21.581800
11.560200 13.495700
11.575400 10.754600
11.590600 11.550800
11.605800 17.834000
11.621100 24.267200
11.636300 34.721700
11.651500 13.681900
11.666700 4.740500
11.682000 4.603700
11.697200 10.205300
11.712400 13.999500
11.727600 17.387800
11.742900 19.918300
11.758100 20.456200
11.773300 18.703900
11.788500 14.776000
11.803800 7.821400
11.819000 3.137200
11.834200 2.242100
11.849400 1.483300
11.864700 0.860900
11.879900 0.374800
11.895100 0.025000
11.910300 0.000000
11.925600 0.000000
11.940800 0.000000
11.956000 0.000000
11.971200 0.000000
11.986500 0.000000
12.001700 0.000000
12.016900 0.000000
12.032100 0.000000
12.047400 0.000000
12.062600 0.000000
12.077800 0.000000
12.093000 0.000000
12.108300 0.000000
12.123500 0.000000
12.138700 0.000000
12.153900 0.000000
12.169200 0.000000
12.184400 0.000000
12.199600 0.000000
12.214800 0.000000
12.230100 0.000000
12.245300 0.000000
12.260500 0.000000
12.275800 0.000000
12.291000 0.000000
12.306200 0.000000
12.321400 0.000000
12.336700 0.000000
12.351900 0.000000
12.367100 0.000000
12.382300 0.000000
12.397600 0.000000
12.412800 0.000000
12.428000 0.000000
12.443200 0.000000
12.458500 0.000000
12.473700 0.000000
12.488900 0.000000
12.504100 0.000000
12.519400 0.000000
12.534600 0.000000
12.549800 0.000000
12.565000 0.000000
12.580300 0.000000
12.595500 0.000000
12.610700 0.000000
12.625900 0.000000
12.641200 0.000000
12.656400 0.000000
12.671600 0.000000
12.686800 0.000000
12.702100 0.000000
12.717300 0.000000
12.732500 0.000000
12.747700 0.000000
12.763000 0.000000
12.778200 0.000000
12.793400 0.000000
12.808600 0.000000
12.823900 0.000000
12.839100 0.000000
12.854300 0.000000
12.869500 0.000000
12.884800 0.000000
12.900000 0.000000
12.915200 0.000000
12.930400 0.000000
12.945700 0.000000
12.960900 0.000000
12.976100 0.000000
12.991300 0.000000
13.006600 0.000000
13.021800 0.000000
13.037000 0.000000
13.052200 0.000000
13.067500 0.000000
13.082700 0.000000
13.097900 0.000000
13.113200 0.000000
13.128400 0.000000
13.143600 0.000000
13.158800 0.000000
13.174100 0.000000
13.189300 0.000000
13.204500 0.000000
13.219700 0.000000
13.235000 0.000000
13.250200 0.000000
13.265400 0.000000
13.280600 0.000000
e
