set title 'mp-1120770 - Density of States'
set xlabel 'Energy (eV)'
set ylabel 'DOS (states/eV)'
set grid
set xrange [-10:10]
set yrange [0:244.201]
set xzeroaxis lt -1
set terminal png size 800,600
set output 'mp-1120770_dos_gnuplot.png'
plot '-' using 1:2 with lines title 'DOS'
-14.592600 0.000000
-14.575800 0.000000
-14.559000 0.000000
-14.542200 0.000000
-14.525300 0.000000
-14.508500 0.000000
-14.491700 0.000000
-14.474900 0.000000
-14.458100 0.000000
-14.441300 0.000000
-14.424500 0.000000
-14.407700 0.000000
-14.390900 0.000000
-14.374100 0.000000
-14.357300 0.000000
-14.340500 0.000000
-14.323700 0.000000
-14.306900 0.000000
-14.290100 0.000000
-14.273300 0.000000
-14.256500 0.000000
-14.239700 0.000000
-14.222900 0.000000
-14.206100 0.000000
-14.189300 0.000000
-14.172500 0.000000
-14.155700 0.000000
-14.138900 0.000000
-14.122100 0.000000
-14.105300 0.000000
-14.088500 0.000000
-14.071700 0.000000
-14.054900 0.000000
-14.038100 0.000000
-14.021300 0.000000
-14.004500 0.000000
-13.987700 0.000000
-13.970900 0.000000
-13.954100 0.000000
-13.937300 0.000000
-13.920500 0.000000
-13.903700 0.000000
-13.886900 0.000000
-13.870100 0.000000
-13.853300 0.000000
-13.836500 0.000000
-13.819700 0.000000
-13.802900 0.000000
-13.786100 0.000000
-13.769300 0.000000
-13.752500 0.000000
-13.735700 0.000000
-13.718900 0.000000
-13.702100 0.000000
-13.685300 0.000000
-13.668500 0.000000
-13.651700 0.000000
-13.634900 0.000000
-13.618100 0.000000
-13.601300 0.000000
-13.584500 0.000000
-13.567700 0.000000
-13.550900 0.000000
-13.534100 0.000000
-13.517300 0.000000
-13.500500 0.000000
-13.483700 0.000000
-13.466900 0.000000
-13.450100 0.000000
-13.433300 0.000000
-13.416500 0.000000
-13.399700 0.000000
-13.382900 0.000000
-13.366100 0.000000
-13.349300 0.000000
-13.332500 0.000000
-13.315700 0.000000
-13.298900 0.000000
-13.282100 0.000000
-13.265300 0.000000
-13.248500 0.000000
-13.231700 0.000000
-13.214900 0.000000
-13.198100 0.000000
-13.181300 0.000000
-13.164500 0.000000
-13.147700 0.000000
-13.130900 0.000000
-13.114100 0.000000
-13.097300 0.000000
-13.080500 0.000000
-13.063700 0.047100
-13.046900 3.457700
-13.030100 6.075300
-13.013300 6.522800
-12.996500 7.734800
-12.979700 8.948700
-12.962900 11.339800
-12.946100 16.802600
-12.929300 36.976300
-12.912500 0.000000
-12.895700 0.000000
-12.878900 0.000000
-12.862100 0.000000
-12.845300 0.000000
-12.828500 2.608100
-12.811700 4.998000
-12.794900 8.301800
-12.778100 14.391000
-12.761300 39.403200
-12.744400 36.309000
-12.727600 15.999600
-12.710800 0.659200
-12.694000 233.792100
-12.677200 18.364600
-12.660400 6.187200
-12.643600 0.000000
-12.626800 0.000000
-12.610000 0.000000
-12.593200 0.000000
-12.576400 0.000000
-12.559600 0.000000
-12.542800 0.000000
-12.526000 0.000000
-12.509200 0.000000
-12.492400 0.000000
-12.475600 0.000000
-12.458800 0.000000
-12.442000 0.000000
-12.425200 0.000000
-12.408400 0.000000
-12.391600 0.000000
-12.374800 0.000000
-12.358000 0.000000
-12.341200 0.000000
-12.324400 0.000000
-12.307600 0.000000
-12.290800 0.000000
-12.274000 0.000000
-12.257200 0.000000
-12.240400 0.000000
-12.223600 0.000000
-12.206800 0.000000
-12.190000 0.000000
-12.173200 0.000000
-12.156400 0.000000
-12.139600 0.000000
-12.122800 0.000000
-12.106000 0.000000
-12.089200 0.000000
-12.072400 0.000000
-12.055600 0.000000
-12.038800 0.000000
-12.022000 0.000000
-12.005200 0.000000
-11.988400 0.000000
-11.971600 0.000000
-11.954800 0.000000
-11.938000 0.000000
-11.921200 0.000000
-11.904400 0.000000
-11.887600 0.000000
-11.870800 0.000000
-11.854000 0.000000
-11.837200 0.000000
-11.820400 0.000000
-11.803600 0.000000
-11.786800 0.000000
-11.770000 0.000000
-11.753200 0.000000
-11.736400 0.000000
-11.719600 0.000000
-11.702800 0.000000
-11.686000 0.000000
-11.669200 0.000000
-11.652400 0.000000
-11.635600 0.000000
-11.618800 0.000000
-11.602000 0.000000
-11.585200 0.000000
-11.568400 0.000000
-11.551600 0.000000
-11.534800 0.000000
-11.518000 0.000000
-11.501200 0.000000
-11.484400 0.000000
-11.467600 0.000000
-11.450800 0.000000
-11.434000 0.000000
-11.417200 0.000000
-11.400400 0.000000
-11.383600 0.000000
-11.366800 0.000000
-11.350000 0.000000
-11.333200 0.000000
-11.316400 0.000000
-11.299600 0.000000
-11.282800 0.000000
-11.266000 0.000000
-11.249200 0.000000
-11.232400 0.000000
-11.215600 0.000000
-11.198800 0.000000
-11.182000 0.000000
-11.165200 0.000000
-11.148400 0.000000
-11.131600 0.000000
-11.114800 0.000000
-11.098000 0.000000
-11.081200 0.000000
-11.064400 0.000000
-11.047600 0.000000
-11.030800 0.000000
-11.014000 0.000000
-10.997200 0.000000
-10.980400 0.000000
-10.963500 0.000000
-10.946700 0.000000
-10.929900 0.000000
-10.913100 0.000000
-10.896300 0.000000
-10.879500 0.000000
-10.862700 0.000000
-10.845900 0.000000
-10.829100 0.000000
-10.812300 0.000000
-10.795500 0.000000
-10.778700 0.000000
-10.761900 0.000000
-10.745100 0.000000
-10.728300 0.000000
-10.711500 0.000000
-10.694700 0.000000
-10.677900 0.000000
-10.661100 0.000000
-10.644300 0.000000
-10.627500 0.000000
-10.610700 0.000000
-10.593900 0.000000
-10.577100 0.000000
-10.560300 0.000000
-10.543500 0.000000
-10.526700 0.000000
-10.509900 0.000000
-10.493100 0.000000
-10.476300 0.000000
-10.459500 0.000000
-10.442700 0.000000
-10.425900 0.000000
-10.409100 0.000000
-10.392300 0.000000
-10.375500 0.000000
-10.358700 0.000000
-10.341900 0.000000
-10.325100 0.000000
-10.308300 0.000000
-10.291500 0.000000
-10.274700 0.000000
-10.257900 0.000000
-10.241100 0.000000
-10.224300 0.000000
-10.207500 0.000000
-10.190700 0.000000
-10.173900 0.000000
-10.157100 0.000000
-10.140300 0.000000
-10.123500 0.000000
-10.106700 0.000000
-10.089900 0.000000
-10.073100 0.000000
-10.056300 0.000000
-10.039500 0.000000
-10.022700 0.000000
-10.005900 0.000000
-9.989100 0.000000
-9.972300 0.000000
-9.955500 0.000000
-9.938700 0.000000
-9.921900 0.000000
-9.905100 0.000000
-9.888300 0.000000
-9.871500 0.000000
-9.854700 0.000000
-9.837900 0.000000
-9.821100 0.000000
-9.804300 0.000000
-9.787500 0.000000
-9.770700 0.000000
-9.753900 0.000000
-9.737100 0.000000
-9.720300 0.000000
-9.703500 0.000000
-9.686700 0.000000
-9.669900 0.000000
-9.653100 0.000000
-9.636300 0.000000
-9.619500 0.000000
-9.602700 0.000000
-9.585900 0.000000
-9.569100 0.000000
-9.552300 0.000000
-9.535500 0.000000
-9.518700 0.000000
-9.501900 0.000000
-9.485100 0.000000
-9.468300 0.000000
-9.451500 0.000000
-9.434700 0.000000
-9.417900 0.000000
-9.401100 0.000000
-9.384300 0.000000
-9.367500 0.000000
-9.350700 0.000000
-9.333900 0.000000
-9.317100 0.000000
-9.300300 0.000000
-9.283500 0.000000
-9.266700 0.000000
-9.249900 0.000000
-9.233100 0.000000
-9.216300 0.000000
-9.199500 0.000000
-9.182600 0.000000
-9.165800 0.000000
-9.149000 0.000000
-9.132200 0.000000
-9.115400 0.000000
-9.098600 0.000000
-9.081800 0.000000
-9.065000 0.000000
-9.048200 0.000000
-9.031400 0.000000
-9.014600 0.000000
-8.997800 0.000000
-8.981000 0.000000
-8.964200 0.000000
-8.947400 0.000000
-8.930600 0.000000
-8.913800 0.000000
-8.897000 0.000000
-8.880200 0.000000
-8.863400 107.214200
-8.846600 194.625000
-8.829800 107.007000
-8.813000 130.849400
-8.796200 222.000900
-8.779400 88.976000
-8.762600 71.372400
-8.745800 26.304000
-8.729000 40.734300
-8.712200 28.728400
-8.695400 31.668000
-8.678600 21.378600
-8.661800 0.000000
-8.645000 0.000000
-8.628200 0.000000
-8.611400 0.000000
-8.594600 0.000000
-8.577800 0.000000
-8.561000 0.000000
-8.544200 0.000000
-8.527400 0.000000
-8.510600 0.000000
-8.493800 0.000000
-8.477000 0.000000
-8.460200 0.000000
-8.443400 0.000000
-8.426600 0.000000
-8.409800 0.000000
-8.393000 0.000000
-8.376200 0.000000
-8.359400 0.000000
-8.342600 0.000000
-8.325800 0.000000
-8.309000 0.000000
-8.292200 0.000000
-8.275400 0.000000
-8.258600 0.000000
-8.241800 0.000000
-8.225000 0.000000
-8.208200 0.000000
-8.191400 0.000000
-8.174600 0.000000
-8.157800 0.000000
-8.141000 0.000000
-8.124200 0.000000
-8.107400 0.000000
-8.090600 0.000000
-8.073800 0.000000
-8.057000 0.000000
-8.040200 0.000000
-8.023400 0.000000
-8.006600 0.000000
-7.989800 0.000000
-7.973000 0.000000
-7.956200 0.000000
-7.939400 0.000000
-7.922600 0.000000
-7.905800 0.000000
-7.889000 0.000000
-7.872200 0.000000
-7.855400 0.000000
-7.838600 0.000000
-7.821800 0.000000
-7.805000 0.000000
-7.788200 0.000000
-7.771400 0.000000
-7.754600 0.000000
-7.737800 0.000000
-7.721000 0.000000
-7.704200 0.000000
-7.687400 0.000000
-7.670600 0.000000
-7.653800 0.000000
-7.637000 0.000000
-7.620200 0.000000
-7.603400 0.000000
-7.586600 0.000000
-7.569800 0.000000
-7.553000 0.000000
-7.536200 0.000000
-7.519400 0.000000
-7.502600 0.000000
-7.485800 0.000000
-7.469000 0.000000
-7.452200 0.000000
-7.435400 0.000000
-7.418600 0.000000
-7.401700 0.000000
-7.384900 0.000000
-7.368100 0.000000
-7.351300 0.000000
-7.334500 0.000000
-7.317700 0.000000
-7.300900 0.000000
-7.284100 0.000000
-7.267300 0.000000
-7.250500 0.000000
-7.233700 0.000000
-7.216900 0.000000
-7.200100 0.000000
-7.183300 0.000000
-7.166500 0.000000
-7.149700 0.000000
-7.132900 0.000000
-7.116100 0.000000
-7.099300 0.000000
-7.082500 0.000000
-7.065700 0.000000
-7.048900 0.000000
-7.032100 0.000000
-7.015300 0.000000
-6.998500 0.000000
-6.981700 0.000000
-6.964900 0.000000
-6.948100 0.000000
-6.931300 0.000000
-6.914500 0.000000
-6.897700 0.000000
-6.880900 0.000000
-6.864100 0.000000
-6.847300 0.000000
-6.830500 0.000000
-6.813700 0.000000
-6.796900 0.000000
-6.780100 0.000000
-6.763300 0.000000
-6.746500 0.000000
-6.729700 0.000000
-6.712900 0.000000
-6.696100 0.000000
-6.679300 0.000000
-6.662500 0.000000
-6.645700 0.000000
-6.628900 0.000000
-6.612100 0.000000
-6.595300 0.000000
-6.578500 0.000000
-6.561700 0.000000
-6.544900 0.000000
-6.528100 0.000000
-6.511300 0.000000
-6.494500 0.000000
-6.477700 0.000000
-6.460900 0.000000
-6.444100 0.000000
-6.427300 0.000000
-6.410500 0.000000
-6.393700 0.000000
-6.376900 0.000000
-6.360100 0.000000
-6.343300 0.000000
-6.326500 0.000000
-6.309700 0.000000
-6.292900 0.000000
-6.276100 0.000000
-6.259300 0.000000
-6.242500 0.000000
-6.225700 0.000000
-6.208900 0.000000
-6.192100 0.000000
-6.175300 0.000000
-6.158500 0.000000
-6.141700 0.000000
-6.124900 0.000000
-6.108100 0.000000
-6.091300 0.000000
-6.074500 0.000000
-6.057700 0.000000
-6.040900 0.000000
-6.024100 0.000000
-6.007300 0.000000
-5.990500 0.000000
-5.973700 0.000000
-5.956900 0.000000
-5.940100 0.000000
-5.923300 0.000000
-5.906500 0.000000
-5.889700 0.000000
-5.872900 0.000000
-5.856100 0.000000
-5.839300 0.000000
-5.822500 0.000000
-5.805700 0.000000
-5.788900 0.000000
-5.772100 0.000000
-5.755300 0.000000
-5.738500 0.000000
-5.721700 0.000000
-5.704900 0.000000
-5.688100 0.000000
-5.671300 0.000000
-5.654500 0.000000
-5.637700 0.000000
-5.620800 0.000000
-5.604000 0.000000
-5.587200 0.000000
-5.570400 0.000000
-5.553600 0.000000
-5.536800 0.000000
-5.520000 0.000000
-5.503200 0.000000
-5.486400 0.000000
-5.469600 0.000000
-5.452800 0.000000
-5.436000 0.000000
-5.419200 0.000000
-5.402400 0.000000
-5.385600 0.000000
-5.368800 0.000000
-5.352000 0.000000
-5.335200 0.000000
-5.318400 0.000000
-5.301600 0.000000
-5.284800 0.000000
-5.268000 0.000000
-5.251200 0.000000
-5.234400 0.000000
-5.217600 0.000000
-5.200800 0.000000
-5.184000 0.000000
-5.167200 0.000000
-5.150400 0.000000
-5.133600 0.000000
-5.116800 0.000000
-5.100000 0.000000
-5.083200 0.000000
-5.066400 0.000000
-5.049600 0.000000
-5.032800 0.000000
-5.016000 0.000000
-4.999200 0.000000
-4.982400 0.000000
-4.965600 0.000000
-4.948800 0.000000
-4.932000 0.000000
-4.915200 0.000000
-4.898400 0.000000
-4.881600 0.000000
-4.864800 0.000000
-4.848000 0.000000
-4.831200 0.000000
-4.814400 0.000000
-4.797600 0.000000
-4.780800 0.000000
-4.764000 0.000000
-4.747200 0.000000
-4.730400 0.000000
-4.713600 0.000000
-4.696800 0.000000
-4.680000 0.000000
-4.663200 0.000000
-4.646400 0.000000
-4.629600 0.000000
-4.612800 0.000000
-4.596000 0.000000
-4.579200 0.000000
-4.562400 0.000000
-4.545600 0.000000
-4.528800 0.000000
-4.512000 0.000000
-4.495200 0.000000
-4.478400 0.000000
-4.461600 0.000000
-4.444800 0.000000
-4.428000 0.000000
-4.411200 0.000000
-4.394400 0.000000
-4.377600 0.000000
-4.360800 0.000000
-4.344000 0.000000
-4.327200 0.000000
-4.310400 0.000000
-4.293600 0.000000
-4.276800 0.000000
-4.260000 0.000000
-4.243200 0.000000
-4.226400 0.000000
-4.209600 0.000000
-4.192800 0.000000
-4.176000 0.000000
-4.159200 0.000000
-4.142400 0.000000
-4.125600 0.000000
-4.108800 0.000000
-4.092000 0.000000
-4.075200 0.000000
-4.058400 0.000000
-4.041600 0.000000
-4.024800 0.000000
-4.008000 3.988500
-3.991200 3.982400
-3.974400 4.410200
-3.957600 5.003300
-3.940800 5.595000
-3.924000 7.047800
-3.907200 7.629600
-3.890400 8.343600
-3.873600 5.474800
-3.856800 4.110500
-3.839900 3.498900
-3.823100 2.921500
-3.806300 2.559700
-3.789500 2.441900
-3.772700 2.406500
-3.755900 3.472400
-3.739100 4.604800
-3.722300 4.722100
-3.705500 4.893900
-3.688700 5.123500
-3.671900 5.237800
-3.655100 5.758200
-3.638300 6.118100
-3.621500 6.084500
-3.604700 6.553300
-3.587900 7.531900
-3.571100 8.777000
-3.554300 9.941600
-3.537500 11.189800
-3.520700 12.102000
-3.503900 11.646300
-3.487100 15.172700
-3.470300 4.423100
-3.453500 3.724700
-3.436700 3.244900
-3.419900 2.857800
-3.403100 2.459500
-3.386300 2.012300
-3.369500 1.484600
-3.352700 1.125000
-3.335900 1.088800
-3.319100 1.052600
-3.302300 1.016400
-3.285500 0.980200
-3.268700 0.944000
-3.251900 0.907700
-3.235100 0.871500
-3.218300 0.835300
-3.201500 0.799000
-3.184700 0.762800
-3.167900 0.726600
-3.151100 0.690300
-3.134300 0.781500
-3.117500 0.883700
-3.100700 0.773600
-3.083900 0.663600
-3.067100 0.553800
-3.050300 0.444100
-3.033500 0.334500
-3.016700 0.225100
-2.999900 0.115900
-2.983100 0.042200
-2.966300 0.004100
-2.949500 0.000000
-2.932700 0.000000
-2.915900 0.000000
-2.899100 0.000000
-2.882300 0.000000
-2.865500 0.000000
-2.848700 0.000000
-2.831900 0.000000
-2.815100 0.000000
-2.798300 0.000000
-2.781500 0.000000
-2.764700 0.000000
-2.747900 0.000000
-2.731100 0.000000
-2.714300 0.000000
-2.697500 0.000000
-2.680700 0.000000
-2.663900 0.000000
-2.647100 0.000000
-2.630300 0.000000
-2.613500 0.000000
-2.596700 0.000000
-2.579900 0.000000
-2.563100 0.000000
-2.546300 0.000000
-2.529500 0.000000
-2.512700 0.000000
-2.495900 0.000000
-2.479100 0.000000
-2.462300 0.000000
-2.445500 0.000000
-2.428700 0.000000
-2.411900 0.000000
-2.395100 0.000000
-2.378300 0.000000
-2.361500 0.000000
-2.344700 0.000000
-2.327900 0.000000
-2.311100 0.000000
-2.294300 0.000000
-2.277500 0.000000
-2.260700 0.000000
-2.243900 0.000000
-2.227100 0.000000
-2.210300 0.000000
-2.193500 0.000000
-2.176700 0.000000
-2.159900 0.000000
-2.143100 0.000000
-2.126300 0.000000
-2.109500 0.000000
-2.092700 0.000000
-2.075900 1.078200
-2.059000 1.238500
-2.042200 1.458200
-2.025400 1.831600
-2.008600 2.294000
-1.991800 2.854500
-1.975000 3.303800
-1.958200 4.678400
-1.941400 5.755600
-1.924600 5.934900
-1.907800 5.665200
-1.891000 5.381800
-1.874200 5.098300
-1.857400 4.766100
-1.840600 3.958200
-1.823800 3.392700
-1.807000 3.110200
-1.790200 2.862800
-1.773400 2.697900
-1.756600 2.559900
-1.739800 2.439800
-1.723000 2.684800
-1.706200 4.049900
-1.689400 4.463300
-1.672600 4.861600
-1.655800 5.175100
-1.639000 5.622200
-1.622200 7.058000
-1.605400 6.900600
-1.588600 6.016900
-1.571800 6.363300
-1.555000 9.870800
-1.538200 9.891200
-1.521400 9.449000
-1.504600 8.893000
-1.487800 8.391300
-1.471000 7.782500
-1.454200 7.276100
-1.437400 6.520200
-1.420600 6.089500
-1.403800 5.847500
-1.387000 5.926700
-1.370200 6.205200
-1.353400 6.456000
-1.336600 6.756300
-1.319800 7.247400
-1.303000 7.921000
-1.286200 8.319600
-1.269400 8.513700
-1.252600 8.975700
-1.235800 9.508300
-1.219000 9.434200
-1.202200 9.551200
-1.185400 9.621500
-1.168600 9.584900
-1.151800 9.987900
-1.135000 10.345300
-1.118200 10.417900
-1.101400 10.583600
-1.084600 10.679600
-1.067800 10.839500
-1.051000 10.248900
-1.034200 9.224300
-1.017400 8.247700
-1.000600 7.981900
-0.983800 7.997900
-0.967000 8.746100
-0.950200 11.099500
-0.933400 12.378700
-0.916600 11.151500
-0.899800 9.993700
-0.883000 12.000200
-0.866200 14.604800
-0.849400 14.829900
-0.832600 14.493300
-0.815800 12.957000
-0.799000 13.814200
-0.782200 12.187100
-0.765400 11.104000
-0.748600 8.000300
-0.731800 5.914800
-0.715000 6.911200
-0.698200 7.919000
-0.681400 10.231500
-0.664600 13.396000
-0.647800 13.820800
-0.631000 13.465700
-0.614200 13.704300
-0.597400 11.367500
-0.580600 9.873900
-0.563800 6.554200
-0.547000 5.357900
-0.530200 5.107400
-0.513400 5.623400
-0.496600 6.949900
-0.479800 9.366900
-0.463000 10.909400
-0.446200 11.989100
-0.429400 13.150700
-0.412600 13.138500
-0.395800 12.783200
-0.379000 6.877100
-0.362200 5.522700
-0.345400 4.938700
-0.328600 4.579800
-0.311800 4.972000
-0.295000 3.985900
-0.278200 1.689300
-0.261300 0.001900
-0.244500 0.003800
-0.227700 0.006400
-0.210900 0.009600
-0.194100 0.013500
-0.177300 0.018100
-0.160500 0.023300
-0.143700 0.029400
-0.126900 0.036400
-0.110100 0.044300
-0.093300 0.053200
-0.076500 0.063100
-0.059700 0.073900
-0.042900 0.085700
-0.026100 0.098500
-0.009300 0.112200
0.007500 0.126900
0.024300 0.143000
0.041100 0.160700
0.057900 0.179900
0.074700 0.196200
0.091500 0.211600
0.108300 0.227500
0.125100 0.244300
0.141900 0.262100
0.158700 0.280600
0.175500 0.300100
0.192300 0.321400
0.209100 0.344200
0.225900 0.368700
0.242700 0.394700
0.259500 0.422300
0.276300 0.609600
0.293100 0.765200
0.309900 0.957000
0.326700 1.184600
0.343500 1.424200
0.360300 1.702000
0.377100 2.013300
0.393900 2.327900
0.410700 2.690300
0.427500 3.062800
0.444300 3.424200
0.461100 3.866200
0.477900 4.560400
0.494700 5.493000
0.511500 6.359700
0.528300 7.355400
0.545100 7.595700
0.561900 7.008700
0.578700 6.263600
0.595500 5.867600
0.612300 5.741300
0.629100 5.897700
0.645900 5.924600
0.662700 6.072000
0.679500 7.833700
0.696300 6.388200
0.713100 5.942400
0.729900 6.918300
0.746700 6.845100
0.763500 5.635300
0.780300 4.771800
0.797100 3.715800
0.813900 3.111700
0.830700 2.698700
0.847500 2.383200
0.864300 2.141700
0.881100 2.162800
0.897900 2.195900
0.914700 2.237000
0.931500 2.281600
0.948300 2.328400
0.965100 2.377400
0.981900 2.475100
0.998700 2.927200
1.015500 4.077400
1.032300 6.562300
1.049100 7.113900
1.065900 6.433900
1.082700 6.473300
1.099500 6.482900
1.116300 6.694200
1.133100 6.318800
1.149900 3.825100
1.166700 2.191700
1.183500 1.384100
1.200300 0.246200
1.217100 0.000000
1.233900 0.000000
1.250700 0.000000
1.267500 0.000000
1.284300 0.000000
1.301100 0.000000
1.317900 0.000000
1.334700 0.000000
1.351500 0.000000
1.368300 0.000000
1.385100 0.000000
1.401900 0.000000
1.418700 0.000000
1.435500 0.000000
1.452300 0.000000
1.469100 0.000000
1.485900 0.000000
1.502700 0.000000
1.519600 0.000000
1.536400 0.000000
1.553200 0.000000
1.570000 0.000000
1.586800 0.000000
1.603600 0.000000
1.620400 0.000000
1.637200 0.000000
1.654000 0.000000
1.670800 0.000000
1.687600 0.000000
1.704400 0.000000
1.721200 0.000000
1.738000 0.000000
1.754800 0.000000
1.771600 0.000000
1.788400 0.000000
1.805200 0.000000
1.822000 0.000000
1.838800 0.000000
1.855600 0.000000
1.872400 0.000000
1.889200 0.000000
1.906000 0.000000
1.922800 0.000000
1.939600 0.000000
1.956400 0.000000
1.973200 0.000000
1.990000 0.000000
2.006800 0.000000
2.023600 0.000000
2.040400 0.000000
2.057200 0.000000
2.074000 0.000000
2.090800 0.000000
2.107600 0.000000
2.124400 0.000000
2.141200 0.000000
2.158000 0.000000
2.174800 0.000000
2.191600 0.000000
2.208400 0.000000
2.225200 0.000000
2.242000 0.000000
2.258800 0.000000
2.275600 0.000000
2.292400 0.000000
2.309200 0.000000
2.326000 0.000000
2.342800 0.000000
2.359600 0.000000
2.376400 0.000000
2.393200 0.000000
2.410000 0.000000
2.426800 0.000000
2.443600 0.000000
2.460400 0.000000
2.477200 0.000000
2.494000 0.000000
2.510800 0.000000
2.527600 0.000000
2.544400 0.000000
2.561200 0.000000
2.578000 0.000000
2.594800 0.000000
2.611600 0.000000
2.628400 0.000000
2.645200 0.000000
2.662000 0.000000
2.678800 0.000000
2.695600 0.000000
2.712400 0.000000
2.729200 0.000000
2.746000 0.000000
2.762800 0.000000
2.779600 0.000000
2.796400 0.000000
2.813200 0.000000
2.830000 0.000000
2.846800 0.000000
2.863600 0.000000
2.880400 0.000000
2.897200 0.000000
2.914000 0.000000
2.930800 0.000000
2.947600 0.000000
2.964400 0.000000
2.981200 0.000000
2.998000 0.000000
3.014800 0.000000
3.031600 0.000000
3.048400 0.000000
3.065200 0.000000
3.082000 0.000000
3.098800 0.000000
3.115600 0.000000
3.132400 0.000000
3.149200 0.000000
3.166000 0.000000
3.182800 0.000000
3.199600 0.000000
3.216400 0.000000
3.233200 0.000000
3.250000 0.000000
3.266800 0.000000
3.283600 0.000000
3.300500 0.000000
3.317300 0.000000
3.334100 0.000000
3.350900 0.000000
3.367700 0.000000
3.384500 0.000000
3.401300 0.000000
3.418100 0.000000
3.434900 0.000000
3.451700 0.000000
3.468500 0.000000
3.485300 0.000000
3.502100 0.000000
3.518900 0.000000
3.535700 0.000000
3.552500 0.000000
3.569300 0.000000
3.586100 0.000000
3.602900 0.000000
3.619700 0.000000
3.636500 0.000000
3.653300 0.000000
3.670100 0.000000
3.686900 0.000000
3.703700 0.000000
3.720500 0.000000
3.737300 0.000000
3.754100 0.000000
3.770900 0.000000
3.787700 0.000000
3.804500 0.000000
3.821300 0.000000
3.838100 0.000000
3.854900 0.000000
3.871700 0.000000
3.888500 0.000000
3.905300 0.000000
3.922100 0.000000
3.938900 0.000000
3.955700 0.000000
3.972500 0.000000
3.989300 0.000000
4.006100 0.000000
4.022900 0.000000
4.039700 0.000000
4.056500 0.005200
4.073300 0.018800
4.090100 0.036700
4.106900 0.058600
4.123700 0.084200
4.140500 0.112900
4.157300 0.144800
4.174100 0.180000
4.190900 0.219300
4.207700 0.262900
4.224500 0.313900
4.241300 0.364800
4.258100 0.415800
4.274900 0.416300
4.291700 0.430500
4.308500 0.449400
4.325300 0.468400
4.342100 0.485000
4.358900 0.498700
4.375700 0.509500
4.392500 0.518100
4.409300 0.524500
4.426100 0.503300
4.442900 0.492400
4.459700 0.505700
4.476500 0.519000
4.493300 0.532300
4.510100 0.545600
4.526900 0.558900
4.543700 0.572200
4.560500 0.585500
4.577300 0.598800
4.594100 0.612100
4.610900 0.625500
4.627700 0.641600
4.644500 0.661300
4.661300 0.684400
4.678100 0.716700
4.694900 0.784100
4.711700 1.081700
4.728500 1.339300
4.745300 1.606700
4.762100 1.896400
4.778900 2.240800
4.795700 2.596700
4.812500 2.836400
4.829300 3.001800
4.846100 3.152600
4.862900 3.291200
4.879700 3.468100
4.896500 3.531200
4.913300 3.542600
4.930100 3.506400
4.946900 3.422400
4.963700 3.284700
4.980500 3.061200
4.997300 2.788600
5.014100 2.553800
5.030900 2.369500
5.047700 2.193700
5.064500 1.980700
5.081400 1.808400
5.098200 1.691100
5.115000 1.610300
5.131800 1.546800
5.148600 1.494700
5.165400 1.458300
5.182200 1.427400
5.199000 1.396500
5.215800 1.365800
5.232600 1.335200
5.249400 1.304600
5.266200 1.274200
5.283000 1.243900
5.299800 1.213700
5.316600 1.238000
5.333400 1.304300
5.350200 1.402500
5.367000 1.532800
5.383800 1.689100
5.400600 1.853100
5.417400 2.126500
5.434200 2.671700
5.451000 2.985000
5.467800 2.977600
5.484600 2.860700
5.501400 2.593700
5.518200 2.199700
5.535000 2.139100
5.551800 2.180200
5.568600 2.232900
5.585400 2.539500
5.602200 2.703800
5.619000 2.711500
5.635800 2.760600
5.652600 2.986200
5.669400 3.379000
5.686200 3.393800
5.703000 3.401100
5.719800 3.428400
5.736600 3.529700
5.753400 3.594000
5.770200 3.515000
5.787000 3.374900
5.803800 3.236900
5.820600 3.099100
5.837400 2.916000
5.854200 2.350400
5.871000 2.309900
5.887800 2.304600
5.904600 2.314300
5.921400 2.357900
5.938200 2.592700
5.955000 2.727200
5.971800 2.671600
5.988600 3.235400
6.005400 3.707300
6.022200 3.977000
6.039000 4.228500
6.055800 4.495600
6.072600 4.799800
6.089400 5.136800
6.106200 5.845800
6.123000 6.621300
6.139800 6.741800
6.156600 4.995900
6.173400 5.115500
6.190200 5.215800
6.207000 5.187700
6.223800 5.173700
6.240600 5.275200
6.257400 5.455300
6.274200 5.586000
6.291000 5.665000
6.307800 5.235900
6.324600 5.239300
6.341400 4.037700
6.358200 4.177100
6.375000 4.197200
6.391800 3.823300
6.408600 3.266600
6.425400 2.791600
6.442200 2.692400
6.459000 2.661900
6.475800 2.645400
6.492600 2.640400
6.509400 2.630900
6.526200 2.611200
6.543000 2.592200
6.559800 2.674900
6.576600 2.895400
6.593400 3.574300
6.610200 4.219400
6.627000 5.406000
6.643800 7.243000
6.660600 7.084200
6.677400 6.370500
6.694200 5.680100
6.711000 3.941400
6.727800 3.786400
6.744600 4.217700
6.761400 5.107600
6.778200 6.218000
6.795000 8.802000
6.811800 8.190000
6.828600 8.169600
6.845400 7.467600
6.862300 7.547400
6.879100 9.663400
6.895900 10.938600
6.912700 10.793700
6.929500 10.820700
6.946300 9.867000
6.963100 8.450200
6.979900 8.812300
6.996700 8.240700
7.013500 7.048300
7.030300 7.023700
7.047100 6.838100
7.063900 6.063100
7.080700 5.098300
7.097500 4.552700
7.114300 3.870500
7.131100 3.073900
7.147900 2.822700
7.164700 2.996100
7.181500 3.551400
7.198300 3.812000
7.215100 4.257700
7.231900 5.619700
7.248700 8.584300
7.265500 16.235300
7.282300 16.622400
7.299100 15.209500
7.315900 11.871300
7.332700 7.361000
7.349500 5.610300
7.366300 4.431000
7.383100 3.728800
7.399900 3.218200
7.416700 2.818100
7.433500 2.535200
7.450300 2.297000
7.467100 2.086100
7.483900 1.893800
7.500700 1.706400
7.517500 1.520000
7.534300 1.321800
7.551100 1.119300
7.567900 0.915000
7.584700 0.633900
7.601500 0.427300
7.618300 0.272000
7.635100 0.133700
7.651900 0.000000
7.668700 0.000000
7.685500 0.000000
7.702300 0.000000
7.719100 0.000000
7.735900 0.000000
7.752700 0.000000
7.769500 0.000000
7.786300 0.000000
7.803100 0.000000
7.819900 0.000000
7.836700 0.000000
7.853500 0.000000
7.870300 0.000000
7.887100 0.000000
7.903900 0.000000
7.920700 0.000000
7.937500 0.000000
7.954300 0.000000
7.971100 0.000000
7.987900 0.000000
8.004700 0.000000
8.021500 0.000000
8.038300 0.000000
8.055100 0.000000
8.071900 0.000000
8.088700 0.000000
8.105500 0.000000
8.122300 0.000000
8.139100 0.000000
8.155900 0.000000
8.172700 0.000000
8.189500 0.000000
8.206300 0.000000
8.223100 0.000000
8.239900 0.000000
8.256700 0.027400
8.273500 0.084900
8.290300 0.146900
8.307100 0.202400
8.323900 0.251400
8.340700 0.296400
8.357500 0.344200
8.374300 0.395000
8.391100 0.449000
8.407900 0.506200
8.424700 0.566800
8.441500 0.631200
8.458300 0.699000
8.475100 0.763400
8.491900 0.814400
8.508700 0.855000
8.525500 0.883400
8.542300 0.897600
8.559100 0.929800
8.575900 0.965500
8.592700 1.002100
8.609500 1.041900
8.626300 1.085300
8.643200 1.132700
8.660000 1.185900
8.676800 1.242600
8.693600 1.300600
8.710400 1.360000
8.727200 1.452800
8.744000 1.535800
8.760800 1.586900
8.777600 1.637000
8.794400 1.686200
8.811200 1.740300
8.828000 1.810500
8.844800 1.896800
8.861600 2.004800
8.878400 2.121100
8.895200 2.187000
8.912000 2.241600
8.928800 2.284200
8.945600 2.315200
8.962400 2.335200
8.979200 2.343800
8.996000 2.338500
9.012800 2.332200
9.029600 2.685200
9.046400 2.369300
9.063200 2.421400
9.080000 2.457500
9.096800 2.485100
9.113600 2.501700
9.130400 2.495200
9.147200 2.464600
9.164000 2.420900
9.180800 2.380500
9.197600 2.469800
9.214400 2.674800
9.231200 2.932000
9.248000 3.198000
9.264800 3.457500
9.281600 3.713900
9.298400 3.964000
9.315200 3.985700
9.332000 3.834500
9.348800 3.659200
9.365600 3.607200
9.382400 3.719900
9.399200 3.921300
9.416000 4.010200
9.432800 3.910400
9.449600 3.536700
9.466400 3.461600
9.483200 3.405700
9.500000 3.370700
9.516800 3.378300
9.533600 3.471800
9.550400 3.179800
9.567200 3.099700
9.584000 3.162800
9.600800 3.233600
9.617600 3.431600
9.634400 3.465800
9.651200 3.409600
9.668000 3.360500
9.684800 3.294600
9.701600 3.221100
9.718400 3.112900
9.735200 2.852900
9.752000 2.755600
9.768800 2.639700
9.785600 2.539000
9.802400 2.458100
9.819200 2.383200
9.836000 2.338100
9.852800 2.333300
9.869600 2.380000
9.886400 2.740000
9.903200 2.645500
9.920000 2.327900
9.936800 2.030700
9.953600 1.633000
9.970400 1.300800
9.987200 1.145400
10.004000 1.045000
10.020800 0.905000
10.037600 0.830400
10.054400 0.915300
10.071200 1.011900
10.088000 1.104800
10.104800 1.193800
10.121600 1.291600
10.138400 1.417200
10.155200 1.585800
10.172000 1.774200
10.188800 1.892900
10.205600 1.990100
10.222400 2.120600
10.239200 2.291900
10.256000 2.468200
10.272800 2.840500
10.289600 3.961300
10.306400 5.080000
10.323200 5.877000
10.340000 5.445400
10.356800 5.486400
10.373600 5.392600
10.390400 5.242200
10.407200 5.069700
10.424100 4.787200
10.440900 4.596500
10.457700 4.449300
10.474500 4.313500
10.491300 4.218800
10.508100 4.635000
10.524900 5.361100
10.541700 6.108300
10.558500 6.491700
10.575300 8.341800
10.592100 5.048700
10.608900 3.077000
10.625700 2.459400
10.642500 2.310400
10.659300 2.484100
10.676100 2.350200
10.692900 2.374300
10.709700 2.423200
10.726500 2.497300
10.743300 2.601800
10.760100 2.736600
10.776900 2.865100
10.793700 3.045100
10.810500 3.781700
10.827300 4.466100
10.844100 4.888900
10.860900 4.901900
10.877700 4.881800
10.894500 3.997300
10.911300 4.127900
10.928100 4.226200
10.944900 3.968800
10.961700 4.035400
10.978500 3.477300
10.995300 2.544900
11.012100 2.499500
11.028900 2.476200
11.045700 2.447800
11.062500 2.411600
11.079300 2.367000
11.096100 2.316100
11.112900 2.258800
11.129700 2.192600
11.146500 2.073900
11.163300 1.998200
11.180100 2.029800
11.196900 2.083100
11.213700 2.130700
11.230500 3.042100
11.247300 2.448800
11.264100 2.546700
11.280900 2.670900
11.297700 2.820900
11.314500 3.023500
11.331300 3.173800
11.348100 3.269300
11.364900 3.204000
11.381700 3.166000
11.398500 2.996000
11.415300 3.008700
11.432100 3.083200
11.448900 3.175000
11.465700 3.299400
11.482500 3.452700
11.499300 3.826600
11.516100 4.061600
11.532900 4.311400
11.549700 4.535900
11.566500 4.634300
11.583300 4.689600
11.600100 4.657100
11.616900 4.507600
11.633700 4.401000
11.650500 4.394300
11.667300 4.462000
11.684100 4.867100
11.700900 4.724100
11.717700 4.687500
11.734500 4.864700
11.751300 4.928400
11.768100 4.996700
11.784900 5.138800
11.801700 5.388500
11.818500 5.670700
11.835300 5.843400
11.852100 5.835600
11.868900 5.397300
11.885700 4.840800
11.902500 4.259000
11.919300 3.869800
11.936100 3.657600
11.952900 3.518600
11.969700 3.397900
11.986500 3.287300
12.003300 3.189100
12.020100 3.202700
12.036900 3.456500
12.053700 4.009700
12.070500 3.951000
12.087300 3.930000
12.104100 3.871100
12.120900 3.779900
12.137700 3.628400
12.154500 3.496700
12.171300 3.403600
12.188100 3.364300
12.205000 3.338600
12.221800 3.311800
12.238600 3.281300
12.255400 3.233500
12.272200 3.223700
12.289000 3.283200
12.305800 4.063000
12.322600 3.593600
12.339400 3.499500
12.356200 3.396900
12.373000 3.283900
12.389800 3.162800
12.406600 3.040100
12.423400 2.930500
12.440200 2.840900
12.457000 2.761500
12.473800 2.720300
12.490600 2.689900
12.507400 2.679100
12.524200 2.731200
12.541000 2.828700
12.557800 2.967100
12.574600 3.147200
12.591400 3.625900
12.608200 3.852000
12.625000 4.058100
12.641800 4.217200
12.658600 4.333500
12.675400 4.581200
12.692200 4.858500
12.709000 5.157900
12.725800 5.482600
12.742600 5.743700
12.759400 5.752000
12.776200 5.457100
12.793000 4.864000
12.809800 4.606000
12.826600 4.568000
12.843400 4.708100
12.860200 4.637600
12.877000 4.519400
12.893800 4.421200
12.910600 4.406700
12.927400 4.475000
12.944200 4.642900
12.961000 4.999400
12.977800 5.750700
12.994600 6.396300
13.011400 7.048200
13.028200 6.785800
13.045000 6.572300
13.061800 6.474400
13.078600 6.424500
13.095400 6.332400
13.112200 6.278300
13.129000 6.243900
13.145800 6.289500
13.162600 6.403100
13.179400 6.444300
13.196200 6.636300
13.213000 6.842700
13.229800 7.059300
13.246600 7.715100
13.263400 7.485900
13.280200 6.754800
13.297000 6.161400
13.313800 4.927500
13.330600 3.710900
13.347400 3.280900
13.364200 3.383900
13.381000 3.499500
13.397800 3.636300
13.414600 3.798000
13.431400 3.983400
13.448200 4.240100
13.465000 4.441700
13.481800 4.610600
13.498600 4.763700
13.515400 5.041000
13.532200 5.378100
13.549000 5.777500
13.565800 6.119400
13.582600 6.169800
13.599400 6.438500
13.616200 6.091900
13.633000 5.934600
13.649800 5.548400
13.666600 5.113300
13.683400 4.644500
13.700200 4.244600
13.717000 4.162400
13.733800 4.430500
13.750600 4.930300
13.767400 5.357400
13.784200 5.434900
13.801000 5.448400
13.817800 5.530200
13.834600 5.967400
13.851400 6.351000
13.868200 6.621500
13.885000 6.791800
13.901800 6.726500
13.918600 6.408200
13.935400 6.078400
13.952200 6.101700
13.969000 6.081800
13.985900 5.929100
14.002700 5.700900
14.019500 5.614900
14.036300 5.304600
14.053100 5.085500
14.069900 5.207200
14.086700 5.494300
14.103500 5.033400
14.120300 5.093100
14.137100 5.136100
14.153900 5.439400
14.170700 5.978600
14.187500 6.256700
14.204300 6.753000
14.221100 6.958900
14.237900 6.957000
14.254700 7.130000
14.271500 7.002000
14.288300 6.497200
14.305100 5.934700
14.321900 5.166300
14.338700 4.696200
14.355500 4.517000
14.372300 4.617600
14.389100 4.729600
14.405900 4.839400
14.422700 4.838500
14.439500 4.392400
14.456300 4.424200
14.473100 4.564000
14.489900 4.930900
14.506700 5.778900
14.523500 7.145900
14.540300 6.816100
14.557100 6.581400
14.573900 6.261700
14.590700 5.720600
14.607500 5.220500
14.624300 4.829900
14.641100 4.641900
14.657900 4.492800
14.674700 4.316700
14.691500 4.084200
14.708300 3.884100
14.725100 3.820200
14.741900 3.824800
14.758700 3.912300
14.775500 4.134700
14.792300 4.406200
14.809100 4.717000
14.825900 5.024900
14.842700 5.175900
14.859500 5.175600
14.876300 5.102500
14.893100 4.858500
14.909900 4.607900
14.926700 4.680000
14.943500 4.952500
14.960300 5.227800
14.977100 5.503600
14.993900 5.982000
15.010700 5.843300
15.027500 5.670100
15.044300 5.472500
15.061100 5.390400
15.077900 5.334400
15.094700 5.281300
15.111500 5.282800
15.128300 5.400000
15.145100 5.667200
15.161900 5.721500
15.178700 5.660600
15.195500 6.191200
15.212300 6.646600
15.229100 7.533800
15.245900 7.961100
15.262700 7.457700
15.279500 6.694300
15.296300 6.020600
15.313100 5.698100
15.329900 6.359400
15.346700 6.447900
15.363500 6.517200
15.380300 6.979800
15.397100 6.677400
15.413900 6.724100
15.430700 6.514100
15.447500 6.211600
15.464300 6.339000
15.481100 6.460200
15.497900 6.563500
15.514700 6.649000
15.531500 6.945600
15.548300 7.084400
15.565100 6.833200
15.581900 6.398800
15.598700 6.031300
15.615500 5.664000
15.632300 5.267600
15.649100 4.877700
15.665900 4.623700
15.682700 4.664600
15.699500 6.465600
15.716300 5.423500
15.733100 5.345600
15.749900 5.505700
15.766800 5.728900
15.783600 6.372400
15.800400 5.494700
15.817200 5.319900
15.834000 5.309900
15.850800 5.275700
15.867600 5.263800
15.884400 5.274600
15.901200 5.470200
15.918000 5.447700
15.934800 5.448600
15.951600 5.518600
15.968400 5.452100
15.985200 5.385700
16.002000 5.738500
16.018800 6.181800
16.035600 5.946300
16.052400 5.064400
16.069200 4.963100
16.086000 5.540100
16.102800 5.958700
16.119600 6.290500
16.136400 6.757400
16.153200 6.886700
16.170000 6.223200
16.186800 6.019500
16.203600 6.051000
16.220400 6.142600
16.237200 6.511600
16.254000 6.435300
16.270800 6.215500
16.287600 6.230200
16.304400 6.546900
16.321200 6.494500
16.338000 6.235700
16.354800 5.570800
16.371600 5.912300
16.388400 6.128300
16.405200 6.254400
16.422000 6.645300
16.438800 6.156300
16.455600 5.911400
16.472400 5.780000
16.489200 5.763700
16.506000 5.908400
16.522800 6.541500
16.539600 7.990700
16.556400 7.865100
16.573200 7.255400
16.590000 5.925600
16.606800 4.881600
16.623600 4.399500
16.640400 3.937000
16.657200 3.390200
16.674000 2.790700
16.690800 2.258600
16.707600 1.811600
16.724400 1.437100
16.741200 1.235300
16.758000 1.125300
16.774800 1.027800
16.791600 0.934000
16.808400 0.815500
16.825200 0.701600
16.842000 0.599400
16.858800 0.508900
16.875600 0.430000
16.892400 0.362800
16.909200 0.306800
16.926000 0.259400
16.942800 0.220500
16.959600 0.190000
16.976400 0.166100
16.993200 0.147700
17.010000 0.134900
17.026800 0.127200
17.043600 0.123400
17.060400 0.119600
17.077200 0.115500
17.094000 0.111000
17.110800 0.106200
17.127600 0.101000
17.144400 0.095500
17.161200 0.089600
17.178000 0.083400
17.194800 0.076900
17.211600 0.070300
17.228400 0.064300
17.245200 0.058000
17.262000 0.051400
17.278800 0.045100
17.295600 0.039200
17.312400 0.033700
17.329200 0.028600
17.346000 0.023800
17.362800 0.019500
17.379600 0.015500
17.396400 0.012000
17.413200 0.008800
17.430000 0.006100
17.446800 0.003700
17.463600 0.001700
17.480400 0.000100
17.497200 0.000000
17.514000 0.000000
17.530800 0.000000
17.547700 0.000000
17.564500 0.000000
17.581300 0.000000
17.598100 0.000000
17.614900 0.000000
17.631700 0.000000
17.648500 0.000000
17.665300 0.000000
17.682100 0.000000
17.698900 0.000000
17.715700 0.000000
17.732500 0.000000
17.749300 0.000000
17.766100 0.000000
17.782900 0.000000
17.799700 0.000000
17.816500 0.000000
17.833300 0.000000
17.850100 0.000000
17.866900 0.000000
17.883700 0.000000
17.900500 0.000000
17.917300 0.000000
17.934100 0.000000
17.950900 0.000000
17.967700 0.000000
17.984500 0.000000
18.001300 0.000000
18.018100 0.000000
18.034900 0.000000
18.051700 0.000000
18.068500 0.000000
18.085300 0.000000
18.102100 0.000000
18.118900 0.000000
18.135700 0.000000
18.152500 0.000000
18.169300 0.000000
18.186100 0.000000
18.202900 0.000000
18.219700 0.000000
18.236500 0.000000
18.253300 0.000000
18.270100 0.000000
18.286900 0.000000
18.303700 0.000000
18.320500 0.000000
18.337300 0.000000
18.354100 0.000000
18.370900 0.000000
18.387700 0.000000
18.404500 0.000000
18.421300 0.000000
18.438100 0.000000
18.454900 0.000000
18.471700 0.000000
18.488500 0.000000
18.505300 0.000000
18.522100 0.000000
18.538900 0.000000
18.555700 0.000000
18.572500 0.000000
18.589300 0.000000
18.606100 0.000000
18.622900 0.000000
18.639700 0.000000
18.656500 0.000000
18.673300 0.000000
18.690100 0.000000
18.706900 0.000000
18.723700 0.000000
18.740500 0.000000
18.757300 0.000000
18.774100 0.000000
18.790900 0.000000
18.807700 0.000000
18.824500 0.000000
18.841300 0.000000
18.858100 0.000000
18.874900 0.000000
18.891700 0.000000
18.908500 0.000000
18.925300 0.000000
18.942100 0.000000
18.958900 0.000000
18.975700 0.000000
18.992500 0.000000
19.009300 0.000000
e
