set title 'mp-547271 - Density of States'
set xlabel 'Energy (eV)'
set ylabel 'DOS (states/eV)'
set grid
set xrange [-10:10]
set yrange [0:33.561]
set xzeroaxis lt -1
set terminal png size 800,600
set output 'mp-547271_dos_gnuplot.png'
plot '-' using 1:2 with lines title 'DOS'
-46.224000 0.000000
-46.181600 0.000000
-46.139300 0.000000
-46.096900 0.000000
-46.054500 0.000000
-46.012100 0.000000
-45.969800 0.000000
-45.927400 0.000000
-45.885000 0.000000
-45.842600 0.000000
-45.800200 0.000000
-45.757900 0.000000
-45.715500 0.000000
-45.673100 0.000000
-45.630700 0.000000
-45.588400 0.000000
-45.546000 0.000000
-45.503600 0.000000
-45.461200 0.000000
-45.418800 0.000000
-45.376500 0.000000
-45.334100 0.000000
-45.291700 0.000000
-45.249300 0.000000
-45.207000 0.000000
-45.164600 0.000000
-45.122200 0.000000
-45.079800 0.000000
-45.037400 0.000000
-44.995100 0.000000
-44.952700 0.000000
-44.910300 0.000000
-44.867900 0.000000
-44.825600 0.000000
-44.783200 0.000000
-44.740800 0.000000
-44.698400 0.000000
-44.656000 0.000000
-44.613700 0.000000
-44.571300 0.000000
-44.528900 0.000000
-44.486500 0.000000
-44.444200 0.000000
-44.401800 0.000000
-44.359400 0.000000
-44.317000 0.000000
-44.274600 0.000000
-44.232300 0.000000
-44.189900 0.000000
-44.147500 0.000000
-44.105100 0.000000
-44.062800 0.000000
-44.020400 0.000000
-43.978000 0.000000
-43.935600 0.000000
-43.893200 0.000000
-43.850900 0.000000
-43.808500 0.000000
-43.766100 0.000000
-43.723700 0.000000
-43.681400 0.000000
-43.639000 0.000000
-43.596600 0.000000
-43.554200 0.000000
-43.511800 0.000000
-43.469500 0.000000
-43.427100 0.000000
-43.384700 0.000000
-43.342300 0.000000
-43.300000 0.000000
-43.257600 0.000000
-43.215200 0.000000
-43.172800 0.000000
-43.130400 0.000000
-43.088100 0.000000
-43.045700 0.000000
-43.003300 0.000000
-42.960900 0.000000
-42.918600 0.000000
-42.876200 0.000000
-42.833800 0.000000
-42.791400 0.000000
-42.749000 0.000000
-42.706700 0.000000
-42.664300 0.000000
-42.621900 0.000000
-42.579500 0.000000
-42.537200 0.000000
-42.494800 0.000000
-42.452400 0.000000
-42.410000 0.000000
-42.367600 333.015300
-42.325300 361.598400
-42.282900 0.000000
-42.240500 0.000000
-42.198100 0.000000
-42.155700 0.000000
-42.113400 0.000000
-42.071000 0.000000
-42.028600 0.000000
-41.986200 0.000000
-41.943900 0.000000
-41.901500 0.000000
-41.859100 0.000000
-41.816700 0.000000
-41.774300 0.000000
-41.732000 0.000000
-41.689600 0.000000
-41.647200 0.000000
-41.604800 0.000000
-41.562500 0.000000
-41.520100 0.000000
-41.477700 0.000000
-41.435300 0.000000
-41.392900 0.000000
-41.350600 0.000000
-41.308200 0.000000
-41.265800 0.000000
-41.223400 0.000000
-41.181100 0.000000
-41.138700 0.000000
-41.096300 0.000000
-41.053900 0.000000
-41.011500 0.000000
-40.969200 0.000000
-40.926800 0.000000
-40.884400 0.000000
-40.842000 0.000000
-40.799700 0.000000
-40.757300 0.000000
-40.714900 0.000000
-40.672500 0.000000
-40.630100 0.000000
-40.587800 0.000000
-40.545400 0.000000
-40.503000 0.000000
-40.460600 0.000000
-40.418300 0.000000
-40.375900 0.000000
-40.333500 0.000000
-40.291100 0.000000
-40.248700 0.000000
-40.206400 0.000000
-40.164000 0.000000
-40.121600 0.000000
-40.079200 0.000000
-40.036900 0.000000
-39.994500 0.000000
-39.952100 0.000000
-39.909700 0.000000
-39.867300 0.000000
-39.825000 0.000000
-39.782600 0.000000
-39.740200 0.000000
-39.697800 0.000000
-39.655500 0.000000
-39.613100 0.000000
-39.570700 0.000000
-39.528300 0.000000
-39.485900 0.000000
-39.443600 0.000000
-39.401200 0.000000
-39.358800 0.000000
-39.316400 0.000000
-39.274100 0.000000
-39.231700 0.000000
-39.189300 0.000000
-39.146900 0.000000
-39.104500 0.000000
-39.062200 0.000000
-39.019800 0.000000
-38.977400 0.000000
-38.935000 0.000000
-38.892700 0.000000
-38.850300 0.000000
-38.807900 0.000000
-38.765500 0.000000
-38.723100 0.000000
-38.680800 0.000000
-38.638400 0.000000
-38.596000 0.000000
-38.553600 0.000000
-38.511300 0.000000
-38.468900 0.000000
-38.426500 0.000000
-38.384100 0.000000
-38.341700 0.000000
-38.299400 0.000000
-38.257000 0.000000
-38.214600 0.000000
-38.172200 0.000000
-38.129900 0.000000
-38.087500 0.000000
-38.045100 0.000000
-38.002700 0.000000
-37.960300 0.000000
-37.918000 0.000000
-37.875600 0.000000
-37.833200 0.000000
-37.790800 0.000000
-37.748400 0.000000
-37.706100 0.000000
-37.663700 0.000000
-37.621300 0.000000
-37.578900 0.000000
-37.536600 0.000000
-37.494200 0.000000
-37.451800 0.000000
-37.409400 0.000000
-37.367000 0.000000
-37.324700 0.000000
-37.282300 0.000000
-37.239900 0.000000
-37.197500 0.000000
-37.155200 0.000000
-37.112800 0.000000
-37.070400 0.000000
-37.028000 0.000000
-36.985600 0.000000
-36.943300 0.000000
-36.900900 0.000000
-36.858500 0.000000
-36.816100 0.000000
-36.773800 0.000000
-36.731400 0.000000
-36.689000 0.000000
-36.646600 0.000000
-36.604200 0.000000
-36.561900 0.000000
-36.519500 0.000000
-36.477100 0.000000
-36.434700 0.000000
-36.392400 0.000000
-36.350000 0.000000
-36.307600 0.000000
-36.265200 0.000000
-36.222800 0.000000
-36.180500 0.000000
-36.138100 0.000000
-36.095700 0.000000
-36.053300 0.000000
-36.011000 0.000000
-35.968600 0.000000
-35.926200 0.000000
-35.883800 0.000000
-35.841400 0.000000
-35.799100 0.000000
-35.756700 0.000000
-35.714300 0.000000
-35.671900 0.000000
-35.629600 0.000000
-35.587200 0.000000
-35.544800 0.000000
-35.502400 0.000000
-35.460000 0.000000
-35.417700 0.000000
-35.375300 0.000000
-35.332900 0.000000
-35.290500 0.000000
-35.248200 0.000000
-35.205800 0.000000
-35.163400 0.000000
-35.121000 0.000000
-35.078600 0.000000
-35.036300 0.000000
-34.993900 0.000000
-34.951500 0.000000
-34.909100 0.000000
-34.866800 0.000000
-34.824400 0.000000
-34.782000 0.000000
-34.739600 0.000000
-34.697200 0.000000
-34.654900 0.000000
-34.612500 0.000000
-34.570100 0.000000
-34.527700 0.000000
-34.485400 0.000000
-34.443000 0.000000
-34.400600 0.000000
-34.358200 0.000000
-34.315800 0.000000
-34.273500 0.000000
-34.231100 0.000000
-34.188700 0.000000
-34.146300 0.000000
-34.104000 0.000000
-34.061600 0.000000
-34.019200 0.000000
-33.976800 0.000000
-33.934400 0.000000
-33.892100 0.000000
-33.849700 0.000000
-33.807300 0.000000
-33.764900 0.000000
-33.722600 0.000000
-33.680200 0.000000
-33.637800 0.000000
-33.595400 0.000000
-33.553000 0.000000
-33.510700 0.000000
-33.468300 0.000000
-33.425900 0.000000
-33.383500 0.000000
-33.341100 0.000000
-33.298800 0.000000
-33.256400 0.000000
-33.214000 0.000000
-33.171600 0.000000
-33.129300 0.000000
-33.086900 0.000000
-33.044500 0.000000
-33.002100 0.000000
-32.959700 0.000000
-32.917400 0.000000
-32.875000 0.000000
-32.832600 0.000000
-32.790200 0.000000
-32.747900 0.000000
-32.705500 0.000000
-32.663100 0.000000
-32.620700 0.000000
-32.578300 0.000000
-32.536000 0.000000
-32.493600 0.000000
-32.451200 0.000000
-32.408800 0.000000
-32.366500 0.000000
-32.324100 0.000000
-32.281700 0.000000
-32.239300 0.000000
-32.196900 0.000000
-32.154600 0.000000
-32.112200 0.000000
-32.069800 0.000000
-32.027400 0.000000
-31.985100 0.000000
-31.942700 0.000000
-31.900300 0.000000
-31.857900 0.000000
-31.815500 0.000000
-31.773200 0.000000
-31.730800 0.000000
-31.688400 0.000000
-31.646000 0.000000
-31.603700 0.000000
-31.561300 0.000000
-31.518900 0.000000
-31.476500 0.000000
-31.434100 0.000000
-31.391800 0.000000
-31.349400 0.000000
-31.307000 0.000000
-31.264600 0.000000
-31.222300 0.000000
-31.179900 0.000000
-31.137500 0.000000
-31.095100 0.000000
-31.052700 0.000000
-31.010400 0.000000
-30.968000 0.000000
-30.925600 0.000000
-30.883200 0.000000
-30.840900 0.000000
-30.798500 0.000000
-30.756100 0.000000
-30.713700 0.000000
-30.671300 0.000000
-30.629000 0.000000
-30.586600 0.000000
-30.544200 0.000000
-30.501800 0.000000
-30.459500 0.000000
-30.417100 0.000000
-30.374700 0.000000
-30.332300 0.000000
-30.289900 0.000000
-30.247600 0.000000
-30.205200 0.000000
-30.162800 0.000000
-30.120400 0.000000
-30.078100 0.000000
-30.035700 0.000000
-29.993300 0.000000
-29.950900 0.000000
-29.908500 0.000000
-29.866200 0.000000
-29.823800 0.000000
-29.781400 0.000000
-29.739000 0.000000
-29.696700 0.000000
-29.654300 0.000000
-29.611900 0.000000
-29.569500 0.000000
-29.527100 0.000000
-29.484800 0.000000
-29.442400 0.000000
-29.400000 0.000000
-29.357600 0.000000
-29.315300 0.000000
-29.272900 0.000000
-29.230500 0.000000
-29.188100 0.000000
-29.145700 0.000000
-29.103400 0.000000
-29.061000 0.000000
-29.018600 0.000000
-28.976200 0.000000
-28.933800 0.000000
-28.891500 0.000000
-28.849100 0.000000
-28.806700 0.000000
-28.764300 0.000000
-28.722000 0.000000
-28.679600 0.000000
-28.637200 0.000000
-28.594800 0.000000
-28.552400 0.000000
-28.510100 0.000000
-28.467700 0.000000
-28.425300 0.000000
-28.382900 0.000000
-28.340600 0.000000
-28.298200 0.000000
-28.255800 0.000000
-28.213400 0.000000
-28.171000 0.000000
-28.128700 0.000000
-28.086300 0.000000
-28.043900 0.000000
-28.001500 0.000000
-27.959200 0.000000
-27.916800 0.000000
-27.874400 0.000000
-27.832000 0.000000
-27.789600 0.000000
-27.747300 0.000000
-27.704900 0.000000
-27.662500 0.000000
-27.620100 0.000000
-27.577800 0.000000
-27.535400 0.000000
-27.493000 0.000000
-27.450600 0.000000
-27.408200 0.000000
-27.365900 0.000000
-27.323500 0.000000
-27.281100 0.000000
-27.238700 0.000000
-27.196400 0.000000
-27.154000 0.000000
-27.111600 0.000000
-27.069200 0.000000
-27.026800 0.000000
-26.984500 0.000000
-26.942100 0.000000
-26.899700 0.000000
-26.857300 0.000000
-26.815000 0.000000
-26.772600 0.000000
-26.730200 0.000000
-26.687800 0.000000
-26.645400 0.000000
-26.603100 0.000000
-26.560700 0.000000
-26.518300 0.000000
-26.475900 0.000000
-26.433600 0.000000
-26.391200 0.000000
-26.348800 0.000000
-26.306400 0.000000
-26.264000 0.000000
-26.221700 0.000000
-26.179300 0.000000
-26.136900 0.000000
-26.094500 0.000000
-26.052200 0.000000
-26.009800 0.000000
-25.967400 0.000000
-25.925000 0.000000
-25.882600 0.000000
-25.840300 0.000000
-25.797900 0.000000
-25.755500 0.000000
-25.713100 0.000000
-25.670800 0.000000
-25.628400 0.000000
-25.586000 0.000000
-25.543600 0.000000
-25.501200 0.000000
-25.458900 0.000000
-25.416500 0.000000
-25.374100 0.000000
-25.331700 0.000000
-25.289400 0.000000
-25.247000 0.000000
-25.204600 0.000000
-25.162200 0.000000
-25.119800 0.000000
-25.077500 0.000000
-25.035100 0.000000
-24.992700 0.000000
-24.950300 0.000000
-24.907900 0.000000
-24.865600 0.000000
-24.823200 0.000000
-24.780800 0.000000
-24.738400 0.000000
-24.696100 0.000000
-24.653700 0.000000
-24.611300 0.000000
-24.568900 0.000000
-24.526500 0.000000
-24.484200 0.000000
-24.441800 0.000000
-24.399400 0.000000
-24.357000 0.000000
-24.314700 0.000000
-24.272300 0.000000
-24.229900 0.000000
-24.187500 0.000000
-24.145100 0.000000
-24.102800 0.000000
-24.060400 0.000000
-24.018000 0.000000
-23.975600 0.000000
-23.933300 0.000000
-23.890900 0.000000
-23.848500 0.000000
-23.806100 0.000000
-23.763700 0.000000
-23.721400 0.000000
-23.679000 0.000000
-23.636600 0.000000
-23.594200 0.000000
-23.551900 0.000000
-23.509500 0.000000
-23.467100 0.000000
-23.424700 0.000000
-23.382300 0.000000
-23.340000 0.000000
-23.297600 0.000000
-23.255200 0.000000
-23.212800 0.000000
-23.170500 0.000000
-23.128100 0.000000
-23.085700 0.000000
-23.043300 0.000000
-23.000900 0.000000
-22.958600 0.000000
-22.916200 0.000000
-22.873800 0.000000
-22.831400 0.000000
-22.789100 0.000000
-22.746700 0.000000
-22.704300 0.000000
-22.661900 0.000000
-22.619500 0.000000
-22.577200 0.000000
-22.534800 0.000000
-22.492400 0.000000
-22.450000 0.000000
-22.407700 0.000000
-22.365300 0.000000
-22.322900 0.000000
-22.280500 0.000000
-22.238100 0.000000
-22.195800 0.000000
-22.153400 0.000000
-22.111000 0.000000
-22.068600 0.000000
-22.026300 0.000000
-21.983900 0.000000
-21.941500 0.000000
-21.899100 0.000000
-21.856700 0.000000
-21.814400 0.000000
-21.772000 0.000000
-21.729600 0.000000
-21.687200 0.000000
-21.644900 0.000000
-21.602500 0.000000
-21.560100 0.000000
-21.517700 0.000000
-21.475300 0.000000
-21.433000 0.000000
-21.390600 0.000000
-21.348200 0.000000
-21.305800 0.000000
-21.263500 0.000000
-21.221100 0.000000
-21.178700 0.000000
-21.136300 0.000000
-21.093900 0.000000
-21.051600 0.000000
-21.009200 0.000000
-20.966800 0.000000
-20.924400 0.000000
-20.882100 0.000000
-20.839700 0.000000
-20.797300 0.000000
-20.754900 0.000000
-20.712500 0.000000
-20.670200 0.000000
-20.627800 0.000000
-20.585400 0.000000
-20.543000 0.000000
-20.500600 0.000000
-20.458300 0.000000
-20.415900 0.000000
-20.373500 0.000000
-20.331100 0.000000
-20.288800 0.000000
-20.246400 0.000000
-20.204000 0.000000
-20.161600 0.000000
-20.119200 0.000000
-20.076900 0.000000
-20.034500 0.000000
-19.992100 0.000000
-19.949700 0.000000
-19.907400 0.000000
-19.865000 0.000000
-19.822600 0.000000
-19.780200 0.000000
-19.737800 0.000000
-19.695500 0.000000
-19.653100 0.000000
-19.610700 0.000000
-19.568300 0.000000
-19.526000 0.000000
-19.483600 0.000000
-19.441200 0.000000
-19.398800 0.000000
-19.356400 0.000000
-19.314100 0.000000
-19.271700 0.000000
-19.229300 0.000000
-19.186900 0.000000
-19.144600 0.000000
-19.102200 0.000000
-19.059800 0.000000
-19.017400 0.000000
-18.975000 0.000000
-18.932700 0.000000
-18.890300 0.000000
-18.847900 0.000000
-18.805500 0.000000
-18.763200 0.000000
-18.720800 0.000000
-18.678400 0.000000
-18.636000 0.000000
-18.593600 0.000000
-18.551300 0.000000
-18.508900 0.000000
-18.466500 0.000000
-18.424100 0.000000
-18.381800 0.000000
-18.339400 0.000000
-18.297000 0.000000
-18.254600 0.000000
-18.212200 0.000000
-18.169900 0.383400
-18.127500 0.600200
-18.085100 0.907300
-18.042700 1.176400
-18.000400 1.495600
-17.958000 2.022600
-17.915600 2.740800
-17.873200 4.480300
-17.830800 4.554000
-17.788500 4.423100
-17.746100 4.737000
-17.703700 5.381400
-17.661300 5.940800
-17.619000 7.120900
-17.576600 7.081300
-17.534200 4.557000
-17.491800 3.926800
-17.449400 3.315900
-17.407100 2.962500
-17.364700 2.794400
-17.322300 6.709400
-17.279900 8.234000
-17.237600 7.718400
-17.195200 7.907600
-17.152800 7.528400
-17.110400 7.907100
-17.068000 7.911800
-17.025700 7.313600
-16.983300 5.088900
-16.940900 4.353100
-16.898500 3.541000
-16.856200 4.687900
-16.813800 9.453500
-16.771400 6.565300
-16.729000 6.361500
-16.686600 6.792100
-16.644300 6.544900
-16.601900 6.503900
-16.559500 6.427000
-16.517100 6.603600
-16.474800 6.940000
-16.432400 7.894100
-16.390000 9.231300
-16.347600 9.699900
-16.305200 10.543900
-16.262900 17.785500
-16.220500 15.024000
-16.178100 0.833000
-16.135700 0.000000
-16.093300 0.000000
-16.051000 0.000000
-16.008600 0.000000
-15.966200 0.000000
-15.923800 0.000000
-15.881500 0.000000
-15.839100 0.000000
-15.796700 0.000000
-15.754300 0.000000
-15.711900 0.000000
-15.669600 0.000000
-15.627200 0.000000
-15.584800 0.000000
-15.542400 0.000000
-15.500100 0.000000
-15.457700 0.000000
-15.415300 0.000000
-15.372900 0.000000
-15.330500 0.000000
-15.288200 0.000000
-15.245800 0.000000
-15.203400 0.000000
-15.161000 0.000000
-15.118700 0.000000
-15.076300 0.000000
-15.033900 0.000000
-14.991500 0.000000
-14.949100 0.000000
-14.906800 0.000000
-14.864400 0.000000
-14.822000 0.000000
-14.779600 0.000000
-14.737300 0.000000
-14.694900 0.000000
-14.652500 0.000000
-14.610100 0.000000
-14.567700 0.000000
-14.525400 0.000000
-14.483000 0.000000
-14.440600 0.000000
-14.398200 0.000000
-14.355900 0.000000
-14.313500 0.000000
-14.271100 0.000000
-14.228700 0.000000
-14.186300 0.000000
-14.144000 0.000000
-14.101600 0.000000
-14.059200 0.000000
-14.016800 0.000000
-13.974500 0.000000
-13.932100 0.000000
-13.889700 0.000000
-13.847300 0.000000
-13.804900 0.000000
-13.762600 0.000000
-13.720200 0.000000
-13.677800 0.000000
-13.635400 0.000000
-13.593100 0.000000
-13.550700 0.000000
-13.508300 0.000000
-13.465900 0.000000
-13.423500 0.000000
-13.381200 0.000000
-13.338800 0.000000
-13.296400 0.000000
-13.254000 0.000000
-13.211700 0.000000
-13.169300 0.000000
-13.126900 0.000000
-13.084500 0.000000
-13.042100 0.000000
-12.999800 0.000000
-12.957400 0.000000
-12.915000 0.000000
-12.872600 0.000000
-12.830300 0.000000
-12.787900 0.000000
-12.745500 0.000000
-12.703100 0.000000
-12.660700 0.000000
-12.618400 0.000000
-12.576000 0.000000
-12.533600 0.000000
-12.491200 0.000000
-12.448900 0.000000
-12.406500 0.000000
-12.364100 0.000000
-12.321700 0.000000
-12.279300 0.000000
-12.237000 0.000000
-12.194600 0.000000
-12.152200 0.000000
-12.109800 0.000000
-12.067500 0.000000
-12.025100 0.000000
-11.982700 0.000000
-11.940300 0.000000
-11.897900 0.000000
-11.855600 0.000000
-11.813200 0.000000
-11.770800 0.000000
-11.728400 0.000000
-11.686000 0.000000
-11.643700 0.000000
-11.601300 0.000000
-11.558900 0.000000
-11.516500 0.000000
-11.474200 0.000000
-11.431800 0.000000
-11.389400 0.000000
-11.347000 0.000000
-11.304600 0.000000
-11.262300 0.000000
-11.219900 0.000000
-11.177500 0.000000
-11.135100 0.000000
-11.092800 0.000000
-11.050400 0.000000
-11.008000 0.000000
-10.965600 0.000000
-10.923200 0.000000
-10.880900 0.000000
-10.838500 0.000000
-10.796100 0.000000
-10.753700 0.000000
-10.711400 0.000000
-10.669000 0.000000
-10.626600 0.000000
-10.584200 0.000000
-10.541800 0.000000
-10.499500 0.000000
-10.457100 0.000000
-10.414700 0.000000
-10.372300 0.000000
-10.330000 0.000000
-10.287600 0.000000
-10.245200 0.000000
-10.202800 0.000000
-10.160400 0.000000
-10.118100 0.000000
-10.075700 0.000000
-10.033300 0.000000
-9.990900 0.000000
-9.948600 0.000000
-9.906200 0.000000
-9.863800 0.000000
-9.821400 0.000000
-9.779000 0.000000
-9.736700 0.000000
-9.694300 0.000000
-9.651900 0.000000
-9.609500 0.000000
-9.567200 0.000000
-9.524800 0.000000
-9.482400 0.000000
-9.440000 0.000000
-9.397600 0.000000
-9.355300 0.000000
-9.312900 0.000000
-9.270500 0.000000
-9.228100 0.000000
-9.185800 0.000000
-9.143400 0.000000
-9.101000 0.000000
-9.058600 0.000000
-9.016200 0.000000
-8.973900 0.000000
-8.931500 0.000000
-8.889100 0.000000
-8.846700 0.000000
-8.804400 0.000000
-8.762000 0.000000
-8.719600 0.000000
-8.677200 0.000000
-8.634800 0.000000
-8.592500 0.000000
-8.550100 0.000000
-8.507700 0.000000
-8.465300 0.000000
-8.423000 0.000000
-8.380600 0.000000
-8.338200 0.000000
-8.295800 0.000000
-8.253400 0.000000
-8.211100 0.000000
-8.168700 0.000000
-8.126300 0.000000
-8.083900 0.000000
-8.041600 0.000000
-7.999200 0.000000
-7.956800 0.000000
-7.914400 0.000000
-7.872000 0.000000
-7.829700 0.000000
-7.787300 0.000000
-7.744900 0.000000
-7.702500 0.000000
-7.660100 0.000000
-7.617800 0.000000
-7.575400 0.000000
-7.533000 0.000000
-7.490600 0.000000
-7.448300 0.000000
-7.405900 0.000000
-7.363500 0.000000
-7.321100 0.000000
-7.278700 0.000000
-7.236400 0.000000
-7.194000 0.000000
-7.151600 0.106600
-7.109200 2.346000
-7.066900 3.312600
-7.024500 8.544300
-6.982100 30.509600
-6.939700 6.332600
-6.897300 3.697200
-6.855000 3.564700
-6.812600 3.474700
-6.770200 3.993800
-6.727800 3.769400
-6.685500 3.672900
-6.643100 3.583800
-6.600700 3.495700
-6.558300 3.026000
-6.515900 2.814500
-6.473600 2.818600
-6.431200 2.746900
-6.388800 2.591100
-6.346400 2.464200
-6.304100 2.419600
-6.261700 2.407900
-6.219300 2.367300
-6.176900 2.331000
-6.134500 2.307700
-6.092200 2.291100
-6.049800 2.262400
-6.007400 2.251600
-5.965000 2.245100
-5.922700 2.209600
-5.880300 2.221500
-5.837900 2.236400
-5.795500 2.258100
-5.753100 2.292900
-5.710800 2.307500
-5.668400 2.268700
-5.626000 2.237300
-5.583600 2.269300
-5.541300 2.243500
-5.498900 2.166500
-5.456500 2.170000
-5.414100 2.337200
-5.371700 2.786800
-5.329400 2.591800
-5.287000 2.491000
-5.244600 3.390600
-5.202200 4.215200
-5.159900 4.659100
-5.117500 4.494500
-5.075100 4.377200
-5.032700 4.245500
-4.990300 4.220000
-4.948000 4.296900
-4.905600 4.438900
-4.863200 4.700600
-4.820800 5.094700
-4.778500 5.827100
-4.736100 6.674400
-4.693700 6.588700
-4.651300 6.004900
-4.608900 5.931700
-4.566600 5.758600
-4.524200 6.049800
-4.481800 5.167400
-4.439400 5.089500
-4.397100 5.128700
-4.354700 5.171000
-4.312300 5.298500
-4.269900 5.374400
-4.227500 5.462600
-4.185200 5.738700
-4.142800 6.196200
-4.100400 6.547600
-4.058000 6.534500
-4.015700 6.651300
-3.973300 6.495200
-3.930900 6.445000
-3.888500 6.322600
-3.846100 6.317100
-3.803800 6.314300
-3.761400 6.484500
-3.719000 6.672200
-3.676600 6.910700
-3.634300 7.374600
-3.591900 7.733700
-3.549500 8.448600
-3.507100 8.877700
-3.464700 10.225000
-3.422400 9.511900
-3.380000 8.108500
-3.337600 7.376400
-3.295200 7.015400
-3.252800 7.023100
-3.210500 6.695000
-3.168100 6.069300
-3.125700 5.541600
-3.083300 5.085000
-3.041000 4.875600
-2.998600 3.952600
-2.956200 3.857100
-2.913800 3.840100
-2.871400 3.896800
-2.829100 4.109900
-2.786700 4.129600
-2.744300 4.171200
-2.701900 4.243600
-2.659600 4.025800
-2.617200 3.770700
-2.574800 3.455200
-2.532400 3.063800
-2.490000 2.952900
-2.447700 2.744300
-2.405300 2.605600
-2.362900 2.541500
-2.320500 2.620900
-2.278200 2.771100
-2.235800 2.824300
-2.193400 2.997000
-2.151000 3.019400
-2.108600 2.795700
-2.066300 2.603200
-2.023900 2.568700
-1.981500 2.531800
-1.939100 2.601900
-1.896800 2.942700
-1.854400 4.260400
-1.812000 3.006400
-1.769600 2.560100
-1.727200 2.548400
-1.684900 2.269200
-1.642500 1.792300
-1.600100 2.277000
-1.557700 3.087300
-1.515400 3.921900
-1.473000 4.552600
-1.430600 5.420500
-1.388200 6.380700
-1.345800 6.841300
-1.303500 6.878000
-1.261100 7.267600
-1.218700 7.622100
-1.176300 6.991600
-1.134000 6.868700
-1.091600 6.829400
-1.049200 7.026600
-1.006800 7.370300
-0.964400 8.820400
-0.922100 10.431000
-0.879700 9.044200
-0.837300 9.781000
-0.794900 11.638300
-0.752600 11.115300
-0.710200 10.464200
-0.667800 7.696400
-0.625400 6.865800
-0.583000 5.986900
-0.540700 5.926300
-0.498300 6.021200
-0.455900 6.270000
-0.413500 6.512800
-0.371200 5.759100
-0.328800 4.871200
-0.286400 4.239300
-0.244000 4.158900
-0.201600 4.521000
-0.159300 5.039500
-0.116900 5.743800
-0.074500 5.353800
-0.032100 5.048400
0.010200 5.076900
0.052600 5.143100
0.095000 5.114100
0.137400 5.092500
0.179800 4.997100
0.222100 4.955400
0.264500 5.025800
0.306900 3.389700
0.349300 3.121200
0.391600 0.682300
0.434000 0.885600
0.476400 0.941800
0.518800 0.874700
0.561200 0.871100
0.603500 0.856700
0.645900 0.849800
0.688300 0.863200
0.730700 0.875800
0.773000 0.888000
0.815400 0.902500
0.857800 0.926100
0.900200 0.951600
0.942600 0.978800
0.984900 1.007000
1.027300 1.040100
1.069700 1.077100
1.112100 1.116100
1.154500 1.157100
1.196800 1.202400
1.239200 1.247700
1.281600 1.300400
1.324000 1.329300
1.366300 1.357300
1.408700 1.386800
1.451100 1.424800
1.493500 1.447700
1.535900 1.493500
1.578200 1.531800
1.620600 1.572700
1.663000 1.616400
1.705400 1.662700
1.747700 1.711200
1.790100 1.761700
1.832500 1.815000
1.874900 1.863900
1.917300 1.926000
1.959600 2.336500
2.002000 2.313800
2.044400 2.109300
2.086800 2.011500
2.129100 1.957700
2.171500 1.929600
2.213900 1.909000
2.256300 1.891200
2.298700 1.868400
2.341000 1.855500
2.383400 1.859000
2.425800 2.016700
2.468200 2.059500
2.510500 2.449300
2.552900 2.432900
2.595300 2.626000
2.637700 3.201700
2.680100 3.347400
2.722400 3.414700
2.764800 3.251500
2.807200 3.169700
2.849600 3.167000
2.891900 3.167800
2.934300 3.208700
2.976700 3.287400
3.019100 3.393000
3.061500 3.501700
3.103800 3.537700
3.146200 3.589300
3.188600 3.658900
3.231000 3.735800
3.273300 4.128700
3.315700 5.645700
3.358100 5.703100
3.400500 5.902600
3.442900 6.200100
3.485200 7.068700
3.527600 7.083600
3.570000 11.040400
3.612400 8.106000
3.654700 6.328700
3.697100 5.719300
3.739500 5.257300
3.781900 5.181000
3.824300 5.018100
3.866600 4.712800
3.909000 4.378600
3.951400 3.681600
3.993800 3.399500
4.036100 3.459500
4.078500 3.475100
4.120900 3.505700
4.163300 3.378800
4.205700 3.317300
4.248000 3.272100
4.290400 3.386100
4.332800 3.359800
4.375200 3.718000
4.417500 3.734300
4.459900 2.005000
4.502300 1.949300
4.544700 1.803000
4.587100 1.635700
4.629400 1.517200
4.671800 1.803400
4.714200 1.225800
4.756600 0.479900
4.798900 0.550400
4.841300 0.613300
4.883700 0.650300
4.926100 0.690900
4.968500 0.905900
5.010800 1.405000
5.053200 1.454900
5.095600 1.208900
5.138000 1.062700
5.180400 1.040300
5.222700 1.065500
5.265100 1.090700
5.307500 1.116400
5.349900 1.147000
5.392200 1.187700
5.434600 1.232700
5.477000 1.270800
5.519400 1.297500
5.561800 1.349600
5.604100 1.359700
5.646500 1.460900
5.688900 1.360400
5.731300 1.393900
5.773600 1.466300
5.816000 1.531600
5.858400 1.594600
5.900800 1.651800
5.943200 1.699800
5.985500 1.751700
6.027900 1.854600
6.070300 2.008900
6.112700 1.908300
6.155000 1.815200
6.197400 1.730000
6.239800 1.637000
6.282200 1.499800
6.324600 1.450700
6.366900 1.369100
6.409300 1.344000
6.451700 1.303300
6.494100 1.257200
6.536400 1.214200
6.578800 1.195300
6.621200 1.179900
6.663600 1.166000
6.706000 1.147800
6.748300 1.127000
6.790700 1.104100
6.833100 1.086000
6.875500 1.075800
6.917800 1.056100
6.960200 1.051600
7.002600 1.047600
7.045000 1.044900
7.087400 1.046600
7.129700 1.050500
7.172100 1.055700
7.214500 1.062000
7.256900 1.068300
7.299200 1.068000
7.341600 1.066100
7.384000 1.070500
7.426400 1.092900
7.468800 1.143600
7.511100 1.196000
7.553500 1.244200
7.595900 1.271200
7.638300 1.285300
7.680600 1.307500
7.723000 1.555300
7.765400 1.776600
7.807800 2.394000
7.850200 1.480500
7.892500 1.412500
7.934900 1.384600
7.977300 1.349600
8.019700 1.359100
8.062000 1.376400
8.104400 1.377900
8.146800 1.395800
8.189200 1.396000
8.231600 1.399600
8.273900 1.408000
8.316300 1.431300
8.358700 1.469200
8.401100 1.518600
8.443400 1.574100
8.485800 1.688100
8.528200 1.784400
8.570600 1.854800
8.613000 1.922600
8.655300 1.987500
8.697700 2.056900
8.740100 2.082500
8.782500 2.166300
8.824800 2.056800
8.867200 1.941500
8.909600 1.799000
8.952000 1.466200
8.994400 1.381200
9.036700 1.453100
9.079100 1.428700
9.121500 1.335200
9.163900 1.301700
9.206200 1.334600
9.248600 1.372400
9.291000 1.615300
9.333400 1.629900
9.375800 1.668600
9.418100 1.722000
9.460500 1.758700
9.502900 1.843600
9.545300 1.919800
9.587700 1.977400
9.630000 2.106100
9.672400 2.234300
9.714800 2.343800
9.757200 2.440300
9.799500 2.563800
9.841900 2.642500
9.884300 2.746800
9.926700 2.856800
9.969100 2.833500
10.011400 2.936100
10.053800 2.950600
10.096200 2.830400
10.138600 2.911000
10.180900 2.930800
10.223300 3.430600
10.265700 3.681200
10.308100 4.168000
10.350500 4.593300
10.392800 4.907100
10.435200 4.816500
10.477600 4.877300
10.520000 4.830100
10.562300 4.709600
10.604700 4.524200
10.647100 3.884700
10.689500 3.437000
10.731900 2.998500
10.774200 2.713800
10.816600 2.376800
10.859000 2.205200
10.901400 2.080000
10.943700 1.973600
10.986100 1.874300
11.028500 1.781900
11.070900 1.682300
11.113300 1.582600
11.155600 1.456700
11.198000 1.334400
11.240400 1.182400
11.282800 1.074500
11.325100 1.060400
11.367500 1.073900
11.409900 1.079600
11.452300 0.973700
11.494700 1.160100
11.537000 0.916600
11.579400 0.565000
11.621800 0.021500
11.664200 0.061000
11.706500 0.104100
11.748900 0.105100
11.791300 0.209300
11.833700 0.390600
11.876100 0.404500
11.918400 0.475200
11.960800 0.602300
12.003200 0.623000
12.045600 0.668100
12.087900 0.729300
12.130300 0.795400
12.172700 0.863600
12.215100 0.938200
12.257500 1.011200
12.299800 1.118600
12.342200 1.179900
12.384600 1.230800
12.427000 1.301700
12.469300 1.374500
12.511700 1.458500
12.554100 1.547100
12.596500 1.642600
12.638900 1.940900
12.681200 1.927200
12.723600 2.099700
12.766000 2.269200
12.808400 2.443000
12.850700 2.636500
12.893100 2.862100
12.935500 3.259200
12.977900 3.162600
13.020300 3.704700
13.062600 4.075900
13.105000 4.437500
13.147400 4.109600
13.189800 3.573600
13.232100 3.202300
13.274500 3.096400
13.316900 3.069300
13.359300 2.965900
13.401700 2.856100
13.444000 2.865800
13.486400 3.146200
13.528800 3.117500
13.571200 3.111800
13.613500 3.218000
13.655900 3.283700
13.698300 3.620900
13.740700 3.866100
13.783100 3.900600
13.825400 3.198900
13.867800 2.834800
13.910200 2.565300
13.952600 2.308100
13.995000 2.643700
14.037300 3.489500
14.079700 3.278100
14.122100 3.381400
14.164500 3.357200
14.206800 2.884800
14.249200 2.389700
14.291600 2.067000
14.334000 2.024300
14.376400 1.881200
14.418700 1.826300
14.461100 1.886600
14.503500 1.989700
14.545900 2.115900
14.588200 2.225100
14.630600 2.352700
14.673000 2.444600
14.715400 2.615000
14.757800 3.113500
14.800100 2.863600
14.842500 2.613500
14.884900 2.354300
14.927300 2.140000
14.969600 1.936300
15.012000 2.024200
15.054400 2.080900
15.096800 2.313900
15.139200 2.483300
15.181500 2.679600
15.223900 3.021000
15.266300 3.399100
15.308700 3.501600
15.351000 3.370700
15.393400 3.272400
15.435800 3.324700
15.478200 3.694300
15.520600 4.358600
15.562900 4.726600
15.605300 4.334400
15.647700 4.900000
15.690100 4.931500
15.732400 5.438300
15.774800 4.805500
15.817200 4.703600
15.859600 4.692800
15.902000 4.390800
15.944300 4.325200
15.986700 4.151700
16.029100 3.860300
16.071500 3.669900
16.113800 3.764900
16.156200 3.773000
16.198600 3.792400
16.241000 3.749000
16.283400 3.844600
16.325700 4.010800
16.368100 4.197600
16.410500 4.276600
16.452900 4.349800
16.495200 4.664800
16.537600 5.845600
16.580000 8.579600
16.622400 8.523000
16.664800 5.482300
16.707100 4.454400
16.749500 3.225300
16.791900 2.840700
16.834300 2.714100
16.876600 3.091900
16.919000 3.817200
16.961400 4.327900
17.003800 4.197500
17.046200 4.160500
17.088500 4.212300
17.130900 4.355700
17.173300 4.757000
17.215700 6.511000
17.258000 6.160900
17.300400 4.983900
17.342800 4.395800
17.385200 4.028100
17.427600 3.851400
17.469900 3.000400
17.512300 3.080700
17.554700 4.182400
17.597100 4.210500
17.639400 3.752300
17.681800 3.899900
17.724200 4.626200
17.766600 4.252200
17.809000 4.587200
17.851300 4.114700
17.893700 3.923800
17.936100 3.981000
17.978500 4.234800
18.020800 4.614500
18.063200 4.974000
18.105600 5.808300
18.148000 5.913300
18.190400 6.067000
18.232700 5.912900
18.275100 6.184100
18.317500 6.560200
18.359900 5.954400
18.402300 5.879200
18.444600 5.977400
18.487000 6.436100
18.529400 6.967900
18.571800 8.141300
18.614100 7.237300
18.656500 6.518500
18.698900 6.071500
18.741300 6.374500
18.783700 6.210500
18.826000 5.553500
18.868400 4.590100
18.910800 4.459300
18.953200 4.217500
18.995500 4.238300
19.037900 4.097900
19.080300 3.707700
19.122700 3.374300
19.165100 2.738000
19.207400 2.405800
19.249800 2.163400
19.292200 2.020900
19.334600 1.851400
19.376900 1.718400
19.419300 1.554500
19.461700 1.393400
19.504100 1.253800
19.546500 1.150200
19.588800 1.106800
19.631200 1.078700
19.673600 1.057000
19.716000 1.034300
19.758300 1.006000
19.800700 0.978000
19.843100 1.177900
19.885500 1.227800
19.927900 0.833300
19.970200 0.774600
20.012600 0.784600
20.055000 0.820100
20.097400 0.937100
20.139700 1.106800
20.182100 1.355700
20.224500 1.778100
20.266900 2.165300
20.309300 2.471000
20.351600 2.177500
20.394000 1.989300
20.436400 1.953800
20.478800 1.920000
20.521100 1.972100
20.563500 2.085400
20.605900 2.218900
20.648300 2.357600
20.690700 2.487200
20.733000 2.624900
20.775400 2.791500
20.817800 2.898400
20.860200 2.973000
20.902500 2.880700
20.944900 2.859900
20.987300 2.852500
21.029700 2.932800
21.072100 3.296600
21.114400 3.121300
21.156800 3.285200
21.199200 3.112900
21.241600 3.060100
21.283900 3.039300
21.326300 3.150900
21.368700 3.110200
21.411100 3.073900
21.453500 3.064500
21.495800 2.767200
21.538200 2.653200
21.580600 2.624600
21.623000 2.401400
21.665300 2.284900
21.707700 2.267100
21.750100 2.323300
21.792500 2.454100
21.834900 2.673500
21.877200 3.043900
21.919600 3.244200
21.962000 3.445900
22.004400 3.637600
22.046700 3.889600
22.089100 5.288400
22.131500 4.147500
22.173900 4.228900
22.216300 3.890100
22.258600 3.774900
22.301000 3.647800
22.343400 3.516800
22.385800 3.549600
22.428200 3.734200
22.470500 3.521900
22.512900 4.155200
22.555300 2.967100
22.597700 3.081900
22.640000 3.376600
22.682400 3.372400
22.724800 3.432200
22.767200 2.816200
22.809600 2.729700
22.851900 3.018500
22.894300 3.646100
22.936700 3.960900
22.979100 3.994300
23.021400 4.232600
23.063800 4.340100
23.106200 3.929300
23.148600 3.776000
23.191000 3.667700
23.233300 3.574500
23.275700 3.374800
23.318100 3.205500
23.360500 3.066000
23.402800 3.105700
23.445200 3.345100
23.487600 3.162800
23.530000 2.873700
23.572400 2.963900
23.614700 2.835300
23.657100 2.608700
23.699500 2.529600
23.741900 2.666000
23.784200 2.693900
23.826600 2.637600
23.869000 2.562900
23.911400 2.596700
23.953800 2.746800
23.996100 3.477800
24.038500 4.898600
24.080900 5.934800
24.123300 5.234300
24.165600 4.311200
24.208000 4.193600
24.250400 4.528300
24.292800 4.926000
24.335200 3.956000
24.377500 3.535200
24.419900 3.433100
24.462300 3.312000
24.504700 3.324700
24.547000 3.237100
24.589400 3.508300
24.631800 4.223300
24.674200 4.471400
24.716600 4.784200
24.758900 5.200300
24.801300 5.362700
24.843700 5.535200
24.886100 5.398900
24.928400 5.337700
24.970800 5.963900
25.013200 5.119400
25.055600 4.717800
25.098000 4.505000
25.140300 4.366500
25.182700 4.369400
25.225100 4.356300
25.267500 4.253600
25.309800 4.273200
25.352200 4.471800
25.394600 4.179200
25.437000 4.240900
25.479400 4.225300
25.521700 4.156700
25.564100 4.081400
25.606500 3.739200
25.648900 3.533300
25.691200 3.653700
25.733600 3.521700
25.776000 3.287400
25.818400 3.164000
25.860800 2.933200
25.903100 2.949900
25.945500 2.938200
25.987900 2.969500
26.030300 2.931500
26.072600 2.955800
26.115000 3.007000
26.157400 3.057700
26.199800 3.107000
26.242200 3.186700
26.284500 3.244900
26.326900 3.313800
26.369300 3.519400
26.411700 4.033800
26.454000 4.055600
26.496400 4.386100
26.538800 5.087900
26.581200 5.725500
26.623600 6.102600
26.665900 6.609900
26.708300 7.008700
26.750700 6.849000
26.793100 6.781800
26.835500 6.627800
26.877800 6.225000
26.920200 6.214700
26.962600 6.368200
27.005000 6.865700
27.047300 7.196700
27.089700 7.689200
27.132100 8.139700
27.174500 7.825200
27.216900 7.345500
27.259200 7.524200
27.301600 7.205700
27.344000 6.950800
27.386400 7.069700
27.428700 7.418900
27.471100 7.563600
27.513500 6.565400
27.555900 5.956100
27.598300 5.922700
27.640600 6.280700
27.683000 5.155700
27.725400 4.681500
27.767800 6.554800
27.810100 5.494100
27.852500 5.143100
27.894900 4.872500
27.937300 4.522300
27.979700 4.600500
28.022000 4.464800
28.064400 4.322700
28.106800 4.009800
28.149200 3.718200
28.191500 3.934500
28.233900 4.254300
28.276300 5.030600
28.318700 5.222900
28.361100 4.760400
28.403400 4.445700
28.445800 4.331200
28.488200 4.491900
28.530600 4.828900
28.572900 4.719100
28.615300 4.283900
28.657700 4.020900
28.700100 3.977200
28.742500 3.720100
28.784800 3.685500
28.827200 3.601600
28.869600 3.369900
28.912000 3.201200
28.954300 3.013200
28.996700 2.988100
29.039100 3.045200
29.081500 3.172100
29.123900 3.354800
29.166200 3.916700
29.208600 3.496100
29.251000 3.627700
29.293400 3.598100
29.335700 3.429200
29.378100 3.369400
29.420500 3.372300
29.462900 3.553500
29.505300 3.299600
29.547600 2.979800
29.590000 3.019500
29.632400 3.186900
29.674800 3.368300
29.717100 3.621900
29.759500 3.735900
29.801900 3.647300
29.844300 3.599100
29.886700 3.476300
29.929000 3.387100
29.971400 3.252900
30.013800 3.160100
30.056200 3.101600
30.098500 3.332700
30.140900 3.423600
30.183300 3.461100
30.225700 3.218400
30.268100 2.874900
30.310400 2.736900
30.352800 2.728400
30.395200 2.815000
30.437600 2.829400
30.479900 2.745200
30.522300 2.648600
30.564700 2.560900
30.607100 2.562800
30.649500 2.524000
30.691800 2.663700
30.734200 2.843100
30.776600 2.994300
30.819000 3.049600
30.861300 2.988200
30.903700 2.813000
30.946100 2.601900
30.988500 2.354500
31.030900 2.386400
31.073200 2.450200
31.115600 2.477300
31.158000 2.500700
31.200400 2.455900
31.242800 2.469300
31.285100 2.498000
31.327500 2.523700
31.369900 2.692600
31.412300 3.099900
31.454600 2.896000
31.497000 2.860900
31.539400 2.720400
31.581800 2.683900
31.624200 2.669700
31.666500 2.619800
31.708900 2.464000
31.751300 2.508100
31.793700 2.551800
31.836000 2.625700
31.878400 2.858100
31.920800 2.822600
31.963200 2.821200
32.005600 2.804800
32.047900 2.759200
32.090300 2.745900
32.132700 2.715500
32.175100 2.692000
32.217400 2.633800
32.259800 2.628700
32.302200 2.720300
32.344600 2.878000
32.387000 2.996000
32.429300 2.903300
32.471700 2.810500
32.514100 2.634800
32.556500 2.546900
32.598800 3.075200
32.641200 2.246500
32.683600 2.217800
32.726000 2.151800
32.768400 2.121000
32.810700 1.891700
32.853100 1.926700
32.895500 1.988500
32.937900 2.061300
32.980200 2.120600
33.022600 2.187400
33.065000 2.290400
33.107400 2.369900
33.149800 1.958900
33.192100 1.835100
33.234500 1.662800
33.276900 1.446200
33.319300 1.217000
33.361600 1.084100
33.404000 0.981500
33.446400 0.903400
33.488800 0.833700
33.531200 0.765500
33.573500 0.688600
33.615900 0.619900
33.658300 0.563800
33.700700 0.512300
33.743000 0.445900
33.785400 0.363200
33.827800 0.302400
33.870200 0.265500
33.912600 0.103500
33.954900 0.092600
33.997300 0.082500
34.039700 0.073000
34.082100 0.064200
34.124400 0.056300
34.166800 0.051800
34.209200 0.048400
34.251600 0.045800
34.294000 0.052100
34.336300 0.047000
34.378700 0.041900
34.421100 0.037200
34.463500 0.032900
34.505800 0.029000
34.548200 0.025500
34.590600 0.022300
34.633000 0.014900
34.675400 0.000100
34.717700 0.000000
34.760100 0.000000
34.802500 0.000000
34.844900 0.000000
34.887200 0.000000
34.929600 0.000000
34.972000 0.000000
35.014400 0.000000
35.056800 0.000000
35.099100 0.000000
35.141500 0.000000
35.183900 0.000000
35.226300 0.000000
35.268600 0.000000
35.311000 0.000000
35.353400 0.000000
35.395800 0.000000
35.438200 0.000000
35.480500 0.000000
35.522900 0.000000
35.565300 0.000000
35.607700 0.000000
35.650100 0.000000
35.692400 0.000000
35.734800 0.000000
35.777200 0.000000
35.819600 0.000000
35.861900 0.000000
35.904300 0.000000
35.946700 0.000000
35.989100 0.000000
36.031500 0.000000
36.073800 0.000000
36.116200 0.000000
36.158600 0.000000
36.201000 0.000000
36.243300 0.000000
36.285700 0.000000
36.328100 0.000000
36.370500 0.000000
36.412900 0.000000
36.455200 0.000000
36.497600 0.000000
36.540000 0.000000
36.582400 0.000000
36.624700 0.000000
36.667100 0.000000
36.709500 0.000000
36.751900 0.000000
36.794300 0.000000
36.836600 0.000000
36.879000 0.000000
36.921400 0.000000
36.963800 0.000000
37.006100 0.000000
37.048500 0.000000
37.090900 0.000000
37.133300 0.000000
37.175700 0.000000
37.218000 0.000000
37.260400 0.000000
37.302800 0.000000
37.345200 0.000000
37.387500 0.000000
37.429900 0.000000
37.472300 0.000000
37.514700 0.000000
37.557100 0.000000
37.599400 0.000000
37.641800 0.000000
37.684200 0.000000
37.726600 0.000000
37.768900 0.000000
37.811300 0.000000
37.853700 0.000000
37.896100 0.000000
37.938500 0.000000
37.980800 0.000000
38.023200 0.000000
38.065600 0.000000
38.108000 0.000000
38.150300 0.000000
38.192700 0.000000
38.235100 0.000000
38.277500 0.000000
38.319900 0.000000
38.362200 0.000000
38.404600 0.000000
38.447000 0.000000
38.489400 0.000000
38.531700 0.000000
e
