set title 'mp-1221469 - Density of States'
set xlabel 'Energy (eV)'
set ylabel 'DOS (states/eV)'
set grid
set xrange [-10:10]
set yrange [0:10.145]
set xzeroaxis lt -1
set terminal png size 800,600
set output 'mp-1221469_dos_gnuplot.png'
plot '-' using 1:2 with lines title 'DOS'
-30.237400 0.000000
-30.204800 0.000000
-30.172200 0.000000
-30.139600 0.000000
-30.107000 0.000000
-30.074400 0.000000
-30.041800 0.000000
-30.009200 0.000000
-29.976600 0.000000
-29.944000 0.000000
-29.911400 0.000000
-29.878800 0.000000
-29.846200 0.000000
-29.813600 0.000000
-29.781000 0.000000
-29.748400 0.000000
-29.715800 0.000000
-29.683200 0.000000
-29.650600 0.000000
-29.618000 0.000000
-29.585400 0.000000
-29.552800 0.000000
-29.520200 0.000000
-29.487600 0.000000
-29.455000 0.000000
-29.422400 0.000000
-29.389800 0.000000
-29.357200 0.000000
-29.324600 0.000000
-29.292000 0.000000
-29.259400 0.000000
-29.226800 0.000000
-29.194200 0.000000
-29.161600 0.000000
-29.129000 0.000000
-29.096400 0.000000
-29.063800 0.000000
-29.031200 0.000000
-28.998600 0.000000
-28.966000 0.000000
-28.933400 0.000000
-28.900800 0.000000
-28.868200 0.000000
-28.835600 0.000000
-28.803000 0.000000
-28.770400 0.000000
-28.737800 0.000000
-28.705200 0.000000
-28.672600 0.000000
-28.640000 0.000000
-28.607400 0.000000
-28.574800 0.000000
-28.542200 0.000000
-28.509600 0.000000
-28.477100 0.000000
-28.444500 0.000000
-28.411900 0.000000
-28.379300 0.000000
-28.346700 0.000000
-28.314100 0.000000
-28.281500 0.000000
-28.248900 0.000000
-28.216300 0.000000
-28.183700 0.000000
-28.151100 0.000000
-28.118500 0.000000
-28.085900 0.000000
-28.053300 0.000000
-28.020700 0.000000
-27.988100 0.000000
-27.955500 0.000000
-27.922900 0.000000
-27.890300 0.000000
-27.857700 0.000000
-27.825100 0.000000
-27.792500 0.000000
-27.759900 0.000000
-27.727300 0.000000
-27.694700 0.000000
-27.662100 0.000000
-27.629500 0.000000
-27.596900 0.000000
-27.564300 0.000000
-27.531700 0.000000
-27.499100 0.000000
-27.466500 0.000000
-27.433900 0.000000
-27.401300 0.000000
-27.368700 0.000000
-27.336100 0.000000
-27.303500 0.000000
-27.270900 8.078100
-27.238300 5.629900
-27.205700 6.999000
-27.173100 8.025800
-27.140500 8.566400
-27.107900 15.138600
-27.075300 22.865500
-27.042700 17.127200
-27.010100 15.513700
-26.977500 17.807600
-26.944900 21.229800
-26.912300 22.848200
-26.879700 11.301100
-26.847100 13.122300
-26.814500 11.619600
-26.781900 7.029000
-26.749300 6.780700
-26.716700 13.806700
-26.684100 21.550200
-26.651500 16.291800
-26.618900 21.722700
-26.586300 20.717400
-26.553700 19.961700
-26.521100 11.803800
-26.488500 14.671400
-26.455900 17.852200
-26.423300 22.948200
-26.390700 33.187800
-26.358100 32.294200
-26.325500 18.072700
-26.292900 29.982900
-26.260300 21.550100
-26.227700 28.786200
-26.195200 35.695700
-26.162600 31.361300
-26.130000 25.483500
-26.097400 12.683500
-26.064800 10.269700
-26.032200 8.776900
-25.999600 8.650600
-25.967000 7.122200
-25.934400 5.141500
-25.901800 2.978300
-25.869200 0.000000
-25.836600 0.000000
-25.804000 0.000000
-25.771400 0.000000
-25.738800 0.000000
-25.706200 0.000000
-25.673600 0.000000
-25.641000 0.000000
-25.608400 0.000000
-25.575800 0.000000
-25.543200 0.000000
-25.510600 0.000000
-25.478000 0.000000
-25.445400 0.000000
-25.412800 0.000000
-25.380200 0.000000
-25.347600 0.000000
-25.315000 0.000000
-25.282400 0.000000
-25.249800 0.000000
-25.217200 0.000000
-25.184600 0.000000
-25.152000 0.000000
-25.119400 0.000000
-25.086800 0.000000
-25.054200 0.000000
-25.021600 0.000000
-24.989000 0.000000
-24.956400 0.000000
-24.923800 0.000000
-24.891200 0.000000
-24.858600 0.000000
-24.826000 0.000000
-24.793400 0.000000
-24.760800 0.000000
-24.728200 0.000000
-24.695600 0.000000
-24.663000 0.000000
-24.630400 0.000000
-24.597800 0.000000
-24.565200 0.000000
-24.532600 0.000000
-24.500000 0.000000
-24.467400 0.000000
-24.434800 0.000000
-24.402200 0.000000
-24.369600 0.000000
-24.337000 0.000000
-24.304400 0.000000
-24.271800 0.000000
-24.239200 0.000000
-24.206600 0.000000
-24.174000 0.000000
-24.141400 0.000000
-24.108800 0.000000
-24.076200 0.000000
-24.043600 0.000000
-24.011000 0.000000
-23.978400 0.000000
-23.945900 0.000000
-23.913300 0.000000
-23.880700 0.000000
-23.848100 0.000000
-23.815500 0.000000
-23.782900 0.000000
-23.750300 0.000000
-23.717700 0.000000
-23.685100 0.000000
-23.652500 0.000000
-23.619900 0.000000
-23.587300 0.000000
-23.554700 0.000000
-23.522100 0.000000
-23.489500 0.000000
-23.456900 0.000000
-23.424300 0.000000
-23.391700 0.000000
-23.359100 0.000000
-23.326500 0.000000
-23.293900 0.000000
-23.261300 0.000000
-23.228700 0.000000
-23.196100 0.000000
-23.163500 0.000000
-23.130900 0.000000
-23.098300 0.000000
-23.065700 0.000000
-23.033100 0.000000
-23.000500 0.000000
-22.967900 0.000000
-22.935300 0.000000
-22.902700 0.000000
-22.870100 0.000000
-22.837500 0.000000
-22.804900 0.000000
-22.772300 0.000000
-22.739700 0.000000
-22.707100 0.000000
-22.674500 0.000000
-22.641900 0.000000
-22.609300 0.000000
-22.576700 0.000000
-22.544100 0.000000
-22.511500 0.000000
-22.478900 0.000000
-22.446300 0.000000
-22.413700 0.000000
-22.381100 0.000000
-22.348500 0.000000
-22.315900 0.000000
-22.283300 0.000000
-22.250700 0.000000
-22.218100 0.000000
-22.185500 0.000000
-22.152900 0.000000
-22.120300 0.000000
-22.087700 0.000000
-22.055100 0.000000
-22.022500 0.000000
-21.989900 0.000000
-21.957300 0.000000
-21.924700 0.000000
-21.892100 0.000000
-21.859500 0.000000
-21.826900 0.000000
-21.794300 0.000000
-21.761700 0.000000
-21.729100 0.000000
-21.696600 0.000000
-21.664000 0.000000
-21.631400 0.000000
-21.598800 0.000000
-21.566200 0.000000
-21.533600 0.000000
-21.501000 0.000000
-21.468400 0.000000
-21.435800 0.000000
-21.403200 0.000000
-21.370600 0.000000
-21.338000 0.000000
-21.305400 0.000000
-21.272800 0.000000
-21.240200 0.000000
-21.207600 0.000000
-21.175000 0.000000
-21.142400 0.000000
-21.109800 0.000000
-21.077200 0.000000
-21.044600 0.000000
-21.012000 0.000000
-20.979400 0.000000
-20.946800 0.000000
-20.914200 0.000000
-20.881600 0.000000
-20.849000 0.000000
-20.816400 0.000000
-20.783800 0.000000
-20.751200 0.000000
-20.718600 0.000000
-20.686000 0.000000
-20.653400 0.000000
-20.620800 0.000000
-20.588200 0.000000
-20.555600 0.000000
-20.523000 0.000000
-20.490400 0.000000
-20.457800 0.000000
-20.425200 0.000000
-20.392600 0.000000
-20.360000 0.000000
-20.327400 0.000000
-20.294800 0.000000
-20.262200 0.000000
-20.229600 0.000000
-20.197000 0.000000
-20.164400 0.000000
-20.131800 0.000000
-20.099200 0.000000
-20.066600 0.000000
-20.034000 0.000000
-20.001400 0.000000
-19.968800 0.000000
-19.936200 0.000000
-19.903600 0.000000
-19.871000 0.000000
-19.838400 0.000000
-19.805800 0.000000
-19.773200 0.000000
-19.740600 0.000000
-19.708000 0.000000
-19.675400 0.000000
-19.642800 0.000000
-19.610200 0.000000
-19.577600 0.000000
-19.545000 0.000000
-19.512400 0.000000
-19.479800 0.000000
-19.447200 0.000000
-19.414700 0.000000
-19.382100 0.000000
-19.349500 0.000000
-19.316900 0.000000
-19.284300 0.000000
-19.251700 0.000000
-19.219100 0.000000
-19.186500 0.000000
-19.153900 0.000000
-19.121300 0.000000
-19.088700 0.000000
-19.056100 0.000000
-19.023500 0.000000
-18.990900 0.000000
-18.958300 0.000000
-18.925700 0.000000
-18.893100 0.000000
-18.860500 0.000000
-18.827900 0.000000
-18.795300 0.000000
-18.762700 0.000000
-18.730100 0.000000
-18.697500 0.000000
-18.664900 0.000000
-18.632300 0.000000
-18.599700 0.000000
-18.567100 0.000000
-18.534500 0.000000
-18.501900 0.000000
-18.469300 0.000000
-18.436700 0.000000
-18.404100 0.000000
-18.371500 0.000000
-18.338900 0.000000
-18.306300 0.000000
-18.273700 0.000000
-18.241100 0.000000
-18.208500 0.000000
-18.175900 0.000000
-18.143300 0.000000
-18.110700 0.000000
-18.078100 0.000000
-18.045500 0.000000
-18.012900 0.000000
-17.980300 0.000000
-17.947700 0.000000
-17.915100 0.000000
-17.882500 0.000000
-17.849900 0.000000
-17.817300 0.000000
-17.784700 0.000000
-17.752100 0.000000
-17.719500 0.000000
-17.686900 0.000000
-17.654300 0.000000
-17.621700 0.000000
-17.589100 0.000000
-17.556500 0.000000
-17.523900 0.000000
-17.491300 0.000000
-17.458700 0.000000
-17.426100 0.000000
-17.393500 0.000000
-17.360900 0.000000
-17.328300 0.000000
-17.295700 0.000000
-17.263100 0.000000
-17.230500 0.000000
-17.197900 0.000000
-17.165400 0.000000
-17.132800 0.000000
-17.100200 0.000000
-17.067600 0.000000
-17.035000 0.000000
-17.002400 0.000000
-16.969800 0.000000
-16.937200 0.000000
-16.904600 0.000000
-16.872000 0.000000
-16.839400 0.000000
-16.806800 0.000000
-16.774200 0.000000
-16.741600 0.000000
-16.709000 0.000000
-16.676400 0.000000
-16.643800 0.000000
-16.611200 0.000000
-16.578600 0.000000
-16.546000 0.000000
-16.513400 0.000000
-16.480800 0.000000
-16.448200 0.000000
-16.415600 0.000000
-16.383000 0.000000
-16.350400 0.000000
-16.317800 0.000000
-16.285200 0.000000
-16.252600 0.000000
-16.220000 0.000000
-16.187400 0.000000
-16.154800 0.000000
-16.122200 0.000000
-16.089600 0.000000
-16.057000 0.000000
-16.024400 0.000000
-15.991800 0.000000
-15.959200 0.000000
-15.926600 0.000000
-15.894000 0.000000
-15.861400 0.000000
-15.828800 0.000000
-15.796200 0.000000
-15.763600 0.000000
-15.731000 0.000000
-15.698400 0.000000
-15.665800 0.000000
-15.633200 0.000000
-15.600600 0.000000
-15.568000 0.000000
-15.535400 0.000000
-15.502800 0.000000
-15.470200 0.000000
-15.437600 0.000000
-15.405000 0.000000
-15.372400 0.000000
-15.339800 0.000000
-15.307200 0.000000
-15.274600 0.000000
-15.242000 0.000000
-15.209400 0.000000
-15.176800 0.000000
-15.144200 0.000000
-15.111600 0.000000
-15.079000 0.000000
-15.046400 0.000000
-15.013800 0.000000
-14.981200 0.000000
-14.948600 0.000000
-14.916000 0.000000
-14.883500 0.000000
-14.850900 0.000000
-14.818300 0.000000
-14.785700 0.000000
-14.753100 0.000000
-14.720500 0.000000
-14.687900 0.000000
-14.655300 0.000000
-14.622700 0.000000
-14.590100 0.000000
-14.557500 0.000000
-14.524900 0.000000
-14.492300 0.000000
-14.459700 0.000000
-14.427100 0.000000
-14.394500 0.000000
-14.361900 0.000000
-14.329300 0.000000
-14.296700 0.000000
-14.264100 0.000000
-14.231500 0.000000
-14.198900 0.000000
-14.166300 0.000000
-14.133700 0.000000
-14.101100 0.000000
-14.068500 0.000000
-14.035900 0.000000
-14.003300 0.000000
-13.970700 0.000000
-13.938100 0.000000
-13.905500 0.000000
-13.872900 0.000000
-13.840300 0.000000
-13.807700 0.000000
-13.775100 0.000000
-13.742500 0.000000
-13.709900 0.000000
-13.677300 0.000000
-13.644700 0.000000
-13.612100 0.000000
-13.579500 0.000000
-13.546900 0.000000
-13.514300 0.000000
-13.481700 0.000000
-13.449100 0.000000
-13.416500 0.000000
-13.383900 0.000000
-13.351300 0.000000
-13.318700 0.000000
-13.286100 0.000000
-13.253500 0.000000
-13.220900 0.000000
-13.188300 0.000000
-13.155700 0.000000
-13.123100 0.000000
-13.090500 0.000000
-13.057900 0.000000
-13.025300 0.000000
-12.992700 0.000000
-12.960100 0.000000
-12.927500 0.000000
-12.894900 0.000000
-12.862300 0.000000
-12.829700 0.000000
-12.797100 0.000000
-12.764500 0.000000
-12.731900 0.000000
-12.699300 0.000000
-12.666700 0.000000
-12.634200 0.000000
-12.601600 0.000000
-12.569000 0.000000
-12.536400 0.000000
-12.503800 0.000000
-12.471200 0.000000
-12.438600 0.000000
-12.406000 0.000000
-12.373400 0.000000
-12.340800 0.000000
-12.308200 0.000000
-12.275600 0.000000
-12.243000 0.000000
-12.210400 0.000000
-12.177800 0.000000
-12.145200 0.000000
-12.112600 0.000000
-12.080000 0.000000
-12.047400 0.000000
-12.014800 0.000000
-11.982200 0.000000
-11.949600 0.000000
-11.917000 0.000000
-11.884400 0.000000
-11.851800 0.000000
-11.819200 0.000000
-11.786600 0.000000
-11.754000 0.000000
-11.721400 0.000000
-11.688800 0.000000
-11.656200 0.000000
-11.623600 0.000000
-11.591000 0.000000
-11.558400 0.000000
-11.525800 0.000000
-11.493200 0.000000
-11.460600 0.000000
-11.428000 0.000000
-11.395400 0.000000
-11.362800 0.000000
-11.330200 0.000000
-11.297600 0.000000
-11.265000 0.000000
-11.232400 0.000000
-11.199800 0.000000
-11.167200 0.000000
-11.134600 0.000000
-11.102000 0.000000
-11.069400 0.000000
-11.036800 0.000000
-11.004200 0.000000
-10.971600 0.000000
-10.939000 0.000000
-10.906400 0.000000
-10.873800 0.000000
-10.841200 0.000000
-10.808600 0.000000
-10.776000 0.000000
-10.743400 0.000000
-10.710800 0.000000
-10.678200 0.000000
-10.645600 0.000000
-10.613000 0.000000
-10.580400 0.000000
-10.547800 0.000000
-10.515200 0.000000
-10.482600 0.000000
-10.450000 0.000000
-10.417400 0.000000
-10.384900 0.000000
-10.352300 0.000000
-10.319700 0.000000
-10.287100 0.000000
-10.254500 0.000000
-10.221900 0.000000
-10.189300 0.000000
-10.156700 0.000000
-10.124100 0.000000
-10.091500 0.000000
-10.058900 0.000000
-10.026300 0.000000
-9.993700 0.000000
-9.961100 0.000000
-9.928500 0.000000
-9.895900 0.000000
-9.863300 0.000000
-9.830700 0.000000
-9.798100 0.000000
-9.765500 0.000000
-9.732900 0.000000
-9.700300 0.000000
-9.667700 0.000000
-9.635100 0.000000
-9.602500 0.000000
-9.569900 0.000000
-9.537300 0.000000
-9.504700 0.000000
-9.472100 0.000000
-9.439500 0.000000
-9.406900 0.000000
-9.374300 0.000000
-9.341700 0.000000
-9.309100 0.000000
-9.276500 0.000000
-9.243900 0.000000
-9.211300 0.000000
-9.178700 0.000000
-9.146100 0.000000
-9.113500 0.000000
-9.080900 0.000000
-9.048300 0.000000
-9.015700 0.000000
-8.983100 0.000000
-8.950500 0.000000
-8.917900 0.000000
-8.885300 0.000000
-8.852700 0.000000
-8.820100 0.000000
-8.787500 0.000000
-8.754900 0.000000
-8.722300 0.000000
-8.689700 0.000000
-8.657100 0.000000
-8.624500 0.000000
-8.591900 0.000000
-8.559300 0.000000
-8.526700 0.000000
-8.494100 0.000000
-8.461500 0.000000
-8.428900 0.000000
-8.396300 0.000000
-8.363700 0.000000
-8.331100 0.000000
-8.298500 0.000000
-8.265900 0.000000
-8.233300 0.000000
-8.200700 0.000000
-8.168100 0.000000
-8.135500 0.000000
-8.103000 0.000000
-8.070400 0.000000
-8.037800 0.000000
-8.005200 0.000000
-7.972600 0.000000
-7.940000 0.000000
-7.907400 0.000000
-7.874800 0.000000
-7.842200 0.000000
-7.809600 0.000000
-7.777000 0.000000
-7.744400 0.000000
-7.711800 0.000000
-7.679200 0.000000
-7.646600 0.000000
-7.614000 0.000000
-7.581400 0.000000
-7.548800 0.000000
-7.516200 0.000000
-7.483600 0.000000
-7.451000 0.000000
-7.418400 0.000000
-7.385800 0.000000
-7.353200 0.000000
-7.320600 0.000000
-7.288000 0.000000
-7.255400 0.000000
-7.222800 0.000000
-7.190200 0.000000
-7.157600 0.000000
-7.125000 0.000000
-7.092400 0.000000
-7.059800 0.000000
-7.027200 0.000000
-6.994600 0.000000
-6.962000 0.000000
-6.929400 0.000000
-6.896800 0.000000
-6.864200 0.000000
-6.831600 0.000000
-6.799000 0.000000
-6.766400 0.000000
-6.733800 0.000000
-6.701200 0.000000
-6.668600 0.000000
-6.636000 0.000000
-6.603400 0.000000
-6.570800 0.000000
-6.538200 0.000000
-6.505600 0.000000
-6.473000 0.000000
-6.440400 0.000000
-6.407800 0.000000
-6.375200 0.000000
-6.342600 0.000000
-6.310000 0.000000
-6.277400 0.000000
-6.244800 0.000000
-6.212200 0.000000
-6.179600 0.000000
-6.147000 0.000000
-6.114400 0.000000
-6.081800 0.000000
-6.049200 0.000000
-6.016600 0.000000
-5.984000 0.000000
-5.951400 0.000000
-5.918800 0.000000
-5.886200 0.000000
-5.853700 0.000000
-5.821100 0.000000
-5.788500 0.000000
-5.755900 0.000000
-5.723300 0.000000
-5.690700 0.000000
-5.658100 0.000000
-5.625500 0.000000
-5.592900 0.000000
-5.560300 0.000000
-5.527700 0.000000
-5.495100 0.000000
-5.462500 0.000000
-5.429900 0.000000
-5.397300 0.000000
-5.364700 0.000000
-5.332100 0.000000
-5.299500 0.000000
-5.266900 0.000000
-5.234300 0.000000
-5.201700 0.000000
-5.169100 0.000000
-5.136500 0.000000
-5.103900 0.000000
-5.071300 0.000000
-5.038700 0.000000
-5.006100 0.000000
-4.973500 0.000000
-4.940900 0.000000
-4.908300 0.000000
-4.875700 0.000000
-4.843100 0.000000
-4.810500 0.000000
-4.777900 0.000000
-4.745300 0.000000
-4.712700 0.000000
-4.680100 0.000000
-4.647500 0.000000
-4.614900 0.000000
-4.582300 0.000000
-4.549700 0.000000
-4.517100 0.000000
-4.484500 0.000000
-4.451900 0.000000
-4.419300 0.000000
-4.386700 0.000000
-4.354100 0.000000
-4.321500 0.000000
-4.288900 0.000000
-4.256300 0.000000
-4.223700 0.000000
-4.191100 0.000000
-4.158500 0.000000
-4.125900 0.000000
-4.093300 0.000000
-4.060700 0.000000
-4.028100 0.000000
-3.995500 0.000000
-3.962900 0.000000
-3.930300 0.000000
-3.897700 0.000000
-3.865100 0.000000
-3.832500 0.000000
-3.799900 0.000000
-3.767300 0.000000
-3.734700 0.000000
-3.702100 0.000000
-3.669500 0.000000
-3.636900 0.000000
-3.604400 0.000000
-3.571800 0.000000
-3.539200 0.000000
-3.506600 0.000000
-3.474000 0.000000
-3.441400 0.000000
-3.408800 0.000000
-3.376200 0.000000
-3.343600 0.000000
-3.311000 0.000000
-3.278400 0.000000
-3.245800 0.000000
-3.213200 0.000000
-3.180600 0.000000
-3.148000 0.000000
-3.115400 0.000000
-3.082800 0.000000
-3.050200 0.000000
-3.017600 0.000000
-2.985000 0.000000
-2.952400 0.000000
-2.919800 0.000000
-2.887200 0.000000
-2.854600 0.000000
-2.822000 0.000000
-2.789400 0.000000
-2.756800 0.000000
-2.724200 0.000000
-2.691600 0.000000
-2.659000 0.000000
-2.626400 0.000000
-2.593800 0.000000
-2.561200 0.000000
-2.528600 0.000000
-2.496000 0.000000
-2.463400 0.000000
-2.430800 0.000000
-2.398200 0.000000
-2.365600 0.000000
-2.333000 0.000000
-2.300400 0.000000
-2.267800 0.000000
-2.235200 0.000000
-2.202600 0.000000
-2.170000 0.000000
-2.137400 0.000000
-2.104800 0.000000
-2.072200 0.000000
-2.039600 0.000000
-2.007000 0.000000
-1.974400 0.000000
-1.941800 0.000000
-1.909200 0.000000
-1.876600 0.000000
-1.844000 0.000000
-1.811400 0.000000
-1.778800 0.000000
-1.746200 0.000000
-1.713600 0.000000
-1.681000 0.000000
-1.648400 0.000000
-1.615800 0.000000
-1.583200 0.000000
-1.550600 0.000000
-1.518000 0.000000
-1.485400 0.000000
-1.452800 0.000000
-1.420200 0.000000
-1.387600 0.000000
-1.355000 0.000000
-1.322500 0.000000
-1.289900 0.000000
-1.257300 0.000000
-1.224700 0.000000
-1.192100 0.000000
-1.159500 0.000000
-1.126900 0.000000
-1.094300 0.000000
-1.061700 0.000000
-1.029100 0.000000
-0.996500 0.000000
-0.963900 0.000000
-0.931300 0.000000
-0.898700 0.000000
-0.866100 0.000000
-0.833500 0.000000
-0.800900 0.000000
-0.768300 0.000000
-0.735700 0.000000
-0.703100 0.000000
-0.670500 0.000000
-0.637900 0.000000
-0.605300 0.000000
-0.572700 0.000000
-0.540100 0.000000
-0.507500 0.000000
-0.474900 0.000000
-0.442300 0.000000
-0.409700 0.000000
-0.377100 0.000000
-0.344500 0.000000
-0.311900 0.000000
-0.279300 0.000000
-0.246700 0.000000
-0.214100 0.000800
-0.181500 0.026400
-0.148900 0.061300
-0.116300 0.096300
-0.083700 0.131300
-0.051100 0.166300
-0.018500 0.201300
0.014100 0.236200
0.046700 0.271200
0.079300 0.306200
0.111900 0.176400
0.144500 0.180300
0.177100 0.184300
0.209700 0.188300
0.242300 0.192300
0.274900 0.196300
0.307500 0.200200
0.340100 0.204200
0.372700 0.208200
0.405300 0.212200
0.437900 0.216100
0.470500 0.220100
0.503100 0.224100
0.535700 0.228100
0.568300 0.232000
0.600900 0.236000
0.633500 0.240000
0.666100 0.243600
0.698700 0.243100
0.731300 0.242400
0.763900 0.241600
0.796500 0.240800
0.829100 0.240000
0.861700 0.239200
0.894300 0.238400
0.926800 0.240000
0.959400 0.244000
0.992000 0.248100
1.024600 0.252100
1.057200 0.256200
1.089800 0.260200
1.122400 0.264300
1.155000 0.268400
1.187600 0.272400
1.220200 0.276500
1.252800 0.280500
1.285400 0.284600
1.318000 0.288600
1.350600 0.292700
1.383200 0.296700
1.415800 0.300800
1.448400 0.304800
1.481000 0.308900
1.513600 0.313000
1.546200 0.317000
1.578800 0.321100
1.611400 0.325400
1.644000 0.341700
1.676600 0.358000
1.709200 0.374300
1.741800 0.390500
1.774400 0.406800
1.807000 0.423100
1.839600 0.458700
1.872200 0.506300
1.904800 0.559600
1.937400 0.618400
1.970000 0.685900
2.002600 0.756200
2.035200 1.447500
2.067800 1.783900
2.100400 2.116800
2.133000 2.142500
2.165600 2.148500
2.198200 2.151500
2.230800 2.146300
2.263400 1.986500
2.296000 1.822300
2.328600 1.041100
2.361200 1.044900
2.393800 1.048600
2.426400 1.052400
2.459000 1.060700
2.491600 1.083600
2.524200 1.114200
2.556800 1.150800
2.589400 1.185500
2.622000 1.224800
2.654600 1.264400
2.687200 1.681100
2.719800 2.471300
2.752400 2.409200
2.785000 2.388900
2.817600 2.422600
2.850200 2.459400
2.882800 2.496000
2.915400 2.590300
2.948000 2.648400
2.980600 2.692800
3.013200 2.782300
3.045800 2.922900
3.078400 2.990600
3.111000 3.060400
3.143600 3.132200
3.176200 3.075500
3.208700 3.450700
3.241300 4.078000
3.273900 4.386700
3.306500 4.741400
3.339100 6.928100
3.371700 6.368700
3.404300 5.850200
3.436900 6.379600
3.469500 5.884300
3.502100 4.846800
3.534700 4.748500
3.567300 4.284300
3.599900 4.720500
3.632500 4.212700
3.665100 4.092600
3.697700 4.167900
3.730300 6.033700
3.762900 5.840500
3.795500 4.732300
3.828100 3.165800
3.860700 3.019700
3.893300 3.301800
3.925900 3.518800
3.958500 3.771600
3.991100 4.042000
4.023700 4.364400
4.056300 4.930900
4.088900 5.331900
4.121500 5.811600
4.154100 6.293600
4.186700 6.686100
4.219300 5.205500
4.251900 5.215700
4.284500 5.533700
4.317100 6.063000
4.349700 8.753500
4.382300 9.097700
4.414900 8.357100
4.447500 7.114900
4.480100 5.348600
4.512700 5.044000
4.545300 4.351700
4.577900 5.002700
4.610500 6.618800
4.643100 7.422800
4.675700 6.373900
4.708300 5.701500
4.740900 5.397100
4.773500 5.675700
4.806100 6.853100
4.838700 7.544100
4.871300 6.020000
4.903900 4.194600
4.936500 3.968200
4.969100 4.130300
5.001700 4.531200
5.034300 5.083100
5.066900 6.667500
5.099500 5.569400
5.132100 5.656800
5.164700 6.337900
5.197300 6.648800
5.229900 6.517600
5.262500 6.009100
5.295100 5.074100
5.327700 4.609100
5.360300 3.745700
5.392900 3.900500
5.425500 4.142200
5.458000 4.776800
5.490600 5.440600
5.523200 6.400300
5.555800 7.314400
5.588400 9.054400
5.621000 8.749300
5.653600 7.460000
5.686200 6.313600
5.718800 6.241200
5.751400 8.290300
5.784000 7.681900
5.816600 5.656100
5.849200 5.304200
5.881800 5.191700
5.914400 5.186600
5.947000 4.729000
5.979600 4.411700
6.012200 4.997400
6.044800 5.559900
6.077400 4.944600
6.110000 4.255800
6.142600 6.725500
6.175200 8.071100
6.207800 7.211100
6.240400 6.798600
6.273000 6.732700
6.305600 6.998600
6.338200 5.910400
6.370800 6.019200
6.403400 6.914700
6.436000 8.205900
6.468600 8.471600
6.501200 8.174900
6.533800 7.341400
6.566400 6.146900
6.599000 5.751000
6.631600 5.862800
6.664200 5.884700
6.696800 5.491800
6.729400 5.186900
6.762000 6.152900
6.794600 9.222500
6.827200 7.634600
6.859800 5.355400
6.892400 5.077600
6.925000 4.918000
6.957600 5.101300
6.990200 5.884700
7.022800 7.378600
7.055400 7.827000
7.088000 8.335500
7.120600 5.773500
7.153200 5.876100
7.185800 7.548400
7.218400 6.931500
7.251000 7.915500
7.283600 7.595400
7.316200 6.875700
7.348800 6.300900
7.381400 7.259500
7.414000 6.436700
7.446600 5.446400
7.479200 4.899800
7.511800 4.794200
7.544400 4.923700
7.577000 5.713300
7.609600 5.500100
7.642200 5.300400
7.674800 5.463900
7.707300 5.367000
7.739900 4.816400
7.772500 4.521900
7.805100 5.223200
7.837700 5.231800
7.870300 5.217500
7.902900 5.172000
7.935500 5.442000
7.968100 5.432300
8.000700 5.302800
8.033300 5.321600
8.065900 5.434500
8.098500 5.834200
8.131100 7.912200
8.163700 8.222200
8.196300 6.440100
8.228900 5.741100
8.261500 5.405300
8.294100 5.317000
8.326700 6.119600
8.359300 6.796700
8.391900 6.259000
8.424500 5.210400
8.457100 4.944200
8.489700 4.793900
8.522300 5.014200
8.554900 5.613100
8.587500 5.508900
8.620100 4.928300
8.652700 5.034300
8.685300 4.988200
8.717900 4.846300
8.750500 5.379300
8.783100 6.200600
8.815700 6.716800
8.848300 6.833800
8.880900 5.247500
8.913500 4.897000
8.946100 4.703500
8.978700 4.799900
9.011300 4.424300
9.043900 4.387500
9.076500 4.949500
9.109100 5.000800
9.141700 5.765800
9.174300 5.527100
9.206900 4.736700
9.239500 4.726700
9.272100 4.835000
9.304700 5.020600
9.337300 4.724000
9.369900 4.559500
9.402500 4.489900
9.435100 4.461700
9.467700 4.598500
9.500300 4.840700
9.532900 5.297600
9.565500 5.084400
9.598100 5.045600
9.630700 4.889200
9.663300 4.835600
9.695900 4.885600
9.728500 5.031400
9.761100 5.094500
9.793700 5.132900
9.826300 5.207200
9.858900 5.501400
9.891500 6.281200
9.924100 6.282700
9.956700 6.180000
9.989200 5.418600
10.021800 5.345100
10.054400 4.600800
10.087000 4.297000
10.119600 3.959900
10.152200 3.708900
10.184800 3.565000
10.217400 3.603300
10.250000 5.316800
10.282600 4.860500
10.315200 5.114600
10.347800 4.997300
10.380400 4.932900
10.413000 4.910700
10.445600 5.065300
10.478200 5.193300
10.510800 5.169800
10.543400 5.274200
10.576000 5.186900
10.608600 4.971200
10.641200 5.011300
10.673800 5.118400
10.706400 5.463700
10.739000 4.952600
10.771600 4.717900
10.804200 4.567600
10.836800 4.444600
10.869400 4.487000
10.902000 4.638300
10.934600 4.572700
10.967200 4.412900
10.999800 4.452600
11.032400 4.484800
11.065000 4.498500
11.097600 4.471800
11.130200 4.383200
11.162800 4.327000
11.195400 4.383600
11.228000 4.600800
11.260600 4.791100
11.293200 4.855600
11.325800 4.946700
11.358400 4.942300
11.391000 4.760000
11.423600 4.705600
11.456200 4.880500
11.488800 4.710600
11.521400 4.691400
11.554000 4.664200
11.586600 4.672800
11.619200 4.886100
11.651800 5.219800
11.684400 5.665600
11.717000 6.094100
11.749600 6.276000
11.782200 6.318600
11.814800 5.929800
11.847400 5.839600
11.880000 5.911200
11.912600 5.353900
11.945200 4.750700
11.977800 4.195500
12.010400 3.891000
12.043000 3.651900
12.075600 3.673700
12.108200 4.276200
12.140800 5.515500
12.173400 5.492100
12.206000 5.780600
12.238500 6.239800
12.271100 4.136100
12.303700 3.582700
12.336300 3.108300
12.368900 2.658100
12.401500 2.238200
12.434100 1.775200
12.466700 1.724700
12.499300 1.703600
12.531900 1.754000
12.564500 1.847800
12.597100 2.132200
12.629700 2.093200
12.662300 2.043600
12.694900 2.073800
12.727500 2.030400
12.760100 1.979400
12.792700 1.929000
12.825300 1.879300
12.857900 1.830300
12.890500 1.797900
12.923100 1.776500
12.955700 1.764900
12.988300 1.757800
13.020900 1.752200
13.053500 1.748400
13.086100 1.747400
13.118700 1.778300
13.151300 1.803800
13.183900 1.816700
13.216500 1.824400
13.249100 1.830300
13.281700 1.826000
13.314300 1.816100
13.346900 1.807600
13.379500 1.799700
13.412100 1.790100
13.444700 1.779100
13.477300 1.767300
13.509900 1.754700
13.542500 1.725300
13.575100 1.699800
13.607700 1.674100
13.640300 1.647000
13.672900 1.612300
13.705500 1.584400
13.738100 1.568900
13.770700 1.554200
13.803300 1.541300
13.835900 1.528800
13.868500 1.516800
13.901100 1.505500
13.933700 1.495200
13.966300 1.485900
13.998900 1.477700
14.031500 1.469300
14.064100 1.460600
14.096700 1.451600
14.129300 1.442200
14.161900 1.431200
14.194500 1.424500
14.227100 1.419700
14.259700 1.415800
14.292300 1.412900
14.324900 1.410300
14.357500 1.407800
14.390100 1.405400
14.422700 1.403100
14.455300 1.401500
14.487900 1.417000
14.520400 1.412700
14.553000 1.407500
14.585600 1.401800
14.618200 1.396700
14.650800 1.392100
14.683400 1.387600
14.716000 1.431700
14.748600 1.587800
14.781200 1.509900
14.813800 1.293600
14.846400 1.286100
14.879000 1.284600
14.911600 1.281600
14.944200 1.279600
14.976800 1.278900
15.009400 1.445800
15.042000 1.402200
15.074600 1.400600
15.107200 1.404700
15.139800 1.411500
15.172400 1.422200
15.205000 1.444500
15.237600 1.469000
15.270200 2.085000
15.302800 2.633400
15.335400 1.171000
15.368000 1.187200
15.400600 1.201600
15.433200 1.212700
15.465800 1.219500
15.498400 1.224200
15.531000 1.226600
15.563600 1.226700
15.596200 1.221400
15.628800 1.214200
15.661400 1.200600
15.694000 1.153000
15.726600 1.138000
15.759200 1.123900
15.791800 1.109800
15.824400 1.097700
15.857000 1.090200
15.889600 1.084600
15.922200 1.081300
15.954800 1.080900
15.987400 1.081300
16.020000 1.076900
16.052600 1.069300
16.085200 1.060500
16.117800 1.050300
16.150400 1.040100
16.183000 1.031100
16.215600 1.022400
16.248200 1.014000
16.280800 1.005900
16.313400 0.998400
16.346000 0.991700
16.378600 0.985200
16.411200 0.980300
16.443800 1.038200
16.476400 1.087300
16.509000 1.098100
16.541600 1.053000
16.574200 1.006500
16.606800 0.976800
16.639400 0.981900
16.672000 1.033500
16.704600 1.050400
16.737200 1.052500
16.769700 1.052200
16.802300 1.047700
16.834900 1.037600
16.867500 1.064400
16.900100 1.164100
16.932700 0.968400
16.965300 0.956100
16.997900 1.025200
17.030500 1.099600
17.063100 1.127900
17.095700 1.171700
17.128300 1.214000
17.160900 1.233600
17.193500 1.246700
17.226100 1.258200
17.258700 1.258500
17.291300 1.250000
17.323900 1.253600
17.356500 1.274500
17.389100 1.535300
17.421700 1.435500
17.454300 1.466500
17.486900 1.437100
17.519500 1.424300
17.552100 1.411100
17.584700 1.393600
17.617300 1.651700
17.649900 1.482700
17.682500 1.473000
17.715100 1.461100
17.747700 1.445200
17.780300 1.449700
17.812900 1.480800
17.845500 1.521100
17.878100 1.597700
17.910700 1.663400
17.943300 1.690800
17.975900 1.702800
18.008500 1.640800
18.041100 1.632000
18.073700 1.630300
18.106300 1.674400
18.138900 1.585100
18.171500 1.382600
18.204100 1.093600
18.236700 0.880800
18.269300 0.759400
18.301900 0.711400
18.334500 0.716900
18.367100 1.015600
18.399700 0.949300
18.432300 0.946100
18.464900 0.941400
18.497500 0.961100
18.530100 0.997200
18.562700 1.051200
18.595300 1.132300
18.627900 1.230500
18.660500 1.343500
18.693100 1.548200
18.725700 1.765500
18.758300 1.979900
18.790900 2.125100
18.823500 2.214000
18.856100 2.179800
18.888700 2.107400
18.921300 2.075300
18.953900 2.189800
18.986500 2.143400
19.019000 2.077600
19.051600 2.051200
19.084200 2.023800
19.116800 1.969800
19.149400 1.909900
19.182000 1.850100
19.214600 1.799600
19.247200 1.757700
19.279800 1.732700
19.312400 1.537300
19.345000 1.441000
19.377600 1.767700
19.410200 1.798700
19.442800 1.771500
19.475400 1.820700
19.508000 1.832400
19.540600 1.838100
19.573200 1.852500
19.605800 1.958300
19.638400 1.938100
19.671000 1.764300
19.703600 1.725700
19.736200 1.741400
19.768800 1.758200
19.801400 1.778600
19.834000 1.792300
19.866600 1.799500
19.899200 1.825500
19.931800 1.851100
19.964400 1.910500
19.997000 2.008100
20.029600 2.027900
20.062200 2.166500
20.094800 2.096800
20.127400 2.041800
20.160000 2.109200
20.192600 2.205500
20.225200 2.087100
20.257800 2.023400
20.290400 1.943000
20.323000 1.883300
20.355600 1.875200
20.388200 1.980800
20.420800 2.200000
20.453400 2.164200
20.486000 2.163000
20.518600 2.141700
20.551200 2.107300
20.583800 2.076400
20.616400 2.048300
20.649000 2.024900
20.681600 2.009700
20.714200 2.005200
20.746800 2.012700
20.779400 2.008900
20.812000 2.033300
20.844600 2.039300
20.877200 2.045400
20.909800 2.088800
20.942400 2.154700
20.975000 2.248000
21.007600 2.417800
21.040200 2.437500
21.072800 2.535200
21.105400 2.448900
21.138000 2.488700
21.170600 2.530200
21.203200 2.559400
21.235800 2.573200
21.268400 2.570300
21.300900 2.546900
21.333500 2.454300
21.366100 2.426400
21.398700 2.392000
21.431300 2.385100
21.463900 2.444600
21.496500 2.365900
21.529100 2.242800
21.561700 2.129000
21.594300 2.061900
21.626900 2.000700
21.659500 1.964200
21.692100 1.972100
21.724700 1.994900
21.757300 2.024900
21.789900 2.076000
21.822500 2.142000
21.855100 2.222300
21.887700 2.140500
21.920300 2.229200
21.952900 2.360700
21.985500 2.467500
22.018100 2.515600
22.050700 2.615100
22.083300 2.849900
22.115900 2.967800
22.148500 3.054100
22.181100 3.180700
22.213700 3.305600
22.246300 3.922600
22.278900 3.627100
22.311500 3.404600
22.344100 3.403000
22.376700 3.502700
22.409300 3.791200
22.441900 3.598500
22.474500 3.505900
22.507100 3.422000
22.539700 3.375400
22.572300 3.408800
22.604900 3.470300
22.637500 3.598200
22.670100 3.862900
22.702700 4.058200
22.735300 4.200300
22.767900 4.334100
22.800500 4.452000
22.833100 4.589600
22.865700 4.481700
22.898300 4.116800
22.930900 3.884500
22.963500 3.745900
22.996100 3.642500
23.028700 3.665100
23.061300 3.829300
23.093900 3.981900
23.126500 4.041100
23.159100 4.060700
23.191700 4.089600
23.224300 4.113300
23.256900 4.065000
23.289500 3.927400
23.322100 3.807100
23.354700 3.764100
23.387300 3.734900
23.419900 3.764300
23.452500 3.831100
23.485100 3.869300
23.517700 3.922400
23.550200 3.967400
23.582800 3.986300
23.615400 3.992000
23.648000 4.343300
23.680600 4.714300
23.713200 4.799100
23.745800 4.753500
23.778400 4.772800
23.811000 4.516500
23.843600 4.473500
23.876200 4.494000
23.908800 4.562000
23.941400 4.695600
23.974000 4.805300
24.006600 4.845600
24.039200 4.716600
24.071800 4.654800
24.104400 4.498400
24.137000 4.256500
24.169600 4.075600
24.202200 4.014100
24.234800 3.997300
24.267400 4.043200
24.300000 4.148400
24.332600 4.259700
24.365200 4.377200
24.397800 4.356100
24.430400 4.325800
24.463000 4.319400
24.495600 4.308300
24.528200 4.294300
24.560800 4.399000
24.593400 4.369800
24.626000 4.474700
24.658600 4.441500
24.691200 4.332100
24.723800 4.284700
24.756400 4.237700
24.789000 4.213400
24.821600 4.237400
24.854200 4.387600
24.886800 4.483100
24.919400 4.692200
24.952000 4.505700
24.984600 4.553600
25.017200 4.757400
25.049800 5.273800
25.082400 5.193900
25.115000 5.047500
25.147600 5.039000
25.180200 5.059800
25.212800 5.170000
25.245400 5.344600
25.278000 5.960400
25.310600 7.267800
25.343200 10.151100
25.375800 19.108900
25.408400 15.122400
25.441000 13.811500
25.473600 13.948100
25.506200 14.231800
25.538800 14.523400
25.571400 15.710100
25.604000 16.859300
25.636600 11.530800
25.669200 8.484100
25.701800 7.038500
25.734400 5.924800
25.767000 5.296100
25.799600 4.892000
25.832100 4.538500
25.864700 4.170400
25.897300 3.905600
25.929900 3.653600
25.962500 3.452100
25.995100 3.288700
26.027700 3.159600
26.060300 3.073700
26.092900 3.033400
26.125500 2.985200
26.158100 2.930600
26.190700 2.892800
26.223300 2.882200
26.255900 2.895800
26.288500 2.864100
26.321100 2.819600
26.353700 2.768400
26.386300 2.728800
26.418900 2.702600
26.451500 2.695100
26.484100 2.665600
26.516700 2.624100
26.549300 2.566900
26.581900 2.493300
26.614500 2.434600
26.647100 2.372300
26.679700 2.323500
26.712300 2.283300
26.744900 2.239600
26.777500 2.188100
26.810100 2.128000
26.842700 2.061500
26.875300 1.980900
26.907900 1.884100
26.940500 1.807200
26.973100 1.735500
27.005700 1.667300
27.038300 1.609800
27.070900 1.570000
27.103500 1.535300
27.136100 1.505300
27.168700 1.475800
27.201300 1.451400
27.233900 1.440700
27.266500 1.433800
27.299100 1.429800
27.331700 1.435500
27.364300 1.461100
27.396900 1.534300
27.429500 1.665000
27.462100 1.777200
27.494700 1.865800
27.527300 1.930700
27.559900 1.973500
27.592500 1.982000
27.625100 1.977200
27.657700 1.965400
27.690300 1.974000
27.722900 2.021200
27.755500 2.096600
27.788100 2.187600
27.820700 2.093900
27.853300 2.103800
27.885900 2.133400
27.918500 2.194600
27.951100 2.291100
27.983700 2.454100
28.016300 2.589100
28.048900 2.653900
28.081400 2.748300
28.114000 2.876400
28.146600 3.062000
28.179200 3.099100
28.211800 2.951400
28.244400 2.960900
28.277000 3.110300
28.309600 3.332800
28.342200 3.472200
28.374800 3.765600
28.407400 3.559700
28.440000 3.311400
28.472600 3.231200
28.505200 3.237700
28.537800 3.302800
28.570400 3.429400
28.603000 3.442700
28.635600 3.465600
28.668200 3.626600
28.700800 3.670400
28.733400 3.749000
28.766000 3.726400
28.798600 3.651100
28.831200 3.643900
28.863800 3.679500
28.896400 3.712900
28.929000 3.780700
28.961600 3.917400
28.994200 3.922000
29.026800 3.653600
29.059400 3.466800
29.092000 3.307000
29.124600 3.223800
29.157200 3.199300
29.189800 3.170800
29.222400 3.268900
29.255000 3.408100
29.287600 3.525100
29.320200 3.711200
29.352800 3.906300
29.385400 3.877800
29.418000 3.660400
29.450600 3.466300
29.483200 3.351900
29.515800 3.383900
29.548400 3.705200
29.581000 3.768400
29.613600 3.599200
29.646200 3.397700
29.678800 3.210100
29.711400 3.226300
29.744000 3.270500
29.776600 3.427700
29.809200 3.449700
29.841800 3.281100
29.874400 2.993000
29.907000 2.684600
29.939600 2.397900
29.972200 2.185700
30.004800 1.960200
30.037400 1.816700
30.070000 1.646100
30.102600 1.599900
30.135200 1.404400
30.167800 1.229900
30.200400 1.160600
30.233000 1.113800
30.265600 1.047500
30.298200 0.961100
30.330700 0.858900
30.363300 0.764100
30.395900 0.675700
30.428500 0.594800
30.461100 0.500700
30.493700 0.398000
30.526300 0.287100
30.558900 0.218300
30.591500 0.189800
30.624100 0.163500
30.656700 0.138200
30.689300 0.113700
30.721900 0.089900
30.754500 0.066800
30.787100 0.045700
30.819700 0.036200
30.852300 0.030500
30.884900 0.026300
30.917500 0.022900
30.950100 0.020200
30.982700 0.018300
31.015300 0.017000
31.047900 0.015900
31.080500 0.014800
31.113100 0.013700
31.145700 0.012700
31.178300 0.011800
31.210900 0.010800
31.243500 0.010000
31.276100 0.009100
31.308700 0.008400
31.341300 0.007600
31.373900 0.006900
31.406500 0.006300
31.439100 0.005700
31.471700 0.005100
31.504300 0.004600
31.536900 0.004100
31.569500 0.003700
31.602100 0.003300
31.634700 0.002900
31.667300 0.002500
31.699900 0.002100
31.732500 0.001800
31.765100 0.001500
31.797700 0.001200
31.830300 0.000900
31.862900 0.000700
31.895500 0.000500
31.928100 0.000300
31.960700 0.000100
31.993300 0.000000
32.025900 0.000000
32.058500 0.000000
32.091100 0.000000
32.123700 0.000000
32.156300 0.000000
32.188900 0.000000
32.221500 0.000000
32.254100 0.000000
32.286700 0.000000
32.319300 0.000000
32.351900 0.000000
32.384500 0.000000
32.417100 0.000000
32.449700 0.000000
32.482300 0.000000
32.514900 0.000000
32.547500 0.000000
32.580100 0.000000
32.612600 0.000000
32.645200 0.000000
32.677800 0.000000
32.710400 0.000000
32.743000 0.000000
32.775600 0.000000
32.808200 0.000000
32.840800 0.000000
32.873400 0.000000
32.906000 0.000000
32.938600 0.000000
32.971200 0.000000
33.003800 0.000000
33.036400 0.000000
33.069000 0.000000
33.101600 0.000000
33.134200 0.000000
33.166800 0.000000
33.199400 0.000000
33.232000 0.000000
33.264600 0.000000
33.297200 0.000000
33.329800 0.000000
33.362400 0.000000
33.395000 0.000000
33.427600 0.000000
33.460200 0.000000
33.492800 0.000000
33.525400 0.000000
33.558000 0.000000
33.590600 0.000000
33.623200 0.000000
33.655800 0.000000
33.688400 0.000000
33.721000 0.000000
33.753600 0.000000
33.786200 0.000000
33.818800 0.000000
33.851400 0.000000
33.884000 0.000000
33.916600 0.000000
33.949200 0.000000
33.981800 0.000000
34.014400 0.000000
34.047000 0.000000
34.079600 0.000000
34.112200 0.000000
34.144800 0.000000
34.177400 0.000000
34.210000 0.000000
34.242600 0.000000
34.275200 0.000000
34.307800 0.000000
34.340400 0.000000
34.373000 0.000000
34.405600 0.000000
34.438200 0.000000
34.470800 0.000000
34.503400 0.000000
34.536000 0.000000
34.568600 0.000000
34.601200 0.000000
34.633800 0.000000
34.666400 0.000000
34.699000 0.000000
34.731600 0.000000
34.764200 0.000000
34.796800 0.000000
34.829400 0.000000
34.861900 0.000000
34.894500 0.000000
34.927100 0.000000
34.959700 0.000000
e
