set title 'mp-1420871 - Density of States'
set xlabel 'Energy (eV)'
set ylabel 'DOS (states/eV)'
set grid
set xrange [-10:10]
set yrange [0:8.118]
set xzeroaxis lt -1
set terminal png size 800,600
set output 'mp-1420871_dos_gnuplot.png'
plot '-' using 1:2 with lines title 'DOS'
-45.019900 0.000000
-44.974300 0.000000
-44.928800 0.000000
-44.883200 0.000000
-44.837700 0.000000
-44.792100 0.000000
-44.746600 0.000000
-44.701000 0.000000
-44.655500 0.000000
-44.609900 0.000000
-44.564400 0.000000
-44.518800 0.000000
-44.473300 0.000000
-44.427700 0.000000
-44.382200 0.000000
-44.336600 0.000000
-44.291100 0.000000
-44.245500 0.000000
-44.200000 0.000000
-44.154400 0.000000
-44.108900 0.000000
-44.063300 0.000000
-44.017800 0.000000
-43.972200 0.000000
-43.926700 0.000000
-43.881100 0.000000
-43.835600 0.000000
-43.790000 0.000000
-43.744500 0.000000
-43.698900 0.000000
-43.653400 0.000000
-43.607800 0.000000
-43.562200 0.000000
-43.516700 0.000000
-43.471100 0.000000
-43.425600 0.000000
-43.380000 0.000000
-43.334500 0.000000
-43.288900 0.000000
-43.243400 0.000000
-43.197800 0.000000
-43.152300 0.000000
-43.106700 0.000000
-43.061200 0.000000
-43.015600 0.000000
-42.970100 0.000000
-42.924500 0.000000
-42.879000 0.000000
-42.833400 0.000000
-42.787900 0.000000
-42.742300 0.000000
-42.696800 0.000000
-42.651200 0.000000
-42.605700 0.000000
-42.560100 0.000000
-42.514600 0.000000
-42.469000 0.000000
-42.423500 0.000000
-42.377900 0.000000
-42.332400 0.000000
-42.286800 0.000000
-42.241300 0.000000
-42.195700 0.000000
-42.150200 0.000000
-42.104600 0.000000
-42.059100 0.000000
-42.013500 0.000000
-41.968000 0.000000
-41.922400 0.000000
-41.876900 0.000000
-41.831300 0.000000
-41.785800 0.000000
-41.740200 0.000000
-41.694700 0.000000
-41.649100 0.000000
-41.603600 0.000000
-41.558000 0.000000
-41.512500 0.000000
-41.466900 0.000000
-41.421400 0.000000
-41.375800 0.000000
-41.330300 0.000000
-41.284700 0.000000
-41.239200 0.000000
-41.193600 0.000000
-41.148100 0.000000
-41.102500 0.000000
-41.057000 0.000000
-41.011400 0.000000
-40.965900 0.000000
-40.920300 0.000000
-40.874800 6.361300
-40.829200 15.277100
-40.783700 4.382700
-40.738100 3.978700
-40.692600 5.255300
-40.647000 8.543700
-40.601500 8.679000
-40.555900 0.000000
-40.510400 0.000000
-40.464800 0.000000
-40.419300 0.000000
-40.373700 0.000000
-40.328200 0.000000
-40.282600 0.000000
-40.237100 0.000000
-40.191500 0.000000
-40.146000 0.000000
-40.100400 0.000000
-40.054900 0.000000
-40.009300 0.000000
-39.963800 0.000000
-39.918200 0.000000
-39.872700 0.000000
-39.827100 0.000000
-39.781600 0.000000
-39.736000 0.000000
-39.690500 0.000000
-39.644900 0.000000
-39.599400 0.000000
-39.553800 0.000000
-39.508300 0.000000
-39.462700 0.000000
-39.417200 0.000000
-39.371600 0.000000
-39.326100 0.000000
-39.280500 0.000000
-39.235000 0.000000
-39.189400 0.000000
-39.143900 0.000000
-39.098300 0.000000
-39.052800 0.000000
-39.007200 0.000000
-38.961700 0.000000
-38.916100 0.000000
-38.870600 0.000000
-38.825000 0.000000
-38.779500 0.000000
-38.733900 0.000000
-38.688400 0.000000
-38.642800 0.000000
-38.597300 0.000000
-38.551700 0.000000
-38.506200 0.000000
-38.460600 0.000000
-38.415100 0.000000
-38.369500 0.000000
-38.323900 0.000000
-38.278400 0.000000
-38.232800 0.000000
-38.187300 0.000000
-38.141700 0.000000
-38.096200 0.000000
-38.050600 0.000000
-38.005100 0.000000
-37.959500 0.000000
-37.914000 0.000000
-37.868400 0.000000
-37.822900 0.000000
-37.777300 0.000000
-37.731800 0.000000
-37.686200 0.000000
-37.640700 0.000000
-37.595100 0.000000
-37.549600 0.000000
-37.504000 0.000000
-37.458500 0.000000
-37.412900 0.000000
-37.367400 0.000000
-37.321800 0.000000
-37.276300 0.000000
-37.230700 0.000000
-37.185200 0.000000
-37.139600 0.000000
-37.094100 0.000000
-37.048500 0.000000
-37.003000 0.000000
-36.957400 0.000000
-36.911900 0.000000
-36.866300 0.000000
-36.820800 0.000000
-36.775200 0.000000
-36.729700 0.000000
-36.684100 0.000000
-36.638600 0.000000
-36.593000 0.000000
-36.547500 0.000000
-36.501900 0.000000
-36.456400 0.000000
-36.410800 0.000000
-36.365300 0.000000
-36.319700 0.000000
-36.274200 0.000000
-36.228600 0.000000
-36.183100 0.000000
-36.137500 0.000000
-36.092000 0.000000
-36.046400 0.000000
-36.000900 0.000000
-35.955300 0.000000
-35.909800 0.000000
-35.864200 0.000000
-35.818700 0.000000
-35.773100 0.000000
-35.727600 0.000000
-35.682000 0.000000
-35.636500 0.000000
-35.590900 0.000000
-35.545400 0.000000
-35.499800 0.000000
-35.454300 0.000000
-35.408700 0.000000
-35.363200 0.000000
-35.317600 0.000000
-35.272100 0.000000
-35.226500 0.000000
-35.181000 0.000000
-35.135400 0.000000
-35.089900 0.000000
-35.044300 0.000000
-34.998800 0.000000
-34.953200 0.000000
-34.907700 0.000000
-34.862100 0.000000
-34.816600 0.000000
-34.771000 0.000000
-34.725500 0.000000
-34.679900 0.000000
-34.634400 0.000000
-34.588800 0.000000
-34.543300 0.000000
-34.497700 0.000000
-34.452200 0.000000
-34.406600 0.000000
-34.361100 0.000000
-34.315500 0.000000
-34.270000 0.000000
-34.224400 0.000000
-34.178900 0.000000
-34.133300 0.000000
-34.087800 0.000000
-34.042200 0.000000
-33.996700 0.000000
-33.951100 0.000000
-33.905600 0.000000
-33.860000 0.000000
-33.814500 0.000000
-33.768900 0.000000
-33.723400 0.000000
-33.677800 0.000000
-33.632300 0.000000
-33.586700 0.000000
-33.541200 0.000000
-33.495600 0.000000
-33.450100 0.000000
-33.404500 0.000000
-33.359000 0.000000
-33.313400 0.000000
-33.267900 0.000000
-33.222300 0.000000
-33.176800 0.000000
-33.131200 0.000000
-33.085700 0.000000
-33.040100 0.000000
-32.994500 0.000000
-32.949000 0.000000
-32.903400 0.000000
-32.857900 0.000000
-32.812300 0.000000
-32.766800 0.000000
-32.721200 0.000000
-32.675700 0.000000
-32.630100 0.000000
-32.584600 0.000000
-32.539000 0.000000
-32.493500 0.000000
-32.447900 0.000000
-32.402400 0.000000
-32.356800 0.000000
-32.311300 0.000000
-32.265700 0.000000
-32.220200 0.000000
-32.174600 0.000000
-32.129100 0.000000
-32.083500 0.000000
-32.038000 0.000000
-31.992400 0.000000
-31.946900 0.000000
-31.901300 0.000000
-31.855800 0.000000
-31.810200 0.000000
-31.764700 0.000000
-31.719100 0.000000
-31.673600 0.000000
-31.628000 0.000000
-31.582500 0.000000
-31.536900 0.000000
-31.491400 0.000000
-31.445800 0.000000
-31.400300 0.000000
-31.354700 0.000000
-31.309200 0.000000
-31.263600 0.000000
-31.218100 0.000000
-31.172500 0.000000
-31.127000 0.000000
-31.081400 0.000000
-31.035900 0.000000
-30.990300 0.000000
-30.944800 0.000000
-30.899200 0.000000
-30.853700 0.000000
-30.808100 0.000000
-30.762600 0.000000
-30.717000 0.000000
-30.671500 0.000000
-30.625900 0.000000
-30.580400 0.000000
-30.534800 0.000000
-30.489300 0.000000
-30.443700 0.000000
-30.398200 0.000000
-30.352600 0.000000
-30.307100 0.000000
-30.261500 0.000000
-30.216000 0.000000
-30.170400 0.000000
-30.124900 0.000000
-30.079300 0.000000
-30.033800 0.000000
-29.988200 0.000000
-29.942700 0.000000
-29.897100 0.000000
-29.851600 0.000000
-29.806000 0.000000
-29.760500 0.000000
-29.714900 0.000000
-29.669400 0.000000
-29.623800 0.000000
-29.578300 0.000000
-29.532700 0.000000
-29.487200 0.000000
-29.441600 0.000000
-29.396100 0.000000
-29.350500 0.000000
-29.305000 0.000000
-29.259400 0.000000
-29.213900 0.000000
-29.168300 0.000000
-29.122800 0.000000
-29.077200 0.000000
-29.031700 0.000000
-28.986100 0.000000
-28.940600 0.000000
-28.895000 0.000000
-28.849500 0.000000
-28.803900 0.000000
-28.758400 0.000000
-28.712800 0.000000
-28.667300 0.000000
-28.621700 0.000000
-28.576200 0.000000
-28.530600 0.000000
-28.485100 0.000000
-28.439500 0.000000
-28.394000 0.000000
-28.348400 0.000000
-28.302900 0.000000
-28.257300 0.000000
-28.211800 0.000000
-28.166200 0.000000
-28.120700 0.000000
-28.075100 0.000000
-28.029600 0.000000
-27.984000 0.000000
-27.938500 0.000000
-27.892900 0.000000
-27.847400 0.000000
-27.801800 0.000000
-27.756300 0.000000
-27.710700 0.000000
-27.665100 0.000000
-27.619600 0.000000
-27.574000 0.000000
-27.528500 0.000000
-27.482900 0.000000
-27.437400 0.000000
-27.391800 0.000000
-27.346300 0.000000
-27.300700 0.000000
-27.255200 0.000000
-27.209600 0.000000
-27.164100 0.000000
-27.118500 0.000000
-27.073000 0.000000
-27.027400 0.000000
-26.981900 0.000000
-26.936300 0.000000
-26.890800 0.000000
-26.845200 0.000000
-26.799700 0.000000
-26.754100 0.000000
-26.708600 0.000000
-26.663000 0.000000
-26.617500 0.000000
-26.571900 0.000000
-26.526400 0.000000
-26.480800 0.000000
-26.435300 0.000000
-26.389700 0.000000
-26.344200 0.000000
-26.298600 0.000000
-26.253100 0.000000
-26.207500 0.000000
-26.162000 0.000000
-26.116400 0.000000
-26.070900 0.000000
-26.025300 0.000000
-25.979800 0.000000
-25.934200 0.000000
-25.888700 0.000000
-25.843100 0.000000
-25.797600 0.000000
-25.752000 0.000000
-25.706500 0.000000
-25.660900 0.000000
-25.615400 0.000000
-25.569800 0.000000
-25.524300 0.000000
-25.478700 0.000000
-25.433200 0.000000
-25.387600 0.000000
-25.342100 0.000000
-25.296500 0.000000
-25.251000 0.000000
-25.205400 0.000000
-25.159900 0.000000
-25.114300 0.000000
-25.068800 0.000000
-25.023200 0.000000
-24.977700 0.000000
-24.932100 0.000000
-24.886600 0.000000
-24.841000 0.000000
-24.795500 0.000000
-24.749900 0.000000
-24.704400 0.000000
-24.658800 0.000000
-24.613300 0.000000
-24.567700 0.000000
-24.522200 0.000000
-24.476600 0.000000
-24.431100 0.000000
-24.385500 0.000000
-24.340000 0.000000
-24.294400 0.000000
-24.248900 0.000000
-24.203300 0.000000
-24.157800 0.000000
-24.112200 0.000000
-24.066700 0.000000
-24.021100 0.000000
-23.975600 0.000000
-23.930000 0.000000
-23.884500 0.000000
-23.838900 0.000000
-23.793400 0.000000
-23.747800 0.000000
-23.702300 0.000000
-23.656700 0.000000
-23.611200 0.000000
-23.565600 0.000000
-23.520100 0.000000
-23.474500 0.000000
-23.429000 0.000000
-23.383400 0.000000
-23.337900 0.000000
-23.292300 0.000000
-23.246800 0.000000
-23.201200 0.000000
-23.155700 0.000000
-23.110100 0.000000
-23.064600 0.000000
-23.019000 0.000000
-22.973500 0.000000
-22.927900 0.000000
-22.882400 0.000000
-22.836800 0.000000
-22.791300 0.000000
-22.745700 0.000000
-22.700200 0.000000
-22.654600 0.000000
-22.609100 0.000000
-22.563500 0.000000
-22.518000 0.000000
-22.472400 0.000000
-22.426800 0.000000
-22.381300 0.000000
-22.335700 0.000000
-22.290200 0.000000
-22.244600 0.000000
-22.199100 0.000000
-22.153500 0.000000
-22.108000 0.000000
-22.062400 0.000000
-22.016900 0.000000
-21.971300 0.000000
-21.925800 0.000000
-21.880200 0.000000
-21.834700 0.000000
-21.789100 0.000000
-21.743600 0.000000
-21.698000 0.000000
-21.652500 0.000000
-21.606900 0.000000
-21.561400 0.000000
-21.515800 0.000000
-21.470300 0.000000
-21.424700 0.000000
-21.379200 0.000000
-21.333600 0.000000
-21.288100 0.000000
-21.242500 0.000000
-21.197000 0.000000
-21.151400 0.000000
-21.105900 0.000000
-21.060300 0.000000
-21.014800 0.000000
-20.969200 0.000000
-20.923700 0.000000
-20.878100 0.000000
-20.832600 0.000000
-20.787000 0.000000
-20.741500 0.000000
-20.695900 0.000000
-20.650400 0.000000
-20.604800 0.000000
-20.559300 0.000000
-20.513700 0.000000
-20.468200 0.000000
-20.422600 0.000000
-20.377100 0.000000
-20.331500 0.000000
-20.286000 0.000000
-20.240400 0.000000
-20.194900 0.000000
-20.149300 0.000000
-20.103800 0.000000
-20.058200 0.000000
-20.012700 0.000000
-19.967100 0.000000
-19.921600 0.000000
-19.876000 0.000000
-19.830500 0.000000
-19.784900 0.290800
-19.739400 0.280200
-19.693800 0.313400
-19.648300 0.346500
-19.602700 0.355900
-19.557200 0.338300
-19.511600 0.355200
-19.466100 0.372100
-19.420500 0.389000
-19.375000 0.396000
-19.329400 0.409400
-19.283900 0.422700
-19.238300 0.439400
-19.192800 0.456400
-19.147200 0.473500
-19.101700 0.505200
-19.056100 0.539400
-19.010600 0.571900
-18.965000 0.605600
-18.919500 0.642200
-18.873900 0.678700
-18.828400 0.811000
-18.782800 0.977400
-18.737300 1.179200
-18.691700 1.439800
-18.646200 2.780300
-18.600600 1.683700
-18.555100 1.246300
-18.509500 1.160600
-18.464000 1.034300
-18.418400 0.000000
-18.372900 3.760200
-18.327300 5.581200
-18.281800 2.257500
-18.236200 1.580300
-18.190700 1.289900
-18.145100 1.122200
-18.099600 0.987400
-18.054000 0.930500
-18.008500 0.757500
-17.962900 0.000000
-17.917400 0.000000
-17.871800 0.000000
-17.826300 0.000000
-17.780700 0.000000
-17.735200 0.000000
-17.689600 0.000000
-17.644100 0.000000
-17.598500 0.000000
-17.553000 0.000000
-17.507400 0.000000
-17.461900 0.000000
-17.416300 0.000000
-17.370800 0.000000
-17.325200 0.000000
-17.279700 0.000000
-17.234100 0.000000
-17.188600 0.000000
-17.143000 0.000000
-17.097400 0.000000
-17.051900 0.000000
-17.006300 0.000000
-16.960800 0.000000
-16.915200 0.000000
-16.869700 0.000000
-16.824100 0.000000
-16.778600 0.000000
-16.733000 0.000000
-16.687500 0.000000
-16.641900 0.000000
-16.596400 0.000000
-16.550800 0.000000
-16.505300 0.000000
-16.459700 0.000000
-16.414200 0.000000
-16.368600 0.000000
-16.323100 0.000000
-16.277500 0.000000
-16.232000 0.000000
-16.186400 0.000000
-16.140900 0.000000
-16.095300 0.000000
-16.049800 0.000000
-16.004200 0.000000
-15.958700 0.000000
-15.913100 0.000000
-15.867600 0.000000
-15.822000 0.000000
-15.776500 0.000000
-15.730900 0.000000
-15.685400 0.000000
-15.639800 0.000000
-15.594300 0.000000
-15.548700 0.000000
-15.503200 0.000000
-15.457600 0.000000
-15.412100 0.000000
-15.366500 0.000000
-15.321000 0.000000
-15.275400 0.000000
-15.229900 0.000000
-15.184300 0.000000
-15.138800 0.000000
-15.093200 0.000000
-15.047700 0.000000
-15.002100 0.000000
-14.956600 0.000000
-14.911000 0.000000
-14.865500 0.000000
-14.819900 0.000000
-14.774400 0.000000
-14.728800 0.000000
-14.683300 0.000000
-14.637700 0.000000
-14.592200 0.000000
-14.546600 0.000000
-14.501100 0.000000
-14.455500 0.000000
-14.410000 0.000000
-14.364400 0.000000
-14.318900 0.000000
-14.273300 0.000000
-14.227800 0.000000
-14.182200 0.000000
-14.136700 0.000000
-14.091100 0.000000
-14.045600 0.000000
-14.000000 0.000000
-13.954500 0.000000
-13.908900 0.000000
-13.863400 0.000000
-13.817800 0.000000
-13.772300 0.000000
-13.726700 0.000000
-13.681200 0.000000
-13.635600 0.000000
-13.590100 0.000000
-13.544500 0.000000
-13.499000 0.000000
-13.453400 0.000000
-13.407900 0.000000
-13.362300 0.000000
-13.316800 0.000000
-13.271200 0.000000
-13.225700 0.000000
-13.180100 0.000000
-13.134600 0.000000
-13.089000 0.000000
-13.043500 0.000000
-12.997900 0.000000
-12.952400 0.000000
-12.906800 0.000000
-12.861300 0.000000
-12.815700 0.000000
-12.770200 0.000000
-12.724600 0.000000
-12.679100 0.000000
-12.633500 0.000000
-12.588000 0.000000
-12.542400 0.000000
-12.496900 0.000000
-12.451300 0.000000
-12.405800 0.000000
-12.360200 0.000000
-12.314700 0.000000
-12.269100 0.000000
-12.223600 0.000000
-12.178000 0.000000
-12.132500 0.000000
-12.086900 0.000000
-12.041400 0.000000
-11.995800 0.000000
-11.950300 0.000000
-11.904700 0.000000
-11.859200 0.000000
-11.813600 0.000000
-11.768000 0.000000
-11.722500 0.000000
-11.676900 0.000000
-11.631400 0.000000
-11.585800 0.000000
-11.540300 0.000000
-11.494700 0.000000
-11.449200 0.000000
-11.403600 0.000000
-11.358100 0.000000
-11.312500 0.000000
-11.267000 0.000000
-11.221400 0.000000
-11.175900 0.000000
-11.130300 0.000000
-11.084800 0.000000
-11.039200 0.000000
-10.993700 0.000000
-10.948100 0.000000
-10.902600 0.000000
-10.857000 0.000000
-10.811500 0.000000
-10.765900 0.000000
-10.720400 0.000000
-10.674800 0.000000
-10.629300 0.000000
-10.583700 0.000000
-10.538200 0.000000
-10.492600 0.000000
-10.447100 0.000000
-10.401500 0.000000
-10.356000 0.000000
-10.310400 0.000000
-10.264900 0.000000
-10.219300 0.000000
-10.173800 0.000000
-10.128200 0.000000
-10.082700 0.000000
-10.037100 0.000000
-9.991600 0.000000
-9.946000 0.000000
-9.900500 0.000000
-9.854900 0.000000
-9.809400 0.000000
-9.763800 0.000000
-9.718300 0.000000
-9.672700 0.000000
-9.627200 0.000000
-9.581600 0.000000
-9.536100 0.000000
-9.490500 0.000000
-9.445000 0.000000
-9.399400 0.000000
-9.353900 0.000000
-9.308300 0.000000
-9.262800 0.000000
-9.217200 0.000000
-9.171700 0.000000
-9.126100 0.000000
-9.080600 0.000000
-9.035000 0.000000
-8.989500 0.000000
-8.943900 0.000000
-8.898400 0.000000
-8.852800 0.000000
-8.807300 0.000000
-8.761700 0.000000
-8.716200 0.000000
-8.670600 0.000000
-8.625100 0.000000
-8.579500 0.000000
-8.534000 0.000000
-8.488400 0.000000
-8.442900 0.000000
-8.397300 0.000000
-8.351800 0.000000
-8.306200 0.000000
-8.260700 0.000000
-8.215100 0.000000
-8.169600 0.000000
-8.124000 0.000000
-8.078500 0.000000
-8.032900 0.000000
-7.987400 0.000000
-7.941800 0.000000
-7.896300 0.000000
-7.850700 0.000000
-7.805200 0.000000
-7.759600 0.000000
-7.714100 0.000000
-7.668500 0.000000
-7.623000 0.000000
-7.577400 0.000000
-7.531900 0.000000
-7.486300 0.000000
-7.440800 0.000000
-7.395200 0.000000
-7.349700 0.000000
-7.304100 0.000000
-7.258600 0.000000
-7.213000 0.000000
-7.167500 0.000000
-7.121900 0.000000
-7.076400 0.628200
-7.030800 0.477300
-6.985300 0.530400
-6.939700 0.583500
-6.894200 0.606700
-6.848600 0.597200
-6.803100 0.600700
-6.757500 0.614200
-6.712000 0.643200
-6.666400 0.672300
-6.620900 0.701300
-6.575300 0.730400
-6.529700 0.808500
-6.484200 0.889300
-6.438600 0.983800
-6.393100 1.339500
-6.347500 1.244100
-6.302000 1.148700
-6.256400 1.429200
-6.210900 2.108800
-6.165300 3.219800
-6.119800 1.855500
-6.074200 2.330500
-6.028700 1.248300
-5.983100 0.695100
-5.937600 1.137400
-5.892000 1.095600
-5.846500 1.170300
-5.800900 1.270200
-5.755400 1.520700
-5.709800 1.744000
-5.664300 1.752600
-5.618700 2.746100
-5.573200 2.330500
-5.527600 1.762300
-5.482100 1.585500
-5.436500 1.411500
-5.391000 1.237600
-5.345400 1.399200
-5.299900 2.020200
-5.254300 1.313900
-5.208800 1.126500
-5.163200 1.174600
-5.117700 1.222700
-5.072100 1.297200
-5.026600 1.408000
-4.981000 1.397300
-4.935500 1.726300
-4.889900 1.241900
-4.844400 0.796500
-4.798800 0.705100
-4.753300 0.615100
-4.707700 0.531000
-4.662200 0.446800
-4.616600 0.362700
-4.571100 0.000000
-4.525500 0.000000
-4.480000 0.000000
-4.434400 0.000000
-4.388900 0.000000
-4.343300 1.624100
-4.297800 1.328600
-4.252200 2.201900
-4.206700 3.186900
-4.161100 2.560500
-4.115600 2.572700
-4.070000 2.243600
-4.024500 2.529300
-3.978900 3.073000
-3.933400 1.967100
-3.887800 2.272100
-3.842300 2.476800
-3.796700 2.987500
-3.751200 3.228700
-3.705600 1.772400
-3.660100 1.104100
-3.614500 0.488800
-3.569000 0.380600
-3.523400 0.362700
-3.477900 0.344800
-3.432300 0.326900
-3.386800 0.312400
-3.341200 0.298900
-3.295700 0.537700
-3.250100 0.521500
-3.204600 0.477700
-3.159000 0.506300
-3.113500 0.559300
-3.067900 0.612200
-3.022400 0.665200
-2.976800 0.708000
-2.931300 1.066700
-2.885700 1.009700
-2.840200 1.531700
-2.794600 1.280200
-2.749100 0.994900
-2.703500 0.889300
-2.658000 0.803800
-2.612400 0.781800
-2.566900 0.992200
-2.521300 1.030800
-2.475800 0.985100
-2.430200 0.976500
-2.384700 1.018400
-2.339100 1.214600
-2.293600 1.449100
-2.248000 1.653500
-2.202500 1.990200
-2.156900 0.204000
-2.111400 0.000000
-2.065800 0.000000
-2.020300 0.000000
-1.974700 0.000000
-1.929200 0.000500
-1.883600 0.031700
-1.838100 0.062800
-1.792500 0.094000
-1.747000 0.125200
-1.701400 0.156400
-1.655900 0.187600
-1.610300 0.276500
-1.564800 0.298000
-1.519200 0.318800
-1.473700 0.339600
-1.428100 0.360400
-1.382600 0.449600
-1.337000 0.549900
-1.291500 0.615600
-1.245900 0.646000
-1.200300 0.933600
-1.154800 1.047100
-1.109200 1.238000
-1.063700 1.548900
-1.018100 1.848500
-0.972600 1.905800
-0.927000 4.019600
-0.881500 2.950200
-0.835900 1.805800
-0.790400 2.512600
-0.744800 2.574100
-0.699300 2.428400
-0.653700 1.951800
-0.608200 1.716100
-0.562600 1.597300
-0.517100 1.532500
-0.471500 1.093900
-0.426000 1.418900
-0.380400 1.357300
-0.334900 2.251900
-0.289300 0.000000
-0.243800 0.000000
-0.198200 0.000000
-0.152700 0.000000
-0.107100 0.000000
-0.061600 0.000000
-0.016000 0.000000
0.029500 0.741800
0.075100 0.566500
0.120600 0.756100
0.166200 0.945600
0.211700 1.088400
0.257300 0.907500
0.302800 1.541600
0.348400 1.180900
0.393900 0.917000
0.439500 0.751000
0.485000 0.714700
0.530600 0.678400
0.576100 0.646000
0.621700 0.618700
0.667200 0.591400
0.712800 0.573200
0.758300 0.562300
0.803900 0.547100
0.849400 0.531800
0.895000 0.521200
0.940500 0.516400
0.986100 0.511600
1.031600 0.563100
1.077200 0.547800
1.122700 0.532500
1.168300 0.534600
1.213800 0.573600
1.259400 0.663800
1.304900 0.632000
1.350500 0.914300
1.396000 1.215700
1.441600 0.000000
1.487100 0.000000
1.532700 0.000000
1.578200 0.000000
1.623800 0.000000
1.669300 0.000000
1.714900 0.000000
1.760400 0.000000
1.806000 0.000000
1.851500 0.000000
1.897100 0.000000
1.942600 0.000000
1.988200 0.000000
2.033700 0.000000
2.079300 0.000000
2.124800 0.000000
2.170400 0.000000
2.215900 0.000000
2.261500 0.000000
2.307000 0.000000
2.352600 0.000000
2.398100 0.000000
2.443700 0.000000
2.489200 0.639800
2.534800 2.161700
2.580300 2.751900
2.625900 2.494300
2.671400 7.380300
2.717000 5.227200
2.762500 3.747600
2.808100 1.507500
2.853600 1.638700
2.899200 1.445100
2.944700 1.441400
2.990300 1.449100
3.035800 1.486700
3.081400 1.778800
3.126900 2.840000
3.172500 2.989100
3.218000 1.093200
3.263600 0.841900
3.309100 0.716800
3.354700 0.617700
3.400200 0.642800
3.445800 0.463200
3.491300 0.406100
3.536900 0.000000
3.582400 0.000000
3.628000 0.000000
3.673500 0.000000
3.719100 0.000000
3.764600 0.000000
3.810200 0.000000
3.855700 0.000000
3.901300 0.000000
3.946800 0.000000
3.992400 0.000000
4.037900 0.000000
4.083500 0.000000
4.129100 0.000000
4.174600 0.000000
4.220200 0.000000
4.265700 0.000000
4.311300 0.000000
4.356800 0.000000
4.402400 0.000000
4.447900 0.000000
4.493500 0.000000
4.539000 0.000000
4.584600 0.000000
4.630100 0.000000
4.675700 0.000000
4.721200 0.002100
4.766800 0.011200
4.812300 0.024000
4.857900 0.039500
4.903400 0.045200
4.949000 0.048500
4.994500 0.053700
5.040100 0.059000
5.085600 0.064700
5.131200 0.070800
5.176700 0.077000
5.222300 0.083400
5.267800 0.089700
5.313400 0.094900
5.358900 0.099900
5.404500 0.105200
5.450000 0.111400
5.495600 0.118000
5.541100 0.129000
5.586700 0.139100
5.632200 0.145000
5.677800 0.141700
5.723300 0.145400
5.768900 0.148900
5.814400 0.152300
5.860000 0.155400
5.905500 0.156800
5.951100 0.157800
5.996600 0.158600
6.042200 0.159700
6.087700 0.161500
6.133300 0.163300
6.178800 0.165200
6.224400 0.167100
6.269900 0.168900
6.315500 0.170800
6.361000 0.175600
6.406600 0.180400
6.452100 0.186800
6.497700 0.193900
6.543200 0.198400
6.588800 0.201800
6.634300 0.205300
6.679900 0.208500
6.725400 0.211800
6.771000 0.215300
6.816500 0.219000
6.862100 0.222600
6.907600 0.226000
6.953200 0.228800
6.998700 0.231900
7.044300 0.235300
7.089800 0.238900
7.135400 0.242400
7.180900 0.246100
7.226500 0.250000
7.272000 0.254200
7.317600 0.258600
7.363100 0.263100
7.408700 0.267700
7.454200 0.272400
7.499800 0.276600
7.545300 0.279700
7.590900 0.282700
7.636400 0.284700
7.682000 0.288500
7.727500 0.292700
7.773100 0.296700
7.818600 0.301800
7.864200 0.308100
7.909700 0.315400
7.955300 0.322400
8.000800 0.328500
8.046400 0.333800
8.091900 0.334400
8.137500 0.336000
8.183000 0.339800
8.228600 0.343600
8.274100 0.347300
8.319700 0.351100
8.365200 0.354900
8.410800 0.358600
8.456300 0.360300
8.501900 0.360800
8.547400 0.362500
8.593000 0.364600
8.638500 0.367200
8.684100 0.370400
8.729600 0.374000
8.775200 0.380800
8.820700 0.393100
8.866300 0.407500
8.911800 0.423100
8.957400 0.429700
9.002900 0.441100
9.048500 0.453100
9.094000 0.476200
9.139600 0.494700
9.185100 0.511200
9.230700 0.529000
9.276200 0.547800
9.321800 0.565100
9.367400 0.582300
9.412900 0.590000
9.458500 0.586600
9.504000 0.568000
9.549600 0.565000
9.595100 0.605600
9.640700 0.642500
9.686200 0.650100
9.731800 0.617600
9.777300 0.521600
9.822900 0.514600
9.868400 0.520700
9.914000 0.527600
9.959500 0.538500
10.005100 0.555400
10.050600 0.578800
10.096200 0.624900
10.141700 0.665300
10.187300 0.685800
10.232800 0.712800
10.278400 0.751100
10.323900 0.729100
10.369500 0.668700
10.415000 0.644500
10.460600 0.639900
10.506100 0.652000
10.551700 0.663200
10.597200 0.654400
10.642800 0.645300
10.688300 0.670100
10.733900 0.511400
10.779400 0.580100
10.825000 0.630400
10.870500 0.526700
10.916100 0.477800
10.961600 0.488900
11.007200 0.493900
11.052700 0.498700
11.098300 0.521600
11.143800 0.575100
11.189400 0.581800
11.234900 0.584800
11.280500 0.597800
11.326000 0.638100
11.371600 0.653600
11.417100 0.687100
11.462700 0.685700
11.508200 0.681600
11.553800 0.676300
11.599300 0.720400
11.644900 0.696400
11.690400 0.688100
11.736000 0.597200
11.781500 0.527500
11.827100 0.539000
11.872600 0.559100
11.918200 0.589700
11.963700 0.669200
12.009300 0.771300
12.054800 0.881400
12.100400 0.927800
12.145900 0.955600
12.191500 1.004000
12.237000 0.885400
12.282600 0.804200
12.328100 0.800200
12.373700 0.810200
12.419200 0.825600
12.464800 0.871200
12.510300 0.844200
12.555900 0.864100
12.601400 0.856900
12.647000 0.888600
12.692500 0.869700
12.738100 0.860700
12.783600 0.847500
12.829200 0.853000
12.874700 0.847000
12.920300 0.861100
12.965800 0.926800
13.011400 0.999200
13.056900 1.029500
13.102500 1.054500
13.148000 1.056100
13.193600 1.048600
13.239100 1.087000
13.284700 1.179200
13.330200 1.331100
13.375800 1.653000
13.421300 1.707500
13.466900 1.726000
13.512400 1.572500
13.558000 1.472800
13.603500 1.197000
13.649100 0.951500
13.694600 0.766600
13.740200 0.532300
13.785700 0.428700
13.831300 0.357500
13.876800 0.369000
13.922400 0.421500
13.967900 0.575300
14.013500 0.598200
14.059000 0.551900
14.104600 0.501100
14.150100 0.494500
14.195700 0.506400
14.241200 0.596900
14.286800 0.682400
14.332300 0.732200
14.377900 0.773100
14.423400 0.797500
14.469000 0.826500
14.514500 0.867500
14.560100 0.913400
14.605600 0.950300
14.651200 0.995000
14.696800 1.167900
14.742300 1.267800
14.787900 1.224200
14.833400 1.256200
14.879000 1.230800
14.924500 1.192500
14.970100 1.095700
15.015600 0.857300
15.061200 0.671800
15.106700 0.579600
15.152300 0.573500
15.197800 0.647600
15.243400 0.676400
15.288900 0.709200
15.334500 0.724800
15.380000 0.771700
15.425600 0.729100
15.471100 0.680100
15.516700 0.659900
15.562200 0.641000
15.607800 0.638500
15.653300 0.751000
15.698900 0.718200
15.744400 0.699900
15.790000 0.690300
15.835500 0.680700
15.881100 0.675200
15.926600 0.668300
15.972200 0.660400
16.017700 0.652400
16.063300 0.645600
16.108800 0.638800
16.154400 0.634000
16.199900 0.631100
16.245500 0.629500
16.291000 0.628100
16.336600 0.627000
16.382100 0.627100
16.427700 0.627600
16.473200 0.627200
16.518800 0.625900
16.564300 0.629800
16.609900 0.657700
16.655400 0.609300
16.701000 0.590600
16.746500 0.561100
16.792100 0.533200
16.837600 0.522500
16.883200 0.525900
16.928700 0.538600
16.974300 0.561500
17.019800 0.588000
17.065400 0.630600
17.110900 0.663500
17.156500 0.703300
17.202000 0.763700
17.247600 0.844500
17.293100 0.967200
17.338700 0.977000
17.384200 0.982400
17.429800 0.973000
17.475300 1.019900
17.520900 0.905300
17.566400 0.846200
17.612000 0.827900
17.657500 0.814700
17.703100 0.794100
17.748600 0.786800
17.794200 0.794500
17.839700 0.763900
17.885300 0.761900
17.930800 0.780300
17.976400 0.811800
18.021900 0.835000
18.067500 0.892300
18.113000 0.941700
18.158600 0.976100
18.204100 1.025400
18.249700 0.975600
18.295200 0.901500
18.340800 0.903100
18.386300 0.906900
18.431900 0.911600
18.477400 0.918100
18.523000 0.937100
18.568500 0.961000
18.614100 0.962500
18.659600 0.973000
18.705200 0.981900
18.750700 1.051700
18.796300 1.081700
18.841800 1.103100
18.887400 1.117100
18.932900 1.136000
18.978500 1.171700
19.024000 1.186600
19.069600 1.189300
19.115100 1.037900
19.160700 1.011700
19.206200 1.012200
19.251800 0.984100
19.297300 1.158500
19.342900 1.370100
19.388400 1.177100
19.434000 1.218600
19.479500 1.296900
19.525100 1.248300
19.570600 1.238200
19.616200 1.226200
19.661700 0.979900
19.707300 0.957700
19.752800 0.954900
19.798400 0.955000
19.843900 0.936100
19.889500 0.935900
19.935000 0.913500
19.980600 0.901700
20.026200 0.899200
20.071700 0.907800
20.117300 1.040700
20.162800 1.092000
20.208400 1.122000
20.253900 1.149700
20.299500 1.160400
20.345000 1.170200
20.390600 1.175600
20.436100 1.202000
20.481700 1.257400
20.527200 1.041500
20.572800 0.919500
20.618300 0.942300
20.663900 0.979500
20.709400 0.911000
20.755000 0.854500
20.800500 0.803700
20.846100 0.847500
20.891600 0.958700
20.937200 0.958100
20.982700 0.899100
21.028300 0.847700
21.073800 0.805600
21.119400 0.539500
21.164900 0.539700
21.210500 0.548000
21.256000 0.561700
21.301600 0.578300
21.347100 0.613800
21.392700 0.656100
21.438200 0.675900
21.483800 0.716500
21.529300 0.748500
21.574900 0.769200
21.620400 0.783500
21.666000 0.779000
21.711500 0.772100
21.757100 0.783200
21.802600 0.772100
21.848200 0.730800
21.893700 0.720500
21.939300 0.733900
21.984800 0.745700
22.030400 0.739800
22.075900 0.715600
22.121500 0.719700
22.167000 0.711500
22.212600 0.762900
22.258100 0.839700
22.303700 0.718300
22.349200 0.683800
22.394800 0.647900
22.440300 0.620200
22.485900 0.603100
22.531400 0.523700
22.577000 0.462900
22.622500 0.427100
22.668100 0.417000
22.713600 0.424900
22.759200 0.450800
22.804700 0.476200
22.850300 0.502000
22.895800 0.522400
22.941400 0.584700
22.986900 0.667900
23.032500 0.746500
23.078000 0.771200
23.123600 0.806500
23.169100 0.851100
23.214700 0.883700
23.260200 0.889400
23.305800 0.916500
23.351300 0.945100
23.396900 1.033500
23.442400 1.049500
23.488000 0.961900
23.533500 0.899700
23.579100 0.912100
23.624600 0.923100
23.670200 0.944600
23.715700 1.019800
23.761300 1.178400
23.806800 1.308200
23.852400 1.341100
23.897900 1.319300
23.943500 1.488100
23.989000 1.345600
24.034600 1.362900
24.080100 1.291500
24.125700 1.274500
24.171200 1.161700
24.216800 1.051600
24.262300 0.983600
24.307900 0.889100
24.353400 0.829900
24.399000 0.793100
24.444500 0.719800
24.490100 0.684400
24.535600 0.662700
24.581200 0.627700
24.626700 0.612000
24.672300 0.620300
24.717800 0.668100
24.763400 0.763500
24.808900 0.732400
24.854500 0.721000
24.900000 0.695400
24.945600 0.728900
24.991100 0.795400
25.036700 0.869800
25.082200 0.952100
25.127800 0.965800
25.173300 0.969400
25.218900 0.991000
25.264500 0.991200
25.310000 0.932800
25.355600 0.909800
25.401100 0.917600
25.446700 0.940700
25.492200 0.999000
25.537800 1.137300
25.583300 1.326700
25.628900 1.722600
25.674400 2.512600
25.720000 6.201300
25.765500 2.604300
25.811100 2.211100
25.856600 1.827800
25.902200 1.489300
25.947700 1.322800
25.993300 1.263800
26.038800 1.289700
26.084400 1.327300
26.129900 1.131300
26.175500 0.986800
26.221000 0.968900
26.266600 0.982100
26.312100 1.012600
26.357700 1.080900
26.403200 1.162500
26.448800 1.209700
26.494300 1.193600
26.539900 1.222400
26.585400 1.229800
26.631000 1.189200
26.676500 1.219300
26.722100 1.216300
26.767600 1.093500
26.813200 1.055500
26.858700 0.968000
26.904300 0.916400
26.949800 0.874900
26.995400 0.854300
27.040900 0.839400
27.086500 0.828000
27.132000 0.728800
27.177600 0.692700
27.223100 0.671700
27.268700 0.695200
27.314200 0.766200
27.359800 0.843100
27.405300 0.893700
27.450900 0.910800
27.496400 0.917300
27.542000 0.938500
27.587500 0.946200
27.633100 1.032300
27.678600 1.035900
27.724200 0.918900
27.769700 0.835700
27.815300 0.776600
27.860800 0.769100
27.906400 0.785900
27.951900 0.792000
27.997500 0.810800
28.043000 0.879900
28.088600 0.901900
28.134100 0.882300
28.179700 0.904300
28.225200 0.915400
28.270800 0.967500
28.316300 1.039500
28.361900 0.943200
28.407400 0.921200
28.453000 0.945600
28.498500 0.947800
28.544100 0.953500
28.589600 0.964000
28.635200 0.973600
28.680700 0.954500
28.726300 0.963500
28.771800 0.916500
28.817400 0.917200
28.862900 0.938000
28.908500 0.945700
28.954000 0.935600
28.999600 0.926700
29.045100 0.942900
29.090700 0.964500
29.136200 1.014600
29.181800 1.051600
29.227300 1.027800
29.272900 1.063000
29.318400 1.021400
29.364000 1.041100
29.409500 1.096200
29.455100 1.105500
29.500600 1.098200
29.546200 1.093200
29.591700 1.123400
29.637300 1.231100
29.682800 1.443400
29.728400 1.451800
29.773900 1.411600
29.819500 1.397100
29.865000 1.435900
29.910600 1.349400
29.956100 1.205200
30.001700 1.214200
30.047200 1.212000
30.092800 1.188500
30.138300 1.202400
30.183900 1.190800
30.229400 1.252900
30.275000 1.381300
30.320500 1.274200
30.366100 1.238800
30.411600 1.201100
30.457200 1.174400
30.502700 1.192700
30.548300 1.220700
30.593900 1.201300
30.639400 1.212400
30.685000 1.143300
30.730500 1.123300
30.776100 1.088200
30.821600 1.047700
30.867200 0.984900
30.912700 0.925100
30.958300 0.907900
31.003800 0.932300
31.049400 0.973700
31.094900 0.955300
31.140500 1.063100
31.186000 0.977200
31.231600 0.976700
31.277100 0.989700
31.322700 1.006600
31.368200 1.017000
31.413800 1.093000
31.459300 0.967300
31.504900 0.963300
31.550400 0.974700
31.596000 0.912600
31.641500 0.922000
31.687100 0.946300
31.732600 1.019500
31.778200 1.122300
31.823700 1.112400
31.869300 1.156700
31.914800 1.158900
31.960400 1.165400
32.005900 1.194400
32.051500 1.214700
32.097000 1.240500
32.142600 1.288100
32.188100 1.298900
32.233700 1.271200
32.279200 1.385600
32.324800 1.444500
32.370300 1.402900
32.415900 1.252000
32.461400 1.305500
32.507000 1.319200
32.552500 1.264600
32.598100 1.280900
32.643600 1.304500
32.689200 1.406300
32.734700 1.626100
32.780300 1.588400
32.825800 1.605700
32.871400 1.553500
32.916900 1.438200
32.962500 1.302200
33.008000 1.198100
33.053600 1.113400
33.099100 1.084800
33.144700 1.059600
33.190200 1.148900
33.235800 1.187400
33.281300 1.116600
33.326900 1.055400
33.372400 1.025100
33.418000 0.998700
33.463500 0.975100
33.509100 0.984000
33.554600 0.983300
33.600200 1.029900
33.645700 1.125200
33.691300 1.104000
33.736800 0.993700
33.782400 0.919200
33.827900 0.904400
33.873500 0.888600
33.919000 0.820900
33.964600 0.817200
34.010100 0.866200
34.055700 0.913700
34.101200 1.018000
34.146800 1.092200
34.192300 1.130200
34.237900 1.195400
34.283400 1.368300
34.329000 1.392900
34.374500 1.398800
34.420100 1.418100
34.465600 1.424100
34.511200 1.384100
34.556700 1.344100
34.602300 1.330400
34.647800 1.234200
34.693400 1.128800
34.738900 1.075700
34.784500 1.012500
34.830000 0.985200
34.875600 1.044500
34.921100 1.099500
34.966700 1.157600
35.012200 1.148800
35.057800 1.110300
35.103300 1.119600
35.148900 1.093600
35.194400 1.069600
35.240000 1.061100
35.285500 1.071600
35.331100 1.126900
35.376600 1.205700
35.422200 1.234100
35.467700 1.228000
35.513300 1.235900
35.558800 1.287000
35.604400 1.241500
35.649900 1.243000
35.695500 1.306800
35.741000 1.379800
35.786600 1.450700
35.832100 1.396400
35.877700 1.362300
35.923300 1.337800
35.968800 1.282300
36.014400 1.283800
36.059900 1.288100
36.105500 1.296500
36.151000 1.320100
36.196600 1.365900
36.242100 1.441600
36.287700 1.404400
36.333200 1.463600
36.378800 1.509900
36.424300 1.465700
36.469900 1.457000
36.515400 1.420600
36.561000 1.349000
36.606500 1.271600
36.652100 1.225400
36.697600 1.206300
36.743200 1.217300
36.788700 1.302500
36.834300 1.406900
36.879800 1.403300
36.925400 1.436600
36.970900 1.498000
37.016500 1.576600
37.062000 1.596600
37.107600 1.564900
37.153100 1.506700
37.198700 1.445500
37.244200 1.360200
37.289800 1.411600
37.335300 1.490900
37.380900 1.476300
37.426400 1.448000
37.472000 1.424900
37.517500 1.433500
37.563100 1.236800
37.608600 1.151100
37.654200 1.085200
37.699700 1.028000
37.745300 0.978800
37.790800 0.945900
37.836400 0.921800
37.881900 0.893100
37.927500 0.959800
37.973000 0.903200
38.018600 0.903300
38.064100 0.920700
38.109700 0.948400
38.155200 0.975100
38.200800 0.976400
38.246300 1.000600
38.291900 1.035000
38.337400 1.023900
38.383000 1.013900
38.428500 1.016000
38.474100 1.025800
38.519600 1.047900
38.565200 1.070200
38.610700 1.038600
38.656300 0.987300
38.701800 0.925700
38.747400 0.863500
38.792900 0.827300
38.838500 0.800400
38.884000 0.781400
38.929600 0.776200
38.975100 0.773400
39.020700 0.771800
39.066200 0.774000
39.111800 0.788700
39.157300 0.804000
39.202900 0.802000
39.248400 0.804600
39.294000 0.789300
39.339500 0.774900
39.385100 0.776200
39.430600 0.783600
39.476200 0.794400
39.521700 0.798900
39.567300 0.773400
39.612800 0.750000
39.658400 0.736700
39.703900 0.709600
39.749500 0.684800
39.795000 0.670700
39.840600 0.663200
39.886100 0.662900
39.931700 0.715700
39.977200 0.751800
40.022800 0.729600
40.068300 0.701700
40.113900 0.710700
40.159400 0.725700
40.205000 0.735500
40.250500 0.751200
40.296100 0.686300
40.341600 0.684800
40.387200 0.661800
40.432700 0.686800
40.478300 0.678900
40.523800 0.684400
40.569400 0.681500
40.614900 0.662200
40.660500 0.609900
40.706000 0.573600
40.751600 0.563100
40.797100 0.577100
40.842700 0.542200
40.888200 0.530000
40.933800 0.550500
40.979300 0.622000
41.024900 0.656000
41.070400 0.717400
41.116000 0.686300
41.161600 0.553900
41.207100 0.475100
41.252700 0.399400
41.298200 0.405100
41.343800 0.356100
41.389300 0.262300
41.434900 0.166800
41.480400 0.093600
41.526000 0.067800
41.571500 0.051500
41.617100 0.036900
41.662600 0.018500
41.708200 0.000000
41.753700 0.000000
41.799300 0.000000
41.844800 0.000000
41.890400 0.000000
41.935900 0.000000
41.981500 0.000000
42.027000 0.000000
42.072600 0.000000
42.118100 0.000000
42.163700 0.000000
42.209200 0.000000
42.254800 0.000000
42.300300 0.000000
42.345900 0.000000
42.391400 0.000000
42.437000 0.000000
42.482500 0.000000
42.528100 0.000000
42.573600 0.000000
42.619200 0.000000
42.664700 0.000000
42.710300 0.000000
42.755800 0.000000
42.801400 0.000000
42.846900 0.000000
42.892500 0.000000
42.938000 0.000000
42.983600 0.000000
43.029100 0.000000
43.074700 0.000000
43.120200 0.000000
43.165800 0.000000
43.211300 0.000000
43.256900 0.000000
43.302400 0.000000
43.348000 0.000000
43.393500 0.000000
43.439100 0.000000
43.484600 0.000000
43.530200 0.000000
43.575700 0.000000
43.621300 0.000000
43.666800 0.000000
43.712400 0.000000
43.757900 0.000000
43.803500 0.000000
43.849000 0.000000
43.894600 0.000000
43.940100 0.000000
43.985700 0.000000
44.031200 0.000000
44.076800 0.000000
44.122300 0.000000
44.167900 0.000000
44.213400 0.000000
44.259000 0.000000
44.304500 0.000000
44.350100 0.000000
44.395600 0.000000
44.441200 0.000000
44.486700 0.000000
44.532300 0.000000
44.577800 0.000000
44.623400 0.000000
44.668900 0.000000
44.714500 0.000000
44.760000 0.000000
44.805600 0.000000
44.851100 0.000000
44.896700 0.000000
44.942200 0.000000
44.987800 0.000000
45.033300 0.000000
45.078900 0.000000
45.124400 0.000000
45.170000 0.000000
45.215500 0.000000
45.261100 0.000000
45.306600 0.000000
45.352200 0.000000
45.397700 0.000000
45.443300 0.000000
45.488800 0.000000
45.534400 0.000000
45.579900 0.000000
45.625500 0.000000
45.671000 0.000000
45.716600 0.000000
45.762100 0.000000
45.807700 0.000000
45.853200 0.000000
45.898800 0.000000
45.944300 0.000000
45.989900 0.000000
46.035400 0.000000
46.081000 0.000000
e
