set title 'mp-647489 - Density of States'
set xlabel 'Energy (eV)'
set ylabel 'DOS (states/eV)'
set grid
set xrange [-10:10]
set yrange [0:933.257]
set xzeroaxis lt -1
set terminal png size 800,600
set output 'mp-647489_dos_gnuplot.png'
plot '-' using 1:2 with lines title 'DOS'
-11.943700 0.000000
-11.930800 0.000000
-11.917800 0.000000
-11.904800 0.000000
-11.891900 0.000000
-11.878900 0.000000
-11.865900 0.000000
-11.853000 0.000000
-11.840000 0.000000
-11.827000 0.000000
-11.814100 0.000000
-11.801100 0.000000
-11.788200 0.000000
-11.775200 0.000000
-11.762200 0.000000
-11.749300 0.000000
-11.736300 0.000000
-11.723300 0.000000
-11.710400 0.000000
-11.697400 0.000000
-11.684400 0.000000
-11.671500 0.000000
-11.658500 0.000000
-11.645500 0.000000
-11.632600 0.000000
-11.619600 0.000000
-11.606600 0.000000
-11.593700 0.000000
-11.580700 0.000000
-11.567700 0.000000
-11.554800 0.000000
-11.541800 0.000000
-11.528800 0.000000
-11.515900 0.000000
-11.502900 0.000000
-11.490000 0.000000
-11.477000 0.000000
-11.464000 0.000000
-11.451100 0.000000
-11.438100 0.000000
-11.425100 0.000000
-11.412200 0.000000
-11.399200 0.000000
-11.386200 0.000000
-11.373300 0.000000
-11.360300 0.000000
-11.347300 0.000000
-11.334400 0.000000
-11.321400 0.000000
-11.308400 0.000000
-11.295500 0.000000
-11.282500 0.000000
-11.269500 0.000000
-11.256600 0.000000
-11.243600 0.000000
-11.230700 0.000000
-11.217700 0.000000
-11.204700 0.000000
-11.191800 0.000000
-11.178800 0.000000
-11.165800 0.000000
-11.152900 0.000000
-11.139900 0.000000
-11.126900 0.000000
-11.114000 0.000000
-11.101000 0.000000
-11.088000 0.000000
-11.075100 0.000000
-11.062100 0.000000
-11.049100 0.000000
-11.036200 0.000000
-11.023200 0.000000
-11.010200 0.000000
-10.997300 0.000000
-10.984300 0.000000
-10.971400 0.000000
-10.958400 0.000000
-10.945400 0.000000
-10.932500 0.000000
-10.919500 0.000000
-10.906500 0.000000
-10.893600 0.000000
-10.880600 0.000000
-10.867600 0.000000
-10.854700 0.000000
-10.841700 0.000000
-10.828700 0.000000
-10.815800 0.000000
-10.802800 0.000000
-10.789800 0.000000
-10.776900 0.000000
-10.763900 0.042600
-10.750900 0.684000
-10.738000 2.109200
-10.725000 3.534300
-10.712100 5.875200
-10.699100 8.300100
-10.686100 11.537300
-10.673200 13.441700
-10.660200 13.235700
-10.647200 15.470500
-10.634300 14.481800
-10.621300 15.858900
-10.608300 13.980100
-10.595400 14.470000
-10.582400 14.959900
-10.569400 15.449900
-10.556500 15.939800
-10.543500 16.429700
-10.530500 16.939900
-10.517600 17.507600
-10.504600 18.093000
-10.491600 18.739800
-10.478700 19.433300
-10.465700 20.184800
-10.452800 20.935700
-10.439800 21.676700
-10.426800 22.410900
-10.413900 23.128500
-10.400900 23.846100
-10.387900 24.563700
-10.375000 25.281300
-10.362000 25.998900
-10.349000 26.716500
-10.336100 29.275300
-10.323100 32.678700
-10.310100 50.820900
-10.297200 60.233200
-10.284200 81.006400
-10.271200 111.994200
-10.258300 113.603700
-10.245300 119.119900
-10.232300 131.404600
-10.219400 204.528000
-10.206400 200.688900
-10.193400 208.058800
-10.180500 152.059200
-10.167500 0.000000
-10.154600 0.000000
-10.141600 0.000000
-10.128600 0.000000
-10.115700 0.000000
-10.102700 0.000000
-10.089700 0.000000
-10.076800 0.000000
-10.063800 0.000000
-10.050800 0.000000
-10.037900 0.000000
-10.024900 0.000000
-10.011900 0.000000
-9.999000 0.000000
-9.986000 0.000000
-9.973000 0.000000
-9.960100 0.000000
-9.947100 0.000000
-9.934100 0.000000
-9.921200 0.000000
-9.908200 0.000000
-9.895300 0.000000
-9.882300 0.000000
-9.869300 0.000000
-9.856400 0.000000
-9.843400 0.000000
-9.830400 0.000000
-9.817500 0.000000
-9.804500 0.000000
-9.791500 0.000000
-9.778600 0.000000
-9.765600 0.000000
-9.752600 0.000000
-9.739700 0.000000
-9.726700 0.000000
-9.713700 0.000000
-9.700800 0.000000
-9.687800 0.000000
-9.674800 0.000000
-9.661900 0.000000
-9.648900 0.000000
-9.636000 0.000000
-9.623000 0.000000
-9.610000 0.000000
-9.597100 0.000000
-9.584100 0.000000
-9.571100 0.000000
-9.558200 0.000000
-9.545200 0.000000
-9.532200 0.000000
-9.519300 0.000000
-9.506300 0.000000
-9.493300 0.000000
-9.480400 0.000000
-9.467400 0.000000
-9.454400 0.000000
-9.441500 0.000000
-9.428500 0.000000
-9.415500 0.000000
-9.402600 0.000000
-9.389600 0.000000
-9.376700 0.000000
-9.363700 0.000000
-9.350700 0.000000
-9.337800 0.000000
-9.324800 0.000000
-9.311800 0.000000
-9.298900 0.000000
-9.285900 0.000000
-9.272900 0.000000
-9.260000 0.000000
-9.247000 0.000000
-9.234000 0.000000
-9.221100 0.000000
-9.208100 0.000000
-9.195100 0.000000
-9.182200 0.000000
-9.169200 0.000000
-9.156200 0.000000
-9.143300 0.000000
-9.130300 0.000000
-9.117400 0.000000
-9.104400 0.000000
-9.091400 0.000000
-9.078500 0.000000
-9.065500 0.000000
-9.052500 0.000000
-9.039600 0.000000
-9.026600 0.000000
-9.013600 0.000000
-9.000700 0.000000
-8.987700 0.000000
-8.974700 0.000000
-8.961800 0.000000
-8.948800 0.000000
-8.935800 0.000000
-8.922900 0.000000
-8.909900 0.000000
-8.896900 0.000000
-8.884000 0.000000
-8.871000 0.000000
-8.858000 0.000000
-8.845100 0.000000
-8.832100 0.000000
-8.819200 0.000000
-8.806200 0.000000
-8.793200 0.000000
-8.780300 0.000000
-8.767300 0.000000
-8.754300 0.000000
-8.741400 0.000000
-8.728400 0.000000
-8.715400 0.000000
-8.702500 0.000000
-8.689500 0.000000
-8.676500 0.000000
-8.663600 0.000000
-8.650600 0.000000
-8.637600 0.000000
-8.624700 0.000000
-8.611700 0.000000
-8.598700 0.000000
-8.585800 0.000000
-8.572800 0.000000
-8.559900 0.000000
-8.546900 0.000000
-8.533900 0.000000
-8.521000 0.000000
-8.508000 0.000000
-8.495000 0.000000
-8.482100 0.000000
-8.469100 0.000000
-8.456100 0.000000
-8.443200 0.000000
-8.430200 0.000000
-8.417200 0.000000
-8.404300 0.000000
-8.391300 0.000000
-8.378300 0.000000
-8.365400 0.000000
-8.352400 0.000000
-8.339400 0.000000
-8.326500 0.000000
-8.313500 0.000000
-8.300600 0.000000
-8.287600 0.000000
-8.274600 0.000000
-8.261700 0.000000
-8.248700 0.000000
-8.235700 0.000000
-8.222800 0.000000
-8.209800 0.000000
-8.196800 0.000000
-8.183900 0.000000
-8.170900 0.000000
-8.157900 0.000000
-8.145000 0.000000
-8.132000 0.000000
-8.119000 0.000000
-8.106100 0.000000
-8.093100 0.000000
-8.080100 0.000000
-8.067200 0.000000
-8.054200 0.000000
-8.041300 0.000000
-8.028300 0.000000
-8.015300 0.000000
-8.002400 0.000000
-7.989400 0.000000
-7.976400 0.000000
-7.963500 0.000000
-7.950500 0.000000
-7.937500 0.000000
-7.924600 0.000000
-7.911600 0.000000
-7.898600 0.000000
-7.885700 0.000000
-7.872700 0.000000
-7.859700 0.000000
-7.846800 0.000000
-7.833800 0.000000
-7.820800 0.000000
-7.807900 0.000000
-7.794900 0.000000
-7.782000 0.000000
-7.769000 0.000000
-7.756000 0.000000
-7.743100 0.000000
-7.730100 0.000000
-7.717100 0.000000
-7.704200 0.000000
-7.691200 0.000000
-7.678200 0.000000
-7.665300 0.000000
-7.652300 0.000000
-7.639300 0.000000
-7.626400 0.000000
-7.613400 0.000000
-7.600400 0.000000
-7.587500 0.000000
-7.574500 0.000000
-7.561500 0.000000
-7.548600 0.000000
-7.535600 0.000000
-7.522600 0.000000
-7.509700 0.000000
-7.496700 0.000000
-7.483800 0.000000
-7.470800 0.000000
-7.457800 0.000000
-7.444900 0.000000
-7.431900 0.000000
-7.418900 0.000000
-7.406000 0.000000
-7.393000 0.000000
-7.380000 0.000000
-7.367100 0.000000
-7.354100 0.000000
-7.341100 0.000000
-7.328200 0.000000
-7.315200 0.000000
-7.302200 0.000000
-7.289300 0.000000
-7.276300 0.000000
-7.263300 0.000000
-7.250400 0.000000
-7.237400 0.000000
-7.224500 0.000000
-7.211500 0.000000
-7.198500 0.000000
-7.185600 0.000000
-7.172600 0.000000
-7.159600 0.000000
-7.146700 0.000000
-7.133700 0.000000
-7.120700 0.000000
-7.107800 0.000000
-7.094800 0.000000
-7.081800 0.000000
-7.068900 0.000000
-7.055900 0.000000
-7.042900 0.000000
-7.030000 0.000000
-7.017000 0.000000
-7.004000 0.000000
-6.991100 0.000000
-6.978100 0.000000
-6.965200 0.000000
-6.952200 0.000000
-6.939200 0.000000
-6.926300 0.000000
-6.913300 0.000000
-6.900300 0.000000
-6.887400 0.000000
-6.874400 0.000000
-6.861400 0.000000
-6.848500 0.000000
-6.835500 0.000000
-6.822500 0.000000
-6.809600 0.000000
-6.796600 0.000000
-6.783600 0.000000
-6.770700 0.000000
-6.757700 0.000000
-6.744700 0.000000
-6.731800 0.000000
-6.718800 0.000000
-6.705900 0.000000
-6.692900 0.000000
-6.679900 0.000000
-6.667000 0.000000
-6.654000 0.000000
-6.641000 0.000000
-6.628100 0.000000
-6.615100 0.000000
-6.602100 0.000000
-6.589200 0.000000
-6.576200 0.000000
-6.563200 0.000000
-6.550300 0.000000
-6.537300 0.000000
-6.524300 0.000000
-6.511400 0.000000
-6.498400 0.000000
-6.485400 1.245100
-6.472500 121.838400
-6.459500 211.900500
-6.446600 333.351200
-6.433600 220.082900
-6.420600 118.098700
-6.407700 110.236900
-6.394700 104.184400
-6.381700 326.245900
-6.368800 349.136300
-6.355800 264.521700
-6.342800 170.038700
-6.329900 117.990400
-6.316900 796.026900
-6.303900 848.415400
-6.291000 215.558800
-6.278000 593.428600
-6.265000 116.672200
-6.252100 218.196000
-6.239100 115.092600
-6.226100 98.637800
-6.213200 82.183000
-6.200200 188.846100
-6.187300 0.000000
-6.174300 0.000000
-6.161300 0.000000
-6.148400 0.000000
-6.135400 0.000000
-6.122400 0.000000
-6.109500 0.000000
-6.096500 0.000000
-6.083500 0.000000
-6.070600 0.000000
-6.057600 0.000000
-6.044600 0.000000
-6.031700 0.000000
-6.018700 0.000000
-6.005700 0.000000
-5.992800 0.000000
-5.979800 0.000000
-5.966800 0.000000
-5.953900 0.000000
-5.940900 0.000000
-5.927900 0.000000
-5.915000 0.000000
-5.902000 0.000000
-5.889100 0.000000
-5.876100 0.000000
-5.863100 0.000000
-5.850200 0.000000
-5.837200 0.000000
-5.824200 0.000000
-5.811300 0.000000
-5.798300 0.000000
-5.785300 0.000000
-5.772400 0.000000
-5.759400 0.000000
-5.746400 0.000000
-5.733500 0.000000
-5.720500 0.000000
-5.707500 0.000000
-5.694600 0.000000
-5.681600 0.000000
-5.668600 0.000000
-5.655700 0.000000
-5.642700 0.000000
-5.629800 0.000000
-5.616800 0.000000
-5.603800 0.000000
-5.590900 0.000000
-5.577900 0.000000
-5.564900 0.000000
-5.552000 0.000000
-5.539000 0.000000
-5.526000 0.000000
-5.513100 0.000000
-5.500100 0.000000
-5.487100 0.000000
-5.474200 0.000000
-5.461200 0.000000
-5.448200 0.000000
-5.435300 0.000000
-5.422300 0.000000
-5.409300 0.000000
-5.396400 0.000000
-5.383400 0.000000
-5.370500 0.000000
-5.357500 0.000000
-5.344500 0.000000
-5.331600 0.000000
-5.318600 0.000000
-5.305600 0.000000
-5.292700 0.000000
-5.279700 0.000000
-5.266700 0.000000
-5.253800 0.000000
-5.240800 0.000000
-5.227800 0.000000
-5.214900 0.000000
-5.201900 0.000000
-5.188900 0.000000
-5.176000 0.000000
-5.163000 0.000000
-5.150000 0.000000
-5.137100 0.000000
-5.124100 0.000000
-5.111200 0.000000
-5.098200 0.000000
-5.085200 0.000000
-5.072300 0.000000
-5.059300 0.000000
-5.046300 0.000000
-5.033400 0.000000
-5.020400 0.000000
-5.007400 0.000000
-4.994500 0.000000
-4.981500 0.000000
-4.968500 0.000000
-4.955600 0.000000
-4.942600 0.000000
-4.929600 0.000000
-4.916700 0.000000
-4.903700 0.000000
-4.890700 0.000000
-4.877800 0.000000
-4.864800 0.000000
-4.851900 0.000000
-4.838900 0.000000
-4.825900 0.000000
-4.813000 0.000000
-4.800000 0.000000
-4.787000 0.000000
-4.774100 0.000000
-4.761100 0.000000
-4.748100 0.000000
-4.735200 0.000000
-4.722200 0.000000
-4.709200 0.000000
-4.696300 0.000000
-4.683300 0.000000
-4.670300 0.000000
-4.657400 0.000000
-4.644400 0.000000
-4.631400 0.000000
-4.618500 0.000000
-4.605500 0.000000
-4.592500 0.000000
-4.579600 0.000000
-4.566600 0.000000
-4.553700 0.000000
-4.540700 0.000000
-4.527700 0.000000
-4.514800 0.000000
-4.501800 0.000000
-4.488800 0.000000
-4.475900 0.000000
-4.462900 0.000000
-4.449900 0.000000
-4.437000 0.000000
-4.424000 0.000000
-4.411000 0.000000
-4.398100 0.000000
-4.385100 0.000000
-4.372100 0.000000
-4.359200 0.000000
-4.346200 0.000000
-4.333200 0.000000
-4.320300 0.000000
-4.307300 0.000000
-4.294400 0.000000
-4.281400 0.000000
-4.268400 0.000000
-4.255500 0.000000
-4.242500 0.000000
-4.229500 0.000000
-4.216600 0.000000
-4.203600 0.000000
-4.190600 0.000000
-4.177700 0.000000
-4.164700 0.000000
-4.151700 0.000000
-4.138800 0.000000
-4.125800 0.000000
-4.112800 0.000000
-4.099900 0.000000
-4.086900 0.000000
-4.073900 0.000000
-4.061000 0.000000
-4.048000 0.000000
-4.035100 0.000000
-4.022100 0.000000
-4.009100 0.000000
-3.996200 0.000000
-3.983200 0.000000
-3.970200 0.000000
-3.957300 0.000000
-3.944300 0.000000
-3.931300 0.000000
-3.918400 0.000000
-3.905400 0.000000
-3.892400 0.000000
-3.879500 0.000000
-3.866500 0.000000
-3.853500 0.000000
-3.840600 0.000000
-3.827600 0.000000
-3.814600 0.000000
-3.801700 0.000000
-3.788700 0.000000
-3.775800 0.000000
-3.762800 0.000000
-3.749800 0.000000
-3.736900 0.000000
-3.723900 0.000000
-3.710900 0.000000
-3.698000 0.000000
-3.685000 0.000000
-3.672000 0.000000
-3.659100 0.000000
-3.646100 0.000000
-3.633100 0.000000
-3.620200 0.000000
-3.607200 0.000000
-3.594200 0.000000
-3.581300 0.000000
-3.568300 0.000000
-3.555300 0.000000
-3.542400 0.000000
-3.529400 0.000000
-3.516500 0.000000
-3.503500 0.000000
-3.490500 0.000000
-3.477600 0.000000
-3.464600 0.000000
-3.451600 0.000000
-3.438700 0.000000
-3.425700 0.000000
-3.412700 0.000000
-3.399800 0.000000
-3.386800 0.000000
-3.373800 0.000000
-3.360900 0.000000
-3.347900 0.000000
-3.334900 0.000000
-3.322000 0.000000
-3.309000 0.000000
-3.296000 0.000000
-3.283100 0.000000
-3.270100 0.000000
-3.257100 0.000000
-3.244200 0.000000
-3.231200 0.000000
-3.218300 0.000000
-3.205300 0.000000
-3.192300 0.000000
-3.179400 0.000000
-3.166400 0.000000
-3.153400 0.000000
-3.140500 0.000000
-3.127500 0.000000
-3.114500 0.000000
-3.101600 0.000000
-3.088600 0.000000
-3.075600 0.000000
-3.062700 0.000000
-3.049700 0.000000
-3.036700 0.000000
-3.023800 0.000000
-3.010800 0.000000
-2.997800 0.000000
-2.984900 0.000000
-2.971900 0.000000
-2.959000 0.000000
-2.946000 0.000000
-2.933000 0.000000
-2.920100 0.000000
-2.907100 0.000000
-2.894100 0.000000
-2.881200 0.000000
-2.868200 0.000000
-2.855200 0.000000
-2.842300 0.000000
-2.829300 0.000000
-2.816300 0.000000
-2.803400 0.000000
-2.790400 0.000000
-2.777400 0.000000
-2.764500 0.000000
-2.751500 0.000000
-2.738500 0.000000
-2.725600 0.000000
-2.712600 0.000000
-2.699700 0.000000
-2.686700 0.000000
-2.673700 0.000000
-2.660800 0.000000
-2.647800 0.000000
-2.634800 0.000000
-2.621900 0.000000
-2.608900 0.000000
-2.595900 0.000000
-2.583000 0.000000
-2.570000 0.000000
-2.557000 0.000000
-2.544100 0.000000
-2.531100 13.754500
-2.518100 15.789900
-2.505200 24.401600
-2.492200 51.355400
-2.479200 46.231100
-2.466300 46.126900
-2.453300 48.984500
-2.440400 46.517800
-2.427400 42.534100
-2.414400 36.797600
-2.401500 36.038800
-2.388500 35.280000
-2.375500 29.393200
-2.362600 26.862500
-2.349600 24.221100
-2.336600 22.322000
-2.323700 20.431900
-2.310700 18.916800
-2.297700 18.827700
-2.284800 18.931500
-2.271800 19.769300
-2.258800 20.607100
-2.245900 21.445000
-2.232900 28.131100
-2.219900 31.617200
-2.207000 33.085100
-2.194000 34.711300
-2.181100 47.946000
-2.168100 17.059100
-2.155100 11.127300
-2.142200 11.424100
-2.129200 11.720900
-2.116200 11.758500
-2.103300 11.711700
-2.090300 11.664600
-2.077300 11.617300
-2.064400 11.570000
-2.051400 4.085200
-2.038400 3.994100
-2.025500 3.902900
-2.012500 3.811700
-1.999500 3.720500
-1.986600 3.629400
-1.973600 3.538200
-1.960600 3.447000
-1.947700 9.546200
-1.934700 6.883500
-1.921700 4.220900
-1.908800 1.558200
-1.895800 0.000000
-1.882900 0.000000
-1.869900 0.000000
-1.856900 0.000000
-1.844000 0.000000
-1.831000 0.000000
-1.818000 0.000000
-1.805100 0.000000
-1.792100 0.000000
-1.779100 0.000000
-1.766200 0.000000
-1.753200 0.000000
-1.740200 0.000000
-1.727300 0.000000
-1.714300 0.000000
-1.701300 0.000000
-1.688400 0.000000
-1.675400 0.000000
-1.662400 0.000000
-1.649500 0.000000
-1.636500 0.000000
-1.623600 5.951100
-1.610600 9.883800
-1.597600 7.229100
-1.584700 9.975400
-1.571700 7.695000
-1.558700 6.323900
-1.545800 11.341100
-1.532800 10.218100
-1.519800 9.095100
-1.506900 9.070200
-1.493900 14.416800
-1.480900 18.780700
-1.468000 22.864800
-1.455000 19.225800
-1.442000 17.629800
-1.429100 17.452200
-1.416100 18.130400
-1.403100 18.808700
-1.390200 19.486900
-1.377200 20.165100
-1.364300 20.843400
-1.351300 21.521600
-1.338300 31.160300
-1.325400 17.301500
-1.312400 17.724600
-1.299400 25.889200
-1.286500 16.084800
-1.273500 32.636400
-1.260500 13.746700
-1.247600 13.932000
-1.234600 14.117300
-1.221600 14.302600
-1.208700 18.974000
-1.195700 28.556200
-1.182700 9.775700
-1.169800 17.123300
-1.156800 13.775100
-1.143800 10.426900
-1.130900 7.550200
-1.117900 7.456000
-1.105000 8.543300
-1.092000 8.533400
-1.079000 8.531200
-1.066100 9.165000
-1.053100 9.210400
-1.040100 9.894000
-1.027200 9.974900
-1.014200 10.055800
-1.001200 11.516500
-0.988300 12.323500
-0.975300 12.488700
-0.962300 12.653800
-0.949400 12.819000
-0.936400 12.984100
-0.923400 13.144100
-0.910500 13.303700
-0.897500 13.463400
-0.884500 13.618600
-0.871600 13.766800
-0.858600 13.908400
-0.845700 14.040200
-0.832700 14.171900
-0.819700 14.303600
-0.806800 14.435400
-0.793800 14.567100
-0.780800 14.698900
-0.767900 14.830600
-0.754900 14.962400
-0.741900 15.094100
-0.729000 15.964700
-0.716000 16.509200
-0.703000 17.053700
-0.690100 18.351100
-0.677100 19.777700
-0.664100 23.164100
-0.651200 24.370200
-0.638200 24.741500
-0.625200 26.343700
-0.612300 26.820700
-0.599300 28.526300
-0.586300 29.436600
-0.573400 29.870800
-0.560400 30.837200
-0.547500 31.756100
-0.534500 32.046700
-0.521500 33.976000
-0.508600 34.614200
-0.495600 33.251300
-0.482600 31.831000
-0.469700 31.754500
-0.456700 31.755600
-0.443700 31.607700
-0.430800 31.470400
-0.417800 31.546900
-0.404800 31.676700
-0.391900 31.907200
-0.378900 32.210900
-0.365900 31.602300
-0.353000 32.036900
-0.340000 32.541400
-0.327000 33.485200
-0.314100 33.760000
-0.301100 34.550600
-0.288200 35.341300
-0.275200 36.132000
-0.262200 36.265900
-0.249300 36.663000
-0.236300 35.287000
-0.223300 35.581800
-0.210400 33.622900
-0.197400 30.881200
-0.184400 30.670200
-0.171500 27.383200
-0.158500 32.947400
-0.145500 30.462900
-0.132600 27.978400
-0.119600 25.442800
-0.106600 22.917300
-0.093700 22.049700
-0.080700 21.325400
-0.067700 21.007500
-0.054800 20.354700
-0.041800 19.747800
-0.028900 19.093200
-0.015900 18.480400
-0.002900 17.867600
0.010000 17.269600
0.023000 16.694100
0.036000 16.205600
0.048900 15.721300
0.061900 15.262600
0.074900 14.899000
0.087800 14.535500
0.100800 14.270400
0.113800 14.036500
0.126700 13.802700
0.139700 14.711500
0.152700 14.701100
0.165600 14.690700
0.178600 14.778900
0.191600 15.874400
0.204500 17.272100
0.217500 17.894200
0.230400 18.516300
0.243400 19.138400
0.256400 19.768900
0.269300 20.400700
0.282300 21.032500
0.295300 22.840800
0.308200 26.511600
0.321200 27.038200
0.334200 33.485500
0.347100 33.971800
0.360100 34.298600
0.373100 35.079300
0.386000 35.965000
0.399000 40.504700
0.412000 43.131500
0.424900 44.743200
0.437900 46.141300
0.450900 47.713800
0.463800 48.487300
0.476800 41.402400
0.489700 53.342400
0.502700 57.346000
0.515700 74.743000
0.528600 86.712900
0.541600 47.323100
0.554600 50.673200
0.567500 53.470000
0.580500 48.887400
0.593500 37.308700
0.606400 37.411100
0.619400 38.064300
0.632400 39.337500
0.645300 48.325800
0.658300 44.262100
0.671300 49.150400
0.684200 52.055700
0.697200 67.024200
0.710200 60.096700
0.723100 58.982900
0.736100 51.232900
0.749100 56.585700
0.762000 69.275400
0.775000 56.839800
0.787900 53.308400
0.800900 49.671400
0.813900 47.418400
0.826800 45.365600
0.839800 39.701000
0.852800 36.350700
0.865700 31.521900
0.878700 28.611700
0.891700 25.798000
0.904600 28.159100
0.917600 28.379600
0.930600 21.134100
0.943500 13.498800
0.956500 14.272300
0.969500 47.342000
0.982400 9.336600
0.995400 0.000000
1.008400 0.000000
1.021300 0.000000
1.034300 0.000000
1.047200 0.000000
1.060200 0.000000
1.073200 0.000000
1.086100 0.000000
1.099100 0.000000
1.112100 0.000000
1.125000 0.000000
1.138000 0.000000
1.151000 0.000000
1.163900 0.000000
1.176900 0.000000
1.189900 0.000000
1.202800 0.000000
1.215800 0.000000
1.228800 0.000000
1.241700 0.000000
1.254700 0.000000
1.267700 0.000000
1.280600 0.000000
1.293600 0.000000
1.306500 0.000000
1.319500 0.000000
1.332500 0.000000
1.345400 0.000000
1.358400 0.000000
1.371400 0.000000
1.384300 0.000000
1.397300 0.000000
1.410300 0.000000
1.423200 0.000000
1.436200 0.000000
1.449200 0.000000
1.462100 0.000000
1.475100 0.000000
1.488100 0.000000
1.501000 0.000000
1.514000 0.000000
1.527000 0.000000
1.539900 0.000000
1.552900 0.000000
1.565800 0.000000
1.578800 0.000000
1.591800 0.000000
1.604700 0.000000
1.617700 0.000000
1.630700 0.000000
1.643600 0.000000
1.656600 0.000000
1.669600 0.000000
1.682500 0.000000
1.695500 0.000000
1.708500 0.000000
1.721400 0.000000
1.734400 0.000000
1.747400 0.000000
1.760300 0.000000
1.773300 0.000000
1.786300 0.000000
1.799200 0.000000
1.812200 0.000000
1.825100 0.000000
1.838100 0.000000
1.851100 0.000000
1.864000 0.000000
1.877000 0.000000
1.890000 0.000000
1.902900 0.000000
1.915900 0.000000
1.928900 0.000000
1.941800 0.000000
1.954800 0.000000
1.967800 0.000000
1.980700 0.000000
1.993700 0.000000
2.006700 0.000000
2.019600 0.000000
2.032600 0.000000
2.045600 0.000000
2.058500 0.000000
2.071500 0.000000
2.084500 0.000000
2.097400 0.000000
2.110400 0.000000
2.123300 0.000000
2.136300 0.000000
2.149300 0.000000
2.162200 0.000000
2.175200 0.000000
2.188200 0.000000
2.201100 0.000000
2.214100 0.000000
2.227100 0.000000
2.240000 0.000000
2.253000 0.000000
2.266000 0.000000
2.278900 0.000000
2.291900 0.000000
2.304900 0.000000
2.317800 0.000000
2.330800 0.000000
2.343800 0.000000
2.356700 0.000000
2.369700 0.000000
2.382600 0.000000
2.395600 0.000000
2.408600 0.000000
2.421500 0.000000
2.434500 0.000000
2.447500 0.000000
2.460400 0.000000
2.473400 0.000000
2.486400 0.000000
2.499300 0.000000
2.512300 0.000000
2.525300 0.000000
2.538200 0.000000
2.551200 0.000000
2.564200 0.000000
2.577100 0.000000
2.590100 0.000000
2.603100 0.000000
2.616000 0.000000
2.629000 0.000000
2.641900 0.000000
2.654900 0.000000
2.667900 0.000000
2.680800 0.000000
2.693800 0.000000
2.706800 0.000000
2.719700 0.000000
2.732700 0.000000
2.745700 0.000000
2.758600 0.000000
2.771600 0.000000
2.784600 0.000000
2.797500 0.000000
2.810500 0.000000
2.823500 0.000000
2.836400 0.000000
2.849400 0.000000
2.862400 0.000000
2.875300 0.000000
2.888300 0.000000
2.901200 0.000000
2.914200 0.000000
2.927200 0.000000
2.940100 0.000000
2.953100 0.000000
2.966100 0.000000
2.979000 0.000000
2.992000 0.000000
3.005000 0.000000
3.017900 0.000000
3.030900 0.000000
3.043900 0.000000
3.056800 0.000000
3.069800 0.000000
3.082800 0.000000
3.095700 0.000000
3.108700 0.000000
3.121700 0.000000
3.134600 0.000000
3.147600 0.000000
3.160500 0.000000
3.173500 0.000000
3.186500 0.000000
3.199400 0.000000
3.212400 0.000000
3.225400 0.000000
3.238300 0.000000
3.251300 0.000000
3.264300 0.000000
3.277200 0.000000
3.290200 0.000000
3.303200 0.000000
3.316100 0.000000
3.329100 0.000000
3.342100 0.000000
3.355000 0.000000
3.368000 0.000000
3.381000 0.005700
3.393900 0.015100
3.406900 0.024600
3.419900 0.891800
3.432800 1.796400
3.445800 1.884600
3.458700 1.972800
3.471700 2.060900
3.484700 2.149100
3.497600 3.312700
3.510600 4.427200
3.523600 4.586800
3.536500 4.746300
3.549500 4.915100
3.562500 5.101700
3.575400 5.288400
3.588400 6.703300
3.601400 8.145100
3.614300 8.385500
3.627300 9.983700
3.640300 10.241700
3.653200 10.499700
3.666200 10.757600
3.679200 11.015600
3.692100 11.273600
3.705100 11.531500
3.718000 11.914500
3.731000 12.512200
3.744000 13.155000
3.756900 13.797800
3.769900 14.518300
3.782900 15.244300
3.795800 16.037100
3.808800 16.911100
3.821800 17.824700
3.834700 18.738300
3.847700 19.651900
3.860700 20.686500
3.873600 21.898200
3.886600 27.935500
3.899600 32.809100
3.912500 30.071100
3.925500 27.546400
3.938500 30.386700
3.951400 24.302200
3.964400 26.591600
3.977300 26.496000
3.990300 25.763100
4.003300 28.585300
4.016200 27.391400
4.029200 30.796200
4.042200 29.332600
4.055100 31.632800
4.068100 29.392200
4.081100 27.048400
4.094000 23.757600
4.107000 21.758600
4.120000 18.478800
4.132900 17.741200
4.145900 17.003600
4.158900 16.266000
4.171800 15.809600
4.184800 17.948300
4.197800 18.960400
4.210700 15.439500
4.223700 11.994500
4.236600 9.098200
4.249600 7.449200
4.262600 7.581200
4.275500 9.959000
4.288500 12.690900
4.301500 7.310100
4.314400 0.000000
4.327400 0.000000
4.340400 0.000000
4.353300 0.000000
4.366300 0.000000
4.379300 0.000000
4.392200 0.000000
4.405200 0.000000
4.418200 0.000000
4.431100 0.000000
4.444100 0.000000
4.457100 0.000000
4.470000 0.000000
4.483000 0.000000
4.495900 0.000000
4.508900 0.000000
4.521900 0.000000
4.534800 0.000000
4.547800 0.000000
4.560800 0.000000
4.573700 0.000000
4.586700 0.000000
4.599700 0.000000
4.612600 0.000000
4.625600 0.000000
4.638600 0.000000
4.651500 0.000000
4.664500 0.000000
4.677500 0.000000
4.690400 0.000000
4.703400 0.000000
4.716400 0.000000
4.729300 0.000000
4.742300 0.000000
4.755300 0.000000
4.768200 0.000000
4.781200 0.000000
4.794100 0.000000
4.807100 0.000000
4.820100 0.000000
4.833000 0.000000
4.846000 0.000000
4.859000 0.000000
4.871900 0.000000
4.884900 0.000000
4.897900 0.000000
4.910800 0.000000
4.923800 0.000000
4.936800 0.000000
4.949700 0.000000
4.962700 0.000000
4.975700 0.000000
4.988600 0.000000
5.001600 0.000000
5.014600 0.000000
5.027500 0.000000
5.040500 0.000000
5.053400 0.000000
5.066400 0.000000
5.079400 0.000000
5.092300 0.000000
5.105300 0.000000
5.118300 0.000000
5.131200 0.000000
5.144200 0.000000
5.157200 0.000000
5.170100 0.000000
5.183100 0.000000
5.196100 0.000000
5.209000 0.000000
5.222000 0.000000
5.235000 0.000000
5.247900 0.000000
5.260900 0.000000
5.273900 0.000000
5.286800 0.000000
5.299800 0.000000
5.312700 0.000000
5.325700 0.000000
5.338700 0.000000
5.351600 0.000000
5.364600 0.000000
5.377600 0.000000
5.390500 0.000000
5.403500 0.000000
5.416500 0.000000
5.429400 0.000000
5.442400 0.000000
5.455400 0.000000
5.468300 0.000000
5.481300 0.000000
5.494300 0.004100
5.507200 0.045800
5.520200 0.110800
5.533200 0.176400
5.546100 0.242100
5.559100 0.307700
5.572000 0.373400
5.585000 0.439000
5.598000 0.504700
5.610900 0.570300
5.623900 0.636000
5.636900 0.701600
5.649800 0.767300
5.662800 0.832900
5.675800 0.898600
5.688700 0.964200
5.701700 1.029900
5.714700 1.095600
5.727600 1.161200
5.740600 1.226900
5.753600 1.292500
5.766500 1.358200
5.779500 1.423800
5.792500 1.489500
5.805400 1.555100
5.818400 1.620800
5.831300 1.686400
5.844300 1.752100
5.857300 1.817700
5.870200 1.883400
5.883200 1.949000
5.896200 2.014700
5.909100 2.080300
5.922100 2.146000
5.935100 2.211600
5.948000 2.277300
5.961000 2.342900
5.974000 2.408600
5.986900 3.093200
5.999900 4.032600
6.012900 4.906700
6.025800 6.146300
6.038800 7.177800
6.051800 8.741600
6.064700 9.236300
6.077700 9.832000
6.090700 10.488900
6.103600 10.743200
6.116600 11.379600
6.129500 11.569100
6.142500 11.783500
6.155500 11.963200
6.168400 12.142900
6.181400 12.850400
6.194400 13.120100
6.207300 13.389900
6.220300 13.659600
6.233300 14.472200
6.246200 14.753100
6.259200 15.445600
6.272200 15.635100
6.285100 15.824700
6.298100 16.014200
6.311100 16.203700
6.324000 16.293800
6.337000 16.329700
6.350000 16.365500
6.362900 16.401400
6.375900 16.437300
6.388800 16.473100
6.401800 16.509000
6.414800 16.544900
6.427700 20.284100
6.440700 19.987500
6.453700 23.685800
6.466600 23.321300
6.479600 22.300100
6.492600 20.745800
6.505500 19.348700
6.518500 18.407600
6.531500 17.466600
6.544400 33.059300
6.557400 16.599800
6.570400 16.541400
6.583300 16.166000
6.596300 15.719600
6.609300 15.798800
6.622200 15.893200
6.635200 13.737700
6.648100 12.002800
6.661100 11.988300
6.674100 11.973700
6.687000 11.989600
6.700000 12.242300
6.713000 12.597200
6.725900 15.277400
6.738900 13.663600
6.751900 13.417800
6.764800 13.171900
6.777800 15.544100
6.790800 17.745200
6.803700 17.193900
6.816700 15.653900
6.829700 14.522800
6.842600 13.730100
6.855600 12.044600
6.868600 11.412800
6.881500 10.920700
6.894500 10.130400
6.907400 9.822500
6.920400 9.581900
6.933400 13.319200
6.946300 16.328600
6.959300 15.113300
6.972300 13.898000
6.985200 12.682700
6.998200 11.073500
7.011200 9.805400
7.024100 9.674200
7.037100 9.667800
7.050100 9.661400
7.063000 9.655000
7.076000 9.648600
7.089000 9.642200
7.101900 9.635800
7.114900 25.745200
7.127900 30.308600
7.140800 31.441400
7.153800 30.938200
7.166700 37.772000
7.179700 35.626600
7.192700 29.770200
7.205600 24.318700
7.218600 21.368400
7.231600 21.069200
7.244500 21.109700
7.257500 25.603500
7.270500 19.706100
7.283400 21.472900
7.296400 25.909600
7.309400 32.570400
7.322300 26.124600
7.335300 18.323200
7.348300 25.032000
7.361200 20.381700
7.374200 22.713600
7.387200 28.254000
7.400100 27.778600
7.413100 27.303200
7.426100 26.827900
7.439000 21.741500
7.452000 23.761800
7.464900 23.875800
7.477900 26.264700
7.490900 30.927000
7.503800 32.385500
7.516800 35.634200
7.529800 28.957100
7.542700 28.699200
7.555700 28.265500
7.568700 29.088400
7.581600 31.737800
7.594600 30.359200
7.607600 33.181700
7.620500 36.004200
7.633500 38.826700
7.646500 35.147400
7.659400 38.680200
7.672400 38.113700
7.685400 34.723600
7.698300 27.934000
7.711300 26.149100
7.724200 25.196300
7.737200 57.751200
7.750200 33.696900
7.763100 33.398200
7.776100 29.483000
7.789100 28.176700
7.802000 26.919000
7.815000 30.273600
7.828000 29.417300
7.840900 28.352200
7.853900 27.287200
7.866900 26.882000
7.879800 26.788100
7.892800 24.955100
7.905800 21.317300
7.918700 29.473300
7.931700 23.964400
7.944700 23.379600
7.957600 23.990600
7.970600 25.211700
7.983500 24.724000
7.996500 24.236200
8.009500 30.544400
8.022400 30.281900
8.035400 28.703000
8.048400 25.320600
8.061300 24.984500
8.074300 28.924900
8.087300 28.739900
8.100200 28.554800
8.113200 28.369700
8.126200 28.184700
8.139100 27.999600
8.152100 28.669400
8.165100 28.136200
8.178000 27.330800
8.191000 26.525100
8.204000 25.719300
8.216900 24.477400
8.229900 25.921100
8.242800 25.272600
8.255800 24.606900
8.268800 24.444000
8.281700 25.399300
8.294700 26.340900
8.307700 24.318600
8.320600 21.251700
8.333600 27.164100
8.346600 27.101400
8.359500 20.971100
8.372500 15.154400
8.385500 11.368900
8.398400 11.108100
8.411400 9.757500
8.424400 9.591200
8.437300 9.425000
8.450300 9.258800
8.463300 9.092600
8.476200 8.926400
8.489200 8.760200
8.502100 8.593900
8.515100 8.427700
8.528100 8.261500
8.541000 8.095300
8.554000 8.049300
8.567000 7.828600
8.579900 7.608000
8.592900 7.387300
8.605900 7.378100
8.618800 7.081400
8.631800 6.923200
8.644800 6.888800
8.657700 6.854400
8.670700 6.820000
8.683700 6.408500
8.696600 6.396000
8.709600 6.383600
8.722600 6.371100
8.735500 6.787900
8.748500 7.304200
8.761500 12.409600
8.774400 10.901900
8.787400 9.453300
8.800300 17.569100
8.813300 8.581200
8.826300 12.261500
8.839200 15.941800
8.852200 7.182500
8.865200 7.246300
8.878100 8.663900
8.891100 10.200600
8.904100 12.021200
8.917000 12.570300
8.930000 12.125400
8.943000 11.680600
8.955900 11.373400
8.968900 13.261100
8.981900 12.843700
8.994800 13.007900
9.007800 12.818400
9.020800 12.628800
9.033700 12.439200
9.046700 14.994500
9.059600 14.885800
9.072600 14.777000
9.085600 14.662700
9.098500 18.863500
9.111500 16.713000
9.124500 14.461600
9.137400 13.813700
9.150400 14.197300
9.163400 14.581000
9.176300 37.098000
9.189300 15.835300
9.202300 16.150400
9.215200 15.315600
9.228200 17.961300
9.241200 23.324600
9.254100 33.103200
9.267100 34.289200
9.280100 25.719800
9.293000 24.595500
9.306000 23.068500
9.318900 22.120400
9.331900 20.532800
9.344900 20.490100
9.357800 20.508300
9.370800 20.578200
9.383800 16.474300
9.396700 23.187200
9.409700 24.988000
9.422700 29.986500
9.435600 25.296200
9.448600 24.328600
9.461600 25.939400
9.474500 31.551100
9.487500 24.291000
9.500500 25.615500
9.513400 25.245200
9.526400 24.875000
9.539400 24.635700
9.552300 22.826000
9.565300 21.915600
9.578200 21.005100
9.591200 20.256500
9.604200 19.546400
9.617100 19.392900
9.630100 19.152000
9.643100 18.961600
9.656000 35.136900
9.669000 23.472800
9.682000 23.710800
9.694900 31.266200
9.707900 24.019500
9.720900 23.163900
9.733800 20.336100
9.746800 21.448700
9.759800 23.546000
9.772700 22.447300
9.785700 21.688500
9.798700 23.008900
9.811600 22.767300
9.824600 31.938800
9.837500 22.078100
9.850500 22.657600
9.863500 23.377100
9.876400 22.508700
9.889400 20.329500
9.902400 20.993000
9.915300 22.423300
9.928300 24.976600
9.941300 28.086800
9.954200 32.532500
9.967200 32.612400
9.980200 20.754700
9.993100 21.432700
10.006100 19.826900
10.019100 21.055500
10.032000 16.634200
10.045000 17.106900
10.058000 19.291400
10.070900 17.226100
10.083900 18.757800
10.096900 18.551300
10.109800 42.669500
10.122800 17.794200
10.135700 24.256700
10.148700 16.445200
10.161700 16.475300
10.174600 18.810500
10.187600 18.868500
10.200600 18.726500
10.213500 18.989600
10.226500 18.751400
10.239500 19.084900
10.252400 19.500500
10.265400 19.916000
10.278400 19.108500
10.291300 19.366800
10.304300 16.800900
10.317300 14.965900
10.330200 14.788100
10.343200 15.420900
10.356200 16.088500
10.369100 16.428000
10.382100 22.954500
10.395000 16.323400
10.408000 17.530600
10.421000 17.946400
10.433900 18.470100
10.446900 15.150400
10.459900 15.157700
10.472800 15.165000
10.485800 15.172400
10.498800 15.195300
10.511700 15.232100
10.524700 15.277000
10.537700 13.005800
10.550600 12.881400
10.563600 12.760600
10.576600 12.654300
10.589500 12.557000
10.602500 12.465300
10.615500 12.373600
10.628400 12.293200
10.641400 12.216800
10.654300 12.140500
10.667300 12.064100
10.680300 11.987800
10.693200 11.913800
10.706200 11.870200
10.719200 11.832000
10.732100 11.793900
10.745100 11.755800
10.758100 14.397900
10.771000 15.975600
10.784000 22.609400
10.797000 19.850600
10.809900 13.318500
10.822900 13.622900
10.835900 13.894700
10.848800 14.166400
10.861800 15.662400
10.874800 15.985700
10.887700 16.291200
10.900700 16.640200
10.913600 17.009800
10.926600 18.630300
10.939600 16.410300
10.952500 16.494600
10.965500 16.579000
10.978500 16.663300
10.991400 16.747700
11.004400 16.700400
11.017400 16.646100
11.030300 16.591800
11.043300 18.205200
11.056300 18.097700
11.069200 17.990100
11.082200 19.381100
11.095200 19.935400
11.108100 19.792400
11.121100 19.626400
11.134100 19.406000
11.147000 18.836800
11.160000 20.095500
11.172900 21.867300
11.185900 21.215800
11.198900 20.579400
11.211800 19.966300
11.224800 20.902500
11.237800 20.194400
11.250700 19.505000
11.263700 18.817800
11.276700 18.136900
11.289600 17.596000
11.302600 17.135400
11.315600 16.692100
11.328500 17.377700
11.341500 17.610200
11.354500 17.318100
11.367400 16.241100
11.380400 16.030500
11.393400 18.973700
11.406300 18.503700
11.419300 21.653500
11.432300 22.442100
11.445200 21.478100
11.458200 20.493500
11.471100 19.509000
11.484100 18.540800
11.497100 17.758100
11.510000 16.864600
11.523000 16.196600
11.536000 16.690100
11.548900 15.837300
11.561900 15.653000
11.574900 23.427200
11.587800 18.074000
11.600800 15.528300
11.613800 15.423900
11.626700 20.889400
11.639700 17.943100
11.652700 16.272400
11.665600 332.131300
11.678600 16.950400
11.691600 16.649000
11.704500 16.347600
11.717500 16.046200
11.730400 15.781500
11.743400 15.688700
11.756400 15.724000
11.769300 15.759300
11.782300 16.209400
11.795300 16.754100
11.808200 17.298900
11.821200 16.750900
11.834200 17.289200
11.847100 14.215100
11.860100 18.968800
11.873100 14.833300
11.886000 13.643000
11.899000 11.436000
11.912000 11.945600
11.924900 12.275400
11.937900 12.605200
11.950900 12.935000
11.963800 13.264800
11.976800 13.594600
11.989700 13.924400
12.002700 14.333800
12.015700 14.800800
12.028600 12.662100
12.041600 12.858900
12.054600 13.055800
12.067500 11.930200
12.080500 12.257100
12.093500 12.635400
12.106400 13.013700
12.119400 13.392000
12.132400 11.801300
12.145300 12.096200
12.158300 12.391100
12.171300 13.602900
12.184200 19.905900
12.197200 16.142000
12.210200 10.696300
12.223100 11.333300
12.236100 11.970300
12.249000 12.607300
12.262000 15.799100
12.275000 13.032600
12.287900 13.096700
12.300900 12.731600
12.313900 12.366500
12.326800 12.001400
12.339800 11.636400
12.352800 11.271300
12.365700 10.906200
12.378700 10.959500
12.391700 12.134300
12.404600 12.694500
12.417600 12.695500
12.430600 12.696500
12.443500 11.402500
12.456500 10.856000
12.469500 10.309400
12.482400 9.762900
12.495400 9.216300
12.508300 9.731800
12.521300 9.407700
12.534300 9.083500
12.547200 8.905500
12.560200 7.792600
12.573200 7.427000
12.586100 7.061300
12.599100 6.695700
12.612100 6.330100
12.625000 5.964500
12.638000 5.598900
12.651000 5.233200
12.663900 4.112900
12.676900 4.260500
12.689900 4.408000
12.702800 4.582600
12.715800 7.147600
12.728800 6.017800
12.741700 4.888000
12.754700 3.758200
12.767700 2.765000
12.780600 1.870400
12.793600 0.975900
12.806500 0.081300
12.819500 0.000000
12.832500 0.000000
12.845400 0.000000
12.858400 0.000000
12.871400 0.000000
12.884300 0.000000
12.897300 0.000000
12.910300 0.000000
12.923200 0.000000
12.936200 0.000000
12.949200 0.000000
12.962100 0.000000
12.975100 0.000000
12.988100 0.000000
13.001000 0.000000
13.014000 0.000000
13.027000 0.000000
13.039900 0.000000
13.052900 0.000000
13.065800 0.000000
13.078800 0.000000
13.091800 0.000000
13.104700 0.000000
13.117700 0.000000
13.130700 0.000000
13.143600 0.000000
13.156600 0.000000
13.169600 0.000000
13.182500 0.000000
13.195500 0.000000
13.208500 0.000000
13.221400 0.000000
13.234400 0.000000
13.247400 0.000000
13.260300 0.000000
13.273300 0.000000
13.286300 0.000000
13.299200 0.000000
13.312200 0.000000
13.325100 0.000000
13.338100 0.000000
13.351100 0.000000
13.364000 0.000000
13.377000 0.000000
13.390000 0.000000
13.402900 0.000000
13.415900 0.000000
13.428900 0.000000
13.441800 0.000000
13.454800 0.000000
13.467800 0.000000
13.480700 0.000000
13.493700 0.000000
13.506700 0.000000
13.519600 0.000000
13.532600 0.000000
13.545600 0.000000
13.558500 0.000000
13.571500 0.000000
13.584400 0.000000
13.597400 0.000000
13.610400 0.000000
13.623300 0.000000
13.636300 0.000000
13.649300 0.000000
13.662200 0.000000
13.675200 0.000000
13.688200 0.000000
13.701100 0.000000
13.714100 0.000000
13.727100 0.000000
13.740000 0.000000
13.753000 0.000000
13.766000 0.000000
13.778900 0.000000
13.791900 0.000000
13.804900 0.000000
13.817800 0.000000
13.830800 0.000000
13.843700 0.000000
13.856700 0.000000
13.869700 0.000000
13.882600 0.000000
13.895600 0.000000
13.908600 0.000000
13.921500 0.000000
13.934500 0.000000
13.947500 0.000000
13.960400 0.000000
13.973400 0.000000
13.986400 0.000000
e
