set title 'mp-1226166 - Density of States'
set xlabel 'Energy (eV)'
set ylabel 'DOS (states/eV)'
set grid
set xrange [-10:10]
set yrange [0:2.584]
set xzeroaxis lt -1
set terminal png size 800,600
set output 'mp-1226166_dos_gnuplot.png'
plot '-' using 1:2 with lines title 'DOS'
-42.567900 0.000000
-42.512300 0.000000
-42.456700 0.000000
-42.401100 0.000000
-42.345500 0.000000
-42.290000 0.000000
-42.234400 0.000000
-42.178800 0.000000
-42.123200 0.000000
-42.067600 0.000000
-42.012000 0.000000
-41.956400 0.000000
-41.900800 0.000000
-41.845300 0.000000
-41.789700 0.000000
-41.734100 0.000000
-41.678500 0.000000
-41.622900 0.000000
-41.567300 0.000000
-41.511700 0.000000
-41.456200 0.000000
-41.400600 0.000000
-41.345000 0.000000
-41.289400 0.000000
-41.233800 0.000000
-41.178200 0.000000
-41.122600 0.000000
-41.067000 0.000000
-41.011500 0.000000
-40.955900 0.000000
-40.900300 0.000000
-40.844700 0.000000
-40.789100 0.000000
-40.733500 0.000000
-40.677900 0.000000
-40.622400 0.000000
-40.566800 0.000000
-40.511200 0.000000
-40.455600 0.000000
-40.400000 0.000000
-40.344400 0.000000
-40.288800 0.000000
-40.233200 0.000000
-40.177700 0.000000
-40.122100 0.000000
-40.066500 0.000000
-40.010900 0.000000
-39.955300 0.000000
-39.899700 0.000000
-39.844100 0.000000
-39.788600 0.000000
-39.733000 0.000000
-39.677400 0.000000
-39.621800 0.000000
-39.566200 0.000000
-39.510600 0.000000
-39.455000 0.000000
-39.399400 0.000000
-39.343900 0.000000
-39.288300 0.000000
-39.232700 0.000000
-39.177100 0.000000
-39.121500 0.000000
-39.065900 0.000000
-39.010300 0.000000
-38.954800 0.000000
-38.899200 0.000000
-38.843600 0.000000
-38.788000 0.000000
-38.732400 0.000000
-38.676800 0.000000
-38.621200 0.000000
-38.565600 0.000000
-38.510100 0.000000
-38.454500 0.000000
-38.398900 0.000000
-38.343300 0.000000
-38.287700 0.000000
-38.232100 0.000000
-38.176500 0.000000
-38.121000 0.000000
-38.065400 0.000000
-38.009800 0.000000
-37.954200 0.000000
-37.898600 0.000000
-37.843000 0.000000
-37.787400 0.000000
-37.731900 0.000000
-37.676300 0.000000
-37.620700 0.000000
-37.565100 0.000000
-37.509500 0.000000
-37.453900 0.000000
-37.398300 0.000000
-37.342700 0.000000
-37.287200 0.000000
-37.231600 0.000000
-37.176000 0.000000
-37.120400 0.000000
-37.064800 0.000000
-37.009200 0.000000
-36.953600 0.000000
-36.898100 0.000000
-36.842500 0.000000
-36.786900 0.000000
-36.731300 5.081900
-36.675700 13.425500
-36.620100 4.157400
-36.564500 2.835200
-36.508900 3.525400
-36.453400 5.686600
-36.397800 6.698600
-36.342200 4.950300
-36.286600 0.000000
-36.231000 0.000000
-36.175400 0.000000
-36.119800 0.000000
-36.064300 0.000000
-36.008700 0.000000
-35.953100 0.000000
-35.897500 0.000000
-35.841900 0.000000
-35.786300 0.000000
-35.730700 0.000000
-35.675100 0.000000
-35.619600 0.000000
-35.564000 0.000000
-35.508400 0.000000
-35.452800 0.000000
-35.397200 0.000000
-35.341600 0.000000
-35.286000 0.000000
-35.230500 0.000000
-35.174900 0.000000
-35.119300 0.000000
-35.063700 0.000000
-35.008100 0.000000
-34.952500 0.000000
-34.896900 0.000000
-34.841300 0.000000
-34.785800 0.000000
-34.730200 0.000000
-34.674600 0.000000
-34.619000 0.000000
-34.563400 0.000000
-34.507800 0.000000
-34.452200 0.000000
-34.396700 0.000000
-34.341100 0.000000
-34.285500 0.000000
-34.229900 0.000000
-34.174300 0.000000
-34.118700 0.000000
-34.063100 0.000000
-34.007500 0.000000
-33.952000 0.000000
-33.896400 0.000000
-33.840800 0.000000
-33.785200 0.000000
-33.729600 0.000000
-33.674000 0.000000
-33.618400 0.000000
-33.562900 0.000000
-33.507300 0.000000
-33.451700 0.000000
-33.396100 0.000000
-33.340500 0.000000
-33.284900 0.000000
-33.229300 0.000000
-33.173700 0.000000
-33.118200 0.000000
-33.062600 0.000000
-33.007000 0.000000
-32.951400 0.000000
-32.895800 0.000000
-32.840200 0.000000
-32.784600 0.000000
-32.729100 0.000000
-32.673500 0.000000
-32.617900 0.000000
-32.562300 0.000000
-32.506700 0.000000
-32.451100 0.000000
-32.395500 0.000000
-32.339900 0.000000
-32.284400 0.000000
-32.228800 0.000000
-32.173200 0.000000
-32.117600 0.000000
-32.062000 0.000000
-32.006400 0.000000
-31.950800 0.000000
-31.895300 0.000000
-31.839700 0.000000
-31.784100 0.000000
-31.728500 0.000000
-31.672900 0.000000
-31.617300 0.000000
-31.561700 0.000000
-31.506100 0.000000
-31.450600 0.000000
-31.395000 0.000000
-31.339400 0.000000
-31.283800 0.000000
-31.228200 0.000000
-31.172600 0.000000
-31.117000 0.000000
-31.061500 0.000000
-31.005900 0.000000
-30.950300 0.000000
-30.894700 0.000000
-30.839100 0.000000
-30.783500 0.000000
-30.727900 0.000000
-30.672300 0.000000
-30.616800 0.000000
-30.561200 0.000000
-30.505600 0.000000
-30.450000 0.000000
-30.394400 0.000000
-30.338800 0.000000
-30.283200 0.000000
-30.227700 0.000000
-30.172100 0.000000
-30.116500 0.000000
-30.060900 0.000000
-30.005300 0.000000
-29.949700 0.000000
-29.894100 0.000000
-29.838500 0.000000
-29.783000 0.000000
-29.727400 0.000000
-29.671800 0.000000
-29.616200 0.000000
-29.560600 0.000000
-29.505000 0.000000
-29.449400 0.000000
-29.393900 0.000000
-29.338300 0.000000
-29.282700 0.000000
-29.227100 0.000000
-29.171500 0.000000
-29.115900 0.000000
-29.060300 0.000000
-29.004700 0.000000
-28.949200 0.000000
-28.893600 0.000000
-28.838000 0.000000
-28.782400 0.000000
-28.726800 0.000000
-28.671200 0.000000
-28.615600 0.000000
-28.560100 0.000000
-28.504500 0.000000
-28.448900 0.000000
-28.393300 0.000000
-28.337700 0.000000
-28.282100 0.000000
-28.226500 0.000000
-28.170900 0.000000
-28.115400 0.000000
-28.059800 0.000000
-28.004200 0.000000
-27.948600 0.000000
-27.893000 0.000000
-27.837400 0.000000
-27.781800 0.000000
-27.726300 0.000000
-27.670700 0.000000
-27.615100 0.000000
-27.559500 0.000000
-27.503900 0.000000
-27.448300 0.000000
-27.392700 0.000000
-27.337100 0.000000
-27.281600 0.000000
-27.226000 0.000000
-27.170400 0.000000
-27.114800 0.000000
-27.059200 0.000000
-27.003600 0.000000
-26.948000 0.000000
-26.892500 0.000000
-26.836900 0.000000
-26.781300 0.000000
-26.725700 0.000000
-26.670100 0.000000
-26.614500 0.000000
-26.558900 0.000000
-26.503300 0.000000
-26.447800 0.000000
-26.392200 0.000000
-26.336600 0.000000
-26.281000 0.000000
-26.225400 0.000000
-26.169800 0.000000
-26.114200 0.000000
-26.058700 0.000000
-26.003100 0.000000
-25.947500 0.000000
-25.891900 0.000000
-25.836300 0.000000
-25.780700 0.000000
-25.725100 0.000000
-25.669500 0.000000
-25.614000 0.000000
-25.558400 0.000000
-25.502800 0.000000
-25.447200 0.000000
-25.391600 0.000000
-25.336000 0.000000
-25.280400 0.000000
-25.224900 0.000000
-25.169300 0.000000
-25.113700 0.000000
-25.058100 0.000000
-25.002500 0.000000
-24.946900 0.000000
-24.891300 0.000000
-24.835700 0.000000
-24.780200 0.000000
-24.724600 0.000000
-24.669000 0.000000
-24.613400 0.000000
-24.557800 0.000000
-24.502200 0.000000
-24.446600 0.000000
-24.391100 0.000000
-24.335500 0.000000
-24.279900 0.000000
-24.224300 0.000000
-24.168700 0.000000
-24.113100 0.000000
-24.057500 0.000000
-24.001900 0.000000
-23.946400 0.000000
-23.890800 0.000000
-23.835200 0.000000
-23.779600 0.000000
-23.724000 0.000000
-23.668400 0.000000
-23.612800 0.000000
-23.557300 0.000000
-23.501700 0.000000
-23.446100 0.000000
-23.390500 0.000000
-23.334900 0.000000
-23.279300 0.000000
-23.223700 0.000000
-23.168200 0.000000
-23.112600 0.000000
-23.057000 0.000000
-23.001400 0.000000
-22.945800 0.000000
-22.890200 0.000000
-22.834600 0.000000
-22.779000 0.000000
-22.723500 0.000000
-22.667900 0.000000
-22.612300 0.000000
-22.556700 0.000000
-22.501100 0.000000
-22.445500 0.000000
-22.389900 0.000000
-22.334400 0.000000
-22.278800 0.000000
-22.223200 0.000000
-22.167600 0.000000
-22.112000 0.000000
-22.056400 0.000000
-22.000800 0.000000
-21.945200 0.000000
-21.889700 0.000000
-21.834100 0.000000
-21.778500 0.000000
-21.722900 0.000000
-21.667300 0.000000
-21.611700 0.000000
-21.556100 0.000000
-21.500600 0.000000
-21.445000 0.000000
-21.389400 0.000000
-21.333800 0.000000
-21.278200 0.000000
-21.222600 0.000000
-21.167000 0.000000
-21.111400 0.000000
-21.055900 0.000000
-21.000300 0.000000
-20.944700 0.000000
-20.889100 0.000000
-20.833500 0.000000
-20.777900 0.000000
-20.722300 0.000000
-20.666800 0.000000
-20.611200 0.000000
-20.555600 0.000000
-20.500000 0.000000
-20.444400 0.000000
-20.388800 0.000000
-20.333200 0.000000
-20.277600 0.000000
-20.222100 0.000000
-20.166500 0.000000
-20.110900 0.000000
-20.055300 0.000000
-19.999700 0.000000
-19.944100 0.000000
-19.888500 0.000000
-19.833000 0.000000
-19.777400 0.000000
-19.721800 0.000000
-19.666200 0.000000
-19.610600 0.000000
-19.555000 0.000000
-19.499400 0.000000
-19.443800 0.000000
-19.388300 0.000000
-19.332700 0.000000
-19.277100 0.000000
-19.221500 0.000000
-19.165900 0.000000
-19.110300 0.000000
-19.054700 0.000000
-18.999200 0.000000
-18.943600 0.000000
-18.888000 0.000000
-18.832400 0.000000
-18.776800 0.000000
-18.721200 0.000000
-18.665600 0.000000
-18.610000 0.000000
-18.554500 0.000000
-18.498900 0.000000
-18.443300 0.000000
-18.387700 0.000000
-18.332100 0.000000
-18.276500 0.000000
-18.220900 0.000000
-18.165400 0.000000
-18.109800 0.000000
-18.054200 0.000000
-17.998600 0.000000
-17.943000 0.000000
-17.887400 0.000000
-17.831800 0.000000
-17.776200 0.000000
-17.720700 0.000000
-17.665100 0.000000
-17.609500 0.000000
-17.553900 0.000000
-17.498300 0.000000
-17.442700 0.000000
-17.387100 0.000000
-17.331600 0.000000
-17.276000 0.000000
-17.220400 0.000000
-17.164800 0.000000
-17.109200 0.000000
-17.053600 0.000000
-16.998000 0.000000
-16.942400 0.000000
-16.886900 0.000000
-16.831300 0.000000
-16.775700 0.000000
-16.720100 0.000000
-16.664500 0.000000
-16.608900 0.000000
-16.553300 0.000000
-16.497800 0.000000
-16.442200 0.000000
-16.386600 0.000000
-16.331000 0.000000
-16.275400 0.000000
-16.219800 0.000000
-16.164200 0.000000
-16.108600 0.000000
-16.053100 0.000000
-15.997500 0.000000
-15.941900 0.000000
-15.886300 0.000000
-15.830700 0.000000
-15.775100 0.000000
-15.719500 0.000000
-15.664000 0.000000
-15.608400 0.000000
-15.552800 0.000000
-15.497200 0.000000
-15.441600 0.000000
-15.386000 0.000000
-15.330400 0.000000
-15.274800 0.000000
-15.219300 0.000000
-15.163700 0.000000
-15.108100 0.000000
-15.052500 0.000000
-14.996900 0.000000
-14.941300 0.000000
-14.885700 0.000000
-14.830200 0.000000
-14.774600 0.000000
-14.719000 0.000000
-14.663400 0.000000
-14.607800 0.000000
-14.552200 0.000000
-14.496600 0.000000
-14.441000 0.000000
-14.385500 0.000000
-14.329900 0.000000
-14.274300 0.000000
-14.218700 0.000000
-14.163100 0.000000
-14.107500 0.000000
-14.051900 0.000000
-13.996400 0.000000
-13.940800 0.000000
-13.885200 0.000000
-13.829600 0.000000
-13.774000 0.000000
-13.718400 0.000000
-13.662800 0.000000
-13.607200 0.000000
-13.551700 0.000000
-13.496100 0.000000
-13.440500 0.000000
-13.384900 0.000000
-13.329300 0.000000
-13.273700 0.000000
-13.218100 0.000000
-13.162600 0.000000
-13.107000 0.000000
-13.051400 0.000000
-12.995800 0.000000
-12.940200 0.000000
-12.884600 0.000000
-12.829000 0.000000
-12.773400 0.000000
-12.717900 0.000000
-12.662300 0.000000
-12.606700 0.000000
-12.551100 0.000000
-12.495500 0.000000
-12.439900 0.000000
-12.384300 0.000000
-12.328800 0.000000
-12.273200 0.000000
-12.217600 0.000000
-12.162000 0.000000
-12.106400 0.000000
-12.050800 0.000000
-11.995200 0.000000
-11.939600 0.000000
-11.884100 0.000000
-11.828500 0.000000
-11.772900 0.000000
-11.717300 0.000000
-11.661700 0.000000
-11.606100 0.000000
-11.550500 0.000000
-11.495000 0.000000
-11.439400 0.000000
-11.383800 0.000000
-11.328200 0.000000
-11.272600 0.000000
-11.217000 0.000000
-11.161400 0.000000
-11.105800 0.000000
-11.050300 0.000000
-10.994700 0.000000
-10.939100 0.000000
-10.883500 0.000000
-10.827900 0.000000
-10.772300 0.000000
-10.716700 0.000000
-10.661200 0.000000
-10.605600 0.000000
-10.550000 0.000000
-10.494400 0.000000
-10.438800 0.000000
-10.383200 0.000000
-10.327600 0.000000
-10.272000 0.000000
-10.216500 0.000000
-10.160900 0.000000
-10.105300 0.000000
-10.049700 0.000000
-9.994100 0.000000
-9.938500 0.000000
-9.882900 0.000000
-9.827400 0.000000
-9.771800 0.000000
-9.716200 0.000000
-9.660600 0.000000
-9.605000 0.000000
-9.549400 0.000000
-9.493800 0.000000
-9.438200 0.000000
-9.382700 0.000000
-9.327100 0.000000
-9.271500 0.000000
-9.215900 0.000000
-9.160300 0.000000
-9.104700 0.000000
-9.049100 0.000000
-8.993600 0.000000
-8.938000 0.000000
-8.882400 0.000000
-8.826800 0.000000
-8.771200 0.000000
-8.715600 0.000000
-8.660000 0.000000
-8.604500 0.000000
-8.548900 0.000000
-8.493300 0.000000
-8.437700 0.000000
-8.382100 0.000000
-8.326500 0.000000
-8.270900 0.000000
-8.215300 0.000000
-8.159800 0.000000
-8.104200 0.000000
-8.048600 0.000000
-7.993000 0.000000
-7.937400 0.000000
-7.881800 0.000000
-7.826200 0.000000
-7.770700 0.000000
-7.715100 0.000000
-7.659500 0.000000
-7.603900 0.000000
-7.548300 0.000000
-7.492700 0.000000
-7.437100 0.000000
-7.381500 0.000000
-7.326000 0.000000
-7.270400 0.000000
-7.214800 0.000000
-7.159200 0.000000
-7.103600 0.000000
-7.048000 0.000000
-6.992400 0.000000
-6.936900 0.000000
-6.881300 0.000000
-6.825700 0.000000
-6.770100 0.000000
-6.714500 0.000000
-6.658900 0.000000
-6.603300 0.000000
-6.547700 0.000000
-6.492200 0.000000
-6.436600 0.000000
-6.381000 0.000000
-6.325400 0.000000
-6.269800 0.000000
-6.214200 0.000000
-6.158600 0.000000
-6.103100 0.000000
-6.047500 0.000000
-5.991900 0.000000
-5.936300 0.000000
-5.880700 0.000000
-5.825100 0.000000
-5.769500 0.000000
-5.713900 0.000000
-5.658400 0.000000
-5.602800 0.000000
-5.547200 0.000000
-5.491600 0.000000
-5.436000 0.000000
-5.380400 0.000000
-5.324800 0.000000
-5.269300 0.000000
-5.213700 0.000000
-5.158100 0.000000
-5.102500 0.000000
-5.046900 0.000000
-4.991300 0.000000
-4.935700 0.000000
-4.880100 0.000000
-4.824600 0.000000
-4.769000 0.000000
-4.713400 0.000000
-4.657800 0.000000
-4.602200 0.000000
-4.546600 0.000000
-4.491000 0.000000
-4.435500 0.000000
-4.379900 0.000000
-4.324300 0.000000
-4.268700 0.000000
-4.213100 0.000000
-4.157500 0.000000
-4.101900 0.000000
-4.046300 0.000000
-3.990800 0.000000
-3.935200 0.000000
-3.879600 0.000000
-3.824000 0.000000
-3.768400 0.000000
-3.712800 0.000000
-3.657200 0.000000
-3.601700 0.000000
-3.546100 0.000000
-3.490500 0.000000
-3.434900 0.000000
-3.379300 0.000000
-3.323700 0.000000
-3.268100 0.000000
-3.212500 0.000000
-3.157000 0.000000
-3.101400 0.000000
-3.045800 0.000000
-2.990200 0.000000
-2.934600 0.000000
-2.879000 0.000000
-2.823400 0.000000
-2.767900 0.000000
-2.712300 0.000000
-2.656700 0.000000
-2.601100 0.000000
-2.545500 0.000000
-2.489900 0.000000
-2.434300 0.000000
-2.378700 0.000000
-2.323200 0.000000
-2.267600 0.000000
-2.212000 0.000000
-2.156400 0.000000
-2.100800 0.000000
-2.045200 0.000000
-1.989600 0.000000
-1.934100 0.000000
-1.878500 0.000000
-1.822900 0.000000
-1.767300 0.000000
-1.711700 0.000000
-1.656100 0.007900
-1.600500 0.022100
-1.544900 0.026200
-1.489400 0.031400
-1.433800 0.035700
-1.378200 0.040800
-1.322600 0.046200
-1.267000 0.050200
-1.211400 0.053200
-1.155800 0.056400
-1.100300 0.060000
-1.044700 0.063800
-0.989100 0.067800
-0.933500 0.071900
-0.877900 0.076100
-0.822300 0.080300
-0.766700 0.084100
-0.711100 0.088200
-0.655600 0.092600
-0.600000 0.097200
-0.544400 0.103200
-0.488800 0.109900
-0.433200 0.118700
-0.377600 0.128900
-0.322000 0.130800
-0.266500 0.132000
-0.210900 0.135900
-0.155300 0.139700
-0.099700 0.143900
-0.044100 0.148200
0.011500 0.152700
0.067100 0.158800
0.122700 0.169300
0.178200 0.305600
0.233800 0.426200
0.289400 0.530300
0.345000 0.670000
0.400600 0.895700
0.456200 1.022100
0.511800 1.103400
0.567300 1.181400
0.622900 1.268400
0.678500 1.332900
0.734100 1.352400
0.789700 1.386700
0.845300 1.452300
0.900900 1.631700
0.956500 1.736500
1.012000 1.666000
1.067600 1.692700
1.123200 1.999400
1.178800 1.780200
1.234400 1.689200
1.290000 1.616500
1.345600 1.434500
1.401100 1.246600
1.456700 1.062300
1.512300 0.909900
1.567900 0.610900
1.623500 0.306900
1.679100 1.018900
1.734700 1.027300
1.790300 1.091300
1.845800 1.142000
1.901400 1.253900
1.957000 1.854200
2.012600 1.966300
2.068200 1.991100
2.123800 1.886600
2.179400 1.964800
2.234900 1.623400
2.290500 1.713500
2.346100 1.654500
2.401700 1.873400
2.457300 1.673900
2.512900 1.528100
2.568500 1.399600
2.624100 1.208600
2.679600 1.199300
2.735200 1.096400
2.790800 1.067400
2.846400 1.197600
2.902000 1.145400
2.957600 0.969800
3.013200 0.959600
3.068700 1.000400
3.124300 1.038700
3.179900 1.177700
3.235500 1.561100
3.291100 1.624600
3.346700 1.476300
3.402300 1.512300
3.457900 1.441800
3.513400 1.552800
3.569000 1.399700
3.624600 1.193800
3.680200 1.103300
3.735800 0.851600
3.791400 1.115400
3.847000 1.626300
3.902500 1.022500
3.958100 1.309200
4.013700 1.141200
4.069300 1.074200
4.124900 1.157600
4.180500 0.978300
4.236100 0.888300
4.291700 0.892100
4.347200 0.907900
4.402800 0.952500
4.458400 0.979400
4.514000 1.011800
4.569600 1.068900
4.625200 1.108600
4.680800 1.049500
4.736300 1.070600
4.791900 1.074800
4.847500 1.108300
4.903100 1.274600
4.958700 1.271300
5.014300 1.322400
5.069900 1.113600
5.125400 0.900700
5.181000 0.917000
5.236600 1.273000
5.292200 1.366000
5.347800 1.351400
5.403400 1.392900
5.459000 1.542200
5.514600 1.774800
5.570100 1.970900
5.625700 2.212100
5.681300 2.348800
5.736900 1.507700
5.792500 0.884700
5.848100 0.786000
5.903700 0.890000
5.959200 1.008700
6.014800 1.083000
6.070400 1.096200
6.126000 1.215900
6.181600 1.429700
6.237200 1.516000
6.292800 1.603000
6.348400 1.618600
6.403900 1.736400
6.459500 1.559800
6.515100 1.393600
6.570700 1.343100
6.626300 1.946600
6.681900 1.624800
6.737500 1.511300
6.793000 1.496800
6.848600 1.340000
6.904200 1.163300
6.959800 1.142900
7.015400 1.323000
7.071000 1.439700
7.126600 1.503800
7.182200 1.796500
7.237700 1.731700
7.293300 2.274200
7.348900 2.283400
7.404500 2.040700
7.460100 2.026000
7.515700 1.951700
7.571300 1.855500
7.626800 1.461700
7.682400 1.055500
7.738000 1.075500
7.793600 1.011400
7.849200 0.756100
7.904800 0.614300
7.960400 0.587100
8.016000 0.560200
8.071500 0.561900
8.127100 0.569800
8.182700 0.579000
8.238300 0.593300
8.293900 0.608700
8.349500 0.598900
8.405100 0.546700
8.460600 0.478800
8.516200 0.441700
8.571800 0.420600
8.627400 0.410800
8.683000 0.403000
8.738600 0.397500
8.794200 0.393000
8.849800 0.388300
8.905300 0.383500
8.960900 0.378800
9.016500 0.374500
9.072100 0.373100
9.127700 0.368200
9.183300 0.360500
9.238900 0.352200
9.294400 0.357000
9.350000 0.347100
9.405600 0.330800
9.461200 0.319700
9.516800 0.314100
9.572400 0.308900
9.628000 0.303900
9.683600 0.298900
9.739100 0.293400
9.794700 0.289600
9.850300 0.286500
9.905900 0.284000
9.961500 0.281600
10.017100 0.281400
10.072700 0.277900
10.128200 0.273000
10.183800 0.274100
10.239400 0.279300
10.295000 0.276300
10.350600 0.264600
10.406200 0.262500
10.461800 0.261400
10.517400 0.261000
10.572900 0.261200
10.628500 0.263500
10.684100 0.265800
10.739700 0.270900
10.795300 0.271800
10.850900 0.268000
10.906500 0.260200
10.962000 0.249000
11.017600 0.240600
11.073200 0.234000
11.128800 0.229700
11.184400 0.227300
11.240000 0.225900
11.295600 0.229700
11.351200 0.240500
11.406700 0.235100
11.462300 0.217100
11.517900 0.211300
11.573500 0.206600
11.629100 0.202600
11.684700 0.201300
11.740300 0.208300
11.795800 0.193700
11.851400 0.185300
11.907000 0.178800
11.962600 0.173200
12.018200 0.169100
12.073800 0.166700
12.129400 0.164600
12.185000 0.162700
12.240500 0.161200
12.296100 0.159500
12.351700 0.157700
12.407300 0.156600
12.462900 0.156700
12.518500 0.157200
12.574100 0.159900
12.629600 0.162000
12.685200 0.168100
12.740800 0.167500
12.796400 0.163700
12.852000 0.158300
12.907600 0.142200
12.963200 0.123100
13.018800 0.108700
13.074300 0.100800
13.129900 0.093200
13.185500 0.084500
13.241100 0.079500
13.296700 0.076700
13.352300 0.069200
13.407900 0.063000
13.463400 0.057900
13.519000 0.053100
13.574600 0.047500
13.630200 0.045700
13.685800 0.054300
13.741400 0.298500
13.797000 0.445900
13.852600 0.511900
13.908100 0.492400
13.963700 0.468600
14.019300 0.449200
14.074900 0.441600
14.130500 0.413100
14.186100 0.399800
14.241700 0.385000
14.297200 0.378400
14.352800 0.374700
14.408400 0.384200
14.464000 0.373600
14.519600 0.367400
14.575200 0.352300
14.630800 0.347200
14.686400 0.343200
14.741900 0.341700
14.797500 0.340400
14.853100 0.342400
14.908700 0.343600
14.964300 0.344600
15.019900 0.349100
15.075500 0.347900
15.131000 0.336100
15.186600 0.323500
15.242200 0.306800
15.297800 0.300200
15.353400 0.291000
15.409000 0.282700
15.464600 0.274500
15.520200 0.264500
15.575700 0.257200
15.631300 0.248300
15.686900 0.239800
15.742500 0.231800
15.798100 0.225700
15.853700 0.222000
15.909300 0.220300
15.964800 0.219900
16.020400 0.220200
16.076000 0.222700
16.131600 0.227100
16.187200 0.230400
16.242800 0.234300
16.298400 0.239100
16.354000 0.244400
16.409500 0.251600
16.465100 0.261500
16.520700 0.271900
16.576300 0.280700
16.631900 0.285700
16.687500 0.289600
16.743100 0.300100
16.798600 0.305600
16.854200 0.304300
16.909800 0.302400
16.965400 0.301600
17.021000 0.357700
17.076600 0.422000
17.132200 0.411500
17.187800 0.451000
17.243300 0.470600
17.298900 0.500800
17.354500 0.520400
17.410100 0.554600
17.465700 0.560500
17.521300 0.546700
17.576900 0.518200
17.632400 0.503100
17.688000 0.490100
17.743600 0.476800
17.799200 0.473000
17.854800 0.468000
17.910400 0.469800
17.966000 0.471700
18.021600 0.471400
18.077100 0.469000
18.132700 0.467300
18.188300 0.469100
18.243900 0.477500
18.299500 0.491900
18.355100 0.485700
18.410700 0.479200
18.466200 0.475200
18.521800 0.478900
18.577400 0.482000
18.633000 0.481200
18.688600 0.481500
18.744200 0.475700
18.799800 0.471800
18.855400 0.468400
18.910900 0.475300
18.966500 0.478900
19.022100 0.473500
19.077700 0.476500
19.133300 0.479500
19.188900 0.490700
19.244500 0.495800
19.300000 0.500200
19.355600 0.503200
19.411200 0.507700
19.466800 0.516500
19.522400 0.528800
19.578000 0.539900
19.633600 0.546600
19.689100 0.542100
19.744700 0.550500
19.800300 0.557800
19.855900 0.562600
19.911500 0.574600
19.967100 0.557600
20.022700 0.549600
20.078300 0.545500
20.133800 0.545600
20.189400 0.530200
20.245000 0.522200
20.300600 0.517300
20.356200 0.513000
20.411800 0.512600
20.467400 0.514700
20.522900 0.513700
20.578500 0.512600
20.634100 0.509400
20.689700 0.510300
20.745300 0.511100
20.800900 0.511900
20.856500 0.510700
20.912100 0.508400
20.967600 0.503900
21.023200 0.500000
21.078800 0.496300
21.134400 0.491700
21.190000 0.494900
21.245600 0.507300
21.301200 0.514300
21.356700 0.519400
21.412300 0.525400
21.467900 0.489200
21.523500 0.471900
21.579100 0.463000
21.634700 0.463000
21.690300 0.467700
21.745900 0.484300
21.801400 0.477000
21.857000 0.467000
21.912600 0.460900
21.968200 0.467300
22.023800 0.493100
22.079400 0.485300
22.135000 0.487800
22.190500 0.491900
22.246100 0.524400
22.301700 0.519900
22.357300 0.518300
22.412900 0.515100
22.468500 0.522900
22.524100 0.523900
22.579700 0.511700
22.635200 0.509600
22.690800 0.506200
22.746400 0.517600
22.802000 0.538000
22.857600 0.542100
22.913200 0.538400
22.968800 0.534300
23.024300 0.529500
23.079900 0.529100
23.135500 0.520700
23.191100 0.524600
23.246700 0.537300
23.302300 0.555000
23.357900 0.572000
23.413500 0.592300
23.469000 0.607900
23.524600 0.636100
23.580200 0.692300
23.635800 0.634500
23.691400 0.593200
23.747000 0.571200
23.802600 0.550300
23.858100 0.533500
23.913700 0.520400
23.969300 0.508600
24.024900 0.487700
24.080500 0.459900
24.136100 0.455100
24.191700 0.453900
24.247300 0.455800
24.302800 0.457700
24.358400 0.458700
24.414000 0.471700
24.469600 0.481300
24.525200 0.476800
24.580800 0.479700
24.636400 0.576800
24.691900 0.585900
24.747500 0.479800
24.803100 0.437300
24.858700 0.401000
24.914300 0.382100
24.969900 0.369500
25.025500 0.363700
25.081100 0.358700
25.136600 0.355000
25.192200 0.355100
25.247800 0.357400
25.303400 0.356300
25.359000 0.351600
25.414600 0.344500
25.470200 0.339800
25.525700 0.334700
25.581300 0.329800
25.636900 0.324700
25.692500 0.319300
25.748100 0.314900
25.803700 0.310500
25.859300 0.306400
25.914900 0.306600
25.970400 0.307900
26.026000 0.310100
26.081600 0.314300
26.137200 0.321600
26.192800 0.341900
26.248400 0.439700
26.304000 0.470100
26.359500 0.513300
26.415100 0.571500
26.470700 0.667500
26.526300 0.782800
26.581900 0.872200
26.637500 0.972900
26.693100 1.047600
26.748700 1.116600
26.804200 1.220700
26.859800 1.419500
26.915400 2.007500
26.971000 6.012400
27.026600 3.891900
27.082200 4.455800
27.137800 335.435800
27.193300 1.934700
27.248900 1.460900
27.304500 1.232400
27.360100 1.033600
27.415700 0.897700
27.471300 0.830800
27.526900 0.800600
27.582500 0.774800
27.638000 0.777700
27.693600 0.756000
27.749200 0.739700
27.804800 0.722000
27.860400 0.699600
27.916000 0.687100
27.971600 0.679600
28.027100 0.677000
28.082700 0.677300
28.138300 0.684000
28.193900 0.690300
28.249500 0.694800
28.305100 0.690600
28.360700 0.681200
28.416300 0.669500
28.471800 0.656600
28.527400 0.647700
28.583000 0.649000
28.638600 0.651500
28.694200 0.662000
28.749800 0.671600
28.805400 0.642400
28.860900 0.611600
28.916500 0.583200
28.972100 0.563000
29.027700 0.539600
29.083300 0.517100
29.138900 0.502700
29.194500 0.492600
29.250100 0.491900
29.305600 0.480400
29.361200 0.480500
29.416800 0.484400
29.472400 0.495900
29.528000 0.506400
29.583600 0.505300
29.639200 0.495400
29.694700 0.475700
29.750300 0.466800
29.805900 0.463900
29.861500 0.462300
29.917100 0.452800
29.972700 0.441900
30.028300 0.433700
30.083900 0.423200
30.139400 0.414400
30.195000 0.406700
30.250600 0.398100
30.306200 0.390100
30.361800 0.381500
30.417400 0.368300
30.473000 0.356500
30.528500 0.347200
30.584100 0.338200
30.639700 0.330900
30.695300 0.323800
30.750900 0.320800
30.806500 0.305500
30.862100 0.293400
30.917700 0.296800
30.973200 0.261400
31.028800 0.227600
31.084400 0.208000
31.140000 0.193400
31.195600 0.185300
31.251200 0.177000
31.306800 0.171300
31.362300 0.168100
31.417900 0.168600
31.473500 0.172300
31.529100 0.178600
31.584700 0.188000
31.640300 0.200900
31.695900 0.218300
31.751500 0.240900
31.807000 0.260600
31.862600 0.283600
31.918200 0.330400
31.973800 0.375100
32.029400 0.431300
32.085000 0.468700
32.140600 0.496600
32.196100 0.525800
32.251700 0.550400
32.307300 0.577600
32.362900 0.621800
32.418500 0.658200
32.474100 0.697800
32.529700 0.684700
32.585300 0.676900
32.640800 0.702600
32.696400 0.708700
32.752000 0.724900
32.807600 0.732400
32.863200 0.764500
32.918800 0.786600
32.974400 0.781900
33.029900 0.761500
33.085500 0.742600
33.141100 0.741400
33.196700 0.775500
33.252300 0.783200
33.307900 0.807700
33.363500 0.813900
33.419100 0.805200
33.474600 0.794100
33.530200 0.777500
33.585800 0.759200
33.641400 0.748400
33.697000 0.743700
33.752600 0.735300
33.808200 0.717700
33.863700 0.696300
33.919300 0.696300
33.974900 0.694700
34.030500 0.661900
34.086100 0.614900
34.141700 0.584500
34.197300 0.555500
34.252800 0.523900
34.308400 0.497700
34.364000 0.478600
34.419600 0.468700
34.475200 0.462600
34.530800 0.454600
34.586400 0.450300
34.642000 0.449200
34.697500 0.447500
34.753100 0.452400
34.808700 0.494300
34.864300 0.507800
34.919900 0.512500
34.975500 0.515500
35.031100 0.530700
35.086600 0.557800
35.142200 0.566500
35.197800 0.595300
35.253400 0.619300
35.309000 0.640300
35.364600 0.633600
35.420200 0.675000
35.475800 0.612300
35.531300 0.593300
35.586900 0.598700
35.642500 0.615000
35.698100 0.603800
35.753700 0.582700
35.809300 0.581500
35.864900 0.587300
35.920400 0.584800
35.976000 0.584700
36.031600 0.572900
36.087200 0.567400
36.142800 0.572900
36.198400 0.581100
36.254000 0.590900
36.309600 0.619000
36.365100 0.669000
36.420700 0.722800
36.476300 0.767600
36.531900 0.803200
36.587500 0.815100
36.643100 0.827200
36.698700 0.808300
36.754200 0.795700
36.809800 0.753100
36.865400 0.733000
36.921000 0.738200
36.976600 0.734800
37.032200 0.697500
37.087800 0.680300
37.143400 0.677400
37.198900 0.705800
37.254500 0.682600
37.310100 0.652700
37.365700 0.642000
37.421300 0.664300
37.476900 0.640900
37.532500 0.628200
37.588000 0.627300
37.643600 0.629400
37.699200 0.629700
37.754800 0.635500
37.810400 0.645100
37.866000 0.664500
37.921600 0.680900
37.977200 0.688400
38.032700 0.710200
38.088300 0.732400
38.143900 0.735800
38.199500 0.740100
38.255100 0.740700
38.310700 0.746800
38.366300 0.757700
38.421800 0.767500
38.477400 0.777600
38.533000 0.789000
38.588600 0.804700
38.644200 0.816600
38.699800 0.825700
38.755400 0.866400
38.811000 0.845200
38.866500 0.853300
38.922100 0.859800
38.977700 0.872100
39.033300 0.905000
39.088900 1.057600
39.144500 1.200800
39.200100 1.330000
39.255600 1.473600
39.311200 1.701700
39.366800 1.744200
39.422400 1.465100
39.478000 1.322100
39.533600 1.191800
39.589200 1.125500
39.644800 1.097900
39.700300 1.020600
39.755900 1.010100
39.811500 1.036500
39.867100 1.060200
39.922700 0.973600
39.978300 0.894900
40.033900 0.814100
40.089400 0.788700
40.145000 0.754800
40.200600 0.706500
40.256200 0.684700
40.311800 0.673900
40.367400 0.654400
40.423000 0.635600
40.478600 0.619500
40.534100 0.611000
40.589700 0.607100
40.645300 0.605600
40.700900 0.602100
40.756500 0.596500
40.812100 0.596400
40.867700 0.600300
40.923200 0.596600
40.978800 0.594600
41.034400 0.585700
41.090000 0.567500
41.145600 0.556200
41.201200 0.540000
41.256800 0.523500
41.312400 0.519700
41.367900 0.516400
41.423500 0.515000
41.479100 0.511300
41.534700 0.509200
41.590300 0.508000
41.645900 0.511600
41.701500 0.520400
41.757000 0.535500
41.812600 0.575700
41.868200 0.557600
41.923800 0.536000
41.979400 0.529400
42.035000 0.527700
42.090600 0.525600
42.146200 0.520400
42.201700 0.517600
42.257300 0.518500
42.312900 0.525600
42.368500 0.527900
42.424100 0.532400
42.479700 0.542000
42.535300 0.554900
42.590800 0.563900
42.646400 0.568100
42.702000 0.573900
42.757600 0.587100
42.813200 0.602200
42.868800 0.614600
42.924400 0.637400
42.980000 0.655500
43.035500 0.678900
43.091100 0.703200
43.146700 0.722300
43.202300 0.715900
43.257900 0.711100
43.313500 0.693200
43.369100 0.682000
43.424600 0.658500
43.480200 0.647400
43.535800 0.628100
43.591400 0.612600
43.647000 0.608300
43.702600 0.608600
43.758200 0.616000
43.813800 0.628800
43.869300 0.633900
43.924900 0.648200
43.980500 0.667900
44.036100 0.681700
44.091700 0.702200
44.147300 0.712000
44.202900 0.769400
44.258400 0.772200
44.314000 0.789800
44.369600 0.792700
44.425200 0.811100
44.480800 0.811000
44.536400 0.794600
44.592000 0.777300
44.647600 0.757600
44.703100 0.739000
44.758700 0.722800
44.814300 0.707600
44.869900 0.704800
44.925500 0.703400
44.981100 0.687200
45.036700 0.662500
45.092200 0.636800
45.147800 0.626700
45.203400 0.632500
45.259000 0.652400
45.314600 0.685400
45.370200 0.704800
45.425800 0.720300
45.481400 0.732800
45.536900 0.727000
45.592500 0.729700
45.648100 0.732100
45.703700 0.738200
45.759300 0.736900
45.814900 0.733100
45.870500 0.727100
45.926000 0.721000
45.981600 0.710800
46.037200 0.701500
46.092800 0.702100
46.148400 0.703900
46.204000 0.702500
46.259600 0.693700
46.315200 0.681600
46.370700 0.667200
46.426300 0.659100
46.481900 0.666200
46.537500 0.683000
46.593100 0.698400
46.648700 0.693100
46.704300 0.713400
46.759800 0.740100
46.815400 0.757900
46.871000 0.767000
46.926600 0.792100
46.982200 0.827700
47.037800 0.840200
47.093400 0.865900
47.149000 0.897400
47.204500 0.918000
47.260100 0.873900
47.315700 0.855700
47.371300 0.830500
47.426900 0.815800
47.482500 0.826200
47.538100 0.859500
47.593600 0.853400
47.649200 0.863700
47.704800 0.902300
47.760400 0.923000
47.816000 0.882600
47.871600 0.881400
47.927200 0.883700
47.982800 0.869000
48.038300 0.838200
48.093900 0.839300
48.149500 0.808600
48.205100 0.797900
48.260700 0.801500
48.316300 0.817500
48.371900 0.811600
48.427400 0.818100
48.483000 0.804100
48.538600 0.788200
48.594200 0.758300
48.649800 0.732600
48.705400 0.717400
48.761000 0.716600
48.816500 0.714000
48.872100 0.723400
48.927700 0.713400
48.983300 0.711800
49.038900 0.702700
49.094500 0.728000
49.150100 0.705600
49.205700 0.704000
49.261200 0.725800
49.316800 0.663000
49.372400 0.597100
49.428000 0.558000
49.483600 0.542500
49.539200 0.494100
49.594800 0.465200
49.650300 0.458000
49.705900 0.465500
49.761500 0.481400
49.817100 0.492000
49.872700 0.513400
49.928300 0.543800
49.983900 0.586400
50.039500 0.630300
50.095000 0.686000
50.150600 0.725300
50.206200 0.729300
50.261800 0.695000
50.317400 0.666200
50.373000 0.630700
50.428600 0.610000
50.484100 0.607400
50.539700 0.622200
50.595300 0.637800
50.650900 0.659000
50.706500 0.683100
50.762100 0.712800
50.817700 0.740700
50.873300 0.759200
50.928800 0.755800
50.984400 0.752900
51.040000 0.751200
51.095600 0.742200
51.151200 0.731100
51.206800 0.723600
51.262400 0.727700
51.317900 0.745700
51.373500 0.775200
51.429100 0.795400
51.484700 0.837500
51.540300 0.802300
51.595900 0.785500
51.651500 0.808300
51.707100 0.789900
51.762600 0.775600
51.818200 0.778200
51.873800 0.763700
51.929400 0.758000
51.985000 0.716400
52.040600 0.708400
52.096200 0.689200
52.151700 0.670900
52.207300 0.642300
52.262900 0.627600
52.318500 0.617500
52.374100 0.598100
52.429700 0.595100
52.485300 0.603400
52.540900 0.616700
52.596400 0.630700
52.652000 0.644300
52.707600 0.669400
52.763200 0.704400
52.818800 0.723100
52.874400 0.736400
52.930000 0.747100
52.985500 0.753100
53.041100 0.757500
53.096700 0.766000
53.152300 0.769000
53.207900 0.765800
53.263500 0.775300
53.319100 0.764900
53.374700 0.739700
53.430200 0.718700
53.485800 0.713900
53.541400 0.716100
53.597000 0.716500
53.652600 0.724000
53.708200 0.709800
53.763800 0.688100
53.819300 0.688200
53.874900 0.670600
53.930500 0.660900
53.986100 0.646200
54.041700 0.638700
54.097300 0.639700
54.152900 0.657500
54.208500 0.674300
54.264000 0.690300
54.319600 0.730200
54.375200 0.747700
54.430800 0.781600
54.486400 0.808200
54.542000 0.835400
54.597600 0.865900
54.653100 0.888900
54.708700 0.937000
54.764300 0.955700
54.819900 0.951800
54.875500 0.941000
54.931100 0.923400
54.986700 0.902500
55.042300 0.854000
55.097800 0.829200
55.153400 0.791400
55.209000 0.768500
55.264600 0.770900
55.320200 0.787800
55.375800 0.808200
55.431400 0.857900
55.486900 0.871900
55.542500 0.898500
55.598100 0.924600
55.653700 0.915300
55.709300 0.925100
55.764900 0.985700
55.820500 1.044700
55.876100 1.084400
55.931600 1.117400
55.987200 1.162700
56.042800 1.200400
56.098400 1.216300
56.154000 1.212400
56.209600 1.269600
56.265200 1.348500
56.320700 1.264000
56.376300 1.187900
56.431900 1.171000
56.487500 1.137900
56.543100 1.166500
56.598700 1.164200
56.654300 1.113500
56.709900 1.240400
56.765400 1.309800
56.821000 1.363900
56.876600 1.355300
56.932200 1.240000
56.987800 0.987700
57.043400 0.926600
57.099000 0.904900
57.154500 0.954600
57.210100 1.027600
57.265700 1.159700
57.321300 1.219500
57.376900 1.283400
57.432500 1.166200
57.488100 1.096100
57.543700 1.015000
57.599200 0.963300
57.654800 0.939600
57.710400 0.888600
57.766000 0.808700
57.821600 0.800100
57.877200 0.810200
57.932800 0.809000
57.988300 0.852900
58.043900 0.899700
58.099500 0.928100
58.155100 0.946200
58.210700 0.969300
58.266300 0.974000
58.321900 0.969400
58.377500 0.957800
58.433000 0.953900
58.488600 0.974400
58.544200 0.886100
58.599800 0.849800
58.655400 0.830300
58.711000 0.836900
58.766600 0.815900
58.822100 0.831800
58.877700 0.864500
58.933300 0.890500
58.988900 0.963300
59.044500 0.871600
59.100100 0.823900
59.155700 0.806300
59.211300 0.779600
59.266800 0.737600
59.322400 0.720600
59.378000 0.716400
59.433600 0.652600
59.489200 0.623900
59.544800 0.608400
59.600400 0.578800
59.655900 0.559200
59.711500 0.553500
59.767100 0.562500
59.822700 0.577300
59.878300 0.585500
59.933900 0.574100
59.989500 0.583600
60.045100 0.584800
60.100600 0.587000
60.156200 0.568600
60.211800 0.538500
60.267400 0.516000
60.323000 0.491700
60.378600 0.471800
60.434200 0.443900
60.489700 0.447800
60.545300 0.402800
60.600900 0.375200
60.656500 0.361600
60.712100 0.352600
60.767700 0.338400
60.823300 0.318000
60.878900 0.301100
60.934400 0.290100
60.990000 0.277000
61.045600 0.258900
61.101200 0.244100
61.156800 0.231900
61.212400 0.220100
61.268000 0.207900
61.323500 0.198200
61.379100 0.190800
61.434700 0.186400
61.490300 0.184900
61.545900 0.178100
61.601500 0.173400
61.657100 0.168600
61.712700 0.164100
61.768200 0.161500
61.823800 0.157900
61.879400 0.159500
61.935000 0.160500
61.990600 0.158400
62.046200 0.152300
62.101800 0.137600
62.157300 0.111900
62.212900 0.096400
62.268500 0.083300
62.324100 0.072300
62.379700 0.065300
62.435300 0.058900
62.490900 0.052800
62.546500 0.046900
62.602000 0.041300
62.657600 0.035800
62.713200 0.030400
62.768800 0.024900
62.824400 0.019400
62.880000 0.014700
62.935600 0.011300
62.991100 0.009900
63.046700 0.008500
63.102300 0.007200
63.157900 0.006100
63.213500 0.005000
63.269100 0.004100
63.324700 0.003300
63.380200 0.002500
63.435800 0.001900
63.491400 0.001300
63.547000 0.000100
63.602600 0.000000
63.658200 0.000000
63.713800 0.000000
63.769400 0.000000
63.824900 0.000000
63.880500 0.000000
63.936100 0.000000
63.991700 0.000000
64.047300 0.000000
64.102900 0.000000
64.158500 0.000000
64.214000 0.000000
64.269600 0.000000
64.325200 0.000000
64.380800 0.000000
64.436400 0.000000
64.492000 0.000000
64.547600 0.000000
64.603200 0.000000
64.658700 0.000000
64.714300 0.000000
64.769900 0.000000
64.825500 0.000000
64.881100 0.000000
64.936700 0.000000
64.992300 0.000000
65.047800 0.000000
65.103400 0.000000
65.159000 0.000000
65.214600 0.000000
65.270200 0.000000
65.325800 0.000000
65.381400 0.000000
65.437000 0.000000
65.492500 0.000000
65.548100 0.000000
65.603700 0.000000
65.659300 0.000000
65.714900 0.000000
65.770500 0.000000
65.826100 0.000000
65.881600 0.000000
65.937200 0.000000
65.992800 0.000000
66.048400 0.000000
66.104000 0.000000
66.159600 0.000000
66.215200 0.000000
66.270800 0.000000
66.326300 0.000000
66.381900 0.000000
66.437500 0.000000
66.493100 0.000000
66.548700 0.000000
66.604300 0.000000
66.659900 0.000000
66.715400 0.000000
66.771000 0.000000
66.826600 0.000000
66.882200 0.000000
66.937800 0.000000
66.993400 0.000000
67.049000 0.000000
67.104600 0.000000
67.160100 0.000000
67.215700 0.000000
67.271300 0.000000
67.326900 0.000000
67.382500 0.000000
67.438100 0.000000
67.493700 0.000000
67.549200 0.000000
67.604800 0.000000
67.660400 0.000000
67.716000 0.000000
67.771600 0.000000
67.827200 0.000000
67.882800 0.000000
67.938400 0.000000
67.993900 0.000000
68.049500 0.000000
68.105100 0.000000
68.160700 0.000000
68.216300 0.000000
68.271900 0.000000
68.327500 0.000000
68.383000 0.000000
68.438600 0.000000
68.494200 0.000000
68.549800 0.000000
68.605400 0.000000
e
