set title 'mp-1224832 - Density of States'
set xlabel 'Energy (eV)'
set ylabel 'DOS (states/eV)'
set grid
set xrange [-10:10]
set yrange [0:38.637]
set xzeroaxis lt -1
set terminal png size 800,600
set output 'mp-1224832_dos_gnuplot.png'
plot '-' using 1:2 with lines title 'DOS'
-69.129500 0.000000
-69.070300 0.000000
-69.011200 0.000000
-68.952100 0.000000
-68.893000 0.000000
-68.833900 0.000000
-68.774700 0.000000
-68.715600 0.000000
-68.656500 0.000000
-68.597400 0.000000
-68.538300 0.000000
-68.479100 0.000000
-68.420000 0.000000
-68.360900 0.000000
-68.301800 0.000000
-68.242600 0.000000
-68.183500 0.000000
-68.124400 0.000000
-68.065300 0.000000
-68.006200 0.000000
-67.947000 0.000000
-67.887900 0.000000
-67.828800 0.000000
-67.769700 0.000000
-67.710500 0.000000
-67.651400 0.000000
-67.592300 0.000000
-67.533200 0.000000
-67.474100 0.000000
-67.414900 0.000000
-67.355800 0.000000
-67.296700 0.000000
-67.237600 0.000000
-67.178500 0.000000
-67.119300 0.000000
-67.060200 0.000000
-67.001100 0.000000
-66.942000 0.000000
-66.882800 0.000000
-66.823700 0.000000
-66.764600 0.000000
-66.705500 0.000000
-66.646400 0.000000
-66.587200 0.000000
-66.528100 0.000000
-66.469000 0.000000
-66.409900 0.000000
-66.350700 0.000000
-66.291600 0.000000
-66.232500 0.000000
-66.173400 0.000000
-66.114300 0.000000
-66.055100 0.000000
-65.996000 0.000000
-65.936900 0.000000
-65.877800 0.000000
-65.818600 0.000000
-65.759500 0.000000
-65.700400 0.000000
-65.641300 0.000000
-65.582200 0.000000
-65.523000 0.000000
-65.463900 0.000000
-65.404800 0.000000
-65.345700 0.000000
-65.286600 0.000000
-65.227400 0.000000
-65.168300 0.000000
-65.109200 0.000000
-65.050100 0.000000
-64.990900 0.000000
-64.931800 0.000000
-64.872700 0.000000
-64.813600 0.000000
-64.754500 0.000000
-64.695300 0.000000
-64.636200 0.000000
-64.577100 0.000000
-64.518000 0.000000
-64.458800 0.000000
-64.399700 0.000000
-64.340600 0.000000
-64.281500 0.000000
-64.222400 0.000000
-64.163200 0.000000
-64.104100 0.000000
-64.045000 0.000000
-63.985900 0.000000
-63.926700 0.000000
-63.867600 0.000000
-63.808500 0.000000
-63.749400 487.389900
-63.690300 220.116600
-63.631100 0.000000
-63.572000 0.000000
-63.512900 0.000000
-63.453800 0.000000
-63.394700 0.000000
-63.335500 0.000000
-63.276400 67.586900
-63.217300 77.562300
-63.158200 0.000000
-63.099000 0.000000
-63.039900 0.000000
-62.980800 0.000000
-62.921700 0.000000
-62.862600 0.000000
-62.803400 0.000000
-62.744300 0.000000
-62.685200 0.000000
-62.626100 0.000000
-62.566900 0.000000
-62.507800 0.000000
-62.448700 0.000000
-62.389600 0.000000
-62.330500 0.000000
-62.271300 0.000000
-62.212200 0.000000
-62.153100 0.000000
-62.094000 0.000000
-62.034800 0.000000
-61.975700 0.000000
-61.916600 0.000000
-61.857500 0.000000
-61.798400 0.000000
-61.739200 0.000000
-61.680100 0.000000
-61.621000 0.000000
-61.561900 0.000000
-61.502800 0.000000
-61.443600 0.000000
-61.384500 0.000000
-61.325400 0.000000
-61.266300 0.000000
-61.207100 0.000000
-61.148000 0.000000
-61.088900 0.000000
-61.029800 0.000000
-60.970700 0.000000
-60.911500 0.000000
-60.852400 0.000000
-60.793300 0.000000
-60.734200 0.000000
-60.675000 0.000000
-60.615900 0.000000
-60.556800 0.000000
-60.497700 0.000000
-60.438600 0.000000
-60.379400 0.000000
-60.320300 0.000000
-60.261200 0.000000
-60.202100 0.000000
-60.142900 0.000000
-60.083800 0.000000
-60.024700 0.000000
-59.965600 0.000000
-59.906500 0.000000
-59.847300 0.000000
-59.788200 0.000000
-59.729100 0.000000
-59.670000 0.000000
-59.610900 0.000000
-59.551700 0.000000
-59.492600 0.000000
-59.433500 0.000000
-59.374400 0.000000
-59.315200 0.000000
-59.256100 0.000000
-59.197000 0.000000
-59.137900 0.000000
-59.078800 0.000000
-59.019600 0.000000
-58.960500 0.000000
-58.901400 0.000000
-58.842300 0.000000
-58.783100 0.000000
-58.724000 0.000000
-58.664900 0.000000
-58.605800 0.000000
-58.546700 0.000000
-58.487500 0.000000
-58.428400 0.000000
-58.369300 0.000000
-58.310200 0.000000
-58.251000 0.000000
-58.191900 0.000000
-58.132800 0.000000
-58.073700 0.000000
-58.014600 0.000000
-57.955400 0.000000
-57.896300 0.000000
-57.837200 0.000000
-57.778100 0.000000
-57.719000 0.000000
-57.659800 0.000000
-57.600700 0.000000
-57.541600 0.000000
-57.482500 0.000000
-57.423300 0.000000
-57.364200 0.000000
-57.305100 0.000000
-57.246000 0.000000
-57.186900 0.000000
-57.127700 0.000000
-57.068600 0.000000
-57.009500 0.000000
-56.950400 0.000000
-56.891200 0.000000
-56.832100 0.000000
-56.773000 0.000000
-56.713900 0.000000
-56.654800 0.000000
-56.595600 0.000000
-56.536500 0.000000
-56.477400 0.000000
-56.418300 0.000000
-56.359100 0.000000
-56.300000 0.000000
-56.240900 0.000000
-56.181800 0.000000
-56.122700 0.000000
-56.063500 0.000000
-56.004400 0.000000
-55.945300 0.000000
-55.886200 0.000000
-55.827100 0.000000
-55.767900 0.000000
-55.708800 0.000000
-55.649700 0.000000
-55.590600 0.000000
-55.531400 0.000000
-55.472300 0.000000
-55.413200 0.000000
-55.354100 0.000000
-55.295000 0.000000
-55.235800 0.000000
-55.176700 0.000000
-55.117600 0.000000
-55.058500 0.000000
-54.999300 0.000000
-54.940200 0.000000
-54.881100 0.000000
-54.822000 0.000000
-54.762900 0.000000
-54.703700 0.000000
-54.644600 0.000000
-54.585500 0.000000
-54.526400 0.000000
-54.467200 0.000000
-54.408100 0.000000
-54.349000 0.000000
-54.289900 0.000000
-54.230800 0.000000
-54.171600 0.000000
-54.112500 0.000000
-54.053400 0.000000
-53.994300 0.000000
-53.935200 0.000000
-53.876000 0.000000
-53.816900 0.000000
-53.757800 0.000000
-53.698700 0.000000
-53.639500 0.000000
-53.580400 0.000000
-53.521300 0.000000
-53.462200 0.000000
-53.403100 0.000000
-53.343900 0.000000
-53.284800 0.000000
-53.225700 0.000000
-53.166600 0.000000
-53.107400 0.000000
-53.048300 0.000000
-52.989200 0.000000
-52.930100 0.000000
-52.871000 0.000000
-52.811800 0.000000
-52.752700 0.000000
-52.693600 0.000000
-52.634500 0.000000
-52.575300 0.000000
-52.516200 0.000000
-52.457100 0.000000
-52.398000 0.000000
-52.338900 0.000000
-52.279700 0.000000
-52.220600 0.000000
-52.161500 0.000000
-52.102400 0.000000
-52.043300 0.000000
-51.984100 0.000000
-51.925000 0.000000
-51.865900 0.000000
-51.806800 0.000000
-51.747600 0.000000
-51.688500 0.000000
-51.629400 0.000000
-51.570300 0.000000
-51.511200 0.000000
-51.452000 0.000000
-51.392900 0.000000
-51.333800 0.000000
-51.274700 0.000000
-51.215500 0.000000
-51.156400 0.000000
-51.097300 0.000000
-51.038200 0.000000
-50.979100 0.000000
-50.919900 0.000000
-50.860800 0.000000
-50.801700 0.000000
-50.742600 0.000000
-50.683500 0.000000
-50.624300 0.000000
-50.565200 0.000000
-50.506100 0.000000
-50.447000 0.000000
-50.387800 0.000000
-50.328700 0.000000
-50.269600 0.000000
-50.210500 0.000000
-50.151400 0.000000
-50.092200 0.000000
-50.033100 0.000000
-49.974000 0.000000
-49.914900 0.000000
-49.855700 0.000000
-49.796600 0.000000
-49.737500 0.000000
-49.678400 0.000000
-49.619300 0.000000
-49.560100 0.000000
-49.501000 0.000000
-49.441900 0.000000
-49.382800 0.000000
-49.323600 0.000000
-49.264500 0.000000
-49.205400 0.000000
-49.146300 0.000000
-49.087200 0.000000
-49.028000 0.000000
-48.968900 0.000000
-48.909800 0.000000
-48.850700 0.000000
-48.791600 0.000000
-48.732400 0.000000
-48.673300 0.000000
-48.614200 0.000000
-48.555100 0.000000
-48.495900 0.000000
-48.436800 0.000000
-48.377700 0.000000
-48.318600 0.000000
-48.259500 0.000000
-48.200300 0.000000
-48.141200 0.000000
-48.082100 0.000000
-48.023000 0.000000
-47.963800 0.000000
-47.904700 0.000000
-47.845600 0.000000
-47.786500 0.000000
-47.727400 0.000000
-47.668200 0.000000
-47.609100 0.000000
-47.550000 0.000000
-47.490900 0.000000
-47.431700 0.000000
-47.372600 0.000000
-47.313500 0.000000
-47.254400 0.000000
-47.195300 0.000000
-47.136100 0.000000
-47.077000 0.000000
-47.017900 0.000000
-46.958800 0.000000
-46.899700 0.000000
-46.840500 0.000000
-46.781400 0.000000
-46.722300 0.000000
-46.663200 0.000000
-46.604000 0.000000
-46.544900 0.000000
-46.485800 0.000000
-46.426700 0.000000
-46.367600 0.000000
-46.308400 0.000000
-46.249300 0.000000
-46.190200 0.000000
-46.131100 0.000000
-46.071900 0.000000
-46.012800 0.000000
-45.953700 0.000000
-45.894600 0.000000
-45.835500 0.000000
-45.776300 0.000000
-45.717200 0.000000
-45.658100 0.000000
-45.599000 0.000000
-45.539800 0.000000
-45.480700 0.000000
-45.421600 0.000000
-45.362500 0.000000
-45.303400 0.000000
-45.244200 0.000000
-45.185100 0.000000
-45.126000 0.000000
-45.066900 0.000000
-45.007800 0.000000
-44.948600 0.000000
-44.889500 0.000000
-44.830400 0.000000
-44.771300 0.000000
-44.712100 0.000000
-44.653000 0.000000
-44.593900 0.000000
-44.534800 0.000000
-44.475700 0.000000
-44.416500 0.000000
-44.357400 0.000000
-44.298300 0.000000
-44.239200 0.000000
-44.180000 0.000000
-44.120900 0.000000
-44.061800 0.000000
-44.002700 0.000000
-43.943600 0.000000
-43.884400 0.000000
-43.825300 0.000000
-43.766200 0.000000
-43.707100 0.000000
-43.647900 0.000000
-43.588800 0.000000
-43.529700 0.000000
-43.470600 0.000000
-43.411500 0.000000
-43.352300 0.000000
-43.293200 0.000000
-43.234100 0.000000
-43.175000 0.000000
-43.115900 0.000000
-43.056700 0.000000
-42.997600 0.000000
-42.938500 0.000000
-42.879400 0.000000
-42.820200 0.000000
-42.761100 0.000000
-42.702000 0.000000
-42.642900 0.000000
-42.583800 0.000000
-42.524600 0.000000
-42.465500 0.000000
-42.406400 0.000000
-42.347300 0.000000
-42.288100 0.000000
-42.229000 0.000000
-42.169900 0.000000
-42.110800 0.000000
-42.051700 0.000000
-41.992500 0.000000
-41.933400 0.000000
-41.874300 0.000000
-41.815200 0.000000
-41.756000 0.000000
-41.696900 0.000000
-41.637800 0.000000
-41.578700 0.000000
-41.519600 0.000000
-41.460400 0.000000
-41.401300 0.000000
-41.342200 0.000000
-41.283100 0.000000
-41.224000 0.000000
-41.164800 0.000000
-41.105700 0.000000
-41.046600 0.000000
-40.987500 0.000000
-40.928300 0.000000
-40.869200 0.000000
-40.810100 0.000000
-40.751000 0.000000
-40.691900 0.000000
-40.632700 0.000000
-40.573600 0.000000
-40.514500 0.000000
-40.455400 0.000000
-40.396200 0.000000
-40.337100 0.000000
-40.278000 0.000000
-40.218900 0.000000
-40.159800 0.000000
-40.100600 0.000000
-40.041500 0.000000
-39.982400 0.000000
-39.923300 0.000000
-39.864100 0.000000
-39.805000 0.000000
-39.745900 0.000000
-39.686800 0.000000
-39.627700 0.000000
-39.568500 0.000000
-39.509400 0.000000
-39.450300 0.000000
-39.391200 0.000000
-39.332100 0.000000
-39.272900 0.000000
-39.213800 0.000000
-39.154700 0.000000
-39.095600 0.000000
-39.036400 0.000000
-38.977300 0.000000
-38.918200 0.000000
-38.859100 0.000000
-38.800000 0.000000
-38.740800 0.000000
-38.681700 0.000000
-38.622600 0.000000
-38.563500 0.000000
-38.504300 0.000000
-38.445200 0.000000
-38.386100 0.000000
-38.327000 0.000000
-38.267900 0.000000
-38.208700 0.000000
-38.149600 0.000000
-38.090500 0.000000
-38.031400 0.000000
-37.972200 0.000000
-37.913100 0.000000
-37.854000 0.000000
-37.794900 0.000000
-37.735800 0.000000
-37.676600 0.000000
-37.617500 0.000000
-37.558400 0.000000
-37.499300 0.000000
-37.440200 0.000000
-37.381000 0.000000
-37.321900 0.000000
-37.262800 0.000000
-37.203700 0.000000
-37.144500 0.000000
-37.085400 0.000000
-37.026300 0.000000
-36.967200 0.000000
-36.908100 0.000000
-36.848900 0.000000
-36.789800 0.000000
-36.730700 0.000000
-36.671600 0.000000
-36.612400 0.000000
-36.553300 0.000000
-36.494200 0.000000
-36.435100 0.000000
-36.376000 0.000000
-36.316800 0.000000
-36.257700 0.000000
-36.198600 0.000000
-36.139500 0.000000
-36.080300 0.000000
-36.021200 0.000000
-35.962100 0.000000
-35.903000 0.000000
-35.843900 0.000000
-35.784700 0.000000
-35.725600 0.000000
-35.666500 0.000000
-35.607400 0.000000
-35.548300 0.000000
-35.489100 0.000000
-35.430000 0.000000
-35.370900 0.000000
-35.311800 0.000000
-35.252600 0.000000
-35.193500 0.000000
-35.134400 0.000000
-35.075300 0.000000
-35.016200 0.000000
-34.957000 0.000000
-34.897900 0.000000
-34.838800 0.000000
-34.779700 0.000000
-34.720500 0.000000
-34.661400 0.000000
-34.602300 0.000000
-34.543200 0.000000
-34.484100 0.000000
-34.424900 0.000000
-34.365800 0.000000
-34.306700 0.000000
-34.247600 0.000000
-34.188500 0.000000
-34.129300 0.000000
-34.070200 0.000000
-34.011100 0.000000
-33.952000 0.000000
-33.892800 0.000000
-33.833700 0.000000
-33.774600 0.000000
-33.715500 0.000000
-33.656400 0.000000
-33.597200 0.000000
-33.538100 0.000000
-33.479000 0.000000
-33.419900 0.000000
-33.360700 0.000000
-33.301600 0.000000
-33.242500 0.000000
-33.183400 0.000000
-33.124300 0.000000
-33.065100 0.000000
-33.006000 0.000000
-32.946900 0.000000
-32.887800 0.000000
-32.828600 0.000000
-32.769500 0.000000
-32.710400 0.000000
-32.651300 0.000000
-32.592200 0.000000
-32.533000 0.000000
-32.473900 0.000000
-32.414800 0.000000
-32.355700 0.000000
-32.296600 0.000000
-32.237400 0.000000
-32.178300 0.000000
-32.119200 0.000000
-32.060100 0.000000
-32.000900 0.000000
-31.941800 0.000000
-31.882700 0.000000
-31.823600 0.000000
-31.764500 0.000000
-31.705300 0.000000
-31.646200 0.000000
-31.587100 0.000000
-31.528000 0.000000
-31.468800 0.000000
-31.409700 0.000000
-31.350600 0.000000
-31.291500 0.000000
-31.232400 0.000000
-31.173200 0.000000
-31.114100 0.000000
-31.055000 0.000000
-30.995900 0.000000
-30.936700 0.000000
-30.877600 0.000000
-30.818500 0.000000
-30.759400 0.000000
-30.700300 0.000000
-30.641100 0.000000
-30.582000 0.000000
-30.522900 0.000000
-30.463800 0.000000
-30.404700 0.000000
-30.345500 0.000000
-30.286400 0.000000
-30.227300 0.000000
-30.168200 0.000000
-30.109000 0.000000
-30.049900 0.000000
-29.990800 0.000000
-29.931700 0.000000
-29.872600 0.000000
-29.813400 0.000000
-29.754300 0.000000
-29.695200 0.000000
-29.636100 0.000000
-29.576900 0.000000
-29.517800 0.000000
-29.458700 0.000000
-29.399600 0.000000
-29.340500 0.000000
-29.281300 0.000000
-29.222200 0.000000
-29.163100 0.000000
-29.104000 0.000000
-29.044800 0.000000
-28.985700 0.000000
-28.926600 0.000000
-28.867500 0.000000
-28.808400 0.000000
-28.749200 0.000000
-28.690100 0.000000
-28.631000 0.000000
-28.571900 0.000000
-28.512800 0.000000
-28.453600 0.000000
-28.394500 0.000000
-28.335400 0.000000
-28.276300 0.000000
-28.217100 0.000000
-28.158000 0.000000
-28.098900 0.000000
-28.039800 0.000000
-27.980700 0.000000
-27.921500 0.000000
-27.862400 0.000000
-27.803300 0.000000
-27.744200 0.000000
-27.685000 0.000000
-27.625900 0.000000
-27.566800 0.000000
-27.507700 0.000000
-27.448600 0.000000
-27.389400 0.000000
-27.330300 0.000000
-27.271200 0.000000
-27.212100 0.000000
-27.152900 0.000000
-27.093800 0.000000
-27.034700 0.000000
-26.975600 0.000000
-26.916500 0.000000
-26.857300 0.000000
-26.798200 0.000000
-26.739100 0.000000
-26.680000 0.000000
-26.620900 0.000000
-26.561700 0.000000
-26.502600 0.000000
-26.443500 0.000000
-26.384400 0.000000
-26.325200 0.000000
-26.266100 0.000000
-26.207000 0.000000
-26.147900 0.000000
-26.088800 0.000000
-26.029600 0.000000
-25.970500 0.000000
-25.911400 0.000000
-25.852300 0.000000
-25.793100 0.000000
-25.734000 0.000000
-25.674900 0.000000
-25.615800 0.000000
-25.556700 0.000000
-25.497500 0.000000
-25.438400 0.000000
-25.379300 0.000000
-25.320200 0.000000
-25.261000 0.000000
-25.201900 0.000000
-25.142800 0.000000
-25.083700 0.000000
-25.024600 0.000000
-24.965400 0.000000
-24.906300 0.000000
-24.847200 0.000000
-24.788100 0.000000
-24.729000 0.000000
-24.669800 0.000000
-24.610700 0.000000
-24.551600 0.000000
-24.492500 0.000000
-24.433300 0.000000
-24.374200 0.000000
-24.315100 0.000000
-24.256000 0.000000
-24.196900 0.000000
-24.137700 0.000000
-24.078600 0.000000
-24.019500 0.000000
-23.960400 0.000000
-23.901200 0.000000
-23.842100 0.000000
-23.783000 0.000000
-23.723900 0.000000
-23.664800 0.000000
-23.605600 0.000000
-23.546500 0.000000
-23.487400 0.000000
-23.428300 0.000000
-23.369100 0.000000
-23.310000 0.000000
-23.250900 0.000000
-23.191800 0.000000
-23.132700 0.000000
-23.073500 0.000000
-23.014400 0.000000
-22.955300 0.000000
-22.896200 0.000000
-22.837100 0.000000
-22.777900 0.000000
-22.718800 0.000000
-22.659700 0.000000
-22.600600 0.000000
-22.541400 0.000000
-22.482300 0.000000
-22.423200 0.000000
-22.364100 0.000000
-22.305000 0.000000
-22.245800 0.000000
-22.186700 0.000000
-22.127600 0.000000
-22.068500 0.000000
-22.009300 0.000000
-21.950200 0.000000
-21.891100 0.000000
-21.832000 0.000000
-21.772900 0.000000
-21.713700 0.000000
-21.654600 0.000000
-21.595500 0.000000
-21.536400 0.000000
-21.477200 0.000000
-21.418100 0.000000
-21.359000 0.000000
-21.299900 0.000000
-21.240800 0.000000
-21.181600 0.000000
-21.122500 0.000000
-21.063400 0.000000
-21.004300 0.000000
-20.945200 0.000000
-20.886000 0.000000
-20.826900 0.000000
-20.767800 0.000000
-20.708700 0.000000
-20.649500 0.000000
-20.590400 0.000000
-20.531300 0.000000
-20.472200 0.000000
-20.413100 0.000000
-20.353900 0.000000
-20.294800 0.000000
-20.235700 0.000000
-20.176600 0.000000
-20.117400 0.000000
-20.058300 0.000000
-19.999200 0.000000
-19.940100 0.000000
-19.881000 0.000000
-19.821800 0.000000
-19.762700 0.000000
-19.703600 0.000000
-19.644500 0.000000
-19.585300 0.000000
-19.526200 0.000000
-19.467100 0.000000
-19.408000 0.000000
-19.348900 0.000000
-19.289700 0.000000
-19.230600 0.000000
-19.171500 0.000000
-19.112400 0.000000
-19.053300 0.000000
-18.994100 0.000000
-18.935000 0.000000
-18.875900 0.000000
-18.816800 0.000000
-18.757600 0.000000
-18.698500 0.000000
-18.639400 0.000000
-18.580300 0.000000
-18.521200 0.000000
-18.462000 0.000000
-18.402900 0.000000
-18.343800 0.000000
-18.284700 0.000000
-18.225500 0.000000
-18.166400 0.000000
-18.107300 0.000000
-18.048200 0.000000
-17.989100 0.000000
-17.929900 0.000000
-17.870800 0.000000
-17.811700 0.000000
-17.752600 0.000000
-17.693500 0.000000
-17.634300 0.000000
-17.575200 0.000000
-17.516100 0.000000
-17.457000 0.000000
-17.397800 0.000000
-17.338700 0.000000
-17.279600 0.000000
-17.220500 0.000000
-17.161400 0.000000
-17.102200 0.000000
-17.043100 0.000000
-16.984000 0.000000
-16.924900 0.000000
-16.865700 0.000000
-16.806600 0.000000
-16.747500 0.000000
-16.688400 0.000000
-16.629300 0.000000
-16.570100 0.000000
-16.511000 0.000000
-16.451900 0.000000
-16.392800 0.000000
-16.333600 0.000000
-16.274500 0.000000
-16.215400 0.000000
-16.156300 0.000000
-16.097200 0.000000
-16.038000 0.000000
-15.978900 0.000000
-15.919800 0.000000
-15.860700 0.000000
-15.801600 0.000000
-15.742400 0.000000
-15.683300 0.000000
-15.624200 0.000000
-15.565100 0.000000
-15.505900 0.000000
-15.446800 0.000000
-15.387700 0.000000
-15.328600 0.000000
-15.269500 0.000000
-15.210300 0.000000
-15.151200 0.000000
-15.092100 0.000000
-15.033000 0.000000
-14.973800 0.000000
-14.914700 0.000000
-14.855600 0.000000
-14.796500 0.000000
-14.737400 0.000000
-14.678200 0.000000
-14.619100 0.000000
-14.560000 0.000000
-14.500900 0.000000
-14.441700 0.000000
-14.382600 0.000000
-14.323500 0.000000
-14.264400 0.000000
-14.205300 0.000000
-14.146100 0.000000
-14.087000 0.000000
-14.027900 0.000000
-13.968800 0.000000
-13.909700 0.000000
-13.850500 0.000000
-13.791400 0.000000
-13.732300 0.000000
-13.673200 0.000000
-13.614000 0.000000
-13.554900 0.000000
-13.495800 0.000000
-13.436700 0.000000
-13.377600 0.000000
-13.318400 0.000000
-13.259300 0.000000
-13.200200 0.000000
-13.141100 0.000000
-13.081900 0.000000
-13.022800 0.000000
-12.963700 0.000000
-12.904600 0.000000
-12.845500 0.000000
-12.786300 0.000000
-12.727200 0.000000
-12.668100 0.000000
-12.609000 0.000000
-12.549800 0.000000
-12.490700 0.000000
-12.431600 0.000000
-12.372500 0.000000
-12.313400 0.000000
-12.254200 0.000000
-12.195100 0.000000
-12.136000 0.000000
-12.076900 0.000000
-12.017800 0.000000
-11.958600 0.000000
-11.899500 0.000000
-11.840400 0.000000
-11.781300 0.000000
-11.722100 0.000000
-11.663000 0.000000
-11.603900 0.000000
-11.544800 0.000000
-11.485700 0.000000
-11.426500 0.000000
-11.367400 0.000000
-11.308300 0.000000
-11.249200 0.000000
-11.190000 0.000000
-11.130900 0.000000
-11.071800 0.000000
-11.012700 0.000000
-10.953600 0.000000
-10.894400 0.000000
-10.835300 0.000000
-10.776200 0.000000
-10.717100 0.000000
-10.657900 0.000000
-10.598800 0.000000
-10.539700 0.000000
-10.480600 0.000000
-10.421500 0.000000
-10.362300 0.000000
-10.303200 0.000000
-10.244100 0.000000
-10.185000 0.000000
-10.125900 0.000000
-10.066700 0.000000
-10.007600 0.000000
-9.948500 0.000000
-9.889400 0.000000
-9.830200 0.000000
-9.771100 0.000000
-9.712000 0.000000
-9.652900 0.000000
-9.593800 0.000000
-9.534600 0.000000
-9.475500 0.000000
-9.416400 0.000000
-9.357300 3.616600
-9.298100 5.616400
-9.239000 6.927100
-9.179900 14.160500
-9.120800 2.601500
-9.061700 17.023200
-9.002500 14.713500
-8.943400 11.143000
-8.884300 9.467800
-8.825200 30.338500
-8.766000 35.124700
-8.706900 18.624000
-8.647800 6.457000
-8.588700 0.000000
-8.529600 0.000000
-8.470400 0.000000
-8.411300 0.000000
-8.352200 0.000000
-8.293100 0.000000
-8.234000 0.000000
-8.174800 0.000000
-8.115700 0.000000
-8.056600 0.000000
-7.997500 0.000000
-7.938300 0.000000
-7.879200 0.000000
-7.820100 0.000000
-7.761000 0.000000
-7.701900 0.000000
-7.642700 0.000000
-7.583600 0.000000
-7.524500 0.000000
-7.465400 0.000000
-7.406200 0.000000
-7.347100 0.000000
-7.288000 0.000000
-7.228900 0.000000
-7.169800 0.000000
-7.110600 0.000000
-7.051500 0.000000
-6.992400 0.000000
-6.933300 0.000000
-6.874100 0.000000
-6.815000 0.000000
-6.755900 0.000000
-6.696800 0.000000
-6.637700 0.000000
-6.578500 0.000000
-6.519400 0.000000
-6.460300 0.000000
-6.401200 0.000000
-6.342100 0.000000
-6.282900 0.000000
-6.223800 0.000000
-6.164700 0.000000
-6.105600 0.000000
-6.046400 0.000000
-5.987300 0.000000
-5.928200 0.000000
-5.869100 0.000000
-5.810000 0.000000
-5.750800 0.000000
-5.691700 0.000000
-5.632600 0.000000
-5.573500 0.000000
-5.514300 0.000000
-5.455200 0.000000
-5.396100 0.125600
-5.337000 0.266000
-5.277900 0.406300
-5.218700 0.227400
-5.159600 0.238700
-5.100500 0.249900
-5.041400 0.261100
-4.982200 0.272300
-4.923100 0.283600
-4.864000 0.286900
-4.804900 0.271700
-4.745800 0.256400
-4.686600 0.242200
-4.627500 0.246000
-4.568400 0.249700
-4.509300 0.253500
-4.450200 0.257300
-4.391000 0.261100
-4.331900 0.264900
-4.272800 0.268700
-4.213700 0.272500
-4.154500 0.276200
-4.095400 0.256400
-4.036300 0.255400
-3.977200 0.254400
-3.918100 0.253400
-3.858900 0.252300
-3.799800 0.251300
-3.740700 0.250300
-3.681600 0.251100
-3.622400 0.253100
-3.563300 0.255000
-3.504200 0.257000
-3.445100 0.258900
-3.386000 0.260900
-3.326800 0.262800
-3.267700 0.264800
-3.208600 0.266700
-3.149500 0.268700
-3.090300 0.266400
-3.031200 0.261600
-2.972100 0.256800
-2.913000 0.254000
-2.853900 0.254500
-2.794700 0.255100
-2.735600 0.255600
-2.676500 0.256200
-2.617400 0.256700
-2.558300 0.257300
-2.499100 0.257800
-2.440000 0.258400
-2.380900 0.261200
-2.321800 0.291300
-2.262600 0.338600
-2.203500 0.397000
-2.144400 0.407200
-2.085300 0.422000
-2.026200 0.440300
-1.967000 0.460400
-1.907900 0.482900
-1.848800 0.507800
-1.789700 0.527100
-1.730500 0.527100
-1.671400 0.525500
-1.612300 0.543700
-1.553200 0.562400
-1.494100 0.575000
-1.434900 0.585400
-1.375800 0.597500
-1.316700 0.610900
-1.257600 0.623800
-1.198500 0.637400
-1.139300 0.652900
-1.080200 0.670600
-1.021100 0.686900
-0.962000 0.701000
-0.902800 0.712100
-0.843700 0.724600
-0.784600 0.737600
-0.725500 0.750700
-0.666400 0.764000
-0.607200 0.777800
-0.548100 0.791300
-0.489000 0.807100
-0.429900 0.827500
-0.370700 0.846400
-0.311600 0.860100
-0.252500 0.869300
-0.193400 0.877800
-0.134300 0.922400
-0.075100 0.938600
-0.016000 0.958500
0.043100 0.979200
0.102200 1.000400
0.161400 1.022600
0.220500 1.046800
0.279600 1.073300
0.338700 1.101800
0.397800 1.314300
0.457000 1.308600
0.516100 1.303200
0.575200 1.298500
0.634300 1.296200
0.693400 1.297100
0.752600 1.300400
0.811700 1.306100
0.870800 1.313900
0.929900 1.325200
0.989100 1.355500
1.048200 1.400000
1.107300 1.519700
1.166400 1.677000
1.225500 1.863700
1.284700 2.757700
1.343800 2.700200
1.402900 2.674800
1.462000 2.690700
1.521200 3.562600
1.580300 3.070600
1.639400 3.043100
1.698500 3.489800
1.757600 4.164800
1.816800 4.160600
1.875900 4.385500
1.935000 5.340900
1.994100 5.436000
2.053300 5.803100
2.112400 6.121500
2.171500 6.619100
2.230600 7.978900
2.289700 7.909900
2.348900 8.354500
2.408000 11.014800
2.467100 11.351100
2.526200 10.628900
2.585300 15.740600
2.644500 11.657800
2.703600 8.711800
2.762700 8.434700
2.821800 9.691300
2.881000 8.856800
2.940100 10.455100
2.999200 15.162700
3.058300 13.259100
3.117400 16.003900
3.176600 14.528200
3.235700 10.272100
3.294800 15.732300
3.353900 21.761800
3.413100 18.418300
3.472200 28.135700
3.531300 18.792200
3.590400 15.383500
3.649500 13.302200
3.708700 15.263600
3.767800 13.290500
3.826900 12.975400
3.886000 9.295800
3.945200 15.524500
4.004300 13.651200
4.063400 14.167000
4.122500 17.528900
4.181600 13.318300
4.240800 14.390300
4.299900 11.213400
4.359000 10.933000
4.418100 16.055500
4.477200 14.973600
4.536400 10.187500
4.595500 11.963100
4.654600 17.439600
4.713700 12.256000
4.772900 18.170000
4.832000 10.523900
4.891100 7.746800
4.950200 4.183900
5.009300 2.967900
5.068500 2.830300
5.127600 3.123000
5.186700 2.954000
5.245800 2.252200
5.305000 2.049700
5.364100 1.986900
5.423200 1.943300
5.482300 1.920800
5.541400 1.911400
5.600600 1.893900
5.659700 1.868300
5.718800 1.874700
5.777900 2.018300
5.837100 2.658800
5.896200 2.656300
5.955300 2.693900
6.014400 1.366900
6.073500 1.277700
6.132700 1.245100
6.191800 1.270800
6.250900 1.321200
6.310000 1.380300
6.369100 1.447300
6.428300 1.515200
6.487400 1.585500
6.546500 1.642700
6.605600 1.648500
6.664800 1.646700
6.723900 1.631600
6.783000 1.459300
6.842100 1.360700
6.901200 1.319300
6.960400 1.306500
7.019500 1.313200
7.078600 1.360100
7.137700 1.422600
7.196900 1.229800
7.256000 1.240300
7.315100 1.265500
7.374200 1.264800
7.433300 1.307900
7.492500 1.334400
7.551600 1.284900
7.610700 1.385300
7.669800 1.460800
7.729000 1.661800
7.788100 1.466000
7.847200 1.201400
7.906300 1.194600
7.965400 1.236600
8.024600 1.594200
8.083700 1.761600
8.142800 1.740400
8.201900 1.702500
8.261000 1.698900
8.320200 1.600500
8.379300 1.399800
8.438400 1.312800
8.497500 1.269600
8.556700 1.121300
8.615800 0.946800
8.674900 0.971500
8.734000 0.991900
8.793100 1.047600
8.852300 1.109400
8.911400 1.114900
8.970500 1.024500
9.029600 1.016100
9.088800 1.078100
9.147900 1.299300
9.207000 1.301000
9.266100 1.154600
9.325200 1.137200
9.384400 1.123000
9.443500 1.077900
9.502600 1.050200
9.561700 0.931900
9.620900 0.824300
9.680000 0.839800
9.739100 1.186800
9.798200 1.320400
9.857300 1.400700
9.916500 1.492000
9.975600 1.373600
10.034700 1.497500
10.093800 1.614000
10.152900 1.645500
10.212100 1.716100
10.271200 1.590100
10.330300 1.465700
10.389400 1.391300
10.448600 1.313500
10.507700 1.320900
10.566800 1.375800
10.625900 1.436200
10.685000 1.586600
10.744200 1.621200
10.803300 1.559300
10.862400 1.463500
10.921500 1.398700
10.980700 1.355100
11.039800 1.338800
11.098900 1.354200
11.158000 1.454200
11.217100 1.509900
11.276300 1.529000
11.335400 1.556400
11.394500 1.587000
11.453600 1.637500
11.512800 1.689400
11.571900 1.783700
11.631000 1.957700
11.690100 1.903400
11.749200 2.024200
11.808400 1.845100
11.867500 1.687100
11.926600 1.518100
11.985700 1.432900
12.044800 1.406400
12.104000 1.386700
12.163100 1.435700
12.222200 1.484700
12.281300 1.569700
12.340500 1.634200
12.399600 1.659400
12.458700 1.663500
12.517800 1.686300
12.576900 1.701000
12.636100 1.700400
12.695200 1.716400
12.754300 1.733300
12.813400 1.735000
12.872600 1.738900
12.931700 1.629000
12.990800 1.491600
13.049900 1.423000
13.109000 1.417600
13.168200 1.412200
13.227300 1.462700
13.286400 1.715500
13.345500 1.610200
13.404700 1.622700
13.463800 1.722900
13.522900 1.757400
13.582000 1.736400
13.641100 1.753900
13.700300 1.774100
13.759400 1.737200
13.818500 1.686900
13.877600 1.667500
13.936700 1.662400
13.995900 1.656700
14.055000 1.741600
14.114100 1.817600
14.173200 1.774600
14.232400 1.745000
14.291500 1.720500
14.350600 1.756100
14.409700 1.792300
14.468800 1.840900
14.528000 1.869400
14.587100 1.894100
14.646200 1.930600
14.705300 1.938100
14.764500 1.963400
14.823600 1.988600
14.882700 2.054900
14.941800 2.018900
15.000900 2.059700
15.060100 2.099800
15.119200 2.124600
15.178300 2.139700
15.237400 2.147000
15.296500 2.142100
15.355700 2.096700
15.414800 2.039800
15.473900 2.018900
15.533000 2.014800
15.592200 2.032500
15.651300 1.989000
15.710400 2.015400
15.769500 2.012500
15.828600 1.975500
15.887800 1.942300
15.946900 1.914700
16.006000 1.867300
16.065100 1.819600
16.124300 1.793000
16.183400 1.773400
16.242500 1.760800
16.301600 1.751700
16.360700 1.735800
16.419900 1.759300
16.479000 1.723000
16.538100 1.713900
16.597200 1.741500
16.656400 1.752500
16.715500 1.789200
16.774600 1.833500
16.833700 1.932400
16.892800 2.022200
16.952000 2.060900
17.011100 2.043100
17.070200 1.956600
17.129300 1.881000
17.188400 1.863600
17.247600 1.851300
17.306700 1.825800
17.365800 1.833400
17.424900 1.857000
17.484100 1.899500
17.543200 1.940900
17.602300 1.963300
17.661400 2.004300
17.720500 2.017500
17.779700 2.052200
17.838800 2.117800
17.897900 2.155400
17.957000 2.211600
18.016200 2.258300
18.075300 2.280600
18.134400 2.251700
18.193500 2.241800
18.252600 2.218600
18.311800 2.191900
18.370900 2.166000
18.430000 2.152900
18.489100 2.168100
18.548300 2.194300
18.607400 2.234300
18.666500 2.175400
18.725600 2.148800
18.784700 2.135700
18.843900 2.132700
18.903000 2.113100
18.962100 2.074400
19.021200 2.079300
19.080300 2.128300
19.139500 2.184100
19.198600 2.239200
19.257700 2.335100
19.316800 2.378400
19.376000 2.362800
19.435100 2.261500
19.494200 2.230900
19.553300 2.178800
19.612400 2.117700
19.671600 2.076600
19.730700 2.047800
19.789800 2.007300
19.848900 1.949800
19.908100 1.923400
19.967200 1.898800
20.026300 1.892500
20.085400 1.898500
20.144500 1.926500
20.203700 1.965800
20.262800 2.035500
20.321900 2.142400
20.381000 2.239200
20.440200 2.718300
20.499300 2.151800
20.558400 2.098500
20.617500 2.070600
20.676600 2.047400
20.735800 2.025500
20.794900 2.004700
20.854000 1.986900
20.913100 1.982100
20.972200 1.971500
21.031400 1.947400
21.090500 1.922200
21.149600 1.903500
21.208700 1.878600
21.267900 1.864000
21.327000 1.887700
21.386100 1.950300
21.445200 2.052700
21.504300 2.048000
21.563500 2.043200
21.622600 2.057100
21.681700 2.081200
21.740800 2.098000
21.800000 2.048800
21.859100 2.018900
21.918200 1.998500
21.977300 1.955700
22.036400 1.907700
22.095600 1.871700
22.154700 1.845100
22.213800 1.826400
22.272900 1.811400
22.332100 1.802800
22.391200 1.817400
22.450300 1.827400
22.509400 1.836200
22.568500 1.846800
22.627700 1.848800
22.686800 1.878700
22.745900 1.867900
22.805000 1.857500
22.864100 1.849300
22.923300 1.836500
22.982400 1.844700
23.041500 1.931200
23.100600 2.022300
23.159800 2.016100
23.218900 2.023800
23.278000 2.018000
23.337100 2.033100
23.396200 2.075600
23.455400 2.065300
23.514500 2.023300
23.573600 1.978200
23.632700 1.987400
23.691900 1.956200
23.751000 1.939300
23.810100 1.912200
23.869200 1.883800
23.928300 1.871600
23.987500 1.910300
24.046600 1.901300
24.105700 1.910500
24.164800 1.943900
24.224000 2.019900
24.283100 2.024400
24.342200 2.016400
24.401300 2.018700
24.460400 2.012000
24.519600 2.021400
24.578700 2.160600
24.637800 2.344300
24.696900 2.413100
24.756000 2.381100
24.815200 2.315300
24.874300 2.325500
24.933400 2.324600
24.992500 2.320000
25.051700 2.345300
25.110800 2.419100
25.169900 2.445800
25.229000 2.498600
25.288100 2.568900
25.347300 2.676600
25.406400 2.808300
25.465500 2.681700
25.524600 2.638900
25.583800 2.682500
25.642900 2.734000
25.702000 2.812500
25.761100 2.665100
25.820200 2.688700
25.879400 2.724000
25.938500 2.822800
25.997600 2.979200
26.056700 3.070100
26.115900 3.020100
26.175000 2.950300
26.234100 2.917800
26.293200 2.895800
26.352300 2.834800
26.411500 2.825100
26.470600 2.868000
26.529700 2.838000
26.588800 2.779600
26.647900 2.608600
26.707100 2.586800
26.766200 2.612500
26.825300 2.550300
26.884400 2.509800
26.943600 2.495200
27.002700 2.563800
27.061800 2.454800
27.120900 2.530300
27.180000 2.666800
27.239200 2.712900
27.298300 2.768400
27.357400 2.925600
27.416500 2.844100
27.475700 2.434800
27.534800 2.299600
27.593900 2.347600
27.653000 2.374500
27.712100 2.294500
27.771300 2.195600
27.830400 2.154300
27.889500 2.074000
27.948600 2.132600
28.007800 2.310400
28.066900 2.390900
28.126000 2.513700
28.185100 2.678200
28.244200 2.680700
28.303400 2.655000
28.362500 2.755000
28.421600 2.309600
28.480700 2.250000
28.539800 2.179500
28.599000 2.170300
28.658100 2.188200
28.717200 2.221500
28.776300 2.313300
28.835500 2.272600
28.894600 2.259500
28.953700 2.172000
29.012800 2.152500
29.071900 2.115300
29.131100 2.067800
29.190200 2.064600
29.249300 2.099300
29.308400 2.018700
29.367600 2.016400
29.426700 2.163300
29.485800 2.302600
29.544900 2.473700
29.604000 2.384500
29.663200 2.353000
29.722300 2.098300
29.781400 1.921800
29.840500 1.904700
29.899700 1.947600
29.958800 1.891500
30.017900 1.822600
30.077000 1.856400
30.136100 2.013700
30.195300 2.066000
30.254400 2.164300
30.313500 2.095500
30.372600 2.010400
30.431700 1.861900
30.490900 1.808400
30.550000 1.869200
30.609100 2.194900
30.668200 2.305600
30.727400 2.408500
30.786500 2.479100
30.845600 2.557100
30.904700 2.704900
30.963800 2.633000
31.023000 2.487700
31.082100 2.419400
31.141200 2.387200
31.200300 2.504400
31.259500 2.826400
31.318600 2.971400
31.377700 2.921000
31.436800 2.764100
31.495900 2.654600
31.555100 2.575400
31.614200 2.527300
31.673300 2.511400
31.732400 2.520600
31.791500 2.536000
31.850700 2.520500
31.909800 2.436600
31.968900 2.502800
32.028000 2.663600
32.087200 2.598700
32.146300 2.475600
32.205400 2.484000
32.264500 2.534100
32.323600 2.543500
32.382800 2.534800
32.441900 2.484000
32.501000 2.390300
32.560100 2.376900
32.619300 2.326900
32.678400 2.501200
32.737500 2.390100
32.796600 2.471300
32.855700 2.661600
32.914900 2.716400
32.974000 2.754900
33.033100 2.751800
33.092200 2.723000
33.151400 2.631700
33.210500 2.543200
33.269600 2.440000
33.328700 2.378100
33.387800 2.318600
33.447000 2.347500
33.506100 2.360100
33.565200 2.392700
33.624300 2.410300
33.683400 2.384400
33.742600 2.386800
33.801700 2.418500
33.860800 2.427500
33.919900 2.433800
33.979100 2.351700
34.038200 2.355700
34.097300 2.365200
34.156400 2.383100
34.215500 2.400900
34.274700 2.430200
34.333800 2.515400
34.392900 2.562100
34.452000 2.675200
34.511200 2.755300
34.570300 2.683900
34.629400 2.649700
34.688500 2.754000
34.747600 2.806600
34.806800 2.802100
34.865900 2.754500
34.925000 2.798900
34.984100 2.908000
35.043300 2.971100
35.102400 2.989400
35.161500 2.964800
35.220600 2.918200
35.279700 2.912200
35.338900 2.909400
35.398000 2.755000
35.457100 2.730400
35.516200 2.747400
35.575300 2.843200
35.634500 2.695600
35.693600 2.642400
35.752700 2.629500
35.811800 2.694200
35.871000 2.773500
35.930100 2.949500
35.989200 3.011600
36.048300 2.936700
36.107400 2.920000
36.166600 2.900800
36.225700 2.881800
36.284800 2.875900
36.343900 2.848500
36.403100 2.783000
36.462200 2.612600
36.521300 2.641200
36.580400 2.501600
36.639500 2.489700
36.698700 2.483900
36.757800 2.533400
36.816900 2.599600
36.876000 2.701600
36.935200 2.705700
36.994300 2.694500
37.053400 2.674900
37.112500 2.661500
37.171600 2.656200
37.230800 2.675400
37.289900 2.700700
37.349000 2.642600
37.408100 2.547300
37.467200 2.444500
37.526400 2.463100
37.585500 2.519700
37.644600 2.555800
37.703700 2.513400
37.762900 2.452800
37.822000 2.408500
37.881100 2.414400
37.940200 2.433700
37.999300 2.432900
38.058500 2.461800
38.117600 2.543700
38.176700 2.650500
38.235800 2.667800
38.295000 2.724700
38.354100 2.967300
38.413200 3.168900
38.472300 3.132900
38.531400 3.139400
38.590600 3.185400
38.649700 3.166300
38.708800 3.174200
38.767900 3.308800
38.827100 3.875000
38.886200 4.141800
38.945300 4.049200
39.004400 4.155400
39.063500 4.238200
39.122700 4.347200
39.181800 4.510800
39.240900 4.825400
39.300000 5.477200
39.359100 6.992200
39.418300 8.311600
39.477400 8.811300
39.536500 9.862800
39.595600 7.636100
39.654800 7.335500
39.713900 6.924000
39.773000 7.759000
39.832100 8.581200
39.891200 8.962000
39.950400 11.813200
40.009500 6.357800
40.068600 4.580400
40.127700 3.675600
40.186900 3.045800
40.246000 2.741700
40.305100 2.458400
40.364200 1.937700
40.423300 1.634000
40.482500 1.432600
40.541600 1.303700
40.600700 1.203400
40.659800 1.131600
40.719000 1.070800
40.778100 1.015800
40.837200 0.966500
40.896300 0.916200
40.955400 0.867600
41.014600 0.824900
41.073700 0.794900
41.132800 0.733900
41.191900 0.674300
41.251000 0.618800
41.310200 0.571000
41.369300 0.529400
41.428400 0.495300
41.487500 0.470800
41.546700 0.453900
41.605800 0.439000
41.664900 0.426300
41.724000 0.415700
41.783100 0.407100
41.842300 0.400600
41.901400 0.396000
41.960500 0.392400
42.019600 0.384400
42.078800 0.373300
42.137900 0.360200
42.197000 0.338200
42.256100 0.314800
42.315200 0.290300
42.374400 0.274600
42.433500 0.261400
42.492600 0.248400
42.551700 0.234700
42.610900 0.220100
42.670000 0.205100
42.729100 0.190300
42.788200 0.176100
42.847300 0.163200
42.906500 0.151500
42.965600 0.141200
43.024700 0.133200
43.083800 0.114100
43.142900 0.090000
43.202100 0.076700
43.261200 0.071200
43.320300 0.065800
43.379400 0.059600
43.438600 0.045200
43.497700 0.023700
43.556800 0.004500
43.615900 0.000600
43.675000 0.000200
43.734200 0.000000
43.793300 0.000000
43.852400 0.000000
43.911500 0.000000
43.970700 0.000000
44.029800 0.000000
44.088900 0.000000
44.148000 0.000000
44.207100 0.000000
44.266300 0.000000
44.325400 0.000000
44.384500 0.000000
44.443600 0.000000
44.502800 0.000000
44.561900 0.000000
44.621000 0.000000
44.680100 0.000000
44.739200 0.000000
44.798400 0.000000
44.857500 0.000000
44.916600 0.000000
44.975700 0.000000
45.034800 0.000000
45.094000 0.000000
45.153100 0.000000
45.212200 0.000000
45.271300 0.000000
45.330500 0.000000
45.389600 0.000000
45.448700 0.000000
45.507800 0.000000
45.566900 0.000000
45.626100 0.000000
45.685200 0.000000
45.744300 0.000000
45.803400 0.000000
45.862600 0.000000
45.921700 0.000000
45.980800 0.000000
46.039900 0.000000
46.099000 0.000000
46.158200 0.000000
46.217300 0.000000
46.276400 0.000000
46.335500 0.000000
46.394700 0.000000
46.453800 0.000000
46.512900 0.000000
46.572000 0.000000
46.631100 0.000000
46.690300 0.000000
46.749400 0.000000
46.808500 0.000000
46.867600 0.000000
46.926700 0.000000
46.985900 0.000000
47.045000 0.000000
47.104100 0.000000
47.163200 0.000000
47.222400 0.000000
47.281500 0.000000
47.340600 0.000000
47.399700 0.000000
47.458800 0.000000
47.518000 0.000000
47.577100 0.000000
47.636200 0.000000
47.695300 0.000000
47.754500 0.000000
47.813600 0.000000
47.872700 0.000000
47.931800 0.000000
47.990900 0.000000
48.050100 0.000000
48.109200 0.000000
48.168300 0.000000
48.227400 0.000000
48.286500 0.000000
48.345700 0.000000
48.404800 0.000000
48.463900 0.000000
48.523000 0.000000
48.582200 0.000000
48.641300 0.000000
48.700400 0.000000
48.759500 0.000000
48.818600 0.000000
48.877800 0.000000
48.936900 0.000000
48.996000 0.000000
49.055100 0.000000
49.114300 0.000000
e
