set title 'mp-1070116 - Density of States'
set xlabel 'Energy (eV)'
set ylabel 'DOS (states/eV)'
set grid
set xrange [-10:10]
set yrange [0:484.356]
set xzeroaxis lt -1
set terminal png size 800,600
set output 'mp-1070116_dos_gnuplot.png'
plot '-' using 1:2 with lines title 'DOS'
-10.765700 0.000000
-10.751700 0.000000
-10.737700 0.000000
-10.723700 0.000000
-10.709700 0.000000
-10.695700 0.000000
-10.681700 0.000000
-10.667700 0.000000
-10.653700 0.000000
-10.639700 0.000000
-10.625800 0.000000
-10.611800 0.000000
-10.597800 0.000000
-10.583800 0.000000
-10.569800 0.000000
-10.555800 0.000000
-10.541800 0.000000
-10.527800 0.000000
-10.513800 0.000000
-10.499800 0.000000
-10.485800 0.000000
-10.471800 0.000000
-10.457800 0.000000
-10.443800 0.000000
-10.429800 0.000000
-10.415800 0.000000
-10.401900 0.000000
-10.387900 0.000000
-10.373900 0.000000
-10.359900 0.000000
-10.345900 0.000000
-10.331900 0.000000
-10.317900 0.000000
-10.303900 0.000000
-10.289900 0.000000
-10.275900 0.000000
-10.261900 0.000000
-10.247900 0.000000
-10.233900 0.000000
-10.219900 0.000000
-10.205900 0.000000
-10.191900 0.000000
-10.178000 0.000000
-10.164000 0.000000
-10.150000 0.000000
-10.136000 0.000000
-10.122000 0.000000
-10.108000 0.000000
-10.094000 0.000000
-10.080000 0.000000
-10.066000 0.000000
-10.052000 0.000000
-10.038000 0.000000
-10.024000 0.000000
-10.010000 0.000000
-9.996000 0.000000
-9.982000 0.000000
-9.968000 0.000000
-9.954100 0.000000
-9.940100 0.000000
-9.926100 0.000000
-9.912100 0.000000
-9.898100 0.000000
-9.884100 0.000000
-9.870100 0.000000
-9.856100 0.000000
-9.842100 0.000000
-9.828100 0.000000
-9.814100 0.000000
-9.800100 0.000000
-9.786100 0.000000
-9.772100 0.000000
-9.758100 0.000000
-9.744100 0.000000
-9.730200 0.000000
-9.716200 0.000000
-9.702200 0.000000
-9.688200 0.000000
-9.674200 0.000000
-9.660200 0.000000
-9.646200 0.000000
-9.632200 0.000000
-9.618200 0.000000
-9.604200 0.000000
-9.590200 0.000000
-9.576200 0.000000
-9.562200 0.000000
-9.548200 0.000000
-9.534200 0.000000
-9.520200 0.000000
-9.506300 0.000000
-9.492300 50.733000
-9.478300 236.499500
-9.464300 31.040300
-9.450300 29.578000
-9.436300 29.668900
-9.422300 2.551800
-9.408300 86.475400
-9.394300 44.920500
-9.380300 115.968100
-9.366300 43.202300
-9.352300 105.880300
-9.338300 60.209700
-9.324300 53.003100
-9.310300 9.798100
-9.296300 40.086900
-9.282400 148.012600
-9.268400 85.563900
-9.254400 36.155900
-9.240400 11.072100
-9.226400 440.323900
-9.212400 0.000000
-9.198400 0.000000
-9.184400 0.000000
-9.170400 0.000000
-9.156400 0.000000
-9.142400 0.000000
-9.128400 0.000000
-9.114400 0.000000
-9.100400 0.000000
-9.086400 0.000000
-9.072400 0.000000
-9.058500 0.000000
-9.044500 0.000000
-9.030500 0.000000
-9.016500 0.000000
-9.002500 0.000000
-8.988500 0.000000
-8.974500 0.000000
-8.960500 0.000000
-8.946500 0.000000
-8.932500 0.000000
-8.918500 0.000000
-8.904500 0.000000
-8.890500 0.000000
-8.876500 0.000000
-8.862500 0.000000
-8.848500 0.000000
-8.834600 0.000000
-8.820600 0.000000
-8.806600 0.000000
-8.792600 0.000000
-8.778600 0.000000
-8.764600 0.000000
-8.750600 0.000000
-8.736600 0.000000
-8.722600 0.000000
-8.708600 0.000000
-8.694600 0.000000
-8.680600 0.000000
-8.666600 0.000000
-8.652600 0.000000
-8.638600 0.000000
-8.624600 0.000000
-8.610700 0.000000
-8.596700 0.000000
-8.582700 0.000000
-8.568700 0.000000
-8.554700 0.000000
-8.540700 0.000000
-8.526700 0.000000
-8.512700 0.000000
-8.498700 0.000000
-8.484700 0.000000
-8.470700 0.000000
-8.456700 0.000000
-8.442700 0.000000
-8.428700 0.000000
-8.414700 0.000000
-8.400700 0.000000
-8.386800 0.000000
-8.372800 0.000000
-8.358800 0.000000
-8.344800 0.000000
-8.330800 0.000000
-8.316800 0.000000
-8.302800 0.000000
-8.288800 0.000000
-8.274800 0.000000
-8.260800 0.000000
-8.246800 0.000000
-8.232800 0.000000
-8.218800 0.000000
-8.204800 0.000000
-8.190800 0.000000
-8.176800 0.000000
-8.162900 0.000000
-8.148900 0.000000
-8.134900 0.000000
-8.120900 0.000000
-8.106900 0.000000
-8.092900 0.000000
-8.078900 0.000000
-8.064900 0.000000
-8.050900 0.000000
-8.036900 0.000000
-8.022900 0.000000
-8.008900 0.000000
-7.994900 0.000000
-7.980900 0.000000
-7.966900 0.000000
-7.952900 0.000000
-7.939000 0.000000
-7.925000 0.000000
-7.911000 0.000000
-7.897000 0.000000
-7.883000 0.000000
-7.869000 0.000000
-7.855000 0.000000
-7.841000 0.000000
-7.827000 0.000000
-7.813000 0.000000
-7.799000 0.000000
-7.785000 0.000000
-7.771000 0.000000
-7.757000 0.000000
-7.743000 0.000000
-7.729000 0.000200
-7.715100 0.068500
-7.701100 0.239100
-7.687100 0.341100
-7.673100 0.378900
-7.659100 0.444300
-7.645100 0.514700
-7.631100 0.589400
-7.617100 0.669300
-7.603100 0.738600
-7.589100 0.855300
-7.575100 0.946200
-7.561100 0.885400
-7.547100 0.896900
-7.533100 0.916200
-7.519100 0.933200
-7.505100 0.945100
-7.491200 0.947900
-7.477200 0.936300
-7.463200 0.925300
-7.449200 0.928800
-7.435200 0.935500
-7.421200 0.941000
-7.407200 0.945500
-7.393200 0.950200
-7.379200 0.953600
-7.365200 0.954600
-7.351200 0.947400
-7.337200 0.952000
-7.323200 0.957600
-7.309200 0.963600
-7.295200 0.967100
-7.281200 0.969200
-7.267300 0.972300
-7.253300 0.976300
-7.239300 0.980200
-7.225300 0.983600
-7.211300 0.986100
-7.197300 0.987900
-7.183300 0.987000
-7.169300 0.984900
-7.155300 0.986000
-7.141300 0.991400
-7.127300 0.997100
-7.113300 1.003100
-7.099300 1.009200
-7.085300 1.015600
-7.071300 1.018800
-7.057300 1.022700
-7.043400 1.027000
-7.029400 1.030900
-7.015400 1.034500
-7.001400 1.038100
-6.987400 1.041400
-6.973400 1.044400
-6.959400 1.043800
-6.945400 1.047100
-6.931400 1.050800
-6.917400 1.055000
-6.903400 1.060000
-6.889400 1.066100
-6.875400 1.072500
-6.861400 1.079000
-6.847400 1.085600
-6.833400 1.092300
-6.819500 1.098500
-6.805500 1.104200
-6.791500 1.110400
-6.777500 1.116900
-6.763500 1.123500
-6.749500 1.130000
-6.735500 1.136300
-6.721500 1.141800
-6.707500 1.146500
-6.693500 1.152700
-6.679500 1.329700
-6.665500 1.359200
-6.651500 1.404600
-6.637500 1.454100
-6.623500 1.496900
-6.609500 1.543100
-6.595600 1.583600
-6.581600 1.629300
-6.567600 1.675600
-6.553600 1.716400
-6.539600 1.756400
-6.525600 1.798200
-6.511600 1.840600
-6.497600 1.884100
-6.483600 1.928800
-6.469600 1.976400
-6.455600 2.026600
-6.441600 2.078400
-6.427600 2.132600
-6.413600 2.194000
-6.399600 2.261400
-6.385600 2.334800
-6.371700 2.417700
-6.357700 2.510900
-6.343700 2.616500
-6.329700 2.782400
-6.315700 3.013100
-6.301700 3.154700
-6.287700 3.237900
-6.273700 3.287800
-6.259700 3.327700
-6.245700 3.373700
-6.231700 3.341500
-6.217700 3.122800
-6.203700 3.000000
-6.189700 3.020500
-6.175700 2.923200
-6.161700 2.736800
-6.147800 2.672700
-6.133800 2.637600
-6.119800 2.598000
-6.105800 2.554700
-6.091800 2.519400
-6.077800 2.490000
-6.063800 2.472400
-6.049800 2.475600
-6.035800 2.501100
-6.021800 2.546700
-6.007800 2.617000
-5.993800 2.725800
-5.979800 2.896200
-5.965800 2.995800
-5.951800 3.128600
-5.937800 3.602600
-5.923900 4.066000
-5.909900 3.960400
-5.895900 4.208400
-5.881900 4.043100
-5.867900 4.055500
-5.853900 4.091900
-5.839900 4.053700
-5.825900 4.006600
-5.811900 4.004800
-5.797900 4.096200
-5.783900 4.228000
-5.769900 4.162200
-5.755900 4.197800
-5.741900 4.505200
-5.727900 4.634600
-5.713900 4.393100
-5.700000 3.802000
-5.686000 3.425900
-5.672000 2.785500
-5.658000 2.380400
-5.644000 2.039200
-5.630000 1.652300
-5.616000 1.320000
-5.602000 0.892700
-5.588000 0.450200
-5.574000 0.131800
-5.560000 0.000000
-5.546000 0.033400
-5.532000 0.123400
-5.518000 0.212400
-5.504000 0.300500
-5.490000 0.387500
-5.476100 0.472800
-5.462100 0.546300
-5.448100 0.605500
-5.434100 0.659700
-5.420100 0.707100
-5.406100 0.745300
-5.392100 0.768200
-5.378100 0.789300
-5.364100 0.819800
-5.350100 0.849300
-5.336100 0.892500
-5.322100 0.947700
-5.308100 1.015100
-5.294100 1.094600
-5.280100 1.187600
-5.266100 1.286000
-5.252200 1.367600
-5.238200 1.594500
-5.224200 1.724600
-5.210200 1.874900
-5.196200 2.130900
-5.182200 2.377600
-5.168200 2.533700
-5.154200 2.525600
-5.140200 2.485300
-5.126200 2.512200
-5.112200 2.623800
-5.098200 2.680600
-5.084200 2.708300
-5.070200 2.737200
-5.056200 2.801300
-5.042200 2.825000
-5.028300 2.697800
-5.014300 2.374200
-5.000300 2.243100
-4.986300 2.155700
-4.972300 2.102900
-4.958300 2.066800
-4.944300 2.062800
-4.930300 2.093600
-4.916300 2.084100
-4.902300 2.077800
-4.888300 2.101500
-4.874300 2.205300
-4.860300 2.375400
-4.846300 2.711300
-4.832300 3.367700
-4.818300 3.937400
-4.804400 3.482800
-4.790400 2.905300
-4.776400 2.635200
-4.762400 2.401500
-4.748400 2.188600
-4.734400 2.070800
-4.720400 1.971400
-4.706400 1.883200
-4.692400 1.803000
-4.678400 1.731900
-4.664400 1.670100
-4.650400 1.610600
-4.636400 1.553200
-4.622400 1.497300
-4.608400 1.443200
-4.594400 1.390900
-4.580500 1.338800
-4.566500 1.285300
-4.552500 1.237100
-4.538500 1.193900
-4.524500 1.152100
-4.510500 1.111500
-4.496500 1.073000
-4.482500 1.035000
-4.468500 0.997300
-4.454500 0.960200
-4.440500 0.928000
-4.426500 0.901000
-4.412500 0.861400
-4.398500 0.821500
-4.384500 0.788600
-4.370500 0.748200
-4.356600 0.703300
-4.342600 0.652200
-4.328600 0.586400
-4.314600 0.513700
-4.300600 0.466200
-4.286600 0.435300
-4.272600 0.352400
-4.258600 0.020800
-4.244600 0.000000
-4.230600 0.000000
-4.216600 0.000000
-4.202600 0.000000
-4.188600 0.000000
-4.174600 0.000000
-4.160600 0.000000
-4.146600 0.000000
-4.132700 0.000000
-4.118700 0.000000
-4.104700 0.000000
-4.090700 0.000000
-4.076700 0.000000
-4.062700 0.000000
-4.048700 0.000000
-4.034700 0.000000
-4.020700 0.000000
-4.006700 0.000000
-3.992700 0.000000
-3.978700 0.000000
-3.964700 0.000000
-3.950700 0.000000
-3.936700 0.000000
-3.922700 0.000000
-3.908800 0.000000
-3.894800 0.000000
-3.880800 0.000000
-3.866800 0.000000
-3.852800 0.000000
-3.838800 0.000000
-3.824800 0.000000
-3.810800 0.000000
-3.796800 0.000000
-3.782800 0.000000
-3.768800 0.000000
-3.754800 0.000000
-3.740800 0.000000
-3.726800 0.000000
-3.712800 0.000000
-3.698800 0.000000
-3.684900 0.000000
-3.670900 0.000000
-3.656900 0.000000
-3.642900 0.000000
-3.628900 0.000000
-3.614900 0.000000
-3.600900 0.000000
-3.586900 0.000000
-3.572900 0.000000
-3.558900 0.000000
-3.544900 0.000000
-3.530900 0.000000
-3.516900 0.000000
-3.502900 0.000000
-3.488900 0.000000
-3.474900 0.000000
-3.461000 0.000000
-3.447000 0.000000
-3.433000 0.000000
-3.419000 0.000000
-3.405000 0.000000
-3.391000 0.000000
-3.377000 0.000000
-3.363000 0.000000
-3.349000 0.000000
-3.335000 0.000000
-3.321000 0.000000
-3.307000 0.000000
-3.293000 0.000000
-3.279000 0.000000
-3.265000 0.000000
-3.251000 0.000000
-3.237100 0.000000
-3.223100 0.000000
-3.209100 0.000000
-3.195100 0.000000
-3.181100 0.000000
-3.167100 0.000000
-3.153100 0.000000
-3.139100 0.000000
-3.125100 0.000000
-3.111100 0.000000
-3.097100 0.000000
-3.083100 0.000000
-3.069100 0.000000
-3.055100 0.000000
-3.041100 0.000000
-3.027100 0.000000
-3.013200 0.000000
-2.999200 0.000000
-2.985200 0.000000
-2.971200 0.000000
-2.957200 0.000000
-2.943200 0.000000
-2.929200 0.000000
-2.915200 0.000000
-2.901200 0.000000
-2.887200 0.000000
-2.873200 0.000000
-2.859200 0.000000
-2.845200 0.000000
-2.831200 0.000000
-2.817200 0.000000
-2.803200 0.000000
-2.789300 0.000000
-2.775300 0.000000
-2.761300 0.000000
-2.747300 0.000000
-2.733300 0.000000
-2.719300 0.000000
-2.705300 0.000000
-2.691300 0.000000
-2.677300 0.000000
-2.663300 0.000000
-2.649300 0.000000
-2.635300 0.000000
-2.621300 0.000000
-2.607300 0.000000
-2.593300 0.000000
-2.579300 0.000000
-2.565400 0.000000
-2.551400 0.000000
-2.537400 0.000000
-2.523400 0.000000
-2.509400 0.000000
-2.495400 0.000000
-2.481400 0.000000
-2.467400 0.000000
-2.453400 0.000000
-2.439400 0.000000
-2.425400 0.000000
-2.411400 0.000000
-2.397400 0.000000
-2.383400 0.000000
-2.369400 0.000000
-2.355400 0.000000
-2.341400 0.000000
-2.327500 0.000000
-2.313500 0.000000
-2.299500 0.000000
-2.285500 0.000000
-2.271500 0.000000
-2.257500 0.000000
-2.243500 0.000000
-2.229500 0.000000
-2.215500 0.000000
-2.201500 0.000000
-2.187500 0.000000
-2.173500 0.000000
-2.159500 0.000000
-2.145500 0.000000
-2.131500 0.000000
-2.117500 0.000000
-2.103600 0.000000
-2.089600 0.000000
-2.075600 0.000000
-2.061600 0.000000
-2.047600 0.000000
-2.033600 0.000000
-2.019600 0.000000
-2.005600 0.000000
-1.991600 0.000000
-1.977600 0.000000
-1.963600 0.000000
-1.949600 0.000000
-1.935600 0.000000
-1.921600 0.000000
-1.907600 0.000000
-1.893600 0.000000
-1.879700 0.000000
-1.865700 0.000000
-1.851700 0.000000
-1.837700 0.000000
-1.823700 0.000000
-1.809700 0.000000
-1.795700 0.003800
-1.781700 0.385600
-1.767700 0.490900
-1.753700 0.672700
-1.739700 0.987400
-1.725700 1.236500
-1.711700 1.524900
-1.697700 2.544500
-1.683700 3.895200
-1.669700 5.374700
-1.655800 6.620300
-1.641800 7.403200
-1.627800 8.433500
-1.613800 8.943200
-1.599800 9.927400
-1.585800 12.499800
-1.571800 10.439200
-1.557800 8.346200
-1.543800 6.560700
-1.529800 5.407400
-1.515800 4.631200
-1.501800 3.712300
-1.487800 3.041500
-1.473800 2.738300
-1.459800 2.534700
-1.445800 2.351100
-1.431900 2.164500
-1.417900 1.976400
-1.403900 1.784500
-1.389900 1.613300
-1.375900 1.480700
-1.361900 1.359300
-1.347900 1.265200
-1.333900 1.182200
-1.319900 1.106700
-1.305900 1.035700
-1.291900 0.964700
-1.277900 0.890800
-1.263900 0.812400
-1.249900 0.731000
-1.235900 0.650700
-1.221900 0.577300
-1.208000 0.528400
-1.194000 0.478500
-1.180000 0.420800
-1.166000 0.363100
-1.152000 0.306300
-1.138000 0.250500
-1.124000 0.185200
-1.110000 0.124300
-1.096000 0.074500
-1.082000 0.035800
-1.068000 0.004200
-1.054000 0.000000
-1.040000 0.000000
-1.026000 0.000000
-1.012000 0.000000
-0.998000 0.012700
-0.984100 0.029500
-0.970100 0.046300
-0.956100 0.063200
-0.942100 0.080000
-0.928100 0.096800
-0.914100 0.113600
-0.900100 0.130400
-0.886100 0.147200
-0.872100 0.164100
-0.858100 0.180900
-0.844100 0.197700
-0.830100 0.214500
-0.816100 0.231300
-0.802100 0.248100
-0.788100 0.265000
-0.774100 0.281800
-0.760200 0.299500
-0.746200 0.321900
-0.732200 0.342700
-0.718200 0.361400
-0.704200 0.380700
-0.690200 0.400900
-0.676200 0.418700
-0.662200 0.435400
-0.648200 0.448200
-0.634200 0.457200
-0.620200 0.466300
-0.606200 0.475400
-0.592200 0.484500
-0.578200 0.493700
-0.564200 0.502900
-0.550200 0.512100
-0.536300 0.521500
-0.522300 0.531100
-0.508300 0.541100
-0.494300 0.551400
-0.480300 0.562200
-0.466300 0.573500
-0.452300 0.586300
-0.438300 0.600900
-0.424300 0.617500
-0.410300 0.636200
-0.396300 0.653800
-0.382300 0.671500
-0.368300 0.687900
-0.354300 0.715700
-0.340300 0.745900
-0.326300 0.774800
-0.312400 0.801800
-0.298400 0.826500
-0.284400 0.848000
-0.270400 0.866300
-0.256400 0.878900
-0.242400 0.888600
-0.228400 0.899000
-0.214400 0.910000
-0.200400 0.952900
-0.186400 1.505400
-0.172400 1.669400
-0.158400 1.587000
-0.144400 1.600100
-0.130400 1.607000
-0.116400 1.599400
-0.102400 1.581800
-0.088500 1.565300
-0.074500 1.552900
-0.060500 1.535100
-0.046500 1.510300
-0.032500 1.485700
-0.018500 1.465100
-0.004500 1.449900
0.009500 1.444700
0.023500 1.437200
0.037500 1.574200
0.051500 1.575200
0.065500 1.620900
0.079500 1.669300
0.093500 1.704600
0.107500 1.744600
0.121500 1.785300
0.135400 1.832000
0.149400 1.883800
0.163400 1.938400
0.177400 1.934800
0.191400 1.967200
0.205400 1.982200
0.219400 1.933000
0.233400 1.902000
0.247400 1.870600
0.261400 1.861900
0.275400 1.854600
0.289400 1.826500
0.303400 1.806400
0.317400 1.800100
0.331400 1.805600
0.345400 1.821500
0.359300 1.837100
0.373300 1.855200
0.387300 1.872500
0.401300 1.889200
0.415300 1.904600
0.429300 1.940700
0.443300 1.975000
0.457300 2.005300
0.471300 2.033600
0.485300 2.085300
0.499300 2.170800
0.513300 2.159800
0.527300 2.152300
0.541300 2.146200
0.555300 2.123900
0.569300 2.088900
0.583200 2.057500
0.597200 2.038000
0.611200 2.029600
0.625200 2.033800
0.639200 2.050200
0.653200 2.074900
0.667200 2.098600
0.681200 2.125900
0.695200 2.154200
0.709200 2.183300
0.723200 2.215200
0.737200 2.250400
0.751200 2.294200
0.765200 2.348600
0.779200 2.406900
0.793200 2.472000
0.807100 2.566700
0.821100 2.715000
0.835100 2.805600
0.849100 2.805000
0.863100 2.768000
0.877100 2.753800
0.891100 2.765300
0.905100 2.802900
0.919100 2.824900
0.933100 2.824200
0.947100 2.825000
0.961100 2.814700
0.975100 2.807900
0.989100 2.819700
1.003100 2.838400
1.017100 2.837400
1.031000 2.842600
1.045000 2.883800
1.059000 2.770900
1.073000 2.696000
1.087000 2.617200
1.101000 2.535100
1.115000 2.453500
1.129000 2.371900
1.143000 2.303300
1.157000 2.250200
1.171000 2.197900
1.185000 2.144500
1.199000 2.093600
1.213000 2.064900
1.227000 2.044200
1.241000 2.018500
1.254900 2.049200
1.268900 2.101400
1.282900 2.182700
1.296900 2.273600
1.310900 2.445100
1.324900 2.546700
1.338900 2.570000
1.352900 2.493800
1.366900 2.371500
1.380900 2.411700
1.394900 2.418600
1.408900 2.476200
1.422900 2.462200
1.436900 2.504600
1.450900 2.584600
1.464900 2.675000
1.478800 2.805600
1.492800 2.852100
1.506800 2.955800
1.520800 3.056800
1.534800 3.135000
1.548800 3.188700
1.562800 3.191800
1.576800 3.210500
1.590800 3.229300
1.604800 3.237900
1.618800 3.248200
1.632800 3.253500
1.646800 3.286000
1.660800 3.314600
1.674800 3.326800
1.688800 3.367800
1.702700 3.423900
1.716700 3.624200
1.730700 3.680600
1.744700 3.725900
1.758700 3.806000
1.772700 3.904200
1.786700 4.003400
1.800700 4.068200
1.814700 4.127900
1.828700 4.197900
1.842700 4.389300
1.856700 4.270500
1.870700 4.122300
1.884700 3.967000
1.898700 3.859700
1.912700 3.749400
1.926600 3.642500
1.940600 3.581100
1.954600 3.434000
1.968600 3.352400
1.982600 3.274300
1.996600 3.196900
2.010600 3.152600
2.024600 3.121200
2.038600 3.112000
2.052600 3.145800
2.066600 3.215000
2.080600 3.310900
2.094600 3.452100
2.108600 3.584400
2.122600 3.707500
2.136600 3.726200
2.150500 3.788100
2.164500 3.816700
2.178500 3.781400
2.192500 3.735400
2.206500 3.698700
2.220500 3.668400
2.234500 3.641200
2.248500 3.649800
2.262500 3.639600
2.276500 3.614500
2.290500 3.566500
2.304500 3.517200
2.318500 3.406800
2.332500 3.345900
2.346500 3.336700
2.360500 3.304400
2.374400 3.202600
2.388400 3.135500
2.402400 3.073100
2.416400 3.020400
2.430400 2.978000
2.444400 2.947800
2.458400 2.933400
2.472400 2.928600
2.486400 2.924700
2.500400 2.908100
2.514400 2.888700
2.528400 2.864900
2.542400 2.853600
2.556400 2.842300
2.570400 2.837900
2.584400 2.836600
2.598300 2.832700
2.612300 2.838500
2.626300 2.855700
2.640300 2.880500
2.654300 2.912200
2.668300 2.942400
2.682300 2.961100
2.696300 2.977900
2.710300 2.993700
2.724300 3.013900
2.738300 3.040300
2.752300 3.078400
2.766300 3.119400
2.780300 3.127000
2.794300 3.124800
2.808300 3.134400
2.822200 3.151600
2.836200 3.169800
2.850200 3.189800
2.864200 3.195700
2.878200 3.204700
2.892200 3.233100
2.906200 3.273300
2.920200 3.318700
2.934200 3.376600
2.948200 3.452100
2.962200 3.545700
2.976200 3.624000
2.990200 3.665200
3.004200 3.676800
3.018200 3.677100
3.032200 3.656700
3.046100 3.625600
3.060100 3.607600
3.074100 3.565500
3.088100 3.379500
3.102100 3.295000
3.116100 3.215000
3.130100 3.158200
3.144100 3.107800
3.158100 3.069300
3.172100 3.030400
3.186100 3.018500
3.200100 2.970000
3.214100 2.980100
3.228100 3.000200
3.242100 3.034300
3.256100 3.063200
3.270000 3.040100
3.284000 3.002300
3.298000 2.994800
3.312000 3.001800
3.326000 3.008700
3.340000 3.034600
3.354000 3.002500
3.368000 2.974900
3.382000 2.932600
3.396000 2.914100
3.410000 2.903200
3.424000 2.917000
3.438000 2.938900
3.452000 2.964300
3.466000 3.023400
3.480000 3.111900
3.493900 3.191700
3.507900 3.231800
3.521900 3.249700
3.535900 3.261000
3.549900 3.241100
3.563900 3.223600
3.577900 3.183400
3.591900 3.136500
3.605900 3.137400
3.619900 3.122600
3.633900 3.099500
3.647900 3.083800
3.661900 3.075500
3.675900 3.068500
3.689900 3.097100
3.703900 3.144700
3.717800 3.198600
3.731800 3.210200
3.745800 3.202600
3.759800 3.200600
3.773800 3.183300
3.787800 3.157900
3.801800 3.119300
3.815800 3.060300
3.829800 2.980800
3.843800 2.883100
3.857800 2.788900
3.871800 2.723400
3.885800 2.619500
3.899800 2.599800
3.913800 2.604800
3.927800 2.626300
3.941700 2.688000
3.955700 2.675800
3.969700 2.568600
3.983700 2.609600
3.997700 2.688600
4.011700 2.783600
4.025700 2.890900
4.039700 3.026700
4.053700 3.181800
4.067700 3.311500
4.081700 3.281400
4.095700 3.349500
4.109700 3.286200
4.123700 3.281400
4.137700 3.295700
4.151700 3.346800
4.165600 3.450500
4.179600 3.589500
4.193600 3.687900
4.207600 3.646300
4.221600 3.618500
4.235600 3.594600
4.249600 3.611600
4.263600 3.622200
4.277600 3.569500
4.291600 3.470700
4.305600 3.406200
4.319600 3.376100
4.333600 3.279900
4.347600 3.104100
4.361600 2.835400
4.375600 2.615600
4.389500 2.430400
4.403500 2.291100
4.417500 2.133800
4.431500 1.976900
4.445500 1.822300
4.459500 1.657000
4.473500 1.539300
4.487500 1.425000
4.501500 1.324600
4.515500 1.250400
4.529500 1.202500
4.543500 1.159200
4.557500 1.119600
4.571500 1.097400
4.585500 1.096600
4.599500 1.115200
4.613400 1.084800
4.627400 1.132500
4.641400 1.225200
4.655400 1.308400
4.669400 1.323000
4.683400 1.324300
4.697400 1.338500
4.711400 1.359000
4.725400 1.368100
4.739400 1.382200
4.753400 1.413400
4.767400 1.456500
4.781400 1.513200
4.795400 1.572300
4.809400 1.601300
4.823400 1.640100
4.837300 1.677800
4.851300 1.710000
4.865300 1.708500
4.879300 1.682600
4.893300 1.674600
4.907300 1.694800
4.921300 1.729900
4.935300 1.768900
4.949300 1.816600
4.963300 1.870700
4.977300 1.911600
4.991300 1.975900
5.005300 2.051700
5.019300 2.174800
5.033300 2.397900
5.047300 2.469700
5.061200 2.552200
5.075200 2.763400
5.089200 2.929000
5.103200 2.983400
5.117200 2.977200
5.131200 3.031100
5.145200 3.114600
5.159200 3.194700
5.173200 3.297600
5.187200 3.383600
5.201200 3.449100
5.215200 3.505000
5.229200 3.559000
5.243200 3.642600
5.257200 3.684100
5.271200 3.794600
5.285100 3.930100
5.299100 4.025900
5.313100 4.057700
5.327100 3.996100
5.341100 3.876900
5.355100 3.729600
5.369100 3.605200
5.383100 3.533100
5.397100 3.489800
5.411100 3.459300
5.425100 3.417900
5.439100 3.395100
5.453100 3.384200
5.467100 3.382500
5.481100 3.382100
5.495100 3.377500
5.509000 3.363000
5.523000 3.344600
5.537000 3.330900
5.551000 3.321600
5.565000 3.332300
5.579000 3.334800
5.593000 3.308200
5.607000 3.283700
5.621000 3.257200
5.635000 3.234900
5.649000 3.220600
5.663000 3.220300
5.677000 3.233600
5.691000 3.240600
5.705000 3.259500
5.719000 3.300200
5.732900 3.385500
5.746900 3.419100
5.760900 3.474200
5.774900 3.511400
5.788900 3.495300
5.802900 3.439400
5.816900 3.563000
5.830900 3.594400
5.844900 3.502900
5.858900 3.488700
5.872900 3.487100
5.886900 3.493900
5.900900 3.501800
5.914900 3.516300
5.928900 3.531300
5.942900 3.542600
5.956800 3.554900
5.970800 3.566900
5.984800 3.553600
5.998800 3.550600
6.012800 3.551500
6.026800 3.562100
6.040800 3.576100
6.054800 3.573900
6.068800 3.531600
6.082800 3.503800
6.096800 3.477400
6.110800 3.451600
6.124800 3.434800
6.138800 3.443000
6.152800 3.479000
6.166800 3.537500
6.180700 3.569600
6.194700 3.579100
6.208700 3.589900
6.222700 3.587200
6.236700 3.548500
6.250700 3.486700
6.264700 3.414600
6.278700 3.342700
6.292700 3.250800
6.306700 3.154100
6.320700 3.071000
6.334700 2.971700
6.348700 2.883600
6.362700 2.813900
6.376700 2.728900
6.390700 2.621100
6.404600 2.555000
6.418600 2.522200
6.432600 2.503600
6.446600 2.520900
6.460600 2.475600
6.474600 2.418200
6.488600 2.343400
6.502600 2.257800
6.516600 2.187700
6.530600 2.048700
6.544600 1.960000
6.558600 1.881800
6.572600 1.812000
6.586600 1.755300
6.600600 1.716100
6.614600 1.678500
6.628500 1.625000
6.642500 1.556900
6.656500 1.503000
6.670500 1.464200
6.684500 1.462500
6.698500 1.472100
6.712500 1.509400
6.726500 1.490700
6.740500 1.457700
6.754500 1.441900
6.768500 1.450100
6.782500 1.471900
6.796500 1.490200
6.810500 1.511700
6.824500 1.543400
6.838500 1.579500
6.852400 1.578000
6.866400 1.677800
6.880400 1.669600
6.894400 1.625000
6.908400 1.572900
6.922400 1.530300
6.936400 1.498900
6.950400 1.492200
6.964400 1.456700
6.978400 1.396500
6.992400 1.344200
7.006400 1.323000
7.020400 1.307300
7.034400 1.238300
7.048400 1.148300
7.062400 1.145800
7.076300 1.143500
7.090300 1.133700
7.104300 1.127800
7.118300 1.118300
7.132300 1.080300
7.146300 1.068000
7.160300 1.065600
7.174300 1.099700
7.188300 1.161900
7.202300 1.237100
7.216300 1.312900
7.230300 1.374900
7.244300 1.433700
7.258300 1.480300
7.272300 1.509200
7.286300 1.521800
7.300200 1.527400
7.314200 1.553600
7.328200 1.606400
7.342200 1.667700
7.356200 1.717600
7.370200 1.752600
7.384200 1.787400
7.398200 1.829000
7.412200 1.859200
7.426200 1.895000
7.440200 1.947500
7.454200 1.987600
7.468200 2.049000
7.482200 2.110800
7.496200 2.184600
7.510200 2.250300
7.524100 2.288400
7.538100 2.320600
7.552100 2.345800
7.566100 2.369400
7.580100 2.319700
7.594100 2.287700
7.608100 2.288500
7.622100 2.324000
7.636100 2.399300
7.650100 2.521800
7.664100 2.611800
7.678100 2.737400
7.692100 2.841900
7.706100 2.856900
7.720100 2.770100
7.734100 2.705800
7.748000 2.664900
7.762000 2.652100
7.776000 2.654000
7.790000 2.670000
7.804000 2.722700
7.818000 2.895000
7.832000 2.858500
7.846000 2.722300
7.860000 2.628400
7.874000 2.635300
7.888000 2.853500
7.902000 3.037500
7.916000 2.952100
7.930000 2.750600
7.944000 2.667400
7.958000 2.637700
7.971900 2.595000
7.985900 2.550400
7.999900 2.527300
8.013900 2.514400
8.027900 2.532300
8.041900 2.544000
8.055900 2.560600
8.069900 2.599500
8.083900 2.672800
8.097900 2.790900
8.111900 2.894400
8.125900 3.006800
8.139900 3.085900
8.153900 3.057200
8.167900 3.079600
8.181900 3.092000
8.195800 3.141500
8.209800 3.142100
8.223800 3.181600
8.237800 3.220400
8.251800 3.254700
8.265800 3.321300
8.279800 3.390200
8.293800 3.372300
8.307800 3.327500
8.321800 3.327300
8.335800 3.339600
8.349800 3.327200
8.363800 3.347600
8.377800 3.424400
8.391800 3.592700
8.405800 3.788200
8.419700 3.855000
8.433700 3.732400
8.447700 3.492000
8.461700 3.315400
8.475700 3.169200
8.489700 3.087500
8.503700 2.991800
8.517700 2.902200
8.531700 2.825100
8.545700 2.749700
8.559700 2.654000
8.573700 2.615900
8.587700 2.598400
8.601700 2.587700
8.615700 2.568700
8.629700 2.636400
8.643600 2.635200
8.657600 2.727200
8.671600 2.770200
8.685600 2.744500
8.699600 2.664100
8.713600 2.586700
8.727600 2.546800
8.741600 2.558500
8.755600 2.608100
8.769600 2.509600
8.783600 2.393600
8.797600 2.330800
8.811600 2.310000
8.825600 2.324400
8.839600 2.365900
8.853600 2.419700
8.867500 2.522800
8.881500 2.658400
8.895500 2.779400
8.909500 2.843000
8.923500 2.825700
8.937500 2.793600
8.951500 2.753300
8.965500 2.733100
8.979500 2.726600
8.993500 2.720100
9.007500 2.711600
9.021500 2.701500
9.035500 2.675100
9.049500 2.619100
9.063500 2.582200
9.077500 2.552200
9.091400 2.524200
9.105400 2.498700
9.119400 2.481300
9.133400 2.455400
9.147400 2.441900
9.161400 2.428000
9.175400 2.413700
9.189400 2.386900
9.203400 2.328500
9.217400 2.266600
9.231400 2.135900
9.245400 2.022800
9.259400 1.966200
9.273400 1.939800
9.287400 1.931100
9.301400 1.947700
9.315300 1.993600
9.329300 2.046000
9.343300 2.100200
9.357300 2.151700
9.371300 2.201400
9.385300 2.246300
9.399300 2.266200
9.413300 2.266500
9.427300 2.274100
9.441300 2.296500
9.455300 2.330300
9.469300 2.386600
9.483300 2.459700
9.497300 2.570800
9.511300 2.685200
9.525300 2.810600
9.539200 2.908900
9.553200 2.955600
9.567200 2.912800
9.581200 2.878200
9.595200 2.860500
9.609200 2.818300
9.623200 2.747900
9.637200 2.685500
9.651200 2.629200
9.665200 2.598200
9.679200 2.610100
9.693200 2.743700
9.707200 2.797100
9.721200 2.810300
9.735200 2.775100
9.749200 2.709000
9.763100 2.655500
9.777100 2.617800
9.791100 2.600500
9.805100 2.594600
9.819100 2.570100
9.833100 2.556200
9.847100 2.559900
9.861100 2.568400
9.875100 2.590100
9.889100 2.617900
9.903100 2.653800
9.917100 2.691300
9.931100 2.738900
9.945100 2.791900
9.959100 2.846800
9.973100 2.887100
9.987000 2.938800
10.001000 2.949300
10.015000 2.932900
10.029000 2.945200
10.043000 2.922000
10.057000 2.864900
10.071000 2.770100
10.085000 2.730500
10.099000 2.809300
10.113000 2.765500
10.127000 2.747400
10.141000 2.742900
10.155000 2.746200
10.169000 2.770400
10.183000 2.790700
10.197000 2.806000
10.210900 2.831400
10.224900 2.774000
10.238900 2.660100
10.252900 2.611600
10.266900 2.617800
10.280900 2.558100
10.294900 2.515700
10.308900 2.566200
10.322900 2.490700
10.336900 2.415000
10.350900 2.357600
10.364900 2.359800
10.378900 2.390000
10.392900 2.384700
10.406900 2.425300
10.420900 2.587500
10.434800 2.606600
10.448800 2.598900
10.462800 2.583100
10.476800 2.605300
10.490800 2.651100
10.504800 2.693200
10.518800 2.747200
10.532800 2.780300
10.546800 2.814500
10.560800 2.891800
10.574800 3.094400
10.588800 3.118400
10.602800 3.112800
10.616800 3.106600
10.630800 3.101200
10.644800 3.051900
10.658700 3.000300
10.672700 2.961200
10.686700 2.946400
10.700700 2.954400
10.714700 2.981300
10.728700 2.985500
10.742700 3.002400
10.756700 3.046500
10.770700 3.087100
10.784700 3.125600
10.798700 3.158100
10.812700 3.190700
10.826700 3.230900
10.840700 3.278100
10.854700 3.353400
10.868700 3.407400
10.882600 3.395000
10.896600 3.372000
10.910600 3.371600
10.924600 3.382300
10.938600 3.392400
10.952600 3.372700
10.966600 3.356400
10.980600 3.419800
10.994600 3.440900
11.008600 3.437800
11.022600 3.427800
11.036600 3.434500
11.050600 3.465500
11.064600 3.490800
11.078600 3.483900
11.092600 3.480200
11.106500 3.464600
11.120500 3.445400
11.134500 3.439800
11.148500 3.423600
11.162500 3.361000
11.176500 3.295000
11.190500 3.252700
11.204500 3.225700
11.218500 3.203700
11.232500 3.188300
11.246500 3.186100
11.260500 3.218900
11.274500 3.272000
11.288500 3.305300
11.302500 3.233800
11.316500 3.214100
11.330400 3.216200
11.344400 3.247800
11.358400 3.264200
11.372400 3.264400
11.386400 3.267500
11.400400 3.271700
11.414400 3.298700
11.428400 3.319400
11.442400 3.313000
11.456400 3.310300
11.470400 3.312000
11.484400 3.322600
11.498400 3.344900
11.512400 3.361100
11.526400 3.374500
11.540400 3.389900
11.554300 3.418600
11.568300 3.481300
11.582300 3.557100
11.596300 3.627800
11.610300 3.651500
11.624300 3.602800
11.638300 3.556300
11.652300 3.480300
11.666300 3.384400
11.680300 3.316000
11.694300 3.243700
11.708300 3.192300
11.722300 3.167600
11.736300 3.148300
11.750300 3.132800
11.764300 3.116200
11.778200 3.102100
11.792200 3.086600
11.806200 3.066600
11.820200 3.058100
11.834200 3.089700
11.848200 3.109300
11.862200 3.115300
11.876200 3.126100
11.890200 3.183600
11.904200 3.157600
11.918200 3.124200
11.932200 3.098100
11.946200 3.071200
11.960200 3.043900
11.974200 3.045800
11.988200 3.053400
12.002100 3.069600
12.016100 3.096400
12.030100 3.136000
12.044100 3.159400
12.058100 3.172600
12.072100 3.187500
12.086100 3.211400
12.100100 3.253500
12.114100 3.308700
12.128100 3.360700
12.142100 3.411200
12.156100 3.460100
12.170100 3.488100
12.184100 3.497300
12.198100 3.479200
12.212100 3.435100
12.226000 3.429800
12.240000 3.446500
12.254000 3.442100
12.268000 3.372000
12.282000 3.306700
12.296000 3.268500
12.310000 3.230900
12.324000 3.199700
12.338000 3.166100
12.352000 3.159100
12.366000 3.162400
12.380000 3.176500
12.394000 3.172800
12.408000 3.143200
12.422000 3.163600
12.436000 3.138200
12.449900 3.102800
12.463900 3.096600
12.477900 3.102500
12.491900 3.120600
12.505900 3.148500
12.519900 3.179100
12.533900 3.214400
12.547900 3.255800
12.561900 3.308500
12.575900 3.367800
12.589900 3.435700
12.603900 3.539200
12.617900 3.582000
12.631900 3.661600
12.645900 3.603300
12.659900 3.483900
12.673800 3.463400
12.687800 3.407300
12.701800 3.380600
12.715800 3.380700
12.729800 3.330800
12.743800 3.283400
12.757800 3.248300
12.771800 3.230900
12.785800 3.227500
12.799800 3.231000
12.813800 3.234300
12.827800 3.227000
12.841800 3.236300
12.855800 3.263200
12.869800 3.299900
12.883800 3.341000
12.897700 3.386500
12.911700 3.410200
12.925700 3.425600
12.939700 3.444900
12.953700 3.492800
12.967700 3.505500
12.981700 3.498400
12.995700 3.517800
13.009700 3.504200
13.023700 3.456700
13.037700 3.405500
13.051700 3.334200
13.065700 3.274500
13.079700 3.108400
13.093700 3.062000
13.107700 3.027100
13.121600 3.000700
13.135600 2.991300
13.149600 3.001800
13.163600 3.038000
13.177600 3.129900
13.191600 3.160300
13.205600 3.203800
13.219600 3.243700
13.233600 3.265100
13.247600 3.295200
13.261600 3.337000
13.275600 3.388000
13.289600 3.441800
13.303600 3.497600
13.317600 3.554000
13.331600 3.602800
13.345500 3.656700
13.359500 3.690900
13.373500 3.699900
13.387500 3.706500
13.401500 3.708400
13.415500 3.696100
13.429500 3.656500
13.443500 3.666100
13.457500 3.561100
13.471500 3.539400
13.485500 3.534200
13.499500 3.523200
13.513500 3.498300
13.527500 3.800800
13.541500 3.531900
13.555500 3.440200
13.569400 3.400600
13.583400 3.365300
13.597400 3.333100
13.611400 3.301600
13.625400 3.276100
13.639400 3.262300
13.653400 3.261900
13.667400 3.266700
13.681400 3.259400
13.695400 3.240200
13.709400 3.217700
13.723400 3.213600
13.737400 3.222600
13.751400 3.246500
13.765400 3.290500
13.779400 3.303800
13.793300 3.333600
13.807300 3.358900
13.821300 3.374700
13.835300 3.373500
13.849300 3.376300
13.863300 3.370500
13.877300 3.364400
13.891300 3.358300
13.905300 3.355100
13.919300 3.376700
13.933300 3.464700
13.947300 3.355500
13.961300 3.325900
13.975300 3.308500
13.989300 3.303000
14.003300 3.308000
14.017200 3.316500
14.031200 3.330800
14.045200 3.372100
14.059200 3.418600
14.073200 3.435900
14.087200 3.416900
14.101200 3.334300
14.115200 3.240000
14.129200 3.170500
14.143200 3.133900
14.157200 3.103800
14.171200 3.084300
14.185200 3.094400
14.199200 3.144400
14.213200 3.100500
14.227200 3.075800
14.241100 3.067500
14.255100 3.056000
14.269100 3.039800
14.283100 3.018000
14.297100 2.999300
14.311100 2.959400
14.325100 2.927900
14.339100 2.894100
14.353100 2.869300
14.367100 2.862800
14.381100 2.855800
14.395100 2.856500
14.409100 2.852300
14.423100 2.864700
14.437100 2.866800
14.451100 2.855900
14.465000 2.849200
14.479000 2.851600
14.493000 2.851200
14.507000 2.857500
14.521000 2.857200
14.535000 2.846300
14.549000 2.827100
14.563000 2.803700
14.577000 2.761600
14.591000 2.717700
14.605000 2.683200
14.619000 2.660300
14.633000 2.648000
14.647000 2.660900
14.661000 2.699000
14.675000 2.734600
14.688900 2.717300
14.702900 2.687500
14.716900 2.658800
14.730900 2.605600
14.744900 2.570600
14.758900 2.529400
14.772900 2.469200
14.786900 2.396100
14.800900 2.345300
14.814900 2.304900
14.828900 2.324800
14.842900 2.367100
14.856900 2.406700
14.870900 2.456000
14.884900 2.500200
14.898900 2.428600
14.912800 2.362800
14.926800 2.279000
14.940800 2.206700
14.954800 2.170900
14.968800 2.143200
14.982800 2.119200
14.996800 2.100300
15.010800 2.066900
15.024800 2.045300
15.038800 2.032900
15.052800 2.024500
15.066800 2.004400
15.080800 1.967300
15.094800 1.939700
15.108800 1.891000
15.122800 1.842300
15.136700 1.783700
15.150700 1.730600
15.164700 1.688500
15.178700 1.670100
15.192700 1.596400
15.206700 1.536700
15.220700 1.470300
15.234700 1.420500
15.248700 1.383800
15.262700 1.327400
15.276700 1.268900
15.290700 1.217300
15.304700 1.240100
15.318700 1.089200
15.332700 1.032400
15.346700 0.970600
15.360600 0.928700
15.374600 0.887000
15.388600 0.846000
15.402600 0.801000
15.416600 0.766700
15.430600 0.740500
15.444600 0.718000
15.458600 0.694800
15.472600 0.672700
15.486600 0.652300
15.500600 0.631800
15.514600 0.608800
15.528600 0.581000
15.542600 0.551400
15.556600 0.522400
15.570600 0.493100
15.584500 0.464300
15.598500 0.435700
15.612500 0.407000
15.626500 0.378200
15.640500 0.348800
15.654500 0.318600
15.668500 0.291200
15.682500 0.271900
15.696500 0.264300
15.710500 0.276100
15.724500 0.256900
15.738500 0.258900
15.752500 0.229500
15.766500 0.203200
15.780500 0.177700
15.794500 0.151800
15.808400 0.123300
15.822400 0.097400
15.836400 0.075100
15.850400 0.056500
15.864400 0.041300
15.878400 0.029400
15.892400 0.020400
15.906400 0.012900
15.920400 0.007100
15.934400 0.002700
15.948400 0.000000
15.962400 0.000000
15.976400 0.000000
15.990400 0.000000
16.004400 0.000000
16.018400 0.000000
16.032300 0.000000
16.046300 0.000000
16.060300 0.000000
16.074300 0.000000
16.088300 0.000000
16.102300 0.000000
16.116300 0.000000
16.130300 0.000000
16.144300 0.000000
16.158300 0.000000
16.172300 0.000000
16.186300 0.000000
16.200300 0.000000
16.214300 0.000000
16.228300 0.000000
16.242300 0.000000
16.256200 0.000000
16.270200 0.000000
16.284200 0.000000
16.298200 0.000000
16.312200 0.000000
16.326200 0.000000
16.340200 0.000000
16.354200 0.000000
16.368200 0.000000
16.382200 0.000000
16.396200 0.000000
16.410200 0.000000
16.424200 0.000000
16.438200 0.000000
16.452200 0.000000
16.466200 0.000000
16.480100 0.000000
16.494100 0.000000
16.508100 0.000000
16.522100 0.000000
16.536100 0.000000
16.550100 0.000000
16.564100 0.000000
16.578100 0.000000
16.592100 0.000000
16.606100 0.000000
16.620100 0.000000
16.634100 0.000000
16.648100 0.000000
16.662100 0.000000
16.676100 0.000000
16.690100 0.000000
16.704000 0.000000
16.718000 0.000000
16.732000 0.000000
16.746000 0.000000
16.760000 0.000000
16.774000 0.000000
16.788000 0.000000
16.802000 0.000000
16.816000 0.000000
16.830000 0.000000
16.844000 0.000000
16.858000 0.000000
16.872000 0.000000
16.886000 0.000000
16.900000 0.000000
16.914000 0.000000
16.927900 0.000000
16.941900 0.000000
16.955900 0.000000
16.969900 0.000000
16.983900 0.000000
16.997900 0.000000
17.011900 0.000000
17.025900 0.000000
17.039900 0.000000
17.053900 0.000000
17.067900 0.000000
17.081900 0.000000
17.095900 0.000000
17.109900 0.000000
17.123900 0.000000
17.137900 0.000000
17.151800 0.000000
17.165800 0.000000
17.179800 0.000000
17.193800 0.000000
17.207800 0.000000
17.221800 0.000000
e
