set title 'mp-8251 - Density of States'
set xlabel 'Energy (eV)'
set ylabel 'DOS (states/eV)'
set grid
set xrange [-10:10]
set yrange [0:10.555]
set xzeroaxis lt -1
set terminal png size 800,600
set output 'mp-8251_dos_gnuplot.png'
plot '-' using 1:2 with lines title 'DOS'
-33.161100 0.000000
-33.130500 0.000000
-33.099900 0.000000
-33.069300 0.000000
-33.038700 0.000000
-33.008100 0.000000
-32.977500 0.000000
-32.946900 0.000000
-32.916400 0.000000
-32.885800 0.000000
-32.855200 0.000000
-32.824600 0.000000
-32.794000 0.000000
-32.763400 0.000000
-32.732800 0.000000
-32.702200 0.000000
-32.671600 0.000000
-32.641100 0.000000
-32.610500 0.000000
-32.579900 0.000000
-32.549300 0.000000
-32.518700 0.000000
-32.488100 0.000000
-32.457500 0.000000
-32.426900 0.000000
-32.396300 0.000000
-32.365700 0.000000
-32.335200 0.000000
-32.304600 0.000000
-32.274000 0.000000
-32.243400 0.000000
-32.212800 0.000000
-32.182200 0.000000
-32.151600 0.000000
-32.121000 0.000000
-32.090400 0.000000
-32.059900 0.000000
-32.029300 0.000000
-31.998700 0.000000
-31.968100 0.000000
-31.937500 0.000000
-31.906900 0.000000
-31.876300 0.000000
-31.845700 0.000000
-31.815100 0.000000
-31.784500 0.000000
-31.754000 0.000000
-31.723400 0.000000
-31.692800 0.000000
-31.662200 0.000000
-31.631600 0.000000
-31.601000 0.000000
-31.570400 0.000000
-31.539800 0.000000
-31.509200 0.000000
-31.478600 0.000000
-31.448100 0.000000
-31.417500 0.000000
-31.386900 0.000000
-31.356300 0.000000
-31.325700 0.000000
-31.295100 0.000000
-31.264500 0.000000
-31.233900 0.000000
-31.203300 0.000000
-31.172800 0.000000
-31.142200 0.000000
-31.111600 0.000000
-31.081000 0.000000
-31.050400 0.000000
-31.019800 0.000000
-30.989200 0.000000
-30.958600 0.000000
-30.928000 0.000000
-30.897400 0.000000
-30.866900 0.000000
-30.836300 0.000000
-30.805700 0.000000
-30.775100 0.000000
-30.744500 0.000000
-30.713900 0.000000
-30.683300 0.000000
-30.652700 0.000000
-30.622100 0.000000
-30.591600 0.000000
-30.561000 0.000000
-30.530400 0.000000
-30.499800 0.000000
-30.469200 0.000000
-30.438600 0.000000
-30.408000 0.000000
-30.377400 84.306200
-30.346800 0.000000
-30.316200 66.960200
-30.285700 0.000000
-30.255100 0.000000
-30.224500 0.000000
-30.193900 0.000000
-30.163300 0.000000
-30.132700 0.000000
-30.102100 0.000000
-30.071500 0.000000
-30.040900 0.000000
-30.010300 0.000000
-29.979800 0.000000
-29.949200 0.000000
-29.918600 0.000000
-29.888000 0.000000
-29.857400 0.000000
-29.826800 0.000000
-29.796200 0.000000
-29.765600 0.000000
-29.735000 0.000000
-29.704500 0.000000
-29.673900 0.000000
-29.643300 0.000000
-29.612700 0.000000
-29.582100 0.000000
-29.551500 0.000000
-29.520900 0.000000
-29.490300 0.000000
-29.459700 0.000000
-29.429100 0.000000
-29.398600 0.000000
-29.368000 0.000000
-29.337400 0.000000
-29.306800 0.000000
-29.276200 0.000000
-29.245600 0.000000
-29.215000 0.000000
-29.184400 0.000000
-29.153800 0.000000
-29.123300 0.000000
-29.092700 0.000000
-29.062100 0.000000
-29.031500 0.000000
-29.000900 0.000000
-28.970300 0.000000
-28.939700 0.000000
-28.909100 0.000000
-28.878500 0.000000
-28.847900 0.000000
-28.817400 0.000000
-28.786800 0.000000
-28.756200 0.000000
-28.725600 0.000000
-28.695000 0.000000
-28.664400 0.000000
-28.633800 0.000000
-28.603200 0.000000
-28.572600 0.000000
-28.542000 0.000000
-28.511500 0.000000
-28.480900 0.000000
-28.450300 0.000000
-28.419700 0.000000
-28.389100 0.000000
-28.358500 0.000000
-28.327900 0.000000
-28.297300 0.000000
-28.266700 0.000000
-28.236200 0.000000
-28.205600 0.000000
-28.175000 0.000000
-28.144400 0.000000
-28.113800 0.000000
-28.083200 0.000000
-28.052600 0.000000
-28.022000 0.000000
-27.991400 0.000000
-27.960800 0.000000
-27.930300 0.000000
-27.899700 0.000000
-27.869100 0.000000
-27.838500 0.000000
-27.807900 0.000000
-27.777300 0.000000
-27.746700 0.000000
-27.716100 0.000000
-27.685500 0.000000
-27.655000 0.000000
-27.624400 0.000000
-27.593800 0.000000
-27.563200 0.000000
-27.532600 0.000000
-27.502000 0.000000
-27.471400 0.000000
-27.440800 0.000000
-27.410200 0.000000
-27.379600 0.000000
-27.349100 0.000000
-27.318500 0.000000
-27.287900 0.000000
-27.257300 0.000000
-27.226700 0.000000
-27.196100 0.000000
-27.165500 0.000000
-27.134900 0.000000
-27.104300 0.000000
-27.073700 0.000000
-27.043200 0.000000
-27.012600 0.000000
-26.982000 0.000000
-26.951400 0.000000
-26.920800 0.000000
-26.890200 0.000000
-26.859600 0.000000
-26.829000 0.000000
-26.798400 0.000000
-26.767900 0.000000
-26.737300 0.000000
-26.706700 0.000000
-26.676100 0.000000
-26.645500 0.000000
-26.614900 0.000000
-26.584300 0.000000
-26.553700 0.000000
-26.523100 0.000000
-26.492500 0.000000
-26.462000 0.000000
-26.431400 0.000000
-26.400800 0.000000
-26.370200 0.000000
-26.339600 0.000000
-26.309000 0.000000
-26.278400 0.000000
-26.247800 0.000000
-26.217200 0.000000
-26.186700 0.000000
-26.156100 0.000000
-26.125500 0.000000
-26.094900 0.000000
-26.064300 0.000000
-26.033700 0.000000
-26.003100 0.000000
-25.972500 0.000000
-25.941900 0.000000
-25.911300 0.000000
-25.880800 0.000000
-25.850200 0.000000
-25.819600 0.000000
-25.789000 0.000000
-25.758400 0.000000
-25.727800 0.000000
-25.697200 0.000000
-25.666600 0.000000
-25.636000 0.000000
-25.605400 0.000000
-25.574900 0.000000
-25.544300 0.000000
-25.513700 0.000000
-25.483100 0.000000
-25.452500 0.000000
-25.421900 0.000000
-25.391300 0.000000
-25.360700 0.000000
-25.330100 0.000000
-25.299600 0.000000
-25.269000 0.000000
-25.238400 0.000000
-25.207800 0.000000
-25.177200 0.000000
-25.146600 0.000000
-25.116000 0.000000
-25.085400 0.000000
-25.054800 0.000000
-25.024200 0.000000
-24.993700 0.000000
-24.963100 0.000000
-24.932500 0.000000
-24.901900 0.000000
-24.871300 0.000000
-24.840700 0.000000
-24.810100 0.000000
-24.779500 0.000000
-24.748900 0.000000
-24.718400 0.000000
-24.687800 0.000000
-24.657200 0.000000
-24.626600 0.000000
-24.596000 0.000000
-24.565400 0.000000
-24.534800 0.000000
-24.504200 0.000000
-24.473600 0.000000
-24.443000 0.000000
-24.412500 0.000000
-24.381900 0.000000
-24.351300 0.000000
-24.320700 0.000000
-24.290100 0.000000
-24.259500 0.000000
-24.228900 0.000000
-24.198300 0.000000
-24.167700 0.000000
-24.137100 0.000000
-24.106600 0.000000
-24.076000 0.000000
-24.045400 0.000000
-24.014800 0.000000
-23.984200 0.000000
-23.953600 0.000000
-23.923000 0.000000
-23.892400 0.000000
-23.861800 0.000000
-23.831300 0.000000
-23.800700 0.000000
-23.770100 0.000000
-23.739500 0.000000
-23.708900 0.000000
-23.678300 0.000000
-23.647700 0.000000
-23.617100 0.000000
-23.586500 0.000000
-23.555900 0.000000
-23.525400 0.000000
-23.494800 0.000000
-23.464200 0.000000
-23.433600 0.000000
-23.403000 0.000000
-23.372400 0.000000
-23.341800 0.000000
-23.311200 0.000000
-23.280600 0.000000
-23.250000 0.000000
-23.219500 0.000000
-23.188900 0.000000
-23.158300 0.000000
-23.127700 0.000000
-23.097100 0.000000
-23.066500 0.000000
-23.035900 0.000000
-23.005300 0.000000
-22.974700 0.000000
-22.944200 0.000000
-22.913600 0.000000
-22.883000 0.000000
-22.852400 0.000000
-22.821800 0.000000
-22.791200 0.000000
-22.760600 0.000000
-22.730000 0.000000
-22.699400 0.000000
-22.668800 0.000000
-22.638300 0.000000
-22.607700 0.000000
-22.577100 0.000000
-22.546500 0.000000
-22.515900 0.000000
-22.485300 0.000000
-22.454700 0.000000
-22.424100 0.000000
-22.393500 0.000000
-22.363000 0.000000
-22.332400 0.000000
-22.301800 0.000000
-22.271200 0.000000
-22.240600 0.000000
-22.210000 0.000000
-22.179400 0.000000
-22.148800 0.000000
-22.118200 0.000000
-22.087600 0.000000
-22.057100 0.000000
-22.026500 0.000000
-21.995900 0.000000
-21.965300 0.000000
-21.934700 0.000000
-21.904100 0.000000
-21.873500 0.000000
-21.842900 0.000000
-21.812300 0.000000
-21.781700 0.000000
-21.751200 0.000000
-21.720600 0.000000
-21.690000 0.000000
-21.659400 0.000000
-21.628800 0.000000
-21.598200 0.000000
-21.567600 0.000000
-21.537000 0.000000
-21.506400 0.000000
-21.475900 0.000000
-21.445300 0.000000
-21.414700 0.000000
-21.384100 0.000000
-21.353500 0.000000
-21.322900 0.000000
-21.292300 0.000000
-21.261700 0.000000
-21.231100 0.000000
-21.200500 0.000000
-21.170000 0.000000
-21.139400 0.000000
-21.108800 0.000000
-21.078200 0.000000
-21.047600 0.000000
-21.017000 0.000000
-20.986400 0.000000
-20.955800 0.000000
-20.925200 0.000000
-20.894700 0.000000
-20.864100 0.000000
-20.833500 0.000000
-20.802900 0.000000
-20.772300 0.000000
-20.741700 0.000000
-20.711100 0.000000
-20.680500 0.000000
-20.649900 0.000000
-20.619300 0.000000
-20.588800 0.000000
-20.558200 0.000000
-20.527600 0.000000
-20.497000 0.000000
-20.466400 0.000000
-20.435800 0.000000
-20.405200 0.000000
-20.374600 0.000000
-20.344000 0.000000
-20.313400 0.000000
-20.282900 0.000000
-20.252300 0.000000
-20.221700 0.000000
-20.191100 0.000000
-20.160500 0.000000
-20.129900 0.000000
-20.099300 0.000000
-20.068700 0.000000
-20.038100 0.000000
-20.007600 0.000000
-19.977000 0.000000
-19.946400 0.000000
-19.915800 0.000000
-19.885200 0.000000
-19.854600 0.000000
-19.824000 0.000000
-19.793400 0.000000
-19.762800 0.000000
-19.732200 0.000000
-19.701700 0.000000
-19.671100 0.000000
-19.640500 0.000000
-19.609900 0.000000
-19.579300 0.000000
-19.548700 0.000000
-19.518100 0.000000
-19.487500 0.000000
-19.456900 0.000000
-19.426400 0.000000
-19.395800 0.000000
-19.365200 0.000000
-19.334600 0.000000
-19.304000 0.000000
-19.273400 0.000000
-19.242800 0.000000
-19.212200 0.000000
-19.181600 0.000000
-19.151000 0.000000
-19.120500 0.000000
-19.089900 0.000000
-19.059300 0.000000
-19.028700 0.000000
-18.998100 0.000000
-18.967500 0.000000
-18.936900 0.000000
-18.906300 0.000000
-18.875700 0.000000
-18.845100 0.000000
-18.814600 0.000000
-18.784000 0.000000
-18.753400 0.000000
-18.722800 0.000000
-18.692200 0.000000
-18.661600 0.000000
-18.631000 0.000000
-18.600400 0.000000
-18.569800 0.000000
-18.539300 0.000000
-18.508700 0.000000
-18.478100 0.000000
-18.447500 0.000000
-18.416900 0.000000
-18.386300 0.000000
-18.355700 0.000000
-18.325100 0.000000
-18.294500 0.000000
-18.263900 0.000000
-18.233400 0.000000
-18.202800 0.000000
-18.172200 0.000000
-18.141600 0.000000
-18.111000 0.000000
-18.080400 0.000000
-18.049800 0.000000
-18.019200 0.000000
-17.988600 0.000000
-17.958100 0.000000
-17.927500 0.000000
-17.896900 0.000000
-17.866300 0.000000
-17.835700 0.000000
-17.805100 0.000000
-17.774500 0.000000
-17.743900 0.000000
-17.713300 0.000000
-17.682700 0.000000
-17.652200 0.000000
-17.621600 0.000000
-17.591000 0.000000
-17.560400 0.000000
-17.529800 0.000000
-17.499200 0.000000
-17.468600 0.000000
-17.438000 0.000000
-17.407400 0.000000
-17.376800 0.000000
-17.346300 0.000000
-17.315700 0.000000
-17.285100 0.000000
-17.254500 0.000000
-17.223900 0.000000
-17.193300 0.000000
-17.162700 0.000000
-17.132100 0.000000
-17.101500 0.000000
-17.071000 0.000000
-17.040400 0.000000
-17.009800 0.000000
-16.979200 0.000000
-16.948600 0.000000
-16.918000 0.000000
-16.887400 0.000000
-16.856800 0.000000
-16.826200 0.000000
-16.795600 0.000000
-16.765100 0.000000
-16.734500 0.000000
-16.703900 0.000000
-16.673300 0.000000
-16.642700 0.000000
-16.612100 0.000000
-16.581500 0.000000
-16.550900 0.000000
-16.520300 0.000000
-16.489800 0.000000
-16.459200 0.000000
-16.428600 0.000000
-16.398000 0.000000
-16.367400 0.000000
-16.336800 0.000000
-16.306200 0.000000
-16.275600 0.000000
-16.245000 0.000000
-16.214400 0.000000
-16.183900 0.000000
-16.153300 0.000000
-16.122700 0.000000
-16.092100 0.000000
-16.061500 0.000000
-16.030900 0.000000
-16.000300 0.000000
-15.969700 0.000000
-15.939100 0.000000
-15.908500 0.000000
-15.878000 0.000000
-15.847400 0.000000
-15.816800 0.000000
-15.786200 0.000000
-15.755600 0.000000
-15.725000 0.000000
-15.694400 0.000000
-15.663800 0.000000
-15.633200 0.000000
-15.602700 0.000000
-15.572100 0.000000
-15.541500 0.000000
-15.510900 0.000000
-15.480300 0.000000
-15.449700 0.000000
-15.419100 0.000000
-15.388500 0.000000
-15.357900 0.000000
-15.327300 0.000000
-15.296800 0.000000
-15.266200 0.000000
-15.235600 0.000000
-15.205000 0.000000
-15.174400 0.000000
-15.143800 0.000000
-15.113200 0.000000
-15.082600 0.000000
-15.052000 0.000000
-15.021500 0.000000
-14.990900 0.000000
-14.960300 0.000000
-14.929700 0.000000
-14.899100 0.000000
-14.868500 0.000000
-14.837900 0.000000
-14.807300 0.000000
-14.776700 0.000000
-14.746100 0.000000
-14.715600 0.000000
-14.685000 0.000000
-14.654400 0.000000
-14.623800 0.000000
-14.593200 0.000000
-14.562600 0.000000
-14.532000 0.000000
-14.501400 0.000000
-14.470800 0.000000
-14.440200 0.000000
-14.409700 0.000000
-14.379100 0.000000
-14.348500 0.000000
-14.317900 0.000000
-14.287300 0.000000
-14.256700 0.000000
-14.226100 0.000000
-14.195500 0.000000
-14.164900 0.000000
-14.134400 0.000000
-14.103800 0.000000
-14.073200 0.000000
-14.042600 0.000000
-14.012000 0.000000
-13.981400 0.000000
-13.950800 0.000000
-13.920200 0.000000
-13.889600 0.000000
-13.859000 0.000000
-13.828500 0.000000
-13.797900 0.000000
-13.767300 0.000000
-13.736700 0.000000
-13.706100 0.000000
-13.675500 0.000000
-13.644900 0.000000
-13.614300 0.000000
-13.583700 0.000000
-13.553200 0.000000
-13.522600 0.000000
-13.492000 0.000000
-13.461400 0.000000
-13.430800 0.000000
-13.400200 0.000000
-13.369600 0.000000
-13.339000 0.000000
-13.308400 0.000000
-13.277800 0.000000
-13.247300 0.000000
-13.216700 0.000000
-13.186100 0.000000
-13.155500 0.000000
-13.124900 0.000000
-13.094300 0.000000
-13.063700 0.000000
-13.033100 0.000000
-13.002500 0.000000
-12.971900 0.000000
-12.941400 0.000000
-12.910800 0.000000
-12.880200 0.000000
-12.849600 0.000000
-12.819000 0.000000
-12.788400 0.000000
-12.757800 0.000000
-12.727200 0.000000
-12.696600 0.000000
-12.666100 0.000000
-12.635500 0.000000
-12.604900 0.000000
-12.574300 0.000000
-12.543700 0.000000
-12.513100 0.000000
-12.482500 0.000000
-12.451900 0.000000
-12.421300 0.000000
-12.390700 0.000000
-12.360200 0.000000
-12.329600 0.000000
-12.299000 0.000000
-12.268400 0.000000
-12.237800 0.000000
-12.207200 0.000000
-12.176600 0.000000
-12.146000 0.000000
-12.115400 0.000000
-12.084900 0.000000
-12.054300 0.000000
-12.023700 0.000000
-11.993100 0.000000
-11.962500 0.000000
-11.931900 0.000000
-11.901300 0.000000
-11.870700 0.000000
-11.840100 0.000000
-11.809500 0.000000
-11.779000 0.000000
-11.748400 0.000000
-11.717800 0.000000
-11.687200 0.000000
-11.656600 0.000000
-11.626000 0.000000
-11.595400 0.000000
-11.564800 0.000000
-11.534200 0.000000
-11.503600 0.000000
-11.473100 0.000000
-11.442500 0.000000
-11.411900 0.000000
-11.381300 0.000000
-11.350700 0.000000
-11.320100 0.000000
-11.289500 0.000000
-11.258900 0.000000
-11.228300 0.000000
-11.197800 0.000000
-11.167200 0.000000
-11.136600 0.000000
-11.106000 0.000000
-11.075400 0.000000
-11.044800 0.000000
-11.014200 0.000000
-10.983600 0.000000
-10.953000 0.000000
-10.922400 0.000000
-10.891900 0.000000
-10.861300 0.000000
-10.830700 0.000000
-10.800100 0.000000
-10.769500 0.000000
-10.738900 0.000000
-10.708300 0.000000
-10.677700 0.000000
-10.647100 0.000000
-10.616600 0.000000
-10.586000 0.000000
-10.555400 0.000000
-10.524800 0.000000
-10.494200 0.000000
-10.463600 0.000000
-10.433000 0.000000
-10.402400 0.000000
-10.371800 0.000000
-10.341200 0.000000
-10.310700 0.000000
-10.280100 0.000000
-10.249500 0.000000
-10.218900 0.000000
-10.188300 0.000000
-10.157700 0.000000
-10.127100 0.000000
-10.096500 0.000000
-10.065900 0.000000
-10.035300 0.000000
-10.004800 0.000000
-9.974200 0.000000
-9.943600 0.000000
-9.913000 0.000000
-9.882400 0.000000
-9.851800 0.000000
-9.821200 0.000000
-9.790600 0.000000
-9.760000 0.000000
-9.729500 0.000000
-9.698900 0.000000
-9.668300 0.000000
-9.637700 0.000000
-9.607100 0.000000
-9.576500 0.000000
-9.545900 0.000000
-9.515300 0.000000
-9.484700 0.000000
-9.454100 0.000000
-9.423600 0.000000
-9.393000 0.000000
-9.362400 0.000000
-9.331800 0.000000
-9.301200 0.000000
-9.270600 0.000000
-9.240000 0.000000
-9.209400 0.000000
-9.178800 0.000000
-9.148300 0.000000
-9.117700 0.000000
-9.087100 0.000000
-9.056500 0.000000
-9.025900 0.000000
-8.995300 0.000000
-8.964700 0.000000
-8.934100 0.000000
-8.903500 0.000000
-8.872900 0.000000
-8.842400 0.000000
-8.811800 0.000000
-8.781200 0.000000
-8.750600 0.000000
-8.720000 0.000000
-8.689400 0.000000
-8.658800 0.000000
-8.628200 0.000000
-8.597600 0.000000
-8.567000 0.000000
-8.536500 0.000000
-8.505900 0.000000
-8.475300 0.000000
-8.444700 0.000000
-8.414100 0.000000
-8.383500 0.000000
-8.352900 0.000000
-8.322300 0.000000
-8.291700 0.000000
-8.261200 0.000000
-8.230600 0.000000
-8.200000 0.000000
-8.169400 0.000000
-8.138800 0.000000
-8.108200 0.000000
-8.077600 0.000000
-8.047000 0.000000
-8.016400 0.000000
-7.985800 0.000000
-7.955300 0.004500
-7.924700 0.189500
-7.894100 0.522000
-7.863500 0.603300
-7.832900 0.691100
-7.802300 0.846000
-7.771700 0.994900
-7.741100 1.114700
-7.710500 1.295800
-7.680000 1.508800
-7.649400 1.636700
-7.618800 1.580400
-7.588200 1.625700
-7.557600 1.653700
-7.527000 1.652600
-7.496400 1.648700
-7.465800 1.648500
-7.435200 1.669000
-7.404600 1.694000
-7.374100 1.709800
-7.343500 1.719800
-7.312900 1.746700
-7.282300 1.761900
-7.251700 1.794600
-7.221100 1.856300
-7.190500 1.927800
-7.159900 1.979900
-7.129300 2.029400
-7.098700 2.082500
-7.068200 2.182800
-7.037600 2.417500
-7.007000 2.868800
-6.976400 2.582800
-6.945800 2.166200
-6.915200 2.032500
-6.884600 1.973000
-6.854000 1.944600
-6.823400 1.917900
-6.792900 1.826400
-6.762300 1.671900
-6.731700 1.393100
-6.701100 0.934300
-6.670500 0.667600
-6.639900 0.608400
-6.609300 0.738800
-6.578700 0.776200
-6.548100 0.832900
-6.517500 0.928800
-6.487000 1.101800
-6.456400 1.267800
-6.425800 1.469600
-6.395200 1.646300
-6.364600 1.683700
-6.334000 1.653700
-6.303400 1.591500
-6.272800 1.513600
-6.242200 1.436400
-6.211700 1.370000
-6.181100 1.320000
-6.150500 1.286000
-6.119900 1.266400
-6.089300 1.258400
-6.058700 1.257900
-6.028100 1.263300
-5.997500 1.274000
-5.966900 1.290800
-5.936300 1.313200
-5.905800 1.341400
-5.875200 1.372300
-5.844600 1.408700
-5.814000 1.451200
-5.783400 1.500500
-5.752800 1.563600
-5.722200 1.772400
-5.691600 2.012500
-5.661000 2.157800
-5.630400 2.394400
-5.599900 2.673800
-5.569300 2.741300
-5.538700 3.015500
-5.508100 3.125100
-5.477500 3.054300
-5.446900 2.971100
-5.416300 2.715200
-5.385700 2.434900
-5.355100 2.236700
-5.324600 2.078400
-5.294000 1.923300
-5.263400 1.816700
-5.232800 1.742000
-5.202200 1.772700
-5.171600 1.806800
-5.141000 1.865700
-5.110400 1.937900
-5.079800 2.030200
-5.049200 2.142300
-5.018700 2.238500
-4.988100 2.205400
-4.957500 1.935900
-4.926900 1.268600
-4.896300 1.082900
-4.865700 1.209900
-4.835100 1.348700
-4.804500 1.519700
-4.773900 1.748600
-4.743400 2.087500
-4.712800 2.476000
-4.682200 2.511100
-4.651600 2.481700
-4.621000 2.464700
-4.590400 2.559900
-4.559800 2.705700
-4.529200 2.753600
-4.498600 2.726800
-4.468000 2.598500
-4.437500 2.601400
-4.406900 2.476100
-4.376300 2.407300
-4.345700 2.352000
-4.315100 2.319800
-4.284500 2.360900
-4.253900 2.420400
-4.223300 2.532000
-4.192700 2.683500
-4.162100 2.776400
-4.131600 2.749100
-4.101000 2.626500
-4.070400 2.508200
-4.039800 2.374900
-4.009200 2.253700
-3.978600 2.137500
-3.948000 2.279700
-3.917400 2.517700
-3.886800 2.746600
-3.856300 2.886300
-3.825700 3.036100
-3.795100 3.281700
-3.764500 1.990600
-3.733900 1.482000
-3.703300 1.080200
-3.672700 0.963000
-3.642100 0.895800
-3.611500 0.803800
-3.580900 0.746600
-3.550400 0.705100
-3.519800 0.625500
-3.489200 0.673200
-3.458600 0.725700
-3.428000 0.800000
-3.397400 0.890200
-3.366800 0.970500
-3.336200 1.077500
-3.305600 1.154600
-3.275100 1.354100
-3.244500 1.649400
-3.213900 2.009900
-3.183300 2.261400
-3.152700 2.439600
-3.122100 2.443400
-3.091500 2.519500
-3.060900 2.655100
-3.030300 2.814000
-2.999700 2.620500
-2.969200 2.350300
-2.938600 2.231800
-2.908000 2.100100
-2.877400 2.123800
-2.846800 2.213100
-2.816200 2.378700
-2.785600 2.326800
-2.755000 2.266500
-2.724400 2.210200
-2.693800 2.115200
-2.663300 2.088800
-2.632700 2.131900
-2.602100 2.174700
-2.571500 2.319500
-2.540900 2.425900
-2.510300 2.551800
-2.479700 2.792900
-2.449100 3.276700
-2.418500 3.434700
-2.388000 3.383600
-2.357400 3.318200
-2.326800 3.040000
-2.296200 2.759300
-2.265600 2.280800
-2.235000 1.880700
-2.204400 1.830700
-2.173800 1.793500
-2.143200 1.766900
-2.112600 1.748900
-2.082100 1.785200
-2.051500 1.822100
-2.020900 1.936600
-1.990300 2.049200
-1.959700 2.130300
-1.929100 2.224200
-1.898500 2.239100
-1.867900 2.243100
-1.837300 2.261800
-1.806800 2.250900
-1.776200 1.934600
-1.745600 1.649800
-1.715000 1.434500
-1.684400 1.242800
-1.653800 0.988700
-1.623200 0.810800
-1.592600 0.744800
-1.562000 0.891000
-1.531400 1.531900
-1.500900 3.819200
-1.470300 4.997900
-1.439700 6.416700
-1.409100 5.203000
-1.378500 3.789300
-1.347900 2.481200
-1.317300 2.133200
-1.286700 1.920100
-1.256100 1.761600
-1.225500 1.705900
-1.195000 1.866700
-1.164400 2.088400
-1.133800 2.321100
-1.103200 2.428700
-1.072600 2.622900
-1.042000 2.722800
-1.011400 2.789800
-0.980800 2.714500
-0.950200 2.686800
-0.919700 2.496300
-0.889100 2.148800
-0.858500 2.030000
-0.827900 1.970300
-0.797300 1.934700
-0.766700 1.925300
-0.736100 1.904900
-0.705500 1.862000
-0.674900 1.811300
-0.644300 1.770300
-0.613800 1.740000
-0.583200 1.729000
-0.552600 1.704200
-0.522000 1.661300
-0.491400 1.642300
-0.460800 1.643300
-0.430200 1.637100
-0.399600 1.628700
-0.369000 1.623100
-0.338500 1.604800
-0.307900 1.559700
-0.277300 1.510700
-0.246700 1.460400
-0.216100 1.516200
-0.185500 1.465400
-0.154900 1.454300
-0.124300 1.440700
-0.093700 1.465000
-0.063100 1.456000
-0.032600 1.401100
-0.002000 1.662600
0.028600 1.713300
0.059200 1.717200
0.089800 1.754200
0.120400 1.928100
0.151000 2.114200
0.181600 2.296100
0.212200 2.290800
0.242800 2.041700
0.273300 1.359900
0.303900 0.618700
0.334500 0.414400
0.365100 0.329800
0.395700 0.392300
0.426300 0.494700
0.456900 0.687900
0.487500 0.783900
0.518100 0.755100
0.548600 0.760900
0.579200 0.784300
0.609800 0.812500
0.640400 0.901700
0.671000 0.956200
0.701600 1.158500
0.732200 1.358000
0.762800 1.751300
0.793400 1.818800
0.824000 1.943700
0.854500 2.092500
0.885100 2.197500
0.915700 2.329300
0.946300 2.571800
0.976900 2.926500
1.007500 3.082000
1.038100 3.102700
1.068700 3.060800
1.099300 2.844600
1.129800 2.649900
1.160400 2.583900
1.191000 2.594200
1.221600 2.485300
1.252200 2.496000
1.282800 2.582300
1.313400 3.006000
1.344000 3.746600
1.374600 3.781400
1.405200 3.465800
1.435700 3.183400
1.466300 3.202400
1.496900 3.281600
1.527500 3.378100
1.558100 3.663200
1.588700 3.735900
1.619300 3.961200
1.649900 4.201000
1.680500 3.653200
1.711100 3.348800
1.741600 3.352800
1.772200 3.353300
1.802800 3.555800
1.833400 3.900500
1.864000 3.739800
1.894600 3.795800
1.925200 3.860000
1.955800 3.925900
1.986400 4.192500
2.016900 4.650000
2.047500 4.627600
2.078100 4.415500
2.108700 4.515000
2.139300 4.890400
2.169900 5.115100
2.200500 4.971300
2.231100 4.679300
2.261700 4.527200
2.292300 4.331800
2.322800 4.194100
2.353400 4.563800
2.384000 4.877400
2.414600 5.054000
2.445200 4.971800
2.475800 4.952400
2.506400 5.313400
2.537000 5.338200
2.567600 5.150500
2.598100 5.091800
2.628700 5.016200
2.659300 4.891300
2.689900 4.823900
2.720500 4.748000
2.751100 5.383100
2.781700 5.577500
2.812300 5.806600
2.842900 5.807500
2.873500 5.741600
2.904000 5.526400
2.934600 5.278900
2.965200 4.981700
2.995800 4.931600
3.026400 4.812900
3.057000 4.642900
3.087600 4.562800
3.118200 4.899900
3.148800 5.106000
3.179400 4.954400
3.209900 5.054000
3.240500 5.053900
3.271100 4.699500
3.301700 4.238500
3.332300 4.193700
3.362900 4.146900
3.393500 4.293600
3.424100 4.178400
3.454700 3.682000
3.485200 3.486900
3.515800 3.926800
3.546400 4.602700
3.577000 5.546700
3.607600 6.293400
3.638200 6.787500
3.668800 7.064200
3.699400 7.384600
3.730000 6.400100
3.760600 5.632800
3.791100 6.310400
3.821700 6.744700
3.852300 8.023900
3.882900 8.587300
3.913500 8.307800
3.944100 8.546700
3.974700 8.706500
4.005300 7.567800
4.035900 6.507100
4.066400 6.154500
4.097000 5.833400
4.127600 5.717300
4.158200 5.930500
4.188800 6.810700
4.219400 7.342500
4.250000 8.374200
4.280600 8.303900
4.311200 7.979100
4.341800 7.004900
4.372300 6.427900
4.402900 6.222900
4.433500 7.459700
4.464100 8.126100
4.494700 8.071600
4.525300 7.717000
4.555900 7.601400
4.586500 6.788300
4.617100 6.221500
4.647700 5.819400
4.678200 5.635300
4.708800 5.252100
4.739400 4.481400
4.770000 4.007000
4.800600 3.966600
4.831200 3.889400
4.861800 4.194800
4.892400 4.638200
4.923000 5.530200
4.953500 6.936400
4.984100 5.834100
5.014700 4.812600
5.045300 4.870500
5.075900 4.973700
5.106500 5.374300
5.137100 6.400000
5.167700 6.717700
5.198300 6.241700
5.228900 5.691800
5.259400 4.954000
5.290000 4.738700
5.320600 4.986600
5.351200 5.706700
5.381800 5.859000
5.412400 5.268300
5.443000 5.099400
5.473600 4.974400
5.504200 3.828800
5.534700 2.524700
5.565300 3.034600
5.595900 5.438200
5.626500 5.310700
5.657100 6.094100
5.687700 6.308500
5.718300 5.584500
5.748900 5.979100
5.779500 6.355500
5.810100 7.231800
5.840600 7.712500
5.871200 7.106400
5.901800 8.412700
5.932400 9.193200
5.963000 8.344900
5.993600 7.873300
6.024200 6.897200
6.054800 6.145400
6.085400 5.371800
6.116000 3.754900
6.146500 3.538500
6.177100 3.117200
6.207700 2.689600
6.238300 1.941800
6.268900 1.059300
6.299500 1.113700
6.330100 1.387300
6.360700 1.756500
6.391300 2.271700
6.421800 2.894100
6.452400 3.234800
6.483000 3.726300
6.513600 5.614800
6.544200 6.015600
6.574800 5.910400
6.605400 5.632300
6.636000 5.170500
6.666600 5.114000
6.697200 5.455500
6.727700 5.296500
6.758300 4.844800
6.788900 4.616400
6.819500 4.571700
6.850100 4.028800
6.880700 3.644100
6.911300 3.492100
6.941900 3.477200
6.972500 3.580200
7.003100 3.818900
7.033600 3.988200
7.064200 4.139000
7.094800 4.793100
7.125400 5.623000
7.156000 6.259200
7.186600 6.764000
7.217200 7.003300
7.247800 7.944100
7.278400 8.273300
7.308900 7.345600
7.339500 6.763500
7.370100 6.352900
7.400700 5.893700
7.431300 5.308000
7.461900 4.794800
7.492500 4.426100
7.523100 4.450400
7.553700 4.373400
7.584300 4.406100
7.614800 4.441100
7.645400 4.325600
7.676000 4.149000
7.706600 3.929400
7.737200 3.544600
7.767800 3.211400
7.798400 3.161500
7.829000 2.817400
7.859600 2.725800
7.890100 2.570900
7.920700 2.341200
7.951300 2.060200
7.981900 1.838200
8.012500 1.529800
8.043100 1.324900
8.073700 1.108000
8.104300 1.016700
8.134900 0.960400
8.165500 0.983600
8.196000 1.017100
8.226600 1.073600
8.257200 1.141100
8.287800 1.227500
8.318400 1.262900
8.349000 1.492800
8.379600 1.741300
8.410200 2.161500
8.440800 2.961300
8.471400 4.061900
8.501900 4.897300
8.532500 5.691300
8.563100 6.291300
8.593700 5.427000
8.624300 4.014500
8.654900 4.406200
8.685500 4.723300
8.716100 5.235800
8.746700 6.441100
8.777200 6.677000
8.807800 7.160400
8.838400 6.234500
8.869000 5.684200
8.899600 5.541800
8.930200 5.603400
8.960800 5.080500
8.991400 6.026800
9.022000 6.424600
9.052600 6.886300
9.083100 6.844600
9.113700 7.348200
9.144300 7.035300
9.174900 7.245700
9.205500 8.169500
9.236100 8.094600
9.266700 8.297600
9.297300 8.153600
9.327900 7.390000
9.358400 7.468800
9.389000 7.898400
9.419600 7.629000
9.450200 7.704400
9.480800 7.694200
9.511400 7.504900
9.542000 6.970000
9.572600 6.284900
9.603200 6.308500
9.633800 6.387000
9.664300 6.696200
9.694900 8.070300
9.725500 8.337200
9.756100 8.348300
9.786700 8.636800
9.817300 9.595600
9.847900 8.342800
9.878500 7.249900
9.909100 6.691400
9.939700 6.734200
9.970200 7.374000
10.000800 7.443000
10.031400 7.583200
10.062000 6.870100
10.092600 6.738400
10.123200 6.424500
10.153800 6.234400
10.184400 6.255800
10.215000 6.525400
10.245500 7.350000
10.276100 6.964200
10.306700 7.155000
10.337300 7.516000
10.367900 7.470100
10.398500 6.016200
10.429100 6.143200
10.459700 7.352400
10.490300 9.039200
10.520900 9.485800
10.551400 9.107300
10.582000 8.415300
10.612600 7.378400
10.643200 6.602100
10.673800 6.909800
10.704400 8.506400
10.735000 8.047100
10.765600 7.181400
10.796200 7.298100
10.826700 7.401600
10.857300 7.844600
10.887900 9.176900
10.918500 10.236100
10.949100 10.166300
10.979700 10.629900
11.010300 9.839000
11.040900 9.861600
11.071500 9.040800
11.102100 8.556400
11.132600 8.660300
11.163200 8.588700
11.193800 8.690500
11.224400 9.133800
11.255000 8.792500
11.285600 9.124000
11.316200 9.739000
11.346800 7.649000
11.377400 7.418500
11.408000 7.609100
11.438500 8.509900
11.469100 7.871500
11.499700 7.330900
11.530300 6.859300
11.560900 6.650600
11.591500 6.147100
11.622100 5.603100
11.652700 4.951800
11.683300 4.998800
11.713800 5.771500
11.744400 6.829800
11.775000 7.464500
11.805600 6.731200
11.836200 6.070900
11.866800 5.689200
11.897400 5.257400
11.928000 4.725200
11.958600 5.290600
11.989200 5.802200
12.019700 6.112100
12.050300 6.700800
12.080900 6.824800
12.111500 7.031100
12.142100 6.613600
12.172700 6.514100
12.203300 6.164100
12.233900 5.642700
12.264500 5.323900
12.295000 5.272600
12.325600 5.026000
12.356200 4.529300
12.386800 3.984700
12.417400 3.617500
12.448000 3.542100
12.478600 3.452200
12.509200 3.488700
12.539800 3.568300
12.570400 3.936600
12.600900 3.951500
12.631500 4.455700
12.662100 4.876100
12.692700 4.713400
12.723300 4.802300
12.753900 4.898800
12.784500 5.175500
12.815100 5.282500
12.845700 5.181600
12.876300 4.849600
12.906800 5.129400
12.937400 4.611700
12.968000 4.197000
12.998600 3.858900
13.029200 3.773200
13.059800 4.378200
13.090400 4.521900
13.121000 4.676700
13.151600 4.803800
13.182100 4.213100
13.212700 3.670500
13.243300 3.406600
13.273900 3.253400
13.304500 3.113800
13.335100 2.898600
13.365700 2.739600
13.396300 2.654500
13.426900 2.612700
13.457500 2.580900
13.488000 2.603300
13.518600 2.787900
13.549200 3.004200
13.579800 3.350200
13.610400 3.538900
13.641000 3.685500
13.671600 4.079000
13.702200 5.023800
13.732800 4.781300
13.763300 4.871600
13.793900 5.059300
13.824500 5.359500
13.855100 5.578600
13.885700 5.641300
13.916300 5.513100
13.946900 5.462600
13.977500 4.950200
14.008100 4.586500
14.038700 4.226200
14.069200 3.969500
14.099800 3.977200
14.130400 4.147700
14.161000 4.542400
14.191600 5.295000
14.222200 5.849400
14.252800 6.422500
14.283400 6.445100
14.314000 6.238100
14.344600 6.041600
14.375100 5.629900
14.405700 5.466500
14.436300 5.035500
14.466900 4.391900
14.497500 4.045400
14.528100 4.209900
14.558700 4.592700
14.589300 4.827600
14.619900 5.393300
14.650400 5.820000
14.681000 5.733100
14.711600 5.362000
14.742200 5.040600
14.772800 4.897700
14.803400 4.688000
14.834000 4.654400
14.864600 4.730100
14.895200 5.073400
14.925800 5.285000
14.956300 5.671700
14.986900 5.578900
15.017500 5.161300
15.048100 4.941100
15.078700 4.493000
15.109300 4.568400
15.139900 4.573000
15.170500 4.529200
15.201100 4.460600
15.231600 4.497100
15.262200 4.568700
15.292800 4.613100
15.323400 4.888700
15.354000 5.071300
15.384600 5.389500
15.415200 5.504200
15.445800 5.629100
15.476400 5.796400
15.507000 6.250400
15.537500 6.263300
15.568100 6.137200
15.598700 5.988700
15.629300 5.847900
15.659900 5.872300
15.690500 5.676800
15.721100 5.395300
15.751700 4.968000
15.782300 4.649500
15.812900 4.545700
15.843400 4.636400
15.874000 4.898600
15.904600 5.285800
15.935200 5.299200
15.965800 5.519100
15.996400 5.465800
16.027000 5.484400
16.057600 5.451400
16.088200 5.693200
16.118700 5.644900
16.149300 4.800900
16.179900 4.176500
16.210500 4.013000
16.241100 4.380900
16.271700 5.156000
16.302300 6.144400
16.332900 6.874300
16.363500 7.189300
16.394100 7.738900
16.424600 7.332300
16.455200 6.934500
16.485800 6.414900
16.516400 6.206500
16.547000 6.045600
16.577600 5.889000
16.608200 5.814900
16.638800 5.661200
16.669400 6.078600
16.699900 6.127400
16.730500 5.480800
16.761100 4.940100
16.791700 4.494800
16.822300 4.193600
16.852900 4.392100
16.883500 4.819900
16.914100 4.917300
16.944700 5.254400
16.975300 5.453300
17.005800 5.271500
17.036400 5.260800
17.067000 5.558700
17.097600 5.301500
17.128200 5.461500
17.158800 5.884900
17.189400 5.932800
17.220000 5.811900
17.250600 5.564600
17.281200 5.462900
17.311700 5.470500
17.342300 5.727000
17.372900 5.628700
17.403500 5.373600
17.434100 4.933200
17.464700 4.565400
17.495300 4.258000
17.525900 3.981400
17.556500 4.163000
17.587000 4.385400
17.617600 4.385000
17.648200 4.662900
17.678800 5.043400
17.709400 5.234300
17.740000 5.629800
17.770600 5.632500
17.801200 5.503700
17.831800 5.717800
17.862400 5.618700
17.892900 5.454200
17.923500 5.470300
17.954100 5.310400
17.984700 5.397600
18.015300 5.411600
18.045900 5.585700
18.076500 5.848200
18.107100 6.274800
18.137700 6.751400
18.168200 7.175000
18.198800 7.054800
18.229400 6.543300
18.260000 6.050600
18.290600 5.929000
18.321200 5.757200
18.351800 5.787800
18.382400 5.844400
18.413000 5.849600
18.443600 5.880300
18.474100 5.892900
18.504700 6.004500
18.535300 5.783500
18.565900 5.306000
18.596500 5.400900
18.627100 5.229500
18.657700 5.240800
18.688300 5.611000
18.718900 6.002900
18.749500 6.352600
18.780000 6.796600
18.810600 6.971200
18.841200 6.729000
18.871800 6.470400
18.902400 6.215500
18.933000 5.736000
18.963600 5.442000
18.994200 5.275800
19.024800 5.287700
19.055300 5.603500
19.085900 5.714200
19.116500 5.363300
19.147100 5.373300
19.177700 5.369600
19.208300 5.451100
19.238900 5.628300
19.269500 6.122100
19.300100 6.216400
19.330700 6.320100
19.361200 6.226900
19.391800 6.181500
19.422400 6.140000
19.453000 6.280500
19.483600 6.630800
19.514200 6.674900
19.544800 6.890000
19.575400 6.648800
19.606000 6.238900
19.636500 6.285400
19.667100 6.086200
19.697700 5.645500
19.728300 5.425100
19.758900 5.557600
19.789500 5.521600
19.820100 5.788800
19.850700 6.064000
19.881300 6.196700
19.911900 6.228500
19.942400 6.477200
19.973000 6.721800
20.003600 6.607900
20.034200 6.380100
20.064800 6.647600
20.095400 7.041700
20.126000 6.709500
20.156600 6.472600
20.187200 6.125600
20.217800 5.975500
20.248300 5.933800
20.278900 5.885600
20.309500 5.991800
20.340100 6.121200
20.370700 6.181000
20.401300 6.679200
20.431900 6.570200
20.462500 6.731800
20.493100 6.783000
20.523600 6.581100
20.554200 6.544100
20.584800 6.467300
20.615400 6.027500
20.646000 5.902400
20.676600 5.965000
20.707200 6.104800
20.737800 6.100600
20.768400 5.701800
20.799000 5.508000
20.829500 5.642500
20.860100 5.712300
20.890700 5.719200
20.921300 5.667300
20.951900 5.524800
20.982500 5.492700
21.013100 5.527400
21.043700 5.707500
21.074300 5.792500
21.104800 5.397700
21.135400 5.279700
21.166000 5.461000
21.196600 5.584200
21.227200 5.491600
21.257800 5.608200
21.288400 6.033600
21.319000 5.974100
21.349600 5.841100
21.380200 5.448800
21.410700 5.504100
21.441300 5.455400
21.471900 5.642700
21.502500 5.735200
21.533100 6.093900
21.563700 6.576800
21.594300 6.556200
21.624900 6.431400
21.655500 6.368000
21.686100 6.428900
21.716600 6.179100
21.747200 6.389100
21.777800 6.340200
21.808400 6.507200
21.839000 6.241300
21.869600 5.723400
21.900200 5.560100
21.930800 5.578700
21.961400 5.579600
21.991900 5.642800
22.022500 6.058900
22.053100 6.393100
22.083700 6.355500
22.114300 6.268500
22.144900 6.136600
22.175500 6.161000
22.206100 6.252800
22.236700 6.422200
22.267300 6.358000
22.297800 6.347500
22.328400 6.007400
22.359000 5.799700
22.389600 5.518000
22.420200 5.787700
22.450800 5.645500
22.481400 5.641400
22.512000 5.753800
22.542600 5.996400
22.573100 6.431300
22.603700 6.699300
22.634300 6.683800
22.664900 7.166500
22.695500 7.430100
22.726100 7.268000
22.756700 7.086300
22.787300 6.857400
22.817900 6.882900
22.848500 6.741500
22.879000 6.578600
22.909600 6.374000
22.940200 6.467900
22.970800 6.658200
23.001400 6.706500
23.032000 6.911400
23.062600 7.145300
23.093200 7.154700
23.123800 6.969100
23.154400 6.899800
23.184900 6.226900
23.215500 6.316600
23.246100 6.539800
23.276700 7.105200
23.307300 7.016700
23.337900 6.523300
23.368500 6.715500
23.399100 6.783800
23.429700 6.874300
23.460200 6.892700
23.490800 6.694800
23.521400 6.790500
23.552000 6.643400
23.582600 6.519600
23.613200 6.412400
23.643800 6.307500
23.674400 6.262200
23.705000 6.312800
23.735600 6.375700
23.766100 6.311200
23.796700 6.249100
23.827300 6.319100
23.857900 6.476500
23.888500 6.377700
23.919100 6.059400
23.949700 5.814600
23.980300 5.767100
24.010900 5.957100
24.041400 5.935500
24.072000 6.187300
24.102600 6.156500
24.133200 5.904000
24.163800 5.703800
24.194400 5.145300
24.225000 4.765900
24.255600 4.810300
24.286200 4.670500
24.316800 4.657900
24.347300 4.580900
24.377900 4.319600
24.408500 3.900900
24.439100 3.483600
24.469700 3.103400
24.500300 2.697700
24.530900 2.373500
24.561500 2.042600
24.592100 1.743000
24.622700 1.598800
24.653200 1.518200
24.683800 1.500900
24.714400 1.415900
24.745000 1.367700
24.775600 1.264900
24.806200 1.171900
24.836800 1.168700
24.867400 0.857700
24.898000 0.684000
24.928500 0.362200
24.959100 0.262100
24.989700 0.204400
25.020300 0.157200
25.050900 0.118600
25.081500 0.088700
25.112100 0.064100
25.142700 0.042100
25.173300 0.023000
25.203900 0.008100
25.234400 0.000100
25.265000 0.000000
25.295600 0.000000
25.326200 0.000000
25.356800 0.000000
25.387400 0.000000
25.418000 0.000000
25.448600 0.000000
25.479200 0.000000
25.509700 0.000000
25.540300 0.000000
25.570900 0.000000
25.601500 0.000000
25.632100 0.000000
25.662700 0.000000
25.693300 0.000000
25.723900 0.000000
25.754500 0.000000
25.785100 0.000000
25.815600 0.000000
25.846200 0.000000
25.876800 0.000000
25.907400 0.000000
25.938000 0.000000
25.968600 0.000000
25.999200 0.000000
26.029800 0.000000
26.060400 0.000000
26.091000 0.000000
26.121500 0.000000
26.152100 0.000000
26.182700 0.000000
26.213300 0.000000
26.243900 0.000000
26.274500 0.000000
26.305100 0.000000
26.335700 0.000000
26.366300 0.000000
26.396800 0.000000
26.427400 0.000000
26.458000 0.000000
26.488600 0.000000
26.519200 0.000000
26.549800 0.000000
26.580400 0.000000
26.611000 0.000000
26.641600 0.000000
26.672200 0.000000
26.702700 0.000000
26.733300 0.000000
26.763900 0.000000
26.794500 0.000000
26.825100 0.000000
26.855700 0.000000
26.886300 0.000000
26.916900 0.000000
26.947500 0.000000
26.978000 0.000000
27.008600 0.000000
27.039200 0.000000
27.069800 0.000000
27.100400 0.000000
27.131000 0.000000
27.161600 0.000000
27.192200 0.000000
27.222800 0.000000
27.253400 0.000000
27.283900 0.000000
27.314500 0.000000
27.345100 0.000000
27.375700 0.000000
27.406300 0.000000
27.436900 0.000000
27.467500 0.000000
27.498100 0.000000
27.528700 0.000000
27.559300 0.000000
27.589800 0.000000
27.620400 0.000000
27.651000 0.000000
27.681600 0.000000
27.712200 0.000000
27.742800 0.000000
27.773400 0.000000
27.804000 0.000000
27.834600 0.000000
27.865100 0.000000
27.895700 0.000000
27.926300 0.000000
27.956900 0.000000
27.987500 0.000000
28.018100 0.000000
e
