set title 'mp-1095302 - Density of States'
set xlabel 'Energy (eV)'
set ylabel 'DOS (states/eV)'
set grid
set xrange [-10:10]
set yrange [0:20.269]
set xzeroaxis lt -1
set terminal png size 800,600
set output 'mp-1095302_dos_gnuplot.png'
plot '-' using 1:2 with lines title 'DOS'
-11.926200 0.000000
-11.913600 0.000000
-11.901100 0.000000
-11.888500 0.000000
-11.876000 0.000000
-11.863400 0.000000
-11.850800 0.000000
-11.838300 0.000000
-11.825700 0.000000
-11.813200 0.000000
-11.800600 0.000000
-11.788100 0.000000
-11.775500 0.000000
-11.762900 0.000000
-11.750400 0.000000
-11.737800 0.000000
-11.725300 0.000000
-11.712700 0.000000
-11.700100 0.000000
-11.687600 0.000000
-11.675000 0.000000
-11.662500 0.000000
-11.649900 0.000000
-11.637400 0.000000
-11.624800 0.000000
-11.612200 0.000000
-11.599700 0.000000
-11.587100 0.000000
-11.574600 0.000000
-11.562000 0.000000
-11.549400 0.000000
-11.536900 0.000000
-11.524300 0.000000
-11.511800 0.000000
-11.499200 0.000000
-11.486700 0.000000
-11.474100 0.000000
-11.461500 0.000000
-11.449000 0.000000
-11.436400 0.000000
-11.423900 0.000000
-11.411300 0.000000
-11.398700 0.000000
-11.386200 0.000000
-11.373600 0.000000
-11.361100 0.000000
-11.348500 0.000000
-11.336000 0.000000
-11.323400 0.000000
-11.310800 0.000000
-11.298300 0.000000
-11.285700 0.000000
-11.273200 0.000000
-11.260600 0.000000
-11.248000 0.000000
-11.235500 0.000000
-11.222900 0.000000
-11.210400 0.000000
-11.197800 0.000000
-11.185300 0.000000
-11.172700 0.000000
-11.160100 0.000000
-11.147600 0.000000
-11.135000 0.000000
-11.122500 0.000000
-11.109900 0.000000
-11.097400 0.000000
-11.084800 0.000000
-11.072200 0.000000
-11.059700 0.000000
-11.047100 0.000000
-11.034600 0.000000
-11.022000 0.000000
-11.009400 0.000000
-10.996900 0.000000
-10.984300 0.000000
-10.971800 0.000000
-10.959200 0.000000
-10.946700 0.000000
-10.934100 0.000000
-10.921500 0.000000
-10.909000 0.000000
-10.896400 0.000000
-10.883900 0.000000
-10.871300 0.000000
-10.858700 0.000000
-10.846200 0.000000
-10.833600 0.000000
-10.821100 0.000000
-10.808500 0.000000
-10.796000 0.000000
-10.783400 0.001900
-10.770800 0.268800
-10.758300 0.846300
-10.745700 1.133600
-10.733200 1.295500
-10.720600 1.533700
-10.708000 1.803100
-10.695500 2.099800
-10.682900 2.439000
-10.670400 2.681500
-10.657800 2.599900
-10.645300 2.637700
-10.632700 2.702700
-10.620100 2.768400
-10.607600 2.786500
-10.595000 2.846200
-10.582500 2.894200
-10.569900 2.961500
-10.557300 3.149400
-10.544800 3.613200
-10.532200 4.345500
-10.519700 4.712000
-10.507100 4.952400
-10.494600 5.365100
-10.482000 5.304400
-10.469400 5.204800
-10.456900 5.406000
-10.444300 5.802100
-10.431800 6.258100
-10.419200 6.241200
-10.406600 6.431800
-10.394100 6.621700
-10.381500 7.037300
-10.369000 9.420900
-10.356400 8.901500
-10.343900 7.819700
-10.331300 7.392600
-10.318700 6.806900
-10.306200 6.569900
-10.293600 6.564400
-10.281100 6.620800
-10.268500 6.576200
-10.255900 6.462800
-10.243400 6.499100
-10.230800 6.655800
-10.218300 6.967600
-10.205700 7.449800
-10.193200 7.878700
-10.180600 8.552600
-10.168000 9.383100
-10.155500 16.476000
-10.142900 3.713300
-10.130400 3.872000
-10.117800 4.105300
-10.105200 4.140500
-10.092700 4.322200
-10.080100 5.163800
-10.067600 6.886100
-10.055000 7.813600
-10.042500 22.031000
-10.029900 0.648600
-10.017300 0.826500
-10.004800 1.057700
-9.992200 1.295000
-9.979700 1.382200
-9.967100 1.502100
-9.954500 2.081300
-9.942000 2.093500
-9.929400 2.279200
-9.916900 2.435400
-9.904300 2.595300
-9.891800 2.952500
-9.879200 2.695600
-9.866600 2.756800
-9.854100 2.752500
-9.841500 2.776100
-9.829000 2.824200
-9.816400 2.894100
-9.803800 2.966800
-9.791300 3.030500
-9.778700 3.083000
-9.766200 3.126200
-9.753600 3.177900
-9.741100 3.225000
-9.728500 3.282200
-9.715900 3.350700
-9.703400 3.429700
-9.690800 3.515400
-9.678300 3.607300
-9.665700 3.706800
-9.653100 3.814800
-9.640600 3.931000
-9.628000 4.047400
-9.615500 4.167500
-9.602900 4.305200
-9.590400 4.471900
-9.577800 4.665100
-9.565200 4.918400
-9.552700 5.239800
-9.540100 5.146500
-9.527600 5.355200
-9.515000 5.125200
-9.502500 5.046200
-9.489900 4.924000
-9.477300 5.066000
-9.464800 5.246500
-9.452200 5.351200
-9.439700 5.147000
-9.427100 5.117000
-9.414500 5.145300
-9.402000 5.151300
-9.389400 4.983100
-9.376900 4.543600
-9.364300 4.365600
-9.351800 4.199700
-9.339200 4.031200
-9.326600 3.965900
-9.314100 3.881700
-9.301500 3.771700
-9.289000 3.670300
-9.276400 3.595800
-9.263800 3.559800
-9.251300 3.537700
-9.238700 3.486000
-9.226200 3.391900
-9.213600 3.292000
-9.201100 3.226800
-9.188500 3.201500
-9.175900 3.214700
-9.163400 3.221700
-9.150800 3.213300
-9.138300 3.193900
-9.125700 3.161700
-9.113100 3.070700
-9.100600 3.039900
-9.088000 3.012700
-9.075500 2.993900
-9.062900 2.979100
-9.050400 2.962400
-9.037800 2.958800
-9.025200 2.962100
-9.012700 2.965400
-9.000100 7.232500
-8.987600 6.388400
-8.975000 1.377000
-8.962400 1.842400
-8.949900 3.707400
-8.937300 3.894600
-8.924800 2.586200
-8.912200 1.537900
-8.899700 0.786500
-8.887100 0.382700
-8.874500 0.082900
-8.862000 0.000000
-8.849400 0.000000
-8.836900 0.000000
-8.824300 0.410500
-8.811700 1.358000
-8.799200 3.147400
-8.786600 5.556500
-8.774100 3.670200
-8.761500 1.898400
-8.749000 3.490200
-8.736400 7.049600
-8.723800 6.282500
-8.711300 4.721400
-8.698700 4.374500
-8.686200 4.396700
-8.673600 4.644100
-8.661000 5.008300
-8.648500 5.492500
-8.635900 6.230000
-8.623400 6.958700
-8.610800 7.466400
-8.598300 8.192400
-8.585700 9.021100
-8.573100 10.827600
-8.560600 11.730100
-8.548000 12.322700
-8.535500 13.753900
-8.522900 14.414800
-8.510300 15.237300
-8.497800 16.374100
-8.485200 17.021700
-8.472700 18.426800
-8.460100 16.713300
-8.447600 12.166800
-8.435000 11.986700
-8.422400 12.100800
-8.409900 9.326800
-8.397300 8.657300
-8.384800 8.670700
-8.372200 5.926400
-8.359600 3.100000
-8.347100 0.000000
-8.334500 1.205400
-8.322000 2.531100
-8.309400 2.200600
-8.296900 2.167300
-8.284300 2.195000
-8.271700 2.272400
-8.259200 2.306400
-8.246600 2.450400
-8.234100 2.675800
-8.221500 2.817700
-8.208900 2.914900
-8.196400 2.998600
-8.183800 3.045600
-8.171300 3.027100
-8.158700 2.982800
-8.146200 2.942600
-8.133600 2.917400
-8.121000 2.915700
-8.108500 2.924200
-8.095900 2.927300
-8.083400 2.951500
-8.070800 2.986800
-8.058300 3.028000
-8.045700 3.073100
-8.033100 3.119900
-8.020600 3.161200
-8.008000 3.206000
-7.995500 3.251900
-7.982900 3.296300
-7.970300 3.343500
-7.957800 3.392500
-7.945200 3.439600
-7.932700 3.491500
-7.920100 3.549100
-7.907600 3.615000
-7.895000 3.686100
-7.882400 3.764400
-7.869900 3.852100
-7.857300 3.963700
-7.844800 4.091500
-7.832200 4.236700
-7.819600 4.400000
-7.807100 4.555400
-7.794500 4.720500
-7.782000 4.903700
-7.769400 5.091000
-7.756900 5.332200
-7.744300 6.158200
-7.731700 6.178900
-7.719200 6.229000
-7.706600 6.379200
-7.694100 6.638600
-7.681500 7.067200
-7.668900 7.514800
-7.656400 8.215600
-7.643800 9.701200
-7.631300 10.582200
-7.618700 12.300300
-7.606200 11.097500
-7.593600 9.793100
-7.581000 5.892700
-7.568500 3.665000
-7.555900 4.217300
-7.543400 4.884000
-7.530800 4.648900
-7.518200 5.079100
-7.505700 6.857300
-7.493100 13.144200
-7.480600 8.235000
-7.468000 0.000000
-7.455500 0.000000
-7.442900 0.000000
-7.430300 0.000000
-7.417800 0.000000
-7.405200 0.000000
-7.392700 0.000000
-7.380100 0.000000
-7.367500 0.000000
-7.355000 0.000000
-7.342400 0.000000
-7.329900 0.000000
-7.317300 0.000000
-7.304800 0.000000
-7.292200 0.000000
-7.279600 0.000000
-7.267100 0.000000
-7.254500 0.000000
-7.242000 0.000000
-7.229400 0.000000
-7.216800 0.000000
-7.204300 0.000000
-7.191700 0.000000
-7.179200 0.000000
-7.166600 0.000000
-7.154100 0.000000
-7.141500 0.000000
-7.128900 0.000000
-7.116400 0.000000
-7.103800 0.000000
-7.091300 0.000000
-7.078700 0.000000
-7.066100 0.000000
-7.053600 0.000000
-7.041000 0.000000
-7.028500 0.000000
-7.015900 0.038500
-7.003400 1.127900
-6.990800 2.711900
-6.978200 2.971200
-6.965700 2.690700
-6.953100 3.003800
-6.940600 3.547800
-6.928000 4.078100
-6.915400 5.875300
-6.902900 6.778400
-6.890300 7.374100
-6.877800 8.181600
-6.865200 8.067000
-6.852700 8.460200
-6.840100 8.705500
-6.827500 8.233500
-6.815000 8.203800
-6.802400 8.405800
-6.789900 8.712600
-6.777300 8.846100
-6.764700 8.953700
-6.752200 10.052800
-6.739600 9.919000
-6.727100 8.619200
-6.714500 7.733700
-6.702000 6.605600
-6.689400 6.062800
-6.676800 6.299100
-6.664300 6.697700
-6.651700 7.754000
-6.639200 7.626700
-6.626600 6.875900
-6.614000 6.085700
-6.601500 5.446700
-6.588900 5.105000
-6.576400 4.893700
-6.563800 4.750400
-6.551300 4.411600
-6.538700 4.248400
-6.526100 6.199500
-6.513600 7.099900
-6.501000 7.086100
-6.488500 5.292600
-6.475900 4.406500
-6.463400 5.134200
-6.450800 5.902800
-6.438200 7.046900
-6.425700 8.011700
-6.413100 6.340000
-6.400600 5.451700
-6.388000 5.040600
-6.375400 4.981100
-6.362900 4.943300
-6.350300 4.905700
-6.337800 4.867400
-6.325200 4.820400
-6.312700 4.868800
-6.300100 4.865400
-6.287500 4.790300
-6.275000 4.688000
-6.262400 4.589300
-6.249900 4.424500
-6.237300 4.139900
-6.224700 3.827400
-6.212200 3.566000
-6.199600 3.493600
-6.187100 3.456300
-6.174500 3.422700
-6.162000 3.396900
-6.149400 3.344800
-6.136800 3.254500
-6.124300 3.150300
-6.111700 3.045200
-6.099200 2.951400
-6.086600 2.867500
-6.074000 2.795100
-6.061500 2.735000
-6.048900 2.685400
-6.036400 2.646200
-6.023800 2.614000
-6.011300 2.592400
-5.998700 2.589800
-5.986100 2.598200
-5.973600 2.617900
-5.961000 2.639600
-5.948500 2.653700
-5.935900 2.679000
-5.923300 2.709500
-5.910800 2.741600
-5.898200 2.778600
-5.885700 2.811900
-5.873100 2.837700
-5.860600 2.861300
-5.848000 2.882500
-5.835400 3.121300
-5.822900 3.159900
-5.810300 3.245400
-5.797800 3.325100
-5.785200 3.392900
-5.772600 3.448200
-5.760100 3.486800
-5.747500 3.529600
-5.735000 3.569700
-5.722400 3.615500
-5.709900 3.660700
-5.697300 3.687500
-5.684700 3.698400
-5.672200 3.717400
-5.659600 3.769900
-5.647100 3.830800
-5.634500 3.855500
-5.621900 3.880000
-5.609400 3.913700
-5.596800 3.947200
-5.584300 3.972400
-5.571700 4.039200
-5.559200 4.032300
-5.546600 3.984600
-5.534000 3.990800
-5.521500 4.075900
-5.508900 4.121100
-5.496400 4.157200
-5.483800 4.212700
-5.471200 4.268000
-5.458700 4.404000
-5.446100 4.561000
-5.433600 4.611700
-5.421000 4.701900
-5.408500 4.824500
-5.395900 4.642200
-5.383300 4.496700
-5.370800 3.830600
-5.358200 3.526500
-5.345700 3.236700
-5.333100 2.936100
-5.320500 2.815900
-5.308000 2.757800
-5.295400 2.766700
-5.282900 2.409000
-5.270300 1.492600
-5.257800 0.439700
-5.245200 0.000000
-5.232600 0.000000
-5.220100 0.000000
-5.207500 0.000000
-5.195000 0.000000
-5.182400 0.000000
-5.169800 0.000000
-5.157300 0.000000
-5.144700 0.000000
-5.132200 0.000000
-5.119600 0.000000
-5.107100 0.000000
-5.094500 0.000000
-5.081900 0.000000
-5.069400 0.000000
-5.056800 0.000000
-5.044300 0.000000
-5.031700 0.000000
-5.019200 0.000000
-5.006600 0.000000
-4.994000 0.000000
-4.981500 0.000000
-4.968900 0.000000
-4.956400 0.000000
-4.943800 0.000000
-4.931200 0.000000
-4.918700 0.000000
-4.906100 0.000000
-4.893600 0.000000
-4.881000 0.000000
-4.868500 0.000000
-4.855900 0.000000
-4.843300 0.000000
-4.830800 0.000000
-4.818200 0.000000
-4.805700 0.000000
-4.793100 0.000000
-4.780500 0.000000
-4.768000 0.000000
-4.755400 0.000000
-4.742900 0.000000
-4.730300 0.000000
-4.717800 0.000000
-4.705200 0.000000
-4.692600 0.000000
-4.680100 0.000000
-4.667500 0.000000
-4.655000 0.000000
-4.642400 0.000000
-4.629800 0.000000
-4.617300 0.000000
-4.604700 0.000000
-4.592200 0.000000
-4.579600 0.000000
-4.567100 0.000000
-4.554500 0.000000
-4.541900 0.000000
-4.529400 0.000000
-4.516800 0.000000
-4.504300 0.000000
-4.491700 0.000000
-4.479100 0.000000
-4.466600 0.000000
-4.454000 0.000000
-4.441500 0.000000
-4.428900 0.000000
-4.416400 0.000000
-4.403800 0.000000
-4.391200 0.000000
-4.378700 0.000000
-4.366100 0.000000
-4.353600 0.000000
-4.341000 0.000000
-4.328400 0.000000
-4.315900 0.000000
-4.303300 0.000000
-4.290800 0.000000
-4.278200 0.000000
-4.265700 0.000000
-4.253100 0.000000
-4.240500 0.000000
-4.228000 0.000000
-4.215400 0.000000
-4.202900 0.000000
-4.190300 0.000000
-4.177700 0.000000
-4.165200 0.000000
-4.152600 0.000000
-4.140100 0.000000
-4.127500 0.000000
-4.115000 0.000000
-4.102400 0.000000
-4.089800 0.000000
-4.077300 0.000000
-4.064700 0.000000
-4.052200 0.000000
-4.039600 0.000000
-4.027000 0.000000
-4.014500 0.000000
-4.001900 0.000000
-3.989400 0.000000
-3.976800 0.000000
-3.964300 0.000000
-3.951700 0.000000
-3.939100 0.000000
-3.926600 0.000000
-3.914000 0.000000
-3.901500 0.000000
-3.888900 0.000000
-3.876300 0.000000
-3.863800 0.000000
-3.851200 0.000000
-3.838700 0.000000
-3.826100 0.000000
-3.813600 0.000000
-3.801000 0.000000
-3.788400 0.000000
-3.775900 0.000000
-3.763300 0.000000
-3.750800 0.000000
-3.738200 0.000000
-3.725600 0.000000
-3.713100 0.000000
-3.700500 0.000000
-3.688000 0.000000
-3.675400 0.000000
-3.662900 0.000000
-3.650300 0.000000
-3.637700 0.000000
-3.625200 0.000000
-3.612600 0.000000
-3.600100 0.000000
-3.587500 0.000000
-3.574900 0.000000
-3.562400 0.000000
-3.549800 0.000000
-3.537300 0.000000
-3.524700 0.000000
-3.512200 0.000000
-3.499600 0.000000
-3.487000 0.000000
-3.474500 0.000000
-3.461900 0.000000
-3.449400 0.000000
-3.436800 0.000000
-3.424300 0.000000
-3.411700 0.000000
-3.399100 0.000000
-3.386600 0.000000
-3.374000 0.000000
-3.361500 0.000000
-3.348900 0.000000
-3.336300 0.000000
-3.323800 0.000000
-3.311200 0.000000
-3.298700 0.000000
-3.286100 0.000000
-3.273600 0.000000
-3.261000 0.000000
-3.248400 0.000000
-3.235900 0.000000
-3.223300 0.000000
-3.210800 0.000000
-3.198200 0.000000
-3.185600 0.000000
-3.173100 0.000000
-3.160500 0.000000
-3.148000 0.000000
-3.135400 0.000000
-3.122900 0.000000
-3.110300 0.000000
-3.097700 0.000000
-3.085200 0.000000
-3.072600 0.000000
-3.060100 0.000000
-3.047500 0.000000
-3.034900 0.000000
-3.022400 0.000000
-3.009800 0.000000
-2.997300 0.000000
-2.984700 0.000000
-2.972200 0.000000
-2.959600 0.000000
-2.947000 0.000000
-2.934500 0.000000
-2.921900 0.000000
-2.909400 0.000000
-2.896800 0.000000
-2.884200 0.000000
-2.871700 0.000000
-2.859100 0.000000
-2.846600 0.000000
-2.834000 0.000000
-2.821500 0.000000
-2.808900 0.000000
-2.796300 0.000000
-2.783800 0.000000
-2.771200 0.000000
-2.758700 0.000000
-2.746100 0.000000
-2.733500 0.000000
-2.721000 0.000000
-2.708400 0.000000
-2.695900 0.000000
-2.683300 0.000000
-2.670800 0.000000
-2.658200 0.000000
-2.645600 0.000000
-2.633100 0.000000
-2.620500 0.000000
-2.608000 0.000000
-2.595400 0.000000
-2.582800 0.000000
-2.570300 0.000000
-2.557700 0.000000
-2.545200 0.000000
-2.532600 0.000000
-2.520100 0.000000
-2.507500 0.000000
-2.494900 0.000000
-2.482400 0.000000
-2.469800 0.000000
-2.457300 0.000000
-2.444700 0.000000
-2.432100 0.000000
-2.419600 0.000000
-2.407000 0.000000
-2.394500 0.000000
-2.381900 0.000000
-2.369400 0.000000
-2.356800 0.000000
-2.344200 0.000000
-2.331700 0.000000
-2.319100 0.000000
-2.306600 0.000000
-2.294000 0.000000
-2.281400 0.000000
-2.268900 0.000000
-2.256300 0.000000
-2.243800 0.000000
-2.231200 0.000000
-2.218700 0.000000
-2.206100 0.000000
-2.193500 0.000000
-2.181000 0.000000
-2.168400 0.000000
-2.155900 0.000000
-2.143300 0.000000
-2.130700 0.000000
-2.118200 0.000000
-2.105600 0.000000
-2.093100 0.000000
-2.080500 0.000000
-2.068000 0.000000
-2.055400 0.000000
-2.042800 0.000000
-2.030300 0.000000
-2.017700 0.000000
-2.005200 0.000000
-1.992600 0.000000
-1.980100 0.000000
-1.967500 0.000000
-1.954900 0.000000
-1.942400 0.000000
-1.929800 0.000000
-1.917300 0.000000
-1.904700 0.000000
-1.892100 0.000000
-1.879600 0.000000
-1.867000 0.000000
-1.854500 0.000000
-1.841900 0.000000
-1.829400 0.000000
-1.816800 0.000000
-1.804200 0.000000
-1.791700 0.000000
-1.779100 0.000000
-1.766600 0.000000
-1.754000 0.000000
-1.741400 0.000000
-1.728900 0.000000
-1.716300 0.000000
-1.703800 0.000000
-1.691200 0.000000
-1.678700 0.000000
-1.666100 0.000000
-1.653500 0.000000
-1.641000 0.000000
-1.628400 0.000000
-1.615900 0.000000
-1.603300 0.000000
-1.590700 0.000000
-1.578200 0.000000
-1.565600 0.000000
-1.553100 0.000000
-1.540500 0.000000
-1.528000 0.000000
-1.515400 0.000000
-1.502800 0.000000
-1.490300 0.000000
-1.477700 0.000000
-1.465200 0.000000
-1.452600 0.000000
-1.440000 0.000000
-1.427500 0.000000
-1.414900 0.000000
-1.402400 0.502200
-1.389800 0.940200
-1.377300 1.425200
-1.364700 2.014600
-1.352100 2.757900
-1.339600 3.051900
-1.327000 3.279800
-1.314500 3.437900
-1.301900 3.569500
-1.289300 3.752200
-1.276800 3.869500
-1.264200 3.834300
-1.251700 2.953200
-1.239100 2.824100
-1.226600 2.772700
-1.214000 2.729700
-1.201400 3.223300
-1.188900 3.537400
-1.176300 3.850900
-1.163800 4.429400
-1.151200 4.864200
-1.138600 5.069900
-1.126100 5.280600
-1.113500 5.502500
-1.101000 5.717400
-1.088400 6.643000
-1.075900 8.045400
-1.063300 7.611400
-1.050700 7.466100
-1.038200 7.545700
-1.025600 7.564200
-1.013100 7.665500
-1.000500 8.178900
-0.987900 9.793700
-0.975400 10.702000
-0.962800 10.298700
-0.950300 9.998400
-0.937700 8.749600
-0.925200 8.062300
-0.912600 7.483900
-0.900000 7.276900
-0.887500 7.209000
-0.874900 7.168600
-0.862400 7.054400
-0.849800 6.959600
-0.837200 6.980900
-0.824700 7.131500
-0.812100 7.259900
-0.799600 7.449600
-0.787000 7.672100
-0.774500 8.077800
-0.761900 8.528500
-0.749300 8.628600
-0.736800 8.521100
-0.724200 8.194400
-0.711700 8.095100
-0.699100 8.282300
-0.686500 8.516800
-0.674000 8.898500
-0.661400 8.927900
-0.648900 8.904100
-0.636300 9.119300
-0.623800 9.116100
-0.611200 8.699900
-0.598600 8.148900
-0.586100 7.830600
-0.573500 7.675900
-0.561000 6.910300
-0.548400 6.026800
-0.535800 5.560300
-0.523300 5.272400
-0.510700 5.225900
-0.498200 5.153500
-0.485600 5.058300
-0.473100 4.914400
-0.460500 4.670800
-0.447900 4.524800
-0.435400 4.507700
-0.422800 4.500600
-0.410300 4.673000
-0.397700 5.247200
-0.385200 6.252400
-0.372600 7.817300
-0.360000 9.380700
-0.347500 10.660100
-0.334900 11.651400
-0.322400 12.267200
-0.309800 12.128400
-0.297200 11.955300
-0.284700 11.474100
-0.272100 10.224200
-0.259600 9.239100
-0.247000 8.862500
-0.234500 9.092100
-0.221900 10.017800
-0.209300 10.625800
-0.196800 10.777700
-0.184200 10.394700
-0.171700 9.902000
-0.159100 9.342300
-0.146500 8.846300
-0.134000 8.476800
-0.121400 8.619900
-0.108900 9.054000
-0.096300 8.843000
-0.083800 8.046200
-0.071200 7.666900
-0.058600 7.471700
-0.046100 7.264600
-0.033500 6.868100
-0.021000 6.741700
-0.008400 6.632400
0.004200 6.766400
0.016700 7.336800
0.029300 7.623600
0.041800 7.734400
0.054400 8.324700
0.066900 8.652000
0.079500 9.088800
0.092100 9.489100
0.104600 9.744300
0.117200 9.835500
0.129700 9.479900
0.142300 9.568600
0.154900 9.779500
0.167400 9.783700
0.180000 9.954000
0.192500 9.816600
0.205100 8.831300
0.217600 8.942600
0.230200 9.181300
0.242800 9.942300
0.255300 10.393100
0.267900 10.688600
0.280400 10.590400
0.293000 10.142100
0.305600 9.736000
0.318100 9.690800
0.330700 10.210600
0.343200 8.536700
0.355800 7.286500
0.368300 6.625200
0.380900 6.507400
0.393500 6.704100
0.406000 7.488600
0.418600 7.408100
0.431100 7.354600
0.443700 7.394200
0.456300 7.402500
0.468800 7.502000
0.481400 7.667800
0.493900 8.009000
0.506500 8.509000
0.519000 8.818600
0.531600 8.945000
0.544200 9.115300
0.556700 9.302800
0.569300 9.302800
0.581800 9.233400
0.594400 9.509100
0.607000 9.750500
0.619500 9.544300
0.632100 9.126800
0.644600 8.956400
0.657200 8.908300
0.669700 9.029100
0.682300 9.050500
0.694900 9.114000
0.707400 9.581000
0.720000 9.956700
0.732500 10.017700
0.745100 10.045600
0.757700 10.030800
0.770200 10.167600
0.782800 9.944700
0.795300 9.984500
0.807900 10.088800
0.820400 9.639600
0.833000 9.174600
0.845600 8.934600
0.858100 8.943600
0.870700 9.008300
0.883200 9.291600
0.895800 9.635300
0.908400 9.804100
0.920900 10.259000
0.933500 11.159700
0.946000 11.956800
0.958600 11.656500
0.971100 10.480900
0.983700 9.946300
0.996300 9.713700
1.008800 9.585700
1.021400 9.941600
1.033900 10.405800
1.046500 10.356100
1.059000 10.480100
1.071600 10.925700
1.084200 11.105100
1.096700 11.822400
1.109300 11.853800
1.121800 11.959300
1.134400 11.199600
1.147000 10.320200
1.159500 9.690200
1.172100 9.312300
1.184600 8.987400
1.197200 8.966000
1.209700 8.454800
1.222300 8.492300
1.234900 8.766200
1.247400 9.004200
1.260000 8.775700
1.272500 8.777800
1.285100 8.793600
1.297700 9.402500
1.310200 9.586200
1.322800 10.146600
1.335300 10.750000
1.347900 10.905500
1.360400 10.745300
1.373000 10.828900
1.385600 10.797800
1.398100 11.175200
1.410700 11.430000
1.423200 11.187000
1.435800 10.724100
1.448400 10.857900
1.460900 11.204800
1.473500 11.766900
1.486000 12.095900
1.498600 12.132600
1.511100 11.755500
1.523700 10.729000
1.536300 9.523300
1.548800 8.781400
1.561400 8.262500
1.573900 7.866100
1.586500 7.741400
1.599100 7.875300
1.611600 8.046900
1.624200 8.553800
1.636700 9.184800
1.649300 9.224100
1.661800 9.673300
1.674400 9.943100
1.687000 10.109600
1.699500 10.422900
1.712100 9.921500
1.724600 9.581100
1.737200 9.337100
1.749800 9.424700
1.762300 9.422700
1.774900 9.424300
1.787400 9.723200
1.800000 10.040200
1.812500 10.319300
1.825100 10.740100
1.837700 11.164100
1.850200 11.442200
1.862800 11.674900
1.875300 11.862500
1.887900 11.371200
1.900500 11.531800
1.913000 11.539800
1.925600 11.473700
1.938100 11.293600
1.950700 11.086600
1.963200 10.953900
1.975800 10.830000
1.988400 10.317700
2.000900 10.003300
2.013500 9.621300
2.026000 9.477200
2.038600 9.579400
2.051200 9.857000
2.063700 10.596700
2.076300 11.359300
2.088800 11.721100
2.101400 11.024200
2.113900 10.665000
2.126500 10.536600
2.139100 11.086600
2.151600 10.997200
2.164200 11.320700
2.176700 11.011800
2.189300 11.118900
2.201900 11.443400
2.214400 12.170800
2.227000 12.160000
2.239500 12.280100
2.252100 12.152700
2.264600 11.905700
2.277200 11.584100
2.289800 11.563000
2.302300 11.818900
2.314900 12.344400
2.327400 12.572000
2.340000 12.196000
2.352600 11.552100
2.365100 11.204800
2.377700 10.575200
2.390200 10.503100
2.402800 10.733500
2.415300 10.653000
2.427900 9.879200
2.440500 10.435200
2.453000 11.343800
2.465600 11.745300
2.478100 12.429300
2.490700 12.182500
2.503300 11.526900
2.515800 10.752000
2.528400 9.745200
2.540900 8.932100
2.553500 8.411800
2.566000 7.746000
2.578600 7.453800
2.591200 7.164000
2.603700 6.985000
2.616300 6.311500
2.628800 5.738300
2.641400 6.147900
2.653900 7.140900
2.666500 7.880500
2.679100 8.576600
2.691600 8.861700
2.704200 9.575900
2.716700 10.653900
2.729300 12.072800
2.741900 12.452800
2.754400 14.366700
2.767000 14.112400
2.779500 13.421200
2.792100 13.106800
2.804600 12.490500
2.817200 11.642700
2.829800 12.072000
2.842300 12.949900
2.854900 13.292700
2.867400 12.844300
2.880000 11.890800
2.892600 10.169900
2.905100 8.992300
2.917700 8.217300
2.930200 7.418500
2.942800 7.256500
2.955300 7.759400
2.967900 8.231700
2.980500 8.850300
2.993000 9.832700
3.005600 10.447300
3.018100 10.560600
3.030700 11.552000
3.043300 11.864000
3.055800 10.672100
3.068400 10.713900
3.080900 9.594400
3.093500 9.404700
3.106000 9.765100
3.118600 10.752100
3.131200 10.388100
3.143700 10.475400
3.156300 10.669700
3.168800 10.947800
3.181400 10.677000
3.194000 10.247000
3.206500 10.177800
3.219100 9.699800
3.231600 10.052700
3.244200 9.986700
3.256700 9.593000
3.269300 9.249400
3.281900 8.997700
3.294400 8.610000
3.307000 8.285600
3.319500 8.118100
3.332100 7.857200
3.344700 7.801300
3.357200 7.698200
3.369800 7.584900
3.382300 7.030600
3.394900 4.988900
3.407400 3.716900
3.420000 3.337000
3.432600 3.079500
3.445100 2.844000
3.457700 2.634900
3.470200 2.478500
3.482800 2.289900
3.495400 2.055500
3.507900 1.707600
3.520500 1.266800
3.533000 1.064300
3.545600 1.028400
3.558100 0.989300
3.570700 0.963900
3.583300 0.938600
3.595800 0.859300
3.608400 0.667900
3.620900 0.498800
3.633500 0.394100
3.646100 0.303700
3.658600 0.221600
3.671200 0.143700
3.683700 0.068400
3.696300 0.006100
3.708800 0.000000
3.721400 0.000000
3.734000 0.000000
3.746500 0.000000
3.759100 0.000000
3.771600 0.000000
3.784200 0.000000
3.796800 0.000000
3.809300 0.000000
3.821900 0.000000
3.834400 0.000000
3.847000 0.000000
3.859500 0.000000
3.872100 0.000000
3.884700 0.000000
3.897200 0.000000
3.909800 0.000000
3.922300 0.000000
3.934900 0.000000
3.947500 0.000000
3.960000 0.000000
3.972600 0.000000
3.985100 0.000000
3.997700 0.000000
4.010200 0.000000
4.022800 0.000000
4.035400 0.000000
4.047900 0.000000
4.060500 0.000000
4.073000 0.000000
4.085600 0.000000
4.098100 0.000000
4.110700 0.000000
4.123300 0.000000
4.135800 0.000000
4.148400 0.000000
4.160900 0.000000
4.173500 0.000000
4.186100 0.000000
4.198600 0.000000
4.211200 0.000000
4.223700 0.000000
4.236300 0.000000
4.248800 0.000000
4.261400 0.000000
4.274000 0.000000
4.286500 0.000000
4.299100 0.000000
4.311600 0.000000
4.324200 0.000000
4.336800 0.000000
4.349300 0.000000
4.361900 0.000000
4.374400 0.000000
4.387000 0.000000
4.399500 0.000000
4.412100 0.000000
4.424700 0.002400
4.437200 0.028000
4.449800 0.091600
4.462300 0.189100
4.474900 0.294900
4.487500 0.421100
4.500000 0.633400
4.512600 0.869900
4.525100 1.085000
4.537700 1.352700
4.550200 1.559700
4.562800 1.760200
4.575400 1.968800
4.587900 2.163900
4.600500 2.372000
4.613000 2.530600
4.625600 2.689700
4.638200 3.083100
4.650700 3.257700
4.663300 3.295900
4.675800 3.388000
4.688400 3.506000
4.700900 3.685500
4.713500 3.758600
4.726100 3.912700
4.738600 3.938300
4.751200 4.003800
4.763700 4.065400
4.776300 4.215800
4.788900 4.430300
4.801400 4.399000
4.814000 4.422400
4.826500 4.446000
4.839100 4.462600
4.851600 4.488800
4.864200 4.564600
4.876800 4.687800
4.889300 4.788500
4.901900 4.683300
4.914400 4.901200
4.927000 4.819400
4.939600 4.865000
4.952100 5.400300
4.964700 6.163500
4.977200 6.465400
4.989800 6.792100
5.002300 7.189800
5.014900 7.489300
5.027500 7.705300
5.040000 7.668300
5.052600 7.615900
5.065100 7.555600
5.077700 7.237300
5.090300 6.602200
5.102800 5.886200
5.115400 5.450600
5.127900 5.078600
5.140500 4.932200
5.153000 4.902600
5.165600 4.970300
5.178200 5.255800
5.190700 5.423500
5.203300 5.710800
5.215800 6.040400
5.228400 6.232000
5.241000 6.277900
5.253500 6.361200
5.266100 6.792200
5.278600 7.608800
5.291200 7.525100
5.303700 7.690800
5.316300 7.535200
5.328900 7.430400
5.341400 6.575800
5.354000 5.719000
5.366500 5.486600
5.379100 5.293100
5.391700 5.361600
5.404200 5.380600
5.416800 5.559700
5.429300 5.818300
5.441900 6.112200
5.454400 6.198100
5.467000 6.383300
5.479600 6.487800
5.492100 6.681300
5.504700 6.661900
5.517200 6.687700
5.529800 6.708900
5.542400 6.732200
5.554900 6.804400
5.567500 6.897900
5.580000 6.893000
5.592600 7.129000
5.605100 7.490900
5.617700 7.530800
5.630300 7.540900
5.642800 7.512300
5.655400 7.304100
5.667900 7.021000
5.680500 6.421300
5.693000 6.297000
5.705600 6.385700
5.718200 7.072800
5.730700 8.674200
5.743300 9.280400
5.755800 9.800900
5.768400 10.058000
5.781000 10.371800
5.793500 10.384400
5.806100 10.482100
5.818600 10.716400
5.831200 10.907300
5.843700 11.308100
5.856300 11.850100
5.868900 13.332900
5.881400 12.965600
5.894000 11.531800
5.906500 11.236500
5.919100 11.109100
5.931700 10.938300
5.944200 10.730800
5.956800 10.738200
5.969300 10.821900
5.981900 11.199000
5.994400 11.611400
6.007000 12.605100
6.019600 13.748700
6.032100 14.031600
6.044700 13.799000
6.057200 13.691000
6.069800 12.997200
6.082400 11.695600
6.094900 12.058700
6.107500 12.861600
6.120000 13.103600
6.132600 13.495600
6.145100 13.298500
6.157700 12.716000
6.170300 12.273100
6.182800 11.902300
6.195400 11.657800
6.207900 12.508800
6.220500 12.426600
6.233100 12.039300
6.245600 11.515700
6.258200 10.453200
6.270700 9.602500
6.283300 9.176200
6.295800 8.999400
6.308400 9.253600
6.321000 10.367300
6.333500 11.759200
6.346100 12.749600
6.358600 13.572900
6.371200 15.190700
6.383800 15.914500
6.396300 16.579700
6.408900 15.433900
6.421400 13.336800
6.434000 12.312200
6.446500 11.264700
6.459100 10.687400
6.471700 10.252800
6.484200 10.257400
6.496800 10.586300
6.509300 11.242500
6.521900 11.765300
6.534500 12.947800
6.547000 12.900600
6.559600 12.539900
6.572100 12.554300
6.584700 12.484900
6.597200 13.115300
6.609800 13.932600
6.622400 13.996600
6.634900 13.775200
6.647500 13.734200
6.660000 13.424800
6.672600 12.672600
6.685200 12.480800
6.697700 12.930000
6.710300 12.434800
6.722800 12.026500
6.735400 12.028400
6.747900 12.393300
6.760500 12.261700
6.773100 12.107300
6.785600 12.279700
6.798200 12.629800
6.810700 12.571000
6.823300 12.581100
6.835900 12.605200
6.848400 12.864700
6.861000 12.950300
6.873500 12.704000
6.886100 13.344600
6.898600 12.827400
6.911200 11.947200
6.923800 11.256600
6.936300 11.222700
6.948900 11.756600
6.961400 12.153200
6.974000 12.131200
6.986600 11.918600
6.999100 11.514100
7.011700 11.064900
7.024200 9.919100
7.036800 8.930300
7.049300 8.629200
7.061900 8.420700
7.074500 8.260100
7.087000 7.829200
7.099600 8.388700
7.112100 8.730100
7.124700 9.457100
7.137200 8.714400
7.149800 8.887200
7.162400 9.009600
7.174900 8.676000
7.187500 8.472500
7.200000 8.576400
7.212600 9.360600
7.225200 9.249000
7.237700 8.755300
7.250300 8.525300
7.262800 8.170500
7.275400 8.383600
7.287900 9.247000
7.300500 9.860400
7.313100 10.424600
7.325600 11.026700
7.338200 10.814300
7.350700 11.191200
7.363300 11.010600
7.375900 10.016100
7.388400 9.091900
7.401000 8.470600
7.413500 7.878600
7.426100 7.441600
7.438600 7.181900
7.451200 7.109000
7.463800 6.994900
7.476300 7.065500
7.488900 7.196900
7.501400 7.555000
7.514000 6.897800
7.526600 6.311300
7.539100 5.893200
7.551700 5.672200
7.564200 5.418300
7.576800 4.939100
7.589300 4.716900
7.601900 4.620900
7.614500 4.567100
7.627000 4.395600
7.639600 4.070400
7.652100 3.633500
7.664700 3.118200
7.677300 2.862900
7.689800 2.715600
7.702400 2.675500
7.714900 2.545100
7.727500 2.409500
7.740000 2.287700
7.752600 2.174600
7.765200 2.069700
7.777700 1.970400
7.790300 1.876400
7.802800 1.787600
7.815400 1.706300
7.828000 1.635200
7.840500 1.575600
7.853100 1.530100
7.865600 1.499500
7.878200 1.472500
7.890700 1.453600
7.903300 1.439700
7.915900 1.423600
7.928400 1.416000
7.941000 1.484400
7.953500 1.451800
7.966100 1.434300
7.978700 1.337700
7.991200 1.222200
8.003800 1.107900
8.016300 0.904200
8.028900 0.593200
8.041400 0.278400
8.054000 0.033900
8.066600 0.000000
8.079100 0.000000
8.091700 0.000000
8.104200 0.000000
8.116800 0.000000
8.129400 0.000000
8.141900 0.000000
8.154500 0.000000
8.167000 0.000000
8.179600 0.000000
8.192100 0.000000
8.204700 0.000000
8.217300 0.000000
8.229800 0.000000
8.242400 0.000000
8.254900 0.000000
8.267500 0.000000
8.280100 0.000000
8.292600 0.000000
8.305200 0.003000
8.317700 0.029700
8.330300 0.060800
8.342800 0.096200
8.355400 0.136000
8.368000 0.180200
8.380500 0.225700
8.393100 0.253700
8.405600 0.277000
8.418200 0.300000
8.430800 0.322400
8.443300 0.343100
8.455900 0.366800
8.468400 0.387100
8.481000 0.404100
8.493500 0.422000
8.506100 0.441300
8.518700 0.461300
8.531200 0.482100
8.543800 0.503600
8.556300 0.526100
8.568900 0.549900
8.581500 0.574400
8.594000 0.599400
8.606600 0.628400
8.619100 0.661000
8.631700 0.693900
8.644200 0.724500
8.656800 0.754900
8.669400 0.785600
8.681900 0.817100
8.694500 0.851900
8.707000 0.891400
8.719600 0.942000
8.732100 1.005300
8.744700 1.076100
8.757300 1.123600
8.769800 1.156200
8.782400 1.183400
8.794900 1.201000
8.807500 1.204000
8.820100 1.219800
8.832600 1.259600
8.845200 1.315500
8.857700 1.402700
8.870300 1.498600
8.882800 1.574700
8.895400 1.620900
8.908000 1.601000
8.920500 1.520400
8.933100 1.425000
8.945600 1.266300
8.958200 1.109300
8.970800 1.231300
8.983300 1.357900
8.995900 1.485700
9.008400 1.618600
9.021000 1.776900
9.033500 1.903000
9.046100 1.930900
9.058700 1.887100
9.071200 1.834900
9.083800 1.785800
9.096300 1.756600
9.108900 1.727800
9.121500 1.699600
9.134000 1.682700
9.146600 1.668200
9.159100 1.645500
9.171700 1.644900
9.184200 1.662900
9.196800 1.683500
9.209400 1.705200
9.221900 1.727700
9.234500 1.750800
9.247000 1.773100
9.259600 1.794800
9.272200 1.822300
9.284700 1.851900
9.297300 1.877100
9.309800 1.939100
9.322400 2.217100
9.334900 2.652500
9.347500 3.312400
9.360100 3.782100
9.372600 3.994500
9.385200 4.193600
9.397700 4.388500
9.410300 4.384000
9.422900 4.382400
9.435400 4.421500
9.448000 4.528900
9.460500 4.609600
9.473100 4.646600
9.485600 4.637700
9.498200 4.599900
9.510800 4.564300
9.523300 4.217000
9.535900 4.053400
9.548400 4.032800
9.561000 4.035200
9.573600 4.030300
9.586100 4.013800
9.598700 4.025700
9.611200 4.072800
9.623800 4.176200
9.636300 4.084400
9.648900 4.227000
9.661500 4.313000
9.674000 4.321600
9.686600 4.296300
9.699100 4.242500
9.711700 4.186500
9.724300 4.192400
9.736800 4.131300
9.749400 3.961000
9.761900 3.779900
9.774500 3.625700
9.787000 3.593700
9.799600 3.559200
9.812200 3.569700
9.824700 3.748600
9.837300 4.240400
9.849800 4.990800
9.862400 6.269300
9.875000 8.607900
9.887500 8.759400
9.900100 9.068200
9.912600 9.598100
9.925200 10.725100
9.937700 10.278100
9.950300 9.452800
9.962900 9.197600
9.975400 8.962000
9.988000 9.411600
10.000500 8.719900
10.013100 8.376200
10.025700 8.811900
10.038200 9.131400
10.050800 9.539900
10.063300 9.664200
10.075900 10.461800
10.088400 10.974800
10.101000 11.710800
10.113600 12.630200
10.126100 11.584300
10.138700 9.172200
10.151200 7.340500
10.163800 6.161200
10.176300 5.111100
10.188900 4.529900
10.201500 4.949000
10.214000 5.522100
10.226600 6.181300
10.239100 6.861300
10.251700 7.101200
10.264300 7.038300
10.276800 7.103900
10.289400 7.580100
10.301900 8.281300
10.314500 8.171900
10.327000 8.295900
10.339600 8.322400
10.352200 8.330500
10.364700 8.379500
10.377300 8.291400
10.389800 8.031000
10.402400 7.792300
10.415000 8.002500
10.427500 8.249900
10.440100 7.601300
10.452600 6.885200
10.465200 6.369900
10.477700 6.162500
10.490300 6.112700
10.502900 6.258300
10.515400 6.533900
10.528000 6.221500
10.540500 5.848500
10.553100 5.594900
10.565700 5.709700
10.578200 6.011900
10.590800 6.320200
10.603300 6.472800
10.615900 6.444600
10.628400 6.486100
10.641000 6.628200
10.653600 6.488700
10.666100 6.345700
10.678700 6.100800
10.691200 5.836100
10.703800 5.607700
10.716400 5.609500
10.728900 5.486000
10.741500 5.444700
10.754000 5.531400
10.766600 6.151000
10.779100 6.570000
10.791700 6.660400
10.804300 6.878000
10.816800 7.009600
10.829400 7.506900
10.841900 7.190000
10.854500 7.046500
10.867100 7.110500
10.879600 7.060200
10.892200 6.858600
10.904700 6.698400
10.917300 6.693300
10.929800 6.917600
10.942400 7.310000
10.955000 7.307200
10.967500 7.191400
10.980100 7.024100
10.992600 6.810800
11.005200 6.694900
11.017800 6.652200
11.030300 6.809300
11.042900 7.267100
11.055400 7.690800
11.068000 7.866100
11.080500 7.766000
11.093100 7.595500
11.105700 7.476100
11.118200 7.996300
11.130800 8.115400
11.143300 8.342500
11.155900 8.162400
11.168500 8.099300
11.181000 8.032800
11.193600 8.001500
11.206100 7.627500
11.218700 7.087700
11.231200 6.626900
11.243800 6.359000
11.256400 5.882900
11.268900 5.480200
11.281500 5.220000
11.294000 5.062600
11.306600 4.936100
11.319200 4.782800
11.331700 4.666600
11.344300 4.594400
11.356800 4.513400
11.369400 4.417100
11.381900 4.318600
11.394500 4.331300
11.407100 4.463500
11.419600 4.243400
11.432200 4.263200
11.444700 4.318500
11.457300 4.196000
11.469900 4.018000
11.482400 3.863100
11.495000 3.676800
11.507500 3.571500
11.520100 3.519200
11.532600 3.276900
11.545200 2.983000
11.557800 2.728100
11.570300 2.549300
11.582900 2.435900
11.595400 2.369000
11.608000 2.371400
11.620600 2.484200
11.633100 2.664000
11.645700 2.939300
11.658200 3.383300
11.670800 3.517400
11.683300 3.252400
11.695900 3.008200
11.708500 2.786100
11.721000 2.647500
11.733600 2.492200
11.746100 2.314200
11.758700 2.072400
11.771200 1.908700
11.783800 1.831300
11.796400 1.811200
11.808900 1.950600
11.821500 1.936800
11.834000 1.848500
11.846600 1.781000
11.859200 1.729000
11.871700 1.672700
11.884300 1.615100
11.896800 1.551400
11.909400 1.448400
11.921900 1.471700
11.934500 1.447000
11.947100 1.344300
11.959600 1.279600
11.972200 1.089600
11.984700 0.837000
11.997300 0.589100
12.009900 0.333300
12.022400 0.069500
12.035000 0.018500
12.047500 0.000100
12.060100 0.000000
12.072600 0.000000
12.085200 0.000000
12.097800 0.000000
12.110300 0.000000
12.122900 0.000000
12.135400 0.000000
12.148000 0.000000
12.160600 0.000000
12.173100 0.000000
12.185700 0.000000
12.198200 0.000000
12.210800 0.000000
12.223300 0.000000
12.235900 0.000000
12.248500 0.000000
12.261000 0.000000
12.273600 0.000000
12.286100 0.000000
12.298700 0.000000
12.311300 0.000000
12.323800 0.000000
12.336400 0.000000
12.348900 0.000000
12.361500 0.000000
12.374000 0.000000
12.386600 0.000000
12.399200 0.000000
12.411700 0.000000
12.424300 0.000000
12.436800 0.000000
12.449400 0.000000
12.462000 0.000000
12.474500 0.000000
12.487100 0.000000
12.499600 0.000000
12.512200 0.000000
12.524700 0.000000
12.537300 0.000000
12.549900 0.000000
12.562400 0.000000
12.575000 0.000000
12.587500 0.000000
12.600100 0.000000
12.612700 0.000000
12.625200 0.000000
12.637800 0.000000
12.650300 0.000000
12.662900 0.000000
12.675400 0.000000
12.688000 0.000000
12.700600 0.000000
12.713100 0.000000
12.725700 0.000000
12.738200 0.000000
12.750800 0.000000
12.763400 0.000000
12.775900 0.000000
12.788500 0.000000
12.801000 0.000000
12.813600 0.000000
12.826100 0.000000
12.838700 0.000000
12.851300 0.000000
12.863800 0.000000
12.876400 0.000000
12.888900 0.000000
12.901500 0.000000
12.914100 0.000000
12.926600 0.000000
12.939200 0.000000
12.951700 0.000000
12.964300 0.000000
12.976800 0.000000
12.989400 0.000000
13.002000 0.000000
13.014500 0.000000
13.027100 0.000000
13.039600 0.000000
13.052200 0.000000
13.064800 0.000000
13.077300 0.000000
13.089900 0.000000
13.102400 0.000000
13.115000 0.000000
13.127500 0.000000
13.140100 0.000000
13.152700 0.000000
13.165200 0.000000
13.177800 0.000000
13.190300 0.000000
e
