set title 'mp-569964 - Density of States'
set xlabel 'Energy (eV)'
set ylabel 'DOS (states/eV)'
set grid
set xrange [-10:10]
set yrange [0:1038.187]
set xzeroaxis lt -1
set terminal png size 800,600
set output 'mp-569964_dos_gnuplot.png'
plot '-' using 1:2 with lines title 'DOS'
-11.950700 0.000000
-11.938000 0.000000
-11.925300 0.000000
-11.912700 0.000000
-11.900000 0.000000
-11.887300 0.000000
-11.874700 0.000000
-11.862000 0.000000
-11.849300 0.000000
-11.836700 0.000000
-11.824000 0.000000
-11.811400 0.000000
-11.798700 0.000000
-11.786000 0.000000
-11.773400 0.000000
-11.760700 0.000000
-11.748000 0.000000
-11.735400 0.000000
-11.722700 0.000000
-11.710000 0.000000
-11.697400 0.000000
-11.684700 0.000000
-11.672000 0.000000
-11.659400 0.000000
-11.646700 0.000000
-11.634000 0.000000
-11.621400 0.000000
-11.608700 0.000000
-11.596100 0.000000
-11.583400 0.000000
-11.570700 0.000000
-11.558100 0.000000
-11.545400 0.000000
-11.532700 0.000000
-11.520100 0.000000
-11.507400 0.000000
-11.494700 0.000000
-11.482100 0.000000
-11.469400 0.000000
-11.456700 0.000000
-11.444100 0.000000
-11.431400 0.000000
-11.418800 0.000000
-11.406100 0.000000
-11.393400 0.000000
-11.380800 0.000000
-11.368100 0.000000
-11.355400 0.000000
-11.342800 0.000000
-11.330100 0.000000
-11.317400 0.000000
-11.304800 0.000000
-11.292100 0.000000
-11.279400 0.000000
-11.266800 0.000000
-11.254100 0.000000
-11.241400 0.000000
-11.228800 0.000000
-11.216100 0.000000
-11.203500 0.000000
-11.190800 0.000000
-11.178100 0.000000
-11.165500 0.000000
-11.152800 0.000000
-11.140100 0.000000
-11.127500 0.000000
-11.114800 0.000000
-11.102100 0.000000
-11.089500 0.000000
-11.076800 0.000000
-11.064100 0.000000
-11.051500 0.000000
-11.038800 0.000000
-11.026100 0.000000
-11.013500 0.000000
-11.000800 0.000000
-10.988200 0.000000
-10.975500 0.000000
-10.962800 0.000000
-10.950200 0.000000
-10.937500 0.000000
-10.924800 0.000000
-10.912200 0.000000
-10.899500 0.000000
-10.886800 0.000000
-10.874200 0.000000
-10.861500 0.000000
-10.848800 0.000000
-10.836200 0.000000
-10.823500 0.000000
-10.810800 0.000000
-10.798200 0.040200
-10.785500 0.871100
-10.772900 2.210100
-10.760200 4.239400
-10.747500 6.503800
-10.734900 9.568500
-10.722200 13.250300
-10.709500 15.538100
-10.696900 15.716000
-10.684200 15.540600
-10.671500 17.297900
-10.658900 16.134700
-10.646200 15.540200
-10.633500 16.063700
-10.620900 16.587300
-10.608200 17.110800
-10.595500 17.634400
-10.582900 18.157900
-10.570200 18.682600
-10.557600 19.255100
-10.544900 19.863000
-10.532200 20.526600
-10.519600 21.242100
-10.506900 22.034600
-10.494200 22.835900
-10.481600 23.632200
-10.468900 24.423500
-10.456200 25.198200
-10.443600 25.967100
-10.430900 26.735900
-10.418200 27.504700
-10.405600 28.273600
-10.392900 29.042400
-10.380300 29.811300
-10.367600 31.396500
-10.354900 36.206800
-10.342300 47.797800
-10.329600 68.439800
-10.316900 82.866200
-10.304300 107.890700
-10.291600 131.164000
-10.278900 134.268400
-10.266300 149.425000
-10.253600 170.719000
-10.240900 266.481600
-10.228300 287.201000
-10.215600 355.391900
-10.202900 0.000000
-10.190300 0.000000
-10.177600 0.000000
-10.165000 0.000000
-10.152300 0.000000
-10.139600 0.000000
-10.127000 0.000000
-10.114300 0.000000
-10.101600 0.000000
-10.089000 0.000000
-10.076300 0.000000
-10.063600 0.000000
-10.051000 0.000000
-10.038300 0.000000
-10.025600 0.000000
-10.013000 0.000000
-10.000300 0.000000
-9.987600 0.000000
-9.975000 0.000000
-9.962300 0.000000
-9.949700 0.000000
-9.937000 0.000000
-9.924300 0.000000
-9.911700 0.000000
-9.899000 0.000000
-9.886300 0.000000
-9.873700 0.000000
-9.861000 0.000000
-9.848300 0.000000
-9.835700 0.000000
-9.823000 0.000000
-9.810300 0.000000
-9.797700 0.000000
-9.785000 0.000000
-9.772300 0.000000
-9.759700 0.000000
-9.747000 0.000000
-9.734400 0.000000
-9.721700 0.000000
-9.709000 0.000000
-9.696400 0.000000
-9.683700 0.000000
-9.671000 0.000000
-9.658400 0.000000
-9.645700 0.000000
-9.633000 0.000000
-9.620400 0.000000
-9.607700 0.000000
-9.595000 0.000000
-9.582400 0.000000
-9.569700 0.000000
-9.557100 0.000000
-9.544400 0.000000
-9.531700 0.000000
-9.519100 0.000000
-9.506400 0.000000
-9.493700 0.000000
-9.481100 0.000000
-9.468400 0.000000
-9.455700 0.000000
-9.443100 0.000000
-9.430400 0.000000
-9.417700 0.000000
-9.405100 0.000000
-9.392400 0.000000
-9.379700 0.000000
-9.367100 0.000000
-9.354400 0.000000
-9.341800 0.000000
-9.329100 0.000000
-9.316400 0.000000
-9.303800 0.000000
-9.291100 0.000000
-9.278400 0.000000
-9.265800 0.000000
-9.253100 0.000000
-9.240400 0.000000
-9.227800 0.000000
-9.215100 0.000000
-9.202400 0.000000
-9.189800 0.000000
-9.177100 0.000000
-9.164400 0.000000
-9.151800 0.000000
-9.139100 0.000000
-9.126500 0.000000
-9.113800 0.000000
-9.101100 0.000000
-9.088500 0.000000
-9.075800 0.000000
-9.063100 0.000000
-9.050500 0.000000
-9.037800 0.000000
-9.025100 0.000000
-9.012500 0.000000
-8.999800 0.000000
-8.987100 0.000000
-8.974500 0.000000
-8.961800 0.000000
-8.949100 0.000000
-8.936500 0.000000
-8.923800 0.000000
-8.911200 0.000000
-8.898500 0.000000
-8.885800 0.000000
-8.873200 0.000000
-8.860500 0.000000
-8.847800 0.000000
-8.835200 0.000000
-8.822500 0.000000
-8.809800 0.000000
-8.797200 0.000000
-8.784500 0.000000
-8.771800 0.000000
-8.759200 0.000000
-8.746500 0.000000
-8.733800 0.000000
-8.721200 0.000000
-8.708500 0.000000
-8.695900 0.000000
-8.683200 0.000000
-8.670500 0.000000
-8.657900 0.000000
-8.645200 0.000000
-8.632500 0.000000
-8.619900 0.000000
-8.607200 0.000000
-8.594500 0.000000
-8.581900 0.000000
-8.569200 0.000000
-8.556500 0.000000
-8.543900 0.000000
-8.531200 0.000000
-8.518600 0.000000
-8.505900 0.000000
-8.493200 0.000000
-8.480600 0.000000
-8.467900 0.000000
-8.455200 0.000000
-8.442600 0.000000
-8.429900 0.000000
-8.417200 0.000000
-8.404600 0.000000
-8.391900 0.000000
-8.379200 0.000000
-8.366600 0.000000
-8.353900 0.000000
-8.341200 0.000000
-8.328600 0.000000
-8.315900 0.000000
-8.303300 0.000000
-8.290600 0.000000
-8.277900 0.000000
-8.265300 0.000000
-8.252600 0.000000
-8.239900 0.000000
-8.227300 0.000000
-8.214600 0.000000
-8.201900 0.000000
-8.189300 0.000000
-8.176600 0.000000
-8.163900 0.000000
-8.151300 0.000000
-8.138600 0.000000
-8.125900 0.000000
-8.113300 0.000000
-8.100600 0.000000
-8.088000 0.000000
-8.075300 0.000000
-8.062600 0.000000
-8.050000 0.000000
-8.037300 0.000000
-8.024600 0.000000
-8.012000 0.000000
-7.999300 0.000000
-7.986600 0.000000
-7.974000 0.000000
-7.961300 0.000000
-7.948600 0.000000
-7.936000 0.000000
-7.923300 0.000000
-7.910600 0.000000
-7.898000 0.000000
-7.885300 0.000000
-7.872700 0.000000
-7.860000 0.000000
-7.847300 0.000000
-7.834700 0.000000
-7.822000 0.000000
-7.809300 0.000000
-7.796700 0.000000
-7.784000 0.000000
-7.771300 0.000000
-7.758700 0.000000
-7.746000 0.000000
-7.733300 0.000000
-7.720700 0.000000
-7.708000 0.000000
-7.695400 0.000000
-7.682700 0.000000
-7.670000 0.000000
-7.657400 0.000000
-7.644700 0.000000
-7.632000 0.000000
-7.619400 0.000000
-7.606700 0.000000
-7.594000 0.000000
-7.581400 0.000000
-7.568700 0.000000
-7.556000 0.000000
-7.543400 0.000000
-7.530700 0.000000
-7.518000 0.000000
-7.505400 0.000000
-7.492700 0.000000
-7.480100 0.000000
-7.467400 0.000000
-7.454700 0.000000
-7.442100 0.000000
-7.429400 0.000000
-7.416700 0.000000
-7.404100 0.000000
-7.391400 0.000000
-7.378700 0.000000
-7.366100 0.000000
-7.353400 0.000000
-7.340700 0.000000
-7.328100 0.000000
-7.315400 0.000000
-7.302700 0.000000
-7.290100 0.000000
-7.277400 0.000000
-7.264800 0.000000
-7.252100 0.000000
-7.239400 0.000000
-7.226800 0.000000
-7.214100 0.000000
-7.201400 0.000000
-7.188800 0.000000
-7.176100 0.000000
-7.163400 0.000000
-7.150800 0.000000
-7.138100 0.000000
-7.125400 0.000000
-7.112800 0.000000
-7.100100 0.000000
-7.087400 0.000000
-7.074800 0.000000
-7.062100 0.000000
-7.049500 0.000000
-7.036800 0.000000
-7.024100 0.000000
-7.011500 0.000000
-6.998800 0.000000
-6.986100 0.000000
-6.973500 0.000000
-6.960800 0.000000
-6.948100 0.000000
-6.935500 0.000000
-6.922800 0.000000
-6.910100 0.000000
-6.897500 0.000000
-6.884800 0.000000
-6.872100 0.000000
-6.859500 0.000000
-6.846800 0.000000
-6.834200 0.000000
-6.821500 0.000000
-6.808800 0.000000
-6.796200 0.000000
-6.783500 0.000000
-6.770800 0.000000
-6.758200 0.000000
-6.745500 0.000000
-6.732800 0.000000
-6.720200 0.000000
-6.707500 0.000000
-6.694800 0.000000
-6.682200 0.000000
-6.669500 0.000000
-6.656900 0.000000
-6.644200 0.000000
-6.631500 0.000000
-6.618900 0.000000
-6.606200 0.000000
-6.593500 0.000000
-6.580900 0.000000
-6.568200 0.000000
-6.555500 0.000000
-6.542900 0.000000
-6.530200 0.000000
-6.517500 0.000000
-6.504900 27.830300
-6.492200 145.091300
-6.479500 245.979900
-6.466900 371.452900
-6.454200 250.714300
-6.441600 134.756400
-6.428900 124.873000
-6.416200 118.442200
-6.403600 240.373300
-6.390900 410.172000
-6.378200 316.973500
-6.365600 213.709800
-6.352900 109.129900
-6.340200 173.702100
-6.327600 943.806600
-6.314900 470.114300
-6.302200 254.102700
-6.289600 697.057000
-6.276900 80.200000
-6.264200 230.858000
-6.251600 122.994000
-6.238900 105.572000
-6.226300 88.150000
-6.213600 154.157300
-6.200900 0.000000
-6.188300 0.000000
-6.175600 0.000000
-6.162900 0.000000
-6.150300 0.000000
-6.137600 0.000000
-6.124900 0.000000
-6.112300 0.000000
-6.099600 0.000000
-6.086900 0.000000
-6.074300 0.000000
-6.061600 0.000000
-6.048900 0.000000
-6.036300 0.000000
-6.023600 0.000000
-6.011000 0.000000
-5.998300 0.000000
-5.985600 0.000000
-5.973000 0.000000
-5.960300 0.000000
-5.947600 0.000000
-5.935000 0.000000
-5.922300 0.000000
-5.909600 0.000000
-5.897000 0.000000
-5.884300 0.000000
-5.871600 0.000000
-5.859000 0.000000
-5.846300 0.000000
-5.833600 0.000000
-5.821000 0.000000
-5.808300 0.000000
-5.795700 0.000000
-5.783000 0.000000
-5.770300 0.000000
-5.757700 0.000000
-5.745000 0.000000
-5.732300 0.000000
-5.719700 0.000000
-5.707000 0.000000
-5.694300 0.000000
-5.681700 0.000000
-5.669000 0.000000
-5.656300 0.000000
-5.643700 0.000000
-5.631000 0.000000
-5.618400 0.000000
-5.605700 0.000000
-5.593000 0.000000
-5.580400 0.000000
-5.567700 0.000000
-5.555000 0.000000
-5.542400 0.000000
-5.529700 0.000000
-5.517000 0.000000
-5.504400 0.000000
-5.491700 0.000000
-5.479000 0.000000
-5.466400 0.000000
-5.453700 0.000000
-5.441000 0.000000
-5.428400 0.000000
-5.415700 0.000000
-5.403100 0.000000
-5.390400 0.000000
-5.377700 0.000000
-5.365100 0.000000
-5.352400 0.000000
-5.339700 0.000000
-5.327100 0.000000
-5.314400 0.000000
-5.301700 0.000000
-5.289100 0.000000
-5.276400 0.000000
-5.263700 0.000000
-5.251100 0.000000
-5.238400 0.000000
-5.225700 0.000000
-5.213100 0.000000
-5.200400 0.000000
-5.187800 0.000000
-5.175100 0.000000
-5.162400 0.000000
-5.149800 0.000000
-5.137100 0.000000
-5.124400 0.000000
-5.111800 0.000000
-5.099100 0.000000
-5.086400 0.000000
-5.073800 0.000000
-5.061100 0.000000
-5.048400 0.000000
-5.035800 0.000000
-5.023100 0.000000
-5.010400 0.000000
-4.997800 0.000000
-4.985100 0.000000
-4.972500 0.000000
-4.959800 0.000000
-4.947100 0.000000
-4.934500 0.000000
-4.921800 0.000000
-4.909100 0.000000
-4.896500 0.000000
-4.883800 0.000000
-4.871100 0.000000
-4.858500 0.000000
-4.845800 0.000000
-4.833100 0.000000
-4.820500 0.000000
-4.807800 0.000000
-4.795200 0.000000
-4.782500 0.000000
-4.769800 0.000000
-4.757200 0.000000
-4.744500 0.000000
-4.731800 0.000000
-4.719200 0.000000
-4.706500 0.000000
-4.693800 0.000000
-4.681200 0.000000
-4.668500 0.000000
-4.655800 0.000000
-4.643200 0.000000
-4.630500 0.000000
-4.617800 0.000000
-4.605200 0.000000
-4.592500 0.000000
-4.579900 0.000000
-4.567200 0.000000
-4.554500 0.000000
-4.541900 0.000000
-4.529200 0.000000
-4.516500 0.000000
-4.503900 0.000000
-4.491200 0.000000
-4.478500 0.000000
-4.465900 0.000000
-4.453200 0.000000
-4.440500 0.000000
-4.427900 0.000000
-4.415200 0.000000
-4.402500 0.000000
-4.389900 0.000000
-4.377200 0.000000
-4.364600 0.000000
-4.351900 0.000000
-4.339200 0.000000
-4.326600 0.000000
-4.313900 0.000000
-4.301200 0.000000
-4.288600 0.000000
-4.275900 0.000000
-4.263200 0.000000
-4.250600 0.000000
-4.237900 0.000000
-4.225200 0.000000
-4.212600 0.000000
-4.199900 0.000000
-4.187200 0.000000
-4.174600 0.000000
-4.161900 0.000000
-4.149300 0.000000
-4.136600 0.000000
-4.123900 0.000000
-4.111300 0.000000
-4.098600 0.000000
-4.085900 0.000000
-4.073300 0.000000
-4.060600 0.000000
-4.047900 0.000000
-4.035300 0.000000
-4.022600 0.000000
-4.009900 0.000000
-3.997300 0.000000
-3.984600 0.000000
-3.971900 0.000000
-3.959300 0.000000
-3.946600 0.000000
-3.934000 0.000000
-3.921300 0.000000
-3.908600 0.000000
-3.896000 0.000000
-3.883300 0.000000
-3.870600 0.000000
-3.858000 0.000000
-3.845300 0.000000
-3.832600 0.000000
-3.820000 0.000000
-3.807300 0.000000
-3.794600 0.000000
-3.782000 0.000000
-3.769300 0.000000
-3.756700 0.000000
-3.744000 0.000000
-3.731300 0.000000
-3.718700 0.000000
-3.706000 0.000000
-3.693300 0.000000
-3.680700 0.000000
-3.668000 0.000000
-3.655300 0.000000
-3.642700 0.000000
-3.630000 0.000000
-3.617300 0.000000
-3.604700 0.000000
-3.592000 0.000000
-3.579300 0.000000
-3.566700 0.000000
-3.554000 0.000000
-3.541400 0.000000
-3.528700 0.000000
-3.516000 0.000000
-3.503400 0.000000
-3.490700 0.000000
-3.478000 0.000000
-3.465400 0.000000
-3.452700 0.000000
-3.440000 0.000000
-3.427400 0.000000
-3.414700 0.000000
-3.402000 0.000000
-3.389400 0.000000
-3.376700 0.000000
-3.364000 0.000000
-3.351400 0.000000
-3.338700 0.000000
-3.326100 0.000000
-3.313400 0.000000
-3.300700 0.000000
-3.288100 0.000000
-3.275400 0.000000
-3.262700 0.000000
-3.250100 0.000000
-3.237400 0.000000
-3.224700 0.000000
-3.212100 0.000000
-3.199400 0.000000
-3.186700 0.000000
-3.174100 0.000000
-3.161400 0.000000
-3.148700 0.000000
-3.136100 0.000000
-3.123400 0.000000
-3.110800 0.000000
-3.098100 0.000000
-3.085400 0.000000
-3.072800 0.000000
-3.060100 0.000000
-3.047400 0.000000
-3.034800 0.000000
-3.022100 0.000000
-3.009400 0.000000
-2.996800 0.000000
-2.984100 0.000000
-2.971400 0.000000
-2.958800 0.000000
-2.946100 0.000000
-2.933500 0.000000
-2.920800 0.000000
-2.908100 0.000000
-2.895500 0.000000
-2.882800 0.000000
-2.870100 0.000000
-2.857500 0.000000
-2.844800 0.000000
-2.832100 0.000000
-2.819500 0.000000
-2.806800 0.000000
-2.794100 0.000000
-2.781500 0.000000
-2.768800 0.000000
-2.756100 0.000000
-2.743500 0.000000
-2.730800 0.000000
-2.718200 0.000000
-2.705500 0.000000
-2.692800 0.000000
-2.680200 0.000000
-2.667500 0.000000
-2.654800 0.000000
-2.642200 0.000000
-2.629500 0.000000
-2.616800 0.000000
-2.604200 0.000000
-2.591500 0.000000
-2.578800 15.150500
-2.566200 9.232800
-2.553500 16.228000
-2.540800 44.395600
-2.528200 46.002700
-2.515500 53.398400
-2.502900 52.571900
-2.490200 59.160700
-2.477500 54.025300
-2.464900 50.177000
-2.452200 41.489600
-2.439500 40.625600
-2.426900 39.761500
-2.414200 34.116000
-2.401500 31.449000
-2.388900 28.821600
-2.376200 24.899700
-2.363500 23.122100
-2.350900 21.467400
-2.338200 21.374100
-2.325500 21.280700
-2.312900 21.261700
-2.300200 22.155700
-2.287600 23.049700
-2.274900 26.157200
-2.262200 33.280900
-2.249600 39.161000
-2.236900 40.157800
-2.224200 41.474500
-2.211600 32.055400
-2.198900 14.554700
-2.186200 15.218100
-2.173600 15.886000
-2.160900 16.772500
-2.148200 17.636300
-2.135600 39.996500
-2.122900 7.274800
-2.110200 7.130200
-2.097600 6.985500
-2.084900 6.840800
-2.072300 6.696100
-2.059600 6.551500
-2.046900 6.406800
-2.034300 6.262100
-2.021600 10.453600
-2.008900 9.997800
-1.996300 1.735900
-1.983600 1.689200
-1.970900 4.300000
-1.958300 3.110200
-1.945600 1.920400
-1.932900 0.730600
-1.920300 0.000000
-1.907600 0.000000
-1.895000 0.000000
-1.882300 0.000000
-1.869600 0.000000
-1.857000 0.000000
-1.844300 0.000000
-1.831600 0.000000
-1.819000 0.000000
-1.806300 0.000000
-1.793600 0.000000
-1.781000 0.000000
-1.768300 0.000000
-1.755600 0.000000
-1.743000 0.000000
-1.730300 0.000000
-1.717600 0.000000
-1.705000 0.000000
-1.692300 0.000000
-1.679700 6.209000
-1.667000 4.768800
-1.654300 8.131700
-1.641700 5.731400
-1.629000 10.523700
-1.616300 7.188900
-1.603700 10.154900
-1.591000 9.482700
-1.578300 8.810400
-1.565700 15.135000
-1.553000 13.292600
-1.540300 16.350700
-1.527700 15.391100
-1.515000 22.400800
-1.502300 19.347700
-1.489700 22.428400
-1.477000 21.105400
-1.464400 20.215500
-1.451700 20.035400
-1.439000 20.760800
-1.426400 21.486200
-1.413700 22.211600
-1.401000 22.937000
-1.388400 23.662500
-1.375700 28.565100
-1.363000 29.168900
-1.350400 33.979300
-1.337700 18.536200
-1.325000 28.877700
-1.312400 23.497600
-1.299700 17.245400
-1.287000 21.241600
-1.274400 15.056400
-1.261700 15.235900
-1.249100 22.979900
-1.236400 18.442900
-1.223700 13.392700
-1.211100 10.967900
-1.198400 10.955300
-1.185700 13.800600
-1.173100 8.557500
-1.160400 8.999900
-1.147700 8.936500
-1.135100 8.873100
-1.122400 10.015200
-1.109700 10.034000
-1.097100 10.054600
-1.084400 10.717800
-1.071800 10.786200
-1.059100 11.523400
-1.046400 11.620400
-1.033800 12.398600
-1.021100 13.218400
-1.008400 14.038900
-0.995800 14.217900
-0.983100 14.397000
-0.970400 14.576100
-0.957800 14.755200
-0.945100 14.934300
-0.932400 15.113000
-0.919800 15.280400
-0.907100 15.442300
-0.894400 15.604300
-0.881800 15.765200
-0.869100 15.912200
-0.856500 16.059100
-0.843800 16.206100
-0.831100 16.353000
-0.818500 16.499900
-0.805800 16.646900
-0.793100 16.793800
-0.780500 16.940700
-0.767800 17.087700
-0.755100 17.895700
-0.742500 19.102600
-0.729800 20.319600
-0.717100 21.536600
-0.704500 23.804600
-0.691800 26.591000
-0.679100 29.658100
-0.666500 30.470800
-0.653800 30.794300
-0.641200 32.216200
-0.628500 32.604200
-0.615800 34.093200
-0.603200 35.272000
-0.590500 33.696500
-0.577800 36.408000
-0.565200 36.730000
-0.552500 36.695300
-0.539800 37.434600
-0.527200 36.421900
-0.514500 36.486300
-0.501800 36.550800
-0.489200 36.541500
-0.476500 36.453200
-0.463800 36.521500
-0.451200 36.689700
-0.438500 35.771000
-0.425900 35.796100
-0.413200 35.944300
-0.400500 35.998600
-0.387900 35.221400
-0.375200 35.386100
-0.362500 36.077100
-0.349900 37.041100
-0.337200 38.005000
-0.324500 38.969000
-0.311900 39.862500
-0.299200 40.814600
-0.286500 41.105300
-0.273900 41.356700
-0.261200 40.027600
-0.248500 39.179700
-0.235900 37.047800
-0.223200 36.584500
-0.210600 35.388200
-0.197900 32.049500
-0.185200 29.605600
-0.172600 35.719600
-0.159900 28.810500
-0.147200 27.630600
-0.134600 26.694300
-0.121900 25.949800
-0.109200 27.286500
-0.096600 26.228800
-0.083900 25.014100
-0.071200 24.044800
-0.058600 22.805700
-0.045900 21.622000
-0.033300 20.414300
-0.020600 19.680700
-0.007900 19.064800
0.004700 18.467500
0.017400 17.931700
0.030100 17.432600
0.042700 16.974600
0.055400 16.568700
0.068100 16.229900
0.080700 15.988500
0.093400 15.778100
0.106100 16.504600
0.118700 16.524000
0.131400 16.616600
0.144100 16.698900
0.156700 17.661600
0.169400 19.022000
0.182000 19.521300
0.194700 20.020700
0.207400 20.520000
0.220000 21.019300
0.232700 21.518700
0.245400 22.240600
0.258000 23.768500
0.270700 26.243100
0.283400 28.087000
0.296000 28.756500
0.308700 30.199700
0.321400 34.779400
0.334000 36.619900
0.346700 37.511900
0.359400 38.538700
0.372000 39.658400
0.384700 41.210700
0.397300 41.752900
0.410000 43.294000
0.422700 46.196200
0.435300 47.493300
0.448000 57.277900
0.460700 89.347200
0.473300 75.508500
0.486000 72.376900
0.498700 68.721000
0.511300 76.904700
0.524000 69.314200
0.536700 62.386500
0.549300 82.275400
0.562000 51.919900
0.574700 51.238800
0.587300 59.686100
0.600000 55.091600
0.612600 51.260400
0.625300 46.830800
0.638000 49.999700
0.650600 49.777200
0.663300 61.734800
0.676000 93.001500
0.688600 69.188400
0.701300 70.015300
0.714000 68.114500
0.726600 75.191200
0.739300 66.652900
0.752000 59.583300
0.764600 58.118100
0.777300 56.718400
0.789900 51.274700
0.802600 48.331000
0.815300 45.582500
0.827900 41.914400
0.840600 37.439900
0.853300 32.642200
0.865900 29.616800
0.878600 26.641200
0.891300 23.765000
0.903900 27.422800
0.916600 26.443200
0.929300 21.390600
0.941900 18.405600
0.954600 15.878000
0.967300 19.287300
0.979900 0.000000
0.992600 0.000000
1.005200 0.000000
1.017900 0.000000
1.030600 0.000000
1.043200 0.000000
1.055900 0.000000
1.068600 0.000000
1.081200 0.000000
1.093900 0.000000
1.106600 0.000000
1.119200 0.000000
1.131900 0.000000
1.144600 0.000000
1.157200 0.000000
1.169900 0.000000
1.182600 0.000000
1.195200 0.000000
1.207900 0.000000
1.220500 0.000000
1.233200 0.000000
1.245900 0.000000
1.258500 0.000000
1.271200 0.000000
1.283900 0.000000
1.296500 0.000000
1.309200 0.000000
1.321900 0.000000
1.334500 0.000000
1.347200 0.000000
1.359900 0.000000
1.372500 0.000000
1.385200 0.000000
1.397900 0.000000
1.410500 0.000000
1.423200 0.000000
1.435800 0.000000
1.448500 0.000000
1.461200 0.000000
1.473800 0.000000
1.486500 0.000000
1.499200 0.000000
1.511800 0.000000
1.524500 0.000000
1.537200 0.000000
1.549800 0.000000
1.562500 0.000000
1.575200 0.000000
1.587800 0.000000
1.600500 0.000000
1.613200 0.000000
1.625800 0.000000
1.638500 0.000000
1.651100 0.000000
1.663800 0.000000
1.676500 0.000000
1.689100 0.000000
1.701800 0.000000
1.714500 0.000000
1.727100 0.000000
1.739800 0.000000
1.752500 0.000000
1.765100 0.000000
1.777800 0.000000
1.790500 0.000000
1.803100 0.000000
1.815800 0.000000
1.828400 0.000000
1.841100 0.000000
1.853800 0.000000
1.866400 0.000000
1.879100 0.000000
1.891800 0.000000
1.904400 0.000000
1.917100 0.000000
1.929800 0.000000
1.942400 0.000000
1.955100 0.000000
1.967800 0.000000
1.980400 0.000000
1.993100 0.000000
2.005800 0.000000
2.018400 0.000000
2.031100 0.000000
2.043700 0.000000
2.056400 0.000000
2.069100 0.000000
2.081700 0.000000
2.094400 0.000000
2.107100 0.000000
2.119700 0.000000
2.132400 0.000000
2.145100 0.000000
2.157700 0.000000
2.170400 0.000000
2.183100 0.000000
2.195700 0.000000
2.208400 0.000000
2.221100 0.000000
2.233700 0.000000
2.246400 0.000000
2.259000 0.000000
2.271700 0.000000
2.284400 0.000000
2.297000 0.000000
2.309700 0.000000
2.322400 0.000000
2.335000 0.000000
2.347700 0.000000
2.360400 0.000000
2.373000 0.000000
2.385700 0.000000
2.398400 0.000000
2.411000 0.000000
2.423700 0.000000
2.436400 0.000000
2.449000 0.000000
2.461700 0.000000
2.474300 0.000000
2.487000 0.000000
2.499700 0.000000
2.512300 0.000000
2.525000 0.000000
2.537700 0.000000
2.550300 0.000000
2.563000 0.000000
2.575700 0.000000
2.588300 0.000000
2.601000 0.000000
2.613700 0.000000
2.626300 0.000000
2.639000 0.000000
2.651700 0.000000
2.664300 0.000000
2.677000 0.000000
2.689600 0.000000
2.702300 0.000000
2.715000 0.000000
2.727600 0.000000
2.740300 0.000000
2.753000 0.000000
2.765600 0.000000
2.778300 0.000000
2.791000 0.000000
2.803600 0.000000
2.816300 0.000000
2.829000 0.000000
2.841600 0.000000
2.854300 0.000000
2.866900 0.000000
2.879600 0.000000
2.892300 0.000000
2.904900 0.000000
2.917600 0.000000
2.930300 0.000000
2.942900 0.000000
2.955600 0.000000
2.968300 0.000000
2.980900 0.000000
2.993600 0.000000
3.006300 0.000000
3.018900 0.000000
3.031600 0.000000
3.044300 0.000000
3.056900 0.000000
3.069600 0.000000
3.082200 0.000000
3.094900 0.000000
3.107600 0.000000
3.120200 0.000000
3.132900 0.000000
3.145600 0.000000
3.158200 0.000000
3.170900 0.000000
3.183600 0.000000
3.196200 0.000000
3.208900 0.000000
3.221600 0.000000
3.234200 0.000000
3.246900 0.000000
3.259600 0.000000
3.272200 0.000000
3.284900 0.000000
3.297500 0.000000
3.310200 0.000000
3.322900 0.000000
3.335500 0.000000
3.348200 0.000000
3.360900 0.000000
3.373500 0.000000
3.386200 0.000000
3.398900 0.001600
3.411500 0.010800
3.424200 1.671500
3.436900 1.755400
3.449500 1.839300
3.462200 1.923200
3.474900 2.007100
3.487500 3.940300
3.500200 4.097400
3.512800 4.254600
3.525500 4.412200
3.538200 4.592900
3.550800 5.950300
3.563500 6.160200
3.576200 7.632700
3.588800 7.858800
3.601500 8.085000
3.614200 9.676100
3.626800 11.327600
3.639500 11.580600
3.652200 11.833600
3.664800 12.086700
3.677500 12.339700
3.690100 12.592700
3.702800 12.845800
3.715500 13.098800
3.728100 13.566400
3.740800 14.193000
3.753500 14.866000
3.766100 15.833200
3.778800 16.848400
3.791500 17.899800
3.804100 19.018000
3.816800 20.150700
3.829500 21.320100
3.842100 22.489600
3.854800 23.720300
3.867500 25.047800
3.880100 26.425300
3.892800 33.409700
3.905400 25.636300
3.918100 35.047500
3.930800 35.930400
3.943400 27.329000
3.956100 23.739500
3.968800 31.886300
3.981400 33.033300
3.994100 29.419300
4.006800 26.893300
4.019400 26.593100
4.032100 33.006000
4.044800 34.465000
4.057400 33.128300
4.070100 30.637700
4.082800 28.897500
4.095400 27.296800
4.108100 25.028600
4.120700 23.931400
4.133400 22.442700
4.146100 22.798100
4.158700 21.456000
4.171400 19.645600
4.184100 18.628800
4.196700 19.461900
4.209400 17.482400
4.222100 15.503000
4.234700 13.523500
4.247400 11.625900
4.260100 10.517600
4.272700 7.267500
4.285400 9.997900
4.298100 12.906600
4.310700 5.356400
4.323400 6.037500
4.336000 0.000000
4.348700 0.000000
4.361400 0.000000
4.374000 0.000000
4.386700 0.000000
4.399400 0.000000
4.412000 0.000000
4.424700 0.000000
4.437400 0.000000
4.450000 0.000000
4.462700 0.000000
4.475400 0.000000
4.488000 0.000000
4.500700 0.000000
4.513400 0.000000
4.526000 0.000000
4.538700 0.000000
4.551300 0.000000
4.564000 0.000000
4.576700 0.000000
4.589300 0.000000
4.602000 0.000000
4.614700 0.000000
4.627300 0.000000
4.640000 0.000000
4.652700 0.000000
4.665300 0.000000
4.678000 0.000000
4.690700 0.000000
4.703300 0.000000
4.716000 0.000000
4.728600 0.000000
4.741300 0.000000
4.754000 0.000000
4.766600 0.000000
4.779300 0.000000
4.792000 0.000000
4.804600 0.000000
4.817300 0.000000
4.830000 0.000000
4.842600 0.000000
4.855300 0.000000
4.868000 0.000000
4.880600 0.000000
4.893300 0.000000
4.906000 0.000000
4.918600 0.000000
4.931300 0.000000
4.943900 0.000000
4.956600 0.000000
4.969300 0.000000
4.981900 0.000000
4.994600 0.000000
5.007300 0.000000
5.019900 0.000000
5.032600 0.000000
5.045300 0.000000
5.057900 0.000000
5.070600 0.000000
5.083300 0.000000
5.095900 0.000000
5.108600 0.000000
5.121300 0.000000
5.133900 0.000000
5.146600 0.000000
5.159200 0.000000
5.171900 0.000000
5.184600 0.000000
5.197200 0.000000
5.209900 0.000000
5.222600 0.000000
5.235200 0.000000
5.247900 0.000000
5.260600 0.000000
5.273200 0.000000
5.285900 0.000000
5.298600 0.000000
5.311200 0.000000
5.323900 0.000000
5.336600 0.000000
5.349200 0.000000
5.361900 0.000000
5.374500 0.000000
5.387200 0.000000
5.399900 0.000000
5.412500 0.000000
5.425200 0.000000
5.437900 0.000000
5.450500 0.000000
5.463200 0.000000
5.475900 0.000000
5.488500 0.009300
5.501200 0.047700
5.513900 0.118600
5.526500 0.190600
5.539200 0.262600
5.551800 0.334500
5.564500 0.406500
5.577200 0.478500
5.589800 0.550500
5.602500 0.622500
5.615200 0.694500
5.627800 0.766500
5.640500 0.838500
5.653200 0.910500
5.665800 0.982400
5.678500 1.054400
5.691200 1.126400
5.703800 1.198400
5.716500 1.270400
5.729200 1.342400
5.741800 1.414400
5.754500 1.486400
5.767100 1.558400
5.779800 1.630300
5.792500 1.702300
5.805100 1.774300
5.817800 1.846300
5.830500 1.918300
5.843100 1.990300
5.855800 2.062300
5.868500 2.134300
5.881100 2.206300
5.893800 2.278200
5.906500 2.350200
5.919100 2.422200
5.931800 2.494200
5.944500 2.566200
5.957100 2.638200
5.969800 2.710200
5.982400 3.266600
5.995100 4.191000
6.007800 5.980900
6.020400 7.269400
6.033100 8.609500
6.045800 8.778500
6.058400 10.046200
6.071100 10.730700
6.083800 12.184000
6.096400 12.617500
6.109100 13.466100
6.121800 13.939300
6.134400 14.463500
6.147100 14.793200
6.159800 15.392400
6.172400 15.565300
6.185100 15.738200
6.197700 16.423800
6.210400 16.644600
6.223100 17.371100
6.235700 17.636500
6.248400 17.901800
6.261100 18.167100
6.273700 18.432500
6.286400 18.651700
6.299100 18.777100
6.311700 18.902600
6.324400 19.028000
6.337100 19.045000
6.349700 19.044400
6.362400 19.043900
6.375100 19.043300
6.387700 22.340000
6.400400 22.142600
6.413000 21.945300
6.425700 24.722900
6.438400 23.872500
6.451000 23.020300
6.463700 22.093800
6.476400 21.086700
6.489000 20.377900
6.501700 21.406300
6.514400 26.130500
6.527000 20.245400
6.539700 19.692900
6.552400 19.140500
6.565000 18.588100
6.577700 18.035700
6.590300 24.281600
6.603000 16.668100
6.615700 15.622700
6.628300 15.619500
6.641000 15.762000
6.653700 15.904500
6.666300 13.381800
6.679000 13.916000
6.691700 12.070500
6.704300 12.333100
6.717000 14.525500
6.729700 14.807800
6.742300 15.090100
6.755000 17.484400
6.767700 19.846200
6.780300 19.967300
6.793000 19.491700
6.805600 17.740500
6.818300 16.905000
6.831000 16.069500
6.843600 15.234000
6.856300 17.976100
6.869000 15.911400
6.881600 14.839000
6.894300 18.276600
6.907000 14.840200
6.919600 13.962300
6.932300 13.084300
6.945000 12.306000
6.957600 11.737800
6.970300 11.442000
6.983000 11.335400
6.995600 11.228700
7.008300 11.122000
7.020900 15.073600
7.033600 14.599600
7.046300 12.776600
7.058900 17.510400
7.071600 26.003000
7.084300 23.484900
7.096900 20.966700
7.109600 21.862600
7.122300 23.433100
7.134900 27.660800
7.147600 31.135200
7.160300 29.447600
7.172900 27.776000
7.185600 26.167600
7.198300 24.707900
7.210900 24.470100
7.223600 29.165000
7.236200 31.154000
7.248900 19.782600
7.261600 25.901500
7.274200 28.748500
7.286900 30.942100
7.299600 27.894100
7.312200 25.439600
7.324900 20.504400
7.337600 25.706800
7.350200 30.574100
7.362900 27.944500
7.375600 25.314900
7.388200 23.936700
7.400900 34.511100
7.413500 24.960300
7.426200 31.803900
7.438900 26.645100
7.451500 28.086500
7.464200 29.673300
7.476900 30.637200
7.489500 31.708100
7.502200 33.549100
7.514900 33.452500
7.527500 35.036000
7.540200 35.297800
7.552900 36.255800
7.565500 37.595300
7.578200 39.142700
7.590900 39.421200
7.603500 38.673700
7.616200 42.020500
7.628800 46.231500
7.641500 45.035800
7.654200 44.942100
7.666800 35.038100
7.679500 42.221000
7.692200 38.736300
7.704800 32.463600
7.717500 31.008000
7.730200 34.762500
7.742800 51.226500
7.755500 42.972900
7.768200 35.679800
7.780800 34.048300
7.793500 33.467700
7.806200 33.636800
7.818800 34.065000
7.831500 35.873000
7.844100 36.063700
7.856800 34.246700
7.869500 35.446300
7.882100 30.182400
7.894800 27.789000
7.907500 24.231200
7.920100 21.877000
7.932800 20.329900
7.945500 23.981800
7.958100 24.730400
7.970800 24.862800
7.983500 31.182000
7.996100 31.591800
8.008800 38.917000
8.021500 47.721100
8.034100 31.631300
8.046800 30.628900
8.059400 30.211000
8.072100 29.793100
8.084800 31.813500
8.097400 33.329800
8.110100 32.568700
8.122800 31.974800
8.135400 31.533400
8.148100 31.092000
8.160800 30.862700
8.173400 32.822600
8.186100 36.599300
8.198800 38.935400
8.211400 36.555900
8.224100 35.912000
8.236800 32.537300
8.249400 31.587700
8.262100 32.355600
8.274700 33.788700
8.287400 25.793600
8.300100 27.787400
8.312700 25.103000
8.325400 25.882600
8.338100 22.469300
8.350700 19.955000
8.363400 17.440600
8.376100 13.980300
8.388700 12.622300
8.401400 11.507300
8.414100 10.582700
8.426700 10.282200
8.439400 9.447300
8.452000 9.200800
8.464700 8.954200
8.477400 8.707600
8.490000 8.461100
8.502700 8.214500
8.515400 7.968000
8.528000 7.255500
8.540700 7.056400
8.553400 6.995000
8.566000 7.902900
8.578700 7.815100
8.591400 7.727300
8.604000 7.639500
8.616700 7.551700
8.629400 9.254900
8.642000 8.339900
8.654700 7.841700
8.667300 7.354000
8.680000 6.910800
8.692700 6.538200
8.705300 6.263100
8.718000 6.849800
8.730700 8.143700
8.743300 10.378800
8.756000 12.614000
8.768700 14.849200
8.781300 12.855700
8.794000 14.057900
8.806700 11.712300
8.819300 12.793900
8.832000 12.430400
8.844700 12.536400
8.857300 12.642300
8.870000 12.748300
8.882600 12.854300
8.895300 11.588400
8.908000 11.469300
8.920600 9.566800
8.933300 9.373100
8.946000 9.179500
8.958600 8.985900
8.971300 8.812800
8.984000 9.898600
8.996600 10.984400
9.009300 13.802600
9.022000 23.541300
9.034600 19.747100
9.047300 17.052400
9.060000 17.959400
9.072600 15.962400
9.085300 15.677000
9.097900 19.716100
9.110600 20.444000
9.123300 20.508000
9.135900 19.174900
9.148600 21.094400
9.161300 18.860000
9.173900 18.235200
9.186600 19.208400
9.199300 21.057100
9.211900 24.830000
9.224600 49.302300
9.237300 28.939100
9.249900 29.444200
9.262600 31.755300
9.275300 29.230300
9.287900 27.477100
9.300600 22.109700
9.313200 22.678600
9.325900 23.247400
9.338600 23.816200
9.351200 27.501400
9.363900 46.543300
9.376600 34.159300
9.389200 27.552200
9.401900 27.825700
9.414600 28.268400
9.427200 30.522800
9.439900 25.065000
9.452600 29.319100
9.465200 35.417800
9.477900 27.067000
9.490500 27.493200
9.503200 28.328600
9.515900 28.877100
9.528500 29.535800
9.541200 30.456200
9.553900 25.198000
9.566500 24.555700
9.579200 24.372900
9.591900 23.866300
9.604500 36.320000
9.617200 23.327500
9.629900 22.243100
9.642500 22.439400
9.655200 20.473600
9.667900 24.277900
9.680500 26.123500
9.693200 24.000300
9.705800 25.815500
9.718500 30.006600
9.731200 29.683800
9.743800 27.160700
9.756500 24.205600
9.769200 24.028100
9.781800 23.782900
9.794500 23.537600
9.807200 25.561700
9.819800 33.441800
9.832500 41.474700
9.845200 27.049900
9.857800 26.689100
9.870500 26.431200
9.883200 25.315700
9.895800 24.397500
9.908500 26.365700
9.921100 28.565400
9.933800 31.051200
9.946500 34.179100
9.959100 30.568800
9.971800 25.672800
9.984500 27.049400
9.997100 26.933200
10.009800 139.717200
10.022500 28.570300
10.035100 31.777800
10.047800 22.988400
10.060500 19.270000
10.073100 19.380800
10.085800 19.612000
10.098500 20.048300
10.111100 23.475700
10.123800 30.252400
10.136400 24.968700
10.149100 26.991300
10.161800 27.535500
10.174400 24.166800
10.187100 19.621300
10.199800 19.820300
10.212400 16.626100
10.225100 16.472300
10.237800 16.318400
10.250400 16.164500
10.263100 18.023600
10.275800 18.902200
10.288400 18.867000
10.301100 20.529000
10.313700 21.431900
10.326400 17.012200
10.339100 16.801500
10.351700 16.655500
10.364400 16.626700
10.377100 16.597800
10.389700 16.584300
10.402400 16.588900
10.415100 17.485500
10.427700 17.497200
10.440400 17.869100
10.453100 18.385400
10.465700 16.426900
10.478400 16.778600
10.491100 17.284900
10.503700 14.200600
10.516400 14.285500
10.529000 14.370500
10.541700 14.455400
10.554400 14.540400
10.567000 41.121500
10.579700 17.000900
10.592400 14.567600
10.605000 14.503300
10.617700 14.446500
10.630400 14.389700
10.643000 14.332900
10.655700 14.277400
10.668400 14.252800
10.681000 14.236800
10.693700 14.240700
10.706400 14.256600
10.719000 15.486400
10.731700 19.280800
10.744300 13.094500
10.757000 12.989400
10.769700 13.962500
10.782300 13.893600
10.795000 13.972000
10.807700 14.116800
10.820300 14.252800
10.833000 14.393700
10.845700 14.357200
10.858300 14.243800
10.871000 14.130300
10.883700 14.016800
10.896300 17.413300
10.909000 16.531300
10.921700 15.609900
10.934300 14.682400
10.947000 15.089400
10.959600 14.923400
10.972300 17.624900
10.985000 19.217800
10.997600 19.514900
11.010300 20.343800
11.023000 20.599200
11.035600 20.748500
11.048300 22.390200
11.061000 22.324100
11.073600 22.381000
11.086300 22.062000
11.099000 21.743100
11.111600 21.424200
11.124300 21.654600
11.137000 21.362400
11.149600 21.070200
11.162300 20.778000
11.174900 20.260500
11.187600 19.707400
11.200300 19.161400
11.212900 18.616200
11.225600 18.073900
11.238300 17.531600
11.250900 20.796000
11.263600 19.715100
11.276300 18.761000
11.288900 20.924300
11.301600 19.315900
11.314300 17.771700
11.326900 17.311500
11.339600 17.067900
11.352200 16.820800
11.364900 16.593200
11.377600 15.973900
11.390200 15.772600
11.402900 16.470500
11.415600 17.667200
11.428200 18.863900
11.440900 19.695200
11.453600 14.992100
11.466200 14.394100
11.478900 14.176900
11.491600 13.959700
11.504200 16.205000
11.516900 19.964500
11.529600 13.391300
11.542200 13.148000
11.554900 12.904800
11.567500 12.661500
11.580200 12.459000
11.592900 11.953000
11.605500 11.830400
11.618200 11.017600
11.630900 10.898300
11.643500 12.924900
11.656200 14.857200
11.668900 16.789600
11.681500 11.581600
11.694200 10.923400
11.706900 10.848400
11.719500 10.838100
11.732200 9.126900
11.744900 9.064800
11.757500 9.040400
11.770200 9.071400
11.782800 11.109800
11.795500 12.796300
11.808200 14.505100
11.820800 10.471400
11.833500 10.508700
11.846200 10.545900
11.858800 9.392800
11.871500 9.401100
11.884200 7.919600
11.896800 7.922700
11.909500 6.347500
11.922200 6.292700
11.934800 6.238000
11.947500 6.183300
11.960200 6.128600
11.972800 6.073900
11.985500 6.019100
11.998100 5.964400
12.010800 5.909700
12.023500 5.952100
12.036100 6.090300
12.048800 6.228400
12.061500 6.366600
12.074100 4.274000
12.086800 4.581600
12.099500 4.944700
12.112100 5.307800
12.124800 3.335200
12.137500 3.529400
12.150100 3.723700
12.162800 3.918000
12.175400 1.277500
12.188100 1.246600
12.200800 2.867100
12.213400 4.487700
12.226100 6.108300
12.238800 0.000000
12.251400 0.000000
12.264100 0.000000
12.276800 0.000000
12.289400 0.000000
12.302100 0.000000
12.314800 0.000000
12.327400 0.000000
12.340100 0.000000
12.352800 0.000000
12.365400 0.000000
12.378100 0.000000
12.390700 0.000000
12.403400 0.000000
12.416100 0.000000
12.428700 0.000000
12.441400 0.000000
12.454100 0.000000
12.466700 0.000000
12.479400 0.000000
12.492100 0.000000
12.504700 0.000000
12.517400 0.000000
12.530100 0.000000
12.542700 0.000000
12.555400 0.000000
12.568100 0.000000
12.580700 0.000000
12.593400 0.000000
12.606000 0.000000
12.618700 0.000000
12.631400 0.000000
12.644000 0.000000
12.656700 0.000000
12.669400 0.000000
12.682000 0.000000
12.694700 0.000000
12.707400 0.000000
12.720000 0.000000
12.732700 0.000000
12.745400 0.000000
12.758000 0.000000
12.770700 0.000000
12.783400 0.000000
12.796000 0.000000
12.808700 0.000000
12.821300 0.000000
12.834000 0.000000
12.846700 0.000000
12.859300 0.000000
12.872000 0.000000
12.884700 0.000000
12.897300 0.000000
12.910000 0.000000
12.922700 0.000000
12.935300 0.000000
12.948000 0.000000
12.960700 0.000000
12.973300 0.000000
12.986000 0.000000
12.998700 0.000000
13.011300 0.000000
13.024000 0.000000
13.036600 0.000000
13.049300 0.000000
13.062000 0.000000
13.074600 0.000000
13.087300 0.000000
13.100000 0.000000
13.112600 0.000000
13.125300 0.000000
13.138000 0.000000
13.150600 0.000000
13.163300 0.000000
13.176000 0.000000
13.188600 0.000000
13.201300 0.000000
13.213900 0.000000
13.226600 0.000000
13.239300 0.000000
13.251900 0.000000
13.264600 0.000000
13.277300 0.000000
13.289900 0.000000
13.302600 0.000000
13.315300 0.000000
13.327900 0.000000
13.340600 0.000000
13.353300 0.000000
13.365900 0.000000
13.378600 0.000000
e
