set title 'mp-561367 - Density of States'
set xlabel 'Energy (eV)'
set ylabel 'DOS (states/eV)'
set grid
set xrange [-10:10]
set yrange [0:18.549]
set xzeroaxis lt -1
set terminal png size 800,600
set output 'mp-561367_dos_gnuplot.png'
plot '-' using 1:2 with lines title 'DOS'
-33.315800 0.000000
-33.278400 0.000000
-33.241000 0.000000
-33.203600 0.000000
-33.166300 0.000000
-33.128900 0.000000
-33.091500 0.000000
-33.054100 0.000000
-33.016700 0.000000
-32.979400 0.000000
-32.942000 0.000000
-32.904600 0.000000
-32.867200 0.000000
-32.829800 0.000000
-32.792500 0.000000
-32.755100 0.000000
-32.717700 0.000000
-32.680300 0.000000
-32.642900 0.000000
-32.605600 0.000000
-32.568200 0.000000
-32.530800 0.000000
-32.493400 0.000000
-32.456000 0.000000
-32.418700 0.000000
-32.381300 0.000000
-32.343900 0.000000
-32.306500 0.000000
-32.269100 0.000000
-32.231800 0.000000
-32.194400 0.000000
-32.157000 0.000000
-32.119600 0.000000
-32.082200 0.000000
-32.044900 0.000000
-32.007500 0.000000
-31.970100 0.000000
-31.932700 0.000000
-31.895300 0.000000
-31.858000 0.000000
-31.820600 0.000000
-31.783200 0.000000
-31.745800 0.000000
-31.708400 0.000000
-31.671100 0.000000
-31.633700 0.000000
-31.596300 0.000000
-31.558900 0.000000
-31.521500 0.000000
-31.484200 0.000000
-31.446800 0.000000
-31.409400 0.000000
-31.372000 0.000000
-31.334600 0.000000
-31.297300 0.000000
-31.259900 0.000000
-31.222500 0.000000
-31.185100 0.000000
-31.147700 0.000000
-31.110400 0.000000
-31.073000 0.000000
-31.035600 0.000000
-30.998200 0.000000
-30.960800 0.000000
-30.923500 0.000000
-30.886100 0.000000
-30.848700 0.000000
-30.811300 0.000000
-30.773900 0.000000
-30.736600 0.000000
-30.699200 0.000000
-30.661800 0.000000
-30.624400 0.000000
-30.587000 0.000000
-30.549700 0.000000
-30.512300 0.000000
-30.474900 0.000000
-30.437500 0.000000
-30.400100 0.000000
-30.362800 0.000000
-30.325400 0.000000
-30.288000 0.000000
-30.250600 0.000000
-30.213200 0.000000
-30.175900 0.000000
-30.138500 0.000000
-30.101100 0.000000
-30.063700 0.000000
-30.026300 0.000000
-29.989000 0.000000
-29.951600 0.000000
-29.914200 0.181100
-29.876800 6.975500
-29.839400 13.698400
-29.802100 34.997900
-29.764700 58.186400
-29.727300 0.000000
-29.689900 0.000000
-29.652500 0.000000
-29.615200 0.000000
-29.577800 0.000000
-29.540400 0.000000
-29.503000 0.000000
-29.465600 0.000000
-29.428300 0.000000
-29.390900 0.000000
-29.353500 0.000000
-29.316100 0.000000
-29.278700 0.000000
-29.241400 0.000000
-29.204000 0.000000
-29.166600 0.000000
-29.129200 0.000000
-29.091800 0.000000
-29.054500 0.000000
-29.017100 0.000000
-28.979700 0.000000
-28.942300 0.000000
-28.904900 0.000000
-28.867600 0.000000
-28.830200 0.000000
-28.792800 0.000000
-28.755400 0.000000
-28.718000 0.000000
-28.680700 0.000000
-28.643300 0.000000
-28.605900 0.000000
-28.568500 0.000000
-28.531100 0.000000
-28.493800 0.000000
-28.456400 0.000000
-28.419000 0.000000
-28.381600 0.000000
-28.344200 0.000000
-28.306900 0.000000
-28.269500 0.000000
-28.232100 0.000000
-28.194700 0.000000
-28.157300 0.000000
-28.120000 0.000000
-28.082600 0.000000
-28.045200 0.000000
-28.007800 0.000000
-27.970400 0.000000
-27.933100 0.000000
-27.895700 0.000000
-27.858300 0.000000
-27.820900 0.000000
-27.783500 0.000000
-27.746100 0.000000
-27.708800 0.000000
-27.671400 0.000000
-27.634000 0.000000
-27.596600 0.000000
-27.559200 0.000000
-27.521900 0.000000
-27.484500 0.000000
-27.447100 0.000000
-27.409700 0.000000
-27.372300 0.000000
-27.335000 0.000000
-27.297600 0.000000
-27.260200 0.000000
-27.222800 0.000000
-27.185400 0.000000
-27.148100 0.000000
-27.110700 0.000000
-27.073300 0.000000
-27.035900 0.000000
-26.998500 0.000000
-26.961200 0.000000
-26.923800 0.000000
-26.886400 0.000000
-26.849000 0.000000
-26.811600 0.000000
-26.774300 0.000000
-26.736900 0.000000
-26.699500 0.000000
-26.662100 0.000000
-26.624700 0.000000
-26.587400 0.000000
-26.550000 0.000000
-26.512600 0.000000
-26.475200 0.000000
-26.437800 0.000000
-26.400500 0.000000
-26.363100 0.000000
-26.325700 0.000000
-26.288300 0.000000
-26.250900 0.000000
-26.213600 0.000000
-26.176200 0.000000
-26.138800 0.000000
-26.101400 0.000000
-26.064000 0.000000
-26.026700 0.000000
-25.989300 0.000000
-25.951900 0.000000
-25.914500 0.000000
-25.877100 0.000000
-25.839800 0.000000
-25.802400 0.000000
-25.765000 0.000000
-25.727600 0.000000
-25.690200 0.000000
-25.652900 0.000000
-25.615500 0.000000
-25.578100 0.000000
-25.540700 0.000000
-25.503300 0.000000
-25.466000 0.000000
-25.428600 0.000000
-25.391200 0.000000
-25.353800 0.000000
-25.316400 0.000000
-25.279100 0.000000
-25.241700 0.000000
-25.204300 0.000000
-25.166900 0.000000
-25.129500 0.000000
-25.092200 0.000000
-25.054800 0.000000
-25.017400 0.000000
-24.980000 0.000000
-24.942600 0.000000
-24.905300 0.000000
-24.867900 0.000000
-24.830500 0.000000
-24.793100 0.000000
-24.755700 0.000000
-24.718400 0.000000
-24.681000 0.000000
-24.643600 0.000000
-24.606200 0.000000
-24.568800 0.000000
-24.531500 0.000000
-24.494100 0.000000
-24.456700 0.000000
-24.419300 0.000000
-24.381900 0.000000
-24.344600 0.000000
-24.307200 0.000000
-24.269800 0.000000
-24.232400 0.000000
-24.195000 0.000000
-24.157700 0.000000
-24.120300 0.000000
-24.082900 0.000000
-24.045500 0.000000
-24.008100 0.000000
-23.970800 0.000000
-23.933400 1.774800
-23.896000 3.696800
-23.858600 5.661500
-23.821200 10.013500
-23.783900 14.900500
-23.746500 21.255600
-23.709100 25.682000
-23.671700 20.260400
-23.634300 4.959400
-23.597000 0.000000
-23.559600 0.000000
-23.522200 0.000000
-23.484800 0.000000
-23.447400 0.000000
-23.410100 0.000000
-23.372700 0.000000
-23.335300 0.000000
-23.297900 0.000000
-23.260500 0.000000
-23.223200 0.000000
-23.185800 0.000000
-23.148400 0.000000
-23.111000 0.000000
-23.073600 0.000000
-23.036300 0.000000
-22.998900 0.000000
-22.961500 0.000000
-22.924100 0.000000
-22.886700 0.000000
-22.849400 0.000000
-22.812000 0.000000
-22.774600 0.000000
-22.737200 0.000000
-22.699800 0.000000
-22.662500 0.000000
-22.625100 0.000000
-22.587700 0.000000
-22.550300 0.000000
-22.512900 0.000000
-22.475600 0.000000
-22.438200 0.000000
-22.400800 0.000000
-22.363400 0.000000
-22.326000 0.000000
-22.288700 0.000000
-22.251300 0.000000
-22.213900 0.000000
-22.176500 0.000000
-22.139100 0.000000
-22.101800 0.000000
-22.064400 0.000000
-22.027000 0.000000
-21.989600 0.000000
-21.952200 0.000000
-21.914900 0.000000
-21.877500 0.000000
-21.840100 0.000000
-21.802700 0.000000
-21.765300 0.000000
-21.727900 0.000000
-21.690600 0.000000
-21.653200 0.000000
-21.615800 0.000000
-21.578400 0.000000
-21.541000 0.000000
-21.503700 0.000000
-21.466300 0.000000
-21.428900 0.000000
-21.391500 0.000000
-21.354100 0.000000
-21.316800 0.000000
-21.279400 0.000000
-21.242000 0.000000
-21.204600 0.000000
-21.167200 0.000000
-21.129900 0.000000
-21.092500 0.000000
-21.055100 0.000000
-21.017700 0.000000
-20.980300 0.000000
-20.943000 0.000000
-20.905600 0.000000
-20.868200 0.000000
-20.830800 0.000000
-20.793400 0.000000
-20.756100 0.000000
-20.718700 0.000000
-20.681300 0.000000
-20.643900 0.000000
-20.606500 0.000000
-20.569200 0.000000
-20.531800 0.000000
-20.494400 0.000000
-20.457000 0.000000
-20.419600 0.000000
-20.382300 0.000000
-20.344900 0.000000
-20.307500 0.000000
-20.270100 0.000000
-20.232700 0.000000
-20.195400 0.000000
-20.158000 0.000000
-20.120600 0.000000
-20.083200 0.000000
-20.045800 0.000000
-20.008500 0.000000
-19.971100 0.000000
-19.933700 0.000000
-19.896300 0.000000
-19.858900 0.000000
-19.821600 0.000000
-19.784200 0.000000
-19.746800 0.000000
-19.709400 0.000000
-19.672000 0.000000
-19.634700 0.000000
-19.597300 0.000000
-19.559900 0.000000
-19.522500 0.000000
-19.485100 0.000000
-19.447800 0.000000
-19.410400 0.000000
-19.373000 0.000000
-19.335600 0.000000
-19.298200 0.000000
-19.260900 0.000000
-19.223500 0.000000
-19.186100 0.000000
-19.148700 0.000000
-19.111300 0.000000
-19.074000 0.000000
-19.036600 0.000000
-18.999200 0.000000
-18.961800 0.000000
-18.924400 0.000000
-18.887100 0.000000
-18.849700 0.000000
-18.812300 0.000000
-18.774900 0.000000
-18.737500 0.000000
-18.700200 0.000000
-18.662800 0.000000
-18.625400 0.000000
-18.588000 0.000000
-18.550600 0.000000
-18.513300 0.000000
-18.475900 0.000000
-18.438500 0.000000
-18.401100 0.000000
-18.363700 0.000000
-18.326400 0.000000
-18.289000 0.000000
-18.251600 0.000000
-18.214200 0.000000
-18.176800 0.000000
-18.139500 0.000000
-18.102100 0.000000
-18.064700 0.000000
-18.027300 0.000000
-17.989900 0.000000
-17.952600 0.000000
-17.915200 0.000000
-17.877800 0.000000
-17.840400 0.000000
-17.803000 0.000000
-17.765700 0.000000
-17.728300 0.000000
-17.690900 0.000000
-17.653500 0.000000
-17.616100 0.000000
-17.578800 0.000000
-17.541400 0.000000
-17.504000 0.000000
-17.466600 0.000000
-17.429200 0.000000
-17.391900 0.000000
-17.354500 0.000000
-17.317100 0.000000
-17.279700 0.000000
-17.242300 0.000000
-17.205000 0.000000
-17.167600 0.000000
-17.130200 0.000000
-17.092800 0.000000
-17.055400 0.000000
-17.018100 0.000000
-16.980700 0.000000
-16.943300 0.000000
-16.905900 0.000000
-16.868500 0.000000
-16.831200 0.000000
-16.793800 0.000000
-16.756400 0.000000
-16.719000 0.000000
-16.681600 0.000000
-16.644300 0.000000
-16.606900 0.000000
-16.569500 0.000000
-16.532100 0.000000
-16.494700 0.000000
-16.457400 0.000000
-16.420000 0.000000
-16.382600 0.000000
-16.345200 0.000000
-16.307800 0.000000
-16.270500 0.000000
-16.233100 0.000000
-16.195700 0.000000
-16.158300 0.000000
-16.120900 0.000000
-16.083600 0.000000
-16.046200 0.000000
-16.008800 0.000000
-15.971400 0.000000
-15.934000 0.000000
-15.896700 0.000000
-15.859300 0.000000
-15.821900 0.000000
-15.784500 0.000000
-15.747100 0.000000
-15.709700 0.000000
-15.672400 0.000000
-15.635000 0.000000
-15.597600 0.000000
-15.560200 0.000000
-15.522800 0.000000
-15.485500 0.000000
-15.448100 0.000000
-15.410700 0.000000
-15.373300 0.000000
-15.335900 0.000000
-15.298600 0.000000
-15.261200 0.000000
-15.223800 0.000000
-15.186400 0.000000
-15.149000 0.000000
-15.111700 0.000000
-15.074300 0.000000
-15.036900 0.000000
-14.999500 0.000000
-14.962100 0.000000
-14.924800 0.000000
-14.887400 0.000000
-14.850000 0.000000
-14.812600 0.000000
-14.775200 0.000000
-14.737900 0.000000
-14.700500 0.000000
-14.663100 0.000000
-14.625700 0.000000
-14.588300 0.000000
-14.551000 0.000000
-14.513600 0.000000
-14.476200 0.000000
-14.438800 0.000000
-14.401400 0.000000
-14.364100 0.000000
-14.326700 0.000000
-14.289300 0.000000
-14.251900 0.000000
-14.214500 0.000000
-14.177200 0.000000
-14.139800 0.000000
-14.102400 0.000000
-14.065000 0.000000
-14.027600 0.000000
-13.990300 0.000000
-13.952900 0.000000
-13.915500 0.000000
-13.878100 0.000000
-13.840700 0.000000
-13.803400 0.000000
-13.766000 0.000000
-13.728600 0.000000
-13.691200 0.000000
-13.653800 0.000000
-13.616500 0.000000
-13.579100 0.000000
-13.541700 0.000000
-13.504300 0.000000
-13.466900 0.000000
-13.429600 0.000000
-13.392200 0.000000
-13.354800 0.000000
-13.317400 0.000000
-13.280000 0.000000
-13.242700 0.000000
-13.205300 0.000000
-13.167900 0.000000
-13.130500 0.000000
-13.093100 0.000000
-13.055800 0.000000
-13.018400 0.000000
-12.981000 0.000000
-12.943600 0.000000
-12.906200 0.000000
-12.868900 0.000000
-12.831500 0.000000
-12.794100 0.000000
-12.756700 0.000000
-12.719300 0.000000
-12.682000 0.000000
-12.644600 0.000000
-12.607200 0.000000
-12.569800 0.000000
-12.532400 0.000000
-12.495100 0.000000
-12.457700 0.000000
-12.420300 0.000000
-12.382900 0.000000
-12.345500 0.000000
-12.308200 0.000000
-12.270800 0.000000
-12.233400 0.000000
-12.196000 0.000000
-12.158600 0.000000
-12.121300 0.000000
-12.083900 0.000000
-12.046500 0.000000
-12.009100 0.000000
-11.971700 0.000000
-11.934400 0.000000
-11.897000 0.000000
-11.859600 0.000000
-11.822200 0.000000
-11.784800 0.000000
-11.747500 0.512900
-11.710100 1.162800
-11.672700 1.833800
-11.635300 2.224800
-11.597900 2.677800
-11.560600 3.326600
-11.523200 4.069000
-11.485800 5.480500
-11.448400 7.379800
-11.411000 9.380900
-11.373700 9.034700
-11.336300 5.798900
-11.298900 0.774400
-11.261500 9.273400
-11.224100 12.500400
-11.186800 8.343400
-11.149400 6.318700
-11.112000 5.188000
-11.074600 3.886300
-11.037200 2.976100
-10.999900 2.165100
-10.962500 0.959900
-10.925100 0.050200
-10.887700 0.000000
-10.850300 0.000000
-10.813000 0.000000
-10.775600 0.000000
-10.738200 0.000000
-10.700800 0.000000
-10.663400 0.000000
-10.626100 0.000000
-10.588700 0.000000
-10.551300 0.000000
-10.513900 0.000000
-10.476500 0.000000
-10.439200 0.000000
-10.401800 0.000000
-10.364400 0.000000
-10.327000 0.000000
-10.289600 0.000000
-10.252300 0.000000
-10.214900 0.000000
-10.177500 0.000000
-10.140100 0.000000
-10.102700 0.000000
-10.065400 0.000000
-10.028000 0.000000
-9.990600 0.000000
-9.953200 0.000000
-9.915800 0.000000
-9.878500 0.000000
-9.841100 0.000000
-9.803700 0.000000
-9.766300 0.000000
-9.728900 0.000000
-9.691600 0.000000
-9.654200 0.000000
-9.616800 0.000000
-9.579400 0.000000
-9.542000 0.000000
-9.504600 0.000000
-9.467300 0.000000
-9.429900 0.000000
-9.392500 0.000000
-9.355100 0.000000
-9.317700 0.000000
-9.280400 0.000000
-9.243000 0.987300
-9.205600 2.417200
-9.168200 3.740400
-9.130800 5.434400
-9.093500 8.609500
-9.056100 11.970400
-9.018700 12.773800
-8.981300 14.664800
-8.943900 6.139400
-8.906600 5.180000
-8.869200 4.406800
-8.831800 4.496000
-8.794400 5.810200
-8.757000 6.482200
-8.719700 7.245900
-8.682300 8.614300
-8.644900 9.570200
-8.607500 11.318700
-8.570100 12.603500
-8.532800 12.313700
-8.495400 13.448000
-8.458000 12.885100
-8.420600 12.582000
-8.383200 10.528800
-8.345900 7.010300
-8.308500 4.187200
-8.271100 0.000000
-8.233700 0.000000
-8.196300 0.000000
-8.159000 0.000000
-8.121600 0.000000
-8.084200 0.000000
-8.046800 0.000000
-8.009400 0.000000
-7.972100 0.000000
-7.934700 0.000000
-7.897300 0.000000
-7.859900 0.000000
-7.822500 0.000000
-7.785200 0.000000
-7.747800 0.000000
-7.710400 0.000000
-7.673000 0.000000
-7.635600 0.000000
-7.598300 0.000000
-7.560900 0.000000
-7.523500 0.000000
-7.486100 0.000000
-7.448700 0.000000
-7.411400 0.000000
-7.374000 0.000000
-7.336600 0.000000
-7.299200 0.000000
-7.261800 0.000000
-7.224500 0.000000
-7.187100 0.000000
-7.149700 0.000000
-7.112300 0.000000
-7.074900 0.000000
-7.037600 0.000000
-7.000200 0.000000
-6.962800 0.000000
-6.925400 0.000000
-6.888000 0.000000
-6.850700 0.000000
-6.813300 0.000000
-6.775900 0.000000
-6.738500 0.000000
-6.701100 0.000000
-6.663800 0.000000
-6.626400 0.000000
-6.589000 0.000000
-6.551600 0.000000
-6.514200 0.000000
-6.476900 0.000000
-6.439500 0.000000
-6.402100 0.000000
-6.364700 0.000000
-6.327300 0.000000
-6.290000 0.000000
-6.252600 0.000000
-6.215200 0.000000
-6.177800 0.000000
-6.140400 0.000000
-6.103100 0.000000
-6.065700 0.000000
-6.028300 0.000000
-5.990900 0.000000
-5.953500 0.000000
-5.916200 0.000000
-5.878800 0.000000
-5.841400 1.014700
-5.804000 4.982400
-5.766600 12.397000
-5.729300 8.643700
-5.691900 7.293200
-5.654500 12.713300
-5.617100 13.449800
-5.579700 12.297300
-5.542400 7.861500
-5.505000 15.302800
-5.467600 16.862600
-5.430200 14.505300
-5.392800 15.799800
-5.355500 14.416900
-5.318100 14.041900
-5.280700 13.945600
-5.243300 12.875000
-5.205900 13.364400
-5.168600 2.728100
-5.131200 0.000000
-5.093800 0.000000
-5.056400 0.000000
-5.019000 0.000000
-4.981700 0.000000
-4.944300 0.000000
-4.906900 0.000000
-4.869500 0.000000
-4.832100 0.000000
-4.794800 0.000000
-4.757400 0.000000
-4.720000 0.000000
-4.682600 0.000000
-4.645200 0.000000
-4.607900 0.000000
-4.570500 0.000000
-4.533100 0.000000
-4.495700 0.000000
-4.458300 0.000000
-4.421000 0.000000
-4.383600 0.000000
-4.346200 0.000000
-4.308800 0.000000
-4.271400 0.000000
-4.234100 0.000000
-4.196700 0.000000
-4.159300 0.000000
-4.121900 0.000000
-4.084500 0.000000
-4.047200 0.000000
-4.009800 0.000000
-3.972400 0.000000
-3.935000 0.000000
-3.897600 0.000000
-3.860300 0.000000
-3.822900 0.000000
-3.785500 0.000000
-3.748100 0.000000
-3.710700 0.000000
-3.673400 0.000000
-3.636000 0.000000
-3.598600 0.000000
-3.561200 0.000000
-3.523800 0.000000
-3.486400 0.000000
-3.449100 0.000000
-3.411700 0.000000
-3.374300 0.000000
-3.336900 0.000000
-3.299500 0.000000
-3.262200 0.000000
-3.224800 0.000000
-3.187400 0.000000
-3.150000 0.000000
-3.112600 0.000000
-3.075300 0.000000
-3.037900 0.000000
-3.000500 0.000000
-2.963100 0.000000
-2.925700 0.000000
-2.888400 0.000000
-2.851000 0.000000
-2.813600 0.000000
-2.776200 0.000000
-2.738800 0.000000
-2.701500 0.000000
-2.664100 0.012800
-2.626700 0.192900
-2.589300 0.450500
-2.551900 0.699200
-2.514600 0.940600
-2.477200 1.146100
-2.439800 1.395200
-2.402400 1.645500
-2.365000 1.916900
-2.327700 2.387000
-2.290300 2.938200
-2.252900 3.707300
-2.215500 4.983500
-2.178100 6.167900
-2.140800 7.510500
-2.103400 6.755400
-2.066000 7.476700
-2.028600 4.860300
-1.991200 1.182900
-1.953900 8.146700
-1.916500 13.842300
-1.879100 7.617500
-1.841700 6.029000
-1.804300 5.083800
-1.767000 3.892100
-1.729600 3.110200
-1.692200 2.491000
-1.654800 1.487700
-1.617400 0.616800
-1.580100 0.003800
-1.542700 0.000000
-1.505300 0.000000
-1.467900 0.000000
-1.430500 0.000000
-1.393200 0.000000
-1.355800 0.000000
-1.318400 0.000000
-1.281000 0.000000
-1.243600 0.000000
-1.206300 0.000000
-1.168900 0.000000
-1.131500 0.000000
-1.094100 0.000000
-1.056700 0.000000
-1.019400 0.000000
-0.982000 0.000000
-0.944600 0.000000
-0.907200 0.000000
-0.869800 0.000000
-0.832500 0.000000
-0.795100 0.000000
-0.757700 0.000000
-0.720300 0.000000
-0.682900 0.000000
-0.645600 0.000000
-0.608200 0.000000
-0.570800 0.000000
-0.533400 0.000000
-0.496000 0.000000
-0.458700 0.000000
-0.421300 0.000000
-0.383900 0.000000
-0.346500 0.000000
-0.309100 0.000000
-0.271800 0.000000
-0.234400 0.000000
-0.197000 0.000000
-0.159600 0.000000
-0.122200 0.000000
-0.084900 0.000000
-0.047500 0.000000
-0.010100 0.000000
0.027300 0.000000
0.064700 0.000000
0.102000 0.000000
0.139400 0.000000
0.176800 0.000000
0.214200 0.000000
0.251600 0.000000
0.288900 0.000000
0.326300 0.000000
0.363700 0.000000
0.401100 0.000000
0.438500 0.000000
0.475800 0.000000
0.513200 0.000000
0.550600 0.000000
0.588000 0.000000
0.625400 0.000000
0.662700 0.000000
0.700100 0.000000
0.737500 0.000000
0.774900 0.000000
0.812300 0.000000
0.849600 0.000000
0.887000 0.000000
0.924400 0.000000
0.961800 0.000000
0.999200 0.000000
1.036500 0.000000
1.073900 0.000000
1.111300 0.000000
1.148700 0.000000
1.186100 0.000000
1.223400 0.000000
1.260800 0.000000
1.298200 0.000000
1.335600 0.000000
1.373000 0.000000
1.410300 0.000000
1.447700 0.000000
1.485100 0.000000
1.522500 0.000000
1.559900 0.000000
1.597200 0.000000
1.634600 0.000000
1.672000 0.000000
1.709400 0.000000
1.746800 0.000000
1.784100 0.000000
1.821500 0.000000
1.858900 0.000000
1.896300 0.000000
1.933700 0.000000
1.971000 0.000000
2.008400 0.000000
2.045800 0.000000
2.083200 0.000000
2.120600 0.000000
2.157900 0.000000
2.195300 0.000000
2.232700 0.000000
2.270100 0.000000
2.307500 0.000000
2.344800 0.000000
2.382200 0.000000
2.419600 0.000000
2.457000 0.000000
2.494400 0.000000
2.531800 0.000000
2.569100 0.000000
2.606500 0.000000
2.643900 0.000000
2.681300 0.000000
2.718700 0.000000
2.756000 0.000000
2.793400 0.000000
2.830800 0.000000
2.868200 0.000000
2.905600 0.000000
2.942900 0.000000
2.980300 0.000000
3.017700 0.000000
3.055100 0.000000
3.092500 0.000000
3.129800 0.000000
3.167200 0.000000
3.204600 0.000000
3.242000 0.000000
3.279400 0.000000
3.316700 0.000000
3.354100 0.000000
3.391500 0.000000
3.428900 0.000000
3.466300 0.000000
3.503600 0.000000
3.541000 0.000000
3.578400 0.000000
3.615800 0.000000
3.653200 0.000000
3.690500 0.000000
3.727900 0.000000
3.765300 0.000000
3.802700 0.000000
3.840100 0.000000
3.877400 0.000000
3.914800 0.000000
3.952200 0.000000
3.989600 0.000000
4.027000 0.002600
4.064300 0.010400
4.101700 0.023400
4.139100 0.041500
4.176500 0.064900
4.213900 0.093300
4.251200 0.122800
4.288600 0.151400
4.326000 0.173000
4.363400 0.179600
4.400800 0.184900
4.438100 0.189100
4.475500 0.196100
4.512900 0.205600
4.550300 0.215800
4.587700 0.227000
4.625000 0.241000
4.662400 0.257500
4.699800 0.275100
4.737200 0.293600
4.774600 0.312700
4.811900 0.326700
4.849300 0.334000
4.886700 0.334800
4.924100 0.329500
4.961500 0.328000
4.998800 0.334300
5.036200 0.345300
5.073600 0.356800
5.111000 0.368800
5.148400 0.381400
5.185700 0.393000
5.223100 0.403700
5.260500 0.413700
5.297900 0.423900
5.335300 0.433900
5.372600 0.443300
5.410000 0.452200
5.447400 0.460800
5.484800 0.469400
5.522200 0.478100
5.559500 0.487100
5.596900 0.496600
5.634300 0.506700
5.671700 0.518700
5.709100 0.531400
5.746400 0.544900
5.783800 0.558700
5.821200 0.572800
5.858600 0.587000
5.896000 0.601500
5.933300 0.616300
5.970700 0.632200
6.008100 0.649200
6.045500 0.665400
6.082900 0.679100
6.120200 0.690100
6.157600 0.698200
6.195000 0.703200
6.232400 0.705100
6.269800 0.704000
6.307100 0.700400
6.344500 0.702600
6.381900 0.707600
6.419300 0.711400
6.456700 0.715900
6.494000 0.721100
6.531400 0.726300
6.568800 0.731500
6.606200 0.736800
6.643600 0.741900
6.680900 0.746800
6.718300 0.751400
6.755700 0.755600
6.793100 0.759500
6.830500 0.763000
6.867800 0.766300
6.905200 0.769400
6.942600 0.772700
6.980000 0.776300
7.017400 0.779800
7.054700 0.784500
7.092100 0.789900
7.129500 0.795700
7.166900 0.801800
7.204300 0.808200
7.241600 0.815000
7.279000 0.822000
7.316400 0.829200
7.353800 0.836400
7.391200 0.845600
7.428500 0.858100
7.465900 0.873800
7.503300 0.892800
7.540700 0.915100
7.578100 0.939000
7.615400 0.958800
7.652800 0.977100
7.690200 0.995900
7.727600 1.014900
7.765000 1.033900
7.802300 1.052400
7.839700 1.071000
7.877100 1.098400
7.914500 1.133100
7.951900 1.167200
7.989200 1.202800
8.026600 1.243700
8.064000 1.283100
8.101400 1.311100
8.138800 1.334500
8.176100 1.357600
8.213500 1.375500
8.250900 1.384100
8.288300 1.387300
8.325700 1.393100
8.363000 1.402800
8.400400 1.416600
8.437800 1.437700
8.475200 1.535500
8.512600 1.623000
8.549900 1.661700
8.587300 1.679100
8.624700 1.676400
8.662100 1.687300
8.699500 1.700300
8.736900 1.679500
8.774200 1.606700
8.811600 1.609100
8.849000 1.618500
8.886400 1.656300
8.923800 1.696800
8.961100 1.727800
8.998500 1.761100
9.035900 1.789300
9.073300 1.801100
9.110700 1.760000
9.148000 1.661000
9.185400 1.521600
9.222800 1.426600
9.260200 1.426800
9.297600 1.456900
9.334900 1.337500
9.372300 1.335500
9.409700 1.155900
9.447100 1.000800
9.484500 0.865100
9.521800 0.753800
9.559200 0.682800
9.596600 0.694700
9.634000 0.780400
9.671400 0.879800
9.708700 1.010100
9.746100 1.139700
9.783500 1.278300
9.820900 1.431000
9.858300 1.406900
9.895600 1.367100
9.933000 1.343200
9.970400 1.334300
10.007800 1.340700
10.045200 1.361500
10.082500 1.401300
10.119900 1.467400
10.157300 1.638600
10.194700 1.806600
10.232100 2.087400
10.269400 2.192700
10.306800 2.226400
10.344200 2.140700
10.381600 1.948800
10.419000 1.714200
10.456300 1.411700
10.493700 1.152100
10.531100 1.240400
10.568500 1.463400
10.605900 1.691100
10.643200 1.750800
10.680600 1.744900
10.718000 1.802200
10.755400 1.907300
10.792800 1.881000
10.830100 1.836900
10.867500 1.792500
10.904900 1.753200
10.942300 1.729100
10.979700 1.726000
11.017000 1.601600
11.054400 1.485500
11.091800 1.437500
11.129200 1.433400
11.166600 1.463400
11.203900 1.544400
11.241300 1.781300
11.278700 1.919700
11.316100 2.029400
11.353500 2.127400
11.390800 2.248500
11.428200 2.327100
11.465600 2.365800
11.503000 2.454200
11.540400 2.477600
11.577700 2.477400
11.615100 2.465400
11.652500 2.489300
11.689900 2.449900
11.727300 2.413300
11.764600 2.274600
11.802000 2.087600
11.839400 1.906100
11.876800 1.743300
11.914200 1.606300
11.951500 1.479100
11.988900 1.380700
12.026300 1.355800
12.063700 1.271700
12.101100 1.239500
12.138400 1.306600
12.175800 1.441500
12.213200 1.461100
12.250600 1.525500
12.288000 1.564500
12.325300 1.601800
12.362700 1.648400
12.400100 1.695100
12.437500 1.707500
12.474900 1.682200
12.512200 1.643000
12.549600 1.624800
12.587000 1.616100
12.624400 1.614800
12.661800 1.605300
12.699100 1.585700
12.736500 1.559300
12.773900 1.526900
12.811300 1.488700
12.848700 1.445400
12.886000 1.405000
12.923400 1.369800
12.960800 1.340000
12.998200 1.315600
13.035600 1.297200
13.072900 1.285400
13.110300 1.276900
13.147700 1.278900
13.185100 1.288500
13.222500 1.299300
13.259800 1.311700
13.297200 1.290100
13.334600 1.234300
13.372000 1.158800
13.409400 1.092900
13.446700 1.048200
13.484100 1.012300
13.521500 0.984300
13.558900 0.965500
13.596300 0.955000
13.633600 0.972000
13.671000 0.980700
13.708400 0.957100
13.745800 0.941500
13.783200 0.927200
13.820500 0.898200
13.857900 0.901900
13.895300 0.948000
13.932700 0.999700
13.970100 1.557500
14.007400 1.874400
14.044800 2.000300
14.082200 2.074700
14.119600 2.143000
14.157000 1.799500
14.194300 1.749700
14.231700 1.682000
14.269100 1.603700
14.306500 1.544500
14.343900 1.512400
14.381200 1.493100
14.418600 1.476300
14.456000 1.472500
14.493400 1.498700
14.530800 1.576100
14.568100 1.671600
14.605500 1.727400
14.642900 1.747400
14.680300 1.770600
14.717700 1.807400
14.755100 1.868300
14.792400 1.914400
14.829800 1.958300
14.867200 2.012300
14.904600 2.034200
14.942000 1.973700
14.979300 1.865600
15.016700 1.728900
15.054100 1.643300
15.091500 1.591000
15.128900 1.552400
15.166200 1.513900
15.203600 1.497700
15.241000 1.481600
15.278400 1.465900
15.315800 1.455600
15.353100 1.452700
15.390500 1.452900
15.427900 1.448600
15.465300 1.433000
15.502700 1.414100
15.540000 1.391300
15.577400 1.369700
15.614800 1.350700
15.652200 1.338500
15.689600 1.335900
15.726900 1.343200
15.764300 1.362300
15.801700 1.391200
15.839100 1.427400
15.876500 1.459000
15.913800 1.612200
15.951200 1.658600
15.988600 1.666900
16.026000 1.731500
16.063400 1.828600
16.100700 1.927500
16.138100 1.937100
16.175500 1.937300
16.212900 1.958700
16.250300 2.001100
16.287600 2.165300
16.325000 2.315800
16.362400 2.401600
16.399800 2.430800
16.437200 2.428100
16.474500 2.418500
16.511900 2.420100
16.549300 2.423200
16.586700 2.427500
16.624100 2.401000
16.661400 2.398600
16.698800 2.417900
16.736200 2.428400
16.773600 2.421300
16.811000 2.398300
16.848300 2.375300
16.885700 2.368600
16.923100 2.372500
16.960500 2.378100
16.997900 2.373800
17.035200 2.359300
17.072600 2.338900
17.110000 2.345200
17.147400 2.346900
17.184800 2.330400
17.222100 2.301500
17.259500 2.265800
17.296900 2.226500
17.334300 2.181500
17.371700 2.135800
17.409000 2.109700
17.446400 2.084300
17.483800 2.054900
17.521200 2.025000
17.558600 1.991200
17.595900 1.944600
17.633300 1.889200
17.670700 1.841800
17.708100 1.814500
17.745500 1.802300
17.782800 1.775200
17.820200 1.780100
17.857600 1.835000
17.895000 1.840900
17.932400 1.771300
17.969700 1.687800
18.007100 1.677200
18.044500 1.720600
18.081900 1.773100
18.119300 1.829700
18.156600 1.871400
18.194000 1.944000
18.231400 1.992600
18.268800 2.026400
18.306200 2.082700
18.343500 2.121900
18.380900 2.191400
18.418300 2.340700
18.455700 2.460900
18.493100 2.371300
18.530400 2.391000
18.567800 2.425300
18.605200 2.428700
18.642600 2.455300
18.680000 2.397800
18.717300 2.415400
18.754700 2.439100
18.792100 2.490500
18.829500 2.594100
18.866900 2.657500
18.904200 2.741300
18.941600 2.841100
18.979000 2.858000
19.016400 2.767200
19.053800 2.584100
19.091100 2.408800
19.128500 2.238700
19.165900 2.116300
19.203300 2.035900
19.240700 1.964000
19.278000 1.887900
19.315400 1.788300
19.352800 1.691000
19.390200 1.610300
19.427600 1.518600
19.464900 1.467800
19.502300 1.471300
19.539700 1.478100
19.577100 1.504100
19.614500 1.569800
19.651800 1.586400
19.689200 1.612200
19.726600 1.655300
19.764000 1.735500
19.801400 1.847100
19.838700 1.978700
19.876100 2.071800
19.913500 2.276000
19.950900 2.126700
19.988300 2.103100
20.025600 2.014000
20.063000 1.977400
20.100400 1.940900
20.137800 1.897400
20.175200 1.825800
20.212500 1.694900
20.249900 1.550900
20.287300 1.448600
20.324700 1.326900
20.362100 1.216800
20.399400 1.158900
20.436800 1.143700
20.474200 1.133000
20.511600 1.117200
20.549000 1.095900
20.586300 1.132300
20.623700 1.174900
20.661100 1.209300
20.698500 1.223500
20.735900 1.215900
20.773300 1.190300
20.810600 1.177300
20.848000 1.242800
20.885400 1.323100
20.922800 1.444800
20.960200 1.588700
20.997500 1.725500
21.034900 1.823800
21.072300 1.925300
21.109700 1.936000
21.147100 1.898400
21.184400 1.869800
21.221800 1.878600
21.259200 1.903800
21.296600 1.928600
21.334000 1.950600
21.371300 1.965400
21.408700 1.966500
21.446100 1.914300
21.483500 1.856100
21.520900 1.861100
21.558200 1.770400
21.595600 1.616400
21.633000 1.483600
21.670400 1.358500
21.707800 1.230500
21.745100 1.120700
21.782500 1.051900
21.819900 0.975400
21.857300 0.908300
21.894700 0.942700
21.932000 1.014000
21.969400 1.105100
22.006800 1.209000
22.044200 1.445900
22.081600 1.607200
22.118900 1.666200
22.156300 1.616400
22.193700 1.487500
22.231100 1.460300
22.268500 1.478700
22.305800 1.506600
22.343200 1.540100
22.380600 1.591100
22.418000 1.672200
22.455400 1.774700
22.492700 2.028200
22.530100 2.334600
22.567500 2.521900
22.604900 2.689100
22.642300 2.477100
22.679600 2.401100
22.717000 2.394600
22.754400 2.322200
22.791800 2.232000
22.829200 2.154100
22.866500 2.204400
22.903900 2.235700
22.941300 2.256500
22.978700 2.429700
23.016100 2.460000
23.053400 2.445400
23.090800 2.422900
23.128200 2.390300
23.165600 2.362100
23.203000 2.382100
23.240300 2.373400
23.277700 2.357700
23.315100 2.347300
23.352500 2.138600
23.389900 2.109800
23.427200 2.140800
23.464600 2.169800
23.502000 2.207400
23.539400 2.270800
23.576800 2.307800
23.614100 2.296800
23.651500 2.337600
23.688900 2.383500
23.726300 2.422600
23.763700 2.476000
23.801000 2.496500
23.838400 2.492600
23.875800 2.523800
23.913200 2.546400
23.950600 2.568400
23.987900 2.563600
24.025300 2.551600
24.062700 2.510700
24.100100 2.507100
24.137500 2.480100
24.174800 2.446700
24.212200 2.396200
24.249600 2.359600
24.287000 2.389400
24.324400 2.561300
24.361700 2.681600
24.399100 2.761200
24.436500 2.879000
24.473900 3.095900
24.511300 3.059700
24.548600 2.980000
24.586000 2.904500
24.623400 2.906400
24.660800 2.940300
24.698200 2.783400
24.735500 2.718500
24.772900 2.719900
24.810300 2.728100
24.847700 2.618000
24.885100 2.617700
24.922400 2.612900
24.959800 2.567100
24.997200 2.497600
25.034600 2.388100
25.072000 2.342300
25.109300 2.276000
25.146700 2.164700
25.184100 2.043300
25.221500 1.944700
25.258900 1.876600
25.296200 1.827400
25.333600 1.857200
25.371000 2.067500
25.408400 1.930800
25.445800 1.857700
25.483100 1.902200
25.520500 2.028100
25.557900 2.224200
25.595300 2.569800
25.632700 2.770800
25.670000 2.651900
25.707400 2.606400
25.744800 2.566400
25.782200 2.542600
25.819600 2.467100
25.856900 2.476200
25.894300 2.475500
25.931700 2.520800
25.969100 2.529700
26.006500 2.578900
26.043800 2.611900
26.081200 2.521000
26.118600 2.570600
26.156000 2.702300
26.193400 2.852300
26.230700 2.940700
26.268100 2.979000
26.305500 2.937900
26.342900 2.865000
26.380300 2.788100
26.417600 2.685700
26.455000 2.559100
26.492400 2.419100
26.529800 2.269200
26.567200 2.146500
26.604500 2.045300
26.641900 1.957600
26.679300 1.899700
26.716700 1.888800
26.754100 1.918000
26.791400 1.942600
26.828800 2.412100
26.866200 2.635700
26.903600 2.882600
26.941000 3.081000
26.978400 3.221200
27.015700 3.378300
27.053100 3.308700
27.090500 3.255400
27.127900 3.153200
27.165300 3.099400
27.202600 3.083400
27.240000 3.071800
27.277400 3.109400
27.314800 3.144300
27.352200 3.203000
27.389500 3.187500
27.426900 3.203500
27.464300 3.246700
27.501700 3.491900
27.539100 3.757800
27.576400 4.099100
27.613800 4.626100
27.651200 3.867700
27.688600 3.664100
27.726000 3.461400
27.763300 3.258100
27.800700 3.132800
27.838100 2.876200
27.875500 2.751300
27.912900 2.725100
27.950200 2.695700
27.987600 2.668500
28.025000 2.583200
28.062400 2.451500
28.099800 2.330500
28.137100 2.290100
28.174500 2.306800
28.211900 2.403500
28.249300 2.586000
28.286700 2.864200
28.324000 3.170500
28.361400 3.728400
28.398800 3.741800
28.436200 3.744500
28.473600 3.877100
28.510900 3.950100
28.548300 3.851300
28.585700 3.712000
28.623100 3.606400
28.660500 3.538100
28.697800 3.446400
28.735200 3.291600
28.772600 3.163700
28.810000 3.120800
28.847400 3.072600
28.884700 3.035600
28.922100 3.069000
28.959500 3.151100
28.996900 3.361000
29.034300 3.148500
29.071600 3.168600
29.109000 3.306400
29.146400 3.247900
29.183800 3.063600
29.221200 2.914700
29.258500 2.884200
29.295900 2.869800
29.333300 2.750300
29.370700 2.698600
29.408100 2.626900
29.445400 2.581100
29.482800 2.562500
29.520200 2.508300
29.557600 2.451400
29.595000 2.396300
29.632300 2.337300
29.669700 2.253400
29.707100 2.186000
29.744500 2.163800
29.781900 2.154700
29.819200 2.160400
29.856600 2.184200
29.894000 2.207100
29.931400 2.232900
29.968800 2.261700
30.006100 2.293400
30.043500 2.329900
30.080900 2.364100
30.118300 2.393800
30.155700 2.441200
30.193000 2.498000
30.230400 2.551500
30.267800 2.595100
30.305200 2.646300
30.342600 2.703900
30.379900 2.784400
30.417300 2.922500
30.454700 3.010000
30.492100 2.877100
30.529500 2.797400
30.566800 2.702200
30.604200 2.601800
30.641600 2.542600
30.679000 2.781500
30.716400 2.676200
30.753700 2.667600
30.791100 2.717500
30.828500 2.788000
30.865900 2.844100
30.903300 2.826600
30.940600 2.906800
30.978000 2.926400
31.015400 2.907500
31.052800 2.911100
31.090200 2.899100
31.127500 2.870700
31.164900 2.844100
31.202300 2.810400
31.239700 2.755600
31.277100 2.682000
31.314400 2.607000
31.351800 2.544700
31.389200 2.525300
31.426600 2.631000
31.464000 2.691700
31.501300 2.768600
31.538700 2.932900
31.576100 2.707300
31.613500 2.895800
31.650900 2.887600
31.688200 2.952000
31.725600 3.010600
31.763000 3.078700
31.800400 2.962700
31.837800 2.808900
31.875100 2.931400
31.912500 2.756300
31.949900 2.614100
31.987300 2.561300
32.024700 2.435100
32.062000 2.383900
32.099400 2.352200
32.136800 2.301100
32.174200 2.282700
32.211600 2.295500
32.248900 2.323500
32.286300 2.363800
32.323700 2.449700
32.361100 2.597300
32.398500 2.839000
32.435800 3.250900
32.473200 3.606800
32.510600 3.920500
32.548000 3.716800
32.585400 3.099700
32.622700 2.920800
32.660100 2.846300
32.697500 2.778700
32.734900 2.766100
32.772300 2.785800
32.809600 2.788500
32.847000 2.848200
32.884400 2.938100
32.921800 2.946600
32.959200 2.949200
32.996600 3.008800
33.033900 2.965500
33.071300 3.077000
33.108700 3.198600
33.146100 3.309100
33.183500 3.337900
33.220800 3.383300
33.258200 3.400600
33.295600 3.409600
33.333000 3.407800
33.370400 3.368700
33.407700 3.250000
33.445100 3.099100
33.482500 3.002600
33.519900 2.931700
33.557300 2.815500
33.594600 2.745400
33.632000 2.776700
33.669400 2.875500
33.706800 2.672600
33.744200 2.598900
33.781500 2.535600
33.818900 2.462600
33.856300 2.269700
33.893700 2.325700
33.931100 2.216700
33.968400 2.127300
34.005800 2.115200
34.043200 2.146700
34.080600 2.253100
34.118000 2.381100
34.155300 2.501900
34.192700 2.568300
34.230100 2.649800
34.267500 2.990200
34.304900 2.980000
34.342200 2.876800
34.379600 2.772800
34.417000 2.669200
34.454400 2.587700
34.491800 2.457000
34.529100 2.404200
34.566500 2.368900
34.603900 2.338800
34.641300 2.314500
34.678700 2.284500
34.716000 2.241000
34.753400 2.186000
34.790800 2.093900
34.828200 2.022600
34.865600 1.987500
34.902900 1.958600
34.940300 1.932300
34.977700 1.902700
35.015100 1.860100
35.052500 1.838000
35.089800 1.824500
35.127200 1.809400
35.164600 1.793200
35.202000 1.778000
35.239400 1.764500
35.276700 1.748800
35.314100 1.750100
35.351500 1.769600
35.388900 1.809000
35.426300 1.863000
35.463600 1.926300
35.501000 1.963600
35.538400 2.003700
35.575800 2.047100
35.613200 2.070900
35.650500 2.028600
35.687900 1.928000
35.725300 1.901200
35.762700 1.879000
35.800100 1.847600
35.837400 1.802000
35.874800 1.740100
35.912200 1.686600
35.949600 1.635000
35.987000 1.595600
36.024300 1.564400
36.061700 1.544200
36.099100 1.528800
36.136500 1.516000
36.173900 1.503400
36.211200 1.497900
36.248600 1.495900
36.286000 1.493100
36.323400 1.491400
36.360800 1.484100
36.398100 1.471600
36.435500 1.444600
36.472900 1.393000
36.510300 1.331300
36.547700 1.276000
36.585000 1.227800
36.622400 1.198000
36.659800 1.181700
36.697200 1.179100
36.734600 1.201700
36.771900 1.188300
36.809300 1.174500
36.846700 1.160400
36.884100 1.134500
36.921500 1.102800
36.958800 1.064300
36.996200 0.981500
37.033600 0.856800
37.071000 0.775000
37.108400 0.691900
37.145700 0.606100
37.183100 0.527400
37.220500 0.445300
37.257900 0.367400
37.295300 0.304700
37.332600 0.259500
37.370000 0.232300
37.407400 0.206000
37.444800 0.183100
37.482200 0.163700
37.519500 0.144200
37.556900 0.131300
37.594300 0.115500
37.631700 0.097200
37.669100 0.080000
37.706400 0.064700
37.743800 0.051300
37.781200 0.039400
37.818600 0.029100
37.856000 0.020300
37.893300 0.013100
37.930700 0.007500
37.968100 0.003400
38.005500 0.000900
38.042900 0.000000
38.080200 0.000000
38.117600 0.000000
38.155000 0.000000
38.192400 0.000000
38.229800 0.000000
38.267100 0.000000
38.304500 0.000000
38.341900 0.000000
38.379300 0.000000
38.416700 0.000000
38.454000 0.000000
38.491400 0.000000
38.528800 0.000000
38.566200 0.000000
38.603600 0.000000
38.640900 0.000000
38.678300 0.000000
38.715700 0.000000
38.753100 0.000000
38.790500 0.000000
38.827800 0.000000
38.865200 0.000000
38.902600 0.000000
38.940000 0.000000
38.977400 0.000000
39.014800 0.000000
39.052100 0.000000
39.089500 0.000000
39.126900 0.000000
39.164300 0.000000
39.201700 0.000000
39.239000 0.000000
39.276400 0.000000
39.313800 0.000000
39.351200 0.000000
39.388600 0.000000
39.425900 0.000000
39.463300 0.000000
39.500700 0.000000
39.538100 0.000000
39.575500 0.000000
39.612800 0.000000
39.650200 0.000000
39.687600 0.000000
39.725000 0.000000
39.762400 0.000000
39.799700 0.000000
39.837100 0.000000
39.874500 0.000000
39.911900 0.000000
39.949300 0.000000
39.986600 0.000000
40.024000 0.000000
40.061400 0.000000
40.098800 0.000000
40.136200 0.000000
40.173500 0.000000
40.210900 0.000000
40.248300 0.000000
40.285700 0.000000
40.323100 0.000000
40.360400 0.000000
40.397800 0.000000
40.435200 0.000000
40.472600 0.000000
40.510000 0.000000
40.547300 0.000000
40.584700 0.000000
40.622100 0.000000
40.659500 0.000000
40.696900 0.000000
40.734200 0.000000
40.771600 0.000000
40.809000 0.000000
40.846400 0.000000
40.883800 0.000000
40.921100 0.000000
40.958500 0.000000
40.995900 0.000000
41.033300 0.000000
41.070700 0.000000
41.108000 0.000000
41.145400 0.000000
41.182800 0.000000
41.220200 0.000000
41.257600 0.000000
41.294900 0.000000
41.332300 0.000000
41.369700 0.000000
41.407100 0.000000
41.444500 0.000000
e
