set title 'mp-25375 - Density of States'
set xlabel 'Energy (eV)'
set ylabel 'DOS (states/eV)'
set grid
set xrange [-10:10]
set yrange [0:2.912]
set xzeroaxis lt -1
set terminal png size 800,600
set output 'mp-25375_dos_gnuplot.png'
plot '-' using 1:2 with lines title 'DOS'
-41.821500 0.000000
-41.772600 0.000000
-41.723800 0.000000
-41.675000 0.000000
-41.626200 0.000000
-41.577400 0.000000
-41.528500 0.000000
-41.479700 0.000000
-41.430900 0.000000
-41.382100 0.000000
-41.333300 0.000000
-41.284400 0.000000
-41.235600 0.000000
-41.186800 0.000000
-41.138000 0.000000
-41.089200 0.000000
-41.040300 0.000000
-40.991500 0.000000
-40.942700 0.000000
-40.893900 0.000000
-40.845100 0.000000
-40.796200 0.000000
-40.747400 0.000000
-40.698600 0.000000
-40.649800 0.000000
-40.601000 0.000000
-40.552100 0.000000
-40.503300 0.000000
-40.454500 0.000000
-40.405700 0.000000
-40.356900 0.000000
-40.308000 0.000000
-40.259200 0.000000
-40.210400 0.000000
-40.161600 0.000000
-40.112800 0.000000
-40.063900 0.000000
-40.015100 0.000000
-39.966300 0.000000
-39.917500 0.000000
-39.868700 0.000000
-39.819800 0.000000
-39.771000 0.000000
-39.722200 0.000000
-39.673400 0.000000
-39.624600 0.000000
-39.575700 0.000000
-39.526900 0.000000
-39.478100 0.000000
-39.429300 0.000000
-39.380500 0.000000
-39.331600 0.000000
-39.282800 0.000000
-39.234000 0.000000
-39.185200 0.000000
-39.136400 0.000000
-39.087500 0.000000
-39.038700 0.000000
-38.989900 0.000000
-38.941100 0.000000
-38.892300 0.000000
-38.843400 0.000000
-38.794600 0.000000
-38.745800 0.000000
-38.697000 0.000000
-38.648200 0.000000
-38.599400 0.000000
-38.550500 0.000000
-38.501700 0.000000
-38.452900 0.000000
-38.404100 0.000000
-38.355300 0.000000
-38.306400 0.000000
-38.257600 0.000000
-38.208800 0.000000
-38.160000 0.000000
-38.111200 0.000000
-38.062300 0.000000
-38.013500 0.000000
-37.964700 0.000000
-37.915900 0.000000
-37.867100 0.000000
-37.818200 0.000000
-37.769400 0.000000
-37.720600 0.000000
-37.671800 0.000000
-37.623000 0.000000
-37.574100 0.000000
-37.525300 0.000000
-37.476500 0.000000
-37.427700 0.000000
-37.378900 6.294700
-37.330000 46.221700
-37.281200 0.000000
-37.232400 0.000000
-37.183600 0.000000
-37.134800 8.742500
-37.085900 2.654100
-37.037100 2.331600
-36.988300 5.347300
-36.939500 12.534300
-36.890700 7.397600
-36.841800 0.000000
-36.793000 0.000000
-36.744200 0.000000
-36.695400 0.000000
-36.646600 0.000000
-36.597700 0.000000
-36.548900 0.000000
-36.500100 0.000000
-36.451300 0.000000
-36.402500 0.000000
-36.353600 0.000000
-36.304800 0.000000
-36.256000 0.000000
-36.207200 0.000000
-36.158400 0.000000
-36.109500 0.000000
-36.060700 0.000000
-36.011900 0.000000
-35.963100 0.000000
-35.914300 0.000000
-35.865400 0.000000
-35.816600 0.000000
-35.767800 0.000000
-35.719000 0.000000
-35.670200 0.000000
-35.621300 0.000000
-35.572500 0.000000
-35.523700 0.000000
-35.474900 0.000000
-35.426100 0.000000
-35.377200 0.000000
-35.328400 0.000000
-35.279600 0.000000
-35.230800 0.000000
-35.182000 0.000000
-35.133100 0.000000
-35.084300 0.000000
-35.035500 0.000000
-34.986700 0.000000
-34.937900 0.000000
-34.889100 0.000000
-34.840200 0.000000
-34.791400 0.000000
-34.742600 0.000000
-34.693800 0.000000
-34.645000 0.000000
-34.596100 0.000000
-34.547300 0.000000
-34.498500 0.000000
-34.449700 0.000000
-34.400900 0.000000
-34.352000 0.000000
-34.303200 0.000000
-34.254400 0.000000
-34.205600 0.000000
-34.156800 0.000000
-34.107900 0.000000
-34.059100 0.000000
-34.010300 0.000000
-33.961500 0.000000
-33.912700 0.000000
-33.863800 0.000000
-33.815000 0.000000
-33.766200 0.000000
-33.717400 0.000000
-33.668600 0.000000
-33.619700 0.000000
-33.570900 0.000000
-33.522100 0.000000
-33.473300 0.000000
-33.424500 0.000000
-33.375600 0.000000
-33.326800 0.000000
-33.278000 0.000000
-33.229200 0.000000
-33.180400 0.000000
-33.131500 0.000000
-33.082700 0.000000
-33.033900 0.000000
-32.985100 0.000000
-32.936300 0.000000
-32.887400 0.000000
-32.838600 0.000000
-32.789800 0.000000
-32.741000 0.000000
-32.692200 0.000000
-32.643300 0.000000
-32.594500 0.000000
-32.545700 0.000000
-32.496900 0.000000
-32.448100 0.000000
-32.399200 0.000000
-32.350400 0.000000
-32.301600 0.000000
-32.252800 0.000000
-32.204000 0.000000
-32.155100 0.000000
-32.106300 0.000000
-32.057500 0.000000
-32.008700 0.000000
-31.959900 0.000000
-31.911000 0.000000
-31.862200 0.000000
-31.813400 0.000000
-31.764600 0.000000
-31.715800 0.000000
-31.666900 0.000000
-31.618100 0.000000
-31.569300 0.000000
-31.520500 0.000000
-31.471700 0.000000
-31.422800 0.000000
-31.374000 0.000000
-31.325200 0.000000
-31.276400 0.000000
-31.227600 0.000000
-31.178800 0.000000
-31.129900 0.000000
-31.081100 0.000000
-31.032300 0.000000
-30.983500 0.000000
-30.934700 0.000000
-30.885800 0.000000
-30.837000 0.000000
-30.788200 0.000000
-30.739400 0.000000
-30.690600 0.000000
-30.641700 0.000000
-30.592900 0.000000
-30.544100 0.000000
-30.495300 0.000000
-30.446500 0.000000
-30.397600 0.000000
-30.348800 0.000000
-30.300000 0.000000
-30.251200 0.000000
-30.202400 0.000000
-30.153500 0.000000
-30.104700 0.000000
-30.055900 0.000000
-30.007100 0.000000
-29.958300 0.000000
-29.909400 0.000000
-29.860600 0.000000
-29.811800 0.000000
-29.763000 0.000000
-29.714200 0.000000
-29.665300 0.000000
-29.616500 0.000000
-29.567700 0.000000
-29.518900 0.000000
-29.470100 0.000000
-29.421200 0.000000
-29.372400 0.000000
-29.323600 0.000000
-29.274800 0.000000
-29.226000 0.000000
-29.177100 0.000000
-29.128300 0.000000
-29.079500 0.000000
-29.030700 0.000000
-28.981900 0.000000
-28.933000 0.000000
-28.884200 0.000000
-28.835400 0.000000
-28.786600 0.000000
-28.737800 0.000000
-28.688900 0.000000
-28.640100 0.000000
-28.591300 0.000000
-28.542500 0.000000
-28.493700 0.000000
-28.444800 0.000000
-28.396000 0.000000
-28.347200 0.000000
-28.298400 0.000000
-28.249600 0.000000
-28.200700 0.000000
-28.151900 0.000000
-28.103100 0.000000
-28.054300 0.000000
-28.005500 0.000000
-27.956600 0.000000
-27.907800 0.000000
-27.859000 0.000000
-27.810200 0.000000
-27.761400 0.000000
-27.712500 0.000000
-27.663700 0.000000
-27.614900 0.000000
-27.566100 0.000000
-27.517300 0.000000
-27.468500 0.000000
-27.419600 0.000000
-27.370800 0.000000
-27.322000 0.000000
-27.273200 0.000000
-27.224400 0.000000
-27.175500 0.000000
-27.126700 0.000000
-27.077900 0.000000
-27.029100 0.000000
-26.980300 0.000000
-26.931400 0.000000
-26.882600 0.000000
-26.833800 0.000000
-26.785000 0.000000
-26.736200 0.000000
-26.687300 0.000000
-26.638500 0.000000
-26.589700 0.000000
-26.540900 0.000000
-26.492100 0.000000
-26.443200 0.000000
-26.394400 0.000000
-26.345600 0.000000
-26.296800 0.000000
-26.248000 0.000000
-26.199100 0.000000
-26.150300 0.000000
-26.101500 0.000000
-26.052700 0.000000
-26.003900 0.000000
-25.955000 0.000000
-25.906200 0.000000
-25.857400 0.000000
-25.808600 0.000000
-25.759800 0.000000
-25.710900 0.000000
-25.662100 0.000000
-25.613300 0.000000
-25.564500 0.000000
-25.515700 0.000000
-25.466800 0.000000
-25.418000 0.000000
-25.369200 0.000000
-25.320400 0.000000
-25.271600 0.000000
-25.222700 0.000000
-25.173900 0.000000
-25.125100 0.000000
-25.076300 0.000000
-25.027500 0.000000
-24.978600 0.000000
-24.929800 0.000000
-24.881000 0.000000
-24.832200 0.000000
-24.783400 0.000000
-24.734500 0.000000
-24.685700 0.000000
-24.636900 0.000000
-24.588100 0.000000
-24.539300 0.000000
-24.490400 0.000000
-24.441600 0.000000
-24.392800 0.000000
-24.344000 0.000000
-24.295200 0.000000
-24.246300 0.000000
-24.197500 0.000000
-24.148700 0.000000
-24.099900 0.000000
-24.051100 0.000000
-24.002200 0.000000
-23.953400 0.000000
-23.904600 0.000000
-23.855800 0.000000
-23.807000 0.000000
-23.758200 0.000000
-23.709300 0.000000
-23.660500 0.000000
-23.611700 0.000000
-23.562900 0.000000
-23.514100 0.000000
-23.465200 0.000000
-23.416400 0.000000
-23.367600 0.000000
-23.318800 0.000000
-23.270000 0.000000
-23.221100 0.000000
-23.172300 0.000000
-23.123500 0.000000
-23.074700 0.000000
-23.025900 0.000000
-22.977000 0.000000
-22.928200 0.000000
-22.879400 0.000000
-22.830600 0.000000
-22.781800 0.000000
-22.732900 0.000000
-22.684100 0.000000
-22.635300 0.000000
-22.586500 0.000000
-22.537700 0.000000
-22.488800 0.000000
-22.440000 0.000000
-22.391200 0.000000
-22.342400 0.000000
-22.293600 0.000000
-22.244700 0.000000
-22.195900 0.000000
-22.147100 0.000000
-22.098300 0.000000
-22.049500 0.000000
-22.000600 0.000000
-21.951800 0.000000
-21.903000 0.000000
-21.854200 0.000000
-21.805400 0.000000
-21.756500 0.000000
-21.707700 0.000000
-21.658900 0.000000
-21.610100 0.000000
-21.561300 0.000000
-21.512400 0.000000
-21.463600 0.000000
-21.414800 0.000000
-21.366000 0.000000
-21.317200 0.000000
-21.268300 0.000000
-21.219500 0.000000
-21.170700 0.000000
-21.121900 0.000000
-21.073100 0.000000
-21.024200 0.000000
-20.975400 0.000000
-20.926600 0.000000
-20.877800 0.000000
-20.829000 0.000000
-20.780100 0.000000
-20.731300 0.000000
-20.682500 0.000000
-20.633700 0.000000
-20.584900 0.000000
-20.536000 0.000000
-20.487200 0.000000
-20.438400 0.000000
-20.389600 0.000000
-20.340800 0.000000
-20.291900 0.000000
-20.243100 0.000000
-20.194300 0.000000
-20.145500 0.000000
-20.096700 0.000000
-20.047900 0.000000
-19.999000 0.000000
-19.950200 0.000000
-19.901400 0.000000
-19.852600 0.000000
-19.803800 0.000000
-19.754900 0.000000
-19.706100 0.000000
-19.657300 0.000000
-19.608500 0.000000
-19.559700 0.000000
-19.510800 0.000000
-19.462000 0.000000
-19.413200 0.000000
-19.364400 0.000000
-19.315600 0.000000
-19.266700 0.000000
-19.217900 0.000000
-19.169100 0.000000
-19.120300 0.000000
-19.071500 0.000000
-19.022600 0.000000
-18.973800 0.000000
-18.925000 0.000000
-18.876200 0.000000
-18.827400 0.000000
-18.778500 0.000000
-18.729700 0.000000
-18.680900 0.000000
-18.632100 0.000000
-18.583300 0.000000
-18.534400 0.000000
-18.485600 0.000000
-18.436800 0.000000
-18.388000 0.000000
-18.339200 0.000000
-18.290300 0.000000
-18.241500 0.000000
-18.192700 0.000000
-18.143900 0.000000
-18.095100 0.000000
-18.046200 0.000000
-17.997400 0.000000
-17.948600 0.000000
-17.899800 0.000000
-17.851000 0.000000
-17.802100 0.000000
-17.753300 0.000000
-17.704500 0.000000
-17.655700 0.000000
-17.606900 0.000000
-17.558000 0.000000
-17.509200 0.000000
-17.460400 0.000000
-17.411600 0.000000
-17.362800 0.000000
-17.313900 0.000000
-17.265100 0.000000
-17.216300 0.000000
-17.167500 0.000000
-17.118700 0.000000
-17.069800 0.000000
-17.021000 0.000000
-16.972200 0.000000
-16.923400 0.000000
-16.874600 0.000000
-16.825700 0.000000
-16.776900 0.000000
-16.728100 0.000000
-16.679300 0.036500
-16.630500 0.119300
-16.581600 0.248000
-16.532800 0.350400
-16.484000 0.362700
-16.435200 0.319800
-16.386400 0.334900
-16.337500 0.354800
-16.288700 0.374600
-16.239900 0.394500
-16.191100 0.415100
-16.142300 0.438600
-16.093500 0.466700
-16.044600 0.500600
-15.995800 0.542700
-15.947000 0.591100
-15.898200 0.639600
-15.849400 0.688200
-15.800500 0.736800
-15.751700 1.060000
-15.702900 2.721200
-15.654100 2.606900
-15.605300 1.390600
-15.556400 1.248900
-15.507600 1.164400
-15.458800 3.244600
-15.410000 0.000000
-15.361200 1.067600
-15.312300 2.724700
-15.263500 3.726700
-15.214700 4.872900
-15.165900 3.227100
-15.117100 1.481000
-15.068200 0.790600
-15.019400 0.758800
-14.970600 0.610900
-14.921800 0.395400
-14.873000 0.218000
-14.824100 0.041500
-14.775300 0.000000
-14.726500 0.000000
-14.677700 0.000000
-14.628900 0.000000
-14.580000 0.000000
-14.531200 0.000000
-14.482400 0.000000
-14.433600 0.000000
-14.384800 0.000000
-14.335900 0.000000
-14.287100 0.000000
-14.238300 0.000000
-14.189500 0.000000
-14.140700 0.000000
-14.091800 0.000000
-14.043000 0.000000
-13.994200 0.000000
-13.945400 0.000000
-13.896600 0.000000
-13.847700 0.000000
-13.798900 0.000000
-13.750100 0.000000
-13.701300 0.000000
-13.652500 0.000000
-13.603600 0.000000
-13.554800 0.000000
-13.506000 0.000000
-13.457200 0.000000
-13.408400 0.000000
-13.359500 0.000000
-13.310700 0.000000
-13.261900 0.000000
-13.213100 0.000000
-13.164300 0.000000
-13.115400 0.000000
-13.066600 0.000000
-13.017800 0.000000
-12.969000 0.000000
-12.920200 0.000000
-12.871300 0.000000
-12.822500 0.000000
-12.773700 0.000000
-12.724900 0.000000
-12.676100 0.000000
-12.627200 0.000000
-12.578400 0.000000
-12.529600 0.000000
-12.480800 0.000000
-12.432000 0.000000
-12.383200 0.000000
-12.334300 0.000000
-12.285500 0.000000
-12.236700 0.000000
-12.187900 0.000000
-12.139100 0.000000
-12.090200 0.000000
-12.041400 0.000000
-11.992600 0.000000
-11.943800 0.000000
-11.895000 0.000000
-11.846100 0.000000
-11.797300 0.000000
-11.748500 0.000000
-11.699700 0.000000
-11.650900 0.000000
-11.602000 0.000000
-11.553200 0.000000
-11.504400 0.000000
-11.455600 0.000000
-11.406800 0.000000
-11.357900 0.000000
-11.309100 0.000000
-11.260300 0.000000
-11.211500 0.000000
-11.162700 0.000000
-11.113800 0.000000
-11.065000 0.000000
-11.016200 0.000000
-10.967400 0.000000
-10.918600 0.000000
-10.869700 0.000000
-10.820900 0.000000
-10.772100 0.000000
-10.723300 0.000000
-10.674500 0.000000
-10.625600 0.000000
-10.576800 0.000000
-10.528000 0.000000
-10.479200 0.000000
-10.430400 0.000000
-10.381500 0.000000
-10.332700 0.000000
-10.283900 0.000000
-10.235100 0.000000
-10.186300 0.000000
-10.137400 0.000000
-10.088600 0.000000
-10.039800 0.000000
-9.991000 0.000000
-9.942200 0.000000
-9.893300 0.000000
-9.844500 0.000000
-9.795700 0.000000
-9.746900 0.000000
-9.698100 0.000000
-9.649200 0.000000
-9.600400 0.000000
-9.551600 0.000000
-9.502800 0.000000
-9.454000 0.000000
-9.405100 0.000000
-9.356300 0.000000
-9.307500 0.000000
-9.258700 0.000000
-9.209900 0.000000
-9.161000 0.000000
-9.112200 0.000000
-9.063400 0.000000
-9.014600 0.000000
-8.965800 0.000000
-8.916900 0.000000
-8.868100 0.000000
-8.819300 0.000000
-8.770500 0.000000
-8.721700 0.000000
-8.672900 0.000000
-8.624000 0.000000
-8.575200 0.000000
-8.526400 0.000000
-8.477600 0.000000
-8.428800 0.000000
-8.379900 0.000000
-8.331100 0.000000
-8.282300 0.000000
-8.233500 0.000000
-8.184700 0.000000
-8.135800 0.000000
-8.087000 0.000000
-8.038200 0.000000
-7.989400 0.000000
-7.940600 0.000000
-7.891700 0.000000
-7.842900 0.000000
-7.794100 0.000000
-7.745300 0.000000
-7.696500 0.000000
-7.647600 0.000000
-7.598800 0.000000
-7.550000 0.000000
-7.501200 0.000000
-7.452400 0.000000
-7.403500 0.000000
-7.354700 0.000000
-7.305900 0.000000
-7.257100 0.000000
-7.208300 0.000000
-7.159400 0.000000
-7.110600 0.000000
-7.061800 0.000000
-7.013000 0.000000
-6.964200 0.000000
-6.915300 0.000000
-6.866500 0.000000
-6.817700 0.000000
-6.768900 0.000000
-6.720100 0.000000
-6.671200 0.000000
-6.622400 0.000000
-6.573600 0.000000
-6.524800 0.000000
-6.476000 0.000000
-6.427100 0.000000
-6.378300 0.000000
-6.329500 0.000000
-6.280700 0.000000
-6.231900 0.000000
-6.183000 0.000000
-6.134200 0.000000
-6.085400 0.000000
-6.036600 0.000000
-5.987800 0.000000
-5.938900 0.000000
-5.890100 0.000000
-5.841300 0.000000
-5.792500 0.000000
-5.743700 0.000000
-5.694800 0.000000
-5.646000 0.000000
-5.597200 0.000000
-5.548400 0.000000
-5.499600 0.000000
-5.450700 0.000000
-5.401900 0.000000
-5.353100 0.000000
-5.304300 0.008800
-5.255500 0.045900
-5.206600 0.101700
-5.157800 0.177000
-5.109000 0.279100
-5.060200 0.385500
-5.011400 0.492000
-4.962600 0.564300
-4.913700 0.559900
-4.864900 0.568100
-4.816100 0.561400
-4.767300 0.501700
-4.718500 0.521000
-4.669600 0.540400
-4.620800 0.559800
-4.572000 0.579200
-4.523200 0.598500
-4.474400 0.617900
-4.425500 0.637300
-4.376700 0.663700
-4.327900 1.048700
-4.279100 1.233700
-4.230300 1.187200
-4.181400 1.033000
-4.132600 0.863500
-4.083800 0.635500
-4.035000 0.495900
-3.986200 0.439100
-3.937300 0.432600
-3.888500 0.423600
-3.839700 0.474300
-3.790900 0.616200
-3.742100 0.772900
-3.693200 0.941400
-3.644400 1.135100
-3.595600 1.346400
-3.546800 1.049800
-3.498000 0.850300
-3.449100 0.489200
-3.400300 0.582200
-3.351500 0.675100
-3.302700 0.768000
-3.253900 0.860900
-3.205000 0.820400
-3.156200 0.943800
-3.107400 1.167200
-3.058600 1.276400
-3.009800 1.344500
-2.960900 1.403400
-2.912100 1.472600
-2.863300 1.544700
-2.814500 1.488700
-2.765700 1.410300
-2.716800 1.298000
-2.668000 1.313800
-2.619200 1.626200
-2.570400 1.123100
-2.521600 1.134400
-2.472700 1.154900
-2.423900 1.153000
-2.375100 1.153200
-2.326300 1.541100
-2.277500 1.334000
-2.228600 1.099500
-2.179800 0.995800
-2.131000 0.908000
-2.082200 0.827100
-2.033400 0.754800
-1.984500 0.685700
-1.935700 0.617000
-1.886900 0.688800
-1.838100 0.657000
-1.789300 0.453700
-1.740400 0.334200
-1.691600 0.436300
-1.642800 0.820800
-1.594000 1.456300
-1.545200 2.235900
-1.496300 1.739100
-1.447500 2.005300
-1.398700 2.251500
-1.349900 2.366200
-1.301100 2.506100
-1.252300 2.517100
-1.203400 2.312000
-1.154600 1.838400
-1.105800 1.917400
-1.057000 1.803100
-1.008200 1.339300
-0.959300 1.302100
-0.910500 1.280300
-0.861700 1.244500
-0.812900 1.269400
-0.764100 1.369900
-0.715200 1.459900
-0.666400 1.499400
-0.617600 1.836400
-0.568800 1.822300
-0.520000 0.059300
-0.471100 0.033100
-0.422300 0.058900
-0.373500 0.118300
-0.324700 0.211900
-0.275900 0.291400
-0.227000 0.371200
-0.178200 0.451500
-0.129400 0.538700
-0.080600 1.063600
-0.031800 1.358800
0.017100 1.355400
0.065900 1.473200
0.114700 1.616300
0.163500 1.732000
0.212300 2.164400
0.261200 1.845600
0.310000 1.736700
0.358800 1.591700
0.407600 1.634500
0.456400 0.941100
0.505300 0.414000
0.554100 0.282600
0.602900 0.215900
0.651700 0.291100
0.700500 0.457800
0.749400 0.508600
0.798200 0.736000
0.847000 1.020900
0.895800 1.173500
0.944600 1.003900
0.993500 1.004200
1.042300 1.011400
1.091100 1.084800
1.139900 1.154900
1.188700 1.233000
1.237600 1.700500
1.286400 2.328000
1.335200 2.647300
1.384000 1.551000
1.432800 1.058000
1.481700 1.031300
1.530500 1.095200
1.579300 1.160300
1.628100 1.270900
1.676900 1.318500
1.725800 1.275300
1.774600 1.228300
1.823400 1.179200
1.872200 1.130200
1.921000 1.150900
1.969900 0.987400
2.018700 1.008500
2.067500 1.044500
2.116300 1.019700
2.165100 0.960700
2.214000 1.079600
2.262800 1.308100
2.311600 0.493000
2.360400 0.155300
2.409200 0.001100
2.458000 0.000000
2.506900 0.000000
2.555700 0.000000
2.604500 0.000000
2.653300 0.000000
2.702100 0.000000
2.751000 0.000000
2.799800 0.000000
2.848600 0.000000
2.897400 0.000000
2.946200 0.000000
2.995100 0.000000
3.043900 0.000000
3.092700 0.000000
3.141500 0.000000
3.190300 0.000000
3.239200 0.000000
3.288000 0.000000
3.336800 0.000000
3.385600 0.000000
3.434400 0.000000
3.483300 0.000000
3.532100 0.000000
3.580900 0.000000
3.629700 0.000000
3.678500 0.000000
3.727400 0.000000
3.776200 0.000000
3.825000 0.000000
3.873800 0.000000
3.922600 0.000000
3.971500 0.000000
4.020300 0.000000
4.069100 0.000000
4.117900 0.000000
4.166700 0.000000
4.215600 0.000000
4.264400 0.000000
4.313200 0.000000
4.362000 0.000000
4.410800 0.000000
4.459700 0.209400
4.508500 0.597400
4.557300 0.556800
4.606100 0.658300
4.654900 0.713500
4.703800 0.916700
4.752600 1.000700
4.801400 1.018900
4.850200 1.059500
4.899000 1.103800
4.947900 0.892600
4.996700 0.832600
5.045500 0.809900
5.094300 0.840200
5.143100 0.871500
5.192000 0.905500
5.240800 0.947300
5.289600 1.230100
5.338400 1.495200
5.387200 1.178700
5.436100 0.954700
5.484900 0.781200
5.533700 0.595300
5.582500 0.373300
5.631300 0.000000
5.680200 0.000000
5.729000 0.000000
5.777800 0.000000
5.826600 0.000000
5.875400 0.000000
5.924300 0.000000
5.973100 0.000000
6.021900 0.000000
6.070700 0.000000
6.119500 0.000000
6.168300 0.000000
6.217200 0.000000
6.266000 0.000000
6.314800 0.000000
6.363600 0.000000
6.412400 0.000000
6.461300 0.000000
6.510100 0.000000
6.558900 0.000000
6.607700 0.000000
6.656500 0.000000
6.705400 0.000000
6.754200 0.000000
6.803000 0.000000
6.851800 0.000000
6.900600 0.000000
6.949500 0.000000
6.998300 0.000000
7.047100 0.000000
7.095900 0.000600
7.144700 0.031200
7.193600 0.086800
7.242400 0.160900
7.291200 0.253300
7.340000 0.364200
7.388800 0.494100
7.437700 0.688100
7.486500 0.952500
7.535300 1.026000
7.584100 1.036200
7.632900 1.043800
7.681800 1.114600
7.730600 1.175800
7.779400 1.228100
7.828200 1.290900
7.877000 1.426900
7.925900 2.238100
7.974700 2.599100
8.023500 2.232100
8.072300 0.660900
8.121100 0.030100
8.170000 1.524400
8.218800 0.920900
8.267600 1.173600
8.316400 1.332900
8.365200 1.318100
8.414100 1.291700
8.462900 1.293600
8.511700 1.354700
8.560500 1.371700
8.609300 1.348200
8.658200 1.376400
8.707000 1.355200
8.755800 1.311200
8.804600 1.249000
8.853400 1.158000
8.902300 0.877900
8.951100 0.246900
8.999900 0.215800
9.048700 0.459400
9.097500 1.315100
9.146400 0.487700
9.195200 0.332200
9.244000 0.296400
9.292800 0.260200
9.341600 0.238200
9.390500 0.231100
9.439300 0.226500
9.488100 0.223300
9.536900 0.221300
9.585700 0.219900
9.634600 0.219200
9.683400 0.219100
9.732200 0.219700
9.781000 0.214300
9.829800 0.214100
9.878600 0.216100
9.927500 0.219500
9.976300 0.224200
10.025100 0.229800
10.073900 0.235900
10.122700 0.243000
10.171600 0.250200
10.220400 0.256600
10.269200 0.264700
10.318000 0.274500
10.366800 0.288300
10.415700 0.302300
10.464500 0.316600
10.513300 0.331100
10.562100 0.344300
10.610900 0.357500
10.659800 0.371200
10.708600 0.385800
10.757400 0.401500
10.806200 0.418800
10.855000 0.436000
10.903900 0.453300
10.952700 0.470800
11.001500 0.488900
11.050300 0.508700
11.099100 0.543200
11.148000 0.579500
11.196800 0.614100
11.245600 0.635200
11.294400 0.639200
11.343200 0.629600
11.392100 0.626800
11.440900 0.619900
11.489700 0.600600
11.538500 0.562600
11.587300 0.549000
11.636200 0.537000
11.685000 0.526300
11.733800 0.519700
11.782600 0.518200
11.831400 0.518700
11.880300 0.522800
11.929100 0.527700
11.977900 0.533400
12.026700 0.539800
12.075500 0.547900
12.124400 0.561000
12.173200 0.577300
12.222000 0.597200
12.270800 0.631500
12.319600 0.682900
12.368500 0.732600
12.417300 0.753100
12.466100 0.758800
12.514900 0.783600
12.563700 0.860200
12.612600 0.920100
12.661400 0.830900
12.710200 0.835000
12.759000 0.848300
12.807800 0.816100
12.856700 0.794500
12.905500 0.885500
12.954300 0.847600
13.003100 0.456500
13.051900 0.300700
13.100800 0.298100
13.149600 0.463700
13.198400 0.503800
13.247200 0.547100
13.296000 0.600000
13.344900 0.752300
13.393700 0.805100
13.442500 0.834500
13.491300 0.857300
13.540100 0.926900
13.588900 0.998500
13.637800 0.758700
13.686600 0.666300
13.735400 0.599800
13.784200 0.514800
13.833000 0.450600
13.881900 0.407800
13.930700 0.380300
13.979500 0.359800
14.028300 0.382300
14.077100 0.405300
14.126000 0.424100
14.174800 0.444400
14.223600 0.461900
14.272400 0.478700
14.321200 0.502400
14.370100 0.533300
14.418900 0.660900
14.467700 0.713500
14.516500 0.661300
14.565300 0.669500
14.614200 0.692800
14.663000 0.732200
14.711800 0.790600
14.760600 0.857400
14.809400 0.666600
14.858300 0.623700
14.907100 0.583900
14.955900 0.552000
15.004700 0.530600
15.053500 0.513400
15.102400 0.494100
15.151200 0.473700
15.200000 0.452100
15.248800 0.429400
15.297600 0.400000
15.346500 0.358400
15.395300 0.304700
15.444100 0.280500
15.492900 0.287100
15.541700 0.297500
15.590600 0.309700
15.639400 0.323300
15.688200 0.341200
15.737000 0.368200
15.785800 0.405100
15.834700 0.454100
15.883500 0.523200
15.932300 0.622200
15.981100 0.766400
16.029900 0.898700
16.078800 0.725300
16.127600 0.698800
16.176400 0.671600
16.225200 0.644900
16.274000 0.609300
16.322900 0.581200
16.371700 0.564100
16.420500 0.580900
16.469300 0.482200
16.518100 0.456600
16.567000 0.442700
16.615800 0.434300
16.664600 0.427000
16.713400 0.421200
16.762200 0.422800
16.811100 0.434000
16.859900 0.461900
16.908700 0.475200
16.957500 0.486700
17.006300 0.498100
17.055200 0.508000
17.104000 0.516200
17.152800 0.532400
17.201600 0.561400
17.250400 0.591100
17.299200 0.622200
17.348100 0.664200
17.396900 0.712500
17.445700 0.774300
17.494500 0.864900
17.543300 0.900700
17.592200 0.916300
17.641000 0.897800
17.689800 0.848900
17.738600 0.818300
17.787400 0.795700
17.836300 0.773700
17.885100 0.752700
17.933900 0.728900
17.982700 0.702500
18.031500 0.683600
18.080400 0.675200
18.129200 0.667400
18.178000 0.659100
18.226800 0.643200
18.275600 0.630200
18.324500 0.623300
18.373300 0.619300
18.422100 0.617600
18.470900 0.618300
18.519700 0.621700
18.568600 0.626600
18.617400 0.618000
18.666200 0.567000
18.715000 0.534800
18.763800 0.519900
18.812700 0.508600
18.861500 0.507900
18.910300 0.560800
18.959100 0.617400
19.007900 0.663200
19.056800 0.682100
19.105600 0.677500
19.154400 0.655900
19.203200 0.618900
19.252000 0.618300
19.300900 0.620600
19.349700 0.634000
19.398500 0.631600
19.447300 0.605600
19.496100 0.646000
19.545000 0.713700
19.593800 0.798400
19.642600 0.768300
19.691400 0.684500
19.740200 0.649800
19.789100 0.609100
19.837900 0.612000
19.886700 0.636600
19.935500 0.678000
19.984300 0.681100
20.033200 0.683000
20.082000 0.744800
20.130800 0.796300
20.179600 0.800500
20.228400 0.754300
20.277300 0.719900
20.326100 0.689200
20.374900 0.661800
20.423700 0.639800
20.472500 0.621100
20.521400 0.618300
20.570200 0.640500
20.619000 0.684700
20.667800 0.713600
20.716600 0.708800
20.765500 0.708200
20.814300 0.717600
20.863100 0.726400
20.911900 0.747500
20.960700 0.742800
21.009500 0.712400
21.058400 0.698900
21.107200 0.611900
21.156000 0.487000
21.204800 0.433600
21.253600 0.403200
21.302500 0.409500
21.351300 0.418700
21.400100 0.429400
21.448900 0.455400
21.497700 0.548300
21.546600 0.618100
21.595400 0.636000
21.644200 0.640200
21.693000 0.667400
21.741800 0.699200
21.790700 0.730100
21.839500 0.760000
21.888300 0.789000
21.937100 0.812500
21.985900 1.037800
22.034800 0.677900
22.083600 0.550000
22.132400 0.526400
22.181200 0.543300
22.230000 0.521400
22.278900 0.516100
22.327700 0.518700
22.376500 0.531000
22.425300 0.538500
22.474100 0.550800
22.523000 0.565500
22.571800 0.577000
22.620600 0.583100
22.669400 0.583300
22.718200 0.581400
22.767100 0.580800
22.815900 0.583200
22.864700 0.584800
22.913500 0.594500
22.962300 0.611900
23.011200 0.659000
23.060000 0.685800
23.108800 0.682400
23.157600 0.705000
23.206400 0.707700
23.255300 0.709400
23.304100 0.712100
23.352900 0.722600
23.401700 0.777900
23.450500 0.804500
23.499400 0.774700
23.548200 0.726300
23.597000 0.675300
23.645800 0.630200
23.694600 0.583800
23.743500 0.520000
23.792300 0.495100
23.841100 0.593200
23.889900 0.554000
23.938700 0.517800
23.987600 0.492700
24.036400 0.489200
24.085200 0.510400
24.134000 0.532400
24.182800 0.555700
24.231700 0.580000
24.280500 0.674500
24.329300 0.847300
24.378100 1.186800
24.426900 0.959500
24.475800 1.022100
24.524600 1.053000
24.573400 1.007700
24.622200 0.995200
24.671000 0.990200
24.719800 0.983300
24.768700 0.975000
24.817500 0.951300
24.866300 0.969200
24.915100 0.842600
24.963900 0.761500
25.012800 0.722300
25.061600 0.717800
25.110400 0.722300
25.159200 0.726500
25.208000 0.721700
25.256900 0.706900
25.305700 0.687700
25.354500 0.671300
25.403300 0.639700
25.452100 0.575400
25.501000 0.541500
25.549800 0.549800
25.598600 0.733600
25.647400 0.742600
25.696200 0.574500
25.745100 0.321900
25.793900 0.324200
25.842700 0.336900
25.891500 0.369000
25.940300 0.404700
25.989200 0.442900
26.038000 0.493000
26.086800 0.589700
26.135600 0.722500
26.184400 0.836500
26.233300 0.898900
26.282100 0.907200
26.330900 0.866300
26.379700 0.858000
26.428500 0.847600
26.477400 0.837000
26.526200 0.876300
26.575000 0.712600
26.623800 0.691500
26.672600 0.665400
26.721500 0.635800
26.770300 0.608600
26.819100 0.586300
26.867900 0.576000
26.916700 0.567600
26.965600 0.559400
27.014400 0.545300
27.063200 0.524600
27.112000 0.507800
27.160800 0.504500
27.209700 0.515400
27.258500 0.539600
27.307300 0.569600
27.356100 0.606600
27.404900 0.649600
27.453800 0.693700
27.502600 0.745800
27.551400 0.780700
27.600200 0.794800
27.649000 0.793600
27.697900 0.805100
27.746700 0.837500
27.795500 0.900700
27.844300 1.005300
27.893100 1.030500
27.942000 1.024400
27.990800 1.006100
28.039600 0.979300
28.088400 0.964300
28.137200 0.954300
28.186100 0.914900
28.234900 0.912300
28.283700 0.911500
28.332500 0.910600
28.381300 0.898300
28.430100 0.880600
28.479000 0.845100
28.527800 0.848300
28.576600 0.868500
28.625400 0.917500
28.674200 1.261400
28.723100 1.025600
28.771900 0.786600
28.820700 0.693900
28.869500 0.623400
28.918300 0.608600
28.967200 0.621400
29.016000 0.648300
29.064800 0.720600
29.113600 0.808500
29.162400 0.926400
29.211300 0.976800
29.260100 0.985600
29.308900 1.016300
29.357700 1.053200
29.406500 1.068400
29.455400 1.064900
29.504200 1.075100
29.553000 1.122800
29.601800 1.148700
29.650600 1.176400
29.699500 1.186600
29.748300 1.181600
29.797100 1.275200
29.845900 1.430400
29.894700 1.569000
29.943600 1.555500
29.992400 1.446300
30.041200 1.580100
30.090000 1.526100
30.138800 1.359700
30.187700 1.144500
30.236500 1.074300
30.285300 1.050300
30.334100 1.063100
30.382900 1.193900
30.431800 1.072700
30.480600 0.988800
30.529400 0.864800
30.578200 0.799900
30.627000 0.882000
30.675900 1.166300
30.724700 1.378500
30.773500 1.402600
30.822300 1.473200
30.871100 1.544500
30.920000 1.464300
30.968800 1.409100
31.017600 1.495500
31.066400 1.265600
31.115200 0.993100
31.164100 0.762700
31.212900 0.613400
31.261700 0.575900
31.310500 0.601300
31.359300 0.648300
31.408200 0.723400
31.457000 0.790200
31.505800 0.842500
31.554600 0.947500
31.603400 1.102600
31.652300 1.288000
31.701100 2.110800
31.749900 1.885900
31.798700 2.128700
31.847500 2.574800
31.896400 2.939000
31.945200 3.099900
31.994000 2.124000
32.042800 1.726200
32.091600 1.304400
32.140400 1.148800
32.189300 1.053800
32.238100 1.029200
32.286900 1.021800
32.335700 1.081900
32.384500 1.168000
32.433400 1.234500
32.482200 1.281600
32.531000 1.178000
32.579800 1.136400
32.628600 1.081900
32.677500 0.992300
32.726300 0.891200
32.775100 0.790000
32.823900 0.654400
32.872700 0.567600
32.921600 0.531900
32.970400 0.511200
33.019200 0.509700
33.068000 0.553700
33.116800 0.616900
33.165700 0.750900
33.214500 0.880400
33.263300 0.991500
33.312100 1.330800
33.360900 1.531000
33.409800 1.566700
33.458600 1.599500
33.507400 1.607700
33.556200 1.711300
33.605000 1.483900
33.653900 1.401800
33.702700 1.325300
33.751500 1.249700
33.800300 1.024500
33.849100 0.893900
33.898000 0.793400
33.946800 0.743700
33.995600 0.696200
34.044400 0.671900
34.093200 0.668000
34.142100 0.626800
34.190900 0.562900
34.239700 0.522600
34.288500 0.588200
34.337300 0.649400
34.386200 0.738100
34.435000 0.829500
34.483800 0.919800
34.532600 1.108500
34.581400 1.113000
34.630300 1.049400
34.679100 1.091800
34.727900 1.176700
34.776700 1.188800
34.825500 1.180700
34.874400 1.162500
34.923200 1.124800
34.972000 1.073900
35.020800 1.018300
35.069600 0.959700
35.118500 0.927500
35.167300 0.933100
35.216100 0.888300
35.264900 0.859000
35.313700 0.829600
35.362600 0.805200
35.411400 0.797000
35.460200 0.832100
35.509000 0.883300
35.557800 0.893700
35.606700 0.892800
35.655500 0.898900
35.704300 0.916700
35.753100 0.939300
35.801900 0.968900
35.850700 1.144800
35.899600 1.069900
35.948400 1.088400
35.997200 1.115600
36.046000 1.140200
36.094800 1.154500
36.143700 1.157700
36.192500 1.171900
36.241300 1.160700
36.290100 1.142400
36.338900 1.125500
36.387800 1.099400
36.436600 1.095800
36.485400 1.095900
36.534200 1.125600
36.583000 0.980600
36.631900 0.980900
36.680700 1.122100
36.729500 1.363000
36.778300 1.507600
36.827100 1.574100
36.876000 1.434900
36.924800 1.366900
36.973600 1.305500
37.022400 1.243800
37.071200 1.124200
37.120100 1.013600
37.168900 0.933400
37.217700 0.868400
37.266500 0.836100
37.315300 0.870600
37.364200 0.925000
37.413000 0.993100
37.461800 1.061800
37.510600 1.132200
37.559400 1.207300
37.608300 1.272300
37.657100 1.330100
37.705900 1.456500
37.754700 1.412600
37.803500 1.412700
37.852400 1.365700
37.901200 1.274500
37.950000 1.133900
37.998800 0.948500
38.047600 0.832200
38.096500 0.810800
38.145300 0.837000
38.194100 0.862500
38.242900 0.886800
38.291700 0.885600
38.340600 0.844000
38.389400 0.760700
38.438200 0.647500
38.487000 0.604000
38.535800 0.596400
38.584700 0.591800
38.633500 0.588600
38.682300 0.591100
38.731100 0.649800
38.779900 0.693900
38.828800 0.735900
38.877600 0.834000
38.926400 0.914800
38.975200 0.928700
39.024000 0.906300
39.072900 0.860500
39.121700 0.839600
39.170500 0.670400
39.219300 0.704700
39.268100 0.753800
39.317000 0.806400
39.365800 0.870200
39.414600 0.949600
39.463400 1.031300
39.512200 1.105600
39.561100 1.268000
39.609900 1.444500
39.658700 1.419100
39.707500 1.296300
39.756300 1.307300
39.805100 1.319400
39.854000 1.228200
39.902800 1.027200
39.951600 0.906300
40.000400 0.853000
40.049200 0.846700
40.098100 0.846100
40.146900 0.802700
40.195700 0.769700
40.244500 0.794300
40.293300 0.848900
40.342200 0.888300
40.391000 0.876400
40.439800 0.878500
40.488600 0.876100
40.537400 0.875300
40.586300 0.882400
40.635100 0.952900
40.683900 0.986200
40.732700 1.034100
40.781500 1.065400
40.830400 1.081700
40.879200 1.092100
40.928000 1.058700
40.976800 1.043800
41.025600 0.999300
41.074500 0.952000
41.123300 0.955600
41.172100 0.981900
41.220900 1.017000
41.269700 1.045200
41.318600 1.112400
41.367400 1.205800
41.416200 1.063700
41.465000 0.909800
41.513800 0.922500
41.562700 0.740900
41.611500 0.616900
41.660300 0.490700
41.709100 0.383000
41.757900 0.347900
41.806800 0.385000
41.855600 0.452400
41.904400 0.547100
41.953200 0.642700
42.002000 0.743900
42.050900 0.827000
42.099700 0.924600
42.148500 0.985700
42.197300 1.021900
42.246100 1.055700
42.295000 1.087300
42.343800 1.100800
42.392600 1.091800
42.441400 1.090600
42.490200 1.085400
42.539100 1.082100
42.587900 1.061600
42.636700 0.982000
42.685500 0.877100
42.734300 0.789200
42.783200 0.582300
42.832000 0.484100
42.880800 0.452700
42.929600 0.505400
42.978400 0.556300
43.027300 0.583900
43.076100 0.625000
43.124900 0.766800
43.173700 0.834500
43.222500 1.007200
43.271400 1.192600
43.320200 1.263000
43.369000 1.193000
43.417800 1.130200
43.466600 1.106800
43.515400 1.114500
43.564300 1.139000
43.613100 1.234000
43.661900 1.201000
43.710700 1.182500
43.759500 1.190600
43.808400 1.009100
43.857200 1.120200
43.906000 0.910700
43.954800 0.883500
44.003600 0.831700
44.052500 0.750000
44.101300 0.670500
44.150100 0.607200
44.198900 0.657500
44.247700 0.772700
44.296600 0.874700
44.345400 1.067400
44.394200 1.306800
44.443000 1.458600
44.491800 1.591800
44.540700 1.577700
44.589500 1.560100
44.638300 1.556900
44.687100 1.483700
44.735900 1.325900
44.784800 1.244400
44.833600 1.182500
44.882400 1.110300
44.931200 1.086600
44.980000 0.922600
45.028900 0.799000
45.077700 0.771800
45.126500 0.748500
45.175300 0.734800
45.224100 0.731700
45.273000 0.738800
45.321800 0.782000
45.370600 0.978700
45.419400 1.156000
45.468200 1.052700
45.517100 1.041400
45.565900 1.066500
45.614700 1.086300
45.663500 1.103300
45.712300 1.041200
45.761200 0.944900
45.810000 0.843500
45.858800 0.770800
45.907600 0.711600
45.956400 0.567300
46.005300 0.596100
46.054100 0.697200
46.102900 0.842200
46.151700 1.026400
46.200500 1.181300
46.249400 1.279400
46.298200 1.383800
46.347000 1.359900
46.395800 1.395600
46.444600 1.388900
46.493500 1.393900
46.542300 1.394800
46.591100 1.322000
46.639900 1.172300
46.688700 1.081100
46.737600 1.011000
46.786400 0.968000
46.835200 0.963100
46.884000 0.913200
46.932800 0.870700
46.981700 0.844900
47.030500 0.816900
47.079300 0.801400
47.128100 0.798600
47.176900 0.806000
47.225700 0.823400
47.274600 0.812300
47.323400 0.809300
47.372200 0.840200
47.421000 0.875300
47.469800 1.080700
47.518700 1.347000
47.567500 1.666700
47.616300 1.834500
47.665100 1.466400
47.713900 1.178000
47.762800 0.930100
47.811600 0.680000
47.860400 0.539500
47.909200 0.421000
47.958000 0.332100
48.006900 0.290500
48.055700 0.275900
48.104500 0.261600
48.153300 0.243400
48.202100 0.244800
48.251000 0.243000
48.299800 0.201500
48.348600 0.138200
48.397400 0.096500
48.446200 0.071900
48.495100 0.053600
48.543900 0.040900
48.592700 0.033600
48.641500 0.031200
48.690300 0.029800
48.739200 0.028400
48.788000 0.027000
48.836800 0.025700
48.885600 0.024400
48.934400 0.023000
48.983300 0.021800
49.032100 0.020500
49.080900 0.019200
49.129700 0.018000
49.178500 0.016800
49.227400 0.015600
49.276200 0.014500
49.325000 0.013600
49.373800 0.013000
49.422600 0.012300
49.471500 0.011700
49.520300 0.011100
49.569100 0.010500
49.617900 0.009900
49.666700 0.009300
49.715600 0.008700
49.764400 0.008100
49.813200 0.007600
49.862000 0.007000
49.910800 0.006600
49.959700 0.006100
50.008500 0.005700
50.057300 0.005300
50.106100 0.004900
50.154900 0.004500
50.203800 0.004200
50.252600 0.003800
50.301400 0.003500
50.350200 0.003100
50.399000 0.002800
50.447900 0.002500
50.496700 0.002200
50.545500 0.001900
50.594300 0.001700
50.643100 0.001400
50.692000 0.001200
50.740800 0.001000
50.789600 0.000800
50.838400 0.000600
50.887200 0.000400
50.936000 0.000200
50.984900 0.000100
51.033700 0.000000
51.082500 0.000000
51.131300 0.000000
51.180100 0.000000
51.229000 0.000000
51.277800 0.000000
51.326600 0.000000
51.375400 0.000000
51.424200 0.000000
51.473100 0.000000
51.521900 0.000000
51.570700 0.000000
51.619500 0.000000
51.668300 0.000000
51.717200 0.000000
51.766000 0.000000
51.814800 0.000000
51.863600 0.000000
51.912400 0.000000
51.961300 0.000000
52.010100 0.000000
52.058900 0.000000
52.107700 0.000000
52.156500 0.000000
52.205400 0.000000
52.254200 0.000000
52.303000 0.000000
52.351800 0.000000
52.400600 0.000000
52.449500 0.000000
52.498300 0.000000
52.547100 0.000000
52.595900 0.000000
52.644700 0.000000
52.693600 0.000000
52.742400 0.000000
52.791200 0.000000
52.840000 0.000000
52.888800 0.000000
52.937700 0.000000
52.986500 0.000000
53.035300 0.000000
53.084100 0.000000
53.132900 0.000000
53.181800 0.000000
53.230600 0.000000
53.279400 0.000000
53.328200 0.000000
53.377000 0.000000
53.425900 0.000000
53.474700 0.000000
53.523500 0.000000
53.572300 0.000000
53.621100 0.000000
53.670000 0.000000
53.718800 0.000000
53.767600 0.000000
53.816400 0.000000
53.865200 0.000000
53.914100 0.000000
53.962900 0.000000
54.011700 0.000000
54.060500 0.000000
54.109300 0.000000
54.158200 0.000000
54.207000 0.000000
54.255800 0.000000
54.304600 0.000000
54.353400 0.000000
54.402300 0.000000
54.451100 0.000000
54.499900 0.000000
54.548700 0.000000
54.597500 0.000000
54.646300 0.000000
54.695200 0.000000
54.744000 0.000000
54.792800 0.000000
54.841600 0.000000
54.890400 0.000000
54.939300 0.000000
54.988100 0.000000
55.036900 0.000000
55.085700 0.000000
55.134500 0.000000
55.183400 0.000000
55.232200 0.000000
55.281000 0.000000
55.329800 0.000000
55.378600 0.000000
55.427500 0.000000
55.476300 0.000000
55.525100 0.000000
55.573900 0.000000
55.622700 0.000000
55.671600 0.000000
55.720400 0.000000
55.769200 0.000000
55.818000 0.000000
e
