set title 'mp-971906 - Density of States'
set xlabel 'Energy (eV)'
set ylabel 'DOS (states/eV)'
set grid
set xrange [-10:10]
set yrange [0:8.271]
set xzeroaxis lt -1
set terminal png size 800,600
set output 'mp-971906_dos_gnuplot.png'
plot '-' using 1:2 with lines title 'DOS'
-22.540400 0.000000
-22.514600 0.000000
-22.488800 0.000000
-22.463000 0.000000
-22.437200 0.000000
-22.411400 0.000000
-22.385600 0.000000
-22.359800 0.000000
-22.334000 0.000000
-22.308100 0.000000
-22.282300 0.000000
-22.256500 0.000000
-22.230700 0.000000
-22.204900 0.000000
-22.179100 0.000000
-22.153300 0.000000
-22.127500 0.000000
-22.101700 0.000000
-22.075900 0.000000
-22.050100 0.000000
-22.024300 0.000000
-21.998500 0.000000
-21.972700 0.000000
-21.946800 0.000000
-21.921000 0.000000
-21.895200 0.000000
-21.869400 0.000000
-21.843600 0.000000
-21.817800 0.000000
-21.792000 0.000000
-21.766200 0.000000
-21.740400 0.000000
-21.714600 0.000000
-21.688800 0.000000
-21.663000 0.000000
-21.637200 0.000000
-21.611400 0.000000
-21.585500 0.000000
-21.559700 0.000000
-21.533900 0.000000
-21.508100 0.000000
-21.482300 0.000000
-21.456500 0.000000
-21.430700 0.000000
-21.404900 0.000000
-21.379100 0.000000
-21.353300 0.000000
-21.327500 0.000000
-21.301700 0.000000
-21.275900 0.000000
-21.250000 0.000000
-21.224200 0.000000
-21.198400 0.000000
-21.172600 0.000000
-21.146800 0.000000
-21.121000 0.000000
-21.095200 0.000000
-21.069400 0.000000
-21.043600 0.000000
-21.017800 0.000000
-20.992000 0.000000
-20.966200 0.000000
-20.940400 0.000000
-20.914600 0.000000
-20.888700 0.000000
-20.862900 0.000000
-20.837100 0.000000
-20.811300 0.000000
-20.785500 0.000000
-20.759700 0.000000
-20.733900 0.000000
-20.708100 0.000000
-20.682300 0.000000
-20.656500 0.000000
-20.630700 0.000000
-20.604900 0.000000
-20.579100 0.000000
-20.553200 0.000000
-20.527400 0.000000
-20.501600 0.000000
-20.475800 0.000000
-20.450000 0.000000
-20.424200 0.000000
-20.398400 0.000000
-20.372600 0.000000
-20.346800 0.000800
-20.321000 0.017300
-20.295200 0.238900
-20.269400 1.987500
-20.243600 10.001200
-20.217800 30.534700
-20.191900 56.712600
-20.166100 64.213200
-20.140300 44.383400
-20.114500 18.736800
-20.088700 4.829400
-20.062900 0.759100
-20.037100 0.072600
-20.011300 0.004200
-19.985500 0.000100
-19.959700 0.000000
-19.933900 0.000000
-19.908100 0.000000
-19.882300 0.000000
-19.856400 0.000000
-19.830600 0.000000
-19.804800 0.000000
-19.779000 0.000000
-19.753200 0.000000
-19.727400 0.000000
-19.701600 0.000000
-19.675800 0.000000
-19.650000 0.000000
-19.624200 0.000000
-19.598400 0.000000
-19.572600 0.000000
-19.546800 0.000000
-19.521000 0.000000
-19.495100 0.000000
-19.469300 0.000000
-19.443500 0.000000
-19.417700 0.000000
-19.391900 0.000000
-19.366100 0.000000
-19.340300 0.000000
-19.314500 0.000000
-19.288700 0.000000
-19.262900 0.000000
-19.237100 0.000000
-19.211300 0.000000
-19.185500 0.000000
-19.159700 0.000000
-19.133800 0.000000
-19.108000 0.000000
-19.082200 0.000000
-19.056400 0.000000
-19.030600 0.000000
-19.004800 0.000000
-18.979000 0.000000
-18.953200 0.000000
-18.927400 0.000000
-18.901600 0.000000
-18.875800 0.000000
-18.850000 0.000000
-18.824200 0.000000
-18.798300 0.000000
-18.772500 0.000000
-18.746700 0.000000
-18.720900 0.000000
-18.695100 0.000000
-18.669300 0.000000
-18.643500 0.000000
-18.617700 0.000000
-18.591900 0.000000
-18.566100 0.000000
-18.540300 0.000000
-18.514500 0.000000
-18.488700 0.000000
-18.462900 0.000000
-18.437000 0.000000
-18.411200 0.000000
-18.385400 0.000000
-18.359600 0.000000
-18.333800 0.000000
-18.308000 0.000000
-18.282200 0.000000
-18.256400 0.000000
-18.230600 0.000000
-18.204800 0.000000
-18.179000 0.000000
-18.153200 0.000000
-18.127400 0.000000
-18.101500 0.000000
-18.075700 0.000000
-18.049900 0.000000
-18.024100 0.000000
-17.998300 0.000000
-17.972500 0.000000
-17.946700 0.000000
-17.920900 0.000000
-17.895100 0.000000
-17.869300 0.000000
-17.843500 0.000000
-17.817700 0.000000
-17.791900 0.000000
-17.766100 0.000000
-17.740200 0.000000
-17.714400 0.000000
-17.688600 0.000000
-17.662800 0.000000
-17.637000 0.000000
-17.611200 0.000000
-17.585400 0.000000
-17.559600 0.000000
-17.533800 0.000000
-17.508000 0.000000
-17.482200 0.000000
-17.456400 0.000000
-17.430600 0.000000
-17.404700 0.000000
-17.378900 0.000000
-17.353100 0.000000
-17.327300 0.000000
-17.301500 0.000000
-17.275700 0.000000
-17.249900 0.000000
-17.224100 0.000000
-17.198300 0.000000
-17.172500 0.000000
-17.146700 0.000000
-17.120900 0.000000
-17.095100 0.000000
-17.069300 0.000000
-17.043400 0.000000
-17.017600 0.000000
-16.991800 0.000000
-16.966000 0.000000
-16.940200 0.000000
-16.914400 0.000000
-16.888600 0.000000
-16.862800 0.000000
-16.837000 0.000000
-16.811200 0.000000
-16.785400 0.000000
-16.759600 0.000000
-16.733800 0.000000
-16.708000 0.000000
-16.682100 0.000000
-16.656300 0.000000
-16.630500 0.000000
-16.604700 0.000000
-16.578900 0.000000
-16.553100 0.000000
-16.527300 0.000000
-16.501500 0.000000
-16.475700 0.000000
-16.449900 0.000000
-16.424100 0.000000
-16.398300 0.000000
-16.372500 0.000000
-16.346600 0.000000
-16.320800 0.000000
-16.295000 0.000000
-16.269200 0.000000
-16.243400 0.000000
-16.217600 0.000000
-16.191800 0.000000
-16.166000 0.000000
-16.140200 0.000000
-16.114400 0.000000
-16.088600 0.000000
-16.062800 0.000000
-16.037000 0.000000
-16.011200 0.000000
-15.985300 0.000000
-15.959500 0.000000
-15.933700 0.000000
-15.907900 0.000000
-15.882100 0.000000
-15.856300 0.000000
-15.830500 0.000000
-15.804700 0.000000
-15.778900 0.000000
-15.753100 0.000000
-15.727300 0.000000
-15.701500 0.000000
-15.675700 0.000000
-15.649800 0.000000
-15.624000 0.000000
-15.598200 0.000000
-15.572400 0.000000
-15.546600 0.000000
-15.520800 0.000000
-15.495000 0.000000
-15.469200 0.000000
-15.443400 0.000000
-15.417600 0.000000
-15.391800 0.000000
-15.366000 0.000000
-15.340200 0.000000
-15.314400 0.000000
-15.288500 0.000000
-15.262700 0.000000
-15.236900 0.000000
-15.211100 0.000000
-15.185300 0.000000
-15.159500 0.000000
-15.133700 0.000000
-15.107900 0.000000
-15.082100 0.000000
-15.056300 0.000000
-15.030500 0.000000
-15.004700 0.000000
-14.978900 0.000000
-14.953000 0.000000
-14.927200 0.000000
-14.901400 0.000000
-14.875600 0.000000
-14.849800 0.000000
-14.824000 0.000000
-14.798200 0.000000
-14.772400 0.000000
-14.746600 0.000000
-14.720800 0.000000
-14.695000 0.000000
-14.669200 0.000000
-14.643400 0.000000
-14.617600 0.000000
-14.591700 0.000000
-14.565900 0.000000
-14.540100 0.000000
-14.514300 0.000000
-14.488500 0.000000
-14.462700 0.000000
-14.436900 0.000000
-14.411100 0.000000
-14.385300 0.000000
-14.359500 0.000000
-14.333700 0.000000
-14.307900 0.000000
-14.282100 0.000000
-14.256300 0.000000
-14.230400 0.000000
-14.204600 0.000000
-14.178800 0.000000
-14.153000 0.000000
-14.127200 0.000000
-14.101400 0.000000
-14.075600 0.000000
-14.049800 0.000000
-14.024000 0.000000
-13.998200 0.000000
-13.972400 0.000000
-13.946600 0.000000
-13.920800 0.000000
-13.894900 0.000000
-13.869100 0.000000
-13.843300 0.000000
-13.817500 0.000000
-13.791700 0.000000
-13.765900 0.000000
-13.740100 0.000000
-13.714300 0.000000
-13.688500 0.000000
-13.662700 0.000000
-13.636900 0.000000
-13.611100 0.000000
-13.585300 0.000000
-13.559500 0.000000
-13.533600 0.000000
-13.507800 0.000000
-13.482000 0.000000
-13.456200 0.000000
-13.430400 0.000000
-13.404600 0.000000
-13.378800 0.000000
-13.353000 0.000000
-13.327200 0.000000
-13.301400 0.000000
-13.275600 0.000000
-13.249800 0.000000
-13.224000 0.000000
-13.198100 0.000000
-13.172300 0.000000
-13.146500 0.000000
-13.120700 0.000000
-13.094900 0.000000
-13.069100 0.000000
-13.043300 0.000000
-13.017500 0.000000
-12.991700 0.000000
-12.965900 0.000000
-12.940100 0.000000
-12.914300 0.000000
-12.888500 0.000000
-12.862700 0.000000
-12.836800 0.000000
-12.811000 0.000000
-12.785200 0.000000
-12.759400 0.000000
-12.733600 0.000000
-12.707800 0.000000
-12.682000 0.000000
-12.656200 0.000000
-12.630400 0.000000
-12.604600 0.000000
-12.578800 0.000000
-12.553000 0.000000
-12.527200 0.000000
-12.501300 0.000000
-12.475500 0.000000
-12.449700 0.000000
-12.423900 0.000000
-12.398100 0.000000
-12.372300 0.000000
-12.346500 0.000000
-12.320700 0.000000
-12.294900 0.000000
-12.269100 0.000000
-12.243300 0.000000
-12.217500 0.000000
-12.191700 0.000000
-12.165900 0.000000
-12.140000 0.000000
-12.114200 0.000000
-12.088400 0.000000
-12.062600 0.000000
-12.036800 0.000000
-12.011000 0.000000
-11.985200 0.000000
-11.959400 0.000000
-11.933600 0.000000
-11.907800 0.000000
-11.882000 0.000000
-11.856200 0.000000
-11.830400 0.000000
-11.804600 0.000000
-11.778700 0.000000
-11.752900 0.000000
-11.727100 0.000000
-11.701300 0.000000
-11.675500 0.000000
-11.649700 0.000000
-11.623900 0.000000
-11.598100 0.000000
-11.572300 0.000000
-11.546500 0.000000
-11.520700 0.000000
-11.494900 0.000000
-11.469100 0.000000
-11.443200 0.000000
-11.417400 0.000000
-11.391600 0.000000
-11.365800 0.000000
-11.340000 0.000000
-11.314200 0.000000
-11.288400 0.000000
-11.262600 0.000000
-11.236800 0.000000
-11.211000 0.000000
-11.185200 0.000000
-11.159400 0.000000
-11.133600 0.000000
-11.107800 0.000000
-11.081900 0.000000
-11.056100 0.000000
-11.030300 0.000000
-11.004500 0.000000
-10.978700 0.000000
-10.952900 0.000000
-10.927100 0.000000
-10.901300 0.000000
-10.875500 0.000000
-10.849700 0.000000
-10.823900 0.000000
-10.798100 0.000000
-10.772300 0.000000
-10.746400 0.000000
-10.720600 0.000000
-10.694800 0.000000
-10.669000 0.000000
-10.643200 0.000000
-10.617400 0.000000
-10.591600 0.000000
-10.565800 0.000000
-10.540000 0.000000
-10.514200 0.000000
-10.488400 0.000000
-10.462600 0.000000
-10.436800 0.000000
-10.411000 0.000000
-10.385100 0.000000
-10.359300 0.000000
-10.333500 0.000000
-10.307700 0.000000
-10.281900 0.000000
-10.256100 0.000000
-10.230300 0.000000
-10.204500 0.000000
-10.178700 0.000000
-10.152900 0.000000
-10.127100 0.000000
-10.101300 0.000000
-10.075500 0.000000
-10.049600 0.000000
-10.023800 0.000000
-9.998000 0.000000
-9.972200 0.000000
-9.946400 0.000000
-9.920600 0.000000
-9.894800 0.000000
-9.869000 0.000000
-9.843200 0.000000
-9.817400 0.000000
-9.791600 0.000000
-9.765800 0.000000
-9.740000 0.000000
-9.714200 0.000000
-9.688300 0.000000
-9.662500 0.000000
-9.636700 0.000000
-9.610900 0.000000
-9.585100 0.000000
-9.559300 0.000000
-9.533500 0.000000
-9.507700 0.000000
-9.481900 0.000000
-9.456100 0.000000
-9.430300 0.000000
-9.404500 0.000000
-9.378700 0.000000
-9.352900 0.000000
-9.327000 0.000000
-9.301200 0.000000
-9.275400 0.000000
-9.249600 0.000000
-9.223800 0.000000
-9.198000 0.000000
-9.172200 0.000000
-9.146400 0.000000
-9.120600 0.000000
-9.094800 0.000000
-9.069000 0.000000
-9.043200 0.000000
-9.017400 0.000000
-8.991500 0.000000
-8.965700 0.000000
-8.939900 0.000000
-8.914100 0.000000
-8.888300 0.000000
-8.862500 0.000000
-8.836700 0.000000
-8.810900 0.000000
-8.785100 0.000000
-8.759300 0.000000
-8.733500 0.000000
-8.707700 0.000000
-8.681900 0.000000
-8.656100 0.000000
-8.630200 0.000000
-8.604400 0.000000
-8.578600 0.000000
-8.552800 0.000000
-8.527000 0.000000
-8.501200 0.000000
-8.475400 0.000000
-8.449600 0.000000
-8.423800 0.000000
-8.398000 0.000000
-8.372200 0.000000
-8.346400 0.000000
-8.320600 0.000000
-8.294700 0.000000
-8.268900 0.000000
-8.243100 0.000000
-8.217300 0.000000
-8.191500 0.000000
-8.165700 0.000000
-8.139900 0.000000
-8.114100 0.000000
-8.088300 0.000000
-8.062500 0.000000
-8.036700 0.000000
-8.010900 0.000000
-7.985100 0.000000
-7.959300 0.000000
-7.933400 0.000000
-7.907600 0.000000
-7.881800 0.000000
-7.856000 0.000000
-7.830200 0.000000
-7.804400 0.000000
-7.778600 0.000000
-7.752800 0.000000
-7.727000 0.000000
-7.701200 0.000000
-7.675400 0.000000
-7.649600 0.000000
-7.623800 0.000000
-7.597900 0.000000
-7.572100 0.000000
-7.546300 0.000000
-7.520500 0.000000
-7.494700 0.000000
-7.468900 0.000000
-7.443100 0.000000
-7.417300 0.000000
-7.391500 0.000000
-7.365700 0.000000
-7.339900 0.000000
-7.314100 0.000000
-7.288300 0.000000
-7.262500 0.000000
-7.236600 0.000000
-7.210800 0.000000
-7.185000 0.000000
-7.159200 0.000000
-7.133400 0.000000
-7.107600 0.000000
-7.081800 0.000000
-7.056000 0.000000
-7.030200 0.000400
-7.004400 0.002900
-6.978600 0.012500
-6.952800 0.034700
-6.927000 0.070600
-6.901200 0.127100
-6.875300 0.217900
-6.849500 0.323500
-6.823700 0.384000
-6.797900 0.366900
-6.772100 0.332100
-6.746300 0.377000
-6.720500 0.469900
-6.694700 0.487200
-6.668900 0.442800
-6.643100 0.482700
-6.617300 0.689300
-6.591500 0.923800
-6.565700 0.927500
-6.539800 0.692300
-6.514000 0.506800
-6.488200 0.547800
-6.462400 0.680200
-6.436600 0.737700
-6.410800 0.758000
-6.385000 0.826000
-6.359200 0.959000
-6.333400 1.152700
-6.307600 1.314000
-6.281800 1.314200
-6.256000 1.207500
-6.230200 1.069500
-6.204400 0.868600
-6.178500 0.767200
-6.152700 0.964400
-6.126900 1.284900
-6.101100 1.415000
-6.075300 1.274400
-6.049500 0.996800
-6.023700 0.757400
-5.997900 0.641600
-5.972100 0.687400
-5.946300 0.925700
-5.920500 1.247600
-5.894700 1.481100
-5.868900 1.538500
-5.843000 1.414400
-5.817200 1.283900
-5.791400 1.300700
-5.765600 1.319300
-5.739800 1.227300
-5.714000 1.159200
-5.688200 1.180200
-5.662400 1.173200
-5.636600 1.082200
-5.610800 0.950600
-5.585000 0.819100
-5.559200 0.734100
-5.533400 0.771200
-5.507600 1.029600
-5.481700 1.468400
-5.455900 1.886000
-5.430100 2.182600
-5.404300 2.254800
-5.378500 1.870900
-5.352700 1.200500
-5.326900 0.873500
-5.301100 1.153200
-5.275300 1.519100
-5.249500 1.361900
-5.223700 0.831300
-5.197900 0.484700
-5.172100 0.505000
-5.146200 0.718000
-5.120400 0.958900
-5.094600 1.206200
-5.068800 1.396700
-5.043000 1.394000
-5.017200 1.329900
-4.991400 1.438500
-4.965600 1.602500
-4.939800 1.658400
-4.914000 1.776500
-4.888200 2.160300
-4.862400 2.739100
-4.836600 3.043500
-4.810800 2.640500
-4.784900 2.033600
-4.759100 2.097400
-4.733300 2.690800
-4.707500 2.902700
-4.681700 2.466000
-4.655900 2.059500
-4.630100 2.188600
-4.604300 2.628400
-4.578500 2.937200
-4.552700 2.899900
-4.526900 2.605400
-4.501100 2.340500
-4.475300 2.386800
-4.449500 2.719600
-4.423600 2.931600
-4.397800 2.833600
-4.372000 2.589800
-4.346200 2.303600
-4.320400 2.107700
-4.294600 1.977200
-4.268800 1.684200
-4.243000 1.393500
-4.217200 1.405400
-4.191400 1.647800
-4.165600 2.024000
-4.139800 2.536700
-4.114000 2.944200
-4.088100 2.993100
-4.062300 2.751800
-4.036500 2.501800
-4.010700 2.610700
-3.984900 3.194400
-3.959100 3.920100
-3.933300 4.492700
-3.907500 4.988700
-3.881700 5.355200
-3.855900 5.301100
-3.830100 4.891000
-3.804300 4.302300
-3.778500 3.564500
-3.752700 2.863100
-3.726800 2.287100
-3.701000 1.690400
-3.675200 1.070000
-3.649400 0.649800
-3.623600 0.577800
-3.597800 0.707800
-3.572000 0.750800
-3.546200 0.580000
-3.520400 0.309800
-3.494600 0.112100
-3.468800 0.046000
-3.443000 0.118900
-3.417200 0.403600
-3.391300 0.929600
-3.365500 1.474800
-3.339700 1.699000
-3.313900 1.540000
-3.288100 1.236500
-3.262300 0.930200
-3.236500 0.586500
-3.210700 0.265600
-3.184900 0.078800
-3.159100 0.015900
-3.133300 0.012600
-3.107500 0.059000
-3.081700 0.200800
-3.055900 0.447000
-3.030000 0.678800
-3.004200 0.739000
-2.978400 0.624600
-2.952600 0.521200
-2.926800 0.583600
-2.901000 0.718300
-2.875200 0.718400
-2.849400 0.528800
-2.823600 0.289000
-2.797800 0.159200
-2.772000 0.154000
-2.746200 0.181600
-2.720400 0.170300
-2.694500 0.115200
-2.668700 0.053600
-2.642900 0.016400
-2.617100 0.003200
-2.591300 0.000400
-2.565500 0.000000
-2.539700 0.000000
-2.513900 0.000000
-2.488100 0.000000
-2.462300 0.000000
-2.436500 0.000000
-2.410700 0.000000
-2.384900 0.000000
-2.359100 0.000000
-2.333200 0.000000
-2.307400 0.000000
-2.281600 0.000000
-2.255800 0.000000
-2.230000 0.000000
-2.204200 0.000000
-2.178400 0.000000
-2.152600 0.000000
-2.126800 0.000000
-2.101000 0.000000
-2.075200 0.000000
-2.049400 0.000000
-2.023600 0.000000
-1.997800 0.000000
-1.971900 0.000000
-1.946100 0.000000
-1.920300 0.000000
-1.894500 0.000000
-1.868700 0.000000
-1.842900 0.000000
-1.817100 0.000000
-1.791300 0.000000
-1.765500 0.000000
-1.739700 0.000000
-1.713900 0.000000
-1.688100 0.000000
-1.662300 0.000000
-1.636400 0.000000
-1.610600 0.000000
-1.584800 0.000000
-1.559000 0.000000
-1.533200 0.000000
-1.507400 0.000000
-1.481600 0.000000
-1.455800 0.000000
-1.430000 0.000000
-1.404200 0.000000
-1.378400 0.000000
-1.352600 0.000000
-1.326800 0.000000
-1.301000 0.000000
-1.275100 0.000000
-1.249300 0.000000
-1.223500 0.000000
-1.197700 0.000000
-1.171900 0.000000
-1.146100 0.000000
-1.120300 0.000000
-1.094500 0.000000
-1.068700 0.000000
-1.042900 0.000000
-1.017100 0.000000
-0.991300 0.000000
-0.965500 0.000000
-0.939600 0.000000
-0.913800 0.000000
-0.888000 0.000000
-0.862200 0.000000
-0.836400 0.000000
-0.810600 0.000000
-0.784800 0.000000
-0.759000 0.000000
-0.733200 0.000000
-0.707400 0.000000
-0.681600 0.000000
-0.655800 0.000000
-0.630000 0.000000
-0.604200 0.000000
-0.578300 0.000000
-0.552500 0.000000
-0.526700 0.000000
-0.500900 0.000000
-0.475100 0.000000
-0.449300 0.000000
-0.423500 0.000000
-0.397700 0.000000
-0.371900 0.000000
-0.346100 0.000000
-0.320300 0.000000
-0.294500 0.000000
-0.268700 0.000000
-0.242800 0.000000
-0.217000 0.000000
-0.191200 0.000000
-0.165400 0.000000
-0.139600 0.000000
-0.113800 0.000000
-0.088000 0.000000
-0.062200 0.000000
-0.036400 0.000000
-0.010600 0.000000
0.015200 0.000000
0.041000 0.000000
0.066800 0.000000
0.092600 0.000000
0.118500 0.000000
0.144300 0.000000
0.170100 0.000000
0.195900 0.000000
0.221700 0.000000
0.247500 0.000000
0.273300 0.000000
0.299100 0.000000
0.324900 0.000000
0.350700 0.000000
0.376500 0.000000
0.402300 0.000000
0.428100 0.000000
0.453900 0.000000
0.479800 0.000000
0.505600 0.000000
0.531400 0.000000
0.557200 0.000000
0.583000 0.000000
0.608800 0.000000
0.634600 0.000000
0.660400 0.000000
0.686200 0.000000
0.712000 0.000100
0.737800 0.000800
0.763600 0.004700
0.789400 0.017200
0.815300 0.039900
0.841100 0.066100
0.866900 0.089600
0.892700 0.101200
0.918500 0.084200
0.944300 0.053700
0.970100 0.067100
0.995900 0.180700
1.021700 0.362600
1.047500 0.454800
1.073300 0.408900
1.099100 0.452800
1.124900 0.736600
1.150700 1.007700
1.176600 0.960200
1.202400 0.713800
1.228200 0.565600
1.254000 0.574100
1.279800 0.673900
1.305600 0.810900
1.331400 0.895800
1.357200 0.877000
1.383000 0.858000
1.408800 0.985600
1.434600 1.219600
1.460400 1.418300
1.486200 1.565400
1.512100 1.683100
1.537900 1.752400
1.563700 1.852900
1.589500 2.016500
1.615300 2.135600
1.641100 2.190500
1.666900 2.287100
1.692700 2.463500
1.718500 2.634800
1.744300 2.792800
1.770100 3.061200
1.795900 3.486900
1.821700 3.821700
1.847500 3.643900
1.873400 3.093700
1.899200 2.928500
1.925000 3.352500
1.950800 3.609000
1.976600 3.214100
2.002400 2.667200
2.028200 2.449200
2.054000 2.346600
2.079800 2.049700
2.105600 1.763800
2.131400 1.859500
2.157200 2.276100
2.183000 2.618300
2.208800 2.597800
2.234700 2.257000
2.260500 1.952400
2.286300 1.933700
2.312100 2.062500
2.337900 2.182800
2.363700 2.273600
2.389500 2.245100
2.415300 1.998500
2.441100 1.719000
2.466900 1.790900
2.492700 2.274500
2.518500 2.776200
2.544300 2.857700
2.570200 2.540300
2.596000 2.192000
2.621800 2.013300
2.647600 2.072100
2.673400 2.313100
2.699200 2.392600
2.725000 2.114200
2.750800 1.729200
2.776600 1.542100
2.802400 1.664400
2.828200 2.042800
2.854000 2.468200
2.879800 2.768500
2.905600 3.040100
2.931500 3.356200
2.957300 3.490100
2.983100 3.261000
3.008900 2.769100
3.034700 2.408200
3.060500 2.484700
3.086300 2.766100
3.112100 2.906500
3.137900 2.875500
3.163700 2.650100
3.189500 2.257100
3.215300 2.074300
3.241100 2.352500
3.267000 2.877700
3.292800 3.476200
3.318600 4.019500
3.344400 4.173200
3.370200 3.882200
3.396000 3.440700
3.421800 3.045900
3.447600 2.771200
3.473400 2.586000
3.499200 2.389300
3.525000 2.120100
3.550800 1.827100
3.576600 1.779300
3.602400 2.119700
3.628300 2.468000
3.654100 2.439300
3.679900 2.294600
3.705700 2.526200
3.731500 3.088600
3.757300 3.408700
3.783100 3.096500
3.808900 2.427700
3.834700 1.925400
3.860500 1.843200
3.886300 2.067900
3.912100 2.269600
3.937900 2.332600
3.963800 2.320600
3.989600 2.185900
4.015400 1.940600
4.041200 1.668100
4.067000 1.464200
4.092800 1.518600
4.118600 1.857300
4.144400 2.271400
4.170200 2.652900
4.196000 2.943300
4.221800 3.051900
4.247600 3.074500
4.273400 3.109500
4.299200 3.025800
4.325100 2.726900
4.350900 2.379800
4.376700 2.169100
4.402500 2.088200
4.428300 2.049100
4.454100 1.974700
4.479900 1.940900
4.505700 2.060700
4.531500 2.150200
4.557300 2.030900
4.583100 1.799800
4.608900 1.550600
4.634700 1.475100
4.660500 1.865300
4.686400 2.564000
4.712200 2.942300
4.738000 2.696300
4.763800 2.274100
4.789600 2.240200
4.815400 2.680300
4.841200 3.280400
4.867000 3.645200
4.892800 3.671700
4.918600 3.596900
4.944400 3.568200
4.970200 3.480700
4.996000 3.285500
5.021900 3.007000
5.047700 2.639400
5.073500 2.303900
5.099300 2.129600
5.125100 2.052000
5.150900 1.915600
5.176700 1.620300
5.202500 1.389400
5.228300 1.481500
5.254100 1.733700
5.279900 1.993700
5.305700 2.360800
5.331500 2.857700
5.357300 3.356300
5.383200 3.639700
5.409000 3.546500
5.434800 3.159700
5.460600 2.633700
5.486400 2.137100
5.512200 1.892200
5.538000 1.803300
5.563800 1.553400
5.589600 1.195900
5.615400 1.057000
5.641200 1.228400
5.667000 1.609600
5.692800 2.148600
5.718700 2.659300
5.744500 2.898500
5.770300 2.889900
5.796100 2.731400
5.821900 2.534600
5.847700 2.500300
5.873500 2.671700
5.899300 2.913500
5.925100 3.019700
5.950900 2.781800
5.976700 2.340700
6.002500 2.128200
6.028300 2.245500
6.054100 2.418200
6.080000 2.438500
6.105800 2.392400
6.131600 2.535100
6.157400 2.928000
6.183200 3.321600
6.209000 3.439600
6.234800 3.284000
6.260600 2.968800
6.286400 2.544600
6.312200 2.284600
6.338000 2.390400
6.363800 2.541400
6.389600 2.453100
6.415500 2.384200
6.441300 2.616800
6.467100 2.963300
6.492900 3.151000
6.518700 3.167000
6.544500 2.991200
6.570300 2.586400
6.596100 2.170500
6.621900 2.051800
6.647700 2.258800
6.673500 2.387600
6.699300 2.111900
6.725100 1.749900
6.750900 1.718000
6.776800 1.813300
6.802600 1.653300
6.828400 1.379800
6.854200 1.352300
6.880000 1.463200
6.905800 1.401000
6.931600 1.310600
6.957400 1.477200
6.983200 1.787000
7.009000 2.008300
7.034800 2.128200
7.060600 2.221300
7.086400 2.271300
7.112200 2.264000
7.138100 2.218100
7.163900 2.119800
7.189700 2.128800
7.215500 2.449700
7.241300 2.882600
7.267100 2.941800
7.292900 2.591300
7.318700 2.481100
7.344500 2.995000
7.370300 3.544400
7.396100 3.412800
7.421900 2.828800
7.447700 2.444200
7.473600 2.285600
7.499400 2.006900
7.525200 1.620600
7.551000 1.342800
7.576800 1.209000
7.602600 1.255000
7.628400 1.665400
7.654200 2.417100
7.680000 3.081700
7.705800 3.335800
7.731600 3.317200
7.757400 3.300700
7.783200 3.382600
7.809000 3.573200
7.834900 3.955300
7.860700 4.442000
7.886500 4.626900
7.912300 4.267700
7.938100 3.681400
7.963900 3.424500
7.989700 3.650500
8.015500 4.070700
8.041300 4.452800
8.067100 4.709400
8.092900 4.810600
8.118700 4.844800
8.144500 4.812800
8.170400 4.470700
8.196200 3.743800
8.222000 3.000900
8.247800 2.643500
8.273600 2.827000
8.299400 3.389100
8.325200 3.758700
8.351000 3.479100
8.376800 2.986200
8.402600 3.000000
8.428400 3.450400
8.454200 3.969600
8.480000 4.610600
8.505800 5.255700
8.531700 5.381900
8.557500 5.006100
8.583300 4.733800
8.609100 4.871600
8.634900 5.357500
8.660700 6.172400
8.686500 7.052000
8.712300 7.262400
8.738100 6.403600
8.763900 5.113000
8.789700 4.394600
8.815500 4.365300
8.841300 4.400500
8.867200 4.289300
8.893000 4.528800
8.918800 5.498300
8.944600 6.670900
8.970400 7.273600
8.996200 7.450100
9.022000 7.519300
9.047800 7.122100
9.073600 6.297400
9.099400 5.856700
9.125200 6.198700
9.151000 6.752100
9.176800 6.811100
9.202600 6.304300
9.228500 5.482100
9.254300 4.754100
9.280100 4.656400
9.305900 5.202500
9.331700 5.820200
9.357500 5.996200
9.383300 5.641100
9.409100 5.085700
9.434900 4.837800
9.460700 5.079900
9.486500 5.395500
9.512300 5.327400
9.538100 4.914800
9.563900 4.359000
9.589800 3.768200
9.615600 3.266400
9.641400 3.043300
9.667200 3.236100
9.693000 3.664900
9.718800 3.898000
9.744600 3.694800
9.770400 3.403000
9.796200 3.483800
9.822000 3.913700
9.847800 4.492000
9.873600 5.004800
9.899400 5.152100
9.925300 4.951300
9.951100 4.761000
9.976900 4.675900
10.002700 4.626600
10.028500 4.657400
10.054300 4.721700
10.080100 4.726400
10.105900 4.497900
10.131700 4.043200
10.157500 3.770600
10.183300 3.788000
10.209100 3.764800
10.234900 3.481700
10.260700 2.887400
10.286600 2.276600
10.312400 2.192900
10.338200 2.643900
10.364000 3.097000
10.389800 3.306400
10.415600 3.365000
10.441400 3.229600
10.467200 2.855300
10.493000 2.452200
10.518800 2.240100
10.544600 2.180800
10.570400 2.129800
10.596200 2.101000
10.622100 2.123100
10.647900 1.968500
10.673700 1.570000
10.699500 1.356400
10.725300 1.710900
10.751100 2.449800
10.776900 3.027500
10.802700 3.151200
10.828500 2.965100
10.854300 2.612000
10.880100 2.091600
10.905900 1.541600
10.931700 1.155200
10.957500 0.924500
10.983400 0.906000
11.009200 1.347300
11.035000 2.226400
11.060800 3.104700
11.086600 3.493300
11.112400 3.248500
11.138200 2.663800
11.164000 2.114500
11.189800 1.817600
11.215600 1.840000
11.241400 1.971700
11.267200 1.958500
11.293000 1.920100
11.318900 2.037800
11.344700 2.088900
11.370500 1.877900
11.396300 1.712900
11.422100 1.844200
11.447900 2.092200
11.473700 2.179600
11.499500 1.988500
11.525300 1.767100
11.551100 1.789700
11.576900 1.863500
11.602700 1.801100
11.628500 1.787500
11.654300 1.828800
11.680200 1.687400
11.706000 1.591100
11.731800 1.981600
11.757600 2.582800
11.783400 2.626800
11.809200 1.987400
11.835000 1.375700
11.860800 1.396100
11.886600 1.881000
11.912400 2.142900
11.938200 1.911600
11.964000 1.606600
11.989800 1.504100
12.015600 1.503200
12.041500 1.611800
12.067300 1.816000
12.093100 1.911300
12.118900 1.930600
12.144700 2.089800
12.170500 2.272600
12.196300 2.355000
12.222100 2.554900
12.247900 2.900500
12.273700 3.044600
12.299500 2.893200
12.325300 2.730700
12.351100 2.611500
12.377000 2.412900
12.402800 2.237300
12.428600 2.237700
12.454400 2.257300
12.480200 1.960700
12.506000 1.368700
12.531800 0.900400
12.557600 0.834100
12.583400 1.070000
12.609200 1.358000
12.635000 1.595400
12.660800 1.854900
12.686600 2.057200
12.712400 1.916700
12.738300 1.451000
12.764100 1.128600
12.789900 1.225700
12.815700 1.587000
12.841500 1.975500
12.867300 2.171800
12.893100 2.077000
12.918900 1.887000
12.944700 1.790100
12.970500 1.616800
12.996300 1.203600
13.022100 0.787500
13.047900 0.629600
13.073800 0.679200
13.099600 0.775000
13.125400 0.843400
13.151200 0.869900
13.177000 0.920800
13.202800 1.133600
13.228600 1.482300
13.254400 1.712200
13.280200 1.758300
13.306000 1.946400
13.331800 2.355100
13.357600 2.545300
13.383400 2.301800
13.409200 1.987900
13.435100 2.041000
13.460900 2.538900
13.486700 3.154900
13.512500 3.309100
13.538300 2.703500
13.564100 1.847100
13.589900 1.413700
13.615700 1.403300
13.641500 1.514100
13.667300 1.662800
13.693100 1.927400
13.718900 2.343700
13.744700 2.801000
13.770600 2.973700
13.796400 2.571000
13.822200 1.930800
13.848000 1.668800
13.873800 1.868200
13.899600 2.223500
13.925400 2.489500
13.951200 2.675800
13.977000 2.924200
14.002800 3.121900
14.028600 2.959600
14.054400 2.413200
14.080200 1.888600
14.106000 1.839600
14.131900 2.367400
14.157700 3.117200
14.183500 3.543200
14.209300 3.553700
14.235100 3.539300
14.260900 3.661100
14.286700 3.833800
14.312500 4.073200
14.338300 4.378200
14.364100 4.561100
14.389900 4.448700
14.415700 4.162000
14.441500 4.032700
14.467300 4.262800
14.493200 4.576900
14.519000 4.679600
14.544800 4.844500
14.570600 5.242000
14.596400 5.516000
14.622200 5.443100
14.648000 5.106400
14.673800 4.745600
14.699600 4.588100
14.725400 4.614500
14.751200 4.830700
14.777000 5.303300
14.802800 5.734000
14.828700 5.698700
14.854500 5.136400
14.880300 4.356600
14.906100 3.868200
14.931900 3.968600
14.957700 4.494400
14.983500 5.016100
15.009300 5.283900
15.035100 5.386800
15.060900 5.302400
15.086700 4.917100
15.112500 4.519000
15.138300 4.515700
15.164100 4.850900
15.190000 5.102300
15.215800 5.036600
15.241600 4.705000
15.267400 4.393500
15.293200 4.455800
15.319000 4.567400
15.344800 4.155600
15.370600 3.596400
15.396400 3.539900
15.422200 3.882700
15.448000 4.254700
15.473800 4.490600
15.499600 4.738400
15.525500 5.204300
15.551300 5.486100
15.577100 5.125600
15.602900 4.487900
15.628700 4.050100
15.654500 3.786100
15.680300 3.626500
15.706100 3.543700
15.731900 3.385700
15.757700 3.191500
15.783500 3.225300
15.809300 3.567700
15.835100 4.024200
15.860900 4.361300
15.886800 4.408100
15.912600 4.020800
15.938400 3.299600
15.964200 2.675900
15.990000 2.494300
16.015800 2.633500
16.041600 2.702100
16.067400 2.552500
16.093200 2.304800
16.119000 2.107400
16.144800 2.102600
16.170600 2.367600
16.196400 2.786900
16.222300 3.108300
16.248100 3.133300
16.273900 2.800600
16.299700 2.420600
16.325500 2.646100
16.351300 3.661100
16.377100 4.708900
16.402900 5.025100
16.428700 4.612600
16.454500 3.833600
16.480300 3.116200
16.506100 2.806800
16.531900 2.888200
16.557700 3.148600
16.583600 3.483500
16.609400 3.687600
16.635200 3.519500
16.661000 3.301300
16.686800 3.574600
16.712600 4.288600
16.738400 4.938800
16.764200 5.203900
16.790000 5.090800
16.815800 4.743400
16.841600 4.369000
16.867400 4.185300
16.893200 4.379300
16.919000 4.872600
16.944900 5.142600
16.970700 4.831300
16.996500 4.304300
17.022300 4.126500
17.048100 4.352200
17.073900 4.673100
17.099700 4.723500
17.125500 4.348300
17.151300 3.976600
17.177100 3.992100
17.202900 4.088300
17.228700 3.826300
17.254500 3.443300
17.280400 3.479300
17.306200 3.760600
17.332000 3.776500
17.357800 3.694900
17.383600 3.960700
17.409400 4.395900
17.435200 4.484600
17.461000 4.189900
17.486800 3.889400
17.512600 3.715700
17.538400 3.668800
17.564200 4.053100
17.590000 4.865300
17.615800 5.463500
17.641700 5.544000
17.667500 5.344200
17.693300 4.908000
17.719100 4.228000
17.744900 3.699600
17.770700 3.821800
17.796500 4.554500
17.822300 5.102200
17.848100 4.806600
17.873900 4.084700
17.899700 3.776600
17.925500 4.001300
17.951300 4.209200
17.977200 4.171400
18.003000 4.152200
18.028800 4.171900
18.054600 4.072300
18.080400 3.917800
18.106200 3.821600
18.132000 3.786700
18.157800 3.750300
18.183600 3.759700
18.209400 3.995300
18.235200 4.285400
18.261000 4.099300
18.286800 3.438700
18.312600 2.852700
18.338500 2.616500
18.364300 2.703200
18.390100 3.036100
18.415900 3.425400
18.441700 3.746400
18.467500 4.008000
18.493300 3.989800
18.519100 3.412900
18.544900 2.651800
18.570700 2.518000
18.596500 3.252300
18.622300 4.205800
18.648100 4.622500
18.674000 4.561600
18.699800 4.401300
18.725600 4.033000
18.751400 3.545700
18.777200 3.417500
18.803000 3.549300
18.828800 3.415200
18.854600 3.120100
18.880400 3.215300
18.906200 3.634500
18.932000 3.752600
18.957800 3.292600
18.983600 2.658200
19.009400 2.281900
19.035300 2.193400
19.061100 2.357000
19.086900 2.794500
19.112700 3.373800
19.138500 3.677900
19.164300 3.460800
19.190100 3.167000
19.215900 3.191900
19.241700 3.263600
19.267500 3.174300
19.293300 3.140200
19.319100 3.251100
19.344900 3.259400
19.370700 3.117900
19.396600 3.220800
19.422400 3.613000
19.448200 3.757800
19.474000 3.584500
19.499800 3.638800
19.525600 4.007300
19.551400 4.261000
19.577200 4.269000
19.603000 4.291900
19.628800 4.351100
19.654600 4.169300
19.680400 3.783300
19.706200 3.549200
19.732100 3.563400
19.757900 3.689100
19.783700 4.151100
19.809500 5.131400
19.835300 6.004700
19.861100 6.039500
19.886900 5.297800
19.912700 4.352700
19.938500 3.647500
19.964300 3.258800
19.990100 3.061800
20.015900 3.037100
20.041700 3.372800
20.067500 4.174700
20.093400 5.093300
20.119200 5.325600
20.145000 4.524500
20.170800 3.555100
20.196600 3.450700
20.222400 4.050400
20.248200 4.439300
20.274000 4.311500
20.299800 4.065800
20.325600 4.125100
20.351400 4.793800
20.377200 5.877100
20.403000 6.520600
20.428900 6.235600
20.454700 5.412200
20.480500 4.670400
20.506300 4.350800
20.532100 4.467300
20.557900 4.730000
20.583700 4.838700
20.609500 4.906500
20.635300 4.983100
20.661100 4.839200
20.686900 4.640800
20.712700 4.752500
20.738500 5.008200
20.764300 4.980700
20.790200 4.827200
20.816000 5.091600
20.841800 5.698200
20.867600 6.006200
20.893400 5.619700
20.919200 4.703800
20.945000 3.987600
20.970800 4.204800
20.996600 5.254900
21.022400 6.280500
21.048200 6.423600
21.074000 5.544100
21.099800 4.511300
21.125700 4.409300
21.151500 5.213200
21.177300 5.907800
21.203100 5.967400
21.228900 5.830200
21.254700 5.761400
21.280500 5.369400
21.306300 4.667600
21.332100 4.365900
21.357900 4.684000
21.383700 4.947700
21.409500 4.673700
21.435300 4.223600
21.461100 4.104000
21.487000 4.370700
21.512800 4.882300
21.538600 5.470600
21.564400 5.799300
21.590200 5.728400
21.616000 5.549000
21.641800 5.508500
21.667600 5.689300
21.693400 5.949700
21.719200 5.974300
21.745000 5.701200
21.770800 5.348400
21.796600 5.156400
21.822400 5.159000
21.848300 5.191400
21.874100 5.116900
21.899900 4.983500
21.925700 4.837000
21.951500 4.630300
21.977300 4.477800
22.003100 4.666500
22.028900 5.305400
22.054700 6.201200
22.080500 7.065100
22.106300 7.567800
22.132100 7.528900
22.157900 7.028400
22.183800 6.166400
22.209600 5.268600
22.235400 4.803600
22.261200 4.759600
22.287000 4.739000
22.312800 4.583200
22.338600 4.530700
22.364400 4.708300
22.390200 4.986000
22.416000 5.334000
22.441800 5.634900
22.467600 5.548200
22.493400 5.055800
22.519200 4.749600
22.545100 5.133800
22.570900 5.917200
22.596700 6.385500
22.622500 6.229400
22.648300 5.730300
22.674100 5.186400
22.699900 4.664400
22.725700 4.309200
22.751500 4.321200
22.777300 4.616100
22.803100 4.911000
22.828900 5.199100
22.854700 5.539800
22.880600 5.650100
22.906400 5.303900
22.932200 4.742700
22.958000 4.409500
22.983800 4.489800
23.009600 4.852800
23.035400 5.085600
23.061200 4.831000
23.087000 4.461100
23.112800 4.471500
23.138600 4.549600
23.164400 4.419200
23.190200 4.326300
23.216000 4.321400
23.241900 4.216600
23.267700 3.827900
23.293500 3.239600
23.319300 2.998200
23.345100 3.542200
23.370900 4.628700
23.396700 5.699700
23.422500 6.683300
23.448300 7.658300
23.474100 8.053100
23.499900 7.523700
23.525700 6.750100
23.551500 6.396000
23.577400 6.369300
23.603200 6.192700
23.629000 5.753900
23.654800 5.672600
23.680600 6.339100
23.706400 7.041400
23.732200 6.832100
23.758000 5.697400
23.783800 4.367000
23.809600 3.641900
23.835400 3.859100
23.861200 4.592900
23.887000 5.263100
23.912800 5.651900
23.938700 5.787700
23.964500 5.737400
23.990300 5.450400
24.016100 5.020700
24.041900 4.612900
24.067700 4.296100
24.093500 4.397700
24.119300 5.082500
24.145100 5.880900
24.170900 6.219100
24.196700 5.950500
24.222500 5.311200
24.248300 4.509000
24.274100 3.791500
24.300000 3.676500
24.325800 4.291600
24.351600 4.833500
24.377400 4.710000
24.403200 4.388900
24.429000 4.403100
24.454800 4.707200
24.480600 4.928900
24.506400 4.730900
24.532200 4.190800
24.558000 3.662400
24.583800 3.401700
24.609600 3.463400
24.635500 3.687800
24.661300 3.757300
24.687100 3.505800
24.712900 3.218700
24.738700 3.373500
24.764500 3.847100
24.790300 3.836800
24.816100 3.055700
24.841900 2.232600
24.867700 2.060300
24.893500 2.308000
24.919300 2.311500
24.945100 1.974700
24.970900 1.761600
24.996800 1.925300
25.022600 2.149300
25.048400 1.967100
25.074200 1.457600
25.100000 1.106300
25.125800 1.026100
25.151600 1.032300
25.177400 1.159200
25.203200 1.474900
25.229000 1.741700
25.254800 1.653100
25.280600 1.310000
25.306400 1.063700
25.332300 1.000500
25.358100 1.005800
25.383900 1.036000
25.409700 1.051500
25.435500 0.996700
25.461300 0.867000
25.487100 0.677300
25.512900 0.500600
25.538700 0.428400
25.564500 0.445800
25.590300 0.435000
25.616100 0.326700
25.641900 0.213900
25.667700 0.189300
25.693600 0.202400
25.719400 0.211100
25.745200 0.270500
25.771000 0.353300
25.796800 0.334000
25.822600 0.239200
25.848400 0.234400
25.874200 0.369600
25.900000 0.536500
25.925800 0.606400
25.951600 0.525700
25.977400 0.357200
26.003200 0.236700
26.029100 0.230900
26.054900 0.268900
26.080700 0.249600
26.106500 0.165100
26.132300 0.075900
26.158100 0.023600
26.183900 0.004800
26.209700 0.000600
26.235500 0.000000
26.261300 0.000000
26.287100 0.000000
26.312900 0.000000
26.338700 0.000000
26.364500 0.000000
26.390400 0.000000
26.416200 0.000000
26.442000 0.000300
26.467800 0.002800
26.493600 0.014100
26.519400 0.043100
26.545200 0.080800
26.571000 0.098000
26.596800 0.092400
26.622600 0.090000
26.648400 0.089000
26.674200 0.073400
26.700000 0.056000
26.725800 0.050900
26.751700 0.044400
26.777500 0.026900
26.803300 0.010100
26.829100 0.002300
26.854900 0.000300
26.880700 0.000000
26.906500 0.000000
26.932300 0.000000
26.958100 0.000000
26.983900 0.000000
27.009700 0.000000
27.035500 0.000000
27.061300 0.000000
27.087200 0.000000
27.113000 0.000000
27.138800 0.000000
27.164600 0.000000
27.190400 0.000000
27.216200 0.000000
27.242000 0.000000
27.267800 0.000000
27.293600 0.000000
27.319400 0.000000
27.345200 0.000000
27.371000 0.000000
27.396800 0.000000
27.422600 0.000000
27.448500 0.000000
27.474300 0.000000
27.500100 0.000000
27.525900 0.000000
27.551700 0.000000
27.577500 0.000000
27.603300 0.000000
27.629100 0.000000
27.654900 0.000000
27.680700 0.000000
27.706500 0.000000
27.732300 0.000000
27.758100 0.000000
27.784000 0.000000
27.809800 0.000000
27.835600 0.000000
27.861400 0.000000
27.887200 0.000000
27.913000 0.000000
27.938800 0.000000
27.964600 0.000000
27.990400 0.000000
28.016200 0.000000
28.042000 0.000000
28.067800 0.000000
28.093600 0.000000
28.119400 0.000000
28.145300 0.000000
28.171100 0.000000
28.196900 0.000000
28.222700 0.000000
28.248500 0.000000
28.274300 0.000000
28.300100 0.000000
28.325900 0.000000
28.351700 0.000000
28.377500 0.000000
28.403300 0.000000
28.429100 0.000000
28.454900 0.000000
28.480700 0.000000
28.506600 0.000000
28.532400 0.000000
28.558200 0.000000
28.584000 0.000000
28.609800 0.000000
28.635600 0.000000
28.661400 0.000000
28.687200 0.000000
28.713000 0.000000
28.738800 0.000000
28.764600 0.000000
28.790400 0.000000
28.816200 0.000000
28.842100 0.000000
28.867900 0.000000
28.893700 0.000000
28.919500 0.000000
28.945300 0.000000
28.971100 0.000000
28.996900 0.000000
29.022700 0.000000
29.048500 0.000000
29.074300 0.000000
e
