set title 'mp-1184664 - Density of States'
set xlabel 'Energy (eV)'
set ylabel 'DOS (states/eV)'
set grid
set xrange [-10:10]
set yrange [0:10.382]
set xzeroaxis lt -1
set terminal png size 800,600
set output 'mp-1184664_dos_gnuplot.png'
plot '-' using 1:2 with lines title 'DOS'
-27.494900 0.000000
-27.468900 0.000000
-27.443000 0.000000
-27.417000 0.000000
-27.391100 0.000000
-27.365100 0.000000
-27.339200 0.000000
-27.313200 0.000000
-27.287200 0.000000
-27.261300 0.000000
-27.235300 0.000000
-27.209400 0.000000
-27.183400 0.000000
-27.157400 0.000000
-27.131500 0.000000
-27.105500 0.000000
-27.079600 0.000000
-27.053600 0.000000
-27.027600 0.000000
-27.001700 0.000000
-26.975700 0.000000
-26.949800 0.000000
-26.923800 0.000000
-26.897800 0.000000
-26.871900 0.000000
-26.845900 0.000000
-26.820000 0.000000
-26.794000 0.000000
-26.768100 0.000000
-26.742100 0.000000
-26.716100 0.000000
-26.690200 0.000000
-26.664200 0.000000
-26.638300 0.000000
-26.612300 0.000000
-26.586300 0.000000
-26.560400 0.000000
-26.534400 0.000000
-26.508500 0.000000
-26.482500 0.000000
-26.456500 0.000000
-26.430600 0.000000
-26.404600 0.000000
-26.378700 0.000000
-26.352700 0.000000
-26.326800 0.000000
-26.300800 0.000000
-26.274800 0.000000
-26.248900 0.000000
-26.222900 0.000000
-26.197000 0.000000
-26.171000 0.000000
-26.145000 0.000000
-26.119100 0.000000
-26.093100 0.000000
-26.067200 0.000000
-26.041200 0.000000
-26.015200 0.000000
-25.989300 0.000000
-25.963300 0.000000
-25.937400 0.000000
-25.911400 0.000000
-25.885400 0.000000
-25.859500 0.000000
-25.833500 0.000000
-25.807600 0.000000
-25.781600 0.000000
-25.755700 0.000000
-25.729700 0.000000
-25.703700 0.000000
-25.677800 0.000000
-25.651800 0.000000
-25.625900 0.000000
-25.599900 0.000000
-25.573900 0.000000
-25.548000 0.000000
-25.522000 0.000000
-25.496100 0.000000
-25.470100 0.000000
-25.444100 0.000000
-25.418200 0.000000
-25.392200 0.000000
-25.366300 0.000000
-25.340300 0.000000
-25.314300 0.000000
-25.288400 0.000000
-25.262400 0.000000
-25.236500 0.000000
-25.210500 0.000000
-25.184600 0.000000
-25.158600 0.000000
-25.132600 7.473400
-25.106700 20.277600
-25.080700 39.251800
-25.054800 24.671700
-25.028800 35.933600
-25.002800 49.676800
-24.976900 17.452000
-24.950900 10.267500
-24.925000 10.157000
-24.899000 9.505500
-24.873000 9.353100
-24.847100 10.327600
-24.821100 10.590500
-24.795200 10.914700
-24.769200 12.089500
-24.743300 14.430900
-24.717300 19.225900
-24.691300 15.461800
-24.665400 17.412700
-24.639400 31.396200
-24.613500 20.436900
-24.587500 38.336500
-24.561500 27.185700
-24.535600 11.839800
-24.509600 8.399500
-24.483700 15.974200
-24.457700 19.816300
-24.431700 14.809000
-24.405800 9.429300
-24.379800 18.527600
-24.353900 11.965700
-24.327900 11.830300
-24.301900 9.917600
-24.276000 9.900400
-24.250000 10.235500
-24.224100 11.199800
-24.198100 13.159700
-24.172200 19.865800
-24.146200 17.080100
-24.120200 10.010600
-24.094300 0.000000
-24.068300 0.000000
-24.042400 0.000000
-24.016400 0.000000
-23.990400 0.000000
-23.964500 0.000000
-23.938500 0.000000
-23.912600 0.000000
-23.886600 0.000000
-23.860600 0.000000
-23.834700 0.000000
-23.808700 0.000000
-23.782800 0.000000
-23.756800 0.000000
-23.730800 0.000000
-23.704900 0.000000
-23.678900 0.000000
-23.653000 0.000000
-23.627000 0.000000
-23.601100 0.000000
-23.575100 0.000000
-23.549100 0.000000
-23.523200 0.000000
-23.497200 0.000000
-23.471300 0.000000
-23.445300 0.000000
-23.419300 0.000000
-23.393400 0.000000
-23.367400 0.000000
-23.341500 0.000000
-23.315500 0.000000
-23.289500 0.000000
-23.263600 0.000000
-23.237600 0.000000
-23.211700 0.000000
-23.185700 0.000000
-23.159800 0.000000
-23.133800 0.000000
-23.107800 0.000000
-23.081900 0.000000
-23.055900 0.000000
-23.030000 0.000000
-23.004000 0.000000
-22.978000 0.000000
-22.952100 0.000000
-22.926100 0.000000
-22.900200 0.000000
-22.874200 0.000000
-22.848200 0.000000
-22.822300 0.000000
-22.796300 0.000000
-22.770400 0.000000
-22.744400 0.000000
-22.718400 0.000000
-22.692500 0.000000
-22.666500 0.000000
-22.640600 0.000000
-22.614600 0.000000
-22.588700 0.000000
-22.562700 0.000000
-22.536700 0.000000
-22.510800 0.000000
-22.484800 0.000000
-22.458900 0.000000
-22.432900 0.000000
-22.406900 0.000000
-22.381000 0.000000
-22.355000 0.000000
-22.329100 0.000000
-22.303100 0.000000
-22.277100 0.000000
-22.251200 0.000000
-22.225200 0.000000
-22.199300 0.000000
-22.173300 0.000000
-22.147400 0.000000
-22.121400 0.000000
-22.095400 0.000000
-22.069500 0.000000
-22.043500 0.000000
-22.017600 0.000000
-21.991600 0.000000
-21.965600 0.000000
-21.939700 0.000000
-21.913700 0.000000
-21.887800 0.000000
-21.861800 0.000000
-21.835800 0.000000
-21.809900 0.000000
-21.783900 0.000000
-21.758000 0.000000
-21.732000 0.000000
-21.706000 0.000000
-21.680100 0.000000
-21.654100 0.000000
-21.628200 0.000000
-21.602200 0.000000
-21.576300 0.000000
-21.550300 0.000000
-21.524300 0.000000
-21.498400 0.000000
-21.472400 0.000000
-21.446500 0.000000
-21.420500 0.000000
-21.394500 0.000000
-21.368600 0.000000
-21.342600 0.000000
-21.316700 0.000000
-21.290700 0.000000
-21.264700 0.000000
-21.238800 0.000000
-21.212800 0.000000
-21.186900 0.000000
-21.160900 0.000000
-21.134900 0.000000
-21.109000 0.000000
-21.083000 0.000000
-21.057100 0.000000
-21.031100 0.000000
-21.005200 0.000000
-20.979200 0.000000
-20.953200 0.000000
-20.927300 0.000000
-20.901300 0.000000
-20.875400 0.000000
-20.849400 0.000000
-20.823400 0.000000
-20.797500 0.000000
-20.771500 0.000000
-20.745600 0.000000
-20.719600 0.000000
-20.693600 0.000000
-20.667700 0.000000
-20.641700 0.000000
-20.615800 0.000000
-20.589800 0.000000
-20.563900 0.000000
-20.537900 0.000000
-20.511900 0.000000
-20.486000 0.000000
-20.460000 0.000000
-20.434100 0.000000
-20.408100 0.000000
-20.382100 0.000000
-20.356200 0.000000
-20.330200 0.000000
-20.304300 0.000000
-20.278300 0.000000
-20.252300 0.000000
-20.226400 0.000000
-20.200400 0.000000
-20.174500 0.000000
-20.148500 0.000000
-20.122500 0.000000
-20.096600 0.000000
-20.070600 0.000000
-20.044700 0.000000
-20.018700 0.000000
-19.992800 0.000000
-19.966800 0.000000
-19.940800 0.000000
-19.914900 0.000000
-19.888900 0.000000
-19.863000 0.000000
-19.837000 0.000000
-19.811000 0.000000
-19.785100 0.000000
-19.759100 0.000000
-19.733200 0.000000
-19.707200 0.000000
-19.681200 0.000000
-19.655300 0.000000
-19.629300 0.000000
-19.603400 0.000000
-19.577400 0.000000
-19.551400 0.000000
-19.525500 0.000000
-19.499500 0.000000
-19.473600 0.000000
-19.447600 0.000000
-19.421700 0.000000
-19.395700 0.000000
-19.369700 0.000000
-19.343800 0.000000
-19.317800 0.000000
-19.291900 0.000000
-19.265900 0.000000
-19.239900 0.000000
-19.214000 0.000000
-19.188000 0.000000
-19.162100 0.000000
-19.136100 0.000000
-19.110100 0.000000
-19.084200 0.000000
-19.058200 0.000000
-19.032300 0.000000
-19.006300 0.000000
-18.980400 0.000000
-18.954400 0.000000
-18.928400 0.000000
-18.902500 0.000000
-18.876500 0.000000
-18.850600 0.000000
-18.824600 0.000000
-18.798600 0.000000
-18.772700 0.000000
-18.746700 0.000000
-18.720800 0.000000
-18.694800 0.000000
-18.668800 0.000000
-18.642900 0.000000
-18.616900 0.000000
-18.591000 0.000000
-18.565000 0.000000
-18.539000 0.000000
-18.513100 0.000000
-18.487100 0.000000
-18.461200 0.000000
-18.435200 0.000000
-18.409300 0.000000
-18.383300 0.000000
-18.357300 0.000000
-18.331400 0.000000
-18.305400 0.000000
-18.279500 0.000000
-18.253500 0.000000
-18.227500 0.000000
-18.201600 0.000000
-18.175600 0.000000
-18.149700 0.000000
-18.123700 0.000000
-18.097700 0.000000
-18.071800 0.000000
-18.045800 0.000000
-18.019900 0.000000
-17.993900 0.000000
-17.967900 0.000000
-17.942000 0.000000
-17.916000 0.000000
-17.890100 539.520600
-17.864100 0.000000
-17.838200 0.000000
-17.812200 0.000000
-17.786200 0.000000
-17.760300 0.000000
-17.734300 0.000000
-17.708400 0.000000
-17.682400 0.000000
-17.656400 0.000000
-17.630500 0.000000
-17.604500 0.000000
-17.578600 0.000000
-17.552600 0.000000
-17.526600 0.000000
-17.500700 0.000000
-17.474700 0.000000
-17.448800 0.000000
-17.422800 0.000000
-17.396900 0.000000
-17.370900 0.000000
-17.344900 0.000000
-17.319000 0.000000
-17.293000 0.000000
-17.267100 0.000000
-17.241100 0.000000
-17.215100 0.000000
-17.189200 0.000000
-17.163200 0.000000
-17.137300 0.000000
-17.111300 0.000000
-17.085300 0.000000
-17.059400 0.000000
-17.033400 0.000000
-17.007500 0.000000
-16.981500 0.000000
-16.955500 0.000000
-16.929600 0.000000
-16.903600 0.000000
-16.877700 0.000000
-16.851700 0.000000
-16.825800 0.000000
-16.799800 0.000000
-16.773800 0.000000
-16.747900 0.000000
-16.721900 0.000000
-16.696000 0.000000
-16.670000 0.000000
-16.644000 0.000000
-16.618100 0.000000
-16.592100 0.000000
-16.566200 0.000000
-16.540200 0.000000
-16.514200 0.000000
-16.488300 0.000000
-16.462300 0.000000
-16.436400 0.000000
-16.410400 0.000000
-16.384400 0.000000
-16.358500 0.000000
-16.332500 0.000000
-16.306600 0.000000
-16.280600 0.000000
-16.254700 0.000000
-16.228700 0.000000
-16.202700 0.000000
-16.176800 0.000000
-16.150800 0.000000
-16.124900 0.000000
-16.098900 0.000000
-16.072900 0.000000
-16.047000 0.000000
-16.021000 0.000000
-15.995100 0.000000
-15.969100 0.000000
-15.943100 0.000000
-15.917200 0.000000
-15.891200 0.000000
-15.865300 0.000000
-15.839300 0.000000
-15.813400 0.000000
-15.787400 0.000000
-15.761400 0.000000
-15.735500 0.000000
-15.709500 0.000000
-15.683600 0.000000
-15.657600 0.000000
-15.631600 0.000000
-15.605700 0.000000
-15.579700 0.000000
-15.553800 0.000000
-15.527800 0.000000
-15.501800 0.000000
-15.475900 0.000000
-15.449900 0.000000
-15.424000 0.000000
-15.398000 0.000000
-15.372000 0.000000
-15.346100 0.000000
-15.320100 0.000000
-15.294200 0.000000
-15.268200 0.000000
-15.242300 0.000000
-15.216300 0.000000
-15.190300 0.000000
-15.164400 0.000000
-15.138400 0.000000
-15.112500 0.000000
-15.086500 0.000000
-15.060500 0.000000
-15.034600 0.000000
-15.008600 0.000000
-14.982700 0.000000
-14.956700 0.000000
-14.930700 0.000000
-14.904800 0.000000
-14.878800 0.000000
-14.852900 0.000000
-14.826900 0.000000
-14.800900 0.000000
-14.775000 0.000000
-14.749000 0.000000
-14.723100 0.000000
-14.697100 0.000000
-14.671200 0.000000
-14.645200 0.000000
-14.619200 0.000000
-14.593300 0.000000
-14.567300 0.000000
-14.541400 0.000000
-14.515400 0.000000
-14.489400 0.000000
-14.463500 0.000000
-14.437500 0.000000
-14.411600 0.000000
-14.385600 0.000000
-14.359600 0.000000
-14.333700 0.000000
-14.307700 0.000000
-14.281800 0.000000
-14.255800 0.000000
-14.229900 0.000000
-14.203900 0.000000
-14.177900 0.000000
-14.152000 0.000000
-14.126000 0.000000
-14.100100 0.000000
-14.074100 0.000000
-14.048100 0.000000
-14.022200 0.000000
-13.996200 0.000000
-13.970300 0.000000
-13.944300 0.000000
-13.918300 0.000000
-13.892400 0.000000
-13.866400 0.000000
-13.840500 0.000000
-13.814500 0.000000
-13.788500 0.000000
-13.762600 0.000000
-13.736600 0.000000
-13.710700 0.000000
-13.684700 0.000000
-13.658800 0.000000
-13.632800 0.000000
-13.606800 0.000000
-13.580900 0.000000
-13.554900 0.000000
-13.529000 0.000000
-13.503000 0.000000
-13.477000 0.000000
-13.451100 0.000000
-13.425100 0.000000
-13.399200 0.000000
-13.373200 0.000000
-13.347200 0.000000
-13.321300 0.000000
-13.295300 0.000000
-13.269400 0.000000
-13.243400 0.000000
-13.217500 0.000000
-13.191500 0.000000
-13.165500 0.000000
-13.139600 0.000000
-13.113600 0.000000
-13.087700 0.000000
-13.061700 0.000000
-13.035700 0.000000
-13.009800 0.000000
-12.983800 0.000000
-12.957900 0.000000
-12.931900 0.000000
-12.905900 0.000000
-12.880000 0.000000
-12.854000 0.000000
-12.828100 0.000000
-12.802100 0.000000
-12.776100 0.000000
-12.750200 0.000000
-12.724200 0.000000
-12.698300 0.000000
-12.672300 0.000000
-12.646400 0.000000
-12.620400 0.000000
-12.594400 0.000000
-12.568500 0.000000
-12.542500 0.000000
-12.516600 0.000000
-12.490600 0.000000
-12.464600 0.000000
-12.438700 0.000000
-12.412700 0.000000
-12.386800 0.000000
-12.360800 0.000000
-12.334800 0.000000
-12.308900 0.000000
-12.282900 0.000000
-12.257000 0.000000
-12.231000 0.000000
-12.205000 0.000000
-12.179100 0.000000
-12.153100 0.000000
-12.127200 0.000000
-12.101200 0.000000
-12.075300 0.000000
-12.049300 0.000000
-12.023300 0.000000
-11.997400 0.000000
-11.971400 0.000000
-11.945500 0.000000
-11.919500 0.000000
-11.893500 0.000000
-11.867600 0.000000
-11.841600 0.000000
-11.815700 0.000000
-11.789700 0.000000
-11.763700 0.000000
-11.737800 0.000000
-11.711800 0.000000
-11.685900 0.000000
-11.659900 0.000000
-11.634000 0.000000
-11.608000 0.000000
-11.582000 0.000000
-11.556100 0.000000
-11.530100 0.000000
-11.504200 0.000000
-11.478200 0.000000
-11.452200 0.000000
-11.426300 0.000000
-11.400300 0.000000
-11.374400 0.000000
-11.348400 0.000000
-11.322400 0.000000
-11.296500 0.000000
-11.270500 0.000000
-11.244600 0.000000
-11.218600 0.000000
-11.192600 0.000000
-11.166700 0.000000
-11.140700 0.000000
-11.114800 0.000000
-11.088800 0.000000
-11.062900 0.000000
-11.036900 0.000000
-11.010900 0.000000
-10.985000 0.000000
-10.959000 0.000000
-10.933100 0.000000
-10.907100 0.000000
-10.881100 0.000000
-10.855200 0.000000
-10.829200 0.000000
-10.803300 0.000000
-10.777300 0.000000
-10.751300 0.000000
-10.725400 0.000000
-10.699400 0.000000
-10.673500 0.000000
-10.647500 0.000000
-10.621500 0.000000
-10.595600 0.000000
-10.569600 0.000000
-10.543700 0.000000
-10.517700 0.000000
-10.491800 0.000000
-10.465800 0.000000
-10.439800 0.000000
-10.413900 0.000000
-10.387900 0.000000
-10.362000 0.000000
-10.336000 0.000000
-10.310000 0.000000
-10.284100 0.000000
-10.258100 0.000000
-10.232200 0.000000
-10.206200 0.000000
-10.180200 0.000000
-10.154300 0.000000
-10.128300 0.000000
-10.102400 0.000000
-10.076400 0.000000
-10.050500 0.000000
-10.024500 0.000000
-9.998500 0.000000
-9.972600 0.000000
-9.946600 0.000000
-9.920700 0.000000
-9.894700 0.000000
-9.868700 0.000000
-9.842800 0.000000
-9.816800 0.000000
-9.790900 0.000000
-9.764900 0.000000
-9.738900 0.000000
-9.713000 0.000000
-9.687000 0.000000
-9.661100 0.000000
-9.635100 0.000000
-9.609100 0.000000
-9.583200 0.000000
-9.557200 0.000000
-9.531300 0.000000
-9.505300 0.000000
-9.479400 0.000000
-9.453400 0.000000
-9.427400 0.000000
-9.401500 0.000000
-9.375500 0.000000
-9.349600 0.000000
-9.323600 0.000000
-9.297600 0.000000
-9.271700 0.000000
-9.245700 0.000000
-9.219800 0.000000
-9.193800 0.000000
-9.167800 0.000000
-9.141900 0.000000
-9.115900 0.000000
-9.090000 0.000000
-9.064000 0.000000
-9.038000 0.000000
-9.012100 0.000000
-8.986100 0.000000
-8.960200 0.000000
-8.934200 0.000000
-8.908300 0.000000
-8.882300 0.000000
-8.856300 0.000000
-8.830400 0.000000
-8.804400 0.000000
-8.778500 0.000000
-8.752500 0.000000
-8.726500 0.000000
-8.700600 0.000000
-8.674600 0.000000
-8.648700 0.000000
-8.622700 0.000000
-8.596700 0.000000
-8.570800 0.000000
-8.544800 0.000000
-8.518900 0.000000
-8.492900 0.000000
-8.467000 0.000000
-8.441000 0.000000
-8.415000 0.000000
-8.389100 0.000000
-8.363100 0.000000
-8.337200 0.000000
-8.311200 0.000000
-8.285200 0.000000
-8.259300 0.000000
-8.233300 0.000000
-8.207400 0.000000
-8.181400 0.000000
-8.155400 0.000000
-8.129500 0.000000
-8.103500 0.000000
-8.077600 0.000000
-8.051600 0.000000
-8.025600 0.000000
-7.999700 0.000000
-7.973700 0.000000
-7.947800 0.000000
-7.921800 0.000000
-7.895900 0.000000
-7.869900 0.000000
-7.843900 0.000000
-7.818000 0.000000
-7.792000 0.000000
-7.766100 0.000000
-7.740100 0.000000
-7.714100 0.000000
-7.688200 0.000000
-7.662200 0.000000
-7.636300 0.000000
-7.610300 0.000000
-7.584300 0.000000
-7.558400 0.000000
-7.532400 0.000000
-7.506500 0.000000
-7.480500 0.000000
-7.454500 0.000000
-7.428600 0.000000
-7.402600 0.000000
-7.376700 0.000000
-7.350700 0.000000
-7.324800 0.000000
-7.298800 0.000000
-7.272800 0.000000
-7.246900 0.000000
-7.220900 0.000000
-7.195000 0.000000
-7.169000 0.000000
-7.143000 0.000000
-7.117100 0.000000
-7.091100 0.000000
-7.065200 0.000000
-7.039200 0.000000
-7.013200 0.000000
-6.987300 0.000000
-6.961300 0.000000
-6.935400 0.000000
-6.909400 0.000000
-6.883500 0.000000
-6.857500 0.000000
-6.831500 0.000000
-6.805600 0.000000
-6.779600 0.000000
-6.753700 0.000000
-6.727700 0.000000
-6.701700 0.000000
-6.675800 0.000000
-6.649800 0.000000
-6.623900 0.000000
-6.597900 0.000000
-6.571900 0.000000
-6.546000 0.000000
-6.520000 0.000000
-6.494100 0.000000
-6.468100 0.000000
-6.442100 0.000000
-6.416200 0.000000
-6.390200 0.000000
-6.364300 0.000000
-6.338300 0.000000
-6.312400 0.000000
-6.286400 0.000000
-6.260400 0.000000
-6.234500 0.000000
-6.208500 0.000000
-6.182600 0.000000
-6.156600 0.000000
-6.130600 0.000000
-6.104700 0.000000
-6.078700 0.000000
-6.052800 0.000000
-6.026800 0.000000
-6.000800 0.000000
-5.974900 0.000000
-5.948900 0.000000
-5.923000 0.000000
-5.897000 0.000000
-5.871000 0.000000
-5.845100 0.000000
-5.819100 0.000000
-5.793200 0.000000
-5.767200 0.000000
-5.741300 0.000000
-5.715300 0.000000
-5.689300 0.000000
-5.663400 0.000000
-5.637400 0.000000
-5.611500 0.000000
-5.585500 0.000000
-5.559500 0.000000
-5.533600 0.000000
-5.507600 0.000000
-5.481700 0.000000
-5.455700 0.000000
-5.429700 0.000000
-5.403800 0.000000
-5.377800 0.000000
-5.351900 0.000000
-5.325900 0.000000
-5.300000 0.000000
-5.274000 0.000000
-5.248000 0.000000
-5.222100 0.000000
-5.196100 0.000000
-5.170200 0.000000
-5.144200 0.000000
-5.118200 0.000000
-5.092300 0.000000
-5.066300 0.000000
-5.040400 0.000000
-5.014400 0.000000
-4.988400 0.000000
-4.962500 0.000000
-4.936500 0.000000
-4.910600 0.000000
-4.884600 0.000000
-4.858600 0.000000
-4.832700 0.000000
-4.806700 0.000000
-4.780800 0.000000
-4.754800 0.000000
-4.728900 0.000000
-4.702900 0.000000
-4.676900 0.000000
-4.651000 0.000000
-4.625000 0.000000
-4.599100 0.000000
-4.573100 0.000000
-4.547100 0.000000
-4.521200 0.000000
-4.495200 0.000000
-4.469300 0.004900
-4.443300 0.034700
-4.417300 0.088000
-4.391400 0.148100
-4.365400 0.165200
-4.339500 0.182200
-4.313500 0.200200
-4.287500 0.221600
-4.261600 0.234700
-4.235600 0.257900
-4.209700 0.282300
-4.183700 0.307600
-4.157800 0.330200
-4.131800 0.345200
-4.105800 0.356600
-4.079900 0.376200
-4.053900 0.394900
-4.028000 0.413600
-4.002000 0.432500
-3.976000 0.452000
-3.950100 0.472300
-3.924100 0.493200
-3.898200 0.515100
-3.872200 0.540400
-3.846200 0.568900
-3.820300 0.600000
-3.794300 0.628000
-3.768400 0.655600
-3.742400 0.684100
-3.716500 0.714400
-3.690500 0.746100
-3.664500 0.780100
-3.638600 0.825500
-3.612600 0.916000
-3.586700 0.991000
-3.560700 1.024200
-3.534700 1.049500
-3.508800 1.052500
-3.482800 1.084600
-3.456900 1.118600
-3.430900 1.153900
-3.404900 1.174100
-3.379000 1.202300
-3.353000 1.245400
-3.327100 1.296900
-3.301100 1.353100
-3.275100 1.413800
-3.249200 1.479500
-3.223200 1.550300
-3.197300 1.626700
-3.171300 1.710900
-3.145400 1.816500
-3.119400 1.952900
-3.093400 2.106800
-3.067500 2.287600
-3.041500 2.604500
-3.015600 3.095500
-2.989600 4.089800
-2.963600 5.762900
-2.937700 6.738500
-2.911700 9.438000
-2.885800 0.000000
-2.859800 0.000000
-2.833800 0.000000
-2.807900 0.000000
-2.781900 0.000000
-2.756000 0.000000
-2.730000 0.000000
-2.704100 0.000000
-2.678100 0.000000
-2.652100 0.000000
-2.626200 0.000000
-2.600200 0.000000
-2.574300 0.000000
-2.548300 0.000000
-2.522300 0.000000
-2.496400 0.000000
-2.470400 0.000000
-2.444500 0.000000
-2.418500 0.000000
-2.392500 0.000000
-2.366600 0.000000
-2.340600 0.000000
-2.314700 0.000000
-2.288700 0.000000
-2.262700 0.000000
-2.236800 0.000000
-2.210800 0.000000
-2.184900 0.000000
-2.158900 0.000000
-2.133000 0.000000
-2.107000 0.000000
-2.081000 0.000000
-2.055100 0.000000
-2.029100 0.000000
-2.003200 0.000000
-1.977200 0.000000
-1.951200 0.000000
-1.925300 0.000000
-1.899300 0.000000
-1.873400 0.000000
-1.847400 0.000000
-1.821400 0.000000
-1.795500 0.000000
-1.769500 0.000000
-1.743600 0.000000
-1.717600 0.000000
-1.691600 0.000000
-1.665700 0.000000
-1.639700 0.000000
-1.613800 0.000000
-1.587800 0.000000
-1.561900 0.000000
-1.535900 0.000000
-1.509900 0.000000
-1.484000 0.000000
-1.458000 0.000000
-1.432100 0.000000
-1.406100 0.000000
-1.380100 0.000000
-1.354200 0.000000
-1.328200 0.000000
-1.302300 0.000000
-1.276300 0.000000
-1.250300 0.000000
-1.224400 0.000000
-1.198400 0.000000
-1.172500 0.000000
-1.146500 0.000000
-1.120600 0.000000
-1.094600 0.000000
-1.068600 0.000000
-1.042700 0.000000
-1.016700 0.000000
-0.990800 0.000000
-0.964800 0.000000
-0.938800 0.000000
-0.912900 0.000000
-0.886900 0.000000
-0.861000 0.000000
-0.835000 0.000000
-0.809000 0.000000
-0.783100 0.000000
-0.757100 0.000000
-0.731200 0.000000
-0.705200 0.000000
-0.679200 0.000000
-0.653300 0.000000
-0.627300 0.000000
-0.601400 0.000000
-0.575400 0.000000
-0.549500 0.000000
-0.523500 0.000000
-0.497500 0.000000
-0.471600 0.000000
-0.445600 0.000000
-0.419700 0.000000
-0.393700 0.000000
-0.367700 0.000000
-0.341800 0.000000
-0.315800 0.000000
-0.289900 0.000000
-0.263900 0.000000
-0.237900 0.000000
-0.212000 0.000000
-0.186000 0.000000
-0.160100 0.006100
-0.134100 0.038400
-0.108100 0.059100
-0.082200 0.088100
-0.056200 0.112300
-0.030300 0.130700
-0.004300 0.143300
0.021600 0.141500
0.047600 0.154700
0.073600 0.169000
0.099500 0.183900
0.125500 0.199600
0.151400 0.216000
0.177400 0.228500
0.203400 0.236800
0.229300 0.457300
0.255300 0.608200
0.281200 0.770200
0.307200 0.846600
0.333200 0.946500
0.359100 1.076600
0.385100 1.293000
0.411000 1.297000
0.437000 1.232500
0.462900 1.302900
0.488900 1.374600
0.514900 1.447500
0.540800 1.509700
0.566800 1.616000
0.592700 1.864500
0.618700 2.045500
0.644700 2.164600
0.670600 2.245400
0.696600 2.588700
0.722500 2.443900
0.748500 2.391400
0.774500 2.325700
0.800400 2.235600
0.826400 2.154100
0.852300 2.127400
0.878300 2.090100
0.904300 2.074300
0.930200 2.069200
0.956200 2.025600
0.982100 1.955700
1.008100 1.853800
1.034000 1.628700
1.060000 1.491100
1.086000 1.425000
1.111900 1.329100
1.137900 1.276500
1.163800 1.234400
1.189800 1.199200
1.215800 1.168100
1.241700 1.143000
1.267700 1.139900
1.293600 1.163800
1.319600 1.172600
1.345600 1.213300
1.371500 1.230900
1.397500 1.229600
1.423400 1.186500
1.449400 1.123800
1.475400 1.078200
1.501300 1.039800
1.527300 1.005800
1.553200 0.985200
1.579200 0.977900
1.605100 0.978500
1.631100 0.989900
1.657100 1.122900
1.683000 1.087000
1.709000 1.070700
1.734900 1.068900
1.760900 1.081100
1.786900 1.142300
1.812800 1.224700
1.838800 1.310400
1.864700 1.402900
1.890700 1.502900
1.916700 1.610300
1.942600 1.742900
1.968600 1.883700
1.994500 1.963800
2.020500 2.008800
2.046400 2.012200
2.072400 2.102300
2.098400 2.272200
2.124300 2.286600
2.150300 2.206100
2.176200 2.192500
2.202200 2.256800
2.228200 2.294400
2.254100 2.343900
2.280100 2.358300
2.306000 2.349900
2.332000 2.325800
2.358000 2.479900
2.383900 2.590400
2.409900 2.710800
2.435800 2.780600
2.461800 2.814700
2.487800 2.940100
2.513700 3.124800
2.539700 2.966100
2.565600 3.025600
2.591600 2.881600
2.617500 2.544600
2.643500 2.455900
2.669500 2.480600
2.695400 2.282700
2.721400 2.233300
2.747300 2.216600
2.773300 2.211200
2.799300 2.216500
2.825200 2.462100
2.851200 2.402000
2.877100 2.458700
2.903100 2.530000
2.929100 2.649100
2.955000 3.081400
2.981000 3.653200
3.006900 4.200400
3.032900 3.848400
3.058900 3.698400
3.084800 3.136800
3.110800 2.686900
3.136700 2.320600
3.162700 2.175200
3.188600 2.012600
3.214600 1.943100
3.240600 1.982900
3.266500 1.967500
3.292500 2.139900
3.318400 2.440800
3.344400 2.026400
3.370400 1.869800
3.396300 1.708600
3.422300 1.539100
3.448200 1.485400
3.474200 1.652400
3.500200 1.632700
3.526100 1.723300
3.552100 1.820100
3.578000 2.005900
3.604000 2.799600
3.629900 3.884800
3.655900 3.981300
3.681900 4.163800
3.707800 4.434400
3.733800 4.680200
3.759700 4.801500
3.785700 5.175000
3.811700 5.346000
3.837600 5.706000
3.863600 6.478700
3.889500 6.883000
3.915500 3.031900
3.941500 1.348400
3.967400 1.541800
3.993400 1.585100
4.019300 1.758100
4.045300 2.033600
4.071300 2.288000
4.097200 2.772900
4.123200 3.422500
4.149100 3.805400
4.175100 4.336200
4.201000 3.466000
4.227000 3.288000
4.253000 3.436700
4.278900 3.767800
4.304900 4.295000
4.330800 4.503700
4.356800 4.249600
4.382800 3.394000
4.408700 3.032200
4.434700 2.800700
4.460600 2.917700
4.486600 3.288500
4.512600 3.522800
4.538500 3.585200
4.564500 3.439900
4.590400 3.336400
4.616400 3.288100
4.642400 3.316900
4.668300 3.241500
4.694300 3.131300
4.720200 3.094600
4.746200 3.010600
4.772100 2.971500
4.798100 2.923400
4.824100 2.928100
4.850000 3.039500
4.876000 3.288200
4.901900 3.524000
4.927900 3.722100
4.953900 3.904200
4.979800 4.133400
5.005800 3.862600
5.031700 3.631000
5.057700 3.480300
5.083700 3.482800
5.109600 3.555300
5.135600 3.663700
5.161500 3.797100
5.187500 4.254900
5.213400 4.707300
5.239400 3.670400
5.265400 2.833200
5.291300 2.507100
5.317300 2.542600
5.343200 2.503000
5.369200 2.876500
5.395200 3.267500
5.421100 4.636800
5.447100 4.242100
5.473000 4.031800
5.499000 3.925500
5.525000 3.662700
5.550900 3.304600
5.576900 2.924500
5.602800 2.516100
5.628800 2.226300
5.654800 1.969500
5.680700 1.908200
5.706700 1.852100
5.732600 1.812600
5.758600 2.144600
5.784500 2.533500
5.810500 2.735300
5.836500 2.924900
5.862400 3.022000
5.888400 3.251500
5.914300 3.478100
5.940300 4.269700
5.966300 4.374700
5.992200 4.929100
6.018200 5.224500
6.044100 4.971100
6.070100 4.662500
6.096100 4.990600
6.122000 5.709800
6.148000 6.224800
6.173900 5.896800
6.199900 5.941000
6.225800 5.043700
6.251800 4.152900
6.277800 4.174200
6.303700 4.507300
6.329700 4.611000
6.355600 5.072500
6.381600 5.916900
6.407600 5.714200
6.433500 5.587900
6.459500 5.268500
6.485400 4.570000
6.511400 4.151100
6.537400 3.564500
6.563300 3.077500
6.589300 2.806800
6.615200 2.675600
6.641200 2.551700
6.667200 2.089400
6.693100 1.682800
6.719100 1.312000
6.745000 1.035600
6.771000 1.000500
6.796900 1.819900
6.822900 1.728800
6.848900 1.346300
6.874800 1.280500
6.900800 1.291500
6.926700 1.397200
6.952700 1.770100
6.978700 2.321600
7.004600 2.390600
7.030600 2.474300
7.056500 2.509800
7.082500 2.535200
7.108500 2.606200
7.134400 2.647000
7.160400 2.971600
7.186300 2.688800
7.212300 2.699800
7.238300 2.747500
7.264200 2.860800
7.290200 2.842400
7.316100 2.920400
7.342100 3.023500
7.368000 3.059700
7.394000 3.236600
7.420000 2.990000
7.445900 3.038300
7.471900 2.787000
7.497800 2.670700
7.523800 2.646800
7.549800 2.648700
7.575700 2.542800
7.601700 2.426500
7.627600 2.370400
7.653600 2.376800
7.679600 2.524900
7.705500 3.439500
7.731500 6.157300
7.757400 7.002800
7.783400 5.947100
7.809300 5.078400
7.835300 5.168000
7.861300 5.178300
7.887200 4.963100
7.913200 3.903100
7.939100 3.247300
7.965100 3.196600
7.991100 3.275300
8.017000 2.921600
8.043000 2.753100
8.068900 2.796700
8.094900 2.773100
8.120900 2.794100
8.146800 2.906600
8.172800 3.204000
8.198700 3.245200
8.224700 3.785300
8.250700 4.029800
8.276600 4.497600
8.302600 5.109700
8.328500 5.054000
8.354500 4.900600
8.380400 4.419300
8.406400 4.094700
8.432400 4.575000
8.458300 3.523200
8.484300 3.323600
8.510200 3.282200
8.536200 3.294200
8.562200 3.294900
8.588100 3.288700
8.614100 3.406900
8.640000 3.502300
8.666000 3.517100
8.692000 3.498300
8.717900 3.458500
8.743900 3.441400
8.769800 3.725900
8.795800 4.174000
8.821800 4.573200
8.847700 4.875000
8.873700 5.342600
8.899600 5.853500
8.925600 6.066900
8.951500 5.638800
8.977500 4.965700
9.003500 4.471400
9.029400 4.201800
9.055400 3.985200
9.081300 3.924900
9.107300 3.901800
9.133300 3.928700
9.159200 4.170200
9.185200 4.408700
9.211100 4.793200
9.237100 5.040400
9.263100 4.586500
9.289000 4.168800
9.315000 4.059400
9.340900 3.913600
9.366900 3.753500
9.392800 3.629800
9.418800 3.436300
9.444800 3.457200
9.470700 3.433600
9.496700 3.590300
9.522600 3.971600
9.548600 4.075700
9.574600 4.275400
9.600500 4.414700
9.626500 4.475000
9.652400 4.517800
9.678400 4.553500
9.704400 4.191800
9.730300 3.839500
9.756300 3.692700
9.782200 3.720300
9.808200 4.015000
9.834200 4.405900
9.860100 4.328100
9.886100 4.515500
9.912000 4.687800
9.938000 4.123000
9.963900 4.013400
9.989900 3.654000
10.015900 3.472700
10.041800 3.462300
10.067800 3.646400
10.093700 4.600000
10.119700 4.141700
10.145700 3.969400
10.171600 4.211200
10.197600 4.274500
10.223500 4.434700
10.249500 4.971800
10.275500 4.897700
10.301400 4.680300
10.327400 4.260900
10.353300 3.737200
10.379300 3.232700
10.405300 3.024700
10.431200 3.431600
10.457200 3.244100
10.483100 3.047200
10.509100 2.598200
10.535000 2.378800
10.561000 2.343200
10.587000 2.353900
10.612900 2.567600
10.638900 2.551400
10.664800 2.559700
10.690800 2.485000
10.716800 2.491300
10.742700 2.654700
10.768700 2.935200
10.794600 3.522100
10.820600 3.349800
10.846600 3.454400
10.872500 3.468000
10.898500 3.548000
10.924400 3.695400
10.950400 3.894400
10.976300 4.055400
11.002300 4.239700
11.028300 5.048200
11.054200 4.769000
11.080200 4.313600
11.106100 3.913000
11.132100 3.678100
11.158100 3.588600
11.184000 3.578400
11.210000 3.393800
11.235900 3.541400
11.261900 3.429200
11.287900 3.442200
11.313800 3.434400
11.339800 3.703800
11.365700 3.730600
11.391700 3.368400
11.417700 3.151300
11.443600 2.990600
11.469600 2.799900
11.495500 2.648100
11.521500 2.682000
11.547400 2.429600
11.573400 2.449400
11.599400 2.627300
11.625300 2.870400
11.651300 2.931900
11.677200 3.109600
11.703200 3.482700
11.729200 3.889800
11.755100 4.638600
11.781100 4.914000
11.807000 4.875600
11.833000 4.534200
11.859000 4.430200
11.884900 4.202200
11.910900 3.956400
11.936800 3.574800
11.962800 3.571000
11.988800 4.048200
12.014700 4.591800
12.040700 4.379000
12.066600 4.341200
12.092600 3.686600
12.118500 3.157900
12.144500 2.954700
12.170500 2.445000
12.196400 1.997300
12.222400 1.992200
12.248300 1.844400
12.274300 1.672000
12.300300 1.502800
12.326200 1.337700
12.352200 1.205800
12.378100 1.116900
12.404100 1.027800
12.430100 0.978600
12.456000 1.054500
12.482000 1.191200
12.507900 1.236000
12.533900 1.166600
12.559800 1.130400
12.585800 1.191500
12.611800 1.268600
12.637700 1.380500
12.663700 1.509700
12.689600 1.641700
12.715600 1.774700
12.741600 1.891500
12.767500 2.084300
12.793500 2.090000
12.819400 2.163800
12.845400 2.177000
12.871400 2.276900
12.897300 2.177900
12.923300 2.104700
12.949200 2.064000
12.975200 2.047900
13.001200 1.985100
13.027100 1.996400
13.053100 2.009700
13.079000 2.061400
13.105000 2.110400
13.130900 2.194300
13.156900 2.275400
13.182900 2.357900
13.208800 2.390800
13.234800 2.403500
13.260700 2.383700
13.286700 2.331000
13.312700 2.275800
13.338600 2.216700
13.364600 2.152500
13.390500 2.143400
13.416500 2.115600
13.442500 2.111300
13.468400 2.152300
13.494400 2.219300
13.520300 2.751900
13.546300 2.325800
13.572300 2.304400
13.598200 2.356000
13.624200 2.362500
13.650100 2.245600
13.676100 2.016000
13.702000 1.806100
13.728000 1.700500
13.754000 1.629700
13.779900 1.592900
13.805900 1.707800
13.831800 1.825600
13.857800 1.898600
13.883800 1.953800
13.909700 2.015700
13.935700 2.083600
13.961600 2.041900
13.987600 1.999800
14.013600 2.006400
14.039500 2.070800
14.065500 1.787200
14.091400 1.832300
14.117400 1.884500
14.143300 1.983500
14.169300 2.092300
14.195300 2.482000
14.221200 2.227900
14.247200 2.240400
14.273100 2.257300
14.299100 2.284700
14.325100 2.315800
14.351000 2.356900
14.377000 2.412100
14.402900 2.470300
14.428900 2.629800
14.454900 2.714200
14.480800 2.808300
14.506800 2.780800
14.532700 2.790400
14.558700 2.779500
14.584700 2.552900
14.610600 2.352100
14.636600 2.223700
14.662500 2.147900
14.688500 2.079400
14.714400 2.012900
14.740400 1.937600
14.766400 1.858600
14.792300 1.854500
14.818300 1.912200
14.844200 1.946300
14.870200 1.974000
14.896200 2.432100
14.922100 2.065500
14.948100 1.882800
14.974000 1.871900
15.000000 1.841700
15.026000 1.823900
15.051900 1.828800
15.077900 1.852600
15.103800 1.898600
15.129800 1.950300
15.155700 1.985300
15.181700 2.053900
15.207700 2.071000
15.233600 2.065600
15.259600 2.100900
15.285500 2.162000
15.311500 2.270500
15.337500 3.024600
15.363400 3.483600
15.389400 3.550900
15.415300 3.656100
15.441300 3.732600
15.467300 3.347400
15.493200 2.942700
15.519200 2.733100
15.545100 2.386900
15.571100 2.351300
15.597100 2.339700
15.623000 2.420200
15.649000 2.550400
15.674900 2.667400
15.700900 2.779000
15.726800 2.916900
15.752800 3.008700
15.778800 3.048600
15.804700 3.395900
15.830700 2.949800
15.856600 2.992500
15.882600 3.077600
15.908600 3.092500
15.934500 3.097500
15.960500 3.154300
15.986400 3.227900
16.012400 2.958800
16.038400 3.252300
16.064300 2.908700
16.090300 3.095700
16.116200 3.358600
16.142200 3.505400
16.168200 3.504600
16.194100 3.389600
16.220100 3.322000
16.246000 3.146900
16.272000 2.923100
16.297900 2.829800
16.323900 2.775900
16.349900 2.661300
16.375800 2.585300
16.401800 2.503700
16.427700 2.426700
16.453700 2.328200
16.479700 2.322500
16.505600 2.363300
16.531600 2.384300
16.557500 2.411600
16.583500 2.534200
16.609500 2.626900
16.635400 2.735700
16.661400 2.834600
16.687300 3.030400
16.713300 3.036500
16.739200 2.822600
16.765200 2.962500
16.791200 3.277400
16.817100 3.674500
16.843100 3.882300
16.869000 3.658200
16.895000 3.263700
16.921000 2.901300
16.946900 2.449600
16.972900 2.275500
16.998800 2.217500
17.024800 2.221900
17.050800 2.322700
17.076700 2.534700
17.102700 2.826900
17.128600 3.238200
17.154600 3.806100
17.180600 4.641700
17.206500 12.927100
17.232500 7.189000
17.258400 5.480400
17.284400 4.716400
17.310300 4.443600
17.336300 3.936100
17.362300 3.894300
17.388200 3.983900
17.414200 4.209700
17.440100 4.631300
17.466100 5.520600
17.492100 8.430500
17.518000 32.842900
17.544000 5.391200
17.569900 4.109500
17.595900 3.678900
17.621900 3.583000
17.647800 3.472000
17.673800 3.342100
17.699700 3.379300
17.725700 3.362100
17.751700 3.222100
17.777600 2.821700
17.803600 2.553800
17.829500 2.330700
17.855500 2.167400
17.881400 2.057100
17.907400 1.978900
17.933400 1.972700
17.959300 2.061300
17.985300 2.222400
18.011200 2.414900
18.037200 2.271700
18.063200 2.167500
18.089100 2.294400
18.115100 2.393900
18.141000 2.492200
18.167000 2.623300
18.193000 2.779300
18.218900 2.864300
18.244900 2.971500
18.270800 3.083300
18.296800 3.329300
18.322700 3.507100
18.348700 3.655600
18.374700 3.646600
18.400600 3.357300
18.426600 3.133200
18.452500 2.971100
18.478500 2.827500
18.504500 2.635200
18.530400 2.583300
18.556400 2.678700
18.582300 2.876400
18.608300 2.993200
18.634300 3.134600
18.660200 3.364600
18.686200 3.491500
18.712100 3.330000
18.738100 3.179100
18.764100 3.074900
18.790000 2.979700
18.816000 2.927700
18.841900 3.022000
18.867900 3.126100
18.893800 3.221000
18.919800 3.139900
18.945800 3.124600
18.971700 2.979500
18.997700 2.846800
19.023600 2.930900
19.049600 3.035000
19.075600 2.907300
19.101500 2.850800
19.127500 2.913200
19.153400 3.099400
19.179400 3.225600
19.205400 3.277200
19.231300 3.293000
19.257300 3.281100
19.283200 3.524900
19.309200 3.902300
19.335200 3.426100
19.361100 3.155600
19.387100 2.789900
19.413000 2.516000
19.439000 2.405600
19.464900 2.277300
19.490900 2.170200
19.516900 2.064700
19.542800 1.989400
19.568800 1.909100
19.594700 1.827400
19.620700 1.749800
19.646700 1.674700
19.672600 1.613800
19.698600 1.589900
19.724500 1.617500
19.750500 1.694200
19.776500 1.796300
19.802400 2.043900
19.828400 2.220400
19.854300 2.365500
19.880300 2.493700
19.906200 2.422300
19.932200 2.431200
19.958200 2.412500
19.984100 2.389800
20.010100 2.372800
20.036000 2.372700
20.062000 2.378600
20.088000 2.418800
20.113900 2.452800
20.139900 2.513800
20.165800 3.472800
20.191800 3.402900
20.217800 3.501400
20.243700 3.561400
20.269700 3.503900
20.295600 3.394600
20.321600 3.206500
20.347600 2.985700
20.373500 2.741500
20.399500 2.566200
20.425400 2.424000
20.451400 2.255600
20.477300 2.155300
20.503300 2.075200
20.529300 1.977600
20.555200 1.903400
20.581200 1.854900
20.607100 1.842600
20.633100 1.831500
20.659100 1.862200
20.685000 1.918600
20.711000 2.020300
20.736900 2.018100
20.762900 1.913000
20.788900 1.953100
20.814800 2.074600
20.840800 2.132300
20.866700 2.224700
20.892700 2.285900
20.918700 2.332900
20.944600 2.382400
20.970600 2.449700
20.996500 2.550100
21.022500 2.651100
21.048400 2.796800
21.074400 2.806400
21.100400 2.899000
21.126300 2.912300
21.152300 2.900900
21.178200 2.909900
21.204200 2.838300
21.230200 2.803000
21.256100 2.709100
21.282100 2.653600
21.308000 2.702300
21.334000 2.664700
21.360000 2.505800
21.385900 2.465300
21.411900 2.131500
21.437800 1.931900
21.463800 1.794600
21.489700 1.695600
21.515700 1.606000
21.541700 1.477900
21.567600 1.309100
21.593600 1.130000
21.619500 0.873400
21.645500 0.649400
21.671500 0.454100
21.697400 0.333200
21.723400 0.274100
21.749300 0.229500
21.775300 0.212500
21.801300 0.211400
21.827200 0.209400
21.853200 0.206900
21.879100 0.203700
21.905100 0.167900
21.931100 0.127700
21.957000 0.088800
21.983000 0.070100
22.008900 0.059200
22.034900 0.049700
22.060800 0.107600
22.086800 0.000000
22.112800 0.000000
22.138700 0.000000
22.164700 0.000000
22.190600 0.000000
22.216600 0.000000
22.242600 0.000000
22.268500 0.000000
22.294500 0.000000
22.320400 0.000000
22.346400 0.000000
22.372400 0.000000
22.398300 0.000000
22.424300 0.000000
22.450200 0.000000
22.476200 0.000000
22.502200 0.000000
22.528100 0.000000
22.554100 0.000000
22.580000 0.000000
22.606000 0.000000
22.631900 0.000000
22.657900 0.000000
22.683900 0.000000
22.709800 0.000000
22.735800 0.000000
22.761700 0.000000
22.787700 0.000000
22.813700 0.000000
22.839600 0.000000
22.865600 0.000000
22.891500 0.000000
22.917500 0.000000
22.943500 0.000000
22.969400 0.000000
22.995400 0.000000
23.021300 0.000000
23.047300 0.000000
23.073200 0.000000
23.099200 0.000000
23.125200 0.000000
23.151100 0.000000
23.177100 0.000000
23.203000 0.000000
23.229000 0.000000
23.255000 0.000000
23.280900 0.000000
23.306900 0.000000
23.332800 0.000000
23.358800 0.000000
23.384800 0.000000
23.410700 0.000000
23.436700 0.000000
23.462600 0.000000
23.488600 0.000000
23.514600 0.000000
23.540500 0.000000
23.566500 0.000000
23.592400 0.000000
23.618400 0.000000
23.644300 0.000000
23.670300 0.000000
23.696300 0.000000
23.722200 0.000000
23.748200 0.000000
23.774100 0.000000
23.800100 0.000000
23.826100 0.000000
23.852000 0.000000
23.878000 0.000000
23.903900 0.000000
23.929900 0.000000
23.955900 0.000000
23.981800 0.000000
24.007800 0.000000
24.033700 0.000000
24.059700 0.000000
24.085600 0.000000
24.111600 0.000000
24.137600 0.000000
24.163500 0.000000
24.189500 0.000000
24.215400 0.000000
24.241400 0.000000
24.267400 0.000000
24.293300 0.000000
24.319300 0.000000
24.345200 0.000000
24.371200 0.000000
24.397200 0.000000
24.423100 0.000000
e
