set title 'mp-559091 - Density of States'
set xlabel 'Energy (eV)'
set ylabel 'DOS (states/eV)'
set grid
set xrange [-10:10]
set yrange [0:31.910]
set xzeroaxis lt -1
set terminal png size 800,600
set output 'mp-559091_dos_gnuplot.png'
plot '-' using 1:2 with lines title 'DOS'
-22.127200 0.000000
-22.103900 0.000000
-22.080500 0.000000
-22.057200 0.000000
-22.033900 0.000000
-22.010500 0.000000
-21.987200 0.000000
-21.963800 0.000000
-21.940500 0.000000
-21.917200 0.000000
-21.893800 0.000000
-21.870500 0.000000
-21.847100 0.000000
-21.823800 0.000000
-21.800500 0.000000
-21.777100 0.000000
-21.753800 0.000000
-21.730400 0.000000
-21.707100 0.000000
-21.683800 0.000000
-21.660400 0.000000
-21.637100 0.000000
-21.613700 0.000000
-21.590400 0.000000
-21.567100 0.000000
-21.543700 0.000000
-21.520400 0.000000
-21.497100 0.000000
-21.473700 0.000000
-21.450400 0.000000
-21.427000 0.000000
-21.403700 0.000000
-21.380400 0.000000
-21.357000 0.000000
-21.333700 0.000000
-21.310300 0.000000
-21.287000 0.000000
-21.263700 0.000000
-21.240300 0.000000
-21.217000 0.000000
-21.193600 0.000000
-21.170300 0.000000
-21.147000 0.000000
-21.123600 0.000000
-21.100300 0.000000
-21.076900 0.000000
-21.053600 0.000000
-21.030300 0.000000
-21.006900 0.000000
-20.983600 0.000000
-20.960200 0.000000
-20.936900 0.000000
-20.913600 0.000000
-20.890200 0.000000
-20.866900 0.000000
-20.843500 0.000000
-20.820200 0.000000
-20.796900 0.000000
-20.773500 0.000000
-20.750200 0.000000
-20.726800 0.000000
-20.703500 0.000000
-20.680200 0.000000
-20.656800 0.000000
-20.633500 0.000000
-20.610100 0.000000
-20.586800 0.000000
-20.563500 0.000000
-20.540100 0.000000
-20.516800 0.000000
-20.493400 0.000000
-20.470100 0.000000
-20.446800 0.000000
-20.423400 0.000000
-20.400100 0.000000
-20.376700 0.000000
-20.353400 0.000000
-20.330100 0.000000
-20.306700 0.000000
-20.283400 0.000000
-20.260100 0.000000
-20.236700 0.000000
-20.213400 0.000000
-20.190000 0.000000
-20.166700 0.000000
-20.143400 0.000000
-20.120000 0.000000
-20.096700 0.000000
-20.073300 0.000000
-20.050000 0.000000
-20.026700 0.000000
-20.003300 0.001000
-19.980000 0.138800
-19.956600 0.509800
-19.933300 1.114200
-19.910000 2.205400
-19.886600 2.919100
-19.863300 3.333800
-19.839900 3.545300
-19.816600 2.983300
-19.793300 3.159200
-19.769900 3.335500
-19.746600 3.512100
-19.723200 4.062600
-19.699900 4.815200
-19.676600 5.763800
-19.653200 7.150200
-19.629900 8.140400
-19.606500 9.222700
-19.583200 10.339800
-19.559900 9.538100
-19.536500 8.633200
-19.513200 7.625300
-19.489800 7.300800
-19.466500 6.100800
-19.443200 4.718100
-19.419800 5.861300
-19.396500 7.782100
-19.373100 7.370700
-19.349800 6.653300
-19.326500 5.453200
-19.303100 5.280600
-19.279800 4.853300
-19.256400 3.721900
-19.233100 1.875300
-19.209800 0.000000
-19.186400 0.000000
-19.163100 0.000000
-19.139800 0.000000
-19.116400 0.000000
-19.093100 0.000000
-19.069700 0.000000
-19.046400 2.226000
-19.023100 3.777000
-18.999700 4.607700
-18.976400 4.822100
-18.953000 4.953100
-18.929700 5.878400
-18.906400 6.555800
-18.883000 6.994300
-18.859700 7.193900
-18.836300 4.741900
-18.813000 3.863300
-18.789700 4.878800
-18.766300 5.658300
-18.743000 6.675600
-18.719600 6.485400
-18.696300 7.040300
-18.673000 7.533000
-18.649600 7.963300
-18.626300 7.305600
-18.602900 6.724600
-18.579600 6.433200
-18.556300 5.262100
-18.532900 4.222100
-18.509600 3.609800
-18.486200 3.096400
-18.462900 2.682000
-18.439600 2.523000
-18.416200 2.434400
-18.392900 2.346100
-18.369500 2.258000
-18.346200 2.170300
-18.322900 2.082800
-18.299500 1.995600
-18.276200 2.372400
-18.252800 2.241600
-18.229500 2.057700
-18.206200 1.820700
-18.182800 1.530600
-18.159500 1.100300
-18.136100 0.732000
-18.112800 0.475700
-18.089500 0.274300
-18.066100 0.128100
-18.042800 0.036900
-18.019400 304.344900
-17.996100 0.000000
-17.972800 0.000000
-17.949400 0.000000
-17.926100 0.000000
-17.902800 0.000000
-17.879400 0.000000
-17.856100 0.000000
-17.832700 0.000000
-17.809400 0.000000
-17.786100 0.000000
-17.762700 0.000000
-17.739400 0.000000
-17.716000 0.000000
-17.692700 0.000000
-17.669400 0.000000
-17.646000 0.000000
-17.622700 0.000000
-17.599300 0.000000
-17.576000 0.000000
-17.552700 0.000000
-17.529300 0.000000
-17.506000 0.000000
-17.482600 0.000000
-17.459300 0.000000
-17.436000 0.000000
-17.412600 0.000000
-17.389300 0.000000
-17.365900 0.000000
-17.342600 0.000000
-17.319300 0.000000
-17.295900 0.000000
-17.272600 0.000000
-17.249200 0.000000
-17.225900 0.000000
-17.202600 0.000000
-17.179200 0.000000
-17.155900 0.000000
-17.132500 0.000000
-17.109200 0.000000
-17.085900 0.000000
-17.062500 0.000000
-17.039200 0.000000
-17.015800 0.000000
-16.992500 0.000000
-16.969200 0.000000
-16.945800 0.000000
-16.922500 0.000000
-16.899100 0.000000
-16.875800 0.000000
-16.852500 0.000000
-16.829100 0.000000
-16.805800 0.000000
-16.782400 0.000000
-16.759100 0.000000
-16.735800 0.000000
-16.712400 0.000000
-16.689100 0.000000
-16.665800 0.000000
-16.642400 0.000000
-16.619100 0.000000
-16.595700 0.000000
-16.572400 0.000000
-16.549100 0.000000
-16.525700 0.000000
-16.502400 0.000000
-16.479000 0.000000
-16.455700 0.000000
-16.432400 0.000000
-16.409000 0.000000
-16.385700 0.000000
-16.362300 0.000000
-16.339000 0.000000
-16.315700 0.000000
-16.292300 0.000000
-16.269000 0.000000
-16.245600 0.000000
-16.222300 0.000000
-16.199000 0.000000
-16.175600 0.000000
-16.152300 0.000000
-16.128900 0.000000
-16.105600 0.000000
-16.082300 0.000000
-16.058900 0.000000
-16.035600 0.000000
-16.012200 0.000000
-15.988900 0.000000
-15.965600 0.000000
-15.942200 0.000000
-15.918900 0.000000
-15.895500 0.000000
-15.872200 0.000000
-15.848900 0.000000
-15.825500 0.000000
-15.802200 0.000000
-15.778800 0.000000
-15.755500 0.000000
-15.732200 0.000000
-15.708800 0.000000
-15.685500 0.000000
-15.662100 0.000000
-15.638800 0.000000
-15.615500 0.000000
-15.592100 0.000000
-15.568800 0.000000
-15.545400 0.000000
-15.522100 0.000000
-15.498800 0.000000
-15.475400 0.000000
-15.452100 0.000000
-15.428800 0.000000
-15.405400 0.000000
-15.382100 0.000000
-15.358700 0.000000
-15.335400 0.000000
-15.312100 0.000000
-15.288700 0.000000
-15.265400 0.000000
-15.242000 0.000000
-15.218700 0.000000
-15.195400 0.000000
-15.172000 0.000000
-15.148700 0.000000
-15.125300 0.000000
-15.102000 0.000000
-15.078700 0.000000
-15.055300 0.000000
-15.032000 0.000000
-15.008600 0.000000
-14.985300 0.000000
-14.962000 0.000000
-14.938600 0.000000
-14.915300 0.000000
-14.891900 0.000000
-14.868600 0.000000
-14.845300 0.000000
-14.821900 0.000000
-14.798600 0.000000
-14.775200 0.000000
-14.751900 0.000000
-14.728600 0.000000
-14.705200 0.000000
-14.681900 0.000000
-14.658500 0.000000
-14.635200 0.000000
-14.611900 0.000000
-14.588500 0.000000
-14.565200 0.000000
-14.541800 0.000000
-14.518500 0.000000
-14.495200 0.000000
-14.471800 0.000000
-14.448500 0.000000
-14.425100 0.000000
-14.401800 0.000000
-14.378500 0.000000
-14.355100 0.000000
-14.331800 0.000000
-14.308400 0.000000
-14.285100 0.000000
-14.261800 0.000000
-14.238400 0.000000
-14.215100 0.000000
-14.191800 0.000000
-14.168400 0.000000
-14.145100 0.000000
-14.121700 0.000000
-14.098400 0.000000
-14.075100 0.000000
-14.051700 0.000000
-14.028400 0.000000
-14.005000 0.000000
-13.981700 0.000000
-13.958400 0.000000
-13.935000 0.000000
-13.911700 0.000000
-13.888300 0.000000
-13.865000 0.000000
-13.841700 0.000000
-13.818300 0.000000
-13.795000 0.000000
-13.771600 0.000000
-13.748300 0.000000
-13.725000 0.000000
-13.701600 0.000000
-13.678300 0.000000
-13.654900 0.000000
-13.631600 0.000000
-13.608300 0.000000
-13.584900 0.000000
-13.561600 0.000000
-13.538200 0.000000
-13.514900 0.000000
-13.491600 0.000000
-13.468200 0.000000
-13.444900 0.000000
-13.421500 0.000000
-13.398200 0.000000
-13.374900 0.000000
-13.351500 0.000000
-13.328200 0.000000
-13.304800 0.000000
-13.281500 0.000000
-13.258200 0.000000
-13.234800 0.000000
-13.211500 0.000000
-13.188100 0.000000
-13.164800 0.000000
-13.141500 0.000000
-13.118100 0.000000
-13.094800 0.000000
-13.071500 0.000000
-13.048100 0.000000
-13.024800 0.000000
-13.001400 0.000000
-12.978100 0.000000
-12.954800 0.000000
-12.931400 0.000000
-12.908100 0.000000
-12.884700 0.000000
-12.861400 0.000000
-12.838100 0.000000
-12.814700 0.000000
-12.791400 0.000000
-12.768000 0.000000
-12.744700 0.000000
-12.721400 0.000000
-12.698000 0.000000
-12.674700 0.000000
-12.651300 0.000000
-12.628000 0.000000
-12.604700 0.000000
-12.581300 0.000000
-12.558000 0.000000
-12.534600 0.000000
-12.511300 0.000000
-12.488000 0.000000
-12.464600 0.000000
-12.441300 0.000000
-12.417900 0.000000
-12.394600 0.000000
-12.371300 0.000000
-12.347900 0.000000
-12.324600 0.000000
-12.301200 0.000000
-12.277900 0.000000
-12.254600 0.000000
-12.231200 0.000000
-12.207900 0.000000
-12.184500 0.000000
-12.161200 0.000000
-12.137900 0.000000
-12.114500 0.000000
-12.091200 0.000000
-12.067800 0.000000
-12.044500 0.000000
-12.021200 0.000000
-11.997800 0.000000
-11.974500 0.000000
-11.951100 0.000000
-11.927800 0.000000
-11.904500 0.000000
-11.881100 0.000000
-11.857800 0.000000
-11.834500 0.000000
-11.811100 0.000000
-11.787800 0.000000
-11.764400 0.000000
-11.741100 0.000000
-11.717800 0.000000
-11.694400 0.000000
-11.671100 0.000000
-11.647700 0.000000
-11.624400 0.000000
-11.601100 0.000000
-11.577700 0.000000
-11.554400 0.000000
-11.531000 0.000000
-11.507700 0.000000
-11.484400 0.000000
-11.461000 0.000000
-11.437700 0.000000
-11.414300 0.000000
-11.391000 0.000000
-11.367700 0.000000
-11.344300 0.000000
-11.321000 0.000000
-11.297600 0.000000
-11.274300 0.000000
-11.251000 0.000000
-11.227600 0.000000
-11.204300 0.000000
-11.180900 0.000000
-11.157600 0.000000
-11.134300 0.000000
-11.110900 0.000000
-11.087600 0.000000
-11.064200 0.000000
-11.040900 0.000000
-11.017600 0.000000
-10.994200 0.000000
-10.970900 0.000000
-10.947500 0.000000
-10.924200 0.000000
-10.900900 0.000000
-10.877500 0.000000
-10.854200 0.000000
-10.830800 0.000000
-10.807500 0.000000
-10.784200 0.000000
-10.760800 0.000000
-10.737500 0.000000
-10.714100 0.000000
-10.690800 0.000000
-10.667500 0.000000
-10.644100 0.000000
-10.620800 0.000000
-10.597500 0.000000
-10.574100 0.000000
-10.550800 0.000000
-10.527400 0.000000
-10.504100 0.000000
-10.480800 0.000000
-10.457400 0.000000
-10.434100 0.000000
-10.410700 0.000000
-10.387400 0.000000
-10.364100 0.004300
-10.340700 0.018600
-10.317400 0.042800
-10.294000 0.076900
-10.270700 0.120900
-10.247400 0.174900
-10.224000 0.238800
-10.200700 0.312600
-10.177300 0.396300
-10.154000 0.490000
-10.130700 0.611000
-10.107300 0.775100
-10.084000 0.888900
-10.060600 0.993300
-10.037300 1.088100
-10.014000 1.173400
-9.990600 1.249100
-9.967300 1.315300
-9.943900 1.372000
-9.920600 1.419200
-9.897300 1.456900
-9.873900 1.241300
-9.850600 1.276400
-9.827200 1.311600
-9.803900 1.346900
-9.780600 1.382400
-9.757200 1.417900
-9.733900 1.453500
-9.710500 1.489300
-9.687200 1.525100
-9.663900 1.561100
-9.640500 1.599700
-9.617200 1.644800
-9.593800 1.696300
-9.570500 1.754200
-9.547200 1.828200
-9.523800 1.986400
-9.500500 2.261500
-9.477100 2.528500
-9.453800 2.822200
-9.430500 3.103700
-9.407100 3.365700
-9.383800 3.608200
-9.360500 3.831200
-9.337100 4.356200
-9.313800 4.050600
-9.290400 3.909700
-9.267100 3.767500
-9.243800 3.624000
-9.220400 3.479300
-9.197100 3.333300
-9.173700 3.186000
-9.150400 3.462300
-9.127100 3.182200
-9.103700 2.929100
-9.080400 2.702800
-9.057000 1.674200
-9.033700 1.731700
-9.010400 1.784800
-8.987000 1.833200
-8.963700 1.993800
-8.940300 2.430200
-8.917000 2.890100
-8.893700 4.792800
-8.870300 4.557900
-8.847000 4.265700
-8.823600 3.916400
-8.800300 3.509800
-8.777000 2.502500
-8.753600 2.455200
-8.730300 2.408800
-8.706900 2.363300
-8.683600 2.318700
-8.660300 2.275000
-8.636900 2.232200
-8.613600 2.190300
-8.590200 2.149300
-8.566900 2.109200
-8.543600 2.070000
-8.520200 1.826800
-8.496900 1.432900
-8.473500 1.097000
-8.450200 0.817100
-8.426900 0.576700
-8.403500 0.371800
-8.380200 0.202700
-8.356800 0.069100
-8.333500 0.000000
-8.310200 0.000000
-8.286800 0.000000
-8.263500 0.000000
-8.240100 0.000000
-8.216800 0.000000
-8.193500 0.000000
-8.170100 0.000000
-8.146800 0.046500
-8.123500 0.168800
-8.100100 0.321700
-8.076800 0.505300
-8.053400 0.719600
-8.030100 0.964500
-8.006800 1.282600
-7.983400 1.762200
-7.960100 2.013500
-7.936700 2.054200
-7.913400 2.095700
-7.890100 2.137900
-7.866700 2.180900
-7.843400 2.224500
-7.820000 2.268900
-7.796700 2.313900
-7.773400 2.359700
-7.750000 2.406200
-7.726700 2.453400
-7.703300 3.277200
-7.680000 3.838200
-7.656700 4.329000
-7.633300 4.749600
-7.610000 5.100100
-7.586600 3.093300
-7.563300 2.503800
-7.540000 2.033000
-7.516600 1.868100
-7.493300 1.819200
-7.469900 1.767500
-7.446600 1.712900
-7.423300 1.655300
-7.399900 2.610000
-7.376600 2.878600
-7.353200 3.180600
-7.329900 3.516200
-7.306600 3.885200
-7.283200 3.608700
-7.259900 3.793700
-7.236500 3.969500
-7.213200 4.142800
-7.189900 4.426400
-7.166500 4.525300
-7.143200 4.626400
-7.119800 3.968400
-7.096500 3.773000
-7.073200 3.566600
-7.049800 3.373100
-7.026500 3.176000
-7.003200 2.966300
-6.979800 2.744200
-6.956500 2.509400
-6.933100 2.352100
-6.909800 2.277000
-6.886500 2.196500
-6.863100 2.113500
-6.839800 2.030600
-6.816400 1.947800
-6.793100 1.865300
-6.769800 2.074600
-6.746400 1.998300
-6.723100 1.904200
-6.699700 1.792400
-6.676400 1.662700
-6.653100 1.515300
-6.629700 1.350100
-6.606400 1.167000
-6.583000 0.966200
-6.559700 0.925700
-6.536400 0.584200
-6.513000 0.320900
-6.489700 0.135900
-6.466300 0.029200
-6.443000 0.000000
-6.419700 0.856700
-6.396300 2.141600
-6.373000 2.907700
-6.349600 3.849800
-6.326300 5.217200
-6.303000 6.724700
-6.279600 8.717100
-6.256300 11.661800
-6.232900 13.659100
-6.209600 16.187300
-6.186300 18.704100
-6.162900 22.504800
-6.139600 24.240200
-6.116200 21.828300
-6.092900 26.399700
-6.069600 21.785500
-6.046200 16.293000
-6.022900 12.631100
-5.999500 18.198800
-5.976200 29.009200
-5.952900 14.268400
-5.929500 9.222200
-5.906200 9.252100
-5.882800 8.738300
-5.859500 6.897600
-5.836200 4.110400
-5.812800 2.401400
-5.789500 1.160200
-5.766200 0.000000
-5.742800 0.000000
-5.719500 0.000000
-5.696100 0.000000
-5.672800 0.000000
-5.649500 0.000000
-5.626100 0.000000
-5.602800 0.000000
-5.579400 0.000000
-5.556100 0.000000
-5.532800 0.000000
-5.509400 0.000000
-5.486100 0.000000
-5.462700 0.000000
-5.439400 0.000000
-5.416100 0.000000
-5.392700 0.000000
-5.369400 0.000000
-5.346000 0.000000
-5.322700 0.000000
-5.299400 0.000000
-5.276000 0.000000
-5.252700 0.000000
-5.229300 0.000000
-5.206000 0.000000
-5.182700 0.000000
-5.159300 0.000000
-5.136000 0.000000
-5.112600 0.000000
-5.089300 0.000000
-5.066000 0.000000
-5.042600 0.000000
-5.019300 0.000000
-4.995900 0.000000
-4.972600 0.000000
-4.949300 0.000000
-4.925900 0.000000
-4.902600 0.000000
-4.879200 0.000000
-4.855900 0.000000
-4.832600 0.000000
-4.809200 0.000000
-4.785900 0.000000
-4.762500 0.000000
-4.739200 0.000000
-4.715900 0.000000
-4.692500 0.000000
-4.669200 0.000000
-4.645800 0.000000
-4.622500 0.000000
-4.599200 0.000000
-4.575800 0.000000
-4.552500 0.000000
-4.529200 0.000000
-4.505800 0.000000
-4.482500 0.000000
-4.459100 0.000000
-4.435800 0.000000
-4.412500 0.000000
-4.389100 0.000000
-4.365800 0.000000
-4.342400 0.000000
-4.319100 0.000000
-4.295800 0.000000
-4.272400 0.000000
-4.249100 0.000000
-4.225700 0.000000
-4.202400 0.000000
-4.179100 0.000000
-4.155700 0.000000
-4.132400 0.000000
-4.109000 0.000000
-4.085700 0.000000
-4.062400 0.000000
-4.039000 0.000000
-4.015700 0.000000
-3.992300 0.000000
-3.969000 0.000000
-3.945700 0.000000
-3.922300 0.000000
-3.899000 0.000000
-3.875600 0.000000
-3.852300 0.000000
-3.829000 0.000000
-3.805600 0.000000
-3.782300 0.000000
-3.758900 0.000000
-3.735600 1.698200
-3.712300 4.810100
-3.688900 8.350300
-3.665600 10.466500
-3.642200 12.521800
-3.618900 11.332000
-3.595600 10.470000
-3.572200 11.533000
-3.548900 12.182800
-3.525500 13.051900
-3.502200 13.998500
-3.478900 18.616800
-3.455500 17.081400
-3.432200 16.385000
-3.408800 17.259400
-3.385500 16.914700
-3.362200 15.267400
-3.338800 13.547300
-3.315500 13.569500
-3.292200 12.866300
-3.268800 13.666300
-3.245500 10.912100
-3.222100 9.374300
-3.198800 7.813600
-3.175500 8.918400
-3.152100 7.148300
-3.128800 6.212300
-3.105400 3.684700
-3.082100 8.301900
-3.058800 11.779800
-3.035400 16.261900
-3.012100 21.653800
-2.988700 17.894400
-2.965400 12.420100
-2.942100 6.451700
-2.918700 1.113500
-2.895400 4.184600
-2.872000 6.598000
-2.848700 16.411200
-2.825400 20.072800
-2.802000 13.628800
-2.778700 14.032300
-2.755300 16.669100
-2.732000 13.696400
-2.708700 17.968000
-2.685300 11.018200
-2.662000 10.006900
-2.638600 22.517100
-2.615300 24.485600
-2.592000 26.561100
-2.568600 18.594900
-2.545300 7.932900
-2.521900 8.939000
-2.498600 8.911300
-2.475300 9.928300
-2.451900 11.287300
-2.428600 12.161300
-2.405200 11.586600
-2.381900 13.824700
-2.358600 12.471100
-2.335200 11.954400
-2.311900 11.790200
-2.288500 11.677900
-2.265200 16.774400
-2.241900 6.091900
-2.218500 5.707500
-2.195200 5.137300
-2.171900 4.338500
-2.148500 3.311100
-2.125200 1.757000
-2.101800 1.101300
-2.078500 0.476500
-2.055200 0.000000
-2.031800 0.000000
-2.008500 1.315100
-1.985100 2.923000
-1.961800 4.474500
-1.938500 4.760000
-1.915100 5.025200
-1.891800 5.270100
-1.868400 6.202700
-1.845100 7.901600
-1.821800 10.469300
-1.798400 14.002700
-1.775100 11.870200
-1.751700 11.539400
-1.728400 11.273100
-1.705100 11.185600
-1.681700 10.844700
-1.658400 6.655500
-1.635000 6.207200
-1.611700 7.051400
-1.588400 9.259700
-1.565000 10.027000
-1.541700 11.401400
-1.518300 12.863700
-1.495000 15.075000
-1.471700 24.292400
-1.448300 10.834900
-1.425000 10.070100
-1.401600 10.672800
-1.378300 11.221100
-1.355000 17.055000
-1.331600 9.565700
-1.308300 10.718500
-1.284900 12.048500
-1.261600 13.295300
-1.238300 13.311200
-1.214900 12.976800
-1.191600 12.292200
-1.168200 11.257300
-1.144900 10.359000
-1.121600 7.954500
-1.098200 5.652200
-1.074900 3.788500
-1.051500 2.567800
-1.028200 2.208700
-1.004900 1.868600
-0.981500 1.547500
-0.958200 4.740000
-0.934900 5.824900
-0.911500 7.076500
-0.888200 8.646300
-0.864800 10.582900
-0.841500 9.721800
-0.818200 9.982800
-0.794800 10.025100
-0.771500 10.295300
-0.748100 8.639100
-0.724800 5.146400
-0.701500 0.000000
-0.678100 0.000000
-0.654800 0.000000
-0.631400 0.000000
-0.608100 0.000000
-0.584800 0.000000
-0.561400 0.000000
-0.538100 0.000000
-0.514700 0.000000
-0.491400 0.000000
-0.468100 0.000000
-0.444700 0.000000
-0.421400 0.000000
-0.398000 0.000000
-0.374700 0.000000
-0.351400 0.000000
-0.328000 0.000000
-0.304700 0.000000
-0.281300 0.000000
-0.258000 0.000000
-0.234700 0.000000
-0.211300 0.000000
-0.188000 0.000000
-0.164600 0.000000
-0.141300 0.000000
-0.118000 0.000000
-0.094600 0.000000
-0.071300 0.000000
-0.047900 0.000000
-0.024600 0.000000
-0.001300 0.000000
0.022100 0.000000
0.045400 0.000000
0.068800 0.000000
0.092100 0.000000
0.115400 0.000000
0.138800 0.000000
0.162100 0.000000
0.185500 0.000000
0.208800 0.000000
0.232100 0.000000
0.255500 0.000000
0.278800 0.000000
0.302100 0.000000
0.325500 0.000000
0.348800 0.000000
0.372200 0.000000
0.395500 0.000000
0.418800 0.000000
0.442200 0.000000
0.465500 0.000000
0.488900 0.000000
0.512200 0.000000
0.535500 0.000000
0.558900 0.000000
0.582200 0.000000
0.605600 0.000000
0.628900 0.000000
0.652200 0.000000
0.675600 0.000000
0.698900 0.000000
0.722300 0.000000
0.745600 0.000000
0.768900 0.000000
0.792300 0.000000
0.815600 0.000000
0.839000 0.000000
0.862300 0.000000
0.885600 0.000000
0.909000 0.000000
0.932300 0.000000
0.955700 0.000000
0.979000 0.000000
1.002300 0.000000
1.025700 0.000000
1.049000 0.000000
1.072400 0.000000
1.095700 0.000000
1.119000 0.000000
1.142400 0.000000
1.165700 0.000000
1.189100 0.000000
1.212400 0.000000
1.235700 0.000000
1.259100 0.000000
1.282400 0.000000
1.305800 0.000000
1.329100 0.000000
1.352400 0.000000
1.375800 0.000000
1.399100 0.000000
1.422500 0.000000
1.445800 0.000000
1.469100 0.000000
1.492500 0.000000
1.515800 0.000000
1.539100 0.000000
1.562500 0.000000
1.585800 0.000000
1.609200 0.000000
1.632500 0.000000
1.655800 0.000000
1.679200 0.000000
1.702500 0.000000
1.725900 0.000000
1.749200 0.000000
1.772500 0.000000
1.795900 0.000000
1.819200 0.000000
1.842600 0.000000
1.865900 0.000000
1.889200 0.000000
1.912600 0.000000
1.935900 0.000000
1.959300 0.000000
1.982600 0.000000
2.005900 0.000000
2.029300 0.000000
2.052600 0.000000
2.076000 0.000000
2.099300 0.000000
2.122600 0.000000
2.146000 0.000000
2.169300 0.000000
2.192700 0.000000
2.216000 0.000000
2.239300 0.000000
2.262700 0.000000
2.286000 0.000000
2.309400 0.000000
2.332700 0.000000
2.356000 0.000000
2.379400 0.000000
2.402700 0.000000
2.426100 0.000000
2.449400 0.000000
2.472700 0.000000
2.496100 0.000000
2.519400 0.000000
2.542800 0.000000
2.566100 0.000000
2.589400 0.000000
2.612800 0.000000
2.636100 0.000000
2.659500 0.000000
2.682800 0.000000
2.706100 0.000000
2.729500 0.000000
2.752800 0.000000
2.776100 0.000000
2.799500 0.000000
2.822800 0.000000
2.846200 0.000000
2.869500 0.000000
2.892800 0.000000
2.916200 0.000000
2.939500 0.000000
2.962900 0.000000
2.986200 0.000000
3.009500 0.000000
3.032900 0.000000
3.056200 0.000000
3.079600 0.000000
3.102900 0.000000
3.126200 0.000000
3.149600 0.000000
3.172900 0.000000
3.196300 0.000000
3.219600 0.000000
3.242900 0.000000
3.266300 0.000000
3.289600 0.000000
3.313000 0.000000
3.336300 0.000000
3.359600 0.000000
3.383000 0.000000
3.406300 0.000000
3.429700 0.000000
3.453000 0.000000
3.476300 0.000000
3.499700 0.000000
3.523000 0.000000
3.546400 0.000000
3.569700 0.000000
3.593000 0.000000
3.616400 0.000000
3.639700 0.000000
3.663100 0.000000
3.686400 0.000000
3.709700 0.000000
3.733100 0.000000
3.756400 0.000000
3.779800 0.000000
3.803100 0.000000
3.826400 0.000000
3.849800 0.000000
3.873100 0.000000
3.896400 0.000000
3.919800 0.000000
3.943100 0.000000
3.966500 0.000000
3.989800 0.000000
4.013100 0.000000
4.036500 0.000000
4.059800 0.000000
4.083200 0.000000
4.106500 0.000000
4.129800 0.000000
4.153200 0.000000
4.176500 0.000000
4.199900 0.000000
4.223200 0.000000
4.246500 0.000000
4.269900 0.000000
4.293200 0.000000
4.316600 0.000000
4.339900 0.000000
4.363200 0.000000
4.386600 0.000000
4.409900 0.000000
4.433300 0.000000
4.456600 0.000000
4.479900 0.000000
4.503300 0.000000
4.526600 0.000000
4.550000 0.000000
4.573300 0.000000
4.596600 0.000000
4.620000 0.000000
4.643300 0.000000
4.666700 0.000000
4.690000 0.000000
4.713300 0.000000
4.736700 0.000000
4.760000 0.000000
4.783400 0.000000
4.806700 0.000500
4.830000 0.002900
4.853400 0.007200
4.876700 0.013300
4.900100 0.021400
4.923400 0.031500
4.946700 0.043400
4.970100 0.057200
4.993400 0.073000
5.016800 0.090600
5.040100 0.110200
5.063400 0.131700
5.086800 0.155100
5.110100 0.180400
5.133400 0.207700
5.156800 0.236800
5.180100 0.279700
5.203500 0.328500
5.226800 0.378300
5.250100 0.429000
5.273500 0.480600
5.296800 0.528700
5.320200 0.559000
5.343500 0.587300
5.366800 0.613700
5.390200 0.638100
5.413500 0.660500
5.436900 0.681000
5.460200 0.699500
5.483500 0.716100
5.506900 0.730700
5.530200 0.743300
5.553600 0.753900
5.576900 0.762600
5.600200 0.769300
5.623600 0.774100
5.646900 0.647600
5.670300 0.655600
5.693600 0.663500
5.716900 0.671400
5.740300 0.679400
5.763600 0.687300
5.787000 0.695200
5.810300 0.703200
5.833600 0.711100
5.857000 0.719100
5.880300 0.727000
5.903700 0.735000
5.927000 0.742900
5.950300 0.750900
5.973700 0.758800
5.997000 0.766800
6.020400 0.774800
6.043700 0.782700
6.067000 0.792600
6.090400 0.822200
6.113700 0.852900
6.137100 0.884700
6.160400 0.917900
6.183700 0.952700
6.207100 0.988900
6.230400 1.026500
6.253800 1.065700
6.277100 1.106300
6.300400 1.148400
6.323800 1.192000
6.347100 1.237000
6.370400 1.283600
6.393800 1.331700
6.417100 1.385100
6.440500 1.439900
6.463800 1.496000
6.487100 1.462400
6.510500 1.535700
6.533800 1.605900
6.557200 1.672900
6.580500 1.736700
6.603800 1.797400
6.627200 1.855000
6.650500 1.909300
6.673900 1.960600
6.697200 2.008700
6.720500 2.233800
6.743900 2.211200
6.767200 2.188800
6.790600 2.166600
6.813900 2.144600
6.837200 2.122700
6.860600 2.101100
6.883900 2.079600
6.907300 2.058400
6.930600 2.037100
6.953900 2.015100
6.977300 1.992600
7.000600 1.969500
7.024000 1.945700
7.047300 1.921400
7.070600 1.896400
7.094000 1.870900
7.117300 1.844800
7.140700 1.851100
7.164000 1.862100
7.187300 1.877900
7.210700 1.898400
7.234000 1.923700
7.257400 2.445400
7.280700 2.416500
7.304000 2.398200
7.327400 2.390500
7.350700 1.707500
7.374100 2.290700
7.397400 2.333500
7.420700 2.366200
7.444100 2.388900
7.467400 2.401500
7.490800 2.404000
7.514100 2.396400
7.537400 2.378700
7.560800 2.350900
7.584100 2.313200
7.607400 2.272400
7.630800 2.231500
7.654100 2.190700
7.677500 2.148700
7.700800 2.094000
7.724100 2.034600
7.747500 1.969400
7.770800 1.891300
7.794200 1.808600
7.817500 1.721400
7.840800 1.629700
7.864200 1.533600
7.887500 1.432900
7.910900 1.327800
7.934200 1.218200
7.957500 3.338300
7.980900 5.533000
8.004200 8.119600
8.027600 6.750900
8.050900 7.084200
8.074200 8.577000
8.097600 9.338600
8.120900 9.502600
8.144300 10.007500
8.167600 10.882300
8.190900 9.912500
8.214300 10.223800
8.237600 10.064300
8.261000 9.602400
8.284300 9.769200
8.307600 13.939600
8.331000 6.483600
8.354300 5.251200
8.377700 5.085000
8.401000 2.688600
8.424300 5.074000
8.447700 7.145600
8.471000 13.143800
8.494400 14.572200
8.517700 14.430200
8.541000 11.914300
8.564400 8.009000
8.587700 5.337400
8.611100 8.804700
8.634400 11.868700
8.657700 11.369100
8.681100 14.746800
8.704400 15.659300
8.727800 8.641100
8.751100 6.220500
8.774400 8.965000
8.797800 5.641000
8.821100 4.629800
8.844400 5.711100
8.867800 6.930400
8.891100 8.318800
8.914500 9.083200
8.937800 9.221700
8.961100 8.845700
8.984500 7.970400
9.007800 7.134200
9.031200 7.452200
9.054500 5.482400
9.077800 5.801100
9.101200 6.521300
9.124500 8.175200
9.147900 10.000600
9.171200 11.594700
9.194500 13.274200
9.217900 6.731000
9.241200 6.730300
9.264600 5.869800
9.287900 5.073900
9.311200 4.571300
9.334600 3.598900
9.357900 4.418200
9.381300 5.320600
9.404600 5.968500
9.427900 6.217000
9.451300 6.344800
9.474600 6.487600
9.498000 11.389400
9.521300 10.790400
9.544600 7.868400
9.568000 5.331600
9.591300 2.047300
9.614700 0.067100
9.638000 0.115900
9.661300 0.298700
9.684700 0.640900
9.708000 1.142500
9.731400 1.803500
9.754700 4.293500
9.778000 5.301500
9.801400 6.235000
9.824700 11.871600
9.848100 11.363400
9.871400 10.486500
9.894700 10.002100
9.918100 8.397000
9.941400 5.544800
9.964700 5.544400
9.988100 4.900400
10.011400 4.345600
10.034800 4.522500
10.058100 4.771400
10.081400 5.092300
10.104800 5.781400
10.128100 6.773100
10.151500 8.768100
10.174800 10.374200
10.198100 14.672300
10.221500 7.774700
10.244800 6.040000
10.268200 7.222000
10.291500 9.961200
10.314800 6.514100
10.338200 4.982400
10.361500 4.974600
10.384900 4.920900
10.408200 4.821300
10.431500 4.675800
10.454900 4.484400
10.478200 4.247100
10.501600 3.963900
10.524900 3.643200
10.548200 3.580100
10.571600 3.812200
10.594900 4.606800
10.618300 5.186700
10.641600 5.670200
10.664900 6.170900
10.688300 6.340800
10.711600 6.517600
10.735000 6.685400
10.758300 6.598600
10.781600 6.468000
10.805000 6.308400
10.828300 6.744200
10.851700 6.271500
10.875000 5.725300
10.898300 5.269800
10.921700 4.803900
10.945000 4.327700
10.968400 3.841200
10.991700 3.561700
11.015000 4.379200
11.038400 4.843300
11.061700 6.241200
11.085100 10.733400
11.108400 7.236300
11.131700 8.214900
11.155100 8.638600
11.178400 8.260200
11.201700 8.627300
11.225100 8.617500
11.248400 8.392000
11.271800 9.510800
11.295100 10.696200
11.318400 9.885400
11.341800 8.761700
11.365100 8.144900
11.388500 7.890600
11.411800 6.424400
11.435100 4.807300
11.458500 3.797200
11.481800 2.983900
11.505200 3.308800
11.528500 3.264800
11.551800 4.989500
11.575200 5.518500
11.598500 6.126100
11.621900 6.812200
11.645200 7.074600
11.668500 7.834900
11.691900 8.898400
11.715200 10.266500
11.738600 7.299600
11.761900 6.072500
11.785200 4.808800
11.808600 3.476900
11.831900 2.877300
11.855300 2.321300
11.878600 1.803400
11.901900 1.312500
11.925300 0.782400
11.948600 3.048300
11.972000 6.663900
11.995300 11.113600
12.018600 11.062400
12.042000 9.279200
12.065300 9.725500
12.088700 10.284800
12.112000 6.057100
12.135300 5.392700
12.158700 5.596200
12.182000 5.976900
12.205400 7.024600
12.228700 6.133900
12.252000 7.214800
12.275400 8.939300
12.298700 10.037400
12.322100 9.989700
12.345400 8.983700
12.368700 7.566200
12.392100 6.544800
12.415400 4.874700
12.438700 3.291800
12.462100 2.153500
12.485400 1.967500
12.508800 2.086700
12.532100 2.295300
12.555400 2.775700
12.578800 4.243200
12.602100 5.214000
12.625500 5.755600
12.648800 5.999700
12.672100 6.293700
12.695500 6.659300
12.718800 11.807500
12.742200 9.130900
12.765500 8.451300
12.788800 8.457500
12.812200 8.439000
12.835500 8.395800
12.858900 8.327900
12.882200 7.067100
12.905500 6.651200
12.928900 17.078200
12.952200 7.795600
12.975600 5.583900
12.998900 4.742500
13.022200 3.980100
13.045600 3.296900
13.068900 5.046000
13.092300 7.240800
13.115600 10.651600
13.138900 16.140100
13.162300 23.339500
13.185600 8.868000
13.209000 7.571800
13.232300 6.646700
13.255600 6.092700
13.279000 5.632500
13.302300 5.356800
13.325700 5.203900
13.349000 5.173800
13.372300 7.589600
13.395700 7.690300
13.419000 6.946400
13.442400 7.796800
13.465700 15.415000
13.489000 11.446500
13.512400 7.469700
13.535700 3.556100
13.559100 0.498300
13.582400 0.121300
13.605700 0.720800
13.629100 1.822900
13.652400 3.427700
13.675700 13.405400
13.699100 13.031500
13.722400 13.648600
13.745800 7.704100
13.769100 7.862500
13.792400 7.505500
13.815800 7.097000
13.839100 6.637100
13.862500 5.952200
13.885800 5.715200
13.909100 4.105600
13.932500 5.088700
13.955800 5.625000
13.979200 5.829300
14.002500 5.937900
14.025800 5.950900
14.049200 5.868100
14.072500 6.982100
14.095900 8.100700
14.119200 3.124200
14.142500 2.714000
14.165900 2.356200
14.189200 2.047500
14.212600 1.750800
14.235900 1.455700
14.259200 1.162200
14.282600 0.715500
14.305900 0.380600
14.329300 0.160400
14.352600 0.000000
14.375900 0.000000
14.399300 0.000000
14.422600 0.000000
14.446000 0.000000
14.469300 0.416700
14.492600 1.713300
14.516000 3.890200
14.539300 14.176900
14.562700 12.215000
14.586000 8.176400
14.609300 7.267400
14.632700 6.415000
14.656000 5.619200
14.679400 4.879900
14.702700 4.214900
14.726000 3.842900
14.749400 3.328900
14.772700 4.581000
14.796100 1.608600
14.819400 2.123500
14.842700 2.394000
14.866100 3.071600
14.889400 3.839800
14.912700 4.698600
14.936100 6.293500
14.959400 7.128900
14.982800 7.933200
15.006100 9.710200
15.029400 10.104100
15.052800 9.599100
15.076100 8.281100
15.099500 6.575600
15.122800 6.052700
15.146100 5.791200
15.169500 6.466900
15.192800 8.025200
15.216200 9.457400
15.239500 10.306600
15.262800 10.820000
15.286200 17.748000
15.309500 11.478000
15.332900 10.076900
15.356200 8.776700
15.379500 7.029300
15.402900 5.972600
15.426200 5.224600
15.449600 3.909400
15.472900 4.208700
15.496200 5.663000
15.519600 8.605900
15.542900 11.757500
15.566300 9.933200
15.589600 8.041800
15.612900 5.812900
15.636300 5.084900
15.659600 4.372400
15.683000 3.244100
15.706300 2.217000
15.729600 2.499200
15.753000 2.821000
15.776300 3.182300
15.799700 3.547900
15.823000 3.908900
15.846300 4.321500
15.869700 4.959000
15.893000 5.539700
15.916400 6.166100
15.939700 6.838400
15.963000 7.556400
15.986400 8.190100
16.009700 8.090800
16.033000 7.466800
16.056400 7.112000
16.079700 11.125600
16.103100 12.709700
16.126400 14.339800
16.149700 7.531300
16.173100 5.613000
16.196400 4.036500
16.219800 3.125700
16.243100 2.548300
16.266400 2.365700
16.289800 3.166000
16.313100 3.932300
16.336500 5.188000
16.359800 6.542000
16.383100 8.080300
16.406500 9.766000
16.429800 10.623000
16.453200 10.723600
16.476500 10.674500
16.499800 10.843800
16.523200 7.049400
16.546500 6.733200
16.569900 7.191900
16.593200 6.853800
16.616500 13.088600
16.639900 18.099700
16.663200 7.060300
16.686600 6.009000
16.709900 5.039500
16.733200 4.151700
16.756600 3.345700
16.779900 2.621400
16.803300 0.913500
16.826600 9.184200
16.849900 7.409900
16.873300 6.066600
16.896600 5.353300
16.920000 4.643800
16.943300 4.459900
16.966600 5.335400
16.990000 6.300800
17.013300 11.120800
17.036700 12.540900
17.060000 11.331500
17.083300 11.300700
17.106700 11.090300
17.130000 10.568400
17.153400 8.903600
17.176700 7.638300
17.200000 7.227400
17.223400 5.464600
17.246700 5.618000
17.270000 6.265700
17.293400 3.705400
17.316700 4.041800
17.340100 4.387100
17.363400 4.741300
17.386700 5.104200
17.410100 5.476100
17.433400 5.856800
17.456800 6.246300
17.480100 6.643800
17.503400 6.863500
17.526800 6.111200
17.550100 4.762900
17.573500 4.519900
17.596800 4.240700
17.620100 4.165000
17.643500 4.098800
17.666800 4.042100
17.690200 3.994800
17.713500 3.957100
17.736800 3.928700
17.760200 3.909900
17.783500 6.434800
17.806900 5.734900
17.830200 5.106300
17.853500 4.591700
17.876900 3.333500
17.900200 3.272100
17.923600 3.389900
17.946900 3.601900
17.970200 3.830600
17.993600 4.076000
18.016900 5.328300
18.040300 5.886700
18.063600 6.323300
18.086900 7.997300
18.110300 9.868300
18.133600 10.204200
18.157000 10.095000
18.180300 9.473400
18.203600 8.757900
18.227000 7.938500
18.250300 6.599800
18.273700 5.898500
18.297000 5.342900
18.320300 4.932900
18.343700 4.640100
18.367000 4.440200
18.390400 4.067900
18.413700 3.914100
18.437000 3.846900
18.460400 3.866500
18.483700 7.042600
18.507000 6.754100
18.530400 6.525200
18.553700 6.030400
18.577100 5.035500
18.600400 5.116100
18.623700 4.538300
18.647100 4.504200
18.670400 4.415600
18.693800 4.272600
18.717100 4.075100
18.740400 3.823200
18.763800 3.393200
18.787100 2.849300
18.810500 3.171300
18.833800 2.716000
18.857100 2.409600
18.880500 2.252200
18.903800 1.710300
18.927200 1.927800
18.950500 2.155500
18.973800 2.393400
18.997200 2.641600
19.020500 2.899900
19.043900 5.514700
19.067200 6.834500
19.090500 7.877500
19.113900 8.643700
19.137200 9.133100
19.160600 10.316600
19.183900 7.557900
19.207200 6.675000
19.230600 4.997600
19.253900 1.977600
19.277300 2.288300
19.300600 2.660400
19.323900 3.090800
19.347300 4.616600
19.370600 11.319800
19.394000 8.328400
19.417300 8.988000
19.440600 8.430400
19.464000 7.598700
19.487300 6.492700
19.510700 5.301200
19.534000 3.257400
19.557300 1.952000
19.580700 3.074600
19.604000 5.994900
19.627400 7.744500
19.650700 5.234600
19.674000 5.407100
19.697400 5.489300
19.720700 5.481300
19.744000 5.554400
19.767400 5.597300
19.790700 5.424900
19.814100 5.037000
19.837400 4.409900
19.860700 5.738700
19.884100 5.303800
19.907400 5.384500
19.930800 5.982400
19.954100 6.675900
19.977400 7.344000
20.000800 7.930200
20.024100 7.425400
20.047500 7.482800
20.070800 7.548900
20.094100 7.623500
20.117500 7.145500
20.140800 7.314100
20.164200 6.968600
20.187500 6.471400
20.210800 6.236500
20.234200 6.054200
20.257500 6.107700
20.280900 6.117200
20.304200 5.692400
20.327500 5.094500
20.350900 4.341200
20.374200 3.701900
20.397600 3.176400
20.420900 2.626900
20.444200 2.509500
20.467600 2.395800
20.490900 2.285800
20.514300 2.445000
20.537600 3.887800
20.560900 5.801000
20.584300 7.639900
20.607600 9.560600
20.631000 17.742100
20.654300 4.889500
20.677600 5.138800
20.701000 5.096000
20.724300 5.086100
20.747700 5.104400
20.771000 5.148800
20.794300 5.559600
20.817700 5.744700
20.841000 7.622400
20.864400 7.007500
20.887700 6.822100
20.911000 7.232200
20.934400 8.570900
20.957700 8.458200
20.981000 8.456700
21.004400 8.195200
21.027700 7.976800
21.051100 6.688300
21.074400 5.551300
21.097700 6.810600
21.121100 6.539800
21.144400 6.335200
21.167800 5.966000
21.191100 5.613400
21.214400 5.643600
21.237800 5.632700
21.261100 5.540900
21.284500 5.370800
21.307800 5.122300
21.331100 5.365400
21.354500 6.558500
21.377800 8.130800
21.401200 5.872500
21.424500 6.433200
21.447800 6.439600
21.471200 6.502900
21.494500 6.533000
21.517900 6.530000
21.541200 6.505100
21.564500 6.536200
21.587900 6.585100
21.611200 6.664700
21.634600 6.765000
21.657900 6.966100
21.681200 7.302100
21.704600 6.335700
21.727900 6.292700
21.751300 8.034400
21.774600 6.736000
21.797900 5.820400
21.821300 5.510900
21.844600 5.593500
21.868000 5.698100
21.891300 5.824800
21.914600 5.973700
21.938000 6.144600
21.961300 6.337600
21.984700 6.552600
22.008000 9.453900
22.031300 8.904000
22.054700 8.671500
22.078000 6.563400
22.101300 2.356100
22.124700 1.569900
22.148000 1.422600
22.171400 1.283800
22.194700 1.153500
22.218000 1.031800
22.241400 0.918600
22.264700 0.814000
22.288100 0.718000
22.311400 0.630500
22.334700 0.551500
22.358100 0.481100
22.381400 0.419300
22.404800 0.357200
22.428100 0.004500
22.451400 0.000000
22.474800 0.000000
22.498100 0.000000
22.521500 0.000000
22.544800 0.000000
22.568100 0.000000
22.591500 0.000000
22.614800 0.000000
22.638200 0.000000
22.661500 0.000000
22.684800 0.000000
22.708200 0.000000
22.731500 0.000000
22.754900 0.000000
22.778200 0.000000
22.801500 0.000000
22.824900 0.000000
22.848200 0.000000
22.871600 0.000000
22.894900 0.000000
22.918200 0.000000
22.941600 0.000000
22.964900 0.000000
22.988300 0.000000
23.011600 0.000000
23.034900 0.000000
23.058300 0.000000
23.081600 0.000000
23.105000 0.000000
23.128300 0.000000
23.151600 0.000000
23.175000 0.000000
23.198300 0.000000
23.221700 0.000000
23.245000 0.000000
23.268300 0.000000
23.291700 0.000000
23.315000 0.000000
23.338300 0.000000
23.361700 0.000000
23.385000 0.000000
23.408400 0.000000
23.431700 0.000000
23.455000 0.000000
23.478400 0.000000
23.501700 0.000000
23.525100 0.000000
23.548400 0.000000
23.571700 0.000000
23.595100 0.000000
23.618400 0.000000
23.641800 0.000000
23.665100 0.000000
23.688400 0.000000
23.711800 0.000000
23.735100 0.000000
23.758500 0.000000
23.781800 0.000000
23.805100 0.000000
23.828500 0.000000
23.851800 0.000000
23.875200 0.000000
23.898500 0.000000
23.921800 0.000000
23.945200 0.000000
23.968500 0.000000
23.991900 0.000000
24.015200 0.000000
24.038500 0.000000
24.061900 0.000000
24.085200 0.000000
24.108600 0.000000
24.131900 0.000000
24.155200 0.000000
24.178600 0.000000
24.201900 0.000000
24.225300 0.000000
24.248600 0.000000
24.271900 0.000000
24.295300 0.000000
24.318600 0.000000
24.342000 0.000000
24.365300 0.000000
24.388600 0.000000
24.412000 0.000000
24.435300 0.000000
24.458700 0.000000
24.482000 0.000000
24.505300 0.000000
24.528700 0.000000
24.552000 0.000000
e
