set title 'mp-644607 - Density of States'
set xlabel 'Energy (eV)'
set ylabel 'DOS (states/eV)'
set grid
set xrange [-10:10]
set yrange [0:34.229]
set xzeroaxis lt -1
set terminal png size 800,600
set output 'mp-644607_dos_gnuplot.png'
plot '-' using 1:2 with lines title 'DOS'
-27.739600 0.000000
-27.702900 0.000000
-27.666100 0.000000
-27.629400 0.000000
-27.592600 0.000000
-27.555900 0.000000
-27.519200 0.000000
-27.482400 0.000000
-27.445700 0.000000
-27.408900 0.000000
-27.372200 0.000000
-27.335500 0.000000
-27.298700 0.000000
-27.262000 0.000000
-27.225200 0.000000
-27.188500 0.000000
-27.151700 0.000000
-27.115000 0.000000
-27.078300 0.000000
-27.041500 0.000000
-27.004800 0.000000
-26.968000 0.000000
-26.931300 0.000000
-26.894600 0.000000
-26.857800 0.000000
-26.821100 0.000000
-26.784300 0.000000
-26.747600 0.000000
-26.710800 0.000000
-26.674100 0.000000
-26.637400 0.000000
-26.600600 0.000000
-26.563900 0.000000
-26.527100 0.000000
-26.490400 0.000000
-26.453700 0.000000
-26.416900 0.000000
-26.380200 0.000000
-26.343400 0.000000
-26.306700 0.000000
-26.269900 0.000000
-26.233200 0.000000
-26.196500 0.000000
-26.159700 0.000000
-26.123000 0.000000
-26.086200 0.000000
-26.049500 0.000000
-26.012700 0.000000
-25.976000 0.000000
-25.939300 0.000000
-25.902500 0.000000
-25.865800 0.000000
-25.829000 0.000000
-25.792300 0.000000
-25.755600 0.000000
-25.718800 0.000000
-25.682100 0.000000
-25.645300 0.000000
-25.608600 0.000000
-25.571800 0.000000
-25.535100 0.000000
-25.498400 0.000000
-25.461600 0.000000
-25.424900 0.000000
-25.388100 0.000000
-25.351400 0.000000
-25.314700 0.000000
-25.277900 0.000000
-25.241200 0.000000
-25.204400 0.000000
-25.167700 0.000000
-25.130900 0.000000
-25.094200 0.000000
-25.057500 0.000000
-25.020700 0.000000
-24.984000 0.000000
-24.947200 0.000000
-24.910500 0.000000
-24.873700 0.000000
-24.837000 0.000000
-24.800300 0.000000
-24.763500 0.000000
-24.726800 0.000000
-24.690000 0.000000
-24.653300 0.000000
-24.616600 0.000000
-24.579800 0.000000
-24.543100 0.000000
-24.506300 0.000000
-24.469600 0.000000
-24.432800 0.000000
-24.396100 0.079300
-24.359400 6.054900
-24.322600 13.967600
-24.285900 25.763000
-24.249100 58.579500
-24.212400 0.000000
-24.175700 0.000000
-24.138900 0.000000
-24.102200 0.000000
-24.065400 0.000000
-24.028700 0.000000
-23.991900 0.000000
-23.955200 0.000000
-23.918500 0.000000
-23.881700 0.000000
-23.845000 0.000000
-23.808200 0.000000
-23.771500 0.000000
-23.734800 0.000000
-23.698000 0.000000
-23.661300 0.000000
-23.624500 0.000000
-23.587800 0.000000
-23.551000 0.000000
-23.514300 0.000000
-23.477600 0.000000
-23.440800 0.000000
-23.404100 0.000000
-23.367300 0.000000
-23.330600 0.000000
-23.293800 49.727400
-23.257100 46.551300
-23.220400 0.000000
-23.183600 0.000000
-23.146900 0.000000
-23.110100 0.000000
-23.073400 0.000000
-23.036700 0.000000
-22.999900 0.000000
-22.963200 0.000000
-22.926400 0.000000
-22.889700 0.000000
-22.852900 0.000000
-22.816200 0.000000
-22.779500 0.000000
-22.742700 0.000000
-22.706000 0.000000
-22.669200 0.000000
-22.632500 0.000000
-22.595800 0.000000
-22.559000 0.000000
-22.522300 0.000000
-22.485500 0.000000
-22.448800 0.000000
-22.412000 0.000000
-22.375300 0.000000
-22.338600 0.000000
-22.301800 0.000000
-22.265100 0.000000
-22.228300 0.000000
-22.191600 0.000000
-22.154800 0.000000
-22.118100 0.000000
-22.081400 0.000000
-22.044600 0.000000
-22.007900 0.000000
-21.971100 0.000000
-21.934400 0.000000
-21.897700 0.000000
-21.860900 0.000000
-21.824200 0.000000
-21.787400 0.000000
-21.750700 0.000000
-21.713900 0.000000
-21.677200 0.000000
-21.640500 0.000000
-21.603700 0.000000
-21.567000 0.000000
-21.530200 0.000000
-21.493500 0.000000
-21.456800 0.000000
-21.420000 0.000000
-21.383300 0.000000
-21.346500 0.000000
-21.309800 0.000000
-21.273000 0.000000
-21.236300 0.000000
-21.199600 0.000000
-21.162800 0.000000
-21.126100 0.000000
-21.089300 0.000000
-21.052600 0.000000
-21.015900 0.000000
-20.979100 0.000000
-20.942400 0.000000
-20.905600 0.000000
-20.868900 0.000000
-20.832100 0.000000
-20.795400 0.000000
-20.758700 0.000000
-20.721900 0.000000
-20.685200 0.000000
-20.648400 0.000000
-20.611700 0.000000
-20.574900 0.000000
-20.538200 0.000000
-20.501500 0.000000
-20.464700 0.000000
-20.428000 0.000000
-20.391200 0.000000
-20.354500 0.000000
-20.317800 0.000000
-20.281000 0.000000
-20.244300 0.000000
-20.207500 0.000000
-20.170800 0.000000
-20.134000 0.000000
-20.097300 0.000000
-20.060600 0.000000
-20.023800 0.000000
-19.987100 0.000000
-19.950300 0.000000
-19.913600 0.000000
-19.876900 0.000000
-19.840100 0.000000
-19.803400 0.000000
-19.766600 0.000000
-19.729900 0.000000
-19.693100 0.000000
-19.656400 0.000000
-19.619700 0.000000
-19.582900 0.000000
-19.546200 0.000000
-19.509400 0.000000
-19.472700 0.000000
-19.436000 0.000000
-19.399200 0.000000
-19.362500 0.000000
-19.325700 0.000000
-19.289000 0.000000
-19.252200 0.000000
-19.215500 0.000000
-19.178800 0.000000
-19.142000 0.000000
-19.105300 0.000000
-19.068500 0.000000
-19.031800 0.000000
-18.995000 0.000000
-18.958300 0.000000
-18.921600 0.000000
-18.884800 0.000000
-18.848100 0.000000
-18.811300 0.000000
-18.774600 0.000000
-18.737900 0.000000
-18.701100 0.000000
-18.664400 0.000000
-18.627600 0.000000
-18.590900 0.000000
-18.554100 0.000000
-18.517400 0.000000
-18.480700 0.000000
-18.443900 0.000000
-18.407200 0.000000
-18.370400 0.000000
-18.333700 0.000000
-18.297000 0.000000
-18.260200 0.000000
-18.223500 0.000000
-18.186700 0.000000
-18.150000 0.000000
-18.113200 0.000000
-18.076500 0.000000
-18.039800 0.000000
-18.003000 0.000000
-17.966300 0.000000
-17.929500 0.000000
-17.892800 0.000000
-17.856000 0.000000
-17.819300 0.000000
-17.782600 0.000000
-17.745800 0.000000
-17.709100 0.000000
-17.672300 0.000000
-17.635600 0.000000
-17.598900 0.000000
-17.562100 0.000000
-17.525400 0.000000
-17.488600 0.000000
-17.451900 0.000000
-17.415100 0.000000
-17.378400 0.000000
-17.341700 0.000000
-17.304900 0.000000
-17.268200 0.000000
-17.231400 0.000000
-17.194700 0.000000
-17.158000 0.000000
-17.121200 0.000000
-17.084500 0.000000
-17.047700 0.000000
-17.011000 0.000000
-16.974200 0.000000
-16.937500 0.000000
-16.900800 0.000000
-16.864000 0.000000
-16.827300 0.000000
-16.790500 0.000000
-16.753800 0.000000
-16.717100 0.000000
-16.680300 0.000000
-16.643600 0.000000
-16.606800 0.000000
-16.570100 0.000000
-16.533300 0.000000
-16.496600 0.000000
-16.459900 0.000000
-16.423100 0.000000
-16.386400 0.000000
-16.349600 0.000000
-16.312900 0.000000
-16.276100 0.000000
-16.239400 0.000000
-16.202700 0.000000
-16.165900 0.000000
-16.129200 0.000000
-16.092400 0.000000
-16.055700 0.000000
-16.019000 0.000000
-15.982200 0.000000
-15.945500 0.000000
-15.908700 0.000000
-15.872000 0.000000
-15.835200 0.000000
-15.798500 0.000000
-15.761800 0.000000
-15.725000 0.000000
-15.688300 0.000000
-15.651500 0.000000
-15.614800 0.000000
-15.578100 0.000000
-15.541300 0.000000
-15.504600 0.000000
-15.467800 0.000000
-15.431100 0.000000
-15.394300 0.000000
-15.357600 0.000000
-15.320900 0.000000
-15.284100 0.000000
-15.247400 0.000000
-15.210600 0.000000
-15.173900 0.000000
-15.137100 0.000000
-15.100400 0.000000
-15.063700 0.000000
-15.026900 0.000000
-14.990200 0.000000
-14.953400 0.000000
-14.916700 0.000000
-14.880000 0.000000
-14.843200 0.000000
-14.806500 0.000000
-14.769700 0.000000
-14.733000 0.000000
-14.696200 0.000000
-14.659500 0.000000
-14.622800 0.000000
-14.586000 0.000000
-14.549300 0.000000
-14.512500 0.000000
-14.475800 0.000000
-14.439100 0.000000
-14.402300 0.000000
-14.365600 0.000000
-14.328800 0.000000
-14.292100 0.000000
-14.255300 0.000000
-14.218600 0.000000
-14.181900 0.000000
-14.145100 0.000000
-14.108400 0.000000
-14.071600 0.000000
-14.034900 0.000000
-13.998200 0.000000
-13.961400 0.000000
-13.924700 0.000000
-13.887900 0.000000
-13.851200 0.000000
-13.814400 0.000000
-13.777700 0.000000
-13.741000 0.000000
-13.704200 0.000000
-13.667500 0.000000
-13.630700 0.000000
-13.594000 0.000000
-13.557200 0.000000
-13.520500 0.000000
-13.483800 0.000000
-13.447000 0.000000
-13.410300 0.000000
-13.373500 0.000000
-13.336800 0.000000
-13.300100 0.000000
-13.263300 0.000000
-13.226600 0.000000
-13.189800 0.000000
-13.153100 0.000000
-13.116300 0.000000
-13.079600 0.000000
-13.042900 0.000000
-13.006100 0.000000
-12.969400 0.000000
-12.932600 0.000000
-12.895900 0.000000
-12.859200 0.000000
-12.822400 0.000000
-12.785700 0.000000
-12.748900 0.000000
-12.712200 0.000000
-12.675400 0.000000
-12.638700 0.000000
-12.602000 0.000000
-12.565200 0.000000
-12.528500 0.000000
-12.491700 0.000000
-12.455000 0.000000
-12.418300 0.000000
-12.381500 0.000000
-12.344800 0.000000
-12.308000 0.000000
-12.271300 0.000000
-12.234500 0.000000
-12.197800 0.000000
-12.161100 0.000000
-12.124300 0.000000
-12.087600 0.000000
-12.050800 0.000000
-12.014100 0.000000
-11.977300 0.000000
-11.940600 0.000000
-11.903900 0.000000
-11.867100 0.000000
-11.830400 0.000000
-11.793600 0.000000
-11.756900 0.000000
-11.720200 0.000000
-11.683400 0.000000
-11.646700 0.000000
-11.609900 0.000000
-11.573200 0.000000
-11.536400 0.000000
-11.499700 0.000000
-11.463000 0.000000
-11.426200 0.000000
-11.389500 0.000000
-11.352700 0.000000
-11.316000 0.000000
-11.279300 0.000000
-11.242500 0.000000
-11.205800 0.000000
-11.169000 0.000000
-11.132300 0.000000
-11.095500 0.000000
-11.058800 0.000000
-11.022100 0.000000
-10.985300 0.000000
-10.948600 0.000000
-10.911800 0.000000
-10.875100 0.000000
-10.838300 0.000000
-10.801600 0.000000
-10.764900 0.000000
-10.728100 0.000000
-10.691400 0.000000
-10.654600 0.000000
-10.617900 0.000000
-10.581200 0.000000
-10.544400 0.000000
-10.507700 0.000000
-10.470900 0.000000
-10.434200 0.000000
-10.397400 0.000000
-10.360700 0.000000
-10.324000 0.000000
-10.287200 0.000000
-10.250500 0.000000
-10.213700 0.000000
-10.177000 0.000000
-10.140300 0.000000
-10.103500 0.000000
-10.066800 0.000000
-10.030000 0.000000
-9.993300 0.000000
-9.956500 0.000000
-9.919800 0.000000
-9.883100 0.000000
-9.846300 0.000000
-9.809600 0.000000
-9.772800 0.000000
-9.736100 0.000000
-9.699400 0.000000
-9.662600 0.000000
-9.625900 0.000000
-9.589100 0.000000
-9.552400 0.000000
-9.515600 0.000000
-9.478900 0.000000
-9.442200 0.000000
-9.405400 0.000000
-9.368700 0.000000
-9.331900 0.000000
-9.295200 0.000000
-9.258400 0.000000
-9.221700 0.000000
-9.185000 8.262900
-9.148200 13.831900
-9.111500 15.518100
-9.074700 15.913200
-9.038000 15.396500
-9.001300 31.117300
-8.964500 6.107700
-8.927800 0.000000
-8.891000 0.000000
-8.854300 0.000000
-8.817500 0.000000
-8.780800 0.000000
-8.744100 0.000000
-8.707300 0.000000
-8.670600 0.000000
-8.633800 0.000000
-8.597100 0.000000
-8.560400 0.000000
-8.523600 0.000000
-8.486900 0.000000
-8.450100 0.000000
-8.413400 0.139500
-8.376600 0.777300
-8.339900 1.685400
-8.303200 4.851200
-8.266400 6.448000
-8.229700 9.641500
-8.192900 14.683000
-8.156200 18.956100
-8.119400 16.132300
-8.082700 7.620200
-8.046000 6.997700
-8.009200 5.125400
-7.972500 3.558700
-7.935700 3.251800
-7.899000 6.426000
-7.862300 11.969000
-7.825500 13.240000
-7.788800 13.716600
-7.752000 11.403400
-7.715300 11.927400
-7.678500 9.306300
-7.641800 13.388800
-7.605100 16.035600
-7.568300 20.850700
-7.531600 22.157700
-7.494800 23.148800
-7.458100 18.491400
-7.421400 14.804400
-7.384600 15.134600
-7.347900 5.900900
-7.311100 1.403500
-7.274400 0.037800
-7.237600 0.000000
-7.200900 0.000000
-7.164200 0.000000
-7.127400 0.000000
-7.090700 0.000000
-7.053900 0.000000
-7.017200 0.000000
-6.980500 0.000000
-6.943700 0.000000
-6.907000 0.000000
-6.870200 0.000000
-6.833500 0.000000
-6.796700 0.000000
-6.760000 0.000000
-6.723300 0.000000
-6.686500 0.000000
-6.649800 0.000000
-6.613000 0.000000
-6.576300 0.000000
-6.539500 0.000000
-6.502800 0.000000
-6.466100 0.000000
-6.429300 0.000000
-6.392600 0.000000
-6.355800 0.000000
-6.319100 0.000000
-6.282400 0.000000
-6.245600 0.000000
-6.208900 0.000000
-6.172100 0.000000
-6.135400 0.000000
-6.098600 0.000000
-6.061900 0.000000
-6.025200 0.000000
-5.988400 0.000000
-5.951700 0.000000
-5.914900 0.000000
-5.878200 0.000000
-5.841500 0.000000
-5.804700 0.000000
-5.768000 0.000000
-5.731200 0.000000
-5.694500 0.000000
-5.657700 0.000000
-5.621000 0.000000
-5.584300 0.000000
-5.547500 0.000000
-5.510800 0.000000
-5.474000 0.000000
-5.437300 0.000000
-5.400600 0.000000
-5.363800 0.000000
-5.327100 0.000000
-5.290300 0.000000
-5.253600 0.000000
-5.216800 0.000000
-5.180100 0.000000
-5.143400 0.000000
-5.106600 0.000000
-5.069900 0.000000
-5.033100 0.000000
-4.996400 0.000000
-4.959600 0.000000
-4.922900 0.000000
-4.886200 0.017700
-4.849400 0.126700
-4.812700 0.295400
-4.775900 0.511400
-4.739200 0.774000
-4.702500 1.101400
-4.665700 1.367700
-4.629000 1.582800
-4.592200 1.732700
-4.555500 2.040500
-4.518700 2.557100
-4.482000 3.199200
-4.445300 5.361600
-4.408500 8.664700
-4.371800 10.681600
-4.335000 14.250700
-4.298300 24.126200
-4.261600 28.354700
-4.224800 4.084500
-4.188100 7.625400
-4.151300 25.261400
-4.114600 13.350800
-4.077800 13.755700
-4.041100 11.535900
-4.004400 7.361300
-3.967600 5.381100
-3.930900 4.869600
-3.894100 4.407900
-3.857400 4.030600
-3.820600 4.291700
-3.783900 3.554100
-3.747200 2.293400
-3.710400 1.032100
-3.673700 0.000000
-3.636900 0.000000
-3.600200 0.000000
-3.563500 0.000000
-3.526700 0.000000
-3.490000 0.000000
-3.453200 0.000000
-3.416500 0.000000
-3.379700 0.000000
-3.343000 0.000000
-3.306300 0.000000
-3.269500 0.000000
-3.232800 0.000000
-3.196000 0.000000
-3.159300 0.000000
-3.122600 0.000000
-3.085800 0.000000
-3.049100 0.000000
-3.012300 0.000000
-2.975600 0.000000
-2.938800 0.000000
-2.902100 0.000000
-2.865400 0.000000
-2.828600 0.000000
-2.791900 0.000000
-2.755100 0.000000
-2.718400 0.000000
-2.681700 0.000000
-2.644900 0.000000
-2.608200 0.000000
-2.571400 0.000000
-2.534700 0.000000
-2.497900 0.000000
-2.461200 0.000000
-2.424500 0.000000
-2.387700 0.000000
-2.351000 0.000000
-2.314200 0.000000
-2.277500 0.000000
-2.240700 0.000000
-2.204000 0.000000
-2.167300 0.000000
-2.130500 0.000000
-2.093800 0.000000
-2.057000 0.000000
-2.020300 0.000000
-1.983600 0.000000
-1.946800 0.000000
-1.910100 0.000000
-1.873300 0.000000
-1.836600 0.000000
-1.799800 0.000000
-1.763100 0.000000
-1.726400 0.000000
-1.689600 0.000000
-1.652900 0.000000
-1.616100 0.000000
-1.579400 0.000000
-1.542700 0.000000
-1.505900 0.000000
-1.469200 0.000000
-1.432400 0.000000
-1.395700 0.000000
-1.358900 0.000000
-1.322200 0.000000
-1.285500 0.000000
-1.248700 0.000000
-1.212000 0.000000
-1.175200 0.000000
-1.138500 0.000000
-1.101800 0.000000
-1.065000 0.000000
-1.028300 0.000000
-0.991500 0.000000
-0.954800 0.000000
-0.918000 0.000000
-0.881300 0.000000
-0.844600 0.000000
-0.807800 0.000000
-0.771100 0.000000
-0.734300 0.000000
-0.697600 0.000000
-0.660800 0.000000
-0.624100 0.000000
-0.587400 0.000000
-0.550600 0.000000
-0.513900 0.000000
-0.477100 0.000000
-0.440400 0.000000
-0.403700 0.000000
-0.366900 0.000000
-0.330200 0.000000
-0.293400 0.000000
-0.256700 0.000000
-0.219900 0.000000
-0.183200 0.000000
-0.146500 0.000000
-0.109700 0.000000
-0.073000 0.000000
-0.036200 0.000000
0.000500 0.000000
0.037200 0.000000
0.074000 0.000000
0.110700 0.000000
0.147500 0.000000
0.184200 0.000000
0.221000 0.000000
0.257700 0.000000
0.294400 0.000000
0.331200 0.000000
0.367900 0.000000
0.404700 0.000000
0.441400 0.000000
0.478200 0.000000
0.514900 0.000000
0.551600 0.000000
0.588400 0.000000
0.625100 0.000000
0.661900 0.000000
0.698600 0.000000
0.735300 0.000000
0.772100 0.000000
0.808800 0.000000
0.845600 0.000000
0.882300 0.000000
0.919100 0.000000
0.955800 0.000000
0.992500 0.000000
1.029300 0.000000
1.066000 0.000000
1.102800 0.000000
1.139500 0.000000
1.176200 0.000000
1.213000 0.000000
1.249700 0.000000
1.286500 0.000000
1.323200 0.000000
1.360000 0.000000
1.396700 0.000000
1.433400 0.000000
1.470200 0.000000
1.506900 0.000000
1.543700 0.000000
1.580400 0.000000
1.617100 0.000000
1.653900 0.000000
1.690600 0.000000
1.727400 0.000000
1.764100 0.000000
1.800900 0.000000
1.837600 0.000000
1.874300 0.000000
1.911100 0.000000
1.947800 0.000000
1.984600 0.000000
2.021300 0.000000
2.058100 0.000000
2.094800 0.000000
2.131500 0.000000
2.168300 0.000000
2.205000 0.000000
2.241800 0.000000
2.278500 0.000000
2.315200 0.000000
2.352000 0.000000
2.388700 0.000000
2.425500 0.000000
2.462200 0.000000
2.499000 0.000000
2.535700 0.000000
2.572400 0.000000
2.609200 0.000000
2.645900 0.000100
2.682700 0.003200
2.719400 0.010700
2.756100 0.022600
2.792900 0.039000
2.829600 0.059800
2.866400 0.085000
2.903100 0.114600
2.939900 0.147200
2.976600 0.182300
3.013300 0.216800
3.050100 0.247400
3.086800 0.274200
3.123600 0.297100
3.160300 0.316200
3.197100 0.331400
3.233800 0.342400
3.270500 0.351600
3.307300 0.362200
3.344000 0.376700
3.380800 0.394900
3.417500 0.417000
3.454200 0.442900
3.491000 0.472500
3.527700 0.506100
3.564500 0.543800
3.601200 0.600700
3.638000 0.670000
3.674700 0.738100
3.711400 0.805100
3.748200 0.870900
3.784900 0.935500
3.821700 1.086400
3.858400 1.533800
3.895100 2.071000
3.931900 2.744200
3.968600 4.734600
4.005400 7.299800
4.042100 9.408000
4.078900 11.441400
4.115600 16.612400
4.152300 25.469800
4.189100 18.530700
4.225800 14.202300
4.262600 9.720600
4.299300 8.177700
4.336000 9.158400
4.372800 12.378900
4.409500 17.123600
4.446300 22.585700
4.483000 19.856400
4.519800 0.631800
4.556500 0.722100
4.593200 0.884800
4.630000 1.626400
4.666700 2.877900
4.703500 2.992700
4.740200 2.837200
4.777000 2.625100
4.813700 2.366400
4.850400 2.027800
4.887200 1.712200
4.923900 1.430100
4.960700 1.217000
4.997400 1.088200
5.034100 1.048000
5.070900 1.081800
5.107600 1.125800
5.144400 1.180100
5.181100 1.241700
5.217900 1.276600
5.254600 1.298500
5.291300 1.321000
5.328100 1.343300
5.364800 1.362600
5.401600 1.378800
5.438300 1.400000
5.475000 1.437100
5.511800 1.486000
5.548500 1.547400
5.585300 1.621000
5.622000 1.808100
5.658800 2.010300
5.695500 2.023200
5.732200 2.030200
5.769000 2.031400
5.805700 2.026700
5.842500 2.050300
5.879200 2.083600
5.915900 2.100600
5.952700 1.962800
5.989400 1.978700
6.026200 1.985300
6.062900 1.990700
6.099700 1.998200
6.136400 1.993000
6.173100 1.988600
6.209900 1.985600
6.246600 1.987000
6.283400 1.993100
6.320100 2.003900
6.356900 2.019400
6.393600 2.035100
6.430300 2.045700
6.467100 2.056100
6.503800 2.143900
6.540600 2.260500
6.577300 1.945300
6.614000 1.786200
6.650800 1.576400
6.687500 1.225900
6.724300 0.799000
6.761000 0.505400
6.797800 0.284100
6.834500 0.135200
6.871200 0.058700
6.908000 0.027100
6.944700 0.001000
6.981500 0.000000
7.018200 0.000000
7.054900 0.000000
7.091700 0.000000
7.128400 0.000000
7.165200 0.000000
7.201900 0.000000
7.238700 0.000000
7.275400 0.000000
7.312100 0.000000
7.348900 0.000000
7.385600 0.000000
7.422400 0.000000
7.459100 0.000000
7.495900 0.000000
7.532600 0.000000
7.569300 0.000000
7.606100 0.000000
7.642800 0.000000
7.679600 0.000000
7.716300 0.000000
7.753000 0.000000
7.789800 0.000000
7.826500 0.000000
7.863300 0.000000
7.900000 0.000000
7.936800 0.000000
7.973500 0.000000
8.010200 0.000000
8.047000 0.000000
8.083700 0.000000
8.120500 0.000000
8.157200 0.000000
8.193900 0.000000
8.230700 0.000000
8.267400 0.000000
8.304200 0.000000
8.340900 0.000000
8.377700 0.000000
8.414400 0.000000
8.451100 0.000000
8.487900 0.000000
8.524600 0.000000
8.561400 0.000000
8.598100 0.000000
8.634800 0.000000
8.671600 0.004700
8.708300 0.371800
8.745100 1.549900
8.781800 2.013000
8.818600 2.320400
8.855300 2.645600
8.892000 2.987600
8.928800 3.304800
8.965500 4.125300
9.002300 4.468800
9.039000 4.538900
9.075800 4.213500
9.112500 3.319800
9.149200 3.159500
9.186000 3.013000
9.222700 2.874900
9.259500 2.746000
9.296200 2.673100
9.332900 2.675500
9.369700 2.823200
9.406400 2.896900
9.443200 2.657400
9.479900 2.179800
9.516700 2.086100
9.553400 2.144100
9.590100 2.240000
9.626900 2.350500
9.663600 2.478100
9.700400 2.594800
9.737100 2.659000
9.773800 2.653900
9.810600 2.748000
9.847300 2.458600
9.884100 2.356700
9.920800 2.340700
9.957600 2.324600
9.994300 2.307000
10.031000 2.349200
10.067800 2.494100
10.104500 2.646800
10.141300 2.868600
10.178000 3.107600
10.214800 3.327600
10.251500 3.411400
10.288200 3.432000
10.325000 3.414000
10.361700 3.435600
10.398500 3.426200
10.435200 3.539100
10.471900 3.734200
10.508700 3.925000
10.545400 4.166500
10.582200 4.261700
10.618900 4.662600
10.655700 5.275600
10.692400 6.016300
10.729100 5.864600
10.765900 5.267400
10.802600 5.113300
10.839400 5.039000
10.876100 4.999900
10.912800 4.960800
10.949600 4.930400
10.986300 4.902400
11.023100 4.953300
11.059800 5.074200
11.096600 5.432300
11.133300 5.566600
11.170000 5.497200
11.206800 5.425500
11.243500 5.430600
11.280300 5.384000
11.317000 5.324300
11.353700 4.966900
11.390500 4.707700
11.427200 4.469200
11.464000 4.260600
11.500700 4.065200
11.537500 3.883700
11.574200 3.481200
11.610900 3.007100
11.647700 2.572200
11.684400 2.283500
11.721200 2.138800
11.757900 2.008300
11.794700 1.887500
11.831400 1.775700
11.868100 1.671200
11.904900 1.546600
11.941600 1.462900
11.978400 1.381900
12.015100 1.298900
12.051800 1.211500
12.088600 1.126300
12.125300 1.073600
12.162100 1.021700
12.198800 0.970600
12.235600 0.929300
12.272300 0.896400
12.309000 0.863200
12.345800 0.829700
12.382500 0.795900
12.419300 0.761800
12.456000 0.727400
12.492700 0.692700
12.529500 0.657700
12.566200 0.622500
12.603000 0.580500
12.639700 0.538100
12.676500 0.502900
12.713200 0.472300
12.749900 1.384100
12.786700 0.726100
12.823400 0.785000
12.860200 0.848900
12.896900 0.917800
12.933600 0.991800
12.970400 1.070700
13.007100 1.154600
13.043900 1.243500
13.080600 1.321300
13.117400 1.368600
13.154100 1.417400
13.190800 1.444000
13.227600 1.381900
13.264300 1.391800
13.301100 1.405500
13.337800 1.424700
13.374600 1.454400
13.411300 1.512500
13.448000 1.572100
13.484800 1.633400
13.521500 1.696400
13.558300 1.976000
13.595000 2.086400
13.631700 2.201000
13.668500 2.314900
13.705200 2.437300
13.742000 2.579600
13.778700 2.423700
13.815500 2.417900
13.852200 2.466900
13.888900 2.512700
13.925700 2.555500
13.962400 2.514600
13.999200 2.565100
14.035900 2.620000
14.072600 2.681700
14.109400 2.774600
14.146100 2.964300
14.182900 2.974900
14.219600 2.856400
14.256400 2.860900
14.293100 2.850100
14.329800 2.930300
14.366600 3.018300
14.403300 3.088400
14.440100 3.136200
14.476800 3.162800
14.513600 3.168300
14.550300 3.131500
14.587000 3.242000
14.623800 3.379200
14.660500 3.304600
14.697300 2.211400
14.734000 1.805300
14.770700 1.532800
14.807500 1.321500
14.844200 1.261600
14.881000 1.378500
14.917700 1.538200
14.954500 1.718000
14.991200 1.918200
15.027900 2.149900
15.064700 2.414900
15.101400 2.725100
15.138200 2.912900
15.174900 2.831800
15.211600 3.004000
15.248400 2.835700
15.285100 2.870200
15.321900 2.991300
15.358600 3.057400
15.395400 3.081100
15.432100 3.091900
15.468800 3.111400
15.505600 3.148500
15.542300 3.183000
15.579100 3.207600
15.615800 3.263800
15.652500 3.282300
15.689300 3.291500
15.726000 3.292000
15.762800 3.283800
15.799500 3.267000
15.836300 3.241500
15.873000 3.223400
15.909700 3.506900
15.946500 3.702900
15.983200 3.662400
16.020000 3.497500
16.056700 3.313300
16.093500 2.861900
16.130200 2.646300
16.166900 2.467900
16.203700 2.319900
16.240400 2.690900
16.277200 1.986400
16.313900 1.842100
16.350600 1.751700
16.387400 1.693200
16.424100 1.652500
16.460900 1.612600
16.497600 1.573400
16.534400 1.556600
16.571100 1.575300
16.607800 1.636600
16.644600 1.684900
16.681300 1.698700
16.718100 1.692200
16.754800 1.682300
16.791500 1.673100
16.828300 1.673100
16.865000 1.624900
16.901800 1.640500
16.938500 1.656500
16.975300 1.671400
17.012000 1.684400
17.048700 1.695600
17.085500 1.705000
17.122200 1.712600
17.159000 1.718300
17.195700 1.722300
17.232500 1.734000
17.269200 1.775700
17.305900 1.889300
17.342700 2.009600
17.379400 2.131900
17.416200 2.281700
17.452900 2.440200
17.489600 2.517700
17.526400 2.625600
17.563100 2.758300
17.599900 3.017100
17.636600 3.076200
17.673400 3.047900
17.710100 2.970300
17.746800 2.936000
17.783600 2.936100
17.820300 2.940200
17.857100 2.948500
17.893800 3.117800
17.930500 5.169300
17.967300 4.012800
18.004000 3.561400
18.040800 3.564000
18.077500 3.670500
18.114300 3.791300
18.151000 3.947200
18.187700 3.766000
18.224500 3.730900
18.261200 3.768000
18.298000 3.809800
18.334700 3.845100
18.371400 3.876300
18.408200 3.917800
18.444900 4.178500
18.481700 4.460000
18.518400 4.408400
18.555200 4.303400
18.591900 4.225200
18.628600 3.810400
18.665400 3.804500
18.702100 3.848400
18.738900 3.993600
18.775600 3.915000
18.812400 3.815600
18.849100 3.534200
18.885800 3.281400
18.922600 3.119000
18.959300 3.061200
18.996100 3.010600
19.032800 2.956000
19.069500 3.322700
19.106300 3.123800
19.143000 3.076100
19.179800 3.192500
19.216500 3.119100
19.253300 2.915600
19.290000 2.827100
19.326700 2.855500
19.363500 2.891800
19.400200 2.943100
19.437000 3.237700
19.473700 3.322900
19.510400 3.741200
19.547200 3.414100
19.583900 3.227500
19.620700 3.098900
19.657400 2.976500
19.694200 2.844800
19.730900 2.657200
19.767600 2.554000
19.804400 2.563200
19.841100 2.599900
19.877900 2.679200
19.914600 2.792500
19.951300 2.917600
19.988100 3.015500
20.024800 3.118100
20.061600 3.251300
20.098300 3.382100
20.135100 3.444600
20.171800 3.812500
20.208500 4.632500
20.245300 5.174400
20.282000 3.746500
20.318800 3.328600
20.355500 2.985600
20.392300 3.028500
20.429000 3.242400
20.465700 3.523000
20.502500 3.538800
20.539200 3.462800
20.576000 3.354200
20.612700 3.258400
20.649400 3.220100
20.686200 3.208600
20.722900 3.189100
20.759700 3.255300
20.796400 3.279800
20.833200 3.313300
20.869900 3.356500
20.906600 3.435900
20.943400 3.462600
20.980100 3.318500
21.016900 3.149600
21.053600 3.005100
21.090300 2.908600
21.127100 2.886400
21.163800 2.909200
21.200600 2.884900
21.237300 2.812900
21.274100 2.531700
21.310800 2.230100
21.347500 2.018800
21.384300 1.933900
21.421000 1.864300
21.457800 1.751900
21.494500 1.645500
21.531300 1.534800
21.568000 1.413100
21.604700 1.280400
21.641500 1.094100
21.678200 1.040100
21.715000 1.004200
21.751700 0.995500
21.788400 1.032900
21.825200 1.115300
21.861900 1.244500
21.898700 1.313800
21.935400 1.466300
21.972200 1.564100
22.008900 2.051200
22.045600 2.854200
22.082400 3.477900
22.119100 3.766200
22.155900 3.996700
22.192600 4.073200
22.229300 4.144600
22.266100 4.618300
22.302800 3.083200
22.339600 2.965200
22.376300 2.858100
22.413100 2.763500
22.449800 2.684100
22.486500 3.122600
22.523300 3.087500
22.560000 3.080700
22.596800 3.047500
22.633500 2.998300
22.670200 2.979800
22.707000 2.992600
22.743700 3.000600
22.780500 2.983400
22.817200 2.760500
22.854000 3.575600
22.890700 1.919300
22.927400 1.817400
22.964200 1.776100
23.000900 1.741800
23.037700 1.727800
23.074400 1.695000
23.111200 2.149800
23.147900 2.929000
23.184600 2.250900
23.221400 2.259200
23.258100 2.373200
23.294900 2.572100
23.331600 2.789300
23.368300 2.975500
23.405100 3.075300
23.441800 3.144200
23.478600 3.303700
23.515300 3.437200
23.552100 3.533500
23.588800 3.654800
23.625500 3.371600
23.662300 3.648800
23.699000 3.936300
23.735800 4.356000
23.772500 5.025500
23.809200 5.873600
23.846000 6.573400
23.882700 6.042500
23.919500 4.791800
23.956200 3.654000
23.993000 3.406200
24.029700 3.336600
24.066400 3.349700
24.103200 4.397200
24.139900 4.026100
24.176700 3.383800
24.213400 3.046700
24.250200 2.904500
24.286900 2.819600
24.323600 2.828700
24.360400 2.811600
24.397100 2.547000
24.433900 2.642900
24.470600 2.779100
24.507300 3.007400
24.544100 4.277500
24.580800 4.672600
24.617600 5.010800
24.654300 5.383800
24.691100 5.355100
24.727800 6.739800
24.764500 6.670000
24.801300 6.085700
24.838000 6.032400
24.874800 6.081600
24.911500 5.467300
24.948200 4.675400
24.985000 4.641500
25.021700 4.717900
25.058500 5.232800
25.095200 4.891300
25.132000 4.280600
25.168700 3.948200
25.205400 3.803000
25.242200 3.682300
25.278900 3.876700
25.315700 3.889000
25.352400 3.954400
25.389100 4.039300
25.425900 4.157900
25.462600 3.994600
25.499400 3.858100
25.536100 3.765400
25.572900 3.449300
25.609600 3.071600
25.646300 2.927300
25.683100 2.821700
25.719800 2.756900
25.756600 2.849700
25.793300 3.309300
25.830100 4.084700
25.866800 3.884900
25.903500 4.290100
25.940300 4.682700
25.977000 4.965600
26.013800 5.173100
26.050500 5.407500
26.087200 5.634700
26.124000 5.752300
26.160700 5.762900
26.197500 5.663000
26.234200 5.528500
26.271000 5.167200
26.307700 4.956500
26.344400 4.555300
26.381200 4.171600
26.417900 4.142400
26.454700 4.473900
26.491400 4.370200
26.528100 4.444100
26.564900 4.898600
26.601600 5.134300
26.638400 5.191300
26.675100 5.082700
26.711900 4.821800
26.748600 4.762000
26.785300 4.728100
26.822100 4.684400
26.858800 4.675200
26.895600 4.704200
26.932300 5.140300
26.969000 2.676800
27.005800 2.286000
27.042500 1.922800
27.079300 1.589400
27.116000 1.696600
27.152800 2.097500
27.189500 2.406500
27.226200 2.753600
27.263000 3.158400
27.299700 3.469300
27.336500 3.740500
27.373200 3.743000
27.410000 3.807900
27.446700 4.050800
27.483400 4.547600
27.520200 5.791600
27.556900 6.109400
27.593700 6.003600
27.630400 4.861700
27.667100 4.655400
27.703900 4.432000
27.740600 4.426800
27.777400 4.105600
27.814100 3.785600
27.850900 3.499200
27.887600 3.264200
27.924300 3.043900
27.961100 2.765100
27.997800 2.533500
28.034600 2.448400
28.071300 2.431900
28.108000 2.563700
28.144800 2.844600
28.181500 3.231600
28.218300 3.703600
28.255000 4.223600
28.291800 4.729900
28.328500 5.463100
28.365200 5.967800
28.402000 5.710700
28.438700 5.501200
28.475500 4.714100
28.512200 4.271600
28.549000 4.538900
28.585700 4.898500
28.622400 5.353300
28.659200 5.892700
28.695900 7.064300
28.732700 6.968800
28.769400 6.600400
28.806100 6.166800
28.842900 5.544600
28.879600 5.594000
28.916400 5.690600
28.953100 5.923700
28.989900 6.273200
29.026600 5.885700
29.063300 6.219800
29.100100 8.429100
29.136800 7.374500
29.173600 6.699200
29.210300 5.819900
29.247000 4.768500
29.283800 3.306600
29.320500 2.620500
29.357300 2.467900
29.394000 2.979400
29.430800 4.058900
29.467500 4.929600
29.504200 4.697400
29.541000 4.514900
29.577700 4.314800
29.614500 4.375200
29.651200 4.132100
29.687900 4.380400
29.724700 4.700300
29.761400 5.043700
29.798200 5.122600
29.834900 5.270500
29.871700 5.407800
29.908400 5.672000
29.945100 5.973500
29.981900 6.118500
30.018600 5.989400
30.055400 5.827400
30.092100 5.624400
30.128900 4.903200
30.165600 4.752300
30.202300 4.615600
30.239100 4.488200
30.275800 5.423500
30.312600 6.953300
30.349300 6.427500
30.386000 5.121800
30.422800 3.988300
30.459500 2.530700
30.496300 1.922400
30.533000 1.873100
30.569800 4.080700
30.606500 6.608500
30.643200 7.475500
30.680000 7.742100
30.716700 6.927500
30.753500 6.047400
30.790200 5.679000
30.826900 5.692000
30.863700 6.098700
30.900400 6.212700
30.937200 5.798100
30.973900 5.358200
31.010700 3.508300
31.047400 2.795700
31.084100 2.373800
31.120900 2.050100
31.157600 1.784200
31.194400 1.533800
31.231100 1.319400
31.267900 1.216700
31.304600 1.146100
31.341300 1.146500
31.378100 1.198100
31.414800 1.257400
31.451600 1.684700
31.488300 2.118800
31.525000 2.804100
31.561800 3.862800
31.598500 4.841600
31.635300 5.752700
31.672000 6.586100
31.708800 6.210700
31.745500 6.291100
31.782200 6.420500
31.819000 6.116700
31.855700 5.543700
31.892500 4.990500
31.929200 5.038600
31.965900 5.214700
32.002700 4.480600
32.039400 3.958700
32.076200 3.593600
32.112900 3.289100
32.149700 3.088800
32.186400 2.907100
32.223100 2.651200
32.259900 2.357400
32.296600 2.085100
32.333400 1.833600
32.370100 1.594000
32.406800 1.392300
32.443600 1.279300
32.480300 1.217300
32.517100 1.194300
32.553800 1.206900
32.590600 1.235000
32.627300 1.277500
32.664000 1.349200
32.700800 1.461800
32.737500 1.613000
32.774300 1.802200
32.811000 2.595300
32.847800 3.835300
32.884500 5.093900
32.921200 5.606100
32.958000 6.019000
32.994700 6.431500
33.031500 6.827100
33.068200 7.112700
33.104900 7.311500
33.141700 6.816900
33.178400 6.185700
33.215200 5.482900
33.251900 4.968000
33.288700 4.530400
33.325400 4.348100
33.362100 4.556100
33.398900 4.759200
33.435600 5.054600
33.472400 4.282200
33.509100 3.796700
33.545800 3.801300
33.582600 3.841600
33.619300 3.915700
33.656100 4.016500
33.692800 4.146800
33.729600 4.271000
33.766300 4.377300
33.803000 4.456600
33.839800 4.470200
33.876500 4.441600
33.913300 4.397500
33.950000 4.442900
33.986700 4.288200
34.023500 4.126400
34.060200 3.980900
34.097000 3.841400
34.133700 3.647900
34.170500 3.452300
34.207200 3.260900
34.243900 3.069500
34.280700 2.902100
34.317400 2.918600
34.354200 3.005300
34.390900 3.064600
34.427700 3.142300
34.464400 3.284800
34.501100 3.405800
34.537900 3.401400
34.574600 3.543400
34.611400 3.668500
34.648100 3.776400
34.684800 3.867400
34.721600 3.952700
34.758300 4.325300
34.795100 4.955900
34.831800 5.653600
34.868600 5.159600
34.905300 8.143000
34.942000 5.154800
34.978800 4.283900
35.015500 3.823600
35.052300 3.660500
35.089000 3.515000
35.125700 3.399200
35.162500 3.315500
35.199200 3.311100
35.236000 3.410900
35.272700 3.842900
35.309500 3.090400
35.346200 3.129500
35.382900 3.314700
35.419700 3.256600
35.456400 3.158400
35.493200 3.329800
35.529900 3.672800
35.566700 4.013200
35.603400 4.343500
35.640100 4.490700
35.676900 4.505700
35.713600 4.487200
35.750400 4.453300
35.787100 4.455400
35.823800 4.497400
35.860600 4.638400
35.897300 4.617300
35.934100 4.409700
35.970800 4.414500
36.007600 4.333200
36.044300 4.265100
36.081000 4.203900
36.117800 4.174700
36.154500 4.171300
36.191300 4.227200
36.228000 4.196400
36.264700 4.270100
36.301500 4.402400
36.338200 4.907100
36.375000 5.081100
36.411700 5.176900
36.448500 5.207300
36.485200 5.169500
36.521900 5.123800
36.558700 5.079700
36.595400 5.026500
36.632200 4.946400
36.668900 4.827700
36.705600 4.687100
36.742400 4.501800
36.779100 4.371000
36.815900 4.380900
36.852600 4.232700
36.889400 4.101600
36.926100 3.810100
36.962800 3.584000
36.999600 3.345100
37.036300 3.095500
37.073100 2.818300
37.109800 2.603600
37.146600 2.400100
37.183300 2.205400
37.220000 2.054100
37.256800 1.912900
37.293500 1.771700
37.330300 1.656500
37.367000 1.574300
37.403700 1.711300
37.440500 1.775000
37.477200 1.895200
37.514000 2.025000
37.550700 2.158600
37.587500 2.294800
37.624200 2.433800
37.660900 2.582300
37.697700 2.987700
37.734400 3.223500
37.771200 3.641600
37.807900 3.766000
37.844600 4.435300
37.881400 4.434200
37.918100 4.524600
37.954900 4.841600
37.991600 5.150400
38.028400 5.365800
38.065100 5.342600
38.101800 5.188000
38.138600 4.849200
38.175300 4.319600
38.212100 3.931700
38.248800 3.915300
38.285500 3.883900
38.322300 3.860700
38.359000 3.846100
38.395800 3.815800
38.432500 3.676400
38.469300 3.372600
38.506000 3.141000
38.542700 3.061700
38.579500 3.072500
38.616200 3.142500
38.653000 3.212600
38.689700 3.982000
38.726500 3.870700
38.763200 3.805700
38.799900 3.890100
38.836700 4.023400
38.873400 4.659700
38.910200 4.714700
38.946900 4.889000
38.983600 5.144000
39.020400 6.996100
39.057100 5.486100
39.093900 4.662700
39.130600 4.534400
39.167400 5.662300
39.204100 5.153000
39.240800 4.661500
39.277600 4.142100
39.314300 3.998700
39.351100 3.927000
39.387800 3.723700
39.424500 3.951700
39.461300 3.742900
39.498000 3.590800
39.534800 3.525200
39.571500 3.341200
39.608300 3.533700
39.645000 3.486500
39.681700 3.493500
39.718500 3.539000
39.755200 3.413600
39.792000 3.293600
39.828700 3.308300
39.865500 3.370900
39.902200 3.491100
39.938900 3.313100
39.975700 3.435200
40.012400 3.631800
40.049200 3.642300
40.085900 3.645600
40.122600 3.498400
40.159400 3.495700
40.196100 3.526200
40.232900 3.578400
40.269600 3.656000
40.306400 3.432900
40.343100 3.460900
40.379800 3.400100
40.416600 3.504100
40.453300 3.488200
40.490100 3.447400
40.526800 3.426500
40.563500 3.550000
40.600300 3.740500
40.637000 3.946200
40.673800 3.707300
40.710500 3.814100
40.747300 3.959600
40.784000 3.635700
40.820700 3.676500
40.857500 3.745000
40.894200 3.597000
40.931000 3.513400
40.967700 3.445900
41.004400 3.415900
41.041200 3.483700
41.077900 3.538700
41.114700 3.727900
41.151400 3.912800
41.188200 3.981100
41.224900 3.995900
41.261600 3.999800
41.298400 4.573000
41.335100 3.776600
41.371900 3.834500
41.408600 3.920400
41.445400 3.986000
41.482100 4.030500
41.518800 3.899800
41.555600 3.672700
41.592300 3.495400
41.629100 3.311400
41.665800 3.134400
41.702500 4.021800
41.739300 2.620800
41.776000 1.995900
41.812800 1.694300
41.849500 1.443600
41.886300 1.224400
41.923000 1.032600
41.959700 0.868300
41.996500 0.723100
42.033200 0.597500
42.070000 0.486900
42.106700 0.421400
42.143400 0.364500
42.180200 0.312200
42.216900 0.264500
42.253700 0.219100
42.290400 0.174400
42.327200 0.130100
42.363900 0.050400
42.400600 0.000200
42.437400 0.000000
42.474100 0.000000
42.510900 0.000000
42.547600 0.000000
42.584400 0.000000
42.621100 0.000000
42.657800 0.000000
42.694600 0.000000
42.731300 0.000000
42.768100 0.000000
42.804800 0.000000
42.841500 0.000000
42.878300 0.000000
42.915000 0.000000
42.951800 0.000000
42.988500 0.000000
43.025300 0.000000
43.062000 0.000000
43.098700 0.000000
43.135500 0.000000
43.172200 0.000000
43.209000 0.000000
43.245700 0.000000
43.282400 0.000000
43.319200 0.000000
43.355900 0.000000
43.392700 0.000000
43.429400 0.000000
43.466200 0.000000
43.502900 0.000000
43.539600 0.000000
43.576400 0.000000
43.613100 0.000000
43.649900 0.000000
43.686600 0.000000
43.723300 0.000000
43.760100 0.000000
43.796800 0.000000
43.833600 0.000000
43.870300 0.000000
43.907100 0.000000
43.943800 0.000000
43.980500 0.000000
44.017300 0.000000
44.054000 0.000000
44.090800 0.000000
44.127500 0.000000
44.164300 0.000000
44.201000 0.000000
44.237700 0.000000
44.274500 0.000000
44.311200 0.000000
44.348000 0.000000
44.384700 0.000000
44.421400 0.000000
44.458200 0.000000
44.494900 0.000000
44.531700 0.000000
44.568400 0.000000
44.605200 0.000000
44.641900 0.000000
44.678600 0.000000
44.715400 0.000000
44.752100 0.000000
44.788900 0.000000
44.825600 0.000000
44.862300 0.000000
44.899100 0.000000
44.935800 0.000000
44.972600 0.000000
45.009300 0.000000
45.046100 0.000000
45.082800 0.000000
45.119500 0.000000
45.156300 0.000000
45.193000 0.000000
45.229800 0.000000
45.266500 0.000000
45.303200 0.000000
45.340000 0.000000
45.376700 0.000000
45.413500 0.000000
45.450200 0.000000
45.487000 0.000000
45.523700 0.000000
45.560400 0.000000
45.597200 0.000000
45.633900 0.000000
45.670700 0.000000
45.707400 0.000000
45.744200 0.000000
e
