set title 'mp-1413688 - Density of States'
set xlabel 'Energy (eV)'
set ylabel 'DOS (states/eV)'
set grid
set xrange [-10:10]
set yrange [0:17.617]
set xzeroaxis lt -1
set terminal png size 800,600
set output 'mp-1413688_dos_gnuplot.png'
plot '-' using 1:2 with lines title 'DOS'
-43.978100 0.000000
-43.935400 0.000000
-43.892700 0.000000
-43.850000 0.000000
-43.807300 0.000000
-43.764600 0.000000
-43.721900 0.000000
-43.679200 0.000000
-43.636500 0.000000
-43.593800 0.000000
-43.551100 0.000000
-43.508400 0.000000
-43.465700 0.000000
-43.423000 0.000000
-43.380300 0.000000
-43.337600 0.000000
-43.294900 0.000000
-43.252200 0.000000
-43.209500 0.000000
-43.166800 0.000000
-43.124100 0.000000
-43.081400 0.000000
-43.038700 0.000000
-42.996000 0.000000
-42.953300 0.000000
-42.910600 0.000000
-42.867900 0.000000
-42.825200 0.000000
-42.782500 0.000000
-42.739800 0.000000
-42.697100 0.000000
-42.654400 0.000000
-42.611700 0.000000
-42.569000 0.000000
-42.526300 0.000000
-42.483600 0.000000
-42.440900 0.000000
-42.398200 0.000000
-42.355500 0.000000
-42.312800 0.000000
-42.270100 0.000000
-42.227400 0.000000
-42.184700 0.000000
-42.142000 0.000000
-42.099300 0.000000
-42.056600 0.000000
-42.013900 0.000000
-41.971200 0.000000
-41.928500 0.000000
-41.885800 0.000000
-41.843100 0.000000
-41.800400 0.000000
-41.757700 0.000000
-41.715000 0.000000
-41.672300 0.000000
-41.629600 0.000000
-41.586900 0.000000
-41.544200 0.000000
-41.501500 0.000000
-41.458800 0.000000
-41.416100 0.000000
-41.373400 0.000000
-41.330700 0.000000
-41.288000 0.000000
-41.245300 0.000000
-41.202600 0.000000
-41.159900 0.000000
-41.117200 0.000000
-41.074500 0.000000
-41.031800 0.000000
-40.989100 0.000000
-40.946400 0.000000
-40.903700 0.000000
-40.861000 0.000000
-40.818300 0.000000
-40.775600 0.000000
-40.732900 0.000000
-40.690200 0.000000
-40.647500 0.000000
-40.604800 0.000000
-40.562100 0.000000
-40.519400 0.000000
-40.476700 0.000000
-40.434000 0.000000
-40.391300 0.000000
-40.348600 0.000000
-40.305900 0.000000
-40.263200 0.000000
-40.220500 0.000000
-40.177800 0.000000
-40.135100 0.000000
-40.092400 32.458200
-40.049700 17.524100
-40.007000 55.649700
-39.964300 0.000000
-39.921600 0.000000
-39.878900 0.000000
-39.836200 40.224900
-39.793500 0.000000
-39.750800 0.000000
-39.708100 0.000000
-39.665400 0.000000
-39.622700 0.000000
-39.580000 0.000000
-39.537300 0.000000
-39.494600 0.000000
-39.451900 0.000000
-39.409200 0.000000
-39.366500 0.000000
-39.323800 0.000000
-39.281100 0.000000
-39.238400 0.000000
-39.195700 0.000000
-39.153000 0.000000
-39.110300 0.000000
-39.067600 0.000000
-39.024900 0.000000
-38.982200 0.000000
-38.939500 0.000000
-38.896800 0.000000
-38.854100 0.000000
-38.811400 0.000000
-38.768700 0.000000
-38.726000 0.000000
-38.683300 0.000000
-38.640600 0.000000
-38.597900 0.000000
-38.555200 0.000000
-38.512500 0.000000
-38.469800 0.000000
-38.427100 0.000000
-38.384400 0.000000
-38.341700 0.000000
-38.299000 0.000000
-38.256300 0.000000
-38.213600 0.000000
-38.170900 0.000000
-38.128200 0.000000
-38.085500 0.000000
-38.042800 0.000000
-38.000100 0.000000
-37.957400 0.000000
-37.914700 0.000000
-37.872000 0.000000
-37.829300 0.000000
-37.786600 0.000000
-37.743900 0.000000
-37.701200 0.000000
-37.658500 0.000000
-37.615800 0.000000
-37.573100 0.000000
-37.530400 0.000000
-37.487700 0.000000
-37.445000 0.000000
-37.402300 0.000000
-37.359600 0.000000
-37.316900 0.000000
-37.274200 0.000000
-37.231500 0.000000
-37.188800 0.000000
-37.146100 0.000000
-37.103400 0.000000
-37.060700 0.000000
-37.018000 0.000000
-36.975300 0.000000
-36.932600 0.000000
-36.889900 0.000000
-36.847200 0.000000
-36.804500 0.000000
-36.761800 0.000000
-36.719100 0.000000
-36.676400 0.000000
-36.633700 0.000000
-36.591000 0.000000
-36.548300 0.000000
-36.505600 0.000000
-36.462900 0.000000
-36.420200 0.000000
-36.377500 0.000000
-36.334800 0.000000
-36.292100 0.000000
-36.249400 0.000000
-36.206700 0.000000
-36.164000 0.000000
-36.121300 0.000000
-36.078600 0.000000
-36.035900 0.000000
-35.993200 0.000000
-35.950500 0.000000
-35.907800 0.000000
-35.865100 0.000000
-35.822400 0.000000
-35.779700 0.000000
-35.737000 0.000000
-35.694300 0.000000
-35.651600 0.000000
-35.608900 0.000000
-35.566200 0.000000
-35.523500 0.000000
-35.480800 0.000000
-35.438100 0.000000
-35.395400 0.000000
-35.352700 0.000000
-35.310000 0.000000
-35.267300 0.000000
-35.224600 0.000000
-35.181900 0.000000
-35.139200 0.000000
-35.096500 0.000000
-35.053800 0.000000
-35.011100 0.000000
-34.968400 0.000000
-34.925700 0.000000
-34.883000 0.000000
-34.840300 0.000000
-34.797600 0.000000
-34.754900 0.000000
-34.712200 0.000000
-34.669500 0.000000
-34.626800 0.000000
-34.584100 0.000000
-34.541400 0.000000
-34.498700 0.000000
-34.456000 0.000000
-34.413300 0.000000
-34.370600 0.000000
-34.327900 0.000000
-34.285200 0.000000
-34.242500 0.000000
-34.199800 0.000000
-34.157100 0.000000
-34.114400 0.000000
-34.071700 0.000000
-34.029000 0.000000
-33.986300 0.000000
-33.943600 0.000000
-33.900900 0.000000
-33.858200 0.000000
-33.815500 0.000000
-33.772800 0.000000
-33.730100 0.000000
-33.687400 0.000000
-33.644700 0.000000
-33.602000 0.000000
-33.559300 0.000000
-33.516600 0.000000
-33.473900 0.000000
-33.431200 0.000000
-33.388500 0.000000
-33.345800 0.000000
-33.303100 0.000000
-33.260400 0.000000
-33.217700 0.000000
-33.175000 0.000000
-33.132300 0.000000
-33.089600 0.000000
-33.046900 0.000000
-33.004200 0.000000
-32.961500 0.000000
-32.918800 0.000000
-32.876100 0.000000
-32.833400 0.000000
-32.790700 0.000000
-32.748000 0.000000
-32.705300 0.000000
-32.662600 0.000000
-32.619900 0.000000
-32.577200 0.000000
-32.534500 0.000000
-32.491800 0.000000
-32.449100 0.000000
-32.406400 0.000000
-32.363700 0.000000
-32.321000 0.000000
-32.278300 0.000000
-32.235600 0.000000
-32.192900 0.000000
-32.150200 0.000000
-32.107500 0.000000
-32.064800 0.000000
-32.022100 0.000000
-31.979400 0.000000
-31.936700 0.000000
-31.894000 0.000000
-31.851300 0.000000
-31.808600 0.000000
-31.765900 0.000000
-31.723200 0.000000
-31.680500 0.000000
-31.637800 0.000000
-31.595100 0.000000
-31.552400 0.000000
-31.509700 0.000000
-31.467000 0.000000
-31.424300 0.000000
-31.381600 0.000000
-31.338900 0.000000
-31.296200 0.000000
-31.253500 0.000000
-31.210800 0.000000
-31.168100 0.000000
-31.125400 0.000000
-31.082700 0.000000
-31.040000 0.000000
-30.997300 0.000000
-30.954600 0.000000
-30.911900 0.000000
-30.869200 0.000000
-30.826500 0.000000
-30.783800 0.000000
-30.741100 0.000000
-30.698400 0.000000
-30.655700 0.000000
-30.613000 0.000000
-30.570300 0.000000
-30.527600 0.000000
-30.484900 0.000000
-30.442200 0.000000
-30.399500 0.000000
-30.356800 0.000000
-30.314100 0.000000
-30.271400 0.000000
-30.228700 0.000000
-30.186000 0.000000
-30.143300 0.000000
-30.100600 0.000000
-30.057900 0.000000
-30.015200 0.000000
-29.972500 0.000000
-29.929800 0.000000
-29.887100 0.000000
-29.844400 0.000000
-29.801700 0.000000
-29.759000 0.000000
-29.716300 0.000000
-29.673600 0.000000
-29.630900 0.000000
-29.588200 0.000000
-29.545500 0.000000
-29.502800 0.000000
-29.460100 0.000000
-29.417400 0.000000
-29.374700 0.000000
-29.332000 0.000000
-29.289300 0.000000
-29.246600 0.000000
-29.203900 0.000000
-29.161200 0.000000
-29.118500 0.000000
-29.075800 0.000000
-29.033100 0.000000
-28.990400 0.000000
-28.947700 0.000000
-28.905000 0.000000
-28.862300 0.000000
-28.819600 0.000000
-28.776900 0.000000
-28.734200 0.000000
-28.691500 0.000000
-28.648800 0.000000
-28.606100 0.000000
-28.563400 0.000000
-28.520700 0.000000
-28.478000 0.000000
-28.435300 0.000000
-28.392600 0.000000
-28.349900 0.000000
-28.307200 0.000000
-28.264500 0.000000
-28.221800 0.000000
-28.179100 0.000000
-28.136400 0.000000
-28.093700 0.000000
-28.051000 0.000000
-28.008300 0.000000
-27.965600 0.000000
-27.922900 0.000000
-27.880200 0.000000
-27.837500 0.000000
-27.794800 0.000000
-27.752100 0.000000
-27.709400 0.000000
-27.666700 0.000000
-27.624000 0.000000
-27.581300 0.000000
-27.538600 0.000000
-27.495900 0.000000
-27.453200 0.000000
-27.410500 0.000000
-27.367800 0.000000
-27.325100 0.000000
-27.282400 0.000000
-27.239700 0.000000
-27.197000 0.000000
-27.154300 0.000000
-27.111600 0.000000
-27.068900 0.000000
-27.026200 0.000000
-26.983500 0.000000
-26.940800 0.000000
-26.898100 0.000000
-26.855400 0.000000
-26.812700 0.000000
-26.770000 0.000000
-26.727300 0.000000
-26.684600 0.000000
-26.641900 0.000000
-26.599200 0.000000
-26.556500 0.000000
-26.513800 0.000000
-26.471100 0.000000
-26.428400 0.000000
-26.385700 0.000000
-26.343000 0.000000
-26.300300 0.000000
-26.257600 0.000000
-26.214900 0.000000
-26.172200 0.000000
-26.129500 0.000000
-26.086800 0.000000
-26.044100 0.000000
-26.001400 0.000000
-25.958700 0.000000
-25.916000 0.000000
-25.873300 0.000000
-25.830600 0.000000
-25.787900 0.000000
-25.745200 0.000000
-25.702500 0.000000
-25.659800 0.000000
-25.617100 0.000000
-25.574400 0.000000
-25.531700 0.000000
-25.489000 0.000000
-25.446300 0.000000
-25.403600 0.000000
-25.360900 0.000000
-25.318200 0.000000
-25.275500 0.000000
-25.232800 0.000000
-25.190100 0.000000
-25.147400 0.000000
-25.104700 0.000000
-25.062000 0.000000
-25.019300 0.000000
-24.976600 0.000000
-24.933900 0.000000
-24.891200 0.000000
-24.848500 0.000000
-24.805800 0.000000
-24.763100 0.000000
-24.720400 0.000000
-24.677700 0.000000
-24.635000 0.000000
-24.592300 0.000000
-24.549600 0.000000
-24.506900 0.000000
-24.464200 0.000000
-24.421500 0.000000
-24.378800 0.000000
-24.336100 0.000000
-24.293400 0.000000
-24.250700 0.000000
-24.208000 0.000000
-24.165300 0.000000
-24.122600 0.000000
-24.079900 0.000000
-24.037200 0.000000
-23.994500 0.000000
-23.951800 0.000000
-23.909100 0.000000
-23.866400 0.000000
-23.823700 0.000000
-23.781000 0.000000
-23.738300 0.000000
-23.695600 0.000000
-23.652900 0.000000
-23.610200 0.000000
-23.567500 0.000000
-23.524800 0.000000
-23.482100 0.000000
-23.439400 0.000000
-23.396700 0.000000
-23.354000 0.000000
-23.311300 0.000000
-23.268600 0.000000
-23.225900 0.000000
-23.183200 0.000000
-23.140500 0.000000
-23.097800 0.000000
-23.055100 0.000000
-23.012400 0.000000
-22.969700 0.000000
-22.927000 0.000000
-22.884300 0.000000
-22.841600 0.000000
-22.798900 0.000000
-22.756200 0.000000
-22.713500 0.000000
-22.670800 0.000000
-22.628100 0.000000
-22.585400 0.000000
-22.542700 0.000000
-22.500000 0.000000
-22.457300 0.000000
-22.414600 0.000000
-22.371900 0.000000
-22.329200 0.000000
-22.286500 0.000000
-22.243800 0.000000
-22.201100 0.000000
-22.158400 0.000000
-22.115700 0.000000
-22.073000 0.000000
-22.030300 0.000000
-21.987600 0.000000
-21.944900 0.000000
-21.902200 0.000000
-21.859500 0.000000
-21.816800 0.000000
-21.774100 0.000000
-21.731400 0.000000
-21.688700 0.000000
-21.646000 0.000000
-21.603300 0.000000
-21.560600 0.000000
-21.517900 0.000000
-21.475200 0.000000
-21.432500 0.000000
-21.389800 0.000000
-21.347100 0.000000
-21.304400 0.000000
-21.261700 0.000000
-21.219000 0.000000
-21.176300 0.000000
-21.133600 0.000000
-21.090900 0.000000
-21.048200 0.000000
-21.005500 0.000000
-20.962800 0.000000
-20.920100 0.000000
-20.877400 0.000000
-20.834700 0.000000
-20.792000 0.000000
-20.749300 0.000000
-20.706600 0.000000
-20.663900 0.000000
-20.621200 0.000000
-20.578500 0.000000
-20.535800 0.000000
-20.493100 0.000000
-20.450400 0.000000
-20.407700 0.000000
-20.365000 0.000000
-20.322300 0.000000
-20.279600 0.000000
-20.236900 0.000000
-20.194200 0.000000
-20.151500 0.000000
-20.108800 0.000000
-20.066100 0.000000
-20.023400 0.000000
-19.980700 0.000000
-19.938000 0.000000
-19.895300 0.000000
-19.852600 0.000000
-19.809900 0.000000
-19.767200 0.000000
-19.724500 0.000000
-19.681800 0.000000
-19.639100 0.000000
-19.596400 0.000000
-19.553700 0.000000
-19.511000 0.000000
-19.468300 0.000000
-19.425600 0.000000
-19.382900 0.000000
-19.340200 0.000000
-19.297500 0.000000
-19.254800 0.000000
-19.212100 0.000000
-19.169400 0.000000
-19.126700 0.000000
-19.084000 0.000000
-19.041300 0.000000
-18.998600 0.000000
-18.955900 0.000000
-18.913200 0.000000
-18.870500 0.000000
-18.827800 0.000000
-18.785100 0.000000
-18.742400 0.000000
-18.699700 0.000000
-18.657000 0.000000
-18.614300 0.000000
-18.571600 0.000000
-18.528900 0.000000
-18.486200 0.000000
-18.443500 0.000000
-18.400800 0.000000
-18.358100 0.000000
-18.315400 0.000000
-18.272700 0.000000
-18.230000 0.000000
-18.187300 0.000000
-18.144600 0.000000
-18.101900 0.000000
-18.059200 0.000000
-18.016500 0.000000
-17.973800 0.000000
-17.931100 0.000000
-17.888400 0.000000
-17.845700 0.000000
-17.803000 0.000000
-17.760300 0.000000
-17.717600 0.000000
-17.674900 0.000000
-17.632200 0.000000
-17.589500 0.000000
-17.546800 0.000000
-17.504100 0.000000
-17.461400 0.000000
-17.418700 0.000000
-17.376000 0.000000
-17.333300 0.000000
-17.290600 0.000000
-17.247900 0.000000
-17.205200 0.000000
-17.162500 0.000000
-17.119800 0.000000
-17.077100 0.000000
-17.034400 0.000000
-16.991700 0.000000
-16.949000 0.000000
-16.906300 0.000000
-16.863600 0.000000
-16.820900 0.000000
-16.778200 0.000000
-16.735500 0.000000
-16.692800 0.000000
-16.650100 0.000000
-16.607400 0.000000
-16.564700 0.000000
-16.522000 0.000000
-16.479300 0.000000
-16.436600 0.000000
-16.393900 0.000000
-16.351200 0.000000
-16.308500 0.000000
-16.265800 0.000000
-16.223100 0.000000
-16.180400 0.000000
-16.137700 0.000000
-16.095000 0.000000
-16.052300 0.000000
-16.009600 0.000000
-15.966900 0.000000
-15.924200 0.000000
-15.881500 0.000000
-15.838800 0.000000
-15.796100 0.000000
-15.753400 0.000000
-15.710700 0.000000
-15.668000 0.000000
-15.625300 0.000000
-15.582600 0.000000
-15.539900 0.000000
-15.497200 0.000000
-15.454500 0.000000
-15.411800 0.000000
-15.369100 0.000000
-15.326400 0.000000
-15.283700 0.000000
-15.241000 0.000000
-15.198300 0.000000
-15.155600 0.000000
-15.112900 0.000000
-15.070200 0.000000
-15.027500 0.000000
-14.984800 0.000000
-14.942100 0.000000
-14.899400 0.000000
-14.856700 0.000000
-14.814000 0.000000
-14.771300 0.000000
-14.728600 0.000000
-14.685900 0.000000
-14.643200 0.000000
-14.600500 0.000000
-14.557800 0.000000
-14.515100 0.000000
-14.472400 0.000000
-14.429700 0.000000
-14.387000 0.000000
-14.344300 0.000000
-14.301600 0.000000
-14.258900 0.000000
-14.216200 0.000000
-14.173500 0.000000
-14.130800 0.000000
-14.088100 0.000000
-14.045400 0.000000
-14.002700 0.000000
-13.960000 0.000000
-13.917300 0.000000
-13.874600 0.000000
-13.831900 0.000000
-13.789200 0.000000
-13.746500 0.000000
-13.703800 0.000000
-13.661100 0.000000
-13.618400 0.000000
-13.575700 0.000000
-13.533000 0.000000
-13.490300 0.000000
-13.447600 0.000000
-13.404900 0.000000
-13.362200 0.000000
-13.319500 0.000000
-13.276800 0.000000
-13.234100 0.000000
-13.191400 0.000000
-13.148700 0.000000
-13.106000 0.000000
-13.063300 0.000000
-13.020600 0.000000
-12.977900 0.000000
-12.935200 0.000000
-12.892500 0.000000
-12.849800 0.000000
-12.807100 0.000000
-12.764400 0.000000
-12.721700 0.000000
-12.679000 0.000000
-12.636300 0.000000
-12.593600 0.000000
-12.550900 0.000000
-12.508200 0.000000
-12.465500 0.000000
-12.422800 0.000000
-12.380100 0.000000
-12.337400 0.000000
-12.294700 0.000000
-12.252000 0.000000
-12.209300 0.000000
-12.166600 0.000000
-12.123900 0.000000
-12.081200 0.000000
-12.038500 0.000000
-11.995800 0.000000
-11.953100 0.000000
-11.910400 0.000000
-11.867700 0.000000
-11.825000 0.000000
-11.782300 0.000000
-11.739600 0.000000
-11.696900 0.000000
-11.654200 0.000000
-11.611500 0.000000
-11.568800 0.137700
-11.526100 0.407600
-11.483400 0.677600
-11.440700 0.391200
-11.398000 0.415600
-11.355300 0.439900
-11.312600 0.464200
-11.269900 0.488600
-11.227200 0.486300
-11.184500 0.463400
-11.141800 0.441500
-11.099100 0.450900
-11.056400 0.461300
-11.013700 0.471600
-10.971000 0.482000
-10.928300 0.492300
-10.885600 0.502700
-10.842900 0.513000
-10.800200 0.494700
-10.757500 0.498200
-10.714800 0.501700
-10.672100 0.505100
-10.629400 0.508600
-10.586700 0.516000
-10.544000 0.523900
-10.501300 0.531900
-10.458600 0.539800
-10.415900 0.547800
-10.373200 0.634500
-10.330500 1.309700
-10.287800 1.188300
-10.245100 1.258200
-10.202400 1.331400
-10.159700 1.391300
-10.117000 1.352100
-10.074300 1.353800
-10.031600 1.393000
-9.988900 1.432900
-9.946200 1.474000
-9.903500 1.500900
-9.860800 1.514400
-9.818100 1.543000
-9.775400 1.573200
-9.732700 1.644500
-9.690000 1.704700
-9.647300 1.764800
-9.604600 1.836900
-9.561900 1.926700
-9.519200 2.009100
-9.476500 2.091500
-9.433800 2.181900
-9.391100 2.306600
-9.348400 2.431700
-9.305700 2.556700
-9.263000 2.806400
-9.220300 8.118100
-9.177600 3.287700
-9.134900 3.202100
-9.092200 3.177400
-9.049500 3.193600
-9.006800 4.097300
-8.964100 3.782300
-8.921400 3.342100
-8.878700 2.975700
-8.836000 2.155800
-8.793300 0.000000
-8.750600 0.000000
-8.707900 0.000000
-8.665200 0.000000
-8.622500 0.000000
-8.579800 0.000000
-8.537100 0.000000
-8.494400 0.000000
-8.451700 0.000000
-8.409000 0.000000
-8.366300 0.000000
-8.323600 0.000000
-8.280900 0.000000
-8.238200 0.000000
-8.195500 0.000000
-8.152800 0.000000
-8.110100 0.000000
-8.067400 0.000000
-8.024700 0.000000
-7.982000 0.000000
-7.939300 0.000000
-7.896600 0.000000
-7.853900 0.000000
-7.811200 0.000000
-7.768500 0.000000
-7.725800 0.000000
-7.683100 0.000000
-7.640400 0.000000
-7.597700 0.000000
-7.555000 0.000000
-7.512300 0.000000
-7.469600 0.000000
-7.426900 0.000000
-7.384200 0.000000
-7.341500 0.000000
-7.298800 0.000000
-7.256100 0.000000
-7.213400 0.000000
-7.170700 0.000000
-7.128000 0.000000
-7.085300 0.000000
-7.042600 0.000000
-6.999900 0.000000
-6.957200 0.000000
-6.914500 0.000000
-6.871800 0.000000
-6.829100 0.000000
-6.786400 0.000000
-6.743700 0.000000
-6.701000 0.000000
-6.658300 0.000000
-6.615600 0.000000
-6.572900 0.000000
-6.530200 0.000000
-6.487500 0.000000
-6.444800 0.000000
-6.402100 0.000000
-6.359400 0.000000
-6.316700 0.000000
-6.274000 0.000000
-6.231300 0.000000
-6.188600 0.000000
-6.145900 0.000000
-6.103200 0.000000
-6.060500 0.000000
-6.017800 0.000000
-5.975100 0.000000
-5.932400 0.000000
-5.889700 0.000000
-5.847000 0.000000
-5.804300 0.000000
-5.761600 0.000000
-5.718900 0.000000
-5.676200 0.000000
-5.633500 0.000000
-5.590800 0.000000
-5.548100 0.000000
-5.505400 0.000000
-5.462700 0.000000
-5.420000 0.000000
-5.377300 0.000000
-5.334600 0.000000
-5.291900 0.000000
-5.249200 0.000000
-5.206500 0.000000
-5.163800 0.000000
-5.121100 0.000000
-5.078400 0.000000
-5.035700 0.000000
-4.993000 0.000000
-4.950300 0.000000
-4.907600 0.000000
-4.864900 0.000000
-4.822200 0.000000
-4.779500 0.000000
-4.736800 0.000000
-4.694100 0.000000
-4.651400 0.000000
-4.608700 0.000000
-4.566000 0.000000
-4.523300 0.000000
-4.480600 0.000000
-4.437900 0.000000
-4.395200 0.000000
-4.352500 0.000000
-4.309800 0.000000
-4.267100 0.000000
-4.224400 0.000000
-4.181700 0.000000
-4.139000 0.000000
-4.096300 0.000000
-4.053600 0.000000
-4.010900 0.000000
-3.968200 0.000000
-3.925500 0.000000
-3.882800 0.000000
-3.840100 0.000000
-3.797400 0.000000
-3.754700 0.000000
-3.712000 0.000000
-3.669300 0.000000
-3.626600 0.000000
-3.583900 0.000000
-3.541200 0.000000
-3.498500 0.000000
-3.455800 0.000000
-3.413100 0.000000
-3.370400 0.000000
-3.327700 0.000000
-3.285000 0.000000
-3.242300 0.051600
-3.199600 0.231900
-3.156900 0.412100
-3.114200 0.592400
-3.071500 0.772600
-3.028800 0.848000
-2.986100 0.794700
-2.943400 0.741300
-2.900700 0.687900
-2.858000 0.661500
-2.815300 0.687100
-2.772600 0.718500
-2.729900 0.749900
-2.687200 0.781300
-2.644500 0.812700
-2.601800 0.844100
-2.559100 0.894000
-2.516400 1.023700
-2.473700 1.215100
-2.431000 1.354200
-2.388300 1.440700
-2.345600 1.733400
-2.302900 1.655000
-2.260200 1.590300
-2.217500 1.525700
-2.174800 1.451900
-2.132100 1.366000
-2.089400 1.353600
-2.046700 2.605600
-2.004000 3.634200
-1.961300 3.393000
-1.918600 4.678600
-1.875900 4.004200
-1.833200 2.687100
-1.790500 2.485800
-1.747800 2.439500
-1.705100 2.500200
-1.662400 2.695600
-1.619700 3.027600
-1.577000 3.352300
-1.534300 2.169100
-1.491600 1.615300
-1.448900 1.330400
-1.406200 1.072400
-1.363500 0.991700
-1.320800 1.067700
-1.278100 1.145300
-1.235400 1.227000
-1.192700 1.338800
-1.150000 1.544200
-1.107300 1.699600
-1.064600 1.548200
-1.021900 1.215200
-0.979200 0.922600
-0.936500 0.753200
-0.893800 0.890000
-0.851100 1.576800
-0.808400 1.896600
-0.765700 2.106700
-0.723000 2.316700
-0.680300 2.526600
-0.637600 3.189000
-0.594900 3.940100
-0.552200 3.072800
-0.509500 3.455300
-0.466800 3.984500
-0.424100 6.400900
-0.381400 3.373100
-0.338700 1.557700
-0.296000 1.643700
-0.253300 1.729800
-0.210600 1.815700
-0.167900 1.864200
-0.125200 1.799500
-0.082500 1.864400
-0.039800 2.045700
0.002900 2.288000
0.045600 2.521000
0.088300 2.589200
0.131000 3.288700
0.173700 5.273900
0.216400 3.563800
0.259100 3.652300
0.301800 3.758000
0.344500 3.625200
0.387200 3.457400
0.429900 3.264900
0.472600 3.332000
0.515300 3.592900
0.558000 4.557300
0.600700 5.483500
0.643400 2.667200
0.686100 2.637800
0.728800 2.633600
0.771500 3.897600
0.814200 4.113400
0.856900 2.521000
0.899600 2.387200
0.942300 2.255800
0.985000 2.171300
1.027700 2.144700
1.070400 2.138800
1.113100 2.139300
1.155800 2.134500
1.198500 2.392300
1.241200 2.487000
1.283900 2.519100
1.326600 2.495700
1.369300 2.437200
1.412000 2.422800
1.454700 2.306900
1.497400 2.134400
1.540100 1.919200
1.582800 1.782800
1.625500 1.724400
1.668200 1.681300
1.710900 1.635700
1.753600 1.583900
1.796300 1.500500
1.839000 1.474900
1.881700 1.504300
1.924400 1.533300
1.967100 1.593100
2.009800 1.718900
2.052500 1.925100
2.095200 1.488600
2.137900 1.219600
2.180600 0.946100
2.223300 1.026900
2.266000 1.096000
2.308700 1.169700
2.351400 1.217100
2.394100 1.261900
2.436800 1.372500
2.479500 1.426400
2.522200 1.452100
2.564900 1.512900
2.607600 1.795900
2.650300 1.815800
2.693000 1.835600
2.735700 1.855400
2.778400 2.117500
2.821100 3.835800
2.863800 4.470200
2.906500 3.368200
2.949200 2.553900
2.991900 1.597200
3.034600 1.321100
3.077300 1.292100
3.120000 1.282600
3.162700 1.220800
3.205400 1.055500
3.248100 1.131000
3.290800 1.073600
3.333500 1.012900
3.376200 0.952200
3.418900 0.891500
3.461600 0.830900
3.504300 0.771900
3.547000 1.098400
3.589700 0.577600
3.632400 0.477800
3.675100 0.391500
3.717800 0.305200
3.760500 0.775900
3.803200 3.839700
3.845900 8.086000
3.888600 13.461700
3.931300 4.314700
3.974000 2.887700
4.016700 5.136200
4.059400 5.816600
4.102100 4.374100
4.144800 1.063800
4.187500 1.894300
4.230200 5.222700
4.272900 14.055900
4.315600 16.015300
4.358300 5.565500
4.401000 1.587300
4.443700 0.000000
4.486400 0.000000
4.529100 0.000000
4.571800 0.000000
4.614500 0.000000
4.657200 0.000000
4.699900 0.000000
4.742600 0.000000
4.785300 0.000000
4.828000 0.000000
4.870700 0.000000
4.913400 0.000000
4.956100 0.000000
4.998800 0.000000
5.041500 0.005700
5.084200 0.353200
5.126900 1.091700
5.169600 1.620500
5.212300 1.669300
5.255000 1.774000
5.297700 2.130000
5.340400 2.551800
5.383100 2.319800
5.425800 2.282200
5.468500 2.474700
5.511200 2.984500
5.553900 2.980000
5.596600 3.189900
5.639300 2.115000
5.682000 1.867300
5.724700 1.713800
5.767400 1.564600
5.810100 1.389900
5.852800 1.259500
5.895500 1.202400
5.938200 1.218400
5.980900 1.212900
6.023600 2.142200
6.066300 2.927100
6.109000 3.146100
6.151700 3.363500
6.194400 3.745200
6.237100 5.135400
6.279800 4.328700
6.322500 4.436100
6.365200 4.693300
6.407900 5.291900
6.450600 5.809500
6.493300 3.644600
6.536000 2.677700
6.578700 0.965200
6.621400 0.041900
6.664100 0.000000
6.706800 0.000000
6.749500 0.000000
6.792200 0.000000
6.834900 0.000000
6.877600 0.000000
6.920300 0.000000
6.963000 0.000000
7.005700 0.000000
7.048400 0.000000
7.091100 0.000000
7.133800 0.000000
7.176500 0.000000
7.219200 0.000000
7.261900 0.000000
7.304600 0.000000
7.347300 0.000000
7.390000 0.000000
7.432700 0.000000
7.475400 0.000000
7.518100 0.000000
7.560800 0.000000
7.603500 0.000000
7.646200 0.000000
7.688900 0.000000
7.731600 0.000000
7.774300 0.000000
7.817000 0.000000
7.859700 0.000000
7.902400 0.000000
7.945100 0.000000
7.987800 0.000000
8.030500 0.000000
8.073200 0.000000
8.115900 0.000000
8.158600 0.000000
8.201300 0.000000
8.244000 0.000000
8.286700 0.000000
8.329400 0.000000
8.372100 0.000000
8.414800 0.000000
8.457500 0.000000
8.500200 0.000000
8.542900 0.000000
8.585600 0.011400
8.628300 0.041400
8.671000 0.081700
8.713700 0.121800
8.756400 0.129700
8.799100 0.148800
8.841800 0.168600
8.884500 0.189800
8.927200 0.212400
8.969900 0.236900
9.012600 0.260300
9.055300 0.280900
9.098000 0.304500
9.140700 0.338200
9.183400 0.450400
9.226100 0.609900
9.268800 0.789400
9.311500 0.819200
9.354200 0.936600
9.396900 1.057700
9.439600 1.149300
9.482300 1.219800
9.525000 1.264200
9.567700 1.321800
9.610400 1.454100
9.653100 1.567300
9.695800 1.633500
9.738500 1.698500
9.781200 1.767600
9.823900 1.854000
9.866600 1.986600
9.909300 2.094800
9.952000 2.176400
9.994700 2.244200
10.037400 2.298500
10.080100 2.334500
10.122800 2.484600
10.165500 2.564000
10.208200 2.580300
10.250900 2.444500
10.293600 2.452100
10.336300 2.040900
10.379000 1.946100
10.421700 1.601700
10.464400 1.283900
10.507100 1.021000
10.549800 0.883800
10.592500 0.820700
10.635200 0.836600
10.677900 0.895500
10.720600 0.972900
10.763300 1.070000
10.806000 1.160100
10.848700 1.240700
10.891400 1.346400
10.934100 1.553000
10.976800 1.631600
11.019500 1.582700
11.062200 1.708400
11.104900 1.783900
11.147600 1.882900
11.190300 1.820500
11.233000 1.636500
11.275700 1.571900
11.318400 1.665100
11.361100 1.520000
11.403800 1.528900
11.446500 1.825100
11.489200 1.934200
11.531900 2.153700
11.574600 2.403000
11.617300 2.423100
11.660000 2.399100
11.702700 2.402800
11.745400 2.416500
11.788100 2.453200
11.830800 2.533500
11.873500 2.561400
11.916200 2.556600
11.958900 2.555400
12.001600 2.510700
12.044300 2.458700
12.087000 2.385400
12.129700 2.351400
12.172400 2.339500
12.215100 2.347600
12.257800 2.372100
12.300500 2.426700
12.343200 2.543000
12.385900 2.781100
12.428600 2.213000
12.471300 1.948700
12.514000 2.108200
12.556700 2.323000
12.599400 2.350600
12.642100 2.217500
12.684800 2.211900
12.727500 2.136200
12.770200 2.101100
12.812900 2.137700
12.855600 2.241000
12.898300 2.455900
12.941000 2.740600
12.983700 3.111300
13.026400 3.452800
13.069100 3.645000
13.111800 3.737200
13.154500 3.642800
13.197200 3.613400
13.239900 3.636200
13.282600 3.624600
13.325300 3.155400
13.368000 3.003500
13.410700 2.829900
13.453400 2.721000
13.496100 2.312200
13.538800 2.188200
13.581500 2.104700
13.624200 2.057200
13.666900 1.945700
13.709600 1.975000
13.752300 2.747300
13.795000 1.965600
13.837700 2.293200
13.880400 2.084800
13.923100 2.234500
13.965800 2.451700
14.008500 2.537400
14.051200 2.592300
14.093900 2.857700
14.136600 2.933000
14.179300 3.105900
14.222000 4.421200
14.264700 2.721200
14.307400 2.108700
14.350100 1.978500
14.392800 1.962600
14.435500 1.916100
14.478200 1.959300
14.520900 2.060000
14.563600 2.001400
14.606300 2.021900
14.649000 2.563300
14.691700 2.674600
14.734400 3.116400
14.777100 2.886900
14.819800 2.845000
14.862500 2.880400
14.905200 2.804500
14.947900 2.621400
14.990600 2.552700
15.033300 2.576700
15.076000 2.632200
15.118700 2.642800
15.161400 2.359500
15.204100 1.998200
15.246800 1.891200
15.289500 1.804100
15.332200 1.727700
15.374900 1.665100
15.417600 1.594700
15.460300 1.586500
15.503000 1.925600
15.545700 2.346200
15.588400 2.634300
15.631100 2.511500
15.673800 2.199800
15.716500 2.174100
15.759200 2.455800
15.801900 2.816300
15.844600 3.033300
15.887300 3.046500
15.930000 2.742900
15.972700 2.640400
16.015400 2.312800
16.058100 2.006600
16.100800 1.847500
16.143500 1.642800
16.186200 1.459300
16.228900 1.483600
16.271600 1.596300
16.314300 1.869100
16.357000 1.806600
16.399700 1.789500
16.442400 1.885400
16.485100 2.055400
16.527800 2.282100
16.570500 2.474600
16.613200 2.178500
16.655900 1.988400
16.698600 2.030900
16.741300 2.051000
16.784000 2.097600
16.826700 2.183600
16.869400 2.191600
16.912100 2.185400
16.954800 2.184900
16.997500 2.138800
17.040200 2.084200
17.082900 2.035700
17.125600 2.265200
17.168300 2.054500
17.211000 1.907900
17.253700 1.841700
17.296400 1.849700
17.339100 1.910600
17.381800 1.937100
17.424500 1.901900
17.467200 1.831600
17.509900 1.820300
17.552600 1.854300
17.595300 1.935700
17.638000 1.905200
17.680700 2.065200
17.723400 2.217600
17.766100 2.123100
17.808800 2.129100
17.851500 2.130400
17.894200 2.145000
17.936900 2.202800
17.979600 2.217900
18.022300 2.261800
18.065000 2.208400
18.107700 2.156900
18.150400 2.245300
18.193100 2.413000
18.235800 2.526500
18.278500 2.224700
18.321200 2.214700
18.363900 2.151300
18.406600 2.126900
18.449300 2.153800
18.492000 2.352900
18.534700 2.300900
18.577400 2.269000
18.620100 2.398500
18.662800 2.348700
18.705500 2.401100
18.748200 2.382100
18.790900 2.337500
18.833600 2.296600
18.876300 2.242800
18.919000 2.425600
18.961700 2.238100
19.004400 2.198400
19.047100 2.227500
19.089800 2.226300
19.132500 2.190700
19.175200 2.149700
19.217900 2.086900
19.260600 1.982100
19.303300 1.914900
19.346000 1.883700
19.388700 1.841800
19.431400 1.816000
19.474100 1.917300
19.516800 2.008400
19.559500 2.126700
19.602200 2.198100
19.644900 2.044300
19.687600 1.937000
19.730300 1.880300
19.773000 1.822900
19.815700 1.763500
19.858400 1.708400
19.901100 1.688500
19.943800 1.722000
19.986500 1.773700
20.029200 1.841200
20.071900 1.984500
20.114600 2.007900
20.157300 1.942400
20.200000 1.809000
20.242700 1.784900
20.285400 1.775800
20.328100 1.809000
20.370800 1.927500
20.413500 1.837200
20.456200 1.857300
20.498900 1.848900
20.541600 1.832200
20.584300 1.822200
20.627000 1.816800
20.669700 1.823600
20.712400 1.845800
20.755100 1.799700
20.797800 1.802400
20.840500 1.825200
20.883200 1.859900
20.925900 1.956700
20.968600 2.187000
21.011300 2.297000
21.054000 2.280200
21.096700 2.113800
21.139400 2.059000
21.182100 2.102200
21.224800 2.010500
21.267500 1.958200
21.310200 1.952700
21.352900 1.984200
21.395600 2.004200
21.438300 2.007200
21.481000 1.986600
21.523700 1.996400
21.566400 2.045100
21.609100 2.123400
21.651800 2.176100
21.694500 2.198000
21.737200 2.192700
21.779900 2.198100
21.822600 2.149900
21.865300 2.117100
21.908000 2.009400
21.950700 2.003500
21.993400 1.981400
22.036100 1.993700
22.078800 2.020300
22.121500 1.873900
22.164200 1.746100
22.206900 1.656700
22.249600 1.586200
22.292300 1.509600
22.335000 1.435600
22.377700 1.423400
22.420400 1.449600
22.463100 1.471400
22.505800 1.556300
22.548500 1.625700
22.591200 1.671900
22.633900 1.705400
22.676600 1.748700
22.719300 1.813600
22.762000 1.862600
22.804700 1.881100
22.847400 1.931400
22.890100 2.037000
22.932800 2.114000
22.975500 2.184800
23.018200 2.157400
23.060900 2.099600
23.103600 2.005200
23.146300 1.870000
23.189000 1.743400
23.231700 1.632300
23.274400 1.568500
23.317100 1.601700
23.359800 1.581700
23.402500 1.455900
23.445200 1.460200
23.487900 1.544600
23.530600 1.636800
23.573300 1.725800
23.616000 1.838400
23.658700 1.992800
23.701400 2.131900
23.744100 2.251400
23.786800 2.362900
23.829500 2.462600
23.872200 2.629700
23.914900 2.665700
23.957600 2.535200
24.000300 2.257500
24.043000 2.067200
24.085700 1.912100
24.128400 1.799400
24.171100 1.773000
24.213800 1.941000
24.256500 1.975100
24.299200 2.152800
24.341900 2.090300
24.384600 2.099900
24.427300 2.288300
24.470000 2.730100
24.512700 2.973800
24.555400 2.836100
24.598100 2.609800
24.640800 2.235800
24.683500 2.324700
24.726200 2.487500
24.768900 2.658700
24.811600 2.854700
24.854300 2.912600
24.897000 3.004600
24.939700 3.137900
24.982400 3.427300
25.025100 3.091700
25.067800 2.774500
25.110500 2.639600
25.153200 2.481200
25.195900 2.403300
25.238600 2.371300
25.281300 2.486300
25.324000 2.727000
25.366700 2.888100
25.409400 2.911400
25.452100 2.646300
25.494800 2.496100
25.537500 2.392300
25.580200 2.265400
25.622900 2.220400
25.665600 2.230700
25.708300 2.234800
25.751000 2.243700
25.793700 2.331700
25.836400 2.169200
25.879100 2.124500
25.921800 2.154200
25.964500 2.319900
26.007200 2.509800
26.049900 2.540400
26.092600 2.593700
26.135300 2.613700
26.178000 2.484800
26.220700 2.364100
26.263400 2.361800
26.306100 2.466000
26.348800 2.723300
26.391500 2.731400
26.434200 2.598800
26.476900 2.449200
26.519600 2.443400
26.562300 2.642600
26.605000 2.722300
26.647700 2.800600
26.690400 2.890200
26.733100 2.803900
26.775800 2.734000
26.818500 2.742600
26.861200 2.723100
26.903900 2.892400
26.946600 2.745300
26.989300 2.740600
27.032000 2.846600
27.074700 2.624300
27.117400 2.649900
27.160100 2.636400
27.202800 2.648500
27.245500 2.531800
27.288200 2.367600
27.330900 2.275700
27.373600 2.185900
27.416300 2.120600
27.459000 2.160200
27.501700 2.212000
27.544400 2.225300
27.587100 2.211100
27.629800 2.195100
27.672500 2.411300
27.715200 2.458500
27.757900 2.271800
27.800600 2.293100
27.843300 2.357500
27.886000 2.368100
27.928700 2.360700
27.971400 2.449500
28.014100 2.453700
28.056800 2.106200
28.099500 2.003500
28.142200 2.068700
28.184900 2.233000
28.227600 2.271700
28.270300 2.281000
28.313000 2.278800
28.355700 2.306100
28.398400 2.268300
28.441100 2.262200
28.483800 2.272300
28.526500 2.275700
28.569200 2.325700
28.611900 2.385900
28.654600 2.406800
28.697300 2.359000
28.740000 2.368300
28.782700 2.444700
28.825400 2.612900
28.868100 2.952600
28.910800 3.228200
28.953500 3.175800
28.996200 3.417300
29.038900 3.625200
29.081600 3.660100
29.124300 3.453400
29.167000 2.951300
29.209700 2.689600
29.252400 2.460700
29.295100 2.493800
29.337800 2.542600
29.380500 2.562000
29.423200 2.601500
29.465900 2.641200
29.508600 2.754500
29.551300 2.871500
29.594000 3.065200
29.636700 3.046000
29.679400 3.100800
29.722100 3.066200
29.764800 3.002300
29.807500 2.973300
29.850200 2.966400
29.892900 2.936000
29.935600 3.018000
29.978300 3.299000
30.021000 3.607300
30.063700 3.716800
30.106400 3.538400
30.149100 3.383600
30.191800 3.317700
30.234500 3.079000
30.277200 3.048400
30.319900 2.816800
30.362600 2.759500
30.405300 2.657500
30.448000 2.599500
30.490700 2.547400
30.533400 2.494100
30.576100 2.296800
30.618800 2.268800
30.661500 2.285800
30.704200 2.396000
30.746900 2.564100
30.789600 2.707000
30.832300 2.934600
30.875000 3.077200
30.917700 3.183900
30.960400 2.986900
31.003100 2.912800
31.045800 2.814200
31.088500 2.702000
31.131200 2.540300
31.173900 2.450600
31.216600 2.427900
31.259300 2.339800
31.302000 2.138600
31.344700 1.923100
31.387400 1.745600
31.430100 1.669600
31.472800 1.646700
31.515500 1.626200
31.558200 1.611600
31.600900 1.620300
31.643600 1.654300
31.686300 1.731100
31.729000 1.813300
31.771700 1.966800
31.814400 2.077500
31.857100 2.266300
31.899800 2.241200
31.942500 2.266900
31.985200 2.300600
32.027900 2.559300
32.070600 2.733600
32.113300 2.593700
32.156000 2.711700
32.198700 2.623700
32.241400 2.664200
32.284100 2.698600
32.326800 2.711500
32.369500 2.878300
32.412200 2.971500
32.454900 3.111200
32.497600 3.167800
32.540300 3.158500
32.583000 3.168900
32.625700 3.071400
32.668400 3.072800
32.711100 3.078400
32.753800 3.013200
32.796500 2.941700
32.839200 2.917400
32.881900 2.822700
32.924600 2.443100
32.967300 2.347600
33.010000 2.429800
33.052700 2.599800
33.095400 2.791500
33.138100 2.891400
33.180800 3.055100
33.223500 3.079100
33.266200 3.156300
33.308900 3.130000
33.351600 3.099300
33.394300 2.912900
33.437000 2.842100
33.479700 2.867900
33.522400 2.638200
33.565100 2.539800
33.607800 2.545200
33.650500 2.616300
33.693200 2.787700
33.735900 2.885000
33.778600 2.894100
33.821300 2.846000
33.864000 2.648900
33.906700 2.495100
33.949400 2.371400
33.992100 2.333000
34.034800 2.302200
34.077500 2.377400
34.120200 2.432700
34.162900 2.504600
34.205600 2.597100
34.248300 2.656400
34.291000 2.683800
34.333700 2.511200
34.376400 2.472300
34.419100 2.405100
34.461800 2.423900
34.504500 2.479800
34.547200 2.601900
34.589900 2.739200
34.632600 2.884400
34.675300 3.051000
34.718000 3.208700
34.760700 3.213100
34.803400 3.178400
34.846100 3.183600
34.888800 3.111100
34.931500 3.096600
34.974200 3.226400
35.016900 3.118800
35.059600 2.927300
35.102300 2.891300
35.145000 2.912600
35.187700 2.868000
35.230400 2.825600
35.273100 2.869500
35.315800 2.992600
35.358500 3.177000
35.401200 3.378300
35.443900 3.559000
35.486600 3.659200
35.529300 3.591800
35.572000 3.419700
35.614700 3.231500
35.657400 3.021800
35.700100 2.877700
35.742800 2.882700
35.785500 2.941600
35.828200 3.105300
35.870900 3.404400
35.913600 3.849500
35.956300 3.829900
35.999000 3.051200
36.041700 2.651600
36.084400 2.679600
36.127100 3.174900
36.169800 2.786600
36.212500 2.212900
36.255200 1.720800
36.297900 1.488000
36.340600 1.320800
36.383300 1.188100
36.426000 1.072900
36.468700 0.884900
36.511400 0.807200
36.554100 0.756100
36.596800 0.687400
36.639500 0.620300
36.682200 0.583300
36.724900 0.601400
36.767600 0.399100
36.810300 0.333200
36.853000 0.281800
36.895700 0.244300
36.938400 0.210300
36.981100 0.177700
37.023800 0.148700
37.066500 0.129300
37.109200 0.115400
37.151900 0.102100
37.194600 0.089200
37.237300 0.076800
37.280000 0.064800
37.322700 0.053100
37.365400 0.041800
37.408100 0.030800
37.450800 0.020100
37.493500 0.009700
37.536200 0.000100
37.578900 0.000000
37.621600 0.000000
37.664300 0.000000
37.707000 0.000000
37.749700 0.000000
37.792400 0.000000
37.835100 0.000000
37.877800 0.000000
37.920500 0.000000
37.963200 0.000000
38.005900 0.000000
38.048600 0.000000
38.091300 0.000000
38.134000 0.000000
38.176700 0.000000
38.219400 0.000000
38.262100 0.000000
38.304800 0.000000
38.347500 0.000000
38.390200 0.000000
38.432900 0.000000
38.475600 0.000000
38.518300 0.000000
38.561000 0.000000
38.603700 0.000000
38.646400 0.000000
38.689100 0.000000
38.731800 0.000000
38.774500 0.000000
38.817200 0.000000
38.859900 0.000000
38.902600 0.000000
38.945300 0.000000
38.988000 0.000000
39.030700 0.000000
39.073400 0.000000
39.116100 0.000000
39.158800 0.000000
39.201500 0.000000
39.244200 0.000000
39.286900 0.000000
39.329600 0.000000
39.372300 0.000000
39.415000 0.000000
39.457700 0.000000
39.500400 0.000000
39.543100 0.000000
39.585800 0.000000
39.628500 0.000000
39.671200 0.000000
39.713900 0.000000
39.756600 0.000000
39.799300 0.000000
39.842000 0.000000
39.884700 0.000000
39.927400 0.000000
39.970100 0.000000
40.012800 0.000000
40.055500 0.000000
40.098200 0.000000
40.140900 0.000000
40.183600 0.000000
40.226300 0.000000
40.269000 0.000000
40.311700 0.000000
40.354400 0.000000
40.397100 0.000000
40.439800 0.000000
40.482500 0.000000
40.525200 0.000000
40.567900 0.000000
40.610600 0.000000
40.653300 0.000000
40.696000 0.000000
40.738700 0.000000
40.781400 0.000000
40.824100 0.000000
40.866800 0.000000
40.909500 0.000000
40.952200 0.000000
40.994900 0.000000
41.037600 0.000000
41.080300 0.000000
41.123000 0.000000
41.165700 0.000000
41.208400 0.000000
41.251100 0.000000
41.293800 0.000000
41.336500 0.000000
41.379200 0.000000
41.421900 0.000000
e
