set title 'mp-733 - Density of States'
set xlabel 'Energy (eV)'
set ylabel 'DOS (states/eV)'
set grid
set xrange [-10:10]
set yrange [0:27.404]
set xzeroaxis lt -1
set terminal png size 800,600
set output 'mp-733_dos_gnuplot.png'
plot '-' using 1:2 with lines title 'DOS'
-26.078100 0.000000
-26.055600 0.000000
-26.033100 0.000000
-26.010600 0.000000
-25.988100 0.000000
-25.965600 0.000000
-25.943200 0.000000
-25.920700 0.000000
-25.898200 0.000000
-25.875700 0.000000
-25.853200 0.000000
-25.830700 0.000000
-25.808200 0.000000
-25.785700 0.000000
-25.763200 0.000000
-25.740800 0.000000
-25.718300 0.000000
-25.695800 0.000000
-25.673300 0.000000
-25.650800 0.000000
-25.628300 0.000000
-25.605800 0.000000
-25.583300 0.000000
-25.560900 0.000000
-25.538400 0.000000
-25.515900 0.000000
-25.493400 0.000000
-25.470900 0.000000
-25.448400 0.000000
-25.425900 0.000000
-25.403400 0.000000
-25.380900 0.000000
-25.358500 0.000000
-25.336000 0.000000
-25.313500 0.000000
-25.291000 0.000000
-25.268500 0.000000
-25.246000 0.000000
-25.223500 0.000000
-25.201000 0.000000
-25.178600 0.000000
-25.156100 0.000000
-25.133600 0.000000
-25.111100 0.000000
-25.088600 0.000000
-25.066100 0.000000
-25.043600 0.000000
-25.021100 0.000000
-24.998700 0.000000
-24.976200 0.000000
-24.953700 0.000000
-24.931200 0.000000
-24.908700 0.000000
-24.886200 0.000000
-24.863700 0.000000
-24.841200 0.000000
-24.818700 0.000000
-24.796300 0.000000
-24.773800 0.000000
-24.751300 0.000000
-24.728800 0.000000
-24.706300 0.000000
-24.683800 0.000000
-24.661300 0.000000
-24.638800 0.000000
-24.616400 0.000000
-24.593900 0.000000
-24.571400 0.000000
-24.548900 0.000000
-24.526400 0.000000
-24.503900 0.000000
-24.481400 0.000000
-24.458900 0.000000
-24.436400 0.000000
-24.414000 0.000000
-24.391500 0.000000
-24.369000 0.000000
-24.346500 0.000000
-24.324000 0.000000
-24.301500 0.000000
-24.279000 0.000000
-24.256500 0.000000
-24.234100 0.000000
-24.211600 0.000000
-24.189100 0.000000
-24.166600 0.000000
-24.144100 0.000000
-24.121600 0.000000
-24.099100 0.000000
-24.076600 0.000000
-24.054200 0.000000
-24.031700 442.647600
-24.009200 17.570200
-23.986700 29.011900
-23.964200 18.487600
-23.941700 9.175500
-23.919200 56.290500
-23.896700 16.304900
-23.874200 6.606600
-23.851800 29.076000
-23.829300 22.797300
-23.806800 10.382300
-23.784300 203.435500
-23.761800 91.160300
-23.739300 0.000000
-23.716800 0.000000
-23.694300 0.000000
-23.671900 57.936400
-23.649400 245.310800
-23.626900 108.009800
-23.604400 0.000000
-23.581900 0.000000
-23.559400 0.000000
-23.536900 0.000000
-23.514400 0.000000
-23.491900 0.000000
-23.469500 0.000000
-23.447000 0.000000
-23.424500 0.000000
-23.402000 0.000000
-23.379500 0.000000
-23.357000 0.000000
-23.334500 0.000000
-23.312000 0.000000
-23.289600 0.000000
-23.267100 0.000000
-23.244600 0.000000
-23.222100 0.000000
-23.199600 0.000000
-23.177100 0.000000
-23.154600 0.000000
-23.132100 0.000000
-23.109700 0.000000
-23.087200 0.000000
-23.064700 0.000000
-23.042200 0.000000
-23.019700 0.000000
-22.997200 0.000000
-22.974700 0.000000
-22.952200 0.000000
-22.929700 0.000000
-22.907300 0.000000
-22.884800 0.000000
-22.862300 0.000000
-22.839800 0.000000
-22.817300 0.000000
-22.794800 0.000000
-22.772300 0.000000
-22.749800 0.000000
-22.727400 0.000000
-22.704900 0.000000
-22.682400 0.000000
-22.659900 0.000000
-22.637400 0.000000
-22.614900 0.000000
-22.592400 0.000000
-22.569900 0.000000
-22.547400 0.000000
-22.525000 0.000000
-22.502500 0.000000
-22.480000 0.000000
-22.457500 0.000000
-22.435000 0.000000
-22.412500 0.000000
-22.390000 0.000000
-22.367500 0.000000
-22.345100 0.000000
-22.322600 0.000000
-22.300100 0.000000
-22.277600 0.000000
-22.255100 0.000000
-22.232600 0.000000
-22.210100 0.000000
-22.187600 0.000000
-22.165200 0.000000
-22.142700 0.000000
-22.120200 0.000000
-22.097700 0.000000
-22.075200 0.000000
-22.052700 0.000000
-22.030200 0.000000
-22.007700 0.000000
-21.985200 0.000000
-21.962800 0.000000
-21.940300 0.000000
-21.917800 0.000000
-21.895300 0.000000
-21.872800 0.000000
-21.850300 0.000000
-21.827800 0.000000
-21.805300 0.000000
-21.782900 0.000000
-21.760400 0.000000
-21.737900 0.000000
-21.715400 0.000000
-21.692900 0.000000
-21.670400 0.000000
-21.647900 0.000000
-21.625400 0.000000
-21.602900 0.000000
-21.580500 0.000000
-21.558000 0.000000
-21.535500 0.000000
-21.513000 0.000000
-21.490500 0.000000
-21.468000 0.000000
-21.445500 0.000000
-21.423000 0.000000
-21.400600 0.000000
-21.378100 0.000000
-21.355600 0.000000
-21.333100 0.000000
-21.310600 0.000000
-21.288100 0.000000
-21.265600 0.000000
-21.243100 0.000000
-21.220600 0.000000
-21.198200 0.000000
-21.175700 0.000000
-21.153200 0.000000
-21.130700 0.000000
-21.108200 0.000000
-21.085700 0.000000
-21.063200 0.000000
-21.040700 0.000000
-21.018300 0.000000
-20.995800 0.000000
-20.973300 0.000000
-20.950800 0.000000
-20.928300 0.000000
-20.905800 0.000000
-20.883300 0.000000
-20.860800 0.000000
-20.838400 0.000000
-20.815900 0.000000
-20.793400 0.000000
-20.770900 0.000000
-20.748400 0.000000
-20.725900 0.000000
-20.703400 0.000000
-20.680900 0.000000
-20.658400 0.000000
-20.636000 0.000000
-20.613500 0.000000
-20.591000 0.000000
-20.568500 0.000000
-20.546000 0.000000
-20.523500 0.000000
-20.501000 0.000000
-20.478500 0.000000
-20.456100 0.000000
-20.433600 0.000000
-20.411100 0.000000
-20.388600 0.000000
-20.366100 0.000000
-20.343600 0.000000
-20.321100 0.000000
-20.298600 0.000000
-20.276100 0.000000
-20.253700 0.000000
-20.231200 0.000000
-20.208700 0.000000
-20.186200 0.000000
-20.163700 0.000000
-20.141200 0.000000
-20.118700 0.000000
-20.096200 0.000000
-20.073800 0.000000
-20.051300 0.000000
-20.028800 0.000000
-20.006300 0.000000
-19.983800 0.000000
-19.961300 0.000000
-19.938800 0.000000
-19.916300 0.000000
-19.893900 0.000000
-19.871400 0.000000
-19.848900 0.000000
-19.826400 0.000000
-19.803900 0.000000
-19.781400 0.000000
-19.758900 0.000000
-19.736400 0.000000
-19.713900 0.000000
-19.691500 0.000000
-19.669000 0.000000
-19.646500 0.000000
-19.624000 0.000000
-19.601500 0.000000
-19.579000 0.000000
-19.556500 0.000000
-19.534000 0.000000
-19.511600 0.000000
-19.489100 0.000000
-19.466600 0.000000
-19.444100 0.005200
-19.421600 0.413000
-19.399100 0.526300
-19.376600 0.732000
-19.354100 0.863100
-19.331600 0.959100
-19.309200 1.084100
-19.286700 1.219900
-19.264200 1.318200
-19.241700 1.415900
-19.219200 1.514900
-19.196700 1.638400
-19.174200 1.768700
-19.151700 1.881900
-19.129300 1.993900
-19.106800 2.127900
-19.084300 2.272600
-19.061800 2.428700
-19.039300 2.604200
-19.016800 2.820200
-18.994300 3.257000
-18.971800 3.527600
-18.949400 3.817000
-18.926900 4.280300
-18.904400 4.888200
-18.881900 6.909500
-18.859400 6.744400
-18.836900 7.564800
-18.814400 9.106800
-18.791900 5.798000
-18.769400 3.457800
-18.747000 1.493300
-18.724500 1.048800
-18.702000 0.862300
-18.679500 0.813000
-18.657000 0.838900
-18.634500 0.895000
-18.612000 0.958700
-18.589500 1.050100
-18.567100 1.172700
-18.544600 1.305500
-18.522100 1.454400
-18.499600 1.650000
-18.477100 1.944800
-18.454600 2.291200
-18.432100 2.827400
-18.409600 3.319000
-18.387100 4.044000
-18.364700 5.268000
-18.342200 7.876400
-18.319700 11.648100
-18.297200 7.197000
-18.274700 4.633100
-18.252200 3.628700
-18.229700 3.083800
-18.207200 2.385400
-18.184800 2.028500
-18.162300 1.746300
-18.139800 1.492800
-18.117300 1.290200
-18.094800 1.165100
-18.072300 1.081100
-18.049800 0.977500
-18.027300 0.841900
-18.004900 0.772600
-17.982400 0.701200
-17.959900 0.661300
-17.937400 0.656500
-17.914900 0.688200
-17.892400 1.010200
-17.869900 1.134700
-17.847400 1.464700
-17.824900 2.061000
-17.802500 3.931500
-17.780000 5.283700
-17.757500 11.260600
-17.735000 13.403800
-17.712500 5.889500
-17.690000 4.236000
-17.667500 3.529100
-17.645000 3.044100
-17.622600 2.666800
-17.600100 2.416200
-17.577600 2.223700
-17.555100 2.054500
-17.532600 1.897600
-17.510100 1.766200
-17.487600 1.664100
-17.465100 1.565800
-17.442600 1.470200
-17.420200 1.379700
-17.397700 1.295200
-17.375200 1.212600
-17.352700 1.133300
-17.330200 1.061900
-17.307700 1.008400
-17.285200 0.972200
-17.262700 0.905300
-17.240300 0.854000
-17.217800 0.787300
-17.195300 0.755100
-17.172800 7.562900
-17.150300 39.274800
-17.127800 20.082500
-17.105300 29.170300
-17.082800 42.255000
-17.060300 22.277200
-17.037900 25.360400
-17.015400 25.715200
-16.992900 21.921400
-16.970400 11.256300
-16.947900 5.421800
-16.925400 2.464900
-16.902900 0.000000
-16.880400 0.000000
-16.858000 0.000000
-16.835500 0.000000
-16.813000 0.000000
-16.790500 0.000000
-16.768000 0.000000
-16.745500 0.000000
-16.723000 0.000000
-16.700500 0.000000
-16.678100 0.000000
-16.655600 0.000000
-16.633100 0.000000
-16.610600 0.000000
-16.588100 0.000000
-16.565600 0.000000
-16.543100 0.000000
-16.520600 0.000000
-16.498100 0.000000
-16.475700 0.000000
-16.453200 0.000000
-16.430700 0.000000
-16.408200 0.000000
-16.385700 0.000000
-16.363200 0.000000
-16.340700 0.000000
-16.318200 0.000000
-16.295800 0.000000
-16.273300 0.000000
-16.250800 0.000000
-16.228300 0.000000
-16.205800 0.000000
-16.183300 0.000000
-16.160800 0.000000
-16.138300 0.000000
-16.115800 0.000000
-16.093400 0.000000
-16.070900 0.000000
-16.048400 0.000000
-16.025900 0.000000
-16.003400 0.000000
-15.980900 0.000000
-15.958400 0.000000
-15.935900 0.000000
-15.913500 0.000000
-15.891000 0.000000
-15.868500 0.000000
-15.846000 0.000000
-15.823500 0.000000
-15.801000 0.000000
-15.778500 0.000000
-15.756000 0.000000
-15.733600 0.000000
-15.711100 0.000000
-15.688600 0.000000
-15.666100 0.000000
-15.643600 0.000000
-15.621100 0.000000
-15.598600 0.000000
-15.576100 0.000000
-15.553600 0.000000
-15.531200 0.000000
-15.508700 0.000000
-15.486200 0.000000
-15.463700 0.000000
-15.441200 0.000000
-15.418700 0.000000
-15.396200 0.000000
-15.373700 0.000000
-15.351300 0.000000
-15.328800 0.000000
-15.306300 0.000000
-15.283800 0.000000
-15.261300 0.000000
-15.238800 0.000000
-15.216300 0.000000
-15.193800 0.000000
-15.171300 0.000000
-15.148900 0.000000
-15.126400 0.000000
-15.103900 0.000000
-15.081400 0.000000
-15.058900 0.000000
-15.036400 0.000000
-15.013900 0.000000
-14.991400 0.000000
-14.969000 0.000000
-14.946500 0.000000
-14.924000 0.000000
-14.901500 0.000000
-14.879000 0.000000
-14.856500 0.000000
-14.834000 0.000000
-14.811500 0.000000
-14.789100 0.000000
-14.766600 0.000000
-14.744100 0.000000
-14.721600 0.000000
-14.699100 0.000000
-14.676600 0.000000
-14.654100 0.000000
-14.631600 0.000000
-14.609100 0.000000
-14.586700 0.000000
-14.564200 0.000000
-14.541700 0.000000
-14.519200 0.000000
-14.496700 0.000000
-14.474200 0.000000
-14.451700 0.000000
-14.429200 0.000000
-14.406800 0.000000
-14.384300 0.000000
-14.361800 0.000000
-14.339300 0.000000
-14.316800 0.000000
-14.294300 0.000000
-14.271800 0.000000
-14.249300 0.000000
-14.226800 0.000000
-14.204400 0.000000
-14.181900 0.000000
-14.159400 0.000000
-14.136900 0.000000
-14.114400 0.000000
-14.091900 0.000000
-14.069400 0.000000
-14.046900 0.000000
-14.024500 0.000000
-14.002000 0.000000
-13.979500 0.000000
-13.957000 0.000000
-13.934500 0.000000
-13.912000 0.000000
-13.889500 0.000000
-13.867000 0.000000
-13.844500 0.000000
-13.822100 0.000000
-13.799600 0.000000
-13.777100 0.000000
-13.754600 0.000000
-13.732100 0.000000
-13.709600 0.000000
-13.687100 0.000000
-13.664600 0.000000
-13.642200 0.000000
-13.619700 0.000000
-13.597200 0.000000
-13.574700 0.000000
-13.552200 0.000000
-13.529700 0.000000
-13.507200 0.000000
-13.484700 0.000000
-13.462300 0.000000
-13.439800 0.000000
-13.417300 0.000000
-13.394800 0.000000
-13.372300 0.000000
-13.349800 0.000000
-13.327300 0.000000
-13.304800 0.000000
-13.282300 0.000000
-13.259900 0.000000
-13.237400 0.000000
-13.214900 0.000000
-13.192400 0.000000
-13.169900 0.000000
-13.147400 0.000000
-13.124900 0.000000
-13.102400 0.000000
-13.080000 0.000000
-13.057500 0.000000
-13.035000 0.000000
-13.012500 0.000000
-12.990000 0.000000
-12.967500 0.000000
-12.945000 0.000000
-12.922500 0.000000
-12.900000 0.000000
-12.877600 0.000000
-12.855100 0.000000
-12.832600 0.000000
-12.810100 0.000000
-12.787600 0.000000
-12.765100 0.000000
-12.742600 0.000000
-12.720100 0.000000
-12.697700 0.000000
-12.675200 0.000000
-12.652700 0.000000
-12.630200 0.000000
-12.607700 0.000000
-12.585200 0.000000
-12.562700 0.000000
-12.540200 0.000000
-12.517800 0.000000
-12.495300 0.000000
-12.472800 0.000000
-12.450300 0.000000
-12.427800 0.000000
-12.405300 0.000000
-12.382800 0.000000
-12.360300 0.000000
-12.337800 0.000000
-12.315400 0.000000
-12.292900 0.000000
-12.270400 0.000000
-12.247900 0.000000
-12.225400 0.000000
-12.202900 0.000000
-12.180400 0.000000
-12.157900 0.000000
-12.135500 0.000000
-12.113000 0.000000
-12.090500 0.000000
-12.068000 0.000000
-12.045500 0.000000
-12.023000 0.000000
-12.000500 0.000000
-11.978000 0.000000
-11.955500 0.000000
-11.933100 0.000000
-11.910600 0.000000
-11.888100 0.000000
-11.865600 0.000000
-11.843100 0.000000
-11.820600 0.000000
-11.798100 0.000000
-11.775600 0.000000
-11.753200 0.000000
-11.730700 0.000000
-11.708200 0.000000
-11.685700 0.000000
-11.663200 0.000000
-11.640700 0.000000
-11.618200 0.000000
-11.595700 0.000000
-11.573300 0.000000
-11.550800 0.000000
-11.528300 0.000000
-11.505800 0.000000
-11.483300 0.000000
-11.460800 0.000000
-11.438300 0.000000
-11.415800 0.000000
-11.393300 0.000000
-11.370900 0.000000
-11.348400 0.000000
-11.325900 0.000000
-11.303400 0.000000
-11.280900 0.000000
-11.258400 0.000000
-11.235900 0.000000
-11.213400 0.000000
-11.191000 0.000000
-11.168500 0.000000
-11.146000 0.000000
-11.123500 0.000000
-11.101000 0.000000
-11.078500 0.000000
-11.056000 0.000000
-11.033500 0.000000
-11.011000 0.000000
-10.988600 0.000000
-10.966100 0.000000
-10.943600 0.000000
-10.921100 0.000000
-10.898600 0.000000
-10.876100 0.000000
-10.853600 0.000000
-10.831100 0.000000
-10.808700 0.000000
-10.786200 0.000000
-10.763700 0.000000
-10.741200 0.000000
-10.718700 0.000000
-10.696200 0.000000
-10.673700 0.000000
-10.651200 0.000000
-10.628800 0.000000
-10.606300 0.000000
-10.583800 0.000000
-10.561300 0.000000
-10.538800 0.000000
-10.516300 0.000000
-10.493800 0.000000
-10.471300 0.000000
-10.448800 0.000000
-10.426400 0.000000
-10.403900 0.000000
-10.381400 0.000000
-10.358900 0.000000
-10.336400 0.000000
-10.313900 0.000000
-10.291400 0.000000
-10.268900 0.000000
-10.246500 0.000000
-10.224000 0.000000
-10.201500 0.000000
-10.179000 0.000000
-10.156500 0.000000
-10.134000 0.000000
-10.111500 0.000000
-10.089000 0.000000
-10.066500 0.000000
-10.044100 0.000000
-10.021600 0.000000
-9.999100 0.000000
-9.976600 0.000000
-9.954100 0.000000
-9.931600 0.000000
-9.909100 0.000000
-9.886600 0.000000
-9.864200 0.000000
-9.841700 0.000000
-9.819200 0.012200
-9.796700 0.099500
-9.774200 0.223700
-9.751700 0.221900
-9.729200 0.273200
-9.706700 0.308100
-9.684200 0.343900
-9.661800 0.386400
-9.639300 0.417900
-9.616800 0.445400
-9.594300 0.476900
-9.571800 0.509300
-9.549300 0.540900
-9.526800 0.575600
-9.504300 0.610500
-9.481900 0.645600
-9.459400 0.670100
-9.436900 0.704300
-9.414400 0.742300
-9.391900 0.779700
-9.369400 0.818900
-9.346900 0.855000
-9.324400 0.890900
-9.302000 0.932500
-9.279500 0.980700
-9.257000 1.031600
-9.234500 1.080900
-9.212000 1.131300
-9.189500 1.184900
-9.167000 1.240900
-9.144500 1.318600
-9.122000 1.408000
-9.099600 1.503000
-9.077100 1.604000
-9.054600 1.713900
-9.032100 1.845500
-9.009600 2.047300
-8.987100 2.312400
-8.964600 2.668900
-8.942100 4.006000
-8.919700 10.877200
-8.897200 8.713700
-8.874700 5.359300
-8.852200 3.888700
-8.829700 2.980900
-8.807200 2.474800
-8.784700 2.175700
-8.762200 1.944800
-8.739700 1.370800
-8.717300 1.189600
-8.694800 1.008800
-8.672300 0.868700
-8.649800 0.759100
-8.627300 0.670400
-8.604800 0.601000
-8.582300 0.547700
-8.559800 0.525900
-8.537400 0.502400
-8.514900 0.477300
-8.492400 0.447700
-8.469900 0.402000
-8.447400 0.401400
-8.424900 0.408400
-8.402400 0.421600
-8.379900 0.432900
-8.357500 0.443300
-8.335000 0.452000
-8.312500 0.460300
-8.290000 0.469900
-8.267500 0.511200
-8.245000 0.560400
-8.222500 0.596400
-8.200000 0.629000
-8.177500 0.660800
-8.155100 0.693800
-8.132600 0.737700
-8.110100 0.789100
-8.087600 0.848000
-8.065100 0.916100
-8.042600 1.000200
-8.020100 1.092500
-7.997600 1.177700
-7.975200 1.260100
-7.952700 1.429600
-7.930200 1.611200
-7.907700 1.801200
-7.885200 2.073300
-7.862700 2.366100
-7.840200 2.959300
-7.817700 3.083700
-7.795200 3.309900
-7.772800 3.927700
-7.750300 5.014700
-7.727800 5.875300
-7.705300 4.991700
-7.682800 3.517900
-7.660300 2.899400
-7.637800 2.542500
-7.615300 2.229400
-7.592900 1.968000
-7.570400 1.768700
-7.547900 1.616800
-7.525400 1.479800
-7.502900 1.304300
-7.480400 1.174600
-7.457900 1.076400
-7.435400 0.975800
-7.413000 0.903100
-7.390500 0.842000
-7.368000 0.784600
-7.345500 0.732100
-7.323000 0.682400
-7.300500 0.635200
-7.278000 0.591600
-7.255500 0.551600
-7.233000 0.517300
-7.210600 0.487600
-7.188100 0.459000
-7.165600 0.431700
-7.143100 0.406800
-7.120600 0.384400
-7.098100 0.366000
-7.075600 0.350100
-7.053100 0.337100
-7.030700 0.336600
-7.008200 0.330600
-6.985700 0.329700
-6.963200 0.334700
-6.940700 0.353800
-6.918200 0.396900
-6.895700 0.466900
-6.873200 0.573300
-6.850700 0.748300
-6.828300 1.243000
-6.805800 2.259200
-6.783300 1.869400
-6.760800 2.053300
-6.738300 2.279600
-6.715800 2.500900
-6.693300 2.705300
-6.670800 3.597900
-6.648400 3.693600
-6.625900 3.342400
-6.603400 3.069400
-6.580900 2.833900
-6.558400 2.718300
-6.535900 2.618000
-6.513400 2.510100
-6.490900 2.414100
-6.468500 2.274800
-6.446000 2.181300
-6.423500 2.035300
-6.401000 1.987600
-6.378500 1.970800
-6.356000 1.978300
-6.333500 1.853500
-6.311000 1.737300
-6.288500 1.623000
-6.266100 1.525500
-6.243600 1.437900
-6.221100 1.357300
-6.198600 1.280700
-6.176100 1.215600
-6.153600 1.163800
-6.131100 1.114800
-6.108600 1.063700
-6.086200 1.021700
-6.063700 0.984000
-6.041200 0.947500
-6.018700 0.912200
-5.996200 0.878500
-5.973700 0.846400
-5.951200 0.815000
-5.928700 0.783400
-5.906200 0.757700
-5.883800 0.735000
-5.861300 0.704100
-5.838800 0.673600
-5.816300 0.644200
-5.793800 0.616000
-5.771300 0.591500
-5.748800 0.570700
-5.726300 0.553800
-5.703900 0.551200
-5.681400 0.535400
-5.658900 0.519100
-5.636400 0.501400
-5.613900 0.482100
-5.591400 0.498400
-5.568900 0.587900
-5.546400 0.527700
-5.523900 0.437900
-5.501500 0.198300
-5.479000 0.013500
-5.456500 0.000000
-5.434000 0.007500
-5.411500 0.300100
-5.389000 0.706100
-5.366500 1.185300
-5.344000 1.913600
-5.321600 3.692600
-5.299100 5.334700
-5.276600 7.659700
-5.254100 12.606800
-5.231600 14.200900
-5.209100 13.588700
-5.186600 13.939200
-5.164100 14.725500
-5.141700 11.334700
-5.119200 8.797000
-5.096700 8.048100
-5.074200 8.703000
-5.051700 6.719000
-5.029200 5.797900
-5.006700 5.379700
-4.984200 5.138200
-4.961700 5.050700
-4.939300 5.225200
-4.916800 5.566200
-4.894300 5.641500
-4.871800 7.670300
-4.849300 4.715600
-4.826800 4.711400
-4.804300 5.479400
-4.781800 6.717500
-4.759400 6.742400
-4.736900 6.622100
-4.714400 6.688700
-4.691900 6.697000
-4.669400 5.314800
-4.646900 2.803500
-4.624400 2.628200
-4.601900 2.500200
-4.579400 2.424700
-4.557000 2.343900
-4.534500 2.243000
-4.512000 2.156100
-4.489500 2.110300
-4.467000 2.092600
-4.444500 1.993400
-4.422000 1.924700
-4.399500 2.090200
-4.377100 1.478200
-4.354600 0.867400
-4.332100 0.682900
-4.309600 0.526800
-4.287100 0.194300
-4.264600 0.016600
-4.242100 0.000000
-4.219600 0.000000
-4.197200 0.000000
-4.174700 0.000000
-4.152200 0.000000
-4.129700 0.000000
-4.107200 0.000000
-4.084700 0.000000
-4.062200 0.000000
-4.039700 0.000000
-4.017200 0.000000
-3.994800 0.000000
-3.972300 0.000000
-3.949800 0.000000
-3.927300 0.000000
-3.904800 0.000000
-3.882300 0.000000
-3.859800 0.000000
-3.837300 0.000000
-3.814900 0.000000
-3.792400 0.000000
-3.769900 0.000000
-3.747400 0.000000
-3.724900 0.000000
-3.702400 0.000000
-3.679900 0.000000
-3.657400 0.000000
-3.634900 0.000000
-3.612500 0.000000
-3.590000 0.000000
-3.567500 0.000000
-3.545000 0.000000
-3.522500 0.000000
-3.500000 0.000000
-3.477500 0.000000
-3.455000 0.000000
-3.432600 0.000000
-3.410100 0.000000
-3.387600 0.000000
-3.365100 11.551800
-3.342600 14.221700
-3.320100 9.890900
-3.297600 8.976700
-3.275100 8.319300
-3.252700 7.827700
-3.230200 7.895100
-3.207700 9.901800
-3.185200 9.270800
-3.162700 11.747800
-3.140200 8.844000
-3.117700 8.190800
-3.095200 7.104600
-3.072700 7.040100
-3.050300 6.992300
-3.027800 7.526000
-3.005300 8.353800
-2.982800 6.664900
-2.960300 4.695200
-2.937800 4.104400
-2.915300 4.123800
-2.892800 3.426700
-2.870400 1.896400
-2.847900 3.829200
-2.825400 4.676600
-2.802900 4.748700
-2.780400 5.234100
-2.757900 5.646900
-2.735400 5.355100
-2.712900 6.996900
-2.690400 11.141700
-2.668000 8.213300
-2.645500 6.790400
-2.623000 6.195000
-2.600500 6.012400
-2.578000 6.320600
-2.555500 6.580600
-2.533000 3.430600
-2.510500 5.377500
-2.488100 10.735600
-2.465600 10.620100
-2.443100 9.051800
-2.420600 9.442900
-2.398100 8.299400
-2.375600 7.687100
-2.353100 8.083700
-2.330600 7.812700
-2.308200 7.711100
-2.285700 7.162600
-2.263200 6.431100
-2.240700 5.938100
-2.218200 6.012200
-2.195700 6.248800
-2.173200 6.612400
-2.150700 6.567500
-2.128200 7.042800
-2.105800 8.084800
-2.083300 14.643800
-2.060800 7.425400
-2.038300 5.871500
-2.015800 7.755400
-1.993300 8.927300
-1.970800 7.889100
-1.948300 6.858200
-1.925900 6.157300
-1.903400 6.194400
-1.880900 6.535400
-1.858400 9.384600
-1.835900 8.709100
-1.813400 9.705100
-1.790900 10.354500
-1.768400 10.498700
-1.745900 11.963700
-1.723500 11.219800
-1.701000 11.888700
-1.678500 14.456300
-1.656000 11.107200
-1.633500 10.579700
-1.611000 11.531300
-1.588500 9.842000
-1.566000 10.843100
-1.543600 9.686900
-1.521100 9.706400
-1.498600 9.941000
-1.476100 12.107800
-1.453600 11.370100
-1.431100 11.910800
-1.408600 18.100100
-1.386100 12.296900
-1.363600 14.318900
-1.341200 18.040500
-1.318700 17.705700
-1.296200 17.273300
-1.273700 14.735500
-1.251200 14.926600
-1.228700 16.820700
-1.206200 10.729500
-1.183700 10.919400
-1.161300 12.885900
-1.138800 11.963800
-1.116300 10.987400
-1.093800 12.098800
-1.071300 9.988200
-1.048800 9.850100
-1.026300 11.865900
-1.003800 9.349500
-0.981400 7.975600
-0.958900 10.828900
-0.936400 19.974700
-0.913900 24.912900
-0.891400 19.749300
-0.868900 17.077400
-0.846400 0.204500
-0.823900 0.000000
-0.801400 0.000000
-0.779000 0.000000
-0.756500 0.000000
-0.734000 0.000000
-0.711500 0.000000
-0.689000 0.000000
-0.666500 0.000000
-0.644000 0.000000
-0.621500 0.000000
-0.599100 0.000000
-0.576600 0.000000
-0.554100 0.000000
-0.531600 0.000000
-0.509100 0.000000
-0.486600 0.000000
-0.464100 0.000000
-0.441600 0.000000
-0.419100 0.000000
-0.396700 0.000000
-0.374200 0.000000
-0.351700 0.000000
-0.329200 0.000000
-0.306700 0.000000
-0.284200 0.000000
-0.261700 0.000000
-0.239200 0.000000
-0.216800 0.000000
-0.194300 0.000000
-0.171800 0.000000
-0.149300 0.000000
-0.126800 0.000000
-0.104300 0.000000
-0.081800 0.000000
-0.059300 0.000000
-0.036900 0.000000
-0.014400 0.000000
0.008100 0.000000
0.030600 0.000000
0.053100 0.000000
0.075600 0.000000
0.098100 0.000000
0.120600 0.000000
0.143100 0.000000
0.165500 0.000000
0.188000 0.000000
0.210500 0.000000
0.233000 0.000000
0.255500 0.000000
0.278000 0.000000
0.300500 0.000000
0.323000 0.000000
0.345400 0.000000
0.367900 0.000000
0.390400 0.000000
0.412900 0.000000
0.435400 0.000000
0.457900 0.000000
0.480400 0.000000
0.502900 0.000000
0.525400 0.000000
0.547800 0.000000
0.570300 0.000000
0.592800 0.000000
0.615300 0.000000
0.637800 0.000000
0.660300 0.000000
0.682800 0.000000
0.705300 0.000000
0.727700 0.000000
0.750200 0.000000
0.772700 0.000000
0.795200 0.000000
0.817700 0.000000
0.840200 0.000000
0.862700 0.000000
0.885200 0.000000
0.907600 0.000000
0.930100 0.000000
0.952600 0.000000
0.975100 0.000000
0.997600 0.000000
1.020100 0.000000
1.042600 0.000000
1.065100 0.000000
1.087600 0.000000
1.110000 0.000000
1.132500 0.000000
1.155000 0.000000
1.177500 0.000000
1.200000 0.000000
1.222500 0.000000
1.245000 0.000000
1.267500 0.000000
1.289900 0.000000
1.312400 0.000000
1.334900 0.000000
1.357400 0.000000
1.379900 0.000000
1.402400 0.000000
1.424900 0.000000
1.447400 0.000000
1.469900 0.000000
1.492300 0.000000
1.514800 0.000000
1.537300 0.000000
1.559800 0.000000
1.582300 0.000000
1.604800 0.000000
1.627300 0.000000
1.649800 0.000000
1.672200 0.000000
1.694700 0.000000
1.717200 0.000000
1.739700 0.000000
1.762200 0.000000
1.784700 0.000000
1.807200 0.000000
1.829700 0.000000
1.852100 0.000000
1.874600 0.000000
1.897100 0.000000
1.919600 0.000000
1.942100 0.000000
1.964600 0.000000
1.987100 0.000000
2.009600 0.000000
2.032100 0.000000
2.054500 0.000000
2.077000 0.000000
2.099500 0.000000
2.122000 0.000000
2.144500 0.000000
2.167000 0.000000
2.189500 0.000000
2.212000 0.000000
2.234400 0.000000
2.256900 0.000000
2.279400 0.000000
2.301900 0.000000
2.324400 0.000000
2.346900 0.000000
2.369400 0.000000
2.391900 0.000000
2.414400 0.000000
2.436800 0.002300
2.459300 0.010500
2.481800 0.024700
2.504300 0.044800
2.526800 0.070800
2.549300 0.090100
2.571800 0.099600
2.594300 0.105500
2.616700 0.107700
2.639200 0.114800
2.661700 0.125300
2.684200 0.136000
2.706700 0.147100
2.729200 0.158500
2.751700 0.170200
2.774200 0.181600
2.796700 0.191500
2.819100 0.199600
2.841600 0.206400
2.864100 0.213700
2.886600 0.222500
2.909100 0.231600
2.931600 0.241000
2.954100 0.250500
2.976600 0.260100
2.999000 0.269700
3.021500 0.279300
3.044000 0.289000
3.066500 0.299200
3.089000 0.310200
3.111500 0.322100
3.134000 0.334200
3.156500 0.346500
3.178900 0.358200
3.201400 0.369400
3.223900 0.380200
3.246400 0.391400
3.268900 0.402600
3.291400 0.413800
3.313900 0.425100
3.336400 0.436500
3.358900 0.449100
3.381300 0.464000
3.403800 0.478300
3.426300 0.492800
3.448800 0.507400
3.471300 0.522100
3.493800 0.537000
3.516300 0.552500
3.538800 0.568900
3.561200 0.585800
3.583700 0.602600
3.606200 0.619200
3.628700 0.636900
3.651200 0.657000
3.673700 0.678200
3.696200 0.700000
3.718700 0.721900
3.741200 0.744000
3.763600 0.766600
3.786100 0.789400
3.808600 0.812600
3.831100 0.836200
3.853600 0.860300
3.876100 0.885000
3.898600 0.912700
3.921100 0.949500
3.943500 0.988700
3.966000 1.029500
3.988500 1.072300
4.011000 1.118100
4.033500 1.166900
4.056000 1.266000
4.078500 1.410100
4.101000 1.422900
4.123400 1.481200
4.145900 1.559400
4.168400 1.649300
4.190900 1.751400
4.213400 1.851200
4.235900 1.954700
4.258400 2.075300
4.280900 2.252600
4.303400 2.942300
4.325800 2.913600
4.348300 3.100900
4.370800 3.346500
4.393300 3.534900
4.415800 3.941900
4.438300 4.581100
4.460800 5.657300
4.483300 5.241900
4.505700 1.166700
4.528200 0.819300
4.550700 0.704000
4.573200 0.593200
4.595700 0.490200
4.618200 0.398500
4.640700 0.357500
4.663200 0.340600
4.685700 0.335100
4.708100 0.339800
4.730600 0.335400
4.753100 0.331500
4.775600 0.340700
4.798100 0.354300
4.820600 0.371600
4.843100 0.392400
4.865600 0.416200
4.888000 0.442300
4.910500 0.470600
4.933000 0.493100
4.955500 0.528100
4.978000 0.570700
5.000500 0.622700
5.023000 0.674500
5.045500 0.722300
5.067900 0.768300
5.090400 0.815700
5.112900 0.882100
5.135400 0.966000
5.157900 1.074900
5.180400 1.200500
5.202900 1.331000
5.225400 1.465100
5.247900 1.635200
5.270300 1.838800
5.292800 2.060400
5.315300 2.363700
5.337800 2.815800
5.360300 3.397700
5.382800 5.210800
5.405300 5.882300
5.427800 5.134000
5.450200 4.977800
5.472700 3.948900
5.495200 3.240100
5.517700 2.693100
5.540200 2.293700
5.562700 2.074900
5.585200 1.897100
5.607700 1.723600
5.630200 1.539200
5.652600 1.400900
5.675100 1.297300
5.697600 1.190500
5.720100 1.061600
5.742600 0.967300
5.765100 0.882900
5.787600 0.810100
5.810100 0.747800
5.832500 0.695800
5.855000 0.648600
5.877500 0.603800
5.900000 0.561400
5.922500 0.520600
5.945000 0.469600
5.967500 0.430100
5.990000 0.405900
6.012400 0.382100
6.034900 0.358100
6.057400 0.338300
6.079900 0.327600
6.102400 4.535100
6.124900 4.554100
6.147400 3.503900
6.169900 3.116600
6.192400 2.862800
6.214800 2.599300
6.237300 2.427600
6.259800 2.344900
6.282300 2.249500
6.304800 2.180100
6.327300 2.127400
6.349800 2.063000
6.372300 1.999600
6.394700 1.938300
6.417200 1.892500
6.439700 1.862900
6.462200 1.839100
6.484700 1.820700
6.507200 1.803000
6.529700 1.779900
6.552200 1.749600
6.574700 1.716500
6.597100 1.699600
6.619600 1.682300
6.642100 1.655400
6.664600 1.625500
6.687100 1.717800
6.709600 1.576900
6.732100 1.477200
6.754600 1.396200
6.777000 1.321800
6.799500 1.254400
6.822000 1.195000
6.844500 1.146300
6.867000 1.103100
6.889500 1.069200
6.912000 1.034200
6.934500 1.000500
6.957000 0.968300
6.979400 0.938100
7.001900 0.909900
7.024400 0.883700
7.046900 0.860000
7.069400 0.838100
7.091900 0.817000
7.114400 0.799300
7.136900 0.787900
7.159300 0.766100
7.181800 0.742500
7.204300 0.722100
7.226800 0.710700
7.249300 0.694600
7.271800 0.678700
7.294300 0.664600
7.316800 0.679300
7.339200 0.693100
7.361700 0.654800
7.384200 0.728000
7.406700 1.002000
7.429200 1.154000
7.451700 1.314700
7.474200 1.581500
7.496700 2.300700
7.519200 2.642300
7.541600 3.263800
7.564100 4.102600
7.586600 6.910200
7.609100 12.249300
7.631600 12.112100
7.654100 11.284900
7.676600 7.464400
7.699100 6.740700
7.721500 5.706500
7.744000 4.437800
7.766500 2.489200
7.789000 1.555400
7.811500 0.984600
7.834000 0.422300
7.856500 0.296300
7.879000 0.210800
7.901500 0.275000
7.923900 1.465300
7.946400 3.011200
7.968900 5.389000
7.991400 6.440200
8.013900 7.191900
8.036400 6.808100
8.058900 7.134400
8.081400 5.843900
8.103800 5.154700
8.126300 5.027300
8.148800 5.014500
8.171300 4.916100
8.193800 4.783200
8.216300 5.410400
8.238800 5.817800
8.261300 6.082500
8.283700 6.026500
8.306200 5.940800
8.328700 5.705800
8.351200 5.504400
8.373700 5.533200
8.396200 4.072800
8.418700 3.754000
8.441200 3.496300
8.463700 3.202600
8.486100 2.888400
8.508600 2.781500
8.531100 2.875700
8.553600 2.551200
8.576100 2.420900
8.598600 2.487300
8.621100 2.432300
8.643600 2.110200
8.666000 2.061000
8.688500 1.972000
8.711000 1.894500
8.733500 1.827300
8.756000 1.790500
8.778500 1.845900
8.801000 2.596700
8.823500 3.777100
8.846000 4.836500
8.868400 5.904400
8.890900 8.001500
8.913400 7.771800
8.935900 6.831800
8.958400 6.253800
8.980900 6.339900
9.003400 8.783500
9.025900 9.478500
9.048300 10.718000
9.070800 10.062900
9.093300 10.631800
9.115800 10.106400
9.138300 9.380100
9.160800 9.078200
9.183300 6.959300
9.205800 5.543100
9.228200 5.119500
9.250700 4.541400
9.273200 4.241000
9.295700 4.029600
9.318200 3.729700
9.340700 3.440700
9.363200 3.405900
9.385700 3.826000
9.408200 4.075400
9.430600 3.203600
9.453100 2.584800
9.475600 2.180100
9.498100 1.971600
9.520600 1.277500
9.543100 1.028700
9.565600 1.053600
9.588100 1.367400
9.610500 1.909300
9.633000 2.561700
9.655500 2.768800
9.678000 3.013900
9.700500 4.160500
9.723000 4.187400
9.745500 4.490900
9.768000 6.599300
9.790500 6.727700
9.812900 5.756100
9.835400 5.842200
9.857900 9.466300
9.880400 10.300600
9.902900 9.000800
9.925400 7.321700
9.947900 4.908700
9.970400 3.179800
9.992800 3.178500
10.015300 6.352700
10.037800 8.186200
10.060300 12.385700
10.082800 10.352300
10.105300 10.722500
10.127800 9.751600
10.150300 7.689500
10.172800 6.299300
10.195200 5.465900
10.217700 5.756300
10.240200 6.089100
10.262700 7.374500
10.285200 10.666700
10.307700 9.228400
10.330200 10.207800
10.352700 12.481800
10.375100 11.869900
10.397600 14.062800
10.420100 13.233200
10.442600 10.587500
10.465100 7.483200
10.487600 8.999300
10.510100 16.015600
10.532600 8.234700
10.555000 7.213200
10.577500 6.357100
10.600000 6.386100
10.622500 7.302800
10.645000 5.955100
10.667500 1.244600
10.690000 0.506800
10.712500 0.564600
10.735000 0.538500
10.757400 0.534500
10.779900 0.566700
10.802400 0.603800
10.824900 0.641300
10.847400 0.678700
10.869900 0.713600
10.892400 0.749900
10.914900 0.794100
10.937300 0.843200
10.959800 0.897200
10.982300 0.936800
11.004800 0.981700
11.027300 1.027500
11.049800 1.084800
11.072300 1.159800
11.094800 1.255400
11.117300 1.368000
11.139700 1.485400
11.162200 1.612500
11.184700 1.790000
11.207200 2.088800
11.229700 2.374100
11.252200 2.854300
11.274700 3.715200
11.297200 4.311000
11.319600 5.047400
11.342100 5.620500
11.364600 5.174300
11.387100 4.443700
11.409600 4.123200
11.432100 3.990500
11.454600 3.488700
11.477100 3.154700
11.499500 2.527700
11.522000 2.002000
11.544500 1.707300
11.567000 1.435400
11.589500 1.236300
11.612000 0.997100
11.634500 0.798300
11.657000 0.688400
11.679500 0.591500
11.701900 0.503500
11.724400 0.437100
11.746900 0.376700
11.769400 0.322200
11.791900 0.276400
11.814400 0.243500
11.836900 0.208700
11.859400 0.171600
11.881800 0.142300
11.904300 0.162200
11.926800 0.085500
11.949300 0.008000
11.971800 0.018800
11.994300 0.033700
12.016800 0.052800
12.039300 0.076200
12.061800 0.103800
12.084200 0.136000
12.106700 0.172900
12.129200 0.214400
12.151700 0.260500
12.174200 0.311300
12.196700 0.760900
12.219200 1.534600
12.241700 1.556300
12.264100 1.555800
12.286600 1.741400
12.309100 1.994300
12.331600 2.687700
12.354100 3.203300
12.376600 3.017000
12.399100 3.144300
12.421600 3.279900
12.444000 3.364400
12.466500 3.605500
12.489000 3.750900
12.511500 3.902200
12.534000 4.082200
12.556500 5.637400
12.579000 5.146100
12.601500 4.424700
12.624000 3.560400
12.646400 2.870900
12.668900 2.458100
12.691400 2.200300
12.713900 2.021400
12.736400 1.861500
12.758900 1.714100
12.781400 1.597800
12.803900 1.511600
12.826300 1.911800
12.848800 2.618100
12.871300 3.543400
12.893800 4.338100
12.916300 3.845200
12.938800 3.923900
12.961300 3.880500
12.983800 3.720600
13.006300 3.450700
13.028700 3.292500
13.051200 3.233800
13.073700 3.230700
13.096200 3.309600
13.118700 3.349900
13.141200 3.264300
13.163700 3.298600
13.186200 3.551600
13.208600 3.835800
13.231100 4.037100
13.253600 4.300600
13.276100 4.125200
13.298600 3.811600
13.321100 3.554700
13.343600 3.537700
13.366100 3.385600
13.388500 3.312100
13.411000 3.261900
13.433500 2.719000
13.456000 2.560100
13.478500 2.549100
13.501000 2.631400
13.523500 2.761600
13.546000 3.047200
13.568500 3.315400
13.590900 2.787800
13.613400 2.310800
13.635900 2.418900
13.658400 3.162600
13.680900 5.112600
13.703400 6.367700
13.725900 7.100000
13.748400 7.155200
13.770800 7.524600
13.793300 7.239300
13.815800 6.281300
13.838300 6.706400
13.860800 7.970000
13.883300 9.224300
13.905800 8.573300
13.928300 7.709600
13.950800 6.783100
13.973200 6.152200
13.995700 5.708900
14.018200 4.878500
14.040700 4.380100
14.063200 4.018200
14.085700 3.703300
14.108200 3.602300
14.130700 3.611900
14.153100 3.631300
14.175600 3.789400
14.198100 4.192600
14.220600 4.434800
14.243100 4.637100
14.265600 4.788800
14.288100 5.010100
14.310600 4.944700
14.333100 4.583600
14.355500 4.244000
14.378000 4.013200
14.400500 3.680300
14.423000 3.408300
14.445500 3.166600
14.468000 3.124900
14.490500 2.814600
14.513000 2.612600
14.535400 2.533700
14.557900 2.487500
14.580400 2.487800
14.602900 2.490900
14.625400 2.510300
14.647900 2.788300
14.670400 2.480900
14.692900 2.336100
14.715300 2.384900
14.737800 2.457700
14.760300 2.508800
14.782800 2.558100
14.805300 2.547200
14.827800 2.586600
14.850300 2.552900
14.872800 2.559600
14.895300 2.233800
14.917700 1.684000
14.940200 1.579200
14.962700 1.571600
14.985200 1.588300
15.007700 1.644000
15.030200 1.659800
15.052700 1.614800
15.075200 1.578600
15.097600 1.606100
15.120100 1.644300
15.142600 1.701800
15.165100 1.926900
15.187600 2.583800
15.210100 2.812000
15.232600 3.033800
15.255100 3.547100
15.277600 3.844300
15.300000 4.065500
15.322500 4.408300
15.345000 5.026500
15.367500 6.007900
15.390000 5.370800
15.412500 5.193200
15.435000 4.731300
15.457500 4.224000
15.479900 3.820300
15.502400 3.568800
15.524900 3.314400
15.547400 3.000400
15.569900 2.781900
15.592400 2.566400
15.614900 2.433100
15.637400 2.392300
15.659800 2.399200
15.682300 2.784700
15.704800 3.393100
15.727300 3.424800
15.749800 3.460200
15.772300 3.546100
15.794800 4.281700
15.817300 5.924600
15.839800 7.419200
15.862200 7.553300
15.884700 7.954900
15.907200 7.912200
15.929700 8.254800
15.952200 6.772200
15.974700 5.088000
15.997200 4.802300
16.019700 4.355200
16.042100 3.769900
16.064600 3.325700
16.087100 3.000400
16.109600 2.427800
16.132100 2.388600
16.154600 2.485300
16.177100 2.847900
16.199600 3.183000
16.222100 3.234900
16.244500 3.461900
16.267000 4.148400
16.289500 5.412600
16.312000 6.070200
16.334500 6.125300
16.357000 5.691800
16.379500 4.546900
16.402000 3.656000
16.424400 2.943400
16.446900 2.376200
16.469400 2.032400
16.491900 1.249300
16.514400 0.804700
16.536900 0.672600
16.559400 0.566400
16.581900 0.472200
16.604300 0.384800
16.626800 0.298900
16.649300 0.241700
16.671800 0.224500
16.694300 0.207500
16.716800 0.190600
16.739300 0.174000
16.761800 0.199800
16.784300 0.200900
16.806700 0.146000
16.829200 0.094700
16.851700 0.011400
16.874200 0.000000
16.896700 0.000000
16.919200 0.000000
16.941700 0.000000
16.964200 0.000000
16.986600 0.000000
17.009100 0.000000
17.031600 0.000000
17.054100 0.000000
17.076600 0.000000
17.099100 0.000000
17.121600 0.000000
17.144100 0.000000
17.166600 0.000000
17.189000 0.000000
17.211500 0.000000
17.234000 0.000000
17.256500 0.000000
17.279000 0.000000
17.301500 0.000000
17.324000 0.000000
17.346500 0.000000
17.368900 0.000000
17.391400 0.000000
17.413900 0.000000
17.436400 0.000000
17.458900 0.000000
17.481400 0.000000
17.503900 0.000000
17.526400 0.000000
17.548800 0.000000
17.571300 0.000000
17.593800 0.000000
17.616300 0.000000
17.638800 0.000000
17.661300 0.000000
17.683800 0.000000
17.706300 0.000000
17.728800 0.000000
17.751200 0.000000
17.773700 0.000000
17.796200 0.000000
17.818700 0.000000
17.841200 0.000000
17.863700 0.000000
17.886200 0.000000
17.908700 0.000000
17.931100 0.000000
17.953600 0.000000
17.976100 0.000000
17.998600 0.000000
18.021100 0.000000
18.043600 0.000000
18.066100 0.000000
18.088600 0.000000
18.111100 0.000000
18.133500 0.000000
18.156000 0.000000
18.178500 0.000000
18.201000 0.000000
18.223500 0.000000
18.246000 0.000000
18.268500 0.000000
18.291000 0.000000
18.313400 0.000000
18.335900 0.000000
18.358400 0.000000
18.380900 0.000000
18.403400 0.000000
18.425900 0.000000
18.448400 0.000000
18.470900 0.000000
18.493400 0.000000
18.515800 0.000000
18.538300 0.000000
18.560800 0.000000
18.583300 0.000000
18.605800 0.000000
18.628300 0.000000
18.650800 0.000000
18.673300 0.000000
18.695700 0.000000
18.718200 0.000000
18.740700 0.000000
18.763200 0.000000
18.785700 0.000000
18.808200 0.000000
18.830700 0.000000
18.853200 0.000000
18.875600 0.000000
18.898100 0.000000
e
