set title 'mp-1225177 - Density of States'
set xlabel 'Energy (eV)'
set ylabel 'DOS (states/eV)'
set grid
set xrange [-10:10]
set yrange [0:6.897]
set xzeroaxis lt -1
set terminal png size 800,600
set output 'mp-1225177_dos_gnuplot.png'
plot '-' using 1:2 with lines title 'DOS'
-50.112500 0.000000
-50.057100 0.000000
-50.001700 0.000000
-49.946200 0.000000
-49.890800 0.000000
-49.835400 0.000000
-49.780000 0.000000
-49.724500 0.000000
-49.669100 0.000000
-49.613700 0.000000
-49.558300 0.000000
-49.502800 0.000000
-49.447400 0.000000
-49.392000 0.000000
-49.336600 0.000000
-49.281100 0.000000
-49.225700 0.000000
-49.170300 0.000000
-49.114900 0.000000
-49.059400 0.000000
-49.004000 0.000000
-48.948600 0.000000
-48.893200 0.000000
-48.837700 0.000000
-48.782300 0.000000
-48.726900 0.000000
-48.671500 0.000000
-48.616000 0.000000
-48.560600 0.000000
-48.505200 0.000000
-48.449800 0.000000
-48.394300 0.000000
-48.338900 0.000000
-48.283500 0.000000
-48.228100 0.000000
-48.172600 0.000000
-48.117200 0.000000
-48.061800 0.000000
-48.006400 0.000000
-47.950900 0.000000
-47.895500 0.000000
-47.840100 0.000000
-47.784700 0.000000
-47.729200 0.000000
-47.673800 0.000000
-47.618400 0.000000
-47.563000 0.000000
-47.507500 0.000000
-47.452100 0.000000
-47.396700 0.000000
-47.341300 0.000000
-47.285800 0.000000
-47.230400 0.000000
-47.175000 0.000000
-47.119600 0.000000
-47.064100 0.000000
-47.008700 0.000000
-46.953300 0.000000
-46.897900 0.000000
-46.842400 0.000000
-46.787000 0.000000
-46.731600 0.000000
-46.676100 0.000000
-46.620700 0.000000
-46.565300 0.000000
-46.509900 0.000000
-46.454400 0.000000
-46.399000 0.000000
-46.343600 0.000000
-46.288200 0.000000
-46.232700 0.000000
-46.177300 0.000000
-46.121900 0.000000
-46.066500 0.000000
-46.011000 0.000000
-45.955600 0.000000
-45.900200 0.000000
-45.844800 0.000000
-45.789300 0.000000
-45.733900 0.000000
-45.678500 0.000000
-45.623100 0.000000
-45.567600 0.000000
-45.512200 0.000000
-45.456800 0.000000
-45.401400 0.000000
-45.345900 0.000000
-45.290500 0.000000
-45.235100 0.000000
-45.179700 0.000000
-45.124200 0.000000
-45.068800 18.899500
-45.013400 12.798400
-44.958000 15.035000
-44.902500 20.895200
-44.847100 44.037200
-44.791700 0.000000
-44.736300 0.000000
-44.680800 0.000000
-44.625400 0.000000
-44.570000 0.000000
-44.514600 0.000000
-44.459100 0.000000
-44.403700 0.000000
-44.348300 0.000000
-44.292900 0.000000
-44.237400 0.000000
-44.182000 0.000000
-44.126600 0.000000
-44.071200 0.000000
-44.015700 0.000000
-43.960300 0.000000
-43.904900 0.000000
-43.849500 0.000000
-43.794000 0.000000
-43.738600 0.000000
-43.683200 0.000000
-43.627800 0.000000
-43.572300 0.000000
-43.516900 0.000000
-43.461500 0.000000
-43.406100 0.000000
-43.350600 0.000000
-43.295200 0.000000
-43.239800 0.000000
-43.184400 0.000000
-43.128900 0.000000
-43.073500 0.000000
-43.018100 0.000000
-42.962600 0.000000
-42.907200 0.000000
-42.851800 0.000000
-42.796400 0.000000
-42.740900 0.000000
-42.685500 0.000000
-42.630100 0.000000
-42.574700 0.000000
-42.519200 0.000000
-42.463800 0.000000
-42.408400 0.000000
-42.353000 0.000000
-42.297500 0.000000
-42.242100 0.000000
-42.186700 0.000000
-42.131300 0.000000
-42.075800 0.000000
-42.020400 0.000000
-41.965000 0.000000
-41.909600 0.000000
-41.854100 0.000000
-41.798700 0.000000
-41.743300 0.000000
-41.687900 0.000000
-41.632400 0.000000
-41.577000 0.000000
-41.521600 0.000000
-41.466200 0.000000
-41.410700 0.000000
-41.355300 0.000000
-41.299900 0.000000
-41.244500 0.000000
-41.189000 0.000000
-41.133600 0.000000
-41.078200 0.000000
-41.022800 0.000000
-40.967300 0.000000
-40.911900 0.000000
-40.856500 0.000000
-40.801100 0.000000
-40.745600 0.000000
-40.690200 0.000000
-40.634800 0.000000
-40.579400 0.000000
-40.523900 0.000000
-40.468500 0.000000
-40.413100 0.000000
-40.357700 0.000000
-40.302200 0.000000
-40.246800 0.000000
-40.191400 0.000000
-40.136000 0.000000
-40.080500 0.000000
-40.025100 0.000000
-39.969700 0.000000
-39.914300 0.000000
-39.858800 0.000000
-39.803400 0.000000
-39.748000 0.000000
-39.692600 0.000000
-39.637100 0.000000
-39.581700 0.000000
-39.526300 0.000000
-39.470900 0.000000
-39.415400 0.000000
-39.360000 0.000000
-39.304600 0.000000
-39.249200 0.000000
-39.193700 0.000000
-39.138300 0.000000
-39.082900 0.000000
-39.027400 0.000000
-38.972000 0.000000
-38.916600 0.000000
-38.861200 0.000000
-38.805700 0.000000
-38.750300 0.000000
-38.694900 0.000000
-38.639500 0.000000
-38.584000 0.000000
-38.528600 0.000000
-38.473200 0.000000
-38.417800 0.000000
-38.362300 0.000000
-38.306900 0.000000
-38.251500 0.000000
-38.196100 0.000000
-38.140600 0.000000
-38.085200 0.000000
-38.029800 0.000000
-37.974400 0.000000
-37.918900 0.000000
-37.863500 0.000000
-37.808100 0.000000
-37.752700 0.000000
-37.697200 0.000000
-37.641800 0.000000
-37.586400 0.000000
-37.531000 0.000000
-37.475500 0.000000
-37.420100 0.000000
-37.364700 0.000000
-37.309300 0.000000
-37.253800 0.000000
-37.198400 0.000000
-37.143000 0.000000
-37.087600 0.000000
-37.032100 0.000000
-36.976700 0.000000
-36.921300 0.000000
-36.865900 0.000000
-36.810400 0.000000
-36.755000 0.000000
-36.699600 0.000000
-36.644200 0.000000
-36.588700 0.000000
-36.533300 0.000000
-36.477900 0.000000
-36.422500 0.000000
-36.367000 0.000000
-36.311600 0.000000
-36.256200 0.000000
-36.200800 0.000000
-36.145300 0.000000
-36.089900 0.000000
-36.034500 0.000000
-35.979100 0.000000
-35.923600 0.000000
-35.868200 0.000000
-35.812800 0.000000
-35.757400 0.000000
-35.701900 0.000000
-35.646500 0.000000
-35.591100 0.000000
-35.535700 0.000000
-35.480200 0.000000
-35.424800 0.000000
-35.369400 0.000000
-35.314000 0.000000
-35.258500 0.000000
-35.203100 0.000000
-35.147700 0.000000
-35.092200 0.000000
-35.036800 0.000000
-34.981400 0.000000
-34.926000 0.000000
-34.870500 0.000000
-34.815100 0.000000
-34.759700 0.000000
-34.704300 0.000000
-34.648800 0.000000
-34.593400 0.000000
-34.538000 0.000000
-34.482600 0.000000
-34.427100 0.000000
-34.371700 0.000000
-34.316300 0.000000
-34.260900 0.000000
-34.205400 0.000000
-34.150000 0.000000
-34.094600 0.000000
-34.039200 0.000000
-33.983700 0.000000
-33.928300 0.000000
-33.872900 0.000000
-33.817500 0.000000
-33.762000 0.000000
-33.706600 0.000000
-33.651200 0.000000
-33.595800 0.000000
-33.540300 0.000000
-33.484900 0.000000
-33.429500 0.000000
-33.374100 0.000000
-33.318600 0.000000
-33.263200 0.000000
-33.207800 0.000000
-33.152400 0.000000
-33.096900 0.000000
-33.041500 0.000000
-32.986100 0.000000
-32.930700 0.000000
-32.875200 0.000000
-32.819800 0.000000
-32.764400 0.000000
-32.709000 0.000000
-32.653500 0.000000
-32.598100 0.000000
-32.542700 0.000000
-32.487300 0.000000
-32.431800 0.000000
-32.376400 0.000000
-32.321000 0.000000
-32.265600 0.000000
-32.210100 0.000000
-32.154700 0.000000
-32.099300 0.000000
-32.043900 0.000000
-31.988400 0.000000
-31.933000 0.000000
-31.877600 0.000000
-31.822200 0.000000
-31.766700 0.000000
-31.711300 0.000000
-31.655900 0.000000
-31.600500 0.000000
-31.545000 0.000000
-31.489600 0.000000
-31.434200 0.000000
-31.378800 0.000000
-31.323300 0.000000
-31.267900 0.000000
-31.212500 0.000000
-31.157000 0.000000
-31.101600 0.000000
-31.046200 0.000000
-30.990800 0.000000
-30.935300 0.000000
-30.879900 0.000000
-30.824500 0.000000
-30.769100 0.000000
-30.713600 0.000000
-30.658200 0.000000
-30.602800 0.000000
-30.547400 0.000000
-30.491900 0.000000
-30.436500 0.000000
-30.381100 0.000000
-30.325700 0.000000
-30.270200 0.000000
-30.214800 0.000000
-30.159400 0.000000
-30.104000 0.000000
-30.048500 0.000000
-29.993100 0.000000
-29.937700 0.000000
-29.882300 0.000000
-29.826800 0.000000
-29.771400 0.000000
-29.716000 0.000000
-29.660600 0.000000
-29.605100 0.000000
-29.549700 0.000000
-29.494300 0.000000
-29.438900 0.000000
-29.383400 0.000000
-29.328000 0.000000
-29.272600 0.000000
-29.217200 0.000000
-29.161700 0.000000
-29.106300 0.000000
-29.050900 0.000000
-28.995500 0.000000
-28.940000 0.000000
-28.884600 0.000000
-28.829200 0.000000
-28.773800 0.000000
-28.718300 0.000000
-28.662900 0.000000
-28.607500 0.000000
-28.552100 0.000000
-28.496600 0.000000
-28.441200 0.000000
-28.385800 0.000000
-28.330400 0.000000
-28.274900 0.000000
-28.219500 0.000000
-28.164100 0.000000
-28.108700 0.000000
-28.053200 0.000000
-27.997800 0.000000
-27.942400 0.000000
-27.887000 0.000000
-27.831500 0.000000
-27.776100 0.000000
-27.720700 0.000000
-27.665300 0.000000
-27.609800 0.000000
-27.554400 0.000000
-27.499000 0.000000
-27.443600 0.000000
-27.388100 0.000000
-27.332700 0.000000
-27.277300 0.000000
-27.221800 0.000000
-27.166400 0.000000
-27.111000 0.000000
-27.055600 0.000000
-27.000100 0.000000
-26.944700 0.000000
-26.889300 0.000000
-26.833900 0.000000
-26.778400 0.000000
-26.723000 0.000000
-26.667600 0.000000
-26.612200 0.000000
-26.556700 0.000000
-26.501300 0.000000
-26.445900 0.000000
-26.390500 0.000000
-26.335000 0.000000
-26.279600 0.000000
-26.224200 0.000000
-26.168800 0.000000
-26.113300 0.000000
-26.057900 0.000000
-26.002500 0.000000
-25.947100 0.000000
-25.891600 0.000000
-25.836200 0.000000
-25.780800 0.000000
-25.725400 0.000000
-25.669900 0.000000
-25.614500 0.000000
-25.559100 0.000000
-25.503700 0.000000
-25.448200 0.000000
-25.392800 0.000000
-25.337400 0.000000
-25.282000 0.000000
-25.226500 0.000000
-25.171100 0.000000
-25.115700 0.000000
-25.060300 0.000000
-25.004800 0.000000
-24.949400 0.000000
-24.894000 0.000000
-24.838600 0.000000
-24.783100 0.000000
-24.727700 0.000000
-24.672300 0.000000
-24.616900 0.000000
-24.561400 0.000000
-24.506000 0.000000
-24.450600 0.000000
-24.395200 0.000000
-24.339700 0.000000
-24.284300 0.000000
-24.228900 0.000000
-24.173500 0.000000
-24.118000 0.000000
-24.062600 0.000000
-24.007200 0.000000
-23.951800 0.000000
-23.896300 0.000000
-23.840900 0.000000
-23.785500 0.000000
-23.730100 0.000000
-23.674600 0.000000
-23.619200 0.000000
-23.563800 0.000000
-23.508400 0.000000
-23.452900 0.000000
-23.397500 0.000000
-23.342100 0.000000
-23.286600 0.000000
-23.231200 0.000000
-23.175800 0.000000
-23.120400 0.000000
-23.064900 0.000000
-23.009500 0.000000
-22.954100 0.000000
-22.898700 0.000000
-22.843200 0.000000
-22.787800 0.000000
-22.732400 0.000000
-22.677000 0.000000
-22.621500 0.000000
-22.566100 0.000000
-22.510700 0.000000
-22.455300 0.000000
-22.399800 0.000000
-22.344400 0.000000
-22.289000 0.000000
-22.233600 0.000000
-22.178100 0.000000
-22.122700 0.000000
-22.067300 0.000000
-22.011900 0.000000
-21.956400 0.000000
-21.901000 0.000000
-21.845600 0.000000
-21.790200 0.000000
-21.734700 0.000000
-21.679300 0.000000
-21.623900 0.000000
-21.568500 0.000000
-21.513000 0.000000
-21.457600 0.000000
-21.402200 0.000000
-21.346800 0.000000
-21.291300 0.000000
-21.235900 0.000000
-21.180500 0.000000
-21.125100 0.000000
-21.069600 0.000000
-21.014200 0.000000
-20.958800 0.000000
-20.903400 0.000000
-20.847900 0.000000
-20.792500 0.000000
-20.737100 0.000000
-20.681700 0.000000
-20.626200 0.000000
-20.570800 0.000000
-20.515400 0.000000
-20.460000 0.000000
-20.404500 0.000000
-20.349100 0.000000
-20.293700 0.000000
-20.238300 0.000000
-20.182800 0.000000
-20.127400 0.000000
-20.072000 0.000000
-20.016600 0.000000
-19.961100 0.000000
-19.905700 0.000000
-19.850300 0.000000
-19.794900 0.000000
-19.739400 0.000000
-19.684000 0.000000
-19.628600 0.000000
-19.573200 0.000000
-19.517700 0.000000
-19.462300 0.000000
-19.406900 0.000000
-19.351400 0.000000
-19.296000 0.000000
-19.240600 0.000000
-19.185200 0.000000
-19.129700 0.000000
-19.074300 0.000000
-19.018900 0.000000
-18.963500 0.000000
-18.908000 0.000000
-18.852600 0.000000
-18.797200 0.000000
-18.741800 0.000000
-18.686300 0.000000
-18.630900 0.000000
-18.575500 0.000000
-18.520100 0.000000
-18.464600 0.000000
-18.409200 0.000000
-18.353800 0.000000
-18.298400 0.000000
-18.242900 0.000000
-18.187500 0.000000
-18.132100 0.000000
-18.076700 0.000000
-18.021200 0.000000
-17.965800 0.000000
-17.910400 0.000000
-17.855000 0.000000
-17.799500 0.000000
-17.744100 0.000000
-17.688700 0.000000
-17.633300 0.000000
-17.577800 0.000000
-17.522400 0.000000
-17.467000 0.000000
-17.411600 0.000000
-17.356100 0.000000
-17.300700 0.000000
-17.245300 0.000000
-17.189900 0.000000
-17.134400 0.000000
-17.079000 0.000000
-17.023600 0.000000
-16.968200 0.000000
-16.912700 0.000000
-16.857300 0.000000
-16.801900 0.000000
-16.746500 0.000000
-16.691000 0.000000
-16.635600 0.000000
-16.580200 0.000000
-16.524800 0.000000
-16.469300 0.000000
-16.413900 0.000000
-16.358500 0.000000
-16.303100 0.000000
-16.247600 0.000000
-16.192200 0.000000
-16.136800 0.000000
-16.081400 0.000000
-16.025900 0.000000
-15.970500 0.000000
-15.915100 0.000000
-15.859700 0.000000
-15.804200 0.000000
-15.748800 0.000000
-15.693400 0.000000
-15.638000 0.000000
-15.582500 0.000000
-15.527100 0.000000
-15.471700 0.000000
-15.416200 0.000000
-15.360800 0.000000
-15.305400 0.000000
-15.250000 0.000000
-15.194500 0.000000
-15.139100 0.000000
-15.083700 0.000000
-15.028300 0.000000
-14.972800 0.000000
-14.917400 0.000000
-14.862000 0.000000
-14.806600 0.000000
-14.751100 0.000000
-14.695700 0.000000
-14.640300 0.000000
-14.584900 0.000000
-14.529400 0.000000
-14.474000 0.000000
-14.418600 0.000000
-14.363200 0.000000
-14.307700 0.000000
-14.252300 0.000000
-14.196900 0.000000
-14.141500 0.000000
-14.086000 0.000000
-14.030600 0.000000
-13.975200 0.000000
-13.919800 0.000000
-13.864300 0.000000
-13.808900 0.000000
-13.753500 0.000000
-13.698100 0.000000
-13.642600 0.000000
-13.587200 0.000000
-13.531800 0.000000
-13.476400 0.000000
-13.420900 0.000000
-13.365500 0.000000
-13.310100 0.000000
-13.254700 0.000000
-13.199200 0.000000
-13.143800 0.000000
-13.088400 0.000000
-13.033000 0.000000
-12.977500 0.000000
-12.922100 0.000000
-12.866700 0.000000
-12.811300 0.000000
-12.755800 0.000000
-12.700400 0.000000
-12.645000 0.000000
-12.589600 0.000000
-12.534100 0.000000
-12.478700 0.000000
-12.423300 0.000000
-12.367900 0.000000
-12.312400 0.000000
-12.257000 0.000000
-12.201600 0.000000
-12.146200 0.000000
-12.090700 0.000000
-12.035300 0.000000
-11.979900 0.000000
-11.924500 0.000000
-11.869000 0.000000
-11.813600 0.000000
-11.758200 0.000000
-11.702800 0.000000
-11.647300 0.000000
-11.591900 0.000000
-11.536500 0.000000
-11.481000 0.000000
-11.425600 0.000000
-11.370200 0.000000
-11.314800 0.000000
-11.259300 0.000000
-11.203900 0.000000
-11.148500 0.000000
-11.093100 0.000000
-11.037600 0.000000
-10.982200 0.000000
-10.926800 0.000000
-10.871400 0.000000
-10.815900 0.000000
-10.760500 0.000000
-10.705100 0.000000
-10.649700 0.000000
-10.594200 0.000000
-10.538800 0.000000
-10.483400 0.000000
-10.428000 0.000000
-10.372500 0.000000
-10.317100 0.000000
-10.261700 0.000000
-10.206300 0.000000
-10.150800 0.000000
-10.095400 0.000000
-10.040000 0.000000
-9.984600 0.000000
-9.929100 0.000000
-9.873700 0.000000
-9.818300 0.000000
-9.762900 0.000000
-9.707400 0.000000
-9.652000 0.000000
-9.596600 0.000000
-9.541200 0.000000
-9.485700 0.000000
-9.430300 0.000000
-9.374900 0.000000
-9.319500 0.000000
-9.264000 0.000000
-9.208600 0.000000
-9.153200 0.000000
-9.097800 0.000000
-9.042300 0.000000
-8.986900 0.000000
-8.931500 0.000000
-8.876100 0.000000
-8.820600 0.000000
-8.765200 0.000000
-8.709800 0.000000
-8.654400 0.000000
-8.598900 0.000000
-8.543500 0.000000
-8.488100 0.000000
-8.432700 0.000000
-8.377200 0.000000
-8.321800 0.000000
-8.266400 0.000000
-8.211000 0.000000
-8.155500 0.000000
-8.100100 0.000000
-8.044700 0.000000
-7.989300 0.000000
-7.933800 0.000000
-7.878400 0.000000
-7.823000 0.000000
-7.767600 0.000000
-7.712100 0.000000
-7.656700 0.000000
-7.601300 0.000000
-7.545800 0.000000
-7.490400 0.000000
-7.435000 0.000000
-7.379600 0.000000
-7.324100 0.000000
-7.268700 0.000000
-7.213300 0.000000
-7.157900 0.000000
-7.102400 0.000000
-7.047000 0.000000
-6.991600 0.000000
-6.936200 0.000000
-6.880700 0.000000
-6.825300 0.000000
-6.769900 0.000000
-6.714500 0.000000
-6.659000 0.000000
-6.603600 0.000000
-6.548200 0.000000
-6.492800 0.000000
-6.437300 0.000000
-6.381900 0.000000
-6.326500 0.000000
-6.271100 0.000000
-6.215600 0.000000
-6.160200 0.000000
-6.104800 0.000000
-6.049400 0.000000
-5.993900 0.000000
-5.938500 0.000000
-5.883100 0.000000
-5.827700 0.000000
-5.772200 0.000000
-5.716800 0.000000
-5.661400 0.000000
-5.606000 0.000000
-5.550500 0.000000
-5.495100 0.000000
-5.439700 0.000000
-5.384300 0.000000
-5.328800 0.000000
-5.273400 0.000000
-5.218000 0.000000
-5.162600 0.000000
-5.107100 0.000000
-5.051700 0.000000
-4.996300 0.000000
-4.940900 0.000000
-4.885400 0.000000
-4.830000 0.000000
-4.774600 0.000000
-4.719200 0.000000
-4.663700 0.000000
-4.608300 0.000000
-4.552900 0.000000
-4.497500 0.000000
-4.442000 0.000000
-4.386600 0.000000
-4.331200 0.000000
-4.275800 0.000100
-4.220300 0.017200
-4.164900 0.043700
-4.109500 0.052700
-4.054100 0.061000
-3.998600 0.071300
-3.943200 0.083700
-3.887800 0.094200
-3.832400 0.100700
-3.776900 0.109500
-3.721500 0.119200
-3.666100 0.131600
-3.610600 0.149300
-3.555200 0.171600
-3.499800 0.169500
-3.444400 0.169200
-3.388900 0.171300
-3.333500 0.172400
-3.278100 0.170400
-3.222700 0.168400
-3.167200 0.169700
-3.111800 0.171300
-3.056400 0.172900
-3.001000 0.174500
-2.945500 0.175800
-2.890100 0.175700
-2.834700 0.175100
-2.779300 0.175200
-2.723800 0.175600
-2.668400 0.176200
-2.613000 0.177000
-2.557600 0.177900
-2.502100 0.178900
-2.446700 0.179600
-2.391300 0.179900
-2.335900 0.179700
-2.280400 0.180600
-2.225000 0.181700
-2.169600 0.183000
-2.114200 0.184200
-2.058700 0.184900
-2.003300 0.185900
-1.947900 0.186800
-1.892500 0.187700
-1.837000 0.188500
-1.781600 0.189200
-1.726200 0.189500
-1.670800 0.190100
-1.615300 0.191100
-1.559900 0.192400
-1.504500 0.193800
-1.449100 0.195300
-1.393600 0.196900
-1.338200 0.198600
-1.282800 0.200400
-1.227400 0.202600
-1.171900 0.204900
-1.116500 0.207400
-1.061100 0.210200
-1.005700 0.213600
-0.950200 0.217100
-0.894800 0.220100
-0.839400 0.223100
-0.784000 0.226100
-0.728500 0.229100
-0.673100 0.232000
-0.617700 0.234800
-0.562300 0.237800
-0.506800 0.251400
-0.451400 0.388600
-0.396000 0.406500
-0.340600 0.284700
-0.285100 0.265800
-0.229700 0.251000
-0.174300 0.220100
-0.118900 0.204900
-0.063400 0.198600
-0.008000 0.192500
0.047400 0.186500
0.102800 0.177800
0.158300 0.164100
0.213700 0.157500
0.269100 0.153000
0.324600 0.148700
0.380000 0.146200
0.435400 0.152000
0.490800 0.159400
0.546300 0.157400
0.601700 0.153600
0.657100 0.155600
0.712500 0.157600
0.768000 0.159200
0.823400 0.158400
0.878800 0.157600
0.934200 0.157300
0.989700 0.158300
1.045100 0.158500
1.100500 0.157900
1.155900 0.158500
1.211400 0.160000
1.266800 0.161000
1.322200 0.161000
1.377600 0.161200
1.433100 0.436700
1.488500 0.298800
1.543900 0.312900
1.599300 0.327700
1.654800 0.343400
1.710200 0.323800
1.765600 0.332000
1.821000 0.340500
1.876500 0.349600
1.931900 0.358300
1.987300 0.360800
2.042700 0.389500
2.098200 0.385300
2.153600 0.351100
2.209000 0.367100
2.264400 0.391600
2.319900 0.419900
2.375300 0.445000
2.430700 0.474000
2.486100 0.496100
2.541600 0.511300
2.597000 0.530700
2.652400 0.541800
2.707800 0.533000
2.763300 0.535200
2.818700 0.538300
2.874100 0.534000
2.929500 0.530900
2.985000 0.543300
3.040400 0.576600
3.095800 0.600200
3.151200 0.616400
3.206700 0.659800
3.262100 0.632200
3.317500 0.567700
3.372900 0.537900
3.428400 0.535300
3.483800 0.505000
3.539200 0.514200
3.594600 0.520700
3.650100 0.612900
3.705500 0.757200
3.760900 0.892800
3.816300 0.908400
3.871800 0.909700
3.927200 1.061200
3.982600 1.080900
4.038000 1.098400
4.093500 1.136700
4.148900 1.191400
4.204300 1.317100
4.259800 1.169600
4.315200 1.131500
4.370600 1.107500
4.426000 1.195400
4.481500 1.317000
4.536900 1.305500
4.592300 1.217700
4.647700 1.207400
4.703200 1.121100
4.758600 1.080100
4.814000 1.242600
4.869400 1.164300
4.924900 1.281600
4.980300 1.572300
5.035700 1.819800
5.091100 1.657900
5.146600 1.542000
5.202000 0.987600
5.257400 0.786100
5.312800 0.645300
5.368300 0.827400
5.423700 2.170800
5.479100 3.693700
5.534500 2.948000
5.590000 2.267100
5.645400 2.289100
5.700800 2.217600
5.756200 2.072200
5.811700 1.739500
5.867100 1.923100
5.922500 2.108600
5.977900 1.742900
6.033400 1.303000
6.088800 1.199600
6.144200 1.154000
6.199600 1.245400
6.255100 0.931100
6.310500 0.856200
6.365900 2.730600
6.421300 2.996300
6.476800 5.005700
6.532200 6.269700
6.587600 4.860300
6.643000 3.844300
6.698500 4.403100
6.753900 3.764300
6.809300 2.904100
6.864700 2.318500
6.920200 1.938400
6.975600 1.916000
7.031000 1.781100
7.086400 1.606300
7.141900 1.487200
7.197300 1.308800
7.252700 1.143200
7.308100 0.950800
7.363600 0.806300
7.419000 0.671900
7.474400 0.550400
7.529800 0.598400
7.585300 1.084900
7.640700 1.304100
7.696100 2.337600
7.751500 2.104700
7.807000 2.196100
7.862400 2.272100
7.917800 2.182400
7.973200 2.182800
8.028700 2.442300
8.084100 3.022700
8.139500 4.633500
8.195000 3.405500
8.250400 3.067600
8.305800 2.578600
8.361200 2.341700
8.416700 1.794700
8.472100 1.572400
8.527500 1.380700
8.582900 1.390600
8.638400 1.334800
8.693800 1.283900
8.749200 1.256500
8.804600 1.249800
8.860100 1.058100
8.915500 0.776600
8.970900 0.544600
9.026300 0.661800
9.081800 0.978300
9.137200 0.876800
9.192600 0.874500
9.248000 0.889400
9.303500 0.875500
9.358900 0.849500
9.414300 0.805300
9.469700 0.780300
9.525200 0.759600
9.580600 0.743800
9.636000 0.719100
9.691400 0.682600
9.746900 0.656600
9.802300 0.637500
9.857700 0.621500
9.913100 0.602700
9.968600 0.584400
10.024000 0.566700
10.079400 0.554300
10.134800 0.540800
10.190300 0.542300
10.245700 0.564800
10.301100 0.576100
10.356500 0.558300
10.412000 0.537900
10.467400 0.533900
10.522800 0.532900
10.578200 0.534400
10.633700 0.449800
10.689100 0.410500
10.744500 0.433700
10.799900 0.393100
10.855400 0.368400
10.910800 0.350500
10.966200 0.327100
11.021600 0.330500
11.077100 0.334500
11.132500 0.334500
11.187900 0.399600
11.243300 0.404400
11.298800 0.385300
11.354200 0.361000
11.409600 0.354400
11.465000 0.362800
11.520500 0.365900
11.575900 0.298400
11.631300 0.254700
11.686700 0.241000
11.742200 0.238800
11.797600 0.251600
11.853000 0.259100
11.908400 0.278900
11.963900 0.407300
12.019300 0.438600
12.074700 0.428500
12.130200 0.438200
12.185600 0.464400
12.241000 0.527700
12.296400 0.542500
12.351900 0.565800
12.407300 0.660100
12.462700 0.773600
12.518100 0.787200
12.573600 0.734600
12.629000 0.664500
12.684400 0.592200
12.739800 0.582900
12.795300 0.560500
12.850700 0.589700
12.906100 0.538300
12.961500 0.538800
13.017000 0.539300
13.072400 0.548200
13.127800 0.574900
13.183200 0.585200
13.238700 0.622400
13.294100 0.609700
13.349500 0.620400
13.404900 0.608300
13.460400 0.592200
13.515800 0.603900
13.571200 0.627400
13.626600 0.630900
13.682100 0.635600
13.737500 0.649200
13.792900 0.639900
13.848300 0.624000
13.903800 0.622100
13.959200 0.622800
14.014600 0.624400
14.070000 0.637700
14.125500 0.624500
14.180900 0.622200
14.236300 0.615500
14.291700 0.603700
14.347200 0.595900
14.402600 0.589000
14.458000 0.585400
14.513400 0.587600
14.568900 0.578200
14.624300 0.578100
14.679700 0.575900
14.735100 0.567100
14.790600 0.564600
14.846000 0.571900
14.901400 0.571600
14.956800 0.573000
15.012300 0.578600
15.067700 0.584600
15.123100 0.593100
15.178500 0.598600
15.234000 0.593200
15.289400 0.591000
15.344800 0.578800
15.400200 0.612900
15.455700 0.589200
15.511100 0.595500
15.566500 0.606600
15.621900 0.628100
15.677400 0.615400
15.732800 0.587700
15.788200 0.577000
15.843700 0.564100
15.899100 0.546700
15.954500 0.526500
16.009900 0.504100
16.065400 0.481500
16.120800 0.464700
16.176200 0.450700
16.231600 0.438200
16.287100 0.431900
16.342500 0.428400
16.397900 0.417100
16.453300 0.416200
16.508800 0.422700
16.564200 0.421100
16.619600 0.413000
16.675000 0.404100
16.730500 0.401000
16.785900 0.405500
16.841300 0.406200
16.896700 0.406400
16.952200 0.409600
17.007600 0.451300
17.063000 0.435400
17.118400 0.448600
17.173900 0.450700
17.229300 0.465000
17.284700 0.477400
17.340100 0.499400
17.395600 0.530700
17.451000 0.570900
17.506400 0.605000
17.561800 0.632700
17.617300 0.660200
17.672700 0.650100
17.728100 0.668000
17.783500 0.659200
17.839000 0.664200
17.894400 0.656000
17.949800 0.658700
18.005200 0.650700
18.060700 0.644000
18.116100 0.668700
18.171500 0.587000
18.226900 0.502900
18.282400 0.475200
18.337800 0.457500
18.393200 0.447300
18.448600 0.441500
18.504100 0.444700
18.559500 0.448800
18.614900 0.451400
18.670300 0.458100
18.725800 0.472400
18.781200 0.476200
18.836600 0.473600
18.892000 0.479600
18.947500 0.493000
19.002900 0.515400
19.058300 0.511200
19.113700 0.509700
19.169200 0.508000
19.224600 0.513600
19.280000 0.521600
19.335400 0.569900
19.390900 0.626200
19.446300 0.696900
19.501700 0.698000
19.557100 0.655900
19.612600 0.621700
19.668000 0.622000
19.723400 0.590000
19.778900 0.565300
19.834300 0.541200
19.889700 0.526300
19.945100 0.507500
20.000600 0.504200
20.056000 0.517100
20.111400 0.531000
20.166800 0.552900
20.222300 0.566900
20.277700 0.588900
20.333100 0.612600
20.388500 0.606500
20.444000 0.614200
20.499400 0.605700
20.554800 0.584000
20.610200 0.586900
20.665700 0.579400
20.721100 0.579900
20.776500 0.582800
20.831900 0.585600
20.887400 0.585400
20.942800 0.590300
20.998200 0.598000
21.053600 0.599600
21.109100 0.624200
21.164500 0.641300
21.219900 0.671200
21.275300 0.709100
21.330800 0.735000
21.386200 0.761500
21.441600 0.783300
21.497000 0.783300
21.552500 0.796900
21.607900 0.769200
21.663300 0.726700
21.718700 0.713400
21.774200 0.686800
21.829600 0.652300
21.885000 0.617200
21.940400 0.593700
21.995900 0.577000
22.051300 0.551000
22.106700 0.536600
22.162100 0.509800
22.217600 0.495400
22.273000 0.489100
22.328400 0.490500
22.383800 0.492300
22.439300 0.496300
22.494700 0.513400
22.550100 0.519200
22.605500 0.513700
22.661000 0.523300
22.716400 0.540200
22.771800 0.555400
22.827200 0.568100
22.882700 0.591200
22.938100 0.600100
22.993500 0.601900
23.048900 0.604900
23.104400 0.607200
23.159800 0.609300
23.215200 0.612700
23.270600 0.627800
23.326100 0.609300
23.381500 0.614700
23.436900 0.629400
23.492300 0.636400
23.547800 0.629700
23.603200 0.615000
23.658600 0.604500
23.714100 0.568800
23.769500 0.554700
23.824900 0.550100
23.880300 0.548500
23.935800 0.545000
23.991200 0.531700
24.046600 0.526600
24.102000 0.518400
24.157500 0.513700
24.212900 0.508700
24.268300 0.504500
24.323700 0.502600
24.379200 0.504900
24.434600 0.514400
24.490000 0.527200
24.545400 0.555700
24.600900 0.560500
24.656300 0.580700
24.711700 0.617500
24.767100 0.611700
24.822600 0.608400
24.878000 0.615900
24.933400 0.614200
24.988800 0.610000
25.044300 0.604900
25.099700 0.608800
25.155100 0.606900
25.210500 0.605300
25.266000 0.612300
25.321400 0.618200
25.376800 0.591000
25.432200 0.589000
25.487700 0.589000
25.543100 0.589500
25.598500 0.581700
25.653900 0.568800
25.709400 0.554400
25.764800 0.547800
25.820200 0.547500
25.875600 0.562100
25.931100 0.580000
25.986500 0.587600
26.041900 0.577000
26.097300 0.564700
26.152800 0.550100
26.208200 0.531500
26.263600 0.548100
26.319000 0.552800
26.374500 0.561900
26.429900 0.576400
26.485300 0.603500
26.540700 0.614300
26.596200 0.602500
26.651600 0.605900
26.707000 0.606300
26.762400 0.582900
26.817900 0.572000
26.873300 0.579200
26.928700 0.590100
26.984100 0.608400
27.039600 0.625100
27.095000 0.641700
27.150400 0.663000
27.205800 0.640400
27.261300 0.628000
27.316700 0.619000
27.372100 0.631700
27.427500 0.663900
27.483000 0.705200
27.538400 0.742400
27.593800 0.778200
27.649300 0.811500
27.704700 0.845500
27.760100 0.890600
27.815500 0.938600
27.871000 0.946200
27.926400 0.846100
27.981800 0.834700
28.037200 0.835200
28.092700 0.848100
28.148100 0.783300
28.203500 0.704000
28.258900 0.643900
28.314400 0.626600
28.369800 0.624900
28.425200 0.638700
28.480600 0.646700
28.536100 0.606500
28.591500 0.602200
28.646900 0.619500
28.702300 0.632500
28.757800 0.648900
28.813200 0.659200
28.868600 0.651200
28.924000 0.635600
28.979500 0.609200
29.034900 0.584200
29.090300 0.572600
29.145700 0.581800
29.201200 0.595000
29.256600 0.620200
29.312000 0.655900
29.367400 0.686000
29.422900 0.734100
29.478300 0.790300
29.533700 0.856600
29.589100 0.911800
29.644600 0.917500
29.700000 0.866400
29.755400 0.842500
29.810800 0.831900
29.866300 0.805200
29.921700 0.784800
29.977100 0.758500
30.032500 0.733000
30.088000 0.732700
30.143400 0.753000
30.198800 0.802800
30.254200 0.821800
30.309700 0.835600
30.365100 0.833500
30.420500 0.801700
30.475900 0.765000
30.531400 0.730300
30.586800 0.691000
30.642200 0.660800
30.697600 0.627300
30.753100 0.591000
30.808500 0.565200
30.863900 0.553300
30.919300 0.545400
30.974800 0.538500
31.030200 0.524200
31.085600 0.515800
31.141000 0.507400
31.196500 0.508800
31.251900 0.508200
31.307300 0.508100
31.362700 0.516100
31.418200 0.539900
31.473600 0.578000
31.529000 0.605700
31.584500 0.621400
31.639900 0.652000
31.695300 0.686200
31.750700 0.722600
31.806200 0.808200
31.861600 0.812200
31.917000 0.788600
31.972400 0.786600
32.027900 0.778800
32.083300 0.785200
32.138700 0.783500
32.194100 0.785700
32.249600 0.778000
32.305000 0.768700
32.360400 0.763100
32.415800 0.759600
32.471300 0.712800
32.526700 0.673100
32.582100 0.650500
32.637500 0.641500
32.693000 0.640000
32.748400 0.637700
32.803800 0.629200
32.859200 0.626000
32.914700 0.634000
32.970100 0.648000
33.025500 0.679700
33.080900 0.708700
33.136400 0.736300
33.191800 0.780400
33.247200 0.838300
33.302600 0.852400
33.358100 0.844100
33.413500 0.792900
33.468900 0.767300
33.524300 0.746400
33.579800 0.713500
33.635200 0.645400
33.690600 0.596300
33.746000 0.556900
33.801500 0.534100
33.856900 0.535900
33.912300 0.566800
33.967700 0.556600
34.023200 0.567300
34.078600 0.557000
34.134000 0.570900
34.189400 0.577100
34.244900 0.592600
34.300300 0.600400
34.355700 0.598400
34.411100 0.593300
34.466600 0.588800
34.522000 0.588000
34.577400 0.595900
34.632800 0.615300
34.688300 0.672500
34.743700 0.710100
34.799100 0.688000
34.854500 0.681300
34.910000 0.683500
34.965400 0.681000
35.020800 0.685300
35.076200 2.610500
35.131700 0.642900
35.187100 0.638500
35.242500 0.622900
35.297900 0.601700
35.353400 0.595100
35.408800 0.564200
35.464200 0.503600
35.519700 0.465500
35.575100 0.438100
35.630500 0.425200
35.685900 0.409400
35.741400 0.394700
35.796800 0.389000
35.852200 0.387600
35.907600 0.386600
35.963100 0.418000
36.018500 0.430100
36.073900 0.440300
36.129300 0.450700
36.184800 0.456800
36.240200 0.468700
36.295600 0.492500
36.351000 0.522000
36.406500 0.536900
36.461900 0.557700
36.517300 0.566800
36.572700 0.576200
36.628200 0.590100
36.683600 0.607600
36.739000 0.626100
36.794400 0.654600
36.849900 0.697700
36.905300 0.730400
36.960700 0.753800
37.016100 0.770100
37.071600 0.773200
37.127000 0.777500
37.182400 0.786100
37.237800 0.808200
37.293300 0.846400
37.348700 0.816400
37.404100 0.804300
37.459500 0.818000
37.515000 0.803400
37.570400 0.803800
37.625800 0.806700
37.681200 0.803400
37.736700 0.790100
37.792100 0.801100
37.847500 0.763200
37.902900 0.749700
37.958400 0.722400
38.013800 0.752100
38.069200 0.781900
38.124600 0.768300
38.180100 0.758000
38.235500 0.754600
38.290900 0.756300
38.346300 0.756100
38.401800 0.762800
38.457200 0.767700
38.512600 0.770400
38.568000 0.777300
38.623500 0.802600
38.678900 0.813300
38.734300 0.808000
38.789700 0.822800
38.845200 0.831000
38.900600 0.841800
38.956000 0.832400
39.011400 0.825700
39.066900 0.821200
39.122300 0.867000
39.177700 0.870800
39.233100 0.863800
39.288600 0.849300
39.344000 0.849100
39.399400 0.824200
39.454900 0.819900
39.510300 0.832200
39.565700 0.816700
39.621100 0.813100
39.676600 0.798300
39.732000 0.776400
39.787400 0.752900
39.842800 0.730600
39.898300 0.717900
39.953700 0.709200
40.009100 0.722200
40.064500 0.763800
40.120000 0.802700
40.175400 0.806200
40.230800 0.815500
40.286200 0.822600
40.341700 0.826200
40.397100 0.829000
40.452500 0.836800
40.507900 0.847800
40.563400 0.878300
40.618800 0.892200
40.674200 0.830700
40.729600 0.808700
40.785100 0.788000
40.840500 0.760200
40.895900 0.755000
40.951300 0.750400
41.006800 0.774700
41.062200 0.792100
41.117600 0.798000
41.173000 0.794900
41.228500 0.821700
41.283900 0.867500
41.339300 0.926500
41.394700 0.924200
41.450200 0.880500
41.505600 0.845200
41.561000 0.827600
41.616400 0.826300
41.671900 0.854300
41.727300 0.843800
41.782700 0.821600
41.838100 0.776400
41.893600 0.762700
41.949000 0.777100
42.004400 0.789100
42.059800 0.787100
42.115300 0.756900
42.170700 0.743900
42.226100 0.720000
42.281500 0.714200
42.337000 0.718400
42.392400 0.736400
42.447800 0.761200
42.503200 0.801900
42.558700 0.809900
42.614100 0.851000
42.669500 0.815200
42.724900 0.784300
42.780400 0.765500
42.835800 0.758600
42.891200 0.750600
42.946600 0.775200
43.002100 0.784900
43.057500 0.803100
43.112900 0.839900
43.168300 0.869100
43.223800 0.875100
43.279200 0.884600
43.334600 0.910900
43.390100 0.951000
43.445500 1.008300
43.500900 1.062600
43.556300 1.081000
43.611800 1.089300
43.667200 1.058100
43.722600 1.026500
43.778000 0.977900
43.833500 0.884800
43.888900 0.803500
43.944300 0.759800
43.999700 0.758500
44.055200 0.757900
44.110600 0.753300
44.166000 0.751200
44.221400 0.740700
44.276900 0.738300
44.332300 0.756500
44.387700 0.827500
44.443100 0.820500
44.498600 0.828100
44.554000 0.815800
44.609400 0.802500
44.664800 0.775300
44.720300 0.754700
44.775700 0.727300
44.831100 0.727600
44.886500 0.728600
44.942000 0.735800
44.997400 0.728500
45.052800 0.748400
45.108200 0.786000
45.163700 0.784800
45.219100 0.783400
45.274500 0.792900
45.329900 0.782000
45.385400 0.783000
45.440800 0.768800
45.496200 0.752000
45.551600 0.730300
45.607100 0.717400
45.662500 0.701200
45.717900 0.683300
45.773300 0.675100
45.828800 0.667600
45.884200 0.661800
45.939600 0.659200
45.995000 0.676400
46.050500 0.705100
46.105900 0.726300
46.161300 0.757200
46.216700 0.822700
46.272200 0.864700
46.327600 0.842600
46.383000 0.849800
46.438400 0.836500
46.493900 0.819000
46.549300 0.794600
46.604700 0.821000
46.660100 0.897400
46.715600 0.987500
46.771000 0.978800
46.826400 0.988600
46.881800 0.974100
46.937300 0.960600
46.992700 0.921800
47.048100 0.911300
47.103500 0.889600
47.159000 0.886900
47.214400 0.845100
47.269800 0.812100
47.325300 0.789600
47.380700 0.781500
47.436100 0.792800
47.491500 0.782200
47.547000 0.813500
47.602400 0.818200
47.657800 0.840400
47.713200 0.848300
47.768700 0.853200
47.824100 0.843000
47.879500 0.853400
47.934900 0.868100
47.990400 0.856600
48.045800 0.848900
48.101200 0.851000
48.156600 0.855700
48.212100 0.828500
48.267500 0.799500
48.322900 0.804200
48.378300 0.760300
48.433800 0.753800
48.489200 0.741600
48.544600 0.745400
48.600000 0.779600
48.655500 0.837000
48.710900 0.847400
48.766300 0.812000
48.821700 0.786600
48.877200 0.756200
48.932600 0.747600
48.988000 0.763500
49.043400 0.785800
49.098900 0.811500
49.154300 0.782300
49.209700 0.753400
49.265100 0.791000
49.320600 0.774400
49.376000 0.772600
49.431400 0.781900
49.486800 0.795200
49.542300 0.787100
49.597700 0.783100
49.653100 0.815300
49.708500 0.835600
49.764000 0.823700
49.819400 0.791400
49.874800 0.781900
49.930200 0.778200
49.985700 0.795800
50.041100 0.819300
50.096500 0.857200
50.151900 0.870900
50.207400 0.888700
50.262800 0.901900
50.318200 0.927200
50.373600 0.933000
50.429100 0.895700
50.484500 0.916400
50.539900 0.935900
50.595300 0.834200
50.650800 0.812400
50.706200 0.806100
50.761600 0.812600
50.817000 0.797900
50.872500 0.813500
50.927900 0.837100
50.983300 0.884000
51.038700 0.955700
51.094200 0.985300
51.149600 1.052500
51.205000 1.089200
51.260500 1.116000
51.315900 1.127500
51.371300 1.076800
51.426700 1.006700
51.482200 0.950700
51.537600 0.892000
51.593000 0.845600
51.648400 0.753100
51.703900 0.719400
51.759300 0.709900
51.814700 0.724100
51.870100 0.814400
51.925600 0.903600
51.981000 0.974500
52.036400 1.006400
52.091800 0.986600
52.147300 0.943700
52.202700 0.899700
52.258100 0.860300
52.313500 0.814100
52.369000 0.766400
52.424400 0.724200
52.479800 0.714200
52.535200 0.675500
52.590700 0.646700
52.646100 0.629700
52.701500 0.649200
52.756900 0.670400
52.812400 0.693400
52.867800 0.742400
52.923200 0.695100
52.978600 0.690900
53.034100 0.596000
53.089500 0.588300
53.144900 0.604300
53.200300 0.626800
53.255800 0.656400
53.311200 0.680200
53.366600 0.695200
53.422000 0.694900
53.477500 0.666800
53.532900 0.627400
53.588300 0.584700
53.643700 0.545600
53.699200 0.508600
53.754600 0.455300
53.810000 0.388300
53.865400 0.317000
53.920900 0.267100
53.976300 0.223300
54.031700 0.185500
54.087100 0.165600
54.142600 0.147500
54.198000 0.130400
54.253400 0.114400
54.308800 0.099500
54.364300 0.085300
54.419700 0.072500
54.475100 0.061500
54.530500 0.045800
54.586000 0.035100
54.641400 0.027800
54.696800 0.023500
54.752200 0.026000
54.807700 0.019900
54.863100 0.005700
54.918500 0.002400
54.973900 0.001600
55.029400 0.001300
55.084800 0.001000
55.140200 0.000800
55.195700 0.000500
55.251100 0.000400
55.306500 0.000200
55.361900 0.000100
55.417400 0.000000
55.472800 0.000000
55.528200 0.000000
55.583600 0.000000
55.639100 0.000000
55.694500 0.000000
55.749900 0.000000
55.805300 0.000000
55.860800 0.000000
55.916200 0.000000
55.971600 0.000000
56.027000 0.000000
56.082500 0.000000
56.137900 0.000000
56.193300 0.000000
56.248700 0.000000
56.304200 0.000000
56.359600 0.000000
56.415000 0.000000
56.470400 0.000000
56.525900 0.000000
56.581300 0.000000
56.636700 0.000000
56.692100 0.000000
56.747600 0.000000
56.803000 0.000000
56.858400 0.000000
56.913800 0.000000
56.969300 0.000000
57.024700 0.000000
57.080100 0.000000
57.135500 0.000000
57.191000 0.000000
57.246400 0.000000
57.301800 0.000000
57.357200 0.000000
57.412700 0.000000
57.468100 0.000000
57.523500 0.000000
57.578900 0.000000
57.634400 0.000000
57.689800 0.000000
57.745200 0.000000
57.800600 0.000000
57.856100 0.000000
57.911500 0.000000
57.966900 0.000000
58.022300 0.000000
58.077800 0.000000
58.133200 0.000000
58.188600 0.000000
58.244000 0.000000
58.299500 0.000000
58.354900 0.000000
58.410300 0.000000
58.465700 0.000000
58.521200 0.000000
58.576600 0.000000
58.632000 0.000000
58.687400 0.000000
58.742900 0.000000
58.798300 0.000000
58.853700 0.000000
58.909100 0.000000
58.964600 0.000000
59.020000 0.000000
59.075400 0.000000
59.130900 0.000000
59.186300 0.000000
59.241700 0.000000
59.297100 0.000000
59.352600 0.000000
59.408000 0.000000
59.463400 0.000000
59.518800 0.000000
59.574300 0.000000
59.629700 0.000000
59.685100 0.000000
59.740500 0.000000
59.796000 0.000000
59.851400 0.000000
59.906800 0.000000
59.962200 0.000000
60.017700 0.000000
60.073100 0.000000
60.128500 0.000000
60.183900 0.000000
60.239400 0.000000
60.294800 0.000000
60.350200 0.000000
60.405600 0.000000
60.461100 0.000000
60.516500 0.000000
60.571900 0.000000
60.627300 0.000000
60.682800 0.000000
60.738200 0.000000
e
