set title 'mp-1014509 - Density of States'
set xlabel 'Energy (eV)'
set ylabel 'DOS (states/eV)'
set grid
set xrange [-10:10]
set yrange [0:26.496]
set xzeroaxis lt -1
set terminal png size 800,600
set output 'mp-1014509_dos_gnuplot.png'
plot '-' using 1:2 with lines title 'DOS'
-45.679400 0.000000
-45.635300 0.000000
-45.591200 0.000000
-45.547100 0.000000
-45.503000 0.000000
-45.458900 0.000000
-45.414800 0.000000
-45.370700 0.000000
-45.326500 0.000000
-45.282400 0.000000
-45.238300 0.000000
-45.194200 0.000000
-45.150100 0.000000
-45.106000 0.000000
-45.061900 0.000000
-45.017800 0.000000
-44.973600 0.000000
-44.929500 0.000000
-44.885400 0.000000
-44.841300 0.000000
-44.797200 0.000000
-44.753100 0.000000
-44.709000 0.000000
-44.664900 0.000000
-44.620700 0.000000
-44.576600 0.000000
-44.532500 0.000000
-44.488400 0.000000
-44.444300 0.000000
-44.400200 0.000000
-44.356100 0.000000
-44.312000 0.000000
-44.267800 0.000000
-44.223700 0.000000
-44.179600 0.000000
-44.135500 0.000000
-44.091400 0.000000
-44.047300 0.000000
-44.003200 0.000000
-43.959100 0.000000
-43.914900 0.000000
-43.870800 0.000000
-43.826700 0.000000
-43.782600 0.000000
-43.738500 0.000000
-43.694400 0.000000
-43.650300 0.000000
-43.606200 0.000000
-43.562000 0.000000
-43.517900 0.000000
-43.473800 0.000000
-43.429700 0.000000
-43.385600 0.000000
-43.341500 0.000000
-43.297400 0.000000
-43.253300 0.000000
-43.209100 0.000000
-43.165000 0.000000
-43.120900 0.000000
-43.076800 0.000000
-43.032700 0.000000
-42.988600 0.000000
-42.944500 0.000000
-42.900400 0.000000
-42.856200 0.000000
-42.812100 0.000000
-42.768000 0.000000
-42.723900 0.000000
-42.679800 0.000000
-42.635700 0.000000
-42.591600 0.000000
-42.547500 0.000000
-42.503300 0.000000
-42.459200 0.000000
-42.415100 0.000000
-42.371000 0.000000
-42.326900 0.000000
-42.282800 0.000000
-42.238700 0.000000
-42.194600 0.000000
-42.150400 0.000000
-42.106300 0.000000
-42.062200 0.000000
-42.018100 0.000000
-41.974000 0.000000
-41.929900 0.000000
-41.885800 0.000000
-41.841700 0.000000
-41.797500 0.000000
-41.753400 0.000000
-41.709300 0.000000
-41.665200 19.146400
-41.621100 24.166300
-41.577000 0.000000
-41.532900 186.350600
-41.488800 4.218900
-41.444600 0.000000
-41.400500 52.170900
-41.356400 13.250500
-41.312300 12.853900
-41.268200 17.549800
-41.224100 38.235400
-41.180000 12.215300
-41.135800 24.091300
-41.091700 0.000000
-41.047600 40.350600
-41.003500 4.968100
-40.959400 27.432900
-40.915300 25.841400
-40.871200 0.000000
-40.827100 0.000000
-40.782900 0.000000
-40.738800 0.000000
-40.694700 0.000000
-40.650600 0.000000
-40.606500 0.000000
-40.562400 0.000000
-40.518300 0.000000
-40.474200 0.000000
-40.430000 0.000000
-40.385900 0.000000
-40.341800 0.000000
-40.297700 0.000000
-40.253600 0.000000
-40.209500 0.000000
-40.165400 0.000000
-40.121300 0.000000
-40.077100 0.000000
-40.033000 0.000000
-39.988900 0.000000
-39.944800 0.000000
-39.900700 0.000000
-39.856600 0.000000
-39.812500 0.000000
-39.768400 0.000000
-39.724200 0.000000
-39.680100 0.000000
-39.636000 0.000000
-39.591900 0.000000
-39.547800 0.000000
-39.503700 0.000000
-39.459600 0.000000
-39.415500 0.000000
-39.371300 0.000000
-39.327200 0.000000
-39.283100 0.000000
-39.239000 0.000000
-39.194900 0.000000
-39.150800 0.000000
-39.106700 0.000000
-39.062600 0.000000
-39.018400 0.000000
-38.974300 0.000000
-38.930200 0.000000
-38.886100 0.000000
-38.842000 0.000000
-38.797900 0.000000
-38.753800 0.000000
-38.709700 0.000000
-38.665500 0.000000
-38.621400 0.000000
-38.577300 0.000000
-38.533200 0.000000
-38.489100 0.000000
-38.445000 0.000000
-38.400900 0.000000
-38.356800 0.000000
-38.312600 0.000000
-38.268500 0.000000
-38.224400 0.000000
-38.180300 0.000000
-38.136200 0.000000
-38.092100 0.000000
-38.048000 0.000000
-38.003900 0.000000
-37.959700 0.000000
-37.915600 0.000000
-37.871500 0.000000
-37.827400 0.000000
-37.783300 0.000000
-37.739200 0.000000
-37.695100 0.000000
-37.651000 0.000000
-37.606800 0.000000
-37.562700 0.000000
-37.518600 0.000000
-37.474500 0.000000
-37.430400 0.000000
-37.386300 0.000000
-37.342200 0.000000
-37.298100 0.000000
-37.253900 0.000000
-37.209800 0.000000
-37.165700 0.000000
-37.121600 0.000000
-37.077500 0.000000
-37.033400 0.000000
-36.989300 0.000000
-36.945200 0.000000
-36.901000 0.000000
-36.856900 0.000000
-36.812800 0.000000
-36.768700 0.000000
-36.724600 0.000000
-36.680500 0.000000
-36.636400 0.000000
-36.592200 0.000000
-36.548100 0.000000
-36.504000 0.000000
-36.459900 0.000000
-36.415800 0.000000
-36.371700 0.000000
-36.327600 0.000000
-36.283500 0.000000
-36.239300 0.000000
-36.195200 0.000000
-36.151100 0.000000
-36.107000 0.000000
-36.062900 0.000000
-36.018800 0.000000
-35.974700 0.000000
-35.930600 0.000000
-35.886400 0.000000
-35.842300 0.000000
-35.798200 0.000000
-35.754100 0.000000
-35.710000 0.000000
-35.665900 0.000000
-35.621800 0.000000
-35.577700 0.000000
-35.533500 0.000000
-35.489400 0.000000
-35.445300 0.000000
-35.401200 0.000000
-35.357100 0.000000
-35.313000 0.000000
-35.268900 0.000000
-35.224800 0.000000
-35.180600 0.000000
-35.136500 0.000000
-35.092400 0.000000
-35.048300 0.000000
-35.004200 0.000000
-34.960100 0.000000
-34.916000 0.000000
-34.871900 0.000000
-34.827700 0.000000
-34.783600 0.000000
-34.739500 0.000000
-34.695400 0.000000
-34.651300 0.000000
-34.607200 0.000000
-34.563100 0.000000
-34.519000 0.000000
-34.474800 0.000000
-34.430700 0.000000
-34.386600 0.000000
-34.342500 0.000000
-34.298400 0.000000
-34.254300 0.000000
-34.210200 0.000000
-34.166100 0.000000
-34.121900 0.000000
-34.077800 0.000000
-34.033700 0.000000
-33.989600 0.000000
-33.945500 0.000000
-33.901400 0.000000
-33.857300 0.000000
-33.813200 0.000000
-33.769000 0.000000
-33.724900 0.000000
-33.680800 0.000000
-33.636700 0.000000
-33.592600 0.000000
-33.548500 0.000000
-33.504400 0.000000
-33.460300 0.000000
-33.416100 0.000000
-33.372000 0.000000
-33.327900 0.000000
-33.283800 0.000000
-33.239700 0.000000
-33.195600 0.000000
-33.151500 0.000000
-33.107400 0.000000
-33.063200 0.000000
-33.019100 0.000000
-32.975000 0.000000
-32.930900 0.000000
-32.886800 0.000000
-32.842700 0.000000
-32.798600 0.000000
-32.754500 0.000000
-32.710300 0.000000
-32.666200 0.000000
-32.622100 0.000000
-32.578000 0.000000
-32.533900 0.000000
-32.489800 0.000000
-32.445700 0.000000
-32.401600 0.000000
-32.357400 0.000000
-32.313300 0.000000
-32.269200 0.000000
-32.225100 0.000000
-32.181000 0.000000
-32.136900 0.000000
-32.092800 0.000000
-32.048600 0.000000
-32.004500 0.000000
-31.960400 0.000000
-31.916300 0.000000
-31.872200 0.000000
-31.828100 0.000000
-31.784000 0.000000
-31.739900 0.000000
-31.695700 0.000000
-31.651600 0.000000
-31.607500 0.000000
-31.563400 0.000000
-31.519300 0.000000
-31.475200 0.000000
-31.431100 0.000000
-31.387000 0.000000
-31.342800 0.000000
-31.298700 0.000000
-31.254600 0.000000
-31.210500 0.000000
-31.166400 0.000000
-31.122300 0.000000
-31.078200 0.000000
-31.034100 0.000000
-30.989900 0.000000
-30.945800 0.000000
-30.901700 0.000000
-30.857600 0.000000
-30.813500 0.000000
-30.769400 0.000000
-30.725300 0.000000
-30.681200 0.000000
-30.637000 0.000000
-30.592900 0.000000
-30.548800 0.000000
-30.504700 0.000000
-30.460600 0.000000
-30.416500 0.000000
-30.372400 0.000000
-30.328300 0.000000
-30.284100 0.000000
-30.240000 0.000000
-30.195900 0.000000
-30.151800 0.000000
-30.107700 0.000000
-30.063600 0.000000
-30.019500 0.000000
-29.975400 0.000000
-29.931200 0.000000
-29.887100 0.000000
-29.843000 0.000000
-29.798900 0.000000
-29.754800 0.000000
-29.710700 0.000000
-29.666600 0.000000
-29.622500 0.000000
-29.578300 0.000000
-29.534200 0.000000
-29.490100 0.000000
-29.446000 0.000000
-29.401900 0.000000
-29.357800 0.000000
-29.313700 0.000000
-29.269600 0.000000
-29.225400 0.000000
-29.181300 0.000000
-29.137200 0.000000
-29.093100 0.000000
-29.049000 0.000000
-29.004900 0.000000
-28.960800 0.000000
-28.916700 0.000000
-28.872500 0.000000
-28.828400 0.000000
-28.784300 0.000000
-28.740200 0.000000
-28.696100 0.000000
-28.652000 0.000000
-28.607900 0.000000
-28.563800 0.000000
-28.519600 0.000000
-28.475500 0.000000
-28.431400 0.000000
-28.387300 0.000000
-28.343200 0.000000
-28.299100 0.000000
-28.255000 0.000000
-28.210900 0.000000
-28.166700 0.000000
-28.122600 0.000000
-28.078500 0.000000
-28.034400 0.000000
-27.990300 0.000000
-27.946200 0.000000
-27.902100 0.000000
-27.858000 0.000000
-27.813800 0.000000
-27.769700 0.000000
-27.725600 0.000000
-27.681500 0.000000
-27.637400 0.000000
-27.593300 0.000000
-27.549200 0.000000
-27.505000 0.000000
-27.460900 0.000000
-27.416800 0.000000
-27.372700 0.000000
-27.328600 0.000000
-27.284500 0.000000
-27.240400 0.000000
-27.196300 0.000000
-27.152100 0.000000
-27.108000 0.000000
-27.063900 0.000000
-27.019800 0.000000
-26.975700 0.000000
-26.931600 0.000000
-26.887500 0.000000
-26.843400 0.000000
-26.799200 0.000000
-26.755100 0.000000
-26.711000 0.000000
-26.666900 0.000000
-26.622800 0.000000
-26.578700 0.000000
-26.534600 0.000000
-26.490500 0.000000
-26.446300 0.000000
-26.402200 0.000000
-26.358100 0.000000
-26.314000 0.000000
-26.269900 0.000000
-26.225800 0.000000
-26.181700 0.000000
-26.137600 0.000000
-26.093400 0.000000
-26.049300 0.000000
-26.005200 0.000000
-25.961100 0.000000
-25.917000 0.000000
-25.872900 0.000000
-25.828800 0.000000
-25.784700 0.000000
-25.740500 0.000000
-25.696400 0.000000
-25.652300 0.000000
-25.608200 0.000000
-25.564100 0.000000
-25.520000 0.000000
-25.475900 0.000000
-25.431800 0.000000
-25.387600 0.000000
-25.343500 0.000000
-25.299400 0.000000
-25.255300 0.000000
-25.211200 0.000000
-25.167100 0.000000
-25.123000 0.000000
-25.078900 0.000000
-25.034700 0.000000
-24.990600 0.000000
-24.946500 0.000000
-24.902400 0.000000
-24.858300 0.000000
-24.814200 0.000000
-24.770100 0.000000
-24.726000 0.000000
-24.681800 0.000000
-24.637700 0.000000
-24.593600 0.000000
-24.549500 0.000000
-24.505400 0.000000
-24.461300 0.000000
-24.417200 0.000000
-24.373100 0.000000
-24.328900 0.000000
-24.284800 0.000000
-24.240700 0.000000
-24.196600 0.000000
-24.152500 0.000000
-24.108400 0.000000
-24.064300 0.000000
-24.020200 0.000000
-23.976000 0.000000
-23.931900 0.000000
-23.887800 0.000000
-23.843700 0.000000
-23.799600 0.000000
-23.755500 0.000000
-23.711400 0.000000
-23.667300 0.000000
-23.623100 0.000000
-23.579000 0.000000
-23.534900 0.000000
-23.490800 0.000000
-23.446700 0.000000
-23.402600 0.000000
-23.358500 0.000000
-23.314400 0.000000
-23.270200 0.000000
-23.226100 0.000000
-23.182000 0.000000
-23.137900 0.000000
-23.093800 0.000000
-23.049700 0.000000
-23.005600 0.000000
-22.961400 0.000000
-22.917300 0.000000
-22.873200 0.000000
-22.829100 0.000000
-22.785000 0.000000
-22.740900 0.000000
-22.696800 0.000000
-22.652700 0.000000
-22.608500 0.000000
-22.564400 0.000000
-22.520300 0.000000
-22.476200 0.000000
-22.432100 0.000000
-22.388000 0.000000
-22.343900 0.000000
-22.299800 0.000000
-22.255600 0.000000
-22.211500 0.000000
-22.167400 0.000000
-22.123300 0.000000
-22.079200 0.000000
-22.035100 0.000000
-21.991000 0.000000
-21.946900 0.000000
-21.902700 0.000000
-21.858600 0.000000
-21.814500 0.000000
-21.770400 0.000000
-21.726300 0.000000
-21.682200 0.000000
-21.638100 0.000000
-21.594000 0.000000
-21.549800 0.000000
-21.505700 0.000000
-21.461600 0.000000
-21.417500 0.000000
-21.373400 0.000000
-21.329300 0.000000
-21.285200 0.000000
-21.241100 0.000000
-21.196900 0.000000
-21.152800 0.000000
-21.108700 0.000000
-21.064600 0.000000
-21.020500 0.000000
-20.976400 0.000000
-20.932300 0.000000
-20.888200 0.000000
-20.844000 0.000000
-20.799900 0.000000
-20.755800 0.000000
-20.711700 0.000000
-20.667600 0.000000
-20.623500 0.000000
-20.579400 0.000000
-20.535300 0.000000
-20.491100 0.000000
-20.447000 0.000000
-20.402900 0.000000
-20.358800 0.000000
-20.314700 0.000000
-20.270600 0.000000
-20.226500 0.000000
-20.182400 0.000000
-20.138200 0.000000
-20.094100 0.000000
-20.050000 0.000000
-20.005900 0.000000
-19.961800 0.000000
-19.917700 0.000000
-19.873600 0.000000
-19.829500 0.000000
-19.785300 0.000000
-19.741200 0.000000
-19.697100 0.000000
-19.653000 0.000000
-19.608900 0.000000
-19.564800 0.000000
-19.520700 0.000000
-19.476600 0.000000
-19.432400 0.000000
-19.388300 0.000000
-19.344200 0.000000
-19.300100 0.000000
-19.256000 0.000000
-19.211900 0.000000
-19.167800 0.000000
-19.123700 0.000000
-19.079500 0.000000
-19.035400 0.000000
-18.991300 0.000000
-18.947200 0.000000
-18.903100 0.000000
-18.859000 0.000000
-18.814900 0.000000
-18.770800 0.000000
-18.726600 0.000000
-18.682500 0.000000
-18.638400 0.000000
-18.594300 0.000000
-18.550200 0.000000
-18.506100 0.000000
-18.462000 0.000000
-18.417800 0.000000
-18.373700 0.000000
-18.329600 0.000000
-18.285500 0.000000
-18.241400 0.000000
-18.197300 0.000000
-18.153200 0.000000
-18.109100 0.000000
-18.064900 0.000000
-18.020800 0.000000
-17.976700 0.000000
-17.932600 0.000000
-17.888500 0.000000
-17.844400 0.000000
-17.800300 0.000000
-17.756200 0.000000
-17.712000 0.000000
-17.667900 0.000000
-17.623800 0.000000
-17.579700 0.000000
-17.535600 0.000000
-17.491500 0.000000
-17.447400 0.000000
-17.403300 0.000000
-17.359100 0.000000
-17.315000 0.000000
-17.270900 0.000000
-17.226800 0.000000
-17.182700 0.000000
-17.138600 0.000000
-17.094500 0.000000
-17.050400 0.000000
-17.006200 0.000000
-16.962100 0.000000
-16.918000 0.000000
-16.873900 0.000000
-16.829800 0.000000
-16.785700 0.000000
-16.741600 0.000000
-16.697500 0.000000
-16.653300 0.000000
-16.609200 0.000000
-16.565100 0.000000
-16.521000 0.000000
-16.476900 0.000000
-16.432800 0.000000
-16.388700 0.000000
-16.344600 0.000000
-16.300400 0.000000
-16.256300 0.000000
-16.212200 0.000000
-16.168100 0.000000
-16.124000 0.000000
-16.079900 0.000000
-16.035800 0.000000
-15.991700 0.000000
-15.947500 0.000000
-15.903400 0.000000
-15.859300 0.000000
-15.815200 0.000000
-15.771100 0.000000
-15.727000 0.000000
-15.682900 0.000000
-15.638800 0.000000
-15.594600 0.000000
-15.550500 0.000000
-15.506400 0.000000
-15.462300 0.000000
-15.418200 0.000000
-15.374100 0.000000
-15.330000 0.000000
-15.285900 0.000000
-15.241700 0.000000
-15.197600 0.000000
-15.153500 0.000000
-15.109400 0.000000
-15.065300 0.000000
-15.021200 0.000000
-14.977100 0.000000
-14.933000 0.000000
-14.888800 0.000000
-14.844700 0.000000
-14.800600 0.000000
-14.756500 0.000000
-14.712400 0.000000
-14.668300 0.000000
-14.624200 0.000000
-14.580100 0.000000
-14.535900 0.000000
-14.491800 0.000000
-14.447700 0.000000
-14.403600 0.000000
-14.359500 0.000000
-14.315400 0.000000
-14.271300 0.000000
-14.227200 0.000000
-14.183000 0.000000
-14.138900 0.000000
-14.094800 0.000000
-14.050700 0.000000
-14.006600 0.000000
-13.962500 0.000000
-13.918400 0.000000
-13.874200 0.000000
-13.830100 0.000000
-13.786000 0.000000
-13.741900 0.000000
-13.697800 0.000000
-13.653700 0.000000
-13.609600 0.000000
-13.565500 0.000000
-13.521300 0.000000
-13.477200 0.000000
-13.433100 0.000000
-13.389000 0.000000
-13.344900 0.000000
-13.300800 0.000000
-13.256700 0.000000
-13.212600 0.111600
-13.168400 1.602800
-13.124300 2.443100
-13.080200 2.561900
-13.036100 2.773900
-12.992000 2.935900
-12.947900 3.174300
-12.903800 3.483200
-12.859700 3.890800
-12.815500 4.424900
-12.771400 6.271800
-12.727300 5.801500
-12.683200 3.086000
-12.639100 1.634500
-12.595000 0.000000
-12.550900 0.000000
-12.506800 2.675600
-12.462600 6.845700
-12.418500 8.268700
-12.374400 5.572100
-12.330300 4.901000
-12.286200 4.546600
-12.242100 4.245400
-12.198000 4.012500
-12.153900 3.907000
-12.109700 1.359200
-12.065600 0.000000
-12.021500 0.000000
-11.977400 0.000000
-11.933300 0.000000
-11.889200 0.000000
-11.845100 0.000000
-11.801000 0.000000
-11.756800 0.000000
-11.712700 0.000000
-11.668600 0.000000
-11.624500 0.000000
-11.580400 0.000000
-11.536300 0.000000
-11.492200 0.000000
-11.448100 0.000000
-11.403900 0.000000
-11.359800 0.000000
-11.315700 0.000000
-11.271600 0.000000
-11.227500 0.000000
-11.183400 0.000000
-11.139300 0.000000
-11.095200 0.000000
-11.051000 0.000000
-11.006900 0.000000
-10.962800 0.000000
-10.918700 0.000000
-10.874600 0.000000
-10.830500 0.000000
-10.786400 0.000000
-10.742300 0.000000
-10.698100 0.000000
-10.654000 0.000000
-10.609900 0.000000
-10.565800 0.000000
-10.521700 0.000000
-10.477600 0.000000
-10.433500 0.000000
-10.389400 0.000000
-10.345200 0.000000
-10.301100 0.000000
-10.257000 0.000000
-10.212900 0.000000
-10.168800 0.000000
-10.124700 0.000000
-10.080600 0.000000
-10.036500 0.000000
-9.992300 0.000000
-9.948200 0.000000
-9.904100 0.000000
-9.860000 0.000000
-9.815900 0.000000
-9.771800 0.000000
-9.727700 0.000000
-9.683600 0.000000
-9.639400 0.000000
-9.595300 0.000000
-9.551200 0.000000
-9.507100 0.000000
-9.463000 0.000000
-9.418900 0.000000
-9.374800 0.000000
-9.330600 0.000000
-9.286500 0.000000
-9.242400 0.000000
-9.198300 0.000000
-9.154200 0.000000
-9.110100 0.000000
-9.066000 0.000000
-9.021900 0.000000
-8.977700 0.000000
-8.933600 0.000000
-8.889500 0.000000
-8.845400 0.000000
-8.801300 0.000000
-8.757200 0.000000
-8.713100 0.000000
-8.669000 0.000000
-8.624800 0.000000
-8.580700 0.000000
-8.536600 0.000000
-8.492500 0.000000
-8.448400 0.000000
-8.404300 0.000000
-8.360200 0.000000
-8.316100 0.000000
-8.271900 0.000000
-8.227800 0.000000
-8.183700 0.000000
-8.139600 0.000000
-8.095500 0.000000
-8.051400 0.000000
-8.007300 0.000000
-7.963200 0.000000
-7.919000 0.000000
-7.874900 0.000000
-7.830800 0.000000
-7.786700 0.000000
-7.742600 0.000000
-7.698500 0.000000
-7.654400 0.000000
-7.610300 0.000000
-7.566100 0.000000
-7.522000 0.000000
-7.477900 0.000000
-7.433800 0.000000
-7.389700 0.000000
-7.345600 0.000000
-7.301500 0.000000
-7.257400 0.000000
-7.213200 0.000000
-7.169100 0.000000
-7.125000 0.000000
-7.080900 0.000000
-7.036800 0.000000
-6.992700 0.000000
-6.948600 0.000000
-6.904500 0.000000
-6.860300 0.000000
-6.816200 0.000000
-6.772100 0.000000
-6.728000 0.000000
-6.683900 0.000000
-6.639800 0.000000
-6.595700 0.000000
-6.551600 0.000000
-6.507400 0.000000
-6.463300 0.000000
-6.419200 0.000000
-6.375100 0.000000
-6.331000 0.000000
-6.286900 0.000000
-6.242800 0.000000
-6.198700 0.000000
-6.154500 0.000000
-6.110400 0.000000
-6.066300 0.000000
-6.022200 0.000000
-5.978100 0.000000
-5.934000 0.000000
-5.889900 0.000000
-5.845800 0.000000
-5.801600 0.000000
-5.757500 0.000000
-5.713400 0.000000
-5.669300 0.000000
-5.625200 0.000000
-5.581100 0.000000
-5.537000 0.000000
-5.492900 0.000000
-5.448700 0.000000
-5.404600 0.000000
-5.360500 0.000000
-5.316400 0.000000
-5.272300 0.000000
-5.228200 0.000000
-5.184100 0.000000
-5.140000 0.000000
-5.095800 0.000000
-5.051700 0.000000
-5.007600 0.000000
-4.963500 0.000000
-4.919400 0.000000
-4.875300 0.000000
-4.831200 0.000000
-4.787000 0.000000
-4.742900 0.000000
-4.698800 0.000000
-4.654700 0.000000
-4.610600 0.000000
-4.566500 0.000000
-4.522400 0.000000
-4.478300 0.000000
-4.434100 0.000000
-4.390000 0.000000
-4.345900 0.000000
-4.301800 0.000000
-4.257700 0.000000
-4.213600 0.000000
-4.169500 0.000000
-4.125400 0.000000
-4.081200 0.000000
-4.037100 0.000000
-3.993000 0.000000
-3.948900 0.000000
-3.904800 0.000000
-3.860700 0.000000
-3.816600 0.000000
-3.772500 0.000000
-3.728300 1.615500
-3.684200 4.576800
-3.640100 9.289700
-3.596000 8.944300
-3.551900 5.901000
-3.507800 4.018700
-3.463700 2.903700
-3.419600 2.368800
-3.375400 1.908700
-3.331300 1.497600
-3.287200 1.257300
-3.243100 0.837800
-3.199000 2.211000
-3.154900 4.959000
-3.110800 16.374400
-3.066700 15.013600
-3.022500 4.835400
-2.978400 1.540600
-2.934300 0.770900
-2.890200 1.052200
-2.846100 1.378400
-2.802000 2.743100
-2.757900 3.872500
-2.713800 5.151100
-2.669600 7.495400
-2.625500 10.279200
-2.581400 4.680200
-2.537300 2.707400
-2.493200 1.357700
-2.449100 4.355200
-2.405000 5.126700
-2.360900 6.796100
-2.316700 11.386800
-2.272600 9.832400
-2.228500 3.907100
-2.184400 20.071700
-2.140300 16.629100
-2.096200 6.326800
-2.052100 5.200400
-2.008000 8.175000
-1.963800 8.243000
-1.919700 9.090200
-1.875600 6.901000
-1.831500 6.527800
-1.787400 6.762500
-1.743300 3.635100
-1.699200 2.691000
-1.655100 0.000000
-1.610900 0.000000
-1.566800 0.000000
-1.522700 0.000000
-1.478600 0.000000
-1.434500 0.000000
-1.390400 0.000000
-1.346300 0.000000
-1.302200 0.000000
-1.258000 0.000000
-1.213900 0.000000
-1.169800 0.000000
-1.125700 0.000000
-1.081600 0.000000
-1.037500 0.015900
-0.993400 0.133300
-0.949300 0.235300
-0.905100 0.304900
-0.861000 0.405800
-0.816900 0.517900
-0.772800 0.677500
-0.728700 0.839300
-0.684600 1.092800
-0.640500 1.468700
-0.596400 2.272500
-0.552200 2.798000
-0.508100 3.865200
-0.464000 5.481900
-0.419900 7.258400
-0.375800 11.658200
-0.331700 8.664000
-0.287600 0.000000
-0.243400 0.000000
-0.199300 0.000000
-0.155200 0.000000
-0.111100 0.000000
-0.067000 0.000000
-0.022900 0.000000
0.021200 0.000000
0.065300 0.000000
0.109500 0.000000
0.153600 0.000000
0.197700 0.000000
0.241800 1.144300
0.285900 3.997300
0.330000 6.012900
0.374100 5.983600
0.418200 6.513100
0.462400 7.859500
0.506500 6.103700
0.550600 4.289600
0.594700 2.637200
0.638800 3.657300
0.682900 8.986100
0.727000 17.196200
0.771100 10.538900
0.815300 3.716800
0.859400 2.324600
0.903500 4.647400
0.947600 8.278200
0.991700 8.092800
1.035800 13.152600
1.079900 9.724300
1.124000 14.204300
1.168200 12.837200
1.212300 10.751500
1.256400 11.831500
1.300500 4.935700
1.344600 4.340100
1.388700 4.567200
1.432800 4.967300
1.476900 14.769000
1.521100 5.421500
1.565200 1.538900
1.609300 2.680900
1.653400 4.794000
1.697500 5.003200
1.741600 4.825400
1.785700 6.806600
1.829800 10.490200
1.874000 4.391900
1.918100 3.882100
1.962200 6.328300
2.006300 8.821900
2.050400 9.412200
2.094500 10.737500
2.138600 9.584000
2.182700 8.635800
2.226900 7.608700
2.271000 5.757100
2.315100 3.584000
2.359200 3.327900
2.403300 4.395700
2.447400 4.531300
2.491500 6.238100
2.535600 2.792400
2.579800 1.760200
2.623900 1.101000
2.668000 3.356800
2.712100 7.040400
2.756200 8.656400
2.800300 11.323000
2.844400 8.028100
2.888500 17.220700
2.932700 24.087100
2.976800 7.259000
3.020900 2.330400
3.065000 1.779600
3.109100 1.330500
3.153200 1.328500
3.197300 1.302600
3.241400 1.368300
3.285600 1.434000
3.329700 1.499200
3.373800 1.564400
3.417900 1.695900
3.462000 1.758200
3.506100 1.744200
3.550200 1.730400
3.594300 2.475100
3.638500 4.656600
3.682600 6.021400
3.726700 7.569500
3.770800 8.474900
3.814900 3.215300
3.859000 0.000000
3.903100 0.235800
3.947200 0.390200
3.991400 0.556300
4.035500 0.775400
4.079600 1.090300
4.123700 1.233200
4.167800 1.365500
4.211900 1.456400
4.256000 1.577400
4.300200 1.814500
4.344300 2.071200
4.388400 2.033100
4.432500 2.055600
4.476600 2.061500
4.520700 1.976100
4.564800 1.708200
4.608900 1.646500
4.653100 1.584700
4.697200 1.669000
4.741300 2.377900
4.785400 3.977200
4.829500 4.262200
4.873600 5.978400
4.917700 6.917500
4.961800 4.765100
5.006000 2.626100
5.050100 3.508400
5.094200 4.656300
5.138300 6.306100
5.182400 6.609800
5.226500 7.211300
5.270600 6.054500
5.314700 3.758000
5.358900 5.497800
5.403000 9.202100
5.447100 10.542500
5.491200 10.483500
5.535300 2.851300
5.579400 0.404100
5.623500 0.000000
5.667600 0.000000
5.711800 0.440900
5.755900 0.558400
5.800000 0.690800
5.844100 0.897300
5.888200 0.992400
5.932300 0.977900
5.976400 1.056300
6.020500 1.160700
6.064700 1.529500
6.108800 3.144700
6.152900 3.976600
6.197000 4.185800
6.241100 4.866400
6.285200 4.355800
6.329300 3.001700
6.373400 2.302500
6.417600 2.036100
6.461700 1.925700
6.505800 2.056200
6.549900 2.025900
6.594000 2.008600
6.638100 2.054200
6.682200 1.889200
6.726300 1.664100
6.770500 1.471300
6.814600 1.800100
6.858700 1.113800
6.902800 0.996700
6.946900 0.892600
6.991000 0.846700
7.035100 0.819300
7.079200 0.813600
7.123400 0.814600
7.167500 0.819100
7.211600 0.828200
7.255700 0.842900
7.299800 0.865300
7.343900 0.890800
7.388000 0.918300
7.432100 0.951100
7.476300 0.993100
7.520400 1.056300
7.564500 1.142200
7.608600 1.251900
7.652700 1.383400
7.696800 1.710800
7.740900 2.214800
7.785000 2.295900
7.829200 2.062500
7.873300 1.982800
7.917400 2.067600
7.961500 2.108600
8.005600 2.198600
8.049700 2.009600
8.093800 1.626900
8.137900 1.324800
8.182100 1.278200
8.226200 1.410500
8.270300 1.686600
8.314400 2.462200
8.358500 2.866100
8.402600 2.985800
8.446700 2.337300
8.490800 2.140300
8.535000 2.490100
8.579100 2.272000
8.623200 2.100200
8.667300 2.001200
8.711400 2.003100
8.755500 1.921500
8.799600 1.630000
8.843800 1.620600
8.887900 2.244600
8.932000 2.783900
8.976100 4.243300
9.020200 3.109300
9.064300 2.372400
9.108400 2.023600
9.152500 1.844800
9.196700 1.748100
9.240800 1.686400
9.284900 1.646000
9.329000 1.608200
9.373100 1.565100
9.417200 1.525100
9.461300 1.482500
9.505400 1.443200
9.549600 1.401300
9.593700 1.352600
9.637800 1.310400
9.681900 1.267800
9.726000 1.234800
9.770100 1.210700
9.814200 1.188500
9.858300 1.167900
9.902500 1.145000
9.946600 1.137200
9.990700 1.134000
10.034800 1.136800
10.078900 1.161300
10.123000 1.193000
10.167100 1.165300
10.211200 1.098800
10.255400 1.024400
10.299500 0.943700
10.343600 0.839400
10.387700 0.815800
10.431800 0.808400
10.475900 0.866300
10.520000 0.923000
10.564100 0.990400
10.608300 1.058100
10.652400 1.133300
10.696500 1.207600
10.740600 1.299400
10.784700 1.420700
10.828800 1.742200
10.872900 1.810600
10.917000 1.944600
10.961200 2.182700
11.005300 2.362000
11.049400 2.565400
11.093500 2.663600
11.137600 2.602700
11.181700 2.504300
11.225800 2.444700
11.269900 2.457200
11.314100 2.509400
11.358200 2.613800
11.402300 2.601200
11.446400 2.055800
11.490500 2.069100
11.534600 2.180400
11.578700 2.169400
11.622800 2.026700
11.667000 1.686700
11.711100 1.581100
11.755200 1.630700
11.799300 1.867500
11.843400 2.269500
11.887500 2.606800
11.931600 3.330100
11.975700 4.158900
12.019900 4.490600
12.064000 4.728000
12.108100 3.425600
12.152200 2.647600
12.196300 1.901500
12.240400 1.067800
12.284500 0.963400
12.328600 0.991500
12.372800 0.978000
12.416900 0.924200
12.461000 0.874400
12.505100 0.932700
12.549200 1.157000
12.593300 1.409000
12.637400 1.725000
12.681500 1.917100
12.725700 2.111100
12.769800 2.623600
12.813900 3.385300
12.858000 3.028800
12.902100 2.786300
12.946200 2.631500
12.990300 2.549600
13.034400 2.595200
13.078600 2.749300
13.122700 2.559300
13.166800 2.335500
13.210900 2.164200
13.255000 2.675700
13.299100 2.670600
13.343200 2.503100
13.387400 2.341600
13.431500 2.163900
13.475600 2.119000
13.519700 2.127400
13.563800 2.151600
13.607900 2.160100
13.652000 2.136600
13.696100 2.095400
13.740300 2.094200
13.784400 2.099600
13.828500 2.075000
13.872600 2.016000
13.916700 1.934100
13.960800 1.800500
14.004900 1.672100
14.049000 1.567900
14.093200 1.493700
14.137300 1.415800
14.181400 1.232700
14.225500 1.097700
14.269600 1.049800
14.313700 1.079700
14.357800 1.147300
14.401900 1.272000
14.446100 1.566300
14.490200 2.020500
14.534300 2.536800
14.578400 2.870800
14.622500 3.133200
14.666600 3.052100
14.710700 3.033100
14.754800 3.033600
14.799000 2.965500
14.843100 2.773600
14.887200 2.462100
14.931300 2.440300
14.975400 2.475500
15.019500 2.487700
15.063600 2.554600
15.107700 2.735900
15.151900 2.949200
15.196000 2.963700
15.240100 2.879100
15.284200 2.784100
15.328300 2.478500
15.372400 2.096600
15.416500 1.885500
15.460600 1.731500
15.504800 1.615500
15.548900 1.543200
15.593000 1.683100
15.637100 2.634700
15.681200 2.855400
15.725300 2.515200
15.769400 2.447700
15.813500 2.366200
15.857700 2.401800
15.901800 2.453200
15.945900 2.478500
15.990000 2.746400
16.034100 2.819900
16.078200 2.865700
16.122300 2.783200
16.166400 2.710500
16.210600 2.771100
16.254700 3.148600
16.298800 2.455000
16.342900 2.568700
16.387000 3.398200
16.431100 3.410800
16.475200 3.326500
16.519300 2.823000
16.563500 2.643400
16.607600 2.499900
16.651700 2.251500
16.695800 2.200300
16.739900 2.242200
16.784000 2.268200
16.828100 2.199600
16.872200 2.086800
16.916400 2.097700
16.960500 3.086600
17.004600 3.501000
17.048700 3.194300
17.092800 3.012200
17.136900 3.094600
17.181000 3.363400
17.225100 4.015600
17.269300 4.709800
17.313400 4.590900
17.357500 4.464300
17.401600 3.818300
17.445700 3.366700
17.489800 2.767500
17.533900 2.510100
17.578000 2.773900
17.622200 3.225600
17.666300 4.023700
17.710400 4.413900
17.754500 4.710000
17.798600 5.388700
17.842700 5.414300
17.886800 3.670700
17.931000 2.952800
17.975100 2.663900
18.019200 2.484600
18.063300 2.464100
18.107400 2.739400
18.151500 2.364200
18.195600 2.292300
18.239700 2.096200
18.283900 1.784700
18.328000 1.935200
18.372100 2.203300
18.416200 2.196000
18.460300 2.253100
18.504400 2.395000
18.548500 2.969100
18.592600 2.860700
18.636800 2.707200
18.680900 2.580300
18.725000 2.591300
18.769100 2.789500
18.813200 2.671500
18.857300 2.512300
18.901400 2.407200
18.945500 2.369400
18.989700 2.221400
19.033800 2.040300
19.077900 1.933500
19.122000 1.895700
19.166100 1.949800
19.210200 2.038000
19.254300 2.317800
19.298400 2.615800
19.342600 2.702300
19.386700 2.721600
19.430800 2.789900
19.474900 2.847900
19.519000 2.839200
19.563100 2.847800
19.607200 2.866100
19.651300 2.799000
19.695500 2.673600
19.739600 2.602300
19.783700 2.531500
19.827800 2.454800
19.871900 2.411600
19.916000 2.470400
19.960100 2.597100
20.004200 2.719000
20.048400 2.880900
20.092500 2.994200
20.136600 3.025400
20.180700 2.874600
20.224800 2.765700
20.268900 2.656400
20.313000 2.527200
20.357100 2.635600
20.401300 2.598500
20.445400 2.652500
20.489500 2.709600
20.533600 2.750000
20.577700 2.621200
20.621800 2.459400
20.665900 2.605800
20.710000 2.778600
20.754200 2.935000
20.798300 3.035600
20.842400 3.149100
20.886500 3.308100
20.930600 3.409400
20.974700 3.497800
21.018800 3.258000
21.062900 3.206300
21.107100 3.099100
21.151200 2.665400
21.195300 2.353300
21.239400 2.210600
21.283500 2.170000
21.327600 2.165900
21.371700 2.221500
21.415800 2.330500
21.460000 2.551700
21.504100 2.762500
21.548200 2.714700
21.592300 2.696500
21.636400 2.843800
21.680500 2.949200
21.724600 2.791600
21.768700 2.883900
21.812900 3.122100
21.857000 3.468200
21.901100 3.571800
21.945200 3.309200
21.989300 2.939100
22.033400 2.783600
22.077500 2.659500
22.121600 2.522900
22.165800 2.513900
22.209900 2.752000
22.254000 2.824100
22.298100 2.903300
22.342200 2.932200
22.386300 2.946900
22.430400 3.110100
22.474600 2.990700
22.518700 3.087900
22.562800 2.992600
22.606900 3.106500
22.651000 3.044700
22.695100 3.010800
22.739200 3.404400
22.783300 3.705100
22.827500 3.717600
22.871600 3.726800
22.915700 3.789100
22.959800 3.869500
23.003900 3.841900
23.048000 4.455200
23.092100 4.200500
23.136200 4.240800
23.180400 3.874400
23.224500 3.582200
23.268600 3.923800
23.312700 4.169000
23.356800 4.043300
23.400900 4.028400
23.445000 3.893600
23.489100 3.628400
23.533300 3.341900
23.577400 3.137600
23.621500 2.950400
23.665600 2.746800
23.709700 2.835600
23.753800 2.827500
23.797900 2.839500
23.842000 2.988100
23.886200 2.972300
23.930300 3.032200
23.974400 3.148400
24.018500 3.297900
24.062600 3.731900
24.106700 3.766800
24.150800 3.432800
24.194900 3.080100
24.239100 3.003000
24.283200 2.802600
24.327300 3.008800
24.371400 3.184200
24.415500 3.219000
24.459600 3.187800
24.503700 3.275100
24.547800 3.574700
24.592000 3.721400
24.636100 3.690900
24.680200 3.966200
24.724300 3.357600
24.768400 3.222300
24.812500 3.094600
24.856600 2.922000
24.900700 2.688800
24.944900 2.460700
24.989000 2.408800
25.033100 2.732300
25.077200 3.075100
25.121300 3.208100
25.165400 3.179200
25.209500 3.345800
25.253600 3.523200
25.297800 3.558600
25.341900 3.479700
25.386000 2.719000
25.430100 2.578500
25.474200 2.644100
25.518300 2.861500
25.562400 3.094500
25.606500 3.120900
25.650700 3.131700
25.694800 3.248000
25.738900 3.350700
25.783000 3.339100
25.827100 3.349600
25.871200 3.607700
25.915300 3.677000
25.959400 3.400000
26.003600 3.255300
26.047700 3.060100
26.091800 2.870500
26.135900 2.811900
26.180000 2.816700
26.224100 2.908500
26.268200 3.027800
26.312300 3.095500
26.356500 3.265900
26.400600 3.445300
26.444700 3.314200
26.488800 3.264600
26.532900 3.216500
26.577000 3.242900
26.621100 3.039100
26.665200 3.064100
26.709400 3.231900
26.753500 3.296200
26.797600 3.688400
26.841700 4.348200
26.885800 4.650800
26.929900 4.211100
26.974000 4.022700
27.018200 3.900900
27.062300 4.049800
27.106400 4.330400
27.150500 4.448600
27.194600 4.398600
27.238700 4.287000
27.282800 4.336700
27.326900 4.139100
27.371100 3.883400
27.415200 3.477400
27.459300 2.918700
27.503400 3.108400
27.547500 4.202000
27.591600 5.312700
27.635700 5.440100
27.679800 5.076400
27.724000 4.242700
27.768100 3.797400
27.812200 3.587500
27.856300 3.516000
27.900400 3.552500
27.944500 3.929600
27.988600 4.182300
28.032700 3.857000
28.076900 3.802500
28.121000 3.761600
28.165100 3.833400
28.209200 3.687900
28.253300 3.747300
28.297400 3.865000
28.341500 3.844000
28.385600 3.597200
28.429800 3.180500
28.473900 3.076200
28.518000 2.903400
28.562100 2.779600
28.606200 2.819600
28.650300 2.983700
28.694400 3.140500
28.738500 3.231200
28.782700 3.459000
28.826800 3.765100
28.870900 4.576900
28.915000 3.946000
28.959100 3.227700
29.003200 2.973000
29.047300 2.905400
29.091400 2.896600
29.135600 2.891400
29.179700 2.832200
29.223800 2.930300
29.267900 3.359300
29.312000 3.567900
29.356100 3.656900
29.400200 3.766900
29.444300 4.020000
29.488500 3.584500
29.532600 3.415300
29.576700 3.297600
29.620800 3.106900
29.664900 2.986700
29.709000 2.866700
29.753100 2.830700
29.797200 2.650000
29.841400 2.783800
29.885500 2.963200
29.929600 3.065900
29.973700 3.138500
30.017800 2.960000
30.061900 2.859000
30.106000 3.017200
30.150100 3.192400
30.194300 3.230500
30.238400 3.168500
30.282500 3.083600
30.326600 3.092400
30.370700 3.192300
30.414800 3.254100
30.458900 3.140000
30.503000 2.836900
30.547200 2.650800
30.591300 2.568100
30.635400 2.707800
30.679500 2.703000
30.723600 2.756000
30.767700 2.664300
30.811800 2.625500
30.855900 2.826800
30.900100 2.826800
30.944200 2.891400
30.988300 3.280500
31.032400 3.754900
31.076500 3.136400
31.120600 3.182300
31.164700 3.249500
31.208800 3.365900
31.253000 3.472700
31.297100 3.447000
31.341200 3.542500
31.385300 3.861100
31.429400 3.607900
31.473500 3.390200
31.517600 3.297100
31.561800 3.199300
31.605900 3.389100
31.650000 4.089500
31.694100 4.518000
31.738200 4.892600
31.782300 5.052100
31.826400 4.779400
31.870500 4.140900
31.914700 3.721200
31.958800 3.282000
32.002900 3.334200
32.047000 3.449300
32.091100 3.723900
32.135200 3.529500
32.179300 4.127400
32.223400 4.098700
32.267600 3.907300
32.311700 4.099400
32.355800 4.154800
32.399900 3.762800
32.444000 3.647400
32.488100 3.298100
32.532200 2.906500
32.576300 2.769400
32.620500 3.013200
32.664600 3.414800
32.708700 3.902300
32.752800 4.467000
32.796900 5.522800
32.841000 4.816100
32.885100 4.132000
32.929200 3.786500
32.973400 3.712800
33.017500 3.549900
33.061600 3.801900
33.105700 4.299400
33.149800 3.910600
33.193900 3.663100
33.238000 3.575300
33.282100 4.125100
33.326300 4.377200
33.370400 4.835900
33.414500 4.800600
33.458600 4.696500
33.502700 3.892200
33.546800 3.341800
33.590900 3.014900
33.635000 2.742400
33.679200 2.804500
33.723300 2.908900
33.767400 3.337200
33.811500 3.855500
33.855600 4.478700
33.899700 5.462500
33.943800 6.690200
33.987900 5.696500
34.032100 4.521900
34.076200 4.046500
34.120300 4.224300
34.164400 4.951100
34.208500 6.296100
34.252600 6.576100
34.296700 6.811300
34.340800 6.504500
34.385000 5.940400
34.429100 6.266000
34.473200 7.482200
34.517300 9.617800
34.561400 10.846100
34.605500 9.242500
34.649600 8.458900
34.693700 9.215400
34.737900 11.859600
34.782000 12.204900
34.826100 9.914800
34.870200 6.705500
34.914300 5.171200
34.958400 6.408300
35.002500 7.345800
35.046600 7.433200
35.090800 5.864300
35.134900 5.247200
35.179000 5.203900
35.223100 5.396600
35.267200 6.087200
35.311300 5.150700
35.355400 4.245700
35.399500 4.586400
35.443700 4.957600
35.487800 5.376200
35.531900 5.646500
35.576000 5.946800
35.620100 4.646200
35.664200 4.283600
35.708300 4.627000
35.752400 4.971900
35.796600 5.610300
35.840700 5.925700
35.884800 5.924200
35.928900 4.832900
35.973000 3.590700
36.017100 3.239800
36.061200 3.127500
36.105400 3.063300
36.149500 3.190600
36.193600 3.205100
36.237700 3.078100
36.281800 3.097900
36.325900 3.181300
36.370000 3.785000
36.414100 4.753800
36.458300 4.691200
36.502400 4.283300
36.546500 4.216500
36.590600 4.101100
36.634700 3.982000
36.678800 3.698300
36.722900 3.721500
36.767000 3.936100
36.811200 3.866500
36.855300 3.621600
36.899400 3.505800
36.943500 3.371200
36.987600 3.085000
37.031700 2.929600
37.075800 2.605800
37.119900 2.279500
37.164100 1.969400
37.208200 1.654400
37.252300 1.461800
37.296400 1.344400
37.340500 1.590500
37.384600 0.851500
37.428700 0.662300
37.472800 0.583000
37.517000 0.525000
37.561100 0.476400
37.605200 0.425500
37.649300 0.408200
37.693400 0.348100
37.737500 0.289800
37.781600 0.233800
37.825700 0.172500
37.869900 0.136300
37.914000 0.098000
37.958100 0.045400
38.002200 0.034100
38.046300 0.023800
38.090400 0.018700
38.134500 0.015100
38.178600 0.012000
38.222800 0.009200
38.266900 0.006800
38.311000 0.004700
38.355100 0.003100
38.399200 0.001700
38.443300 0.000800
38.487400 0.000200
38.531500 0.000000
38.575700 0.000000
38.619800 0.000000
38.663900 0.000000
38.708000 0.000000
38.752100 0.000000
38.796200 0.000000
38.840300 0.000000
38.884400 0.000000
38.928600 0.000000
38.972700 0.000000
39.016800 0.000000
39.060900 0.000000
39.105000 0.000000
39.149100 0.000000
39.193200 0.000000
39.237300 0.000000
39.281500 0.000000
39.325600 0.000000
39.369700 0.000000
39.413800 0.000000
39.457900 0.000000
39.502000 0.000000
39.546100 0.000000
39.590200 0.000000
39.634400 0.000000
39.678500 0.000000
39.722600 0.000000
39.766700 0.000000
39.810800 0.000000
39.854900 0.000000
39.899000 0.000000
39.943100 0.000000
39.987300 0.000000
40.031400 0.000000
40.075500 0.000000
40.119600 0.000000
40.163700 0.000000
40.207800 0.000000
40.251900 0.000000
40.296000 0.000000
40.340200 0.000000
40.384300 0.000000
40.428400 0.000000
40.472500 0.000000
40.516600 0.000000
40.560700 0.000000
40.604800 0.000000
40.649000 0.000000
40.693100 0.000000
40.737200 0.000000
40.781300 0.000000
40.825400 0.000000
40.869500 0.000000
40.913600 0.000000
40.957700 0.000000
41.001900 0.000000
41.046000 0.000000
41.090100 0.000000
41.134200 0.000000
41.178300 0.000000
41.222400 0.000000
41.266500 0.000000
41.310600 0.000000
41.354800 0.000000
41.398900 0.000000
41.443000 0.000000
41.487100 0.000000
41.531200 0.000000
41.575300 0.000000
41.619400 0.000000
41.663500 0.000000
41.707700 0.000000
41.751800 0.000000
41.795900 0.000000
41.840000 0.000000
41.884100 0.000000
41.928200 0.000000
41.972300 0.000000
42.016400 0.000000
42.060600 0.000000
42.104700 0.000000
42.148800 0.000000
42.192900 0.000000
42.237000 0.000000
42.281100 0.000000
42.325200 0.000000
42.369300 0.000000
42.413500 0.000000
42.457600 0.000000
42.501700 0.000000
42.545800 0.000000
e
