set title 'mp-1186127 - Density of States'
set xlabel 'Energy (eV)'
set ylabel 'DOS (states/eV)'
set grid
set xrange [-10:10]
set yrange [0:46.257]
set xzeroaxis lt -1
set terminal png size 800,600
set output 'mp-1186127_dos_gnuplot.png'
plot '-' using 1:2 with lines title 'DOS'
-24.733400 0.000000
-24.707000 0.000000
-24.680600 0.000000
-24.654200 0.000000
-24.627700 0.000000
-24.601300 0.000000
-24.574900 0.000000
-24.548500 0.000000
-24.522100 0.000000
-24.495700 0.000000
-24.469300 0.000000
-24.442900 0.000000
-24.416500 0.000000
-24.390100 0.000000
-24.363700 0.000000
-24.337300 0.000000
-24.310900 0.000000
-24.284400 0.000000
-24.258000 0.000000
-24.231600 0.000000
-24.205200 0.000000
-24.178800 0.000000
-24.152400 0.000000
-24.126000 0.000000
-24.099600 0.000000
-24.073200 0.000000
-24.046800 0.000000
-24.020400 0.000000
-23.994000 0.000000
-23.967600 0.000000
-23.941100 0.000000
-23.914700 0.000000
-23.888300 0.000000
-23.861900 0.000000
-23.835500 0.000000
-23.809100 0.000000
-23.782700 0.000000
-23.756300 0.000000
-23.729900 0.000000
-23.703500 0.000000
-23.677100 0.000000
-23.650700 0.000000
-23.624300 0.000000
-23.597900 0.000000
-23.571400 0.000000
-23.545000 0.000000
-23.518600 0.000000
-23.492200 0.000000
-23.465800 0.000000
-23.439400 0.000000
-23.413000 0.000000
-23.386600 0.000000
-23.360200 0.000000
-23.333800 0.000000
-23.307400 0.000000
-23.281000 0.000000
-23.254600 0.000000
-23.228100 0.000000
-23.201700 0.000000
-23.175300 0.000000
-23.148900 0.000000
-23.122500 0.000000
-23.096100 0.000000
-23.069700 0.000000
-23.043300 0.000000
-23.016900 0.000000
-22.990500 0.000000
-22.964100 0.000000
-22.937700 0.000000
-22.911300 0.000000
-22.884800 0.000000
-22.858400 0.000000
-22.832000 0.000000
-22.805600 0.000000
-22.779200 0.000000
-22.752800 0.000000
-22.726400 0.000000
-22.700000 0.000000
-22.673600 0.000000
-22.647200 0.000000
-22.620800 0.000000
-22.594400 0.000000
-22.568000 0.000000
-22.541500 0.000000
-22.515100 0.000000
-22.488700 0.000500
-22.462300 0.013100
-22.435900 0.200100
-22.409500 1.805200
-22.383100 9.639900
-22.356700 30.525900
-22.330300 57.386700
-22.303900 64.066900
-22.277500 42.451000
-22.251100 16.670900
-22.224700 3.871800
-22.198200 0.530400
-22.171800 0.042700
-22.145400 0.002000
-22.119000 0.000100
-22.092600 0.000000
-22.066200 0.000000
-22.039800 0.000000
-22.013400 0.000000
-21.987000 0.000000
-21.960600 0.000000
-21.934200 0.000000
-21.907800 0.000000
-21.881400 0.000000
-21.855000 0.000000
-21.828500 0.000000
-21.802100 0.000000
-21.775700 0.000000
-21.749300 0.000000
-21.722900 0.000000
-21.696500 0.000000
-21.670100 0.000000
-21.643700 0.000000
-21.617300 0.000000
-21.590900 0.000000
-21.564500 0.000000
-21.538100 0.000000
-21.511700 0.000000
-21.485200 0.000000
-21.458800 0.000000
-21.432400 0.000000
-21.406000 0.000000
-21.379600 0.000000
-21.353200 0.000000
-21.326800 0.000000
-21.300400 0.000000
-21.274000 0.000000
-21.247600 0.000000
-21.221200 0.000000
-21.194800 0.000000
-21.168400 0.000000
-21.141900 0.000000
-21.115500 0.000000
-21.089100 0.000000
-21.062700 0.000000
-21.036300 0.000000
-21.009900 0.000000
-20.983500 0.000000
-20.957100 0.000000
-20.930700 0.000000
-20.904300 0.000000
-20.877900 0.000000
-20.851500 0.000000
-20.825100 0.000000
-20.798600 0.000000
-20.772200 0.000000
-20.745800 0.000000
-20.719400 0.000000
-20.693000 0.000000
-20.666600 0.000000
-20.640200 0.000000
-20.613800 0.000000
-20.587400 0.000000
-20.561000 0.000000
-20.534600 0.000000
-20.508200 0.000000
-20.481800 0.000000
-20.455300 0.000000
-20.428900 0.000000
-20.402500 0.000000
-20.376100 0.000000
-20.349700 0.000000
-20.323300 0.000000
-20.296900 0.000000
-20.270500 0.000000
-20.244100 0.000000
-20.217700 0.000000
-20.191300 0.000000
-20.164900 0.000000
-20.138500 0.000000
-20.112000 0.000000
-20.085600 0.000000
-20.059200 0.000000
-20.032800 0.000000
-20.006400 0.000000
-19.980000 0.000000
-19.953600 0.000000
-19.927200 0.000000
-19.900800 0.000000
-19.874400 0.000000
-19.848000 0.000000
-19.821600 0.000000
-19.795200 0.000000
-19.768800 0.000000
-19.742300 0.000000
-19.715900 0.000000
-19.689500 0.000000
-19.663100 0.000000
-19.636700 0.000000
-19.610300 0.000000
-19.583900 0.000000
-19.557500 0.000000
-19.531100 0.000000
-19.504700 0.000000
-19.478300 0.000000
-19.451900 0.000000
-19.425500 0.000000
-19.399000 0.000000
-19.372600 0.000000
-19.346200 0.000000
-19.319800 0.000000
-19.293400 0.000000
-19.267000 0.000000
-19.240600 0.000000
-19.214200 0.000000
-19.187800 0.000000
-19.161400 0.000000
-19.135000 0.000000
-19.108600 0.000000
-19.082200 0.000000
-19.055700 0.000000
-19.029300 0.000000
-19.002900 0.000000
-18.976500 0.000000
-18.950100 0.000000
-18.923700 0.000000
-18.897300 0.000000
-18.870900 0.000000
-18.844500 0.000000
-18.818100 0.000000
-18.791700 0.000000
-18.765300 0.000000
-18.738900 0.000000
-18.712400 0.000000
-18.686000 0.000000
-18.659600 0.000000
-18.633200 0.000000
-18.606800 0.000000
-18.580400 0.000000
-18.554000 0.000000
-18.527600 0.000000
-18.501200 0.000000
-18.474800 0.000000
-18.448400 0.000000
-18.422000 0.000000
-18.395600 0.000000
-18.369100 0.000000
-18.342700 0.000000
-18.316300 0.000000
-18.289900 0.000000
-18.263500 0.000000
-18.237100 0.000000
-18.210700 0.000000
-18.184300 0.000000
-18.157900 0.000000
-18.131500 0.000000
-18.105100 0.000000
-18.078700 0.000000
-18.052300 0.000000
-18.025800 0.000000
-17.999400 0.000000
-17.973000 0.000000
-17.946600 0.000000
-17.920200 0.000000
-17.893800 0.000000
-17.867400 0.000000
-17.841000 0.000000
-17.814600 0.000000
-17.788200 0.000000
-17.761800 0.000000
-17.735400 0.000000
-17.709000 0.000000
-17.682600 0.000000
-17.656100 0.000000
-17.629700 0.000000
-17.603300 0.000000
-17.576900 0.000000
-17.550500 0.000000
-17.524100 0.000000
-17.497700 0.000000
-17.471300 0.000000
-17.444900 0.000000
-17.418500 0.000000
-17.392100 0.000000
-17.365700 0.000000
-17.339300 0.000000
-17.312800 0.000000
-17.286400 0.000000
-17.260000 0.000000
-17.233600 0.000000
-17.207200 0.000000
-17.180800 0.000000
-17.154400 0.000000
-17.128000 0.000000
-17.101600 0.000000
-17.075200 0.000000
-17.048800 0.000000
-17.022400 0.000000
-16.996000 0.000000
-16.969500 0.000000
-16.943100 0.000000
-16.916700 0.000000
-16.890300 0.000000
-16.863900 0.000000
-16.837500 0.000000
-16.811100 0.000000
-16.784700 0.000000
-16.758300 0.000000
-16.731900 0.000000
-16.705500 0.000000
-16.679100 0.000000
-16.652700 0.000000
-16.626200 0.000000
-16.599800 0.000000
-16.573400 0.000000
-16.547000 0.000000
-16.520600 0.000000
-16.494200 0.000000
-16.467800 0.000000
-16.441400 0.000000
-16.415000 0.000000
-16.388600 0.000000
-16.362200 0.000000
-16.335800 0.000000
-16.309400 0.000000
-16.282900 0.000000
-16.256500 0.000000
-16.230100 0.000000
-16.203700 0.000000
-16.177300 0.000000
-16.150900 0.000000
-16.124500 0.000000
-16.098100 0.000000
-16.071700 0.000000
-16.045300 0.000000
-16.018900 0.000000
-15.992500 0.000000
-15.966100 0.000000
-15.939700 0.000000
-15.913200 0.000000
-15.886800 0.000000
-15.860400 0.000000
-15.834000 0.000000
-15.807600 0.000000
-15.781200 0.000000
-15.754800 0.000000
-15.728400 0.000000
-15.702000 0.000000
-15.675600 0.000000
-15.649200 0.000000
-15.622800 0.000000
-15.596400 0.000000
-15.569900 0.000000
-15.543500 0.000000
-15.517100 0.000000
-15.490700 0.000000
-15.464300 0.000000
-15.437900 0.000000
-15.411500 0.000000
-15.385100 0.000000
-15.358700 0.000000
-15.332300 0.000000
-15.305900 0.000000
-15.279500 0.000000
-15.253100 0.000000
-15.226600 0.000000
-15.200200 0.000000
-15.173800 0.000000
-15.147400 0.000000
-15.121000 0.000000
-15.094600 0.000000
-15.068200 0.000000
-15.041800 0.000000
-15.015400 0.000000
-14.989000 0.000000
-14.962600 0.000000
-14.936200 0.000000
-14.909800 0.000000
-14.883300 0.000000
-14.856900 0.000000
-14.830500 0.000000
-14.804100 0.000000
-14.777700 0.000000
-14.751300 0.000000
-14.724900 0.000000
-14.698500 0.000000
-14.672100 0.000000
-14.645700 0.000000
-14.619300 0.000000
-14.592900 0.000000
-14.566500 0.000000
-14.540000 0.000000
-14.513600 0.000000
-14.487200 0.000000
-14.460800 0.000000
-14.434400 0.000000
-14.408000 0.000000
-14.381600 0.000000
-14.355200 0.000000
-14.328800 0.000000
-14.302400 0.000000
-14.276000 0.000000
-14.249600 0.000000
-14.223200 0.000000
-14.196700 0.000000
-14.170300 0.000000
-14.143900 0.000000
-14.117500 0.000000
-14.091100 0.000000
-14.064700 0.000000
-14.038300 0.000000
-14.011900 0.000000
-13.985500 0.000000
-13.959100 0.000000
-13.932700 0.000000
-13.906300 0.000000
-13.879900 0.000000
-13.853500 0.000000
-13.827000 0.000000
-13.800600 0.000000
-13.774200 0.000000
-13.747800 0.000000
-13.721400 0.000000
-13.695000 0.000000
-13.668600 0.000000
-13.642200 0.000000
-13.615800 0.000000
-13.589400 0.000000
-13.563000 0.000000
-13.536600 0.000000
-13.510200 0.000000
-13.483700 0.000000
-13.457300 0.000000
-13.430900 0.000000
-13.404500 0.000000
-13.378100 0.000000
-13.351700 0.000000
-13.325300 0.000000
-13.298900 0.000000
-13.272500 0.000000
-13.246100 0.000000
-13.219700 0.000000
-13.193300 0.000000
-13.166900 0.000000
-13.140400 0.000000
-13.114000 0.000000
-13.087600 0.000000
-13.061200 0.000000
-13.034800 0.000000
-13.008400 0.000000
-12.982000 0.000000
-12.955600 0.000000
-12.929200 0.000000
-12.902800 0.000000
-12.876400 0.000000
-12.850000 0.000000
-12.823600 0.000000
-12.797100 0.000000
-12.770700 0.000000
-12.744300 0.000000
-12.717900 0.000000
-12.691500 0.000000
-12.665100 0.000000
-12.638700 0.000000
-12.612300 0.000000
-12.585900 0.000000
-12.559500 0.000000
-12.533100 0.000000
-12.506700 0.000000
-12.480300 0.000000
-12.453800 0.000000
-12.427400 0.000000
-12.401000 0.000000
-12.374600 0.000000
-12.348200 0.000000
-12.321800 0.000000
-12.295400 0.000000
-12.269000 0.000000
-12.242600 0.000000
-12.216200 0.000000
-12.189800 0.000000
-12.163400 0.000000
-12.137000 0.000000
-12.110600 0.000000
-12.084100 0.000000
-12.057700 0.000000
-12.031300 0.000000
-12.004900 0.000000
-11.978500 0.000000
-11.952100 0.000000
-11.925700 0.000000
-11.899300 0.000000
-11.872900 0.000000
-11.846500 0.000000
-11.820100 0.000000
-11.793700 0.000000
-11.767300 0.000000
-11.740800 0.000000
-11.714400 0.000000
-11.688000 0.000000
-11.661600 0.000000
-11.635200 0.000000
-11.608800 0.000000
-11.582400 0.000000
-11.556000 0.000000
-11.529600 0.000000
-11.503200 0.000000
-11.476800 0.000000
-11.450400 0.000000
-11.424000 0.000000
-11.397500 0.000000
-11.371100 0.000000
-11.344700 0.000000
-11.318300 0.000000
-11.291900 0.000000
-11.265500 0.000000
-11.239100 0.000000
-11.212700 0.000000
-11.186300 0.000000
-11.159900 0.000000
-11.133500 0.000000
-11.107100 0.000000
-11.080700 0.000000
-11.054200 0.000000
-11.027800 0.000000
-11.001400 0.000000
-10.975000 0.000000
-10.948600 0.000000
-10.922200 0.000000
-10.895800 0.000000
-10.869400 0.000000
-10.843000 0.000000
-10.816600 0.000000
-10.790200 0.000000
-10.763800 0.000000
-10.737400 0.000000
-10.710900 0.000000
-10.684500 0.000000
-10.658100 0.000000
-10.631700 0.000000
-10.605300 0.000000
-10.578900 0.000000
-10.552500 0.000000
-10.526100 0.000000
-10.499700 0.000000
-10.473300 0.000000
-10.446900 0.000000
-10.420500 0.000000
-10.394100 0.000000
-10.367600 0.000000
-10.341200 0.000000
-10.314800 0.000000
-10.288400 0.000000
-10.262000 0.000000
-10.235600 0.000000
-10.209200 0.000000
-10.182800 0.000000
-10.156400 0.000000
-10.130000 0.000000
-10.103600 0.000000
-10.077200 0.000000
-10.050800 0.000000
-10.024400 0.000000
-9.997900 0.000000
-9.971500 0.000000
-9.945100 0.000000
-9.918700 0.000000
-9.892300 0.000000
-9.865900 0.000000
-9.839500 0.000000
-9.813100 0.000000
-9.786700 0.000000
-9.760300 0.000000
-9.733900 0.000000
-9.707500 0.000000
-9.681100 0.000000
-9.654600 0.000000
-9.628200 0.000000
-9.601800 0.000000
-9.575400 0.000000
-9.549000 0.000000
-9.522600 0.000000
-9.496200 0.000000
-9.469800 0.000000
-9.443400 0.000000
-9.417000 0.000000
-9.390600 0.000000
-9.364200 0.000000
-9.337800 0.000000
-9.311300 0.000000
-9.284900 0.000000
-9.258500 0.000000
-9.232100 0.000000
-9.205700 0.000000
-9.179300 0.000000
-9.152900 0.000000
-9.126500 0.000000
-9.100100 0.000000
-9.073700 0.000000
-9.047300 0.000000
-9.020900 0.000000
-8.994500 0.000000
-8.968000 0.000000
-8.941600 0.000000
-8.915200 0.000000
-8.888800 0.000000
-8.862400 0.000000
-8.836000 0.000000
-8.809600 0.000000
-8.783200 0.000000
-8.756800 0.000000
-8.730400 0.000000
-8.704000 0.000000
-8.677600 0.000000
-8.651200 0.000000
-8.624700 0.000000
-8.598300 0.000000
-8.571900 0.000000
-8.545500 0.000000
-8.519100 0.000000
-8.492700 0.000000
-8.466300 0.000000
-8.439900 0.000000
-8.413500 0.000000
-8.387100 0.000000
-8.360700 0.000000
-8.334300 0.000000
-8.307900 0.000000
-8.281500 0.000000
-8.255000 0.000000
-8.228600 0.000000
-8.202200 0.000000
-8.175800 0.000000
-8.149400 0.000000
-8.123000 0.000000
-8.096600 0.000000
-8.070200 0.000000
-8.043800 0.000000
-8.017400 0.000000
-7.991000 0.000000
-7.964600 0.000000
-7.938200 0.000000
-7.911700 0.000000
-7.885300 0.000000
-7.858900 0.000000
-7.832500 0.000000
-7.806100 0.000000
-7.779700 0.000000
-7.753300 0.000000
-7.726900 0.000000
-7.700500 0.000000
-7.674100 0.000000
-7.647700 0.000000
-7.621300 0.000000
-7.594900 0.000000
-7.568400 0.000000
-7.542000 0.000000
-7.515600 0.000000
-7.489200 0.000000
-7.462800 0.000000
-7.436400 0.000000
-7.410000 0.000000
-7.383600 0.000000
-7.357200 0.000000
-7.330800 0.000800
-7.304400 0.010800
-7.278000 0.090000
-7.251600 0.489100
-7.225100 1.786600
-7.198700 4.580100
-7.172300 8.815500
-7.145900 13.897800
-7.119500 19.481000
-7.093100 25.252600
-7.066700 30.115800
-7.040300 32.990600
-7.013900 33.983100
-6.987500 34.053200
-6.961100 34.547100
-6.934700 35.955600
-6.908300 36.855400
-6.881800 35.951800
-6.855400 34.153000
-6.829000 32.531900
-6.802600 30.617300
-6.776200 28.506400
-6.749800 27.341900
-6.723400 27.243700
-6.697000 27.426400
-6.670600 28.327300
-6.644200 31.610000
-6.617800 36.765400
-6.591400 40.876400
-6.565000 42.051600
-6.538500 40.909500
-6.512100 39.084700
-6.485700 36.620200
-6.459300 32.983900
-6.432900 29.904700
-6.406500 29.169000
-6.380100 29.770600
-6.353700 29.581500
-6.327300 28.043400
-6.300900 26.566800
-6.274500 25.375700
-6.248100 21.788600
-6.221700 14.961100
-6.195300 8.188400
-6.168800 3.976400
-6.142400 1.832700
-6.116000 0.719100
-6.089600 0.207000
-6.063200 0.040200
-6.036800 0.005000
-6.010400 0.000400
-5.984000 0.000000
-5.957600 0.000000
-5.931200 0.000000
-5.904800 0.000000
-5.878400 0.000000
-5.852000 0.000000
-5.825500 0.000000
-5.799100 0.000000
-5.772700 0.000000
-5.746300 0.000000
-5.719900 0.000000
-5.693500 0.000000
-5.667100 0.000000
-5.640700 0.000000
-5.614300 0.000000
-5.587900 0.000000
-5.561500 0.000000
-5.535100 0.000000
-5.508700 0.000000
-5.482200 0.000000
-5.455800 0.000000
-5.429400 0.000000
-5.403000 0.000300
-5.376600 0.002600
-5.350200 0.011700
-5.323800 0.032500
-5.297400 0.061100
-5.271000 0.089500
-5.244600 0.112800
-5.218200 0.138300
-5.191800 0.211500
-5.165400 0.336100
-5.138900 0.384600
-5.112500 0.277200
-5.086100 0.125100
-5.059700 0.057100
-5.033300 0.108800
-5.006900 0.262000
-4.980500 0.422600
-4.954100 0.497100
-4.927700 0.495100
-4.901300 0.453500
-4.874900 0.456200
-4.848500 0.543800
-4.822100 0.549900
-4.795600 0.372900
-4.769200 0.161400
-4.742800 0.061500
-4.716400 0.094600
-4.690000 0.239100
-4.663600 0.418000
-4.637200 0.537600
-4.610800 0.583200
-4.584400 0.571300
-4.558000 0.623700
-4.531600 0.865500
-4.505200 1.040400
-4.478800 0.826300
-4.452400 0.406300
-4.425900 0.138700
-4.399500 0.110600
-4.373100 0.251800
-4.346700 0.435300
-4.320300 0.526600
-4.293900 0.525100
-4.267500 0.506600
-4.241100 0.593600
-4.214700 0.861300
-4.188300 1.035700
-4.161900 0.818400
-4.135500 0.405500
-4.109100 0.151200
-4.082600 0.163100
-4.056200 0.411900
-4.029800 0.773100
-4.003400 1.024400
-3.977000 1.050100
-3.950600 0.900500
-3.924200 0.770000
-3.897800 0.823700
-3.871400 0.869900
-3.845000 0.660400
-3.818600 0.337000
-3.792200 0.157500
-3.765800 0.192000
-3.739300 0.435300
-3.712900 0.801700
-3.686500 1.077500
-3.660100 1.138300
-3.633700 1.010400
-3.607300 0.885800
-3.580900 1.045100
-3.554500 1.330700
-3.528100 1.224800
-3.501700 0.747900
-3.475300 0.377900
-3.448900 0.250000
-3.422500 0.239800
-3.396000 0.320800
-3.369600 0.465700
-3.343200 0.598900
-3.316800 0.759600
-3.290400 1.091800
-3.264000 1.509500
-3.237600 1.581300
-3.211200 1.141000
-3.184800 0.643900
-3.158400 0.540900
-3.132000 0.741200
-3.105600 0.863500
-3.079200 0.815800
-3.052700 0.885600
-3.026300 1.170200
-2.999900 1.389600
-2.973500 1.324600
-2.947100 1.019200
-2.920700 0.658800
-2.894300 0.376400
-2.867900 0.243900
-2.841500 0.386600
-2.815100 0.806600
-2.788700 1.136500
-2.762300 1.031500
-2.735900 0.689900
-2.709400 0.473400
-2.683000 0.488500
-2.656600 0.691300
-2.630200 0.944900
-2.603800 1.016700
-2.577400 0.817000
-2.551000 0.568300
-2.524600 0.516200
-2.498200 0.661300
-2.471800 0.852900
-2.445400 0.932500
-2.419000 0.892000
-2.392600 0.928600
-2.366200 1.065200
-2.339700 1.062500
-2.313300 0.921100
-2.286900 0.835500
-2.260500 0.840500
-2.234100 0.851200
-2.207700 0.851200
-2.181300 0.914300
-2.154900 0.980100
-2.128500 0.942900
-2.102100 0.880800
-2.075700 0.967700
-2.049300 1.333600
-2.022900 1.761200
-1.996400 1.738500
-1.970000 1.233300
-1.943600 0.837500
-1.917200 0.968000
-1.890800 1.353700
-1.864400 1.424500
-1.838000 1.068600
-1.811600 0.659300
-1.785200 0.439100
-1.758800 0.354600
-1.732400 0.368300
-1.706000 0.546400
-1.679600 0.807300
-1.653100 0.933900
-1.626700 0.983400
-1.600300 1.170900
-1.573900 1.386900
-1.547500 1.441700
-1.521100 1.450000
-1.494700 1.440800
-1.468300 1.267200
-1.441900 1.026300
-1.415500 0.819800
-1.389100 0.640000
-1.362700 0.609000
-1.336300 0.707800
-1.309800 0.682800
-1.283400 0.498600
-1.257000 0.387200
-1.230600 0.465900
-1.204200 0.678200
-1.177800 0.866300
-1.151400 0.881800
-1.125000 0.823100
-1.098600 0.869100
-1.072200 0.978000
-1.045800 1.072800
-1.019400 1.130300
-0.993000 1.103800
-0.966500 1.171300
-0.940100 1.519800
-0.913700 1.853200
-0.887300 1.815400
-0.860900 1.553400
-0.834500 1.316900
-0.808100 1.159000
-0.781700 1.151300
-0.755300 1.288900
-0.728900 1.330000
-0.702500 1.051100
-0.676100 0.636800
-0.649700 0.475300
-0.623300 0.676000
-0.596800 1.059300
-0.570400 1.315500
-0.544000 1.246200
-0.517600 1.035300
-0.491200 1.009600
-0.464800 1.242700
-0.438400 1.494800
-0.412000 1.497300
-0.385600 1.255800
-0.359200 0.976600
-0.332800 0.897700
-0.306400 1.088000
-0.280000 1.371700
-0.253500 1.545300
-0.227100 1.493800
-0.200700 1.249300
-0.174300 0.917500
-0.147900 0.572100
-0.121500 0.352000
-0.095100 0.391600
-0.068700 0.737400
-0.042300 1.330900
-0.015900 1.821400
0.010500 1.843600
0.036900 1.537000
0.063300 1.305000
0.089800 1.338900
0.116200 1.522800
0.142600 1.653200
0.169000 1.598300
0.195400 1.306900
0.221800 0.922200
0.248200 0.622300
0.274600 0.459400
0.301000 0.435100
0.327400 0.549100
0.353800 0.823000
0.380200 1.179700
0.406600 1.441200
0.433100 1.507300
0.459500 1.425500
0.485900 1.346700
0.512300 1.372600
0.538700 1.383200
0.565100 1.208300
0.591500 0.934100
0.617900 0.729400
0.644300 0.695100
0.670700 0.948800
0.697100 1.418100
0.723500 1.708000
0.749900 1.588000
0.776400 1.275000
0.802800 1.026800
0.829200 0.987700
0.855600 1.304500
0.882000 1.971000
0.908400 2.593700
0.934800 2.586200
0.961200 1.917000
0.987600 1.243900
1.014000 0.981000
1.040400 0.943900
1.066800 0.938900
1.093200 1.033000
1.119700 1.219400
1.146100 1.284400
1.172500 1.115400
1.198900 0.811700
1.225300 0.590200
1.251700 0.605800
1.278100 0.833400
1.304500 1.195300
1.330900 1.639000
1.357300 1.972100
1.383700 1.927100
1.410100 1.682900
1.436500 1.709300
1.462900 1.958300
1.489400 2.115300
1.515800 2.179900
1.542200 2.066900
1.568600 1.644800
1.595000 1.214400
1.621400 1.068900
1.647800 1.050900
1.674200 0.931900
1.700600 0.784400
1.727000 0.859000
1.753400 1.268100
1.779800 1.693200
1.806200 1.697600
1.832700 1.362600
1.859100 1.075200
1.885500 0.999800
1.911900 1.036700
1.938300 1.040100
1.964700 1.046400
1.991100 1.217600
2.017500 1.571500
2.043900 2.032900
2.070300 2.421900
2.096700 2.390700
2.123100 1.854900
2.149500 1.256400
2.176000 1.005800
2.202400 1.047600
2.228800 1.167200
2.255200 1.294700
2.281600 1.424700
2.308000 1.536500
2.334400 1.732600
2.360800 2.138000
2.387200 2.504900
2.413600 2.359700
2.440000 1.710600
2.466400 1.162600
2.492800 1.107500
2.519300 1.273300
2.545700 1.262900
2.572100 1.078700
2.598500 0.953200
2.624900 0.953300
2.651300 1.084100
2.677700 1.451300
2.704100 1.925400
2.730500 2.189500
2.756900 2.125600
2.783300 1.736400
2.809700 1.186000
2.836100 0.895900
2.862600 1.097700
2.889000 1.572400
2.915400 1.855300
2.941800 1.661900
2.968200 1.280500
2.994600 1.198600
3.021000 1.429700
3.047400 1.651600
3.073800 1.720900
3.100200 1.689300
3.126600 1.529800
3.153000 1.297600
3.179400 1.193700
3.205800 1.205800
3.232300 1.234000
3.258700 1.334100
3.285100 1.465600
3.311500 1.405300
3.337900 1.233300
3.364300 1.383900
3.390700 2.026900
3.417100 2.741900
3.443500 2.902100
3.469900 2.431100
3.496300 1.932900
3.522700 1.793000
3.549100 1.713700
3.575600 1.463600
3.602000 1.209300
3.628400 1.055500
3.654800 1.018100
3.681200 1.234900
3.707600 1.690300
3.734000 2.018200
3.760400 1.963200
3.786800 1.611000
3.813200 1.202000
3.839600 1.074000
3.866000 1.246000
3.892400 1.270100
3.918900 1.011800
3.945300 0.896400
3.971700 1.260900
3.998100 1.888600
4.024500 2.147000
4.050900 1.817100
4.077300 1.356100
4.103700 1.122400
4.130100 1.144000
4.156500 1.338200
4.182900 1.514900
4.209300 1.571500
4.235700 1.707500
4.262200 2.019700
4.288600 2.113500
4.315000 1.721500
4.341400 1.213700
4.367800 1.093400
4.394200 1.415300
4.420600 1.744500
4.447000 1.656300
4.473400 1.268100
4.499800 0.941500
4.526200 0.789500
4.552600 0.851600
4.579000 1.189500
4.605500 1.654200
4.631900 1.967300
4.658300 2.099100
4.684700 2.247300
4.711100 2.430300
4.737500 2.436400
4.763900 2.121100
4.790300 1.541600
4.816700 0.961200
4.843100 0.763200
4.869500 1.071500
4.895900 1.548800
4.922300 1.835000
4.948800 1.962100
4.975200 2.070100
5.001600 2.037100
5.028000 1.796800
5.054400 1.546900
5.080800 1.480800
5.107200 1.653600
5.133600 1.820700
5.160000 1.743600
5.186400 1.548400
5.212800 1.389400
5.239200 1.361900
5.265600 1.526800
5.292000 1.790600
5.318500 2.017100
5.344900 2.029800
5.371300 1.714400
5.397700 1.268000
5.424100 1.000600
5.450500 0.959700
5.476900 1.042400
5.503300 1.320100
5.529700 1.922100
5.556100 2.682000
5.582500 3.100800
5.608900 2.903700
5.635300 2.374600
5.661800 1.926200
5.688200 1.812600
5.714600 1.964400
5.741000 1.914500
5.767400 1.514700
5.793800 1.223700
5.820200 1.251400
5.846600 1.289900
5.873000 1.159000
5.899400 1.026600
5.925800 1.055500
5.952200 1.245000
5.978600 1.600500
6.005100 2.057200
6.031500 2.429000
6.057900 2.578500
6.084300 2.380200
6.110700 1.901000
6.137100 1.541100
6.163500 1.558000
6.189900 1.767300
6.216300 1.868000
6.242700 1.856100
6.269100 1.940700
6.295500 2.214000
6.321900 2.597900
6.348400 2.762100
6.374800 2.455100
6.401200 1.979900
6.427600 1.681500
6.454000 1.463100
6.480400 1.248500
6.506800 1.265300
6.533200 1.517400
6.559600 1.630800
6.586000 1.477700
6.612400 1.270100
6.638800 1.147800
6.665200 1.275900
6.691700 1.758100
6.718100 2.377400
6.744500 2.779100
6.770900 2.680600
6.797300 2.066400
6.823700 1.396400
6.850100 1.173900
6.876500 1.390800
6.902900 1.769500
6.929300 2.136200
6.955700 2.518600
6.982100 2.895300
7.008500 2.920400
7.034900 2.558600
7.061400 2.252800
7.087800 2.048600
7.114200 1.840400
7.140600 1.859700
7.167000 2.123600
7.193400 2.372800
7.219800 2.388500
7.246200 2.089900
7.272600 1.845300
7.299000 2.079000
7.325400 2.606500
7.351800 2.874700
7.378200 2.571800
7.404700 1.995500
7.431100 1.652300
7.457500 1.692100
7.483900 1.932100
7.510300 2.044000
7.536700 1.872400
7.563100 1.521300
7.589500 1.224000
7.615900 1.249500
7.642300 1.700600
7.668700 2.466300
7.695100 3.063900
7.721500 2.938800
7.748000 2.359100
7.774400 1.978900
7.800800 1.875100
7.827200 1.870600
7.853600 1.876800
7.880000 1.914300
7.906400 2.145000
7.932800 2.455400
7.959200 2.584800
7.985600 2.559300
8.012000 2.323100
8.038400 1.881500
8.064800 1.658500
8.091300 1.907500
8.117700 2.293900
8.144100 2.411700
8.170500 2.497700
8.196900 2.895200
8.223300 3.253000
8.249700 3.153400
8.276100 2.749400
8.302500 2.400500
8.328900 2.163800
8.355300 1.954400
8.381700 1.893800
8.408100 2.098800
8.434600 2.431700
8.461000 2.656900
8.487400 2.642500
8.513800 2.327400
8.540200 1.844000
8.566600 1.566900
8.593000 1.757600
8.619400 2.322900
8.645800 2.926900
8.672200 3.247600
8.698600 3.134200
8.725000 2.717100
8.751400 2.407800
8.777900 2.586400
8.804300 3.158800
8.830700 3.619700
8.857100 3.652800
8.883500 3.201700
8.909900 2.393400
8.936300 1.746000
8.962700 1.598900
8.989100 1.643700
9.015500 1.550300
9.041900 1.412300
9.068300 1.353700
9.094700 1.331200
9.121100 1.486000
9.147600 2.021700
9.174000 2.619100
9.200400 2.755900
9.226800 2.514500
9.253200 2.361500
9.279600 2.467300
9.306000 2.586600
9.332400 2.484000
9.358800 2.459900
9.385200 2.968200
9.411600 3.724900
9.438000 3.977400
9.464400 3.567100
9.490900 2.990500
9.517300 2.562400
9.543700 2.141500
9.570100 1.603800
9.596500 1.107500
9.622900 0.917900
9.649300 1.133300
9.675700 1.522200
9.702100 1.741800
9.728500 1.748700
9.754900 1.789800
9.781300 2.109300
9.807700 2.755600
9.834200 3.488300
9.860600 3.928100
9.887000 3.928500
9.913400 3.542900
9.939800 2.864800
9.966200 2.216800
9.992600 1.990200
10.019000 2.204600
10.045400 2.620800
10.071800 3.001600
10.098200 3.060100
10.124600 2.711700
10.151000 2.297400
10.177500 2.048600
10.203900 1.783100
10.230300 1.465400
10.256700 1.459000
10.283100 1.890600
10.309500 2.281600
10.335900 2.204300
10.362300 1.824900
10.388700 1.406100
10.415100 1.095500
10.441500 1.165800
10.467900 1.639800
10.494300 2.049800
10.520800 2.050400
10.547200 1.830300
10.573600 1.768800
10.600000 1.997300
10.626400 2.318100
10.652800 2.489500
10.679200 2.435200
10.705600 2.203000
10.732000 1.891200
10.758400 1.651100
10.784800 1.543200
10.811200 1.561100
10.837600 1.995700
10.864000 2.988500
10.890500 3.893800
10.916900 4.001200
10.943300 3.414200
10.969700 2.755200
10.996100 2.401500
11.022500 2.188600
11.048900 1.860800
11.075300 1.559400
11.101700 1.422800
11.128100 1.316000
11.154500 1.352700
11.180900 1.732500
11.207300 2.167300
11.233800 2.336300
11.260200 2.359100
11.286600 2.419200
11.313000 2.531900
11.339400 2.574700
11.365800 2.465800
11.392200 2.394700
11.418600 2.594800
11.445000 2.974600
11.471400 3.049600
11.497800 2.445600
11.524200 1.632500
11.550600 1.460900
11.577100 1.991800
11.603500 2.513800
11.629900 2.587800
11.656300 2.526900
11.682700 2.682000
11.709100 2.742500
11.735500 2.365600
11.761900 1.875100
11.788300 1.684300
11.814700 1.841300
11.841100 2.170400
11.867500 2.481800
11.893900 2.764700
11.920400 2.984100
11.946800 2.863000
11.973200 2.288600
11.999600 1.587600
12.026000 1.232000
12.052400 1.431900
12.078800 2.013800
12.105200 2.492900
12.131600 2.345800
12.158000 1.740400
12.184400 1.375000
12.210800 1.494200
12.237200 1.872500
12.263700 2.352600
12.290100 2.844800
12.316500 3.048600
12.342900 2.839100
12.369300 2.649100
12.395700 2.712200
12.422100 2.734300
12.448500 2.616400
12.474900 2.501000
12.501300 2.381400
12.527700 2.242300
12.554100 2.112800
12.580500 1.986200
12.607000 1.922400
12.633400 2.035000
12.659800 2.298500
12.686200 2.600200
12.712600 2.882800
12.739000 3.068700
12.765400 3.062500
12.791800 2.709500
12.818200 2.076700
12.844600 1.668500
12.871000 1.699200
12.897400 1.806400
12.923800 1.745400
12.950200 1.699800
12.976700 1.765000
13.003100 1.772000
13.029500 1.778800
13.055900 2.008100
13.082300 2.439900
13.108700 3.096800
13.135100 4.000800
13.161500 4.709900
13.187900 4.923600
13.214300 4.876900
13.240700 4.489200
13.267100 3.527700
13.293500 2.376700
13.320000 1.565700
13.346400 1.175800
13.372800 1.009700
13.399200 1.085400
13.425600 1.591900
13.452000 2.365700
13.478400 2.864600
13.504800 2.823300
13.531200 2.556700
13.557600 2.481500
13.584000 2.584600
13.610400 2.470300
13.636800 2.100700
13.663300 1.953100
13.689700 2.146500
13.716100 2.237900
13.742500 2.116300
13.768900 2.312000
13.795300 3.032600
13.821700 3.663700
13.848100 3.722400
13.874500 3.506200
13.900900 3.247100
13.927300 2.884400
13.953700 2.769600
13.980100 3.055000
14.006600 3.343300
14.033000 3.437800
14.059400 3.390500
14.085800 3.346300
14.112200 3.337300
14.138600 3.264300
14.165000 3.248800
14.191400 3.360300
14.217800 3.453500
14.244200 3.396700
14.270600 3.130500
14.297000 2.688700
14.323400 2.207100
14.349900 1.864400
14.376300 1.768900
14.402700 2.017500
14.429100 2.544300
14.455500 2.845400
14.481900 2.679400
14.508300 2.404000
14.534700 2.266700
14.561100 2.378200
14.587500 2.861800
14.613900 3.516100
14.640300 3.879400
14.666700 3.805600
14.693100 3.625900
14.719600 3.565500
14.746000 3.378600
14.772400 2.938900
14.798800 2.682800
14.825200 3.083600
14.851600 3.964800
14.878000 4.529100
14.904400 4.302300
14.930800 3.678600
14.957200 3.360200
14.983600 3.651500
15.010000 4.033300
15.036400 3.853300
15.062900 3.298000
15.089300 2.795700
15.115700 2.435300
15.142100 2.382600
15.168500 2.754300
15.194900 3.302500
15.221300 3.746200
15.247700 4.044500
15.274100 4.251900
15.300500 4.347000
15.326900 4.185600
15.353300 3.637000
15.379700 2.857600
15.406200 2.160100
15.432600 1.808100
15.459000 2.085700
15.485400 2.866000
15.511800 3.538800
15.538200 3.791500
15.564600 3.733100
15.591000 3.549900
15.617400 3.314100
15.643800 2.940600
15.670200 2.626400
15.696600 2.776800
15.723000 3.180100
15.749500 3.261800
15.775900 3.057300
15.802300 3.064500
15.828700 3.479800
15.855100 3.989600
15.881500 4.050800
15.907900 3.469900
15.934300 2.892400
15.960700 3.005700
15.987100 3.454300
16.013500 3.437500
16.039900 3.035600
16.066300 3.000000
16.092800 3.586500
16.119200 4.236700
16.145600 4.242200
16.172000 3.649700
16.198400 2.993000
16.224800 2.515400
16.251200 2.177800
16.277600 1.908900
16.304000 1.795200
16.330400 1.923300
16.356800 2.167900
16.383200 2.447100
16.409600 2.859100
16.436100 3.399700
16.462500 3.692500
16.488900 3.435200
16.515300 2.948900
16.541700 2.667300
16.568100 2.585900
16.594500 2.514300
16.620900 2.357500
16.647300 2.174800
16.673700 2.039600
16.700100 1.947100
16.726500 1.942700
16.752900 1.874000
16.779300 1.480500
16.805800 1.014900
16.832200 0.950100
16.858600 1.336100
16.885000 1.990900
16.911400 2.694800
16.937800 3.112700
16.964200 3.048000
16.990600 2.559300
17.017000 1.883300
17.043400 1.451500
17.069800 1.626900
17.096200 2.239500
17.122600 2.715800
17.149100 2.785500
17.175500 2.655800
17.201900 2.556300
17.228300 2.488000
17.254700 2.403400
17.281100 2.313000
17.307500 2.271200
17.333900 2.384900
17.360300 2.602300
17.386700 2.713600
17.413100 2.733000
17.439500 2.716300
17.465900 2.576100
17.492400 2.477000
17.518800 2.566200
17.545200 2.656900
17.571600 2.693300
17.598000 2.759700
17.624400 2.853300
17.650800 2.892400
17.677200 2.696600
17.703600 2.198300
17.730000 1.678200
17.756400 1.523300
17.782800 1.708700
17.809200 1.957700
17.835700 2.226400
17.862100 2.580400
17.888500 2.968300
17.914900 3.282600
17.941300 3.446700
17.967700 3.401000
17.994100 3.218500
18.020500 3.103000
18.046900 3.034000
18.073300 2.897200
18.099700 2.788900
18.126100 2.883500
18.152500 3.226400
18.179000 3.660700
18.205400 3.920900
18.231800 3.818000
18.258200 3.419600
18.284600 3.073200
18.311000 3.158500
18.337400 3.632900
18.363800 3.938800
18.390200 3.688300
18.416600 3.165900
18.443000 2.765700
18.469400 2.536000
18.495800 2.606400
18.522200 3.037100
18.548700 3.272400
18.575100 3.086800
18.601500 3.109600
18.627900 3.570900
18.654300 4.132500
18.680700 4.617700
18.707100 4.804500
18.733500 4.548600
18.759900 4.068200
18.786300 3.369000
18.812700 2.437200
18.839100 1.809200
18.865500 1.949900
18.892000 2.596200
18.918400 3.154200
18.944800 3.359000
18.971200 3.285200
18.997600 3.103100
19.024000 2.744000
19.050400 2.132200
19.076800 1.814100
19.103200 2.251100
19.129600 3.059900
19.156000 3.711200
19.182400 3.939600
19.208800 3.603000
19.235300 3.107800
19.261700 3.032600
19.288100 3.133600
19.314500 2.788100
19.340900 2.090300
19.367300 1.695900
19.393700 1.914100
19.420100 2.494800
19.446500 2.950400
19.472900 2.954200
19.499300 2.812000
19.525700 3.073700
19.552100 3.653400
19.578600 3.958700
19.605000 3.730900
19.631400 3.390100
19.657800 3.403600
19.684200 3.611200
19.710600 3.534600
19.737000 2.968400
19.763400 2.229000
19.789800 1.900900
19.816200 2.077400
19.842600 2.406700
19.869000 2.749700
19.895400 3.065700
19.921900 3.152900
19.948300 2.996700
19.974700 2.919600
20.001100 3.069200
20.027500 3.218100
20.053900 3.187800
20.080300 3.181600
20.106700 3.501600
20.133100 4.006600
20.159500 4.133500
20.185900 3.629800
20.212300 2.938900
20.238700 2.643600
20.265200 2.781900
20.291600 2.822600
20.318000 2.577800
20.344400 2.533500
20.370800 2.940800
20.397200 3.327700
20.423600 3.198300
20.450000 2.874400
20.476400 2.978800
20.502800 3.478100
20.529200 3.896300
20.555600 3.815700
20.582000 3.205000
20.608400 2.654800
20.634900 2.642800
20.661300 2.817700
20.687700 2.688200
20.714100 2.601800
20.740500 3.106800
20.766900 3.896600
20.793300 4.279200
20.819700 4.104500
20.846100 3.708700
20.872500 3.451100
20.898900 3.658500
20.925300 4.248200
20.951700 4.417900
20.978200 3.681500
21.004600 2.727800
21.031000 2.355600
21.057400 2.504200
21.083800 2.900300
21.110200 3.591100
21.136600 4.319700
21.163000 4.391100
21.189400 3.689000
21.215800 2.875700
21.242200 2.522100
21.268600 2.685300
21.295000 2.990000
21.321500 3.061400
21.347900 3.022600
21.374300 3.106200
21.400700 3.182400
21.427100 3.093500
21.453500 2.908700
21.479900 2.720500
21.506300 2.501400
21.532700 2.193000
21.559100 2.003100
21.585500 2.203000
21.611900 2.622500
21.638300 3.016300
21.664800 3.388100
21.691200 3.694900
21.717600 3.792200
21.744000 3.586700
21.770400 3.282300
21.796800 3.268500
21.823200 3.478900
21.849600 3.559200
21.876000 3.461500
21.902400 3.165900
21.928800 2.615100
21.955200 2.166300
21.981600 2.193100
22.008100 2.510900
22.034500 2.753300
22.060900 2.967300
22.087300 3.320800
22.113700 3.582400
22.140100 3.606300
22.166500 3.594300
22.192900 3.468400
22.219300 3.113400
22.245700 2.920300
22.272100 3.181900
22.298500 3.669600
22.324900 4.028800
22.351400 4.051300
22.377800 3.789600
22.404200 3.504800
22.430600 3.457400
22.457000 3.653200
22.483400 3.764700
22.509800 3.654100
22.536200 3.623600
22.562600 3.783200
22.589000 3.824300
22.615400 3.460000
22.641800 2.787300
22.668200 2.266500
22.694600 2.104100
22.721100 2.073200
22.747500 2.164500
22.773900 2.442900
22.800300 2.459700
22.826700 2.019300
22.853100 1.553400
22.879500 1.280900
22.905900 1.148400
22.932300 1.292800
22.958700 1.873700
22.985100 2.671800
23.011500 3.149200
23.037900 3.074700
23.064400 2.865600
23.090800 2.899600
23.117200 2.790600
23.143600 2.146100
23.170000 1.330000
23.196400 0.791800
23.222800 0.582100
23.249200 0.600300
23.275600 0.762700
23.302000 1.004800
23.328400 1.319100
23.354800 1.689500
23.381200 1.920700
23.407700 1.767600
23.434100 1.324400
23.460500 0.956000
23.486900 0.809100
23.513300 0.760400
23.539700 0.665700
23.566100 0.480500
23.592500 0.329600
23.618900 0.366600
23.645300 0.516100
23.671700 0.586800
23.698100 0.633100
23.724500 0.807600
23.751000 0.963400
23.777400 0.903200
23.803800 0.801600
23.830200 0.931500
23.856600 1.122000
23.883000 1.004600
23.909400 0.648100
23.935800 0.351600
23.962200 0.216400
23.988600 0.196100
24.015000 0.193500
24.041400 0.182900
24.067800 0.270200
24.094300 0.469500
24.120700 0.585200
24.147100 0.512000
24.173500 0.376700
24.199900 0.277900
24.226300 0.233100
24.252700 0.261800
24.279100 0.330800
24.305500 0.390200
24.331900 0.484600
24.358300 0.657200
24.384700 0.796600
24.411100 0.772300
24.437500 0.683600
24.464000 0.742200
24.490400 0.875900
24.516800 0.803800
24.543200 0.552600
24.569600 0.405700
24.596000 0.428100
24.622400 0.449100
24.648800 0.345600
24.675200 0.177100
24.701600 0.074600
24.728000 0.099300
24.754400 0.251800
24.780800 0.442500
24.807300 0.489400
24.833700 0.337300
24.860100 0.143400
24.886500 0.037400
24.912900 0.008400
24.939300 0.013400
24.965700 0.038200
24.992100 0.071000
25.018500 0.087900
25.044900 0.096500
25.071300 0.159400
25.097700 0.300900
25.124100 0.408100
25.150600 0.356500
25.177000 0.197500
25.203400 0.068800
25.229800 0.015300
25.256200 0.006300
25.282600 0.026100
25.309000 0.093500
25.335400 0.201300
25.361800 0.259900
25.388200 0.200800
25.414600 0.092600
25.441000 0.025500
25.467400 0.005300
25.493900 0.009500
25.520300 0.043400
25.546700 0.126600
25.573100 0.228500
25.599500 0.259700
25.625900 0.200400
25.652300 0.132500
25.678700 0.096800
25.705100 0.066900
25.731500 0.033500
25.757900 0.010800
25.784300 0.002100
25.810700 0.000300
25.837200 0.000000
25.863600 0.000000
25.890000 0.000000
25.916400 0.000000
25.942800 0.000000
25.969200 0.000000
25.995600 0.000000
26.022000 0.000000
26.048400 0.000000
26.074800 0.000000
26.101200 0.000000
26.127600 0.000000
26.154000 0.000000
26.180500 0.000000
26.206900 0.000000
26.233300 0.000000
26.259700 0.000000
26.286100 0.000000
26.312500 0.000000
26.338900 0.000000
26.365300 0.000000
26.391700 0.000000
26.418100 0.000000
26.444500 0.000000
26.470900 0.000000
26.497300 0.000000
26.523700 0.000000
26.550200 0.000000
26.576600 0.000000
26.603000 0.000000
26.629400 0.000000
26.655800 0.000000
26.682200 0.000000
26.708600 0.000000
26.735000 0.000000
26.761400 0.000000
26.787800 0.000000
26.814200 0.000000
26.840600 0.000000
26.867000 0.000000
26.893500 0.000000
26.919900 0.000000
26.946300 0.000000
26.972700 0.000000
26.999100 0.000000
27.025500 0.000000
27.051900 0.000000
27.078300 0.000000
27.104700 0.000000
27.131100 0.000000
27.157500 0.000000
27.183900 0.000000
27.210300 0.000000
27.236800 0.000000
27.263200 0.000000
27.289600 0.000000
27.316000 0.000000
27.342400 0.000000
27.368800 0.000000
27.395200 0.000000
27.421600 0.000000
27.448000 0.000000
27.474400 0.000000
27.500800 0.000000
27.527200 0.000000
27.553600 0.000000
27.580100 0.000000
27.606500 0.000000
27.632900 0.000000
27.659300 0.000000
27.685700 0.000000
27.712100 0.000000
27.738500 0.000000
27.764900 0.000000
27.791300 0.000000
27.817700 0.000000
27.844100 0.000000
27.870500 0.000000
27.896900 0.000000
27.923400 0.000000
27.949800 0.000000
27.976200 0.000000
28.002600 0.000000
28.029000 0.000000
28.055400 0.000000
28.081800 0.000000
e
