set title 'mp-31284 - Density of States'
set xlabel 'Energy (eV)'
set ylabel 'DOS (states/eV)'
set grid
set xrange [-10:10]
set yrange [0:13.070]
set xzeroaxis lt -1
set terminal png size 800,600
set output 'mp-31284_dos_gnuplot.png'
plot '-' using 1:2 with lines title 'DOS'
-21.081400 0.000000
-21.061100 0.000000
-21.040700 0.000000
-21.020300 0.000000
-20.999900 0.000000
-20.979600 0.000000
-20.959200 0.000000
-20.938800 0.000000
-20.918400 0.000000
-20.898000 0.000000
-20.877700 0.000000
-20.857300 0.000000
-20.836900 0.000000
-20.816500 0.000000
-20.796200 0.000000
-20.775800 0.000000
-20.755400 0.000000
-20.735000 0.000000
-20.714700 0.000000
-20.694300 0.000000
-20.673900 0.000000
-20.653500 0.000000
-20.633200 0.000000
-20.612800 0.000000
-20.592400 0.000000
-20.572000 0.000000
-20.551700 0.000000
-20.531300 0.000000
-20.510900 0.000000
-20.490500 0.000000
-20.470200 0.000000
-20.449800 0.000000
-20.429400 0.000000
-20.409000 0.000000
-20.388700 0.000000
-20.368300 0.000000
-20.347900 0.000000
-20.327500 0.000000
-20.307200 0.000000
-20.286800 0.000000
-20.266400 0.000000
-20.246000 0.000000
-20.225700 0.000000
-20.205300 0.000000
-20.184900 0.000000
-20.164500 0.000000
-20.144100 0.000000
-20.123800 0.000000
-20.103400 0.000000
-20.083000 0.000000
-20.062600 0.000000
-20.042300 0.000000
-20.021900 0.000000
-20.001500 0.000000
-19.981100 0.000000
-19.960800 0.000000
-19.940400 0.000000
-19.920000 0.000000
-19.899600 0.000000
-19.879300 0.000000
-19.858900 0.000000
-19.838500 0.000000
-19.818100 0.000000
-19.797800 0.000000
-19.777400 0.000000
-19.757000 0.000000
-19.736600 0.000000
-19.716300 0.000000
-19.695900 0.000000
-19.675500 0.000000
-19.655100 0.000000
-19.634800 0.000000
-19.614400 0.000000
-19.594000 0.000000
-19.573600 0.000000
-19.553300 0.000000
-19.532900 0.000000
-19.512500 0.000000
-19.492100 0.000000
-19.471800 0.000000
-19.451400 0.000000
-19.431000 0.000000
-19.410600 0.000000
-19.390200 0.000000
-19.369900 0.000000
-19.349500 0.000000
-19.329100 0.000000
-19.308700 0.000000
-19.288400 0.000000
-19.268000 0.000000
-19.247600 0.000000
-19.227200 0.000000
-19.206900 0.000000
-19.186500 0.000000
-19.166100 0.000000
-19.145700 0.000000
-19.125400 0.000000
-19.105000 0.000000
-19.084600 0.000000
-19.064200 0.000000
-19.043900 0.000000
-19.023500 0.000000
-19.003100 0.000000
-18.982700 0.000000
-18.962400 0.000000
-18.942000 0.000000
-18.921600 0.000000
-18.901200 0.000000
-18.880900 0.000000
-18.860500 0.000000
-18.840100 0.000000
-18.819700 0.000000
-18.799400 0.000000
-18.779000 0.000000
-18.758600 0.000000
-18.738200 0.000000
-18.717900 0.000000
-18.697500 0.000000
-18.677100 0.000000
-18.656700 0.000000
-18.636300 0.000000
-18.616000 0.000000
-18.595600 0.000000
-18.575200 0.000000
-18.554800 0.000000
-18.534500 0.000000
-18.514100 0.000000
-18.493700 0.000000
-18.473300 0.000000
-18.453000 0.000000
-18.432600 0.000000
-18.412200 0.000000
-18.391800 0.000000
-18.371500 0.000000
-18.351100 0.000000
-18.330700 0.000000
-18.310300 0.000000
-18.290000 0.000000
-18.269600 0.000000
-18.249200 0.000000
-18.228800 0.000000
-18.208500 0.000000
-18.188100 0.000000
-18.167700 0.000000
-18.147300 0.000000
-18.127000 0.000000
-18.106600 0.000000
-18.086200 0.000000
-18.065800 0.000000
-18.045500 0.000000
-18.025100 0.000000
-18.004700 0.000000
-17.984300 0.000000
-17.964000 0.000000
-17.943600 0.000000
-17.923200 0.000000
-17.902800 0.000000
-17.882500 0.000000
-17.862100 0.000000
-17.841700 0.000000
-17.821300 0.000000
-17.800900 0.000000
-17.780600 0.000000
-17.760200 0.000000
-17.739800 0.000000
-17.719400 0.000000
-17.699100 0.000000
-17.678700 0.000000
-17.658300 0.000000
-17.637900 0.000000
-17.617600 0.000000
-17.597200 0.000000
-17.576800 0.000000
-17.556400 0.000000
-17.536100 0.000000
-17.515700 0.000000
-17.495300 0.000000
-17.474900 0.000000
-17.454600 0.000000
-17.434200 0.000000
-17.413800 0.000000
-17.393400 0.000000
-17.373100 0.000000
-17.352700 0.000000
-17.332300 0.000000
-17.311900 0.000000
-17.291600 0.000000
-17.271200 0.000000
-17.250800 0.000000
-17.230400 0.000000
-17.210100 0.000000
-17.189700 0.000000
-17.169300 0.000000
-17.148900 0.000000
-17.128600 0.000000
-17.108200 0.000000
-17.087800 0.000000
-17.067400 0.000000
-17.047000 0.000000
-17.026700 0.000000
-17.006300 0.000000
-16.985900 0.000000
-16.965500 0.000000
-16.945200 0.000000
-16.924800 0.000000
-16.904400 0.000000
-16.884000 0.000000
-16.863700 0.000000
-16.843300 0.000000
-16.822900 0.000000
-16.802500 0.000000
-16.782200 0.000000
-16.761800 0.000000
-16.741400 0.000000
-16.721000 0.000000
-16.700700 0.000000
-16.680300 0.000000
-16.659900 0.000000
-16.639500 0.000000
-16.619200 0.000000
-16.598800 0.000000
-16.578400 0.000000
-16.558000 0.000000
-16.537700 0.000000
-16.517300 0.000000
-16.496900 0.000000
-16.476500 0.000000
-16.456200 0.000000
-16.435800 0.000000
-16.415400 0.000000
-16.395000 0.000000
-16.374700 0.000000
-16.354300 0.000000
-16.333900 0.000000
-16.313500 0.000000
-16.293100 0.000000
-16.272800 0.000000
-16.252400 0.000000
-16.232000 0.000000
-16.211600 0.000000
-16.191300 0.000000
-16.170900 0.000000
-16.150500 0.000000
-16.130100 0.000000
-16.109800 0.000000
-16.089400 0.000000
-16.069000 0.000000
-16.048600 0.000000
-16.028300 0.000000
-16.007900 387.007900
-15.987500 26.246200
-15.967100 108.587100
-15.946800 113.688600
-15.926400 259.830700
-15.906000 86.599600
-15.885600 39.449600
-15.865300 199.864100
-15.844900 156.357100
-15.824500 173.997800
-15.804100 200.574000
-15.783800 251.655400
-15.763400 374.448600
-15.743000 348.873400
-15.722600 317.925800
-15.702300 237.520700
-15.681900 254.184500
-15.661500 54.623900
-15.641100 164.617400
-15.620800 136.962000
-15.600400 239.926800
-15.580000 0.000000
-15.559600 0.000000
-15.539200 0.000000
-15.518900 0.000000
-15.498500 0.000000
-15.478100 0.000000
-15.457700 0.000000
-15.437400 0.000000
-15.417000 0.000000
-15.396600 0.000000
-15.376200 0.000000
-15.355900 0.000000
-15.335500 0.000000
-15.315100 0.000000
-15.294700 0.000000
-15.274400 0.000000
-15.254000 0.000000
-15.233600 0.000000
-15.213200 0.000000
-15.192900 0.000000
-15.172500 0.000000
-15.152100 0.000000
-15.131700 0.000000
-15.111400 0.000000
-15.091000 0.000000
-15.070600 0.000000
-15.050200 0.000000
-15.029900 0.000000
-15.009500 0.000000
-14.989100 0.000000
-14.968700 0.000000
-14.948400 0.000000
-14.928000 0.000000
-14.907600 0.000000
-14.887200 0.000000
-14.866900 0.000000
-14.846500 0.000000
-14.826100 0.000000
-14.805700 0.000000
-14.785300 0.000000
-14.765000 0.000000
-14.744600 0.000000
-14.724200 0.000000
-14.703800 0.000000
-14.683500 0.000000
-14.663100 0.000000
-14.642700 0.000000
-14.622300 0.000000
-14.602000 0.000000
-14.581600 0.000000
-14.561200 0.000000
-14.540800 0.000000
-14.520500 0.000000
-14.500100 0.000000
-14.479700 0.000000
-14.459300 0.000000
-14.439000 0.000000
-14.418600 0.000000
-14.398200 0.000000
-14.377800 0.000000
-14.357500 0.000000
-14.337100 0.000000
-14.316700 0.000000
-14.296300 0.000000
-14.276000 0.000000
-14.255600 0.000000
-14.235200 0.000000
-14.214800 0.000000
-14.194500 0.000000
-14.174100 0.000000
-14.153700 0.000000
-14.133300 0.000000
-14.113000 0.000000
-14.092600 0.000000
-14.072200 0.000000
-14.051800 0.000000
-14.031400 0.000000
-14.011100 0.000000
-13.990700 0.000000
-13.970300 0.000000
-13.949900 0.000000
-13.929600 0.000000
-13.909200 0.000000
-13.888800 0.000000
-13.868400 0.000000
-13.848100 0.000000
-13.827700 0.000000
-13.807300 0.000000
-13.786900 0.000000
-13.766600 0.000000
-13.746200 0.000000
-13.725800 0.000000
-13.705400 0.000000
-13.685100 0.000000
-13.664700 0.000000
-13.644300 0.000000
-13.623900 0.000000
-13.603600 0.000000
-13.583200 0.000000
-13.562800 0.000000
-13.542400 0.000000
-13.522100 0.000000
-13.501700 0.000000
-13.481300 0.000000
-13.460900 0.000000
-13.440600 0.000000
-13.420200 0.000000
-13.399800 0.000000
-13.379400 0.000000
-13.359100 0.000000
-13.338700 0.000000
-13.318300 0.000000
-13.297900 0.000000
-13.277600 0.000000
-13.257200 0.000000
-13.236800 0.000000
-13.216400 0.000000
-13.196000 0.000000
-13.175700 0.000000
-13.155300 0.000000
-13.134900 0.000000
-13.114500 0.000000
-13.094200 0.000000
-13.073800 0.000000
-13.053400 0.000000
-13.033000 0.000000
-13.012700 0.000000
-12.992300 0.000000
-12.971900 0.000000
-12.951500 0.000000
-12.931200 0.000000
-12.910800 0.000000
-12.890400 0.000000
-12.870000 0.000000
-12.849700 0.000000
-12.829300 0.000000
-12.808900 0.000000
-12.788500 0.000000
-12.768200 0.000000
-12.747800 0.000000
-12.727400 0.000000
-12.707000 0.000000
-12.686700 0.000000
-12.666300 0.000000
-12.645900 0.000000
-12.625500 0.000000
-12.605200 0.000000
-12.584800 0.000000
-12.564400 0.000000
-12.544000 0.000000
-12.523700 0.000000
-12.503300 0.000000
-12.482900 0.000000
-12.462500 0.000000
-12.442100 0.000000
-12.421800 0.000000
-12.401400 0.000000
-12.381000 0.000000
-12.360600 0.000000
-12.340300 0.000000
-12.319900 0.000000
-12.299500 0.000000
-12.279100 0.000000
-12.258800 0.000000
-12.238400 0.000000
-12.218000 0.000000
-12.197600 0.000000
-12.177300 0.000000
-12.156900 0.000000
-12.136500 0.000000
-12.116100 0.000000
-12.095800 0.000000
-12.075400 0.000000
-12.055000 0.000000
-12.034600 0.000000
-12.014300 0.000000
-11.993900 0.000000
-11.973500 0.000000
-11.953100 0.000000
-11.932800 0.000000
-11.912400 0.000000
-11.892000 0.000000
-11.871600 0.000000
-11.851300 0.000000
-11.830900 0.000000
-11.810500 0.000000
-11.790100 0.000000
-11.769800 0.000000
-11.749400 0.000000
-11.729000 0.000000
-11.708600 0.000000
-11.688200 0.000000
-11.667900 0.000000
-11.647500 0.000000
-11.627100 0.000000
-11.606700 0.000000
-11.586400 0.000000
-11.566000 0.000000
-11.545600 0.000000
-11.525200 0.000000
-11.504900 0.000000
-11.484500 0.000000
-11.464100 0.000000
-11.443700 0.000000
-11.423400 0.000000
-11.403000 0.000000
-11.382600 0.000000
-11.362200 0.000000
-11.341900 0.000000
-11.321500 0.000000
-11.301100 0.000000
-11.280700 0.000000
-11.260400 0.000000
-11.240000 0.000000
-11.219600 0.000000
-11.199200 0.000000
-11.178900 0.000000
-11.158500 0.000000
-11.138100 0.000000
-11.117700 0.000000
-11.097400 0.000000
-11.077000 0.000000
-11.056600 0.000000
-11.036200 0.000000
-11.015900 0.000000
-10.995500 0.000000
-10.975100 0.000000
-10.954700 0.000000
-10.934300 0.000000
-10.914000 0.000000
-10.893600 0.000000
-10.873200 0.000000
-10.852800 0.000000
-10.832500 0.000000
-10.812100 0.000000
-10.791700 0.000000
-10.771300 0.000000
-10.751000 0.000000
-10.730600 0.000000
-10.710200 0.000000
-10.689800 0.000000
-10.669500 0.000000
-10.649100 0.000000
-10.628700 0.000000
-10.608300 0.000000
-10.588000 0.000000
-10.567600 0.000000
-10.547200 0.000000
-10.526800 0.000000
-10.506500 0.000000
-10.486100 0.000000
-10.465700 0.000000
-10.445300 0.000000
-10.425000 0.000000
-10.404600 0.000000
-10.384200 0.000000
-10.363800 0.000000
-10.343500 0.000000
-10.323100 0.000000
-10.302700 0.000000
-10.282300 0.000000
-10.262000 0.000000
-10.241600 0.000000
-10.221200 0.000000
-10.200800 0.000000
-10.180400 0.000000
-10.160100 0.000000
-10.139700 0.000000
-10.119300 0.000000
-10.098900 0.000000
-10.078600 0.000000
-10.058200 0.000000
-10.037800 0.000000
-10.017400 0.000000
-9.997100 0.000000
-9.976700 0.000000
-9.956300 0.000000
-9.935900 0.000000
-9.915600 0.000000
-9.895200 0.000000
-9.874800 0.000000
-9.854400 0.000000
-9.834100 0.000000
-9.813700 0.000000
-9.793300 0.000000
-9.772900 0.000000
-9.752600 0.000000
-9.732200 0.000000
-9.711800 0.000000
-9.691400 0.000000
-9.671100 0.000000
-9.650700 0.000000
-9.630300 0.000000
-9.609900 0.000000
-9.589600 0.000000
-9.569200 0.000000
-9.548800 0.000000
-9.528400 0.000000
-9.508100 0.000000
-9.487700 0.000000
-9.467300 0.000000
-9.446900 0.000000
-9.426500 0.000000
-9.406200 0.000000
-9.385800 0.000000
-9.365400 0.000000
-9.345000 0.000000
-9.324700 0.000000
-9.304300 0.000000
-9.283900 0.000000
-9.263500 0.000000
-9.243200 0.000000
-9.222800 0.000000
-9.202400 0.000000
-9.182000 0.000000
-9.161700 0.000000
-9.141300 0.000000
-9.120900 0.000000
-9.100500 0.000000
-9.080200 0.000000
-9.059800 0.000000
-9.039400 0.000000
-9.019000 0.000000
-8.998700 0.000000
-8.978300 0.000000
-8.957900 0.000000
-8.937500 0.000000
-8.917200 0.000000
-8.896800 0.000000
-8.876400 0.000000
-8.856000 0.000000
-8.835700 0.000000
-8.815300 0.000000
-8.794900 0.000000
-8.774500 0.000000
-8.754200 0.000000
-8.733800 0.000000
-8.713400 0.000000
-8.693000 0.000000
-8.672700 0.000000
-8.652300 0.000000
-8.631900 0.000000
-8.611500 0.000000
-8.591100 0.000000
-8.570800 0.000000
-8.550400 0.000000
-8.530000 0.000000
-8.509600 0.000000
-8.489300 0.000000
-8.468900 0.000000
-8.448500 0.000000
-8.428100 0.000000
-8.407800 0.000000
-8.387400 0.000000
-8.367000 0.000000
-8.346600 0.000000
-8.326300 0.000000
-8.305900 0.000000
-8.285500 0.000000
-8.265100 0.000000
-8.244800 0.000000
-8.224400 0.000000
-8.204000 0.000000
-8.183600 0.000000
-8.163300 0.000000
-8.142900 0.000000
-8.122500 0.000000
-8.102100 0.000000
-8.081800 0.000000
-8.061400 0.000000
-8.041000 0.000000
-8.020600 0.000000
-8.000300 0.000000
-7.979900 0.000000
-7.959500 0.000000
-7.939100 0.000000
-7.918800 0.000000
-7.898400 0.000000
-7.878000 0.000000
-7.857600 0.000000
-7.837200 0.000000
-7.816900 0.000000
-7.796500 0.000000
-7.776100 0.000000
-7.755700 0.000000
-7.735400 0.000000
-7.715000 0.000000
-7.694600 0.000000
-7.674200 0.000000
-7.653900 0.000000
-7.633500 0.000000
-7.613100 0.000000
-7.592700 0.000000
-7.572400 0.000000
-7.552000 0.000000
-7.531600 0.000000
-7.511200 0.000000
-7.490900 0.000000
-7.470500 0.000000
-7.450100 0.000000
-7.429700 0.000000
-7.409400 0.000000
-7.389000 0.000000
-7.368600 0.000000
-7.348200 0.000000
-7.327900 0.000000
-7.307500 0.000000
-7.287100 0.000000
-7.266700 0.000000
-7.246400 0.000000
-7.226000 0.000000
-7.205600 0.000000
-7.185200 0.000000
-7.164900 0.000000
-7.144500 0.000000
-7.124100 0.000000
-7.103700 0.000000
-7.083300 0.000000
-7.063000 0.000000
-7.042600 0.000000
-7.022200 0.000000
-7.001800 0.000000
-6.981500 0.000000
-6.961100 0.000000
-6.940700 0.000000
-6.920300 0.000000
-6.900000 0.000000
-6.879600 0.000000
-6.859200 0.000000
-6.838800 0.000000
-6.818500 0.000000
-6.798100 0.000000
-6.777700 0.000000
-6.757300 0.000000
-6.737000 0.000000
-6.716600 0.000000
-6.696200 0.000000
-6.675800 0.000000
-6.655500 0.000000
-6.635100 0.000000
-6.614700 0.000000
-6.594300 0.000000
-6.574000 0.000000
-6.553600 0.000000
-6.533200 0.000000
-6.512800 0.000000
-6.492500 0.000000
-6.472100 0.000000
-6.451700 0.000000
-6.431300 0.000000
-6.411000 0.000000
-6.390600 0.000000
-6.370200 0.000000
-6.349800 0.000000
-6.329400 0.000000
-6.309100 0.000000
-6.288700 0.000000
-6.268300 0.000000
-6.247900 0.000000
-6.227600 0.000000
-6.207200 0.000000
-6.186800 0.000000
-6.166400 0.000000
-6.146100 0.000000
-6.125700 0.000000
-6.105300 0.000000
-6.084900 0.000000
-6.064600 0.000000
-6.044200 0.000000
-6.023800 0.000000
-6.003400 0.000000
-5.983100 0.000000
-5.962700 0.000000
-5.942300 0.000000
-5.921900 0.000000
-5.901600 0.000000
-5.881200 0.000000
-5.860800 0.000000
-5.840400 0.000000
-5.820100 0.000000
-5.799700 0.000000
-5.779300 0.000000
-5.758900 0.000000
-5.738600 0.000000
-5.718200 0.000000
-5.697800 0.000000
-5.677400 0.000000
-5.657100 0.000000
-5.636700 0.000000
-5.616300 0.000000
-5.595900 0.000000
-5.575500 0.000000
-5.555200 0.000000
-5.534800 0.000000
-5.514400 0.000000
-5.494000 0.000000
-5.473700 0.000000
-5.453300 0.000000
-5.432900 0.000000
-5.412500 0.000000
-5.392200 0.000000
-5.371800 0.000000
-5.351400 0.000000
-5.331000 0.000000
-5.310700 0.000000
-5.290300 0.000000
-5.269900 0.000000
-5.249500 0.000000
-5.229200 0.000000
-5.208800 0.000000
-5.188400 0.000000
-5.168000 0.000000
-5.147700 0.000000
-5.127300 0.000000
-5.106900 0.000000
-5.086500 0.000000
-5.066200 0.000000
-5.045800 0.000000
-5.025400 0.000000
-5.005000 0.000000
-4.984700 0.000000
-4.964300 0.000000
-4.943900 0.000000
-4.923500 0.000000
-4.903200 0.000000
-4.882800 0.000000
-4.862400 0.000000
-4.842000 0.000000
-4.821600 0.000000
-4.801300 0.000000
-4.780900 0.000000
-4.760500 0.000000
-4.740100 0.000000
-4.719800 0.000000
-4.699400 0.000000
-4.679000 0.000000
-4.658600 0.000000
-4.638300 0.000000
-4.617900 0.000000
-4.597500 0.000000
-4.577100 0.000000
-4.556800 0.000000
-4.536400 0.001600
-4.516000 0.065400
-4.495600 0.222400
-4.475300 0.472700
-4.454900 0.739600
-4.434500 0.915700
-4.414100 0.999600
-4.393800 1.020000
-4.373400 1.065500
-4.353000 1.143300
-4.332600 1.250300
-4.312300 1.365100
-4.291900 1.505600
-4.271500 1.763600
-4.251100 1.976000
-4.230800 2.130400
-4.210400 2.053700
-4.190000 1.971700
-4.169600 1.913700
-4.149300 1.928500
-4.128900 1.960800
-4.108500 1.989800
-4.088100 2.015600
-4.067700 2.038000
-4.047400 2.057200
-4.027000 2.051200
-4.006600 2.037600
-3.986200 2.032700
-3.965900 2.051100
-3.945500 2.095100
-3.925100 2.494300
-3.904700 3.022200
-3.884400 3.428900
-3.864000 3.468800
-3.843600 3.271400
-3.823200 3.126200
-3.802900 3.094400
-3.782500 3.126300
-3.762100 3.157100
-3.741700 3.611400
-3.721400 3.421000
-3.701000 3.247000
-3.680600 2.793800
-3.660200 2.780100
-3.639900 2.794000
-3.619500 2.850500
-3.599100 2.914300
-3.578700 2.989400
-3.558400 3.075700
-3.538000 3.173100
-3.517600 4.226500
-3.497200 5.798400
-3.476900 5.888200
-3.456500 5.300500
-3.436100 4.320500
-3.415700 4.298800
-3.395400 4.260100
-3.375000 4.557100
-3.354600 4.381900
-3.334200 3.988700
-3.313900 3.862600
-3.293500 3.660500
-3.273100 3.609900
-3.252700 3.654400
-3.232300 3.150300
-3.212000 2.969600
-3.191600 2.808000
-3.171200 2.665400
-3.150800 2.538800
-3.130500 2.413900
-3.110100 2.262000
-3.089700 2.075800
-3.069300 1.950000
-3.049000 1.591200
-3.028600 2.778800
-3.008200 0.434700
-2.987800 0.259800
-2.967500 0.151700
-2.947100 0.072500
-2.926700 2.003400
-2.906300 2.327700
-2.886000 2.563000
-2.865600 3.574900
-2.845200 4.331700
-2.824800 3.619800
-2.804500 4.186000
-2.784100 4.854400
-2.763700 5.437700
-2.743300 6.397400
-2.723000 7.852500
-2.702600 8.538400
-2.682200 8.704400
-2.661800 8.666100
-2.641500 7.139100
-2.621100 6.259700
-2.600700 5.831400
-2.580300 5.466700
-2.560000 4.851300
-2.539600 4.532300
-2.519200 4.213300
-2.498800 3.957900
-2.478400 3.906600
-2.458100 3.813200
-2.437700 3.679000
-2.417300 3.528500
-2.396900 3.462700
-2.376600 3.300500
-2.356200 3.316500
-2.335800 3.303300
-2.315400 3.262800
-2.295100 3.211600
-2.274700 3.163700
-2.254300 3.195000
-2.233900 3.211800
-2.213600 3.238600
-2.193200 3.275400
-2.172800 3.019500
-2.152400 2.777100
-2.132100 2.510300
-2.111700 2.335400
-2.091300 2.463300
-2.070900 2.319000
-2.050600 2.449100
-2.030200 2.566600
-2.009800 2.712600
-1.989400 2.878000
-1.969100 3.028700
-1.948700 3.161900
-1.928300 3.362100
-1.907900 4.145000
-1.887600 5.894600
-1.867200 4.687100
-1.846800 4.501100
-1.826400 5.553800
-1.806100 6.060300
-1.785700 6.451200
-1.765300 6.817600
-1.744900 7.199400
-1.724500 7.779900
-1.704200 8.714100
-1.683800 9.319300
-1.663400 7.798800
-1.643000 7.597200
-1.622700 7.666800
-1.602300 5.966900
-1.581900 4.455500
-1.561500 4.189300
-1.541200 3.957300
-1.520800 3.798100
-1.500400 3.665300
-1.480000 3.577100
-1.459700 3.631100
-1.439300 3.716500
-1.418900 3.889600
-1.398500 4.115100
-1.378200 4.320800
-1.357800 4.923600
-1.337400 5.767700
-1.317000 6.563800
-1.296700 6.479600
-1.276300 4.385700
-1.255900 3.134600
-1.235500 2.858100
-1.215200 2.137300
-1.194800 2.014500
-1.174400 1.903400
-1.154000 2.004600
-1.133700 1.941700
-1.113300 1.891600
-1.092900 1.854100
-1.072500 1.829300
-1.052200 1.797500
-1.031800 1.766700
-1.011400 1.745600
-0.991000 1.858200
-0.970600 1.861800
-0.950300 2.246000
-0.929900 2.387700
-0.909500 2.129900
-0.889100 2.043800
-0.868800 1.957100
-0.848400 1.934400
-0.828000 1.974000
-0.807600 2.022100
-0.787300 2.071900
-0.766900 2.122100
-0.746500 2.185300
-0.726100 2.241500
-0.705800 2.298400
-0.685400 2.355900
-0.665000 2.414100
-0.644600 2.808400
-0.624300 3.040700
-0.603900 3.308200
-0.583500 3.621500
-0.563100 4.010100
-0.542800 3.795700
-0.522400 3.824000
-0.502000 3.788600
-0.481600 3.743400
-0.461300 3.720200
-0.440900 3.709900
-0.420500 3.727500
-0.400100 3.714800
-0.379800 4.044200
-0.359400 4.116600
-0.339000 4.193800
-0.318600 4.272700
-0.298300 3.908900
-0.277900 3.796500
-0.257500 3.614800
-0.237100 3.412100
-0.216700 3.188300
-0.196400 3.030400
-0.176000 2.963900
-0.155600 2.927800
-0.135200 2.972000
-0.114900 3.056200
-0.094500 5.539900
-0.074100 4.916100
-0.053700 4.694600
-0.033400 5.048700
-0.013000 4.246000
0.007400 3.751600
0.027800 3.437700
0.048100 3.190700
0.068500 2.957400
0.088900 2.716400
0.109300 2.486700
0.129600 2.285800
0.150000 2.123200
0.170400 2.014400
0.190800 1.887900
0.211100 0.686300
0.231500 0.429000
0.251900 0.467700
0.272300 0.511300
0.292600 0.557200
0.313000 0.605300
0.333400 0.655500
0.353800 0.708000
0.374100 0.762700
0.394500 0.819600
0.414900 0.878800
0.435300 0.940100
0.455600 1.005000
0.476000 1.142300
0.496400 1.587700
0.516800 2.357000
0.537200 4.014600
0.557500 5.834000
0.577900 6.861100
0.598300 7.569700
0.618700 8.150000
0.639000 8.656100
0.659400 9.271800
0.679800 8.862600
0.700200 9.367300
0.720500 10.131500
0.740900 9.284500
0.761300 7.936900
0.781700 7.376000
0.802000 8.548900
0.822400 8.279000
0.842800 7.143600
0.863200 5.746700
0.883500 4.915800
0.903900 4.421500
0.924300 3.339500
0.944700 3.002100
0.965000 2.677100
0.985400 2.364300
1.005800 1.827000
1.026200 1.617300
1.046500 1.142000
1.066900 1.063900
1.087300 1.014400
1.107700 0.984500
1.128000 0.954300
1.148400 0.923900
1.168800 0.893200
1.189200 0.863900
1.209500 0.837600
1.229900 0.814200
1.250300 0.794400
1.270700 0.778100
1.291000 0.769000
1.311400 0.760900
1.331800 0.752900
1.352200 0.744900
1.372600 0.736900
1.392900 0.728900
1.413300 0.721000
1.433700 0.720700
1.454100 0.719900
1.474400 0.704500
1.494800 0.672000
1.515200 0.625900
1.535600 0.544900
1.555900 0.464100
1.576300 0.383500
1.596700 0.303200
1.617100 0.223500
1.637400 0.154300
1.657800 0.100400
1.678200 0.059300
1.698600 0.027600
1.718900 0.005400
1.739300 0.000000
1.759700 0.000000
1.780100 0.000000
1.800400 0.000000
1.820800 0.000000
1.841200 0.000000
1.861600 0.000000
1.881900 0.002200
1.902300 0.014200
1.922700 0.036900
1.943100 0.070200
1.963400 0.114100
1.983800 0.168600
2.004200 0.226200
2.024600 0.290500
2.044900 0.375500
2.065300 0.474200
2.085700 0.577000
2.106100 0.799300
2.126500 0.928200
2.146800 1.091300
2.167200 1.335400
2.187600 1.491400
2.208000 1.633900
2.228300 1.656500
2.248700 1.820300
2.269100 2.005400
2.289500 2.181000
2.309800 2.420900
2.330200 2.685100
2.350600 2.998000
2.371000 3.275500
2.391300 3.610600
2.411700 3.956900
2.432100 4.314100
2.452500 4.682300
2.472800 5.086000
2.493200 5.557200
2.513600 7.861900
2.534000 10.098400
2.554300 9.421500
2.574700 9.333500
2.595100 9.127100
2.615500 8.617800
2.635800 8.009200
2.656200 7.425600
2.676600 6.675100
2.697000 8.282000
2.717300 6.552400
2.737700 7.638000
2.758100 10.661500
2.778500 9.721100
2.798800 9.188500
2.819200 8.055000
2.839600 6.534000
2.860000 6.490600
2.880400 6.364000
2.900700 6.233500
2.921100 5.505600
2.941500 4.934000
2.961900 4.337700
2.982200 3.973500
3.002600 3.600900
3.023000 3.521100
3.043400 3.567200
3.063700 3.630300
3.084100 4.079500
3.104500 4.654100
3.124900 6.390600
3.145200 7.914100
3.165600 9.688000
3.186000 9.023200
3.206400 8.255500
3.226700 7.774200
3.247100 7.210700
3.267500 6.489900
3.287900 6.296400
3.308200 5.498600
3.328600 5.379200
3.349000 4.623600
3.369400 4.650400
3.389700 4.762000
3.410100 4.972300
3.430500 5.281400
3.450900 6.412000
3.471200 7.834900
3.491600 10.103300
3.512000 11.407800
3.532400 10.842200
3.552700 8.445100
3.573100 7.506900
3.593500 7.078800
3.613900 6.201500
3.634300 5.743600
3.654600 5.707900
3.675000 5.955000
3.695400 6.290500
3.715800 7.145200
3.736100 8.416300
3.756500 8.844100
3.776900 9.005100
3.797300 8.807100
3.817600 8.508000
3.838000 8.538700
3.858400 7.642100
3.878800 8.264700
3.899100 8.434500
3.919500 8.463300
3.939900 8.550500
3.960300 8.439500
3.980600 7.826900
4.001000 7.860800
4.021400 7.436400
4.041800 7.393400
4.062100 6.969900
4.082500 7.457200
4.102900 8.312600
4.123300 8.946800
4.143600 9.589300
4.164000 10.136700
4.184400 10.109600
4.204800 9.450400
4.225100 8.899700
4.245500 8.615700
4.265900 8.386700
4.286300 7.756500
4.306600 7.394900
4.327000 8.112300
4.347400 9.368400
4.367800 9.683600
4.388200 9.615000
4.408500 9.051800
4.428900 9.223100
4.449300 8.813300
4.469700 8.497600
4.490000 8.337400
4.510400 8.470600
4.530800 8.600700
4.551200 9.960600
4.571500 10.687700
4.591900 9.392900
4.612300 8.999000
4.632700 8.956900
4.653000 9.307500
4.673400 9.187400
4.693800 8.962900
4.714200 9.382800
4.734500 9.836200
4.754900 11.377300
4.775300 10.189100
4.795700 9.699000
4.816000 8.707000
4.836400 8.029100
4.856800 7.608100
4.877200 6.749600
4.897500 5.994000
4.917900 4.457900
4.938300 3.929900
4.958700 3.705400
4.979000 3.411500
4.999400 3.179400
5.019800 2.973800
5.040200 2.791900
5.060500 2.633600
5.080900 2.624700
5.101300 2.638100
5.121700 2.716600
5.142100 2.788400
5.162400 2.853700
5.182800 2.912500
5.203200 2.964700
5.223600 3.010300
5.243900 3.320300
5.264300 2.706500
5.284700 2.994300
5.305100 3.276900
5.325400 3.545300
5.345800 3.798800
5.366200 4.169100
5.386600 6.589000
5.406900 3.880000
5.427300 3.632800
5.447700 2.930700
5.468100 2.752600
5.488400 2.841700
5.508800 2.644400
5.529200 2.182400
5.549600 1.967300
5.569900 1.934500
5.590300 1.911200
5.610700 1.897500
5.631100 1.739600
5.651400 1.848800
5.671800 1.942700
5.692200 2.041200
5.712600 2.144600
5.732900 2.312500
5.753300 2.415800
5.773700 2.523700
5.794100 2.426300
5.814400 2.605000
5.834800 2.565800
5.855200 2.226100
5.875600 2.389100
5.895900 2.504200
5.916300 2.623300
5.936700 3.208100
5.957100 3.279500
5.977500 3.333600
5.997800 3.045900
6.018200 3.226100
6.038600 3.412600
6.059000 3.567600
6.079300 5.501800
6.099700 5.935900
6.120100 4.996400
6.140500 4.775300
6.160800 4.461700
6.181200 4.475000
6.201600 4.373700
6.222000 4.249500
6.242300 4.112300
6.262700 4.555800
6.283100 4.665300
6.303500 4.576000
6.323800 4.790400
6.344200 5.034400
6.364600 5.275700
6.385000 5.615200
6.405300 6.092200
6.425700 6.291500
6.446100 6.817800
6.466500 7.314000
6.486800 8.152400
6.507200 7.430300
6.527600 7.631600
6.548000 6.978400
6.568300 6.708300
6.588700 5.595500
6.609100 5.655600
6.629500 5.939900
6.649800 6.795500
6.670200 7.590600
6.690600 7.721600
6.711000 7.847900
6.731400 8.952800
6.751700 8.807100
6.772100 8.516900
6.792500 7.874200
6.812900 6.210700
6.833200 5.364600
6.853600 4.895200
6.874000 4.158800
6.894400 4.601000
6.914700 5.368200
6.935100 6.621100
6.955500 7.404600
6.975900 8.487400
6.996200 10.432800
7.016600 10.469500
7.037000 10.138100
7.057400 5.873200
7.077700 5.863200
7.098100 6.079700
7.118500 6.502600
7.138900 6.408600
7.159200 5.978800
7.179600 6.890300
7.200000 7.074900
7.220400 7.136600
7.240700 7.274900
7.261100 7.430200
7.281500 7.646700
7.301900 6.580600
7.322200 6.045500
7.342600 5.505600
7.363000 4.680600
7.383400 4.903500
7.403700 5.426800
7.424100 5.414300
7.444500 5.684900
7.464900 6.068800
7.485300 5.566100
7.505600 5.198400
7.526000 5.069100
7.546400 5.293200
7.566800 6.054100
7.587100 6.456400
7.607500 6.714400
7.627900 7.155000
7.648300 8.085700
7.668600 8.662800
7.689000 7.754900
7.709400 7.142300
7.729800 7.200300
7.750100 7.368100
7.770500 7.493300
7.790900 6.225700
7.811300 5.988200
7.831600 6.106500
7.852000 6.485000
7.872400 7.291700
7.892800 7.966200
7.913100 8.220500
7.933500 8.917300
7.953900 9.526700
7.974300 7.554400
7.994600 6.867000
8.015000 6.583500
8.035400 6.352000
8.055800 6.212300
8.076100 6.155300
8.096500 6.311300
8.116900 6.296600
8.137300 7.317400
8.157600 9.470000
8.178000 11.607800
8.198400 9.972900
8.218800 9.375000
8.239200 9.588300
8.259500 6.593500
8.279900 6.248600
8.300300 6.219200
8.320700 6.180900
8.341000 6.135300
8.361400 6.110100
8.381800 7.487000
8.402200 8.104600
8.422500 8.275300
8.442900 8.930500
8.463300 9.291800
8.483700 8.180700
8.504000 8.534600
8.524400 8.959500
8.544800 9.439000
8.565200 11.629900
8.585500 9.814000
8.605900 8.482800
8.626300 7.860600
8.646700 7.684300
8.667000 7.393200
8.687400 7.580200
8.707800 8.161900
8.728200 11.830400
8.748500 8.026100
8.768900 6.978000
8.789300 5.872600
8.809700 5.386400
8.830000 5.191700
8.850400 7.760000
8.870800 5.358100
8.891200 5.875900
8.911500 6.642400
8.931900 7.417600
8.952300 9.648500
8.972700 9.873300
8.993100 11.044800
9.013400 8.773400
9.033800 7.466100
9.054200 6.918200
9.074600 6.780300
9.094900 6.690700
9.115300 6.780600
9.135700 7.052600
9.156100 7.325700
9.176400 7.617100
9.196800 7.851600
9.217200 8.384200
9.237600 7.643800
9.257900 7.099500
9.278300 6.932600
9.298700 6.293000
9.319100 5.649400
9.339400 5.641600
9.359800 5.657900
9.380200 5.614500
9.400600 5.538700
9.420900 5.474700
9.441300 5.424800
9.461700 5.397900
9.482100 6.120300
9.502400 6.435900
9.522800 7.102100
9.543200 6.565900
9.563600 5.982300
9.583900 4.979600
9.604300 4.488100
9.624700 5.369500
9.645100 5.569800
9.665400 7.205000
9.685800 7.611300
9.706200 8.154600
9.726600 9.145800
9.747000 10.610700
9.767300 9.180400
9.787700 6.460500
9.808100 6.888900
9.828500 7.977000
9.848800 9.025000
9.869200 11.881900
9.889600 11.024100
9.910000 11.012900
9.930300 10.744700
9.950700 10.349600
9.971100 9.789700
9.991500 8.694000
10.011800 6.730500
10.032200 7.439300
10.052600 8.205800
10.073000 8.716100
10.093300 8.799700
10.113700 8.655200
10.134100 8.619100
10.154500 8.926300
10.174800 9.250700
10.195200 9.691000
10.215600 11.797600
10.236000 12.465700
10.256300 9.489800
10.276700 7.889100
10.297100 7.827300
10.317500 9.005900
10.337800 7.949600
10.358200 7.873600
10.378600 8.390700
10.399000 9.738600
10.419300 10.224400
10.439700 9.982900
10.460100 11.013100
10.480500 10.775600
10.500800 9.339900
10.521200 9.131500
10.541600 9.011700
10.562000 9.164400
10.582400 9.283300
10.602700 9.443200
10.623100 10.136400
10.643500 10.379000
10.663900 10.071000
10.684200 11.658500
10.704600 12.786100
10.725000 15.871000
10.745400 23.187300
10.765700 44.161100
10.786100 49.405000
10.806500 24.468100
10.826900 19.260900
10.847200 15.926300
10.867600 15.372500
10.888000 14.152700
10.908400 13.091000
10.928700 11.317100
10.949100 10.820300
10.969500 11.629100
10.989900 12.773600
11.010200 11.415000
11.030600 9.183300
11.051000 8.873500
11.071400 8.572500
11.091700 8.364800
11.112100 8.295900
11.132500 8.266500
11.152900 8.223000
11.173200 7.729500
11.193600 7.499200
11.214000 6.623700
11.234400 6.373500
11.254700 5.924000
11.275100 6.154100
11.295500 6.624700
11.315900 7.100200
11.336300 7.137100
11.356600 7.096700
11.377000 8.146000
11.397400 6.967400
11.417800 7.006500
11.438100 7.122300
11.458500 7.313400
11.478900 7.318600
11.499300 7.927000
11.519600 8.258200
11.540000 8.645800
11.560400 8.421900
11.580800 9.679900
11.601100 11.541000
11.621500 13.512200
11.641900 13.025700
11.662300 9.550100
11.682600 8.042800
11.703000 7.884100
11.723400 7.909900
11.743800 7.894100
11.764100 7.101100
11.784500 7.525700
11.804900 7.674800
11.825300 8.521600
11.845600 8.276200
11.866000 7.794900
11.886400 7.893900
11.906800 7.878900
11.927100 7.616700
11.947500 7.780300
11.967900 7.612600
11.988300 7.528600
12.008600 8.393700
12.029000 8.868500
12.049400 9.177200
12.069800 9.493400
12.090200 9.676400
12.110500 10.220300
12.130900 10.946500
12.151300 11.042300
12.171700 11.485000
12.192000 10.953700
12.212400 10.570700
12.232800 9.240600
12.253200 6.295900
12.273500 5.395000
12.293900 5.163700
12.314300 4.976400
12.334700 7.752500
12.355000 8.299800
12.375400 9.204600
12.395800 8.612600
12.416200 8.420200
12.436500 8.468900
12.456900 10.804200
12.477300 11.427200
12.497700 13.880500
12.518000 10.587700
12.538400 9.689900
12.558800 9.076300
12.579200 8.410700
12.599500 7.456400
12.619900 6.753000
12.640300 7.026600
12.660700 7.294800
12.681000 9.922900
12.701400 9.716600
12.721800 8.635100
12.742200 7.782600
12.762500 7.710400
12.782900 7.724700
12.803300 7.883800
12.823700 7.824400
12.844100 7.571000
12.864400 7.425000
12.884800 8.192600
12.905200 8.668500
12.925600 11.382800
12.945900 11.316600
12.966300 9.851000
12.986700 8.172600
13.007100 7.677300
13.027400 7.304400
13.047800 6.831400
13.068200 6.520400
13.088600 6.347600
13.108900 7.455500
13.129300 9.000600
13.149700 8.786400
13.170100 9.677000
13.190400 9.770300
13.210800 9.416000
13.231200 9.908700
13.251600 10.621300
13.271900 11.284400
13.292300 10.075300
13.312700 9.837300
13.333100 9.606000
13.353400 9.428300
13.373800 8.013300
13.394200 7.862100
13.414600 7.683400
13.434900 7.702300
13.455300 7.792800
13.475700 8.053200
13.496100 8.199300
13.516400 8.569400
13.536800 8.591400
13.557200 8.777900
13.577600 8.207000
13.598000 8.336800
13.618300 7.941500
13.638700 7.619300
13.659100 7.754400
13.679500 7.873700
13.699800 7.739500
13.720200 7.783500
13.740600 7.594700
13.761000 8.056900
13.781300 8.135800
13.801700 8.152100
13.822100 7.411700
13.842500 9.395200
13.862800 9.740600
13.883200 11.867500
13.903600 8.545400
13.924000 8.756400
13.944300 8.918700
13.964700 8.732600
13.985100 8.488500
14.005500 8.195500
14.025800 8.129100
14.046200 8.214200
14.066600 8.137400
14.087000 8.066300
14.107300 6.895900
14.127700 6.700300
14.148100 7.615700
14.168500 7.896700
14.188800 7.771500
14.209200 8.159700
14.229600 8.343600
14.250000 8.666500
14.270300 8.643000
14.290700 8.001500
14.311100 7.746900
14.331500 7.368300
14.351900 7.603300
14.372200 8.252500
14.392600 8.845700
14.413000 8.379400
14.433400 7.736000
14.453700 8.377300
14.474100 8.754800
14.494500 9.103500
14.514900 8.539300
14.535200 8.694400
14.555600 8.787800
14.576000 8.202300
14.596400 7.934000
14.616700 7.800600
14.637100 8.173900
14.657500 10.302100
14.677900 9.761700
14.698200 9.580300
14.718600 9.103600
14.739000 8.866000
14.759400 7.894300
14.779700 7.210300
14.800100 6.636500
14.820500 6.236700
14.840900 6.886100
14.861200 7.227200
14.881600 7.151200
14.902000 7.282300
14.922400 7.383000
14.942700 9.183400
14.963100 10.066900
14.983500 9.834000
15.003900 8.117500
15.024200 7.664600
15.044600 8.029500
15.065000 8.642900
15.085400 8.779700
15.105700 8.976900
15.126100 9.752200
15.146500 10.344500
15.166900 11.199400
15.187300 10.893700
15.207600 9.645500
15.228000 9.621400
15.248400 9.748300
15.268800 9.328700
15.289100 9.204300
15.309500 10.469000
15.329900 9.979300
15.350300 9.774600
15.370600 10.051000
15.391000 10.153600
15.411400 11.060100
15.431800 11.359000
15.452100 11.647500
15.472500 11.469000
15.492900 12.279700
15.513300 11.688900
15.533600 10.697500
15.554000 10.263400
15.574400 10.111400
15.594800 10.592900
15.615100 11.489100
15.635500 11.233200
15.655900 9.971900
15.676300 9.356900
15.696600 9.669400
15.717000 10.167600
15.737400 10.543700
15.757800 10.940000
15.778100 11.198100
15.798500 11.671500
15.818900 11.711900
15.839300 11.668900
15.859600 11.549900
15.880000 11.735800
15.900400 10.669300
15.920800 10.359100
15.941200 11.086800
15.961500 13.623700
15.981900 12.539300
16.002300 12.253200
16.022700 11.736000
16.043000 11.994300
16.063400 11.846700
16.083800 11.679800
16.104200 11.532300
16.124500 12.156200
16.144900 12.664900
16.165300 11.643400
16.185700 11.115800
16.206000 10.237000
16.226400 10.276400
16.246800 9.635000
16.267200 9.732200
16.287500 9.752800
16.307900 9.841800
16.328300 9.813900
16.348700 9.973700
16.369000 10.508900
16.389400 11.047000
16.409800 11.667000
16.430200 12.220100
16.450500 15.019800
16.470900 10.565300
16.491300 10.315800
16.511700 10.160900
16.532000 9.990700
16.552400 9.371500
16.572800 9.513400
16.593200 10.037500
16.613500 11.551700
16.633900 11.963800
16.654300 13.162700
16.674700 12.971000
16.695100 11.349900
16.715400 11.281000
16.735800 11.509700
16.756200 12.154300
16.776600 12.919500
16.796900 13.694300
16.817300 12.578000
16.837700 11.607600
16.858100 10.706300
16.878400 9.996500
16.898800 10.200400
16.919200 10.742500
16.939600 10.985200
16.959900 11.179900
16.980300 9.892500
17.000700 9.303000
17.021100 8.662800
17.041400 8.054500
17.061800 8.738200
17.082200 11.772500
17.102600 13.212600
17.122900 12.956500
17.143300 12.101700
17.163700 10.705200
17.184100 8.429600
17.204400 8.170800
17.224800 7.940900
17.245200 8.020100
17.265600 8.514200
17.285900 8.849900
17.306300 8.812200
17.326700 7.522900
17.347100 5.161300
17.367400 3.619800
17.387800 2.820500
17.408200 2.120000
17.428600 1.756600
17.449000 1.526800
17.469300 1.318900
17.489700 0.919400
17.510100 0.834900
17.530500 0.780800
17.550800 0.749100
17.571200 0.718200
17.591600 0.682600
17.612000 0.642200
17.632300 1.343000
17.652700 0.992500
17.673100 0.786500
17.693500 0.435300
17.713800 0.305900
17.734200 0.198900
17.754600 0.114500
17.775000 0.052600
17.795300 0.014300
17.815700 0.000100
17.836100 0.000000
17.856500 0.000000
17.876800 0.000000
17.897200 0.000000
17.917600 0.000000
17.938000 0.000000
17.958300 0.000000
17.978700 0.000000
17.999100 0.000000
18.019500 0.000000
18.039800 0.000000
18.060200 0.000000
18.080600 0.000000
18.101000 0.000000
18.121300 0.000000
18.141700 0.000000
18.162100 0.000000
18.182500 0.000000
18.202900 0.000000
18.223200 0.000000
18.243600 0.000000
18.264000 0.000000
18.284400 0.000000
18.304700 0.000000
18.325100 0.000000
18.345500 0.000000
18.365900 0.000000
18.386200 0.000000
18.406600 0.000000
18.427000 0.000000
18.447400 0.000000
18.467700 0.000000
18.488100 0.000000
18.508500 0.000000
18.528900 0.000000
18.549200 0.000000
18.569600 0.000000
18.590000 0.000000
18.610400 0.000000
18.630700 0.000000
18.651100 0.000000
18.671500 0.000000
18.691900 0.000000
18.712200 0.000000
18.732600 0.000000
18.753000 0.000000
18.773400 0.000000
18.793700 0.000000
18.814100 0.000000
18.834500 0.000000
18.854900 0.000000
18.875200 0.000000
18.895600 0.000000
18.916000 0.000000
18.936400 0.000000
18.956800 0.000000
18.977100 0.000000
18.997500 0.000000
19.017900 0.000000
19.038300 0.000000
19.058600 0.000000
19.079000 0.000000
19.099400 0.000000
19.119800 0.000000
19.140100 0.000000
19.160500 0.000000
19.180900 0.000000
19.201300 0.000000
19.221600 0.000000
19.242000 0.000000
19.262400 0.000000
19.282800 0.000000
19.303100 0.000000
19.323500 0.000000
19.343900 0.000000
19.364300 0.000000
19.384600 0.000000
19.405000 0.000000
19.425400 0.000000
19.445800 0.000000
19.466100 0.000000
19.486500 0.000000
19.506900 0.000000
19.527300 0.000000
19.547600 0.000000
19.568000 0.000000
19.588400 0.000000
19.608800 0.000000
19.629100 0.000000
19.649500 0.000000
19.669900 0.000000
e
