set title 'mp-1222005 - Density of States'
set xlabel 'Energy (eV)'
set ylabel 'DOS (states/eV)'
set grid
set xrange [-10:10]
set yrange [0:7.229]
set xzeroaxis lt -1
set terminal png size 800,600
set output 'mp-1222005_dos_gnuplot.png'
plot '-' using 1:2 with lines title 'DOS'
-46.297400 0.000000
-46.248900 0.000000
-46.200500 0.000000
-46.152000 0.000000
-46.103500 0.000000
-46.055000 0.000000
-46.006500 0.000000
-45.958000 0.000000
-45.909500 0.000000
-45.861100 0.000000
-45.812600 0.000000
-45.764100 0.000000
-45.715600 0.000000
-45.667100 0.000000
-45.618600 0.000000
-45.570100 0.000000
-45.521600 0.000000
-45.473200 0.000000
-45.424700 0.000000
-45.376200 0.000000
-45.327700 0.000000
-45.279200 0.000000
-45.230700 0.000000
-45.182200 0.000000
-45.133800 0.000000
-45.085300 0.000000
-45.036800 0.000000
-44.988300 0.000000
-44.939800 0.000000
-44.891300 0.000000
-44.842800 0.000000
-44.794300 0.000000
-44.745900 0.000000
-44.697400 0.000000
-44.648900 0.000000
-44.600400 0.000000
-44.551900 0.000000
-44.503400 0.000000
-44.454900 0.000000
-44.406400 0.000000
-44.358000 0.000000
-44.309500 0.000000
-44.261000 0.000000
-44.212500 0.000000
-44.164000 0.000000
-44.115500 0.000000
-44.067000 0.000000
-44.018600 0.000000
-43.970100 0.000000
-43.921600 0.000000
-43.873100 0.000000
-43.824600 0.000000
-43.776100 0.000000
-43.727600 0.000000
-43.679100 0.000000
-43.630700 0.000000
-43.582200 0.000000
-43.533700 0.000000
-43.485200 0.000000
-43.436700 0.000000
-43.388200 0.000000
-43.339700 0.000000
-43.291300 0.000000
-43.242800 0.000000
-43.194300 0.000000
-43.145800 0.000000
-43.097300 0.000000
-43.048800 0.000000
-43.000300 0.000000
-42.951800 0.000000
-42.903400 0.000000
-42.854900 0.000000
-42.806400 0.000000
-42.757900 0.000000
-42.709400 0.000000
-42.660900 0.000000
-42.612400 0.000000
-42.563900 0.000000
-42.515500 0.000000
-42.467000 0.000000
-42.418500 0.000000
-42.370000 0.000000
-42.321500 0.000000
-42.273000 0.000000
-42.224500 0.000000
-42.176100 0.000000
-42.127600 0.000000
-42.079100 0.000000
-42.030600 0.000000
-41.982100 0.000000
-41.933600 0.000000
-41.885100 5.628200
-41.836600 25.501800
-41.788200 5.396400
-41.739700 11.968000
-41.691200 23.384500
-41.642700 16.540600
-41.594200 0.000000
-41.545700 0.000000
-41.497200 0.000000
-41.448800 0.000000
-41.400300 0.000000
-41.351800 0.000000
-41.303300 0.000000
-41.254800 0.000000
-41.206300 0.000000
-41.157800 10.836600
-41.109300 3.859500
-41.060900 7.436400
-41.012400 13.020600
-40.963900 2.582200
-40.915400 0.000000
-40.866900 0.000000
-40.818400 0.000000
-40.769900 0.000000
-40.721400 0.000000
-40.673000 0.000000
-40.624500 0.000000
-40.576000 0.000000
-40.527500 0.000000
-40.479000 0.000000
-40.430500 0.000000
-40.382000 0.000000
-40.333600 0.000000
-40.285100 0.000000
-40.236600 0.000000
-40.188100 0.000000
-40.139600 0.000000
-40.091100 0.000000
-40.042600 0.000000
-39.994100 0.000000
-39.945700 0.000000
-39.897200 0.000000
-39.848700 0.000000
-39.800200 0.000000
-39.751700 0.000000
-39.703200 0.000000
-39.654700 0.000000
-39.606200 0.000000
-39.557800 0.000000
-39.509300 0.000000
-39.460800 0.000000
-39.412300 0.000000
-39.363800 0.000000
-39.315300 0.000000
-39.266800 0.000000
-39.218400 0.000000
-39.169900 0.000000
-39.121400 0.000000
-39.072900 0.000000
-39.024400 0.000000
-38.975900 0.000000
-38.927400 0.000000
-38.878900 0.000000
-38.830500 0.000000
-38.782000 0.000000
-38.733500 0.000000
-38.685000 0.000000
-38.636500 0.000000
-38.588000 0.000000
-38.539500 0.000000
-38.491100 0.000000
-38.442600 0.000000
-38.394100 0.000000
-38.345600 0.000000
-38.297100 0.000000
-38.248600 0.000000
-38.200100 0.000000
-38.151600 0.000000
-38.103200 0.000000
-38.054700 0.000000
-38.006200 0.000000
-37.957700 0.000000
-37.909200 0.000000
-37.860700 0.000000
-37.812200 0.000000
-37.763700 0.000000
-37.715300 0.000000
-37.666800 0.000000
-37.618300 0.000000
-37.569800 0.000000
-37.521300 0.000000
-37.472800 0.000000
-37.424300 0.000000
-37.375900 0.000000
-37.327400 0.000000
-37.278900 0.000000
-37.230400 0.000000
-37.181900 0.000000
-37.133400 0.000000
-37.084900 0.000000
-37.036400 0.000000
-36.988000 0.000000
-36.939500 0.000000
-36.891000 0.000000
-36.842500 0.000000
-36.794000 0.000000
-36.745500 0.000000
-36.697000 0.000000
-36.648600 0.000000
-36.600100 0.000000
-36.551600 0.000000
-36.503100 0.000000
-36.454600 0.000000
-36.406100 0.000000
-36.357600 0.000000
-36.309100 0.000000
-36.260700 0.000000
-36.212200 0.000000
-36.163700 0.000000
-36.115200 0.000000
-36.066700 0.000000
-36.018200 0.000000
-35.969700 0.000000
-35.921200 0.000000
-35.872800 0.000000
-35.824300 0.000000
-35.775800 0.000000
-35.727300 0.000000
-35.678800 0.000000
-35.630300 0.000000
-35.581800 0.000000
-35.533400 0.000000
-35.484900 0.000000
-35.436400 0.000000
-35.387900 0.000000
-35.339400 0.000000
-35.290900 0.000000
-35.242400 0.000000
-35.193900 0.000000
-35.145500 0.000000
-35.097000 0.000000
-35.048500 0.000000
-35.000000 0.000000
-34.951500 0.000000
-34.903000 0.000000
-34.854500 0.000000
-34.806100 0.000000
-34.757600 0.000000
-34.709100 0.000000
-34.660600 0.000000
-34.612100 0.000000
-34.563600 0.000000
-34.515100 0.000000
-34.466600 0.000000
-34.418200 0.000000
-34.369700 0.000000
-34.321200 0.000000
-34.272700 0.000000
-34.224200 0.000000
-34.175700 0.000000
-34.127200 0.000000
-34.078700 0.000000
-34.030300 0.000000
-33.981800 0.000000
-33.933300 0.000000
-33.884800 0.000000
-33.836300 0.000000
-33.787800 0.000000
-33.739300 0.000000
-33.690900 0.000000
-33.642400 0.000000
-33.593900 0.000000
-33.545400 0.000000
-33.496900 0.000000
-33.448400 0.000000
-33.399900 0.000000
-33.351400 0.000000
-33.303000 0.000000
-33.254500 0.000000
-33.206000 0.000000
-33.157500 0.000000
-33.109000 0.000000
-33.060500 0.000000
-33.012000 0.000000
-32.963600 0.000000
-32.915100 0.000000
-32.866600 0.000000
-32.818100 0.000000
-32.769600 0.000000
-32.721100 0.000000
-32.672600 0.000000
-32.624100 0.000000
-32.575700 0.000000
-32.527200 0.000000
-32.478700 0.000000
-32.430200 0.000000
-32.381700 0.000000
-32.333200 0.000000
-32.284700 0.000000
-32.236200 0.000000
-32.187800 0.000000
-32.139300 0.000000
-32.090800 0.000000
-32.042300 0.000000
-31.993800 0.000000
-31.945300 0.000000
-31.896800 0.000000
-31.848400 0.000000
-31.799900 0.000000
-31.751400 0.000000
-31.702900 0.000000
-31.654400 0.000000
-31.605900 0.000000
-31.557400 0.000000
-31.508900 0.000000
-31.460500 0.000000
-31.412000 0.000000
-31.363500 0.000000
-31.315000 0.000000
-31.266500 0.000000
-31.218000 0.000000
-31.169500 0.000000
-31.121100 0.000000
-31.072600 0.000000
-31.024100 0.000000
-30.975600 0.000000
-30.927100 0.000000
-30.878600 0.000000
-30.830100 0.000000
-30.781600 0.000000
-30.733200 0.000000
-30.684700 0.000000
-30.636200 0.000000
-30.587700 0.000000
-30.539200 0.000000
-30.490700 0.000000
-30.442200 0.000000
-30.393700 0.000000
-30.345300 0.000000
-30.296800 0.000000
-30.248300 0.000000
-30.199800 0.000000
-30.151300 0.000000
-30.102800 0.000000
-30.054300 0.000000
-30.005900 0.000000
-29.957400 0.000000
-29.908900 0.000000
-29.860400 0.000000
-29.811900 0.000000
-29.763400 0.000000
-29.714900 0.000000
-29.666400 0.000000
-29.618000 0.000000
-29.569500 0.000000
-29.521000 0.000000
-29.472500 0.000000
-29.424000 0.000000
-29.375500 0.000000
-29.327000 0.000000
-29.278600 0.000000
-29.230100 0.000000
-29.181600 0.000000
-29.133100 0.000000
-29.084600 0.000000
-29.036100 0.000000
-28.987600 0.000000
-28.939100 0.000000
-28.890700 0.000000
-28.842200 0.000000
-28.793700 0.000000
-28.745200 0.000000
-28.696700 0.000000
-28.648200 0.000000
-28.599700 0.000000
-28.551200 0.000000
-28.502800 0.000000
-28.454300 0.000000
-28.405800 0.000000
-28.357300 0.000000
-28.308800 0.000000
-28.260300 0.000000
-28.211800 0.000000
-28.163400 0.000000
-28.114900 0.000000
-28.066400 0.000000
-28.017900 0.000000
-27.969400 0.000000
-27.920900 0.000000
-27.872400 0.000000
-27.823900 0.000000
-27.775500 0.000000
-27.727000 0.000000
-27.678500 0.000000
-27.630000 0.000000
-27.581500 0.000000
-27.533000 0.000000
-27.484500 0.000000
-27.436100 0.000000
-27.387600 0.000000
-27.339100 0.000000
-27.290600 0.000000
-27.242100 0.000000
-27.193600 0.000000
-27.145100 0.000000
-27.096600 0.000000
-27.048200 0.000000
-26.999700 0.000000
-26.951200 0.000000
-26.902700 0.000000
-26.854200 0.000000
-26.805700 0.000000
-26.757200 0.000000
-26.708700 0.000000
-26.660300 0.000000
-26.611800 0.000000
-26.563300 0.000000
-26.514800 0.000000
-26.466300 0.000000
-26.417800 0.000000
-26.369300 0.000000
-26.320900 0.000000
-26.272400 0.000000
-26.223900 0.000000
-26.175400 0.000000
-26.126900 0.000000
-26.078400 0.000000
-26.029900 0.000000
-25.981400 0.000000
-25.933000 0.000000
-25.884500 0.000000
-25.836000 0.000000
-25.787500 0.000000
-25.739000 0.000000
-25.690500 0.000000
-25.642000 0.000000
-25.593600 0.000000
-25.545100 0.000000
-25.496600 0.000000
-25.448100 0.000000
-25.399600 0.000000
-25.351100 0.000000
-25.302600 0.000000
-25.254100 0.000000
-25.205700 0.000000
-25.157200 0.000000
-25.108700 0.000000
-25.060200 0.000000
-25.011700 0.000000
-24.963200 0.000000
-24.914700 0.000000
-24.866200 0.000000
-24.817800 0.000000
-24.769300 0.000000
-24.720800 0.000000
-24.672300 0.000000
-24.623800 0.000000
-24.575300 0.000000
-24.526800 0.000000
-24.478400 0.000000
-24.429900 0.000000
-24.381400 0.000000
-24.332900 0.000000
-24.284400 0.000000
-24.235900 0.000000
-24.187400 0.000000
-24.138900 0.000000
-24.090500 0.000000
-24.042000 0.000000
-23.993500 0.000000
-23.945000 0.000000
-23.896500 0.000000
-23.848000 0.000000
-23.799500 0.000000
-23.751100 0.000000
-23.702600 0.000000
-23.654100 0.000000
-23.605600 0.000000
-23.557100 0.000000
-23.508600 0.000000
-23.460100 0.000000
-23.411600 0.000000
-23.363200 0.000000
-23.314700 0.000000
-23.266200 0.000000
-23.217700 0.000000
-23.169200 0.000000
-23.120700 0.000000
-23.072200 0.000000
-23.023700 0.000000
-22.975300 0.000000
-22.926800 0.000000
-22.878300 0.000000
-22.829800 0.000000
-22.781300 0.000000
-22.732800 0.000000
-22.684300 0.000000
-22.635900 0.000000
-22.587400 0.000000
-22.538900 0.000000
-22.490400 0.000000
-22.441900 0.000000
-22.393400 0.000000
-22.344900 0.000000
-22.296400 0.000000
-22.248000 0.000000
-22.199500 0.000000
-22.151000 0.000000
-22.102500 0.000000
-22.054000 0.000000
-22.005500 0.000000
-21.957000 0.000000
-21.908600 0.000000
-21.860100 0.000000
-21.811600 0.000000
-21.763100 0.000000
-21.714600 0.000000
-21.666100 0.000000
-21.617600 0.000000
-21.569100 0.000000
-21.520700 0.000000
-21.472200 0.000000
-21.423700 0.000000
-21.375200 0.000000
-21.326700 0.000000
-21.278200 0.000000
-21.229700 0.000000
-21.181200 0.000000
-21.132800 0.000000
-21.084300 0.000000
-21.035800 0.000000
-20.987300 0.000000
-20.938800 0.000000
-20.890300 0.000000
-20.841800 0.000000
-20.793400 0.000000
-20.744900 0.000000
-20.696400 0.000000
-20.647900 0.000000
-20.599400 0.000000
-20.550900 0.000000
-20.502400 0.000000
-20.453900 0.000000
-20.405500 0.000000
-20.357000 0.000000
-20.308500 0.000000
-20.260000 0.000000
-20.211500 0.000000
-20.163000 0.000000
-20.114500 0.000000
-20.066100 0.000000
-20.017600 0.000000
-19.969100 0.000000
-19.920600 0.000000
-19.872100 0.000000
-19.823600 0.000000
-19.775100 0.000000
-19.726600 0.000000
-19.678200 0.000000
-19.629700 0.000000
-19.581200 0.000000
-19.532700 0.000000
-19.484200 0.000000
-19.435700 0.000000
-19.387200 0.000000
-19.338700 0.000000
-19.290300 0.000000
-19.241800 0.000000
-19.193300 0.000000
-19.144800 0.000000
-19.096300 0.000000
-19.047800 0.000000
-18.999300 0.000000
-18.950900 0.000000
-18.902400 0.000000
-18.853900 0.000000
-18.805400 0.000000
-18.756900 0.000000
-18.708400 0.000000
-18.659900 0.000000
-18.611400 0.000000
-18.563000 0.000000
-18.514500 0.000000
-18.466000 0.000000
-18.417500 0.000000
-18.369000 0.000000
-18.320500 0.000000
-18.272000 0.000000
-18.223600 0.000000
-18.175100 0.000000
-18.126600 0.000000
-18.078100 0.000000
-18.029600 0.000000
-17.981100 0.000000
-17.932600 0.000000
-17.884100 0.000000
-17.835700 0.000000
-17.787200 0.000000
-17.738700 0.000000
-17.690200 0.000000
-17.641700 0.000000
-17.593200 0.000000
-17.544700 0.000000
-17.496200 0.000000
-17.447800 0.000000
-17.399300 6.660800
-17.350800 14.474500
-17.302300 3.719100
-17.253800 3.191500
-17.205300 9.553200
-17.156800 12.055700
-17.108400 28.178400
-17.059900 0.000000
-17.011400 0.000000
-16.962900 0.000000
-16.914400 0.000000
-16.865900 0.000000
-16.817400 0.000000
-16.768900 0.000000
-16.720500 0.000000
-16.672000 0.000000
-16.623500 0.000000
-16.575000 0.000000
-16.526500 0.000000
-16.478000 0.000000
-16.429500 0.000000
-16.381100 0.000000
-16.332600 0.000000
-16.284100 0.000000
-16.235600 0.000000
-16.187100 0.000000
-16.138600 0.000000
-16.090100 0.000000
-16.041600 0.000000
-15.993200 0.000000
-15.944700 0.000000
-15.896200 0.000000
-15.847700 0.000000
-15.799200 0.000000
-15.750700 0.000000
-15.702200 0.000000
-15.653700 0.000000
-15.605300 0.000000
-15.556800 0.000000
-15.508300 0.000000
-15.459800 0.000000
-15.411300 0.000000
-15.362800 0.000000
-15.314300 0.000000
-15.265900 0.000000
-15.217400 0.000000
-15.168900 0.000000
-15.120400 0.000000
-15.071900 0.000000
-15.023400 0.000000
-14.974900 0.000000
-14.926400 0.000000
-14.878000 0.000000
-14.829500 0.000000
-14.781000 0.000000
-14.732500 0.000000
-14.684000 0.000000
-14.635500 0.000000
-14.587000 0.000000
-14.538600 0.000000
-14.490100 0.000000
-14.441600 0.000000
-14.393100 0.000000
-14.344600 0.000000
-14.296100 0.000000
-14.247600 0.000000
-14.199100 0.000000
-14.150700 0.000000
-14.102200 0.000000
-14.053700 0.000000
-14.005200 0.000000
-13.956700 0.000000
-13.908200 0.000000
-13.859700 0.000000
-13.811200 0.000000
-13.762800 0.000000
-13.714300 0.000000
-13.665800 0.000000
-13.617300 0.000000
-13.568800 0.000000
-13.520300 0.000000
-13.471800 0.000000
-13.423400 0.000000
-13.374900 0.000000
-13.326400 0.000000
-13.277900 0.000000
-13.229400 0.000000
-13.180900 0.000000
-13.132400 0.000000
-13.083900 0.000000
-13.035500 0.000000
-12.987000 0.000000
-12.938500 0.000000
-12.890000 0.000000
-12.841500 0.000000
-12.793000 0.000000
-12.744500 0.000000
-12.696100 0.000000
-12.647600 0.000000
-12.599100 0.000000
-12.550600 0.000000
-12.502100 0.000000
-12.453600 0.000000
-12.405100 0.000000
-12.356600 0.000000
-12.308200 0.000000
-12.259700 0.000000
-12.211200 0.000000
-12.162700 0.000000
-12.114200 0.000000
-12.065700 0.000000
-12.017200 0.000000
-11.968700 0.000000
-11.920300 0.000000
-11.871800 0.000000
-11.823300 0.000000
-11.774800 0.000000
-11.726300 0.000000
-11.677800 0.000000
-11.629300 0.000000
-11.580900 0.000000
-11.532400 0.000000
-11.483900 0.000000
-11.435400 0.000000
-11.386900 0.000000
-11.338400 0.000000
-11.289900 0.000000
-11.241400 0.000000
-11.193000 0.000000
-11.144500 0.000000
-11.096000 0.000000
-11.047500 0.000000
-10.999000 0.000000
-10.950500 0.000000
-10.902000 0.000000
-10.853500 0.000000
-10.805100 0.000000
-10.756600 0.000000
-10.708100 0.000000
-10.659600 0.000000
-10.611100 0.000000
-10.562600 0.000000
-10.514100 0.000000
-10.465700 0.000000
-10.417200 0.000000
-10.368700 0.000000
-10.320200 0.000000
-10.271700 0.000000
-10.223200 0.000000
-10.174700 0.000000
-10.126200 0.000000
-10.077800 0.000000
-10.029300 0.000000
-9.980800 0.000000
-9.932300 0.000000
-9.883800 0.000000
-9.835300 0.000000
-9.786800 0.000000
-9.738400 0.000000
-9.689900 0.000000
-9.641400 0.000000
-9.592900 0.000000
-9.544400 0.000000
-9.495900 0.000000
-9.447400 0.000000
-9.398900 0.000000
-9.350500 0.000000
-9.302000 0.000000
-9.253500 0.000000
-9.205000 0.000000
-9.156500 0.000000
-9.108000 0.000000
-9.059500 0.000000
-9.011000 0.000000
-8.962600 0.000000
-8.914100 0.000000
-8.865600 0.000000
-8.817100 0.000000
-8.768600 0.000000
-8.720100 0.000000
-8.671600 0.000000
-8.623200 0.000000
-8.574700 0.000000
-8.526200 0.000000
-8.477700 0.000000
-8.429200 0.000000
-8.380700 0.000000
-8.332200 0.000000
-8.283700 0.000000
-8.235300 0.000000
-8.186800 0.000000
-8.138300 0.000000
-8.089800 0.000000
-8.041300 0.000000
-7.992800 0.000000
-7.944300 0.000000
-7.895900 0.000000
-7.847400 0.000000
-7.798900 0.000000
-7.750400 0.000000
-7.701900 0.000000
-7.653400 0.000000
-7.604900 0.000000
-7.556400 0.000000
-7.508000 0.000000
-7.459500 0.000000
-7.411000 0.000000
-7.362500 0.000000
-7.314000 0.000000
-7.265500 0.000000
-7.217000 0.000000
-7.168500 0.000000
-7.120100 0.000000
-7.071600 0.000000
-7.023100 0.000000
-6.974600 0.000000
-6.926100 0.000000
-6.877600 0.000000
-6.829100 0.000000
-6.780700 0.004400
-6.732200 0.071500
-6.683700 0.139700
-6.635200 0.207900
-6.586700 0.116000
-6.538200 0.121700
-6.489700 0.127400
-6.441200 0.133000
-6.392800 0.138700
-6.344300 0.144400
-6.295800 0.147300
-6.247300 0.140200
-6.198800 0.133100
-6.150300 0.126000
-6.101800 0.127300
-6.053400 0.129300
-6.004900 0.131300
-5.956400 0.133300
-5.907900 0.135200
-5.859400 0.137200
-5.810900 0.139200
-5.762400 0.141200
-5.713900 0.143200
-5.665500 0.133800
-5.617000 0.133400
-5.568500 0.133000
-5.520000 0.132500
-5.471500 0.132100
-5.423000 0.131600
-5.374500 0.131200
-5.326000 0.131500
-5.277600 0.132500
-5.229100 0.133600
-5.180600 0.134600
-5.132100 0.135600
-5.083600 0.136600
-5.035100 0.137600
-4.986600 0.138600
-4.938200 0.139700
-4.889700 0.140700
-4.841200 0.139300
-4.792700 0.136700
-4.744200 0.134200
-4.695700 0.132800
-4.647200 0.133000
-4.598700 0.133200
-4.550300 0.133400
-4.501800 0.133700
-4.453300 0.133900
-4.404800 0.134100
-4.356300 0.134300
-4.307800 0.134600
-4.259300 0.134800
-4.210900 0.135300
-4.162400 0.135900
-4.113900 0.136500
-4.065400 0.137200
-4.016900 0.137800
-3.968400 0.138500
-3.919900 0.139100
-3.871400 0.139800
-3.823000 0.140400
-3.774500 0.141000
-3.726000 0.137300
-3.677500 0.137000
-3.629000 0.136600
-3.580500 0.136300
-3.532000 0.136000
-3.483500 0.135600
-3.435100 0.135600
-3.386600 0.135900
-3.338100 0.136300
-3.289600 0.136600
-3.241100 0.137000
-3.192600 0.137300
-3.144100 0.137600
-3.095700 0.138000
-3.047200 0.138300
-2.998700 0.138700
-2.950200 0.139000
-2.901700 0.139400
-2.853200 0.139700
-2.804700 0.140200
-2.756200 0.140700
-2.707800 0.141200
-2.659300 0.141800
-2.610800 0.142300
-2.562300 0.142800
-2.513800 0.143200
-2.465300 0.142600
-2.416800 0.142000
-2.368400 0.141500
-2.319900 0.141900
-2.271400 0.142300
-2.222900 0.142600
-2.174400 0.143000
-2.125900 0.143300
-2.077400 0.143700
-2.028900 0.144000
-1.980500 0.144400
-1.932000 0.144700
-1.883500 0.146000
-1.835000 0.147500
-1.786500 0.148900
-1.738000 0.150400
-1.689500 0.151900
-1.641000 0.153400
-1.592600 0.154900
-1.544100 0.156400
-1.495600 0.157900
-1.447100 0.159400
-1.398600 0.160900
-1.350100 0.162400
-1.301600 0.163900
-1.253200 0.165400
-1.204700 0.219400
-1.156200 0.212700
-1.107700 0.206000
-1.059200 0.199800
-1.010700 0.205600
-0.962200 0.216700
-0.913700 0.231800
-0.865300 0.235300
-0.816800 0.235500
-0.768300 0.409300
-0.719800 0.363400
-0.671300 0.317700
-0.622800 0.272600
-0.574300 0.227500
-0.525900 0.201000
-0.477400 0.203900
-0.428900 0.206800
-0.380400 0.211200
-0.331900 0.214700
-0.283400 0.216600
-0.234900 0.211900
-0.186400 0.205700
-0.138000 0.204200
-0.089500 0.202600
-0.041000 0.200900
0.007500 0.199100
0.056000 0.197000
0.104500 0.194400
0.153000 0.191400
0.201500 0.187100
0.249900 0.243700
0.298400 0.305800
0.346900 0.371000
0.395400 0.160900
0.443900 0.178100
0.492400 0.201400
0.540900 0.225000
0.589300 0.248500
0.637800 0.272000
0.686300 0.295700
0.734800 0.318900
0.783300 0.342400
0.831800 0.365700
0.880300 0.309200
0.928800 0.319600
0.977200 0.330200
1.025700 0.340800
1.074200 0.351400
1.122700 0.362200
1.171200 0.373400
1.219700 0.385100
1.268200 0.396900
1.316600 0.982100
1.365100 0.437700
1.413600 0.450400
1.462100 0.463500
1.510600 0.477500
1.559100 0.492600
1.607600 0.508200
1.656100 0.524200
1.704500 0.540800
1.753000 0.558300
1.801500 0.585500
1.850000 0.627100
1.898500 0.667100
1.947000 0.704000
1.995500 0.750300
2.044000 0.799300
2.092400 0.833800
2.140900 0.826400
2.189400 0.795400
2.237900 1.230100
2.286400 0.731100
2.334900 0.722800
2.383400 0.719100
2.431800 0.733200
2.480300 0.771600
2.528800 0.829400
2.577300 1.013300
2.625800 1.553700
2.674300 1.684100
2.722800 1.631900
2.771300 1.522600
2.819700 1.559900
2.868200 1.437900
2.916700 1.474900
2.965200 1.557600
3.013700 1.828700
3.062200 1.831100
3.110700 1.708400
3.159100 1.759000
3.207600 1.956700
3.256100 2.027500
3.304600 1.845200
3.353100 1.821800
3.401600 1.894900
3.450100 1.976100
3.498600 2.813900
3.547000 2.512900
3.595500 2.264200
3.644000 1.990600
3.692500 2.269900
3.741000 1.909200
3.789500 1.532200
3.838000 2.808800
3.886500 3.935200
3.934900 4.518000
3.983400 4.669700
4.031900 5.232600
4.080400 2.411700
4.128900 1.756900
4.177400 1.745300
4.225900 1.558100
4.274300 1.795600
4.322800 2.118500
4.371300 2.517800
4.419800 2.986900
4.468300 2.643000
4.516800 2.653500
4.565300 2.685900
4.613800 3.125800
4.662200 3.055500
4.710700 3.016700
4.759200 2.989200
4.807700 2.810800
4.856200 2.630800
4.904700 2.453200
4.953200 4.040300
5.001600 2.923300
5.050100 3.001200
5.098600 3.427700
5.147100 3.476100
5.195600 3.669200
5.244100 3.579200
5.292600 3.394000
5.341100 3.172800
5.389500 3.194800
5.438000 3.687100
5.486500 6.211100
5.535000 4.993600
5.583500 4.321600
5.632000 2.705000
5.680500 2.665800
5.729000 3.025900
5.777400 2.989700
5.825900 3.422400
5.874400 3.374800
5.922900 3.090700
5.971400 2.898500
6.019900 3.016800
6.068400 3.843900
6.116800 4.180800
6.165300 3.627700
6.213800 3.168500
6.262300 2.497600
6.310800 1.760300
6.359300 1.477100
6.407800 2.289400
6.456300 3.494400
6.504700 5.337500
6.553200 5.332100
6.601700 2.737500
6.650200 2.027400
6.698700 3.020400
6.747200 3.686400
6.795700 3.395800
6.844100 2.830800
6.892600 2.363900
6.941100 2.200600
6.989600 2.250700
7.038100 2.316300
7.086600 2.591200
7.135100 2.789900
7.183600 2.996500
7.232000 2.642900
7.280500 2.894500
7.329000 2.501000
7.377500 2.329400
7.426000 2.287600
7.474500 2.357700
7.523000 2.442400
7.571500 3.005700
7.619900 2.643000
7.668400 2.789400
7.716900 1.487200
7.765400 6.571500
7.813900 4.266300
7.862400 4.059000
7.910900 3.555900
7.959300 3.091700
8.007800 2.004000
8.056300 1.414300
8.104800 1.359900
8.153300 1.304900
8.201800 1.207900
8.250300 1.138800
8.298800 1.148900
8.347200 1.528800
8.395700 0.989800
8.444200 0.857400
8.492700 0.774900
8.541200 0.706000
8.589700 0.686300
8.638200 0.679000
8.686600 0.792200
8.735100 0.881400
8.783600 0.940700
8.832100 0.995000
8.880600 1.059500
8.929100 1.041700
8.977600 0.942100
9.026100 0.861100
9.074500 0.802500
9.123000 0.730400
9.171500 0.669600
9.220000 0.638200
9.268500 0.632300
9.317000 0.644100
9.365500 0.644200
9.414000 0.651900
9.462400 0.666900
9.510900 0.676500
9.559400 0.744900
9.607900 0.770900
9.656400 0.657600
9.704900 0.565900
9.753400 0.532000
9.801800 0.519700
9.850300 0.503200
9.898800 0.495900
9.947300 0.610400
9.995800 0.788900
10.044300 0.688800
10.092800 0.514000
10.141300 0.509100
10.189700 0.517400
10.238200 0.536400
10.286700 0.593800
10.335200 0.589400
10.383700 0.580600
10.432200 0.547000
10.480700 0.537000
10.529100 0.541300
10.577600 0.536600
10.626100 0.514600
10.674600 0.489000
10.723100 0.472700
10.771600 0.452000
10.820100 0.484000
10.868600 0.432400
10.917000 0.423800
10.965500 0.424600
11.014000 0.426300
11.062500 0.438100
11.111000 0.456800
11.159500 0.489500
11.208000 0.515300
11.256500 0.526800
11.304900 0.557300
11.353400 0.585200
11.401900 0.594800
11.450400 0.599500
11.498900 0.604500
11.547400 0.608900
11.595900 0.613300
11.644300 0.620200
11.692800 0.625000
11.741300 0.621100
11.789800 0.608300
11.838300 0.599200
11.886800 0.584400
11.935300 0.582100
11.983800 0.584500
12.032200 0.653000
12.080700 0.615800
12.129200 0.627300
12.177700 0.664500
12.226200 0.692700
12.274700 0.589700
12.323200 0.598900
12.371600 0.548300
12.420100 0.526900
12.468600 0.508700
12.517100 0.491100
12.565600 0.459800
12.614100 0.438800
12.662600 0.420200
12.711100 0.402000
12.759500 0.543800
12.808000 0.438200
12.856500 0.431400
12.905000 0.430100
12.953500 0.459100
13.002000 0.585600
13.050500 1.044100
13.099000 1.221400
13.147400 1.089600
13.195900 1.171500
13.244400 1.246600
13.292900 1.157400
13.341400 1.048300
13.389900 0.982400
13.438400 0.931000
13.486800 0.829100
13.535300 0.772400
13.583800 0.747400
13.632300 0.742200
13.680800 0.789300
13.729300 0.810000
13.777800 0.761300
13.826300 0.749300
13.874700 0.742500
13.923200 0.738200
13.971700 0.706300
14.020200 0.707100
14.068700 0.706800
14.117200 0.685100
14.165700 0.669500
14.214100 0.663000
14.262600 0.661600
14.311100 0.701100
14.359600 0.606900
14.408100 0.575900
14.456600 0.531300
14.505100 0.514600
14.553600 0.499400
14.602000 0.480800
14.650500 0.469800
14.699000 0.463000
14.747500 0.456400
14.796000 0.463800
14.844500 0.503800
14.893000 0.530700
14.941500 0.544400
14.989900 0.544000
15.038400 0.541900
15.086900 0.544900
15.135400 0.555800
15.183900 0.592300
15.232400 0.621500
15.280900 0.650400
15.329300 0.682800
15.377800 0.699100
15.426300 0.700900
15.474800 0.696300
15.523300 0.668600
15.571800 0.636100
15.620300 0.618900
15.668800 0.606800
15.717200 0.564300
15.765700 0.563400
15.814200 0.584700
15.862700 0.613300
15.911200 0.613400
15.959700 0.593900
16.008200 0.591400
16.056600 0.597500
16.105100 0.606600
16.153600 0.623300
16.202100 0.652200
16.250600 0.645800
16.299100 0.620800
16.347600 0.590400
16.396100 0.599700
16.444500 0.610800
16.493000 0.666100
16.541500 0.646100
16.590000 0.750400
16.638500 0.754300
16.687000 0.752400
16.735500 0.701900
16.784000 0.670500
16.832400 0.677100
16.880900 0.699000
16.929400 0.662600
16.977900 0.630000
17.026400 0.612400
17.074900 0.597000
17.123400 0.577700
17.171800 0.562400
17.220300 0.552500
17.268800 0.546600
17.317300 0.546200
17.365800 0.549700
17.414300 0.566000
17.462800 0.634400
17.511300 0.667300
17.559700 0.706200
17.608200 0.750800
17.656700 0.788600
17.705200 0.771700
17.753700 0.782300
17.802200 0.791000
17.850700 0.790900
17.899200 0.790400
17.947600 0.796200
17.996100 0.815600
18.044600 0.825600
18.093100 0.830200
18.141600 0.826200
18.190100 0.819000
18.238600 0.812100
18.287000 0.805500
18.335500 0.801200
18.384000 0.798100
18.432500 0.800300
18.481000 0.804100
18.529500 0.810300
18.578000 0.815500
18.626500 0.821200
18.674900 0.831800
18.723400 0.846100
18.771900 0.866500
18.820400 0.887900
18.868900 0.921200
18.917400 0.963000
18.965900 1.000900
19.014300 1.014700
19.062800 1.021000
19.111300 1.030600
19.159800 1.032300
19.208300 1.015300
19.256800 0.965600
19.305300 0.890700
19.353800 0.862100
19.402200 0.842400
19.450700 0.842000
19.499200 0.868600
19.547700 0.868400
19.596200 0.864400
19.644700 0.866700
19.693200 0.869100
19.741700 0.867100
19.790100 0.863000
19.838600 0.883300
19.887100 0.894400
19.935600 0.900200
19.984100 0.905200
20.032600 0.894300
20.081100 0.898600
20.129500 0.915100
20.178000 0.924600
20.226500 0.925300
20.275000 0.938400
20.323500 0.958100
20.372000 0.948800
20.420500 0.935200
20.469000 0.919000
20.517400 0.901600
20.565900 0.892300
20.614400 0.887800
20.662900 0.915000
20.711400 0.927700
20.759900 0.928400
20.808400 0.930900
20.856800 0.903600
20.905300 0.882200
20.953800 0.870600
21.002300 0.872500
21.050800 0.885500
21.099300 0.896200
21.147800 0.914500
21.196300 0.930000
21.244700 0.953600
21.293200 0.975900
21.341700 1.048400
21.390200 1.083800
21.438700 0.906000
21.487200 0.935100
21.535700 0.930900
21.584200 0.913500
21.632600 0.903600
21.681100 0.894600
21.729600 0.890400
21.778100 0.897800
21.826600 0.882200
21.875100 0.871400
21.923600 0.880500
21.972000 0.885200
22.020500 0.900400
22.069000 0.957600
22.117500 1.071500
22.166000 1.034200
22.214500 1.001200
22.263000 0.961900
22.311500 0.938700
22.359900 0.909900
22.408400 0.900800
22.456900 0.906100
22.505400 0.913700
22.553900 0.928500
22.602400 0.939400
22.650900 0.945400
22.699300 0.958400
22.747800 0.978500
22.796300 1.002800
22.844800 0.966200
22.893300 0.924800
22.941800 0.910700
22.990300 0.912500
23.038800 0.895200
23.087200 0.880400
23.135700 0.869000
23.184200 0.864200
23.232700 0.855700
23.281200 0.844500
23.329700 0.830800
23.378200 0.815400
23.426700 0.806900
23.475100 0.799300
23.523600 0.795000
23.572100 0.796100
23.620600 0.809200
23.669100 0.828200
23.717600 0.855100
23.766100 0.897000
23.814500 0.935200
23.863000 0.983200
23.911500 1.035900
23.960000 1.037600
24.008500 1.040500
24.057000 1.058000
24.105500 0.961700
24.154000 0.948500
24.202400 0.898300
24.250900 0.850500
24.299400 0.817400
24.347900 0.802000
24.396400 0.792900
24.444900 0.789800
24.493400 0.795000
24.541800 0.797500
24.590300 0.803200
24.638800 0.804500
24.687300 0.800400
24.735800 0.751400
24.784300 0.682000
24.832800 0.660100
24.881300 0.638700
24.929700 0.629500
24.978200 0.629400
25.026700 0.626600
25.075200 0.630900
25.123700 0.648900
25.172200 0.668400
25.220700 0.689600
25.269200 0.718300
25.317600 0.767700
25.366100 0.805400
25.414600 0.838500
25.463100 0.918700
25.511600 0.941600
25.560100 0.977600
25.608600 1.012000
25.657000 1.025300
25.705500 0.997100
25.754000 0.965300
25.802500 0.962900
25.851000 0.992100
25.899500 0.968400
25.948000 0.953200
25.996500 0.952600
26.044900 0.968100
26.093400 1.003500
26.141900 1.039400
26.190400 1.027000
26.238900 1.013700
26.287400 0.999900
26.335900 0.995900
26.384300 1.018200
26.432800 1.044900
26.481300 1.064400
26.529800 1.110500
26.578300 1.181700
26.626800 1.246000
26.675300 1.143900
26.723800 1.097400
26.772200 1.061300
26.820700 0.991800
26.869200 0.955700
26.917700 0.957800
26.966200 0.949200
27.014700 0.911500
27.063200 0.942800
27.111700 0.987300
27.160100 1.019500
27.208600 1.064600
27.257100 1.080300
27.305600 1.101000
27.354100 1.126400
27.402600 1.126400
27.451100 1.122600
27.499500 1.123800
27.548000 1.119400
27.596500 1.126900
27.645000 1.166300
27.693500 1.227000
27.742000 1.237500
27.790500 1.146900
27.839000 0.994100
27.887400 0.929200
27.935900 0.882200
27.984400 0.847200
28.032900 0.859700
28.081400 0.879000
28.129900 0.927300
28.178400 1.016800
28.226800 1.060700
28.275300 1.083100
28.323800 1.078200
28.372300 1.065000
28.420800 1.036300
28.469300 0.984100
28.517800 0.955300
28.566300 0.945100
28.614700 1.022500
28.663200 1.076400
28.711700 1.164300
28.760200 1.209400
28.808700 1.196300
28.857200 1.166400
28.905700 1.179500
28.954200 1.209700
29.002600 1.131700
29.051100 1.086300
29.099600 1.074200
29.148100 1.083700
29.196600 1.110000
29.245100 1.127100
29.293600 1.121600
29.342000 1.099600
29.390500 1.109700
29.439000 1.110100
29.487500 1.091100
29.536000 1.096300
29.584500 1.083000
29.633000 1.066900
29.681500 1.109300
29.729900 1.107400
29.778400 1.043200
29.826900 0.994500
29.875400 0.963900
29.923900 0.939200
29.972400 0.909700
30.020900 0.879300
30.069300 0.871000
30.117800 0.797000
30.166300 0.758500
30.214800 0.757000
30.263300 0.777300
30.311800 0.778900
30.360300 0.767700
30.408800 0.763400
30.457200 0.755000
30.505700 0.732000
30.554200 0.749300
30.602700 0.713300
30.651200 0.654700
30.699700 0.692700
30.748200 0.738000
30.796700 0.765300
30.845100 0.794200
30.893600 0.838000
30.942100 0.895600
30.990600 0.918300
31.039100 0.893700
31.087600 0.922500
31.136100 1.060500
31.184500 1.125200
31.233000 1.126400
31.281500 1.126700
31.330000 1.113800
31.378500 1.059400
31.427000 0.952500
31.475500 0.892100
31.524000 0.869500
31.572400 0.930700
31.620900 0.944000
31.669400 1.002200
31.717900 1.011100
31.766400 1.016400
31.814900 1.028000
31.863400 1.062100
31.911800 1.119400
31.960300 1.145500
32.008800 1.164400
32.057300 1.161800
32.105800 1.112500
32.154300 1.106100
32.202800 1.160900
32.251300 1.120100
32.299700 1.071500
32.348200 1.047300
32.396700 1.064900
32.445200 1.049800
32.493700 1.039000
32.542200 1.024300
32.590700 0.987900
32.639200 0.990900
32.687600 1.026200
32.736100 1.083900
32.784600 1.156800
32.833100 1.170600
32.881600 1.134300
32.930100 1.144300
32.978600 1.183200
33.027000 1.139800
33.075500 1.135400
33.124000 1.096000
33.172500 1.041400
33.221000 1.014200
33.269500 1.013000
33.318000 1.026600
33.366500 1.029600
33.414900 1.043200
33.463400 1.086900
33.511900 1.077100
33.560400 1.082500
33.608900 1.075600
33.657400 1.074100
33.705900 1.073300
33.754300 1.074200
33.802800 1.106300
33.851300 1.139200
33.899800 1.130200
33.948300 1.128600
33.996800 1.138600
34.045300 1.127200
34.093800 1.076200
34.142200 1.059700
34.190700 0.977300
34.239200 0.954700
34.287700 0.940600
34.336200 0.941700
34.384700 0.955800
34.433200 0.970500
34.481700 1.001900
34.530100 1.006400
34.578600 1.026600
34.627100 1.074300
34.675600 1.138900
34.724100 1.208300
34.772600 1.208000
34.821100 1.231600
34.869500 1.266700
34.918000 1.242700
34.966500 1.247100
35.015000 1.211300
35.063500 1.182800
35.112000 1.136200
35.160500 1.101400
35.209000 1.090400
35.257400 1.086600
35.305900 1.053700
35.354400 1.006000
35.402900 0.973000
35.451400 0.962400
35.499900 0.973900
35.548400 0.990700
35.596800 0.998600
35.645300 1.008100
35.693800 1.014200
35.742300 1.024700
35.790800 1.038800
35.839300 1.060500
35.887800 1.078200
35.936300 1.082600
35.984700 1.067500
36.033200 1.053800
36.081700 1.055700
36.130200 1.100300
36.178700 1.102300
36.227200 1.093800
36.275700 1.118600
36.324200 1.246700
36.372600 1.289400
36.421100 1.173700
36.469600 1.172800
36.518100 1.214100
36.566600 1.245200
36.615100 1.265500
36.663600 1.291400
36.712000 1.276700
36.760500 1.303700
36.809000 1.322400
36.857500 1.283900
36.906000 1.210300
36.954500 1.139700
37.003000 1.088800
37.051500 1.077200
37.099900 1.096900
37.148400 1.057900
37.196900 1.012000
37.245400 0.975000
37.293900 0.946100
37.342400 0.929700
37.390900 0.919600
37.439300 0.917100
37.487800 0.922800
37.536300 0.930900
37.584800 0.966200
37.633300 0.992600
37.681800 1.003600
37.730300 1.024100
37.778800 1.065600
37.827200 1.106500
37.875700 1.135500
37.924200 1.142000
37.972700 1.152900
38.021200 1.201800
38.069700 1.224000
38.118200 1.185400
38.166700 1.176800
38.215100 1.167300
38.263600 1.162500
38.312100 1.181000
38.360600 1.227900
38.409100 1.323800
38.457600 1.240900
38.506100 1.197300
38.554500 1.183000
38.603000 1.170800
38.651500 1.195200
38.700000 1.261300
38.748500 1.309700
38.797000 1.396400
38.845500 1.425800
38.894000 1.411000
38.942400 1.399800
38.990900 1.506900
39.039400 1.372300
39.087900 1.357400
39.136400 1.340100
39.184900 1.304200
39.233400 1.263800
39.281800 1.206200
39.330300 1.160000
39.378800 1.144900
39.427300 1.176300
39.475800 1.110800
39.524300 1.072700
39.572800 1.038700
39.621300 1.019500
39.669700 1.007900
39.718200 1.001900
39.766700 0.998000
39.815200 0.993800
39.863700 0.984800
39.912200 0.982100
39.960700 0.977400
40.009200 0.952400
40.057600 0.957100
40.106100 0.955300
40.154600 0.932700
40.203100 0.915000
40.251600 0.877500
40.300100 0.863700
40.348600 0.858600
40.397000 0.856900
40.445500 0.853900
40.494000 0.854700
40.542500 0.861300
40.591000 0.871300
40.639500 0.892400
40.688000 0.897400
40.736500 0.900600
40.784900 0.918800
40.833400 0.953300
40.881900 0.986500
40.930400 1.019100
40.978900 1.055200
41.027400 1.088400
41.075900 1.178800
41.124300 1.224200
41.172800 1.197500
41.221300 1.107900
41.269800 1.068800
41.318300 1.027000
41.366800 0.992900
41.415300 0.987000
41.463800 0.926900
41.512200 0.904900
41.560700 0.913400
41.609200 0.904500
41.657700 0.899700
41.706200 0.901100
41.754700 0.908800
41.803200 0.918600
41.851700 0.893500
41.900100 0.876200
41.948600 0.825100
41.997100 0.794400
42.045600 0.814600
42.094100 0.791100
42.142600 0.753300
42.191100 0.728400
42.239500 0.715900
42.288000 0.715000
42.336500 0.738600
42.385000 0.749000
42.433500 0.768900
42.482000 0.805900
42.530500 0.831100
42.579000 0.807100
42.627400 0.790800
42.675900 0.787600
42.724400 0.774000
42.772900 0.760200
42.821400 0.750800
42.869900 0.740400
42.918400 0.721800
42.966800 0.701900
43.015300 0.682800
43.063800 0.666000
43.112300 0.656600
43.160800 0.672000
43.209300 0.658800
43.257800 0.646200
43.306300 0.646800
43.354700 0.698500
43.403200 0.719100
43.451700 0.693300
43.500200 0.677300
43.548700 0.661200
43.597200 0.660000
43.645700 0.653800
43.694200 0.637700
43.742600 0.622000
43.791100 0.603600
43.839600 0.605900
43.888100 0.569000
43.936600 0.547100
43.985100 0.531600
44.033600 0.521900
44.082000 0.512900
44.130500 0.507200
44.179000 0.503800
44.227500 0.502300
44.276000 0.497800
44.324500 0.479000
44.373000 0.439600
44.421500 0.425800
44.469900 0.425200
44.518400 0.430600
44.566900 0.430300
44.615400 0.418200
44.663900 0.402800
44.712400 0.388600
44.760900 0.370200
44.809300 0.346700
44.857800 0.335600
44.906300 0.267900
44.954800 0.227800
45.003300 0.188400
45.051800 0.170500
45.100300 0.165600
45.148800 0.149100
45.197200 0.132400
45.245700 0.113300
45.294200 0.095900
45.342700 0.080000
45.391200 0.069600
45.439700 0.059700
45.488200 0.050400
45.536700 0.041900
45.585100 0.034300
45.633600 0.028100
45.682100 0.022500
45.730600 0.017300
45.779100 0.012400
45.827600 0.007900
45.876100 0.004100
45.924500 0.001700
45.973000 0.000700
46.021500 0.000100
46.070000 0.000000
46.118500 0.000000
46.167000 0.000000
46.215500 0.000000
46.264000 0.000000
46.312400 0.000000
46.360900 0.000000
46.409400 0.000000
46.457900 0.000000
46.506400 0.000000
46.554900 0.000000
46.603400 0.000000
46.651900 0.000000
46.700300 0.000000
46.748800 0.000000
46.797300 0.000000
46.845800 0.000000
46.894300 0.000000
46.942800 0.000000
46.991300 0.000000
47.039700 0.000000
47.088200 0.000000
47.136700 0.000000
47.185200 0.000000
47.233700 0.000000
47.282200 0.000000
47.330700 0.000000
47.379200 0.000000
47.427600 0.000000
47.476100 0.000000
47.524600 0.000000
47.573100 0.000000
47.621600 0.000000
47.670100 0.000000
47.718600 0.000000
47.767000 0.000000
47.815500 0.000000
47.864000 0.000000
47.912500 0.000000
47.961000 0.000000
48.009500 0.000000
48.058000 0.000000
48.106500 0.000000
48.154900 0.000000
48.203400 0.000000
48.251900 0.000000
48.300400 0.000000
48.348900 0.000000
48.397400 0.000000
48.445900 0.000000
48.494400 0.000000
48.542800 0.000000
48.591300 0.000000
48.639800 0.000000
48.688300 0.000000
48.736800 0.000000
48.785300 0.000000
48.833800 0.000000
48.882200 0.000000
48.930700 0.000000
48.979200 0.000000
49.027700 0.000000
49.076200 0.000000
49.124700 0.000000
49.173200 0.000000
49.221700 0.000000
49.270100 0.000000
49.318600 0.000000
49.367100 0.000000
49.415600 0.000000
49.464100 0.000000
49.512600 0.000000
49.561100 0.000000
49.609500 0.000000
49.658000 0.000000
49.706500 0.000000
49.755000 0.000000
49.803500 0.000000
49.852000 0.000000
49.900500 0.000000
49.949000 0.000000
49.997400 0.000000
50.045900 0.000000
50.094400 0.000000
50.142900 0.000000
50.191400 0.000000
50.239900 0.000000
50.288400 0.000000
50.336900 0.000000
50.385300 0.000000
50.433800 0.000000
50.482300 0.000000
50.530800 0.000000
50.579300 0.000000
50.627800 0.000000
50.676300 0.000000
e
