set title 'mp-12104 - Density of States'
set xlabel 'Energy (eV)'
set ylabel 'DOS (states/eV)'
set grid
set xrange [-10:10]
set yrange [0:21.325]
set xzeroaxis lt -1
set terminal png size 800,600
set output 'mp-12104_dos_gnuplot.png'
plot '-' using 1:2 with lines title 'DOS'
-24.539700 0.000000
-24.514700 0.000000
-24.489600 0.000000
-24.464600 0.000000
-24.439500 0.000000
-24.414500 0.000000
-24.389400 0.000000
-24.364400 0.000000
-24.339400 0.000000
-24.314300 0.000000
-24.289300 0.000000
-24.264200 0.000000
-24.239200 0.000000
-24.214100 0.000000
-24.189100 0.000000
-24.164000 0.000000
-24.139000 0.000000
-24.114000 0.000000
-24.088900 0.000000
-24.063900 0.000000
-24.038800 0.000000
-24.013800 0.000000
-23.988700 0.000000
-23.963700 0.000000
-23.938700 0.000000
-23.913600 0.000000
-23.888600 0.000000
-23.863500 0.000000
-23.838500 0.000000
-23.813400 0.000000
-23.788400 0.000000
-23.763300 0.000000
-23.738300 0.000000
-23.713300 0.000000
-23.688200 0.000000
-23.663200 0.000000
-23.638100 0.000000
-23.613100 0.000000
-23.588000 0.000000
-23.563000 0.000000
-23.537900 0.000000
-23.512900 0.000000
-23.487900 0.000000
-23.462800 0.000000
-23.437800 0.000000
-23.412700 0.000000
-23.387700 0.000000
-23.362600 0.000000
-23.337600 0.000000
-23.312500 0.000000
-23.287500 0.000000
-23.262500 0.000000
-23.237400 0.000000
-23.212400 0.000000
-23.187300 0.000000
-23.162300 0.000000
-23.137200 0.000000
-23.112200 0.000000
-23.087100 0.000000
-23.062100 0.000000
-23.037100 0.000000
-23.012000 0.000000
-22.987000 0.000000
-22.961900 0.000000
-22.936900 0.000000
-22.911800 0.000000
-22.886800 0.000000
-22.861700 0.000000
-22.836700 0.000000
-22.811700 0.000000
-22.786600 0.000000
-22.761600 0.000000
-22.736500 0.000000
-22.711500 0.000000
-22.686400 0.000000
-22.661400 0.000000
-22.636300 0.000000
-22.611300 0.000000
-22.586300 0.000000
-22.561200 0.000000
-22.536200 0.000000
-22.511100 0.000000
-22.486100 0.000000
-22.461000 0.000000
-22.436000 0.000000
-22.410900 0.000000
-22.385900 0.000000
-22.360900 0.000000
-22.335800 0.000000
-22.310800 0.000000
-22.285700 0.000000
-22.260700 37.740500
-22.235600 48.597200
-22.210600 34.105300
-22.185600 41.745700
-22.160500 67.721600
-22.135500 91.450500
-22.110400 38.633200
-22.085400 40.650900
-22.060300 27.843700
-22.035300 24.512400
-22.010200 77.045300
-21.985200 15.928400
-21.960200 12.660400
-21.935100 0.000000
-21.910100 0.000000
-21.885000 0.000000
-21.860000 0.000000
-21.834900 0.000000
-21.809900 0.000000
-21.784800 0.000000
-21.759800 0.000000
-21.734800 0.000000
-21.709700 0.000000
-21.684700 0.000000
-21.659600 0.000000
-21.634600 0.000000
-21.609500 0.000000
-21.584500 0.000000
-21.559400 0.000000
-21.534400 0.000000
-21.509400 0.000000
-21.484300 0.000000
-21.459300 0.000000
-21.434200 0.000000
-21.409200 0.000000
-21.384100 0.000000
-21.359100 0.000000
-21.334000 0.000000
-21.309000 0.000000
-21.284000 0.000000
-21.258900 0.000000
-21.233900 0.000000
-21.208800 0.000000
-21.183800 0.000000
-21.158700 0.000000
-21.133700 0.000000
-21.108600 0.000000
-21.083600 0.000000
-21.058600 0.000000
-21.033500 0.000000
-21.008500 0.000000
-20.983400 0.000000
-20.958400 0.000000
-20.933300 0.000000
-20.908300 0.000000
-20.883200 0.000000
-20.858200 0.000000
-20.833200 0.000000
-20.808100 0.000000
-20.783100 0.000000
-20.758000 0.000000
-20.733000 0.000000
-20.707900 0.000000
-20.682900 0.000000
-20.657800 0.000000
-20.632800 0.000000
-20.607800 0.000000
-20.582700 0.000000
-20.557700 0.000000
-20.532600 0.000000
-20.507600 0.000000
-20.482500 0.000000
-20.457500 0.000000
-20.432400 0.000000
-20.407400 0.000000
-20.382400 0.000000
-20.357300 0.000000
-20.332300 0.000000
-20.307200 0.000000
-20.282200 0.000000
-20.257100 0.000000
-20.232100 0.000000
-20.207100 0.000000
-20.182000 0.000000
-20.157000 0.000000
-20.131900 0.000000
-20.106900 0.000000
-20.081800 0.000000
-20.056800 0.000000
-20.031700 0.000000
-20.006700 0.000000
-19.981700 0.000000
-19.956600 0.000000
-19.931600 0.000000
-19.906500 0.000000
-19.881500 0.000000
-19.856400 0.000000
-19.831400 0.000000
-19.806300 0.000000
-19.781300 0.000000
-19.756300 0.000000
-19.731200 0.000000
-19.706200 0.000000
-19.681100 0.000000
-19.656100 0.000000
-19.631000 0.000000
-19.606000 0.000000
-19.580900 0.000000
-19.555900 0.000000
-19.530900 0.000000
-19.505800 0.000000
-19.480800 0.000000
-19.455700 0.000000
-19.430700 0.000000
-19.405600 0.000000
-19.380600 0.000000
-19.355500 0.000000
-19.330500 0.000000
-19.305500 0.000000
-19.280400 0.000000
-19.255400 0.000000
-19.230300 0.000000
-19.205300 0.000000
-19.180200 0.000000
-19.155200 0.000000
-19.130100 0.000000
-19.105100 0.000000
-19.080100 0.000000
-19.055000 0.000000
-19.030000 0.000000
-19.004900 0.000000
-18.979900 0.000000
-18.954800 0.000000
-18.929800 0.000000
-18.904700 0.000000
-18.879700 0.000000
-18.854700 0.000000
-18.829600 0.000000
-18.804600 0.000000
-18.779500 0.000000
-18.754500 0.000000
-18.729400 0.000000
-18.704400 0.000000
-18.679300 0.000000
-18.654300 0.000000
-18.629300 0.000000
-18.604200 0.000000
-18.579200 0.000000
-18.554100 0.000000
-18.529100 0.000000
-18.504000 0.000000
-18.479000 0.000000
-18.454000 0.000000
-18.428900 0.000000
-18.403900 0.000000
-18.378800 0.000000
-18.353800 0.000000
-18.328700 0.000000
-18.303700 0.000000
-18.278600 0.000000
-18.253600 0.000000
-18.228600 0.000000
-18.203500 0.000000
-18.178500 0.000000
-18.153400 0.000000
-18.128400 0.000000
-18.103300 0.000000
-18.078300 0.000000
-18.053200 0.000000
-18.028200 0.000000
-18.003200 0.000000
-17.978100 0.000000
-17.953100 0.000000
-17.928000 0.000000
-17.903000 0.000000
-17.877900 0.000000
-17.852900 0.000000
-17.827800 0.000000
-17.802800 0.000000
-17.777800 0.000000
-17.752700 0.000000
-17.727700 0.000000
-17.702600 0.000000
-17.677600 0.000000
-17.652500 0.000000
-17.627500 0.000000
-17.602400 0.000000
-17.577400 0.000000
-17.552400 0.000000
-17.527300 0.000000
-17.502300 0.000000
-17.477200 0.000000
-17.452200 0.000000
-17.427100 0.000000
-17.402100 0.000000
-17.377000 0.000000
-17.352000 0.000000
-17.327000 0.000000
-17.301900 0.000000
-17.276900 0.000000
-17.251800 0.000000
-17.226800 0.000000
-17.201700 0.000000
-17.176700 0.000000
-17.151600 0.000000
-17.126600 0.000000
-17.101600 0.000000
-17.076500 0.000000
-17.051500 0.000000
-17.026400 0.000000
-17.001400 0.000000
-16.976300 0.000000
-16.951300 0.000000
-16.926200 0.000000
-16.901200 0.000000
-16.876200 0.000000
-16.851100 0.000000
-16.826100 0.000000
-16.801000 0.000000
-16.776000 0.000000
-16.750900 0.000000
-16.725900 0.000000
-16.700900 0.000000
-16.675800 0.000000
-16.650800 0.000000
-16.625700 0.000000
-16.600700 0.000000
-16.575600 0.000000
-16.550600 0.000000
-16.525500 0.000000
-16.500500 0.000000
-16.475500 0.000000
-16.450400 0.000000
-16.425400 0.000000
-16.400300 0.000000
-16.375300 0.000000
-16.350200 0.000000
-16.325200 0.000000
-16.300100 0.000000
-16.275100 0.000000
-16.250100 0.000000
-16.225000 0.000000
-16.200000 0.000000
-16.174900 0.000000
-16.149900 0.000000
-16.124800 0.000000
-16.099800 0.000000
-16.074700 0.000000
-16.049700 0.000000
-16.024700 0.000000
-15.999600 0.000000
-15.974600 0.000000
-15.949500 0.000000
-15.924500 0.000000
-15.899400 0.000000
-15.874400 0.000000
-15.849300 0.000000
-15.824300 0.000000
-15.799300 0.000000
-15.774200 0.000000
-15.749200 0.000000
-15.724100 0.000000
-15.699100 0.000000
-15.674000 0.000000
-15.649000 0.000000
-15.623900 0.000000
-15.598900 0.000000
-15.573900 0.000000
-15.548800 0.000000
-15.523800 0.000000
-15.498700 0.000000
-15.473700 0.000000
-15.448600 0.000000
-15.423600 0.000000
-15.398500 0.000000
-15.373500 0.000000
-15.348500 0.000000
-15.323400 0.000000
-15.298400 0.000000
-15.273300 0.000000
-15.248300 0.000000
-15.223200 0.000000
-15.198200 0.000000
-15.173100 0.000000
-15.148100 0.000000
-15.123100 0.000000
-15.098000 0.000000
-15.073000 0.000000
-15.047900 0.000000
-15.022900 0.000000
-14.997800 0.000000
-14.972800 0.000000
-14.947700 0.000000
-14.922700 0.000000
-14.897700 0.000000
-14.872600 0.000000
-14.847600 0.000000
-14.822500 0.000000
-14.797500 0.000000
-14.772400 0.000000
-14.747400 0.000000
-14.722400 0.000000
-14.697300 0.000000
-14.672300 0.000000
-14.647200 0.000000
-14.622200 0.000000
-14.597100 0.000000
-14.572100 0.000000
-14.547000 0.000000
-14.522000 0.000000
-14.497000 0.000000
-14.471900 0.000000
-14.446900 0.000000
-14.421800 0.000000
-14.396800 0.000000
-14.371700 0.000000
-14.346700 0.000000
-14.321600 0.000000
-14.296600 0.000000
-14.271600 0.000000
-14.246500 0.000000
-14.221500 0.000000
-14.196400 0.000000
-14.171400 0.000000
-14.146300 0.000000
-14.121300 0.000000
-14.096200 0.000000
-14.071200 0.000000
-14.046200 0.000000
-14.021100 0.000000
-13.996100 0.000000
-13.971000 0.000000
-13.946000 0.000000
-13.920900 0.000000
-13.895900 0.000000
-13.870800 0.000000
-13.845800 0.000000
-13.820800 0.000000
-13.795700 0.000000
-13.770700 0.000000
-13.745600 0.000000
-13.720600 0.000000
-13.695500 0.000000
-13.670500 0.000000
-13.645400 0.000000
-13.620400 0.000000
-13.595400 0.000000
-13.570300 0.000000
-13.545300 0.000000
-13.520200 0.000000
-13.495200 0.000000
-13.470100 0.000000
-13.445100 0.000000
-13.420000 0.000000
-13.395000 0.000000
-13.370000 0.000000
-13.344900 0.000000
-13.319900 0.000000
-13.294800 0.000000
-13.269800 0.000000
-13.244700 0.000000
-13.219700 0.000000
-13.194600 0.000000
-13.169600 0.000000
-13.144600 0.000000
-13.119500 0.000000
-13.094500 0.000000
-13.069400 0.000000
-13.044400 0.000000
-13.019300 0.000000
-12.994300 0.000000
-12.969300 0.000000
-12.944200 0.000000
-12.919200 0.000000
-12.894100 0.000000
-12.869100 0.000000
-12.844000 0.000000
-12.819000 0.000000
-12.793900 0.000000
-12.768900 0.000000
-12.743900 0.000000
-12.718800 0.000000
-12.693800 0.000000
-12.668700 0.000000
-12.643700 0.000000
-12.618600 0.000000
-12.593600 0.000000
-12.568500 0.000000
-12.543500 0.000000
-12.518500 0.000000
-12.493400 0.000000
-12.468400 0.000000
-12.443300 0.000000
-12.418300 0.000000
-12.393200 0.000000
-12.368200 0.000000
-12.343100 0.000000
-12.318100 0.000000
-12.293100 0.000000
-12.268000 0.000000
-12.243000 0.000000
-12.217900 0.000000
-12.192900 0.000000
-12.167800 0.000000
-12.142800 0.000000
-12.117700 0.000000
-12.092700 0.000000
-12.067700 0.000000
-12.042600 0.000000
-12.017600 0.000000
-11.992500 0.000000
-11.967500 0.000000
-11.942400 0.000000
-11.917400 0.000000
-11.892300 0.000000
-11.867300 0.000000
-11.842300 0.000000
-11.817200 0.000000
-11.792200 0.000000
-11.767100 0.000000
-11.742100 0.000000
-11.717000 0.000000
-11.692000 0.000000
-11.666900 0.000000
-11.641900 0.000000
-11.616900 0.000000
-11.591800 0.000000
-11.566800 0.000000
-11.541700 0.000000
-11.516700 0.000000
-11.491600 0.000000
-11.466600 0.000000
-11.441500 0.000000
-11.416500 0.000000
-11.391500 0.000000
-11.366400 0.000000
-11.341400 0.000000
-11.316300 0.000000
-11.291300 0.000000
-11.266200 0.000000
-11.241200 0.000000
-11.216200 0.000000
-11.191100 0.000000
-11.166100 0.000000
-11.141000 0.000000
-11.116000 0.000000
-11.090900 0.000000
-11.065900 0.000000
-11.040800 0.000000
-11.015800 0.000000
-10.990800 0.000000
-10.965700 0.000000
-10.940700 0.000000
-10.915600 0.000000
-10.890600 0.000000
-10.865500 0.000000
-10.840500 0.000000
-10.815400 0.000000
-10.790400 0.000000
-10.765400 0.000000
-10.740300 0.000000
-10.715300 0.000000
-10.690200 0.000000
-10.665200 0.000000
-10.640100 0.000000
-10.615100 0.000000
-10.590000 0.000000
-10.565000 0.000000
-10.540000 0.000000
-10.514900 0.000000
-10.489900 0.000000
-10.464800 0.000000
-10.439800 0.000000
-10.414700 0.000000
-10.389700 0.000000
-10.364600 0.000000
-10.339600 0.000000
-10.314600 0.000000
-10.289500 0.000000
-10.264500 0.000000
-10.239400 0.000000
-10.214400 0.000000
-10.189300 0.000000
-10.164300 0.000000
-10.139200 0.000000
-10.114200 0.000000
-10.089200 0.000000
-10.064100 0.000000
-10.039100 0.000000
-10.014000 0.000000
-9.989000 0.000000
-9.963900 0.000000
-9.938900 0.000000
-9.913800 0.000000
-9.888800 0.000000
-9.863800 0.000000
-9.838700 0.000000
-9.813700 0.000000
-9.788600 0.000000
-9.763600 0.000000
-9.738500 0.000000
-9.713500 0.000000
-9.688400 0.000000
-9.663400 0.000000
-9.638400 0.000000
-9.613300 0.000000
-9.588300 0.000000
-9.563200 0.000000
-9.538200 0.000000
-9.513100 0.000000
-9.488100 0.000000
-9.463000 0.000000
-9.438000 0.000000
-9.413000 0.000000
-9.387900 0.000000
-9.362900 0.000000
-9.337800 0.000000
-9.312800 0.000000
-9.287700 0.000000
-9.262700 0.000000
-9.237700 0.000000
-9.212600 0.000000
-9.187600 0.000000
-9.162500 0.000000
-9.137500 0.000000
-9.112400 0.000000
-9.087400 0.000000
-9.062300 0.000000
-9.037300 0.000000
-9.012300 0.000000
-8.987200 0.000000
-8.962200 0.000000
-8.937100 0.000000
-8.912100 0.000000
-8.887000 0.000000
-8.862000 0.000000
-8.836900 0.000000
-8.811900 0.000000
-8.786900 0.000000
-8.761800 0.000000
-8.736800 0.000000
-8.711700 0.000000
-8.686700 0.000000
-8.661600 0.000000
-8.636600 0.000000
-8.611500 0.000000
-8.586500 0.000000
-8.561500 0.000000
-8.536400 0.000000
-8.511400 0.000000
-8.486300 0.000000
-8.461300 0.000000
-8.436200 0.000000
-8.411200 0.000000
-8.386100 0.000000
-8.361100 0.000000
-8.336100 0.000000
-8.311000 0.000000
-8.286000 0.000000
-8.260900 0.000000
-8.235900 0.000000
-8.210800 0.000000
-8.185800 0.000000
-8.160700 0.000000
-8.135700 0.000000
-8.110700 0.000000
-8.085600 0.000000
-8.060600 0.000000
-8.035500 0.000000
-8.010500 0.000000
-7.985400 0.000000
-7.960400 0.000000
-7.935300 0.000000
-7.910300 0.000000
-7.885300 0.000000
-7.860200 0.000000
-7.835200 0.000000
-7.810100 0.000000
-7.785100 0.000000
-7.760000 0.000000
-7.735000 0.000000
-7.709900 0.000000
-7.684900 0.000000
-7.659900 0.000000
-7.634800 0.000000
-7.609800 0.000000
-7.584700 0.000000
-7.559700 0.000000
-7.534600 0.000000
-7.509600 0.000000
-7.484600 0.000000
-7.459500 0.000000
-7.434500 0.000000
-7.409400 0.000000
-7.384400 0.000000
-7.359300 0.000000
-7.334300 0.000000
-7.309200 0.000000
-7.284200 0.000000
-7.259200 0.000000
-7.234100 0.000000
-7.209100 0.000000
-7.184000 0.000000
-7.159000 0.000000
-7.133900 0.000000
-7.108900 0.000000
-7.083800 0.000000
-7.058800 0.000000
-7.033800 0.000000
-7.008700 0.000000
-6.983700 0.000000
-6.958600 0.000000
-6.933600 0.000000
-6.908500 0.000000
-6.883500 0.000000
-6.858400 0.000000
-6.833400 0.000000
-6.808400 0.000000
-6.783300 0.000000
-6.758300 0.000000
-6.733200 0.000000
-6.708200 0.000000
-6.683100 0.000000
-6.658100 0.000000
-6.633000 0.000000
-6.608000 0.000000
-6.583000 0.000000
-6.557900 0.000000
-6.532900 0.000000
-6.507800 0.000000
-6.482800 0.000000
-6.457700 0.000000
-6.432700 0.000000
-6.407600 0.000000
-6.382600 0.000000
-6.357600 0.000000
-6.332500 0.000000
-6.307500 0.000000
-6.282400 0.000000
-6.257400 0.000000
-6.232300 0.000000
-6.207300 0.000000
-6.182200 0.000000
-6.157200 0.000000
-6.132200 0.000000
-6.107100 0.000000
-6.082100 0.000000
-6.057000 0.000000
-6.032000 0.000000
-6.006900 0.000000
-5.981900 0.000000
-5.956800 0.000000
-5.931800 0.000000
-5.906800 0.000000
-5.881700 0.000000
-5.856700 0.000000
-5.831600 0.000000
-5.806600 0.000000
-5.781500 0.000000
-5.756500 0.000000
-5.731500 0.000000
-5.706400 0.000000
-5.681400 0.000000
-5.656300 0.000000
-5.631300 0.000000
-5.606200 0.000000
-5.581200 0.000000
-5.556100 0.000000
-5.531100 0.000000
-5.506100 0.000000
-5.481000 0.000000
-5.456000 0.000000
-5.430900 0.000000
-5.405900 0.000000
-5.380800 0.000000
-5.355800 0.000000
-5.330700 0.000000
-5.305700 0.000000
-5.280700 0.000000
-5.255600 0.000000
-5.230600 0.000000
-5.205500 0.000000
-5.180500 0.000000
-5.155400 0.000000
-5.130400 0.000000
-5.105300 0.000000
-5.080300 0.000000
-5.055300 0.000000
-5.030200 0.000000
-5.005200 0.000000
-4.980100 0.000000
-4.955100 0.000000
-4.930000 0.000000
-4.905000 0.000000
-4.879900 0.000000
-4.854900 0.000000
-4.829900 0.000000
-4.804800 0.000000
-4.779800 0.000000
-4.754700 0.000000
-4.729700 0.000000
-4.704600 0.000000
-4.679600 0.000000
-4.654500 0.000000
-4.629500 0.000000
-4.604500 0.000000
-4.579400 0.000000
-4.554400 0.000000
-4.529300 0.000000
-4.504300 0.000000
-4.479200 0.000000
-4.454200 0.000000
-4.429100 0.000000
-4.404100 0.000000
-4.379100 0.000000
-4.354000 0.000000
-4.329000 0.000000
-4.303900 0.000000
-4.278900 0.000000
-4.253800 0.000000
-4.228800 0.000000
-4.203700 0.000000
-4.178700 0.000000
-4.153700 0.000000
-4.128600 0.000000
-4.103600 0.000000
-4.078500 0.000000
-4.053500 0.000000
-4.028400 0.000000
-4.003400 0.000000
-3.978300 0.000000
-3.953300 0.000000
-3.928300 0.007400
-3.903200 0.047200
-3.878200 0.121400
-3.853100 0.224800
-3.828100 0.264200
-3.803000 0.283500
-3.778000 0.283900
-3.753000 0.315600
-3.727900 0.348500
-3.702900 0.382400
-3.677800 0.417300
-3.652800 0.451000
-3.627700 0.478200
-3.602700 0.495700
-3.577600 0.505600
-3.552600 0.515400
-3.527600 0.533100
-3.502500 0.553400
-3.477500 0.574200
-3.452400 0.594900
-3.427400 0.615600
-3.402300 0.636400
-3.377300 0.657200
-3.352200 0.678800
-3.327200 0.700900
-3.302200 0.719100
-3.277100 0.750900
-3.252100 0.821900
-3.227000 0.886700
-3.202000 0.943100
-3.176900 0.862500
-3.151900 0.872400
-3.126800 0.882000
-3.101800 0.891500
-3.076800 0.900700
-3.051700 0.909300
-3.026700 0.917700
-3.001600 0.917300
-2.976600 0.917900
-2.951500 0.919400
-2.926500 0.927700
-2.901400 0.936800
-2.876400 0.945500
-2.851400 0.953700
-2.826300 0.962300
-2.801300 0.971500
-2.776200 1.040300
-2.751200 1.122800
-2.726100 1.210900
-2.701100 1.151000
-2.676000 1.177400
-2.651000 1.204700
-2.626000 1.233400
-2.600900 1.264400
-2.575900 1.297900
-2.550800 1.330200
-2.525800 1.355500
-2.500700 1.381100
-2.475700 1.408200
-2.450600 1.442800
-2.425600 1.487500
-2.400600 1.545800
-2.375500 1.614600
-2.350500 1.744200
-2.325400 1.992600
-2.300400 2.117200
-2.275300 2.010000
-2.250300 1.907400
-2.225200 1.876400
-2.200200 1.869700
-2.175200 1.855300
-2.150100 1.833200
-2.125100 1.804100
-2.100000 1.793600
-2.075000 1.862900
-2.049900 1.946800
-2.024900 1.797300
-1.999900 1.600400
-1.974800 1.568700
-1.949800 1.538200
-1.924700 1.508900
-1.899700 1.494600
-1.874600 1.484700
-1.849600 1.458800
-1.824500 1.778900
-1.799500 1.458200
-1.774500 1.216200
-1.749400 1.174100
-1.724400 1.136400
-1.699300 1.103000
-1.674300 1.074000
-1.649200 1.050800
-1.624200 1.064700
-1.599100 1.124500
-1.574100 1.173000
-1.549100 0.905200
-1.524000 0.934000
-1.499000 0.979000
-1.473900 1.031200
-1.448900 1.088400
-1.423800 1.150200
-1.398800 1.437900
-1.373700 1.390700
-1.348700 1.338600
-1.323700 1.346500
-1.298600 1.423300
-1.273600 1.522600
-1.248500 1.643900
-1.223500 1.787200
-1.198400 2.027600
-1.173400 2.364600
-1.148300 2.492100
-1.123300 2.454000
-1.098300 2.473200
-1.073200 2.448300
-1.048200 2.325000
-1.023100 2.198200
-0.998100 2.158700
-0.973000 2.255200
-0.948000 2.355800
-0.922900 2.223400
-0.897900 2.048400
-0.872900 1.967800
-0.847800 2.521000
-0.822800 1.976800
-0.797700 2.823500
-0.772700 3.067200
-0.747600 2.169600
-0.722600 2.128500
-0.697500 2.477100
-0.672500 2.136100
-0.647500 2.086000
-0.622400 2.012800
-0.597400 1.924200
-0.572300 1.839900
-0.547300 1.775400
-0.522200 1.727300
-0.497200 1.700000
-0.472100 1.786200
-0.447100 1.907500
-0.422100 2.049500
-0.397000 2.205900
-0.372000 2.335400
-0.346900 2.390600
-0.321900 2.298300
-0.296800 2.211800
-0.271800 2.123600
-0.246800 2.015100
-0.221700 1.889500
-0.196700 1.758900
-0.171600 1.649700
-0.146600 1.535700
-0.121500 1.420200
-0.096500 1.377200
-0.071400 1.347400
-0.046400 1.350400
-0.021400 1.419400
0.003700 1.525700
0.028700 1.693900
0.053800 2.010900
0.078800 2.464500
0.103900 2.838300
0.128900 3.141200
0.154000 3.033400
0.179000 3.522100
0.204000 3.716900
0.229100 3.960500
0.254100 4.148600
0.279200 4.134200
0.304200 3.971900
0.329300 3.625900
0.354300 3.081400
0.379400 2.751100
0.404400 2.528600
0.429400 2.339800
0.454500 2.182800
0.479500 2.064400
0.504600 1.955900
0.529600 1.801700
0.554700 1.648500
0.579700 1.554100
0.604800 1.473500
0.629800 1.486900
0.654800 1.425400
0.679900 1.365000
0.704900 1.312400
0.730000 1.279000
0.755000 1.251700
0.780100 1.247700
0.805100 1.284200
0.830200 1.384400
0.855200 1.547700
0.880200 1.598500
0.905300 1.650500
0.930300 1.702700
0.955400 1.763100
0.980400 1.904600
1.005500 2.192100
1.030500 2.332400
1.055600 2.140000
1.080600 2.020600
1.105600 1.977900
1.130700 2.039600
1.155700 2.095500
1.180800 2.119700
1.205800 2.113400
1.230900 2.108900
1.255900 2.365600
1.281000 2.784200
1.306000 3.135300
1.331000 3.773100
1.356100 3.638900
1.381100 3.475200
1.406200 3.338700
1.431200 3.190100
1.456300 2.885400
1.481300 2.570300
1.506400 2.439500
1.531400 2.293500
1.556400 2.131900
1.581500 1.992400
1.606500 1.845800
1.631600 1.621600
1.656600 1.411500
1.681700 1.312100
1.706700 1.231600
1.731700 1.149100
1.756800 1.068200
1.781800 0.990000
1.806900 0.917500
1.831900 1.006600
1.857000 1.066100
1.882000 1.186600
1.907100 1.724400
1.932100 2.423400
1.957100 3.372300
1.982200 5.229600
2.007200 5.550400
2.032300 4.048000
2.057300 3.215700
2.082400 3.087800
2.107400 3.018900
2.132500 2.966200
2.157500 2.928900
2.182500 2.902900
2.207600 2.887400
2.232600 2.920600
2.257700 2.835100
2.282700 2.759000
2.307800 2.709000
2.332800 2.688600
2.357900 2.540100
2.382900 2.396900
2.407900 2.256700
2.433000 1.884700
2.458000 1.473200
2.483100 1.352300
2.508100 1.298600
2.533200 1.249300
2.558200 1.216000
2.583300 1.185400
2.608300 1.159700
2.633300 1.141300
2.658400 1.109200
2.683400 1.060600
2.708500 1.015700
2.733500 0.972100
2.758600 0.925800
2.783600 0.882200
2.808700 0.845500
2.833700 0.815500
2.858700 0.858300
2.883800 0.934000
2.908800 1.021100
2.933900 1.119300
2.958900 1.228300
2.984000 1.226500
3.009000 1.279500
3.034100 1.343600
3.059100 1.422100
3.084100 1.527100
3.109200 2.269400
3.134200 1.973200
3.159300 1.944800
3.184300 1.846400
3.209400 1.696000
3.234400 1.596900
3.259500 1.559600
3.284500 1.590600
3.309500 1.687300
3.334600 1.946900
3.359600 2.676200
3.384700 3.718300
3.409700 5.160300
3.434800 5.870800
3.459800 6.884400
3.484800 6.905800
3.509900 7.637700
3.534900 7.072100
3.560000 5.800000
3.585000 4.775100
3.610100 4.201600
3.635100 3.134500
3.660200 2.129100
3.685200 1.852000
3.710200 1.738500
3.735300 1.750600
3.760300 1.846100
3.785400 2.022500
3.810400 2.539300
3.835500 3.433400
3.860500 4.999500
3.885600 5.117800
3.910600 10.268300
3.935600 5.453800
3.960700 4.435700
3.985700 4.091600
4.010800 4.138700
4.035800 2.722400
4.060900 2.222300
4.085900 2.076600
4.111000 2.129800
4.136000 2.120800
4.161000 2.107300
4.186100 2.032400
4.211100 2.087200
4.236200 3.230700
4.261200 2.824200
4.286300 2.612500
4.311300 2.607500
4.336400 2.639200
4.361400 2.796300
4.386400 3.100900
4.411500 3.392200
4.436500 3.662600
4.461600 3.909400
4.486600 4.129700
4.511700 4.951300
4.536700 4.438200
4.561800 3.994200
4.586800 3.924300
4.611800 3.935600
4.636900 4.133400
4.661900 4.222200
4.687000 4.261600
4.712000 4.160200
4.737100 3.938800
4.762100 3.722300
4.787200 3.516000
4.812200 3.328100
4.837200 3.160900
4.862300 2.913400
4.887300 3.053200
4.912400 2.851700
4.937400 2.495600
4.962500 2.722400
4.987500 2.982400
5.012600 3.256800
5.037600 3.513100
5.062600 3.626400
5.087700 3.751800
5.112700 4.160000
5.137800 4.220100
5.162800 4.110200
5.187900 4.001700
5.212900 3.840200
5.237900 4.008000
5.263000 4.013800
5.288000 4.024400
5.313100 3.932600
5.338100 3.955400
5.363200 3.972900
5.388200 3.262100
5.413300 3.262100
5.438300 3.361500
5.463300 3.508200
5.488400 3.630300
5.513400 3.804100
5.538500 4.276800
5.563500 4.503300
5.588600 4.520900
5.613600 4.260100
5.638700 3.723200
5.663700 3.574200
5.688700 3.718800
5.713800 4.096700
5.738800 4.394600
5.763900 4.627900
5.788900 4.798200
5.814000 4.975400
5.839000 5.073300
5.864100 4.986500
5.889100 5.100000
5.914100 4.840400
5.939200 4.445900
5.964200 4.375800
5.989300 4.771400
6.014300 5.563100
6.039400 6.376400
6.064400 6.400100
6.089500 7.140700
6.114500 7.746100
6.139500 8.783900
6.164600 8.358500
6.189600 6.852300
6.214700 7.435600
6.239700 7.374800
6.264800 8.756300
6.289800 9.747400
6.314900 12.339900
6.339900 19.386500
6.364900 11.001600
6.390000 7.342400
6.415000 5.657400
6.440100 4.281300
6.465100 4.027500
6.490200 5.812500
6.515200 6.956800
6.540300 8.307600
6.565300 13.838600
6.590300 14.972900
6.615400 14.749700
6.640400 12.517200
6.665500 10.462200
6.690500 10.304000
6.715600 12.231400
6.740600 13.439300
6.765700 13.133100
6.790700 16.538700
6.815700 16.768100
6.840800 13.530800
6.865800 12.423600
6.890900 13.221700
6.915900 11.949600
6.941000 8.844500
6.966000 5.866100
6.991000 5.415500
7.016100 5.534900
7.041100 5.703400
7.066200 6.152100
7.091200 6.737700
7.116300 5.819900
7.141300 5.428100
7.166400 6.633700
7.191400 7.656900
7.216400 7.201200
7.241500 7.011800
7.266500 6.642600
7.291600 6.498000
7.316600 6.319200
7.341700 5.847100
7.366700 5.263700
7.391800 4.910300
7.416800 4.532100
7.441800 4.370500
7.466900 4.335100
7.491900 4.401400
7.517000 4.490800
7.542000 4.642500
7.567100 5.006500
7.592100 5.025700
7.617200 4.620500
7.642200 4.193400
7.667200 3.786600
7.692300 3.495000
7.717300 3.368700
7.742400 3.236800
7.767400 3.175900
7.792500 3.030000
7.817500 2.753700
7.842600 2.516400
7.867600 2.371600
7.892600 2.287500
7.917700 2.171400
7.942700 2.053100
7.967800 1.946600
7.992800 1.858900
8.017900 1.816100
8.042900 1.857300
8.068000 1.888300
8.093000 2.026300
8.118000 2.130800
8.143100 1.917700
8.168100 1.961700
8.193200 1.908700
8.218200 1.906300
8.243300 1.912300
8.268300 1.903300
8.293400 1.881300
8.318400 1.861700
8.343400 1.867700
8.368500 1.881400
8.393500 1.900400
8.418600 1.926300
8.443600 1.821300
8.468700 1.844200
8.493700 2.492200
8.518800 3.072600
8.543800 3.786800
8.568800 3.944500
8.593900 3.627700
8.618900 3.613700
8.644000 3.636100
8.669000 3.652500
8.694100 3.714900
8.719100 3.687300
8.744200 3.709600
8.769200 3.602200
8.794200 3.767500
8.819300 4.022000
8.844300 4.028800
8.869400 3.675400
8.894400 2.927700
8.919500 2.916400
8.944500 2.842700
8.969500 2.586100
8.994600 2.279000
9.019600 2.190000
9.044700 2.128800
9.069700 1.988800
9.094800 1.810300
9.119800 1.850600
9.144900 1.930200
9.169900 2.115700
9.194900 2.548700
9.220000 2.702700
9.245000 2.227700
9.270100 2.357300
9.295100 2.374300
9.320200 2.328100
9.345200 2.297300
9.370300 2.282600
9.395300 2.207500
9.420300 2.258800
9.445400 2.326300
9.470400 2.488800
9.495500 2.574300
9.520500 2.663100
9.545600 2.701100
9.570600 2.762900
9.595700 3.184400
9.620700 2.926200
9.645700 2.588100
9.670800 2.317500
9.695800 2.181300
9.720900 2.033600
9.745900 1.850700
9.771000 1.315100
9.796000 1.184700
9.821100 1.060100
9.846100 1.042100
9.871100 0.956300
9.896200 0.791700
9.921200 0.837400
9.946300 0.992100
9.971300 1.284200
9.996400 1.969600
10.021400 3.114700
10.046500 4.193300
10.071500 4.733600
10.096500 3.799900
10.121600 3.469500
10.146600 3.508700
10.171700 3.658600
10.196700 3.777900
10.221800 4.245800
10.246800 3.536600
10.271900 3.255900
10.296900 3.157400
10.321900 3.247600
10.347000 3.279700
10.372000 3.451500
10.397100 3.648500
10.422100 4.525900
10.447200 4.265400
10.472200 3.806500
10.497300 4.236400
10.522300 4.944600
10.547300 6.393200
10.572400 7.330400
10.597400 7.319200
10.622500 6.016700
10.647500 5.092800
10.672600 4.879100
10.697600 5.129900
10.722600 7.059500
10.747700 7.833400
10.772700 8.841500
10.797800 8.166100
10.822800 7.997100
10.847900 7.726400
10.872900 7.389100
10.898000 6.626000
10.923000 5.251100
10.948000 4.942800
10.973100 4.750300
10.998100 5.915200
11.023200 5.690000
11.048200 5.064400
11.073300 4.661200
11.098300 4.422900
11.123400 4.400900
11.148400 4.523500
11.173400 4.931400
11.198500 5.816400
11.223500 6.355900
11.248600 7.369900
11.273600 8.926200
11.298700 9.774600
11.323700 10.028700
11.348800 11.051400
11.373800 7.255600
11.398800 7.459700
11.423900 5.448900
11.448900 5.700700
11.474000 6.419600
11.499000 6.164900
11.524100 6.327800
11.549100 6.277400
11.574200 6.518100
11.599200 6.532600
11.624200 5.369700
11.649300 4.276800
11.674300 4.454300
11.699400 4.333000
11.724400 4.277200
11.749500 5.801600
11.774500 5.299500
11.799600 5.710200
11.824600 6.097200
11.849600 7.127400
11.874700 9.227500
11.899700 8.485900
11.924800 8.640600
11.949800 8.978300
11.974900 10.112600
11.999900 9.203200
12.025000 9.416000
12.050000 8.206500
12.075000 6.564300
12.100100 6.402600
12.125100 8.292000
12.150200 5.397900
12.175200 5.507900
12.200300 7.142900
12.225300 7.733300
12.250400 6.717300
12.275400 6.855100
12.300400 7.758300
12.325500 11.271700
12.350500 9.826400
12.375600 9.153900
12.400600 7.923700
12.425700 7.427800
12.450700 7.951000
12.475700 9.267400
12.500800 11.230000
12.525800 10.361600
12.550900 7.097100
12.575900 5.826500
12.601000 5.085900
12.626000 4.479800
12.651100 4.366700
12.676100 5.216700
12.701100 6.292400
12.726200 8.842500
12.751200 8.022700
12.776300 6.494000
12.801300 6.672900
12.826400 7.579300
12.851400 8.395900
12.876500 6.921700
12.901500 5.839400
12.926500 5.472800
12.951600 7.228400
12.976600 5.487800
13.001700 5.145400
13.026700 5.171200
13.051800 5.481800
13.076800 6.487000
13.101900 7.301200
13.126900 7.768700
13.151900 6.143500
13.177000 4.976700
13.202000 4.829800
13.227100 5.454100
13.252100 5.559300
13.277200 5.041300
13.302200 6.179200
13.327300 6.094100
13.352300 5.571900
13.377300 5.665100
13.402400 5.345800
13.427400 5.224600
13.452500 5.185600
13.477500 5.566700
13.502600 5.508000
13.527600 4.714200
13.552700 4.520700
13.577700 4.168900
13.602700 4.285300
13.627800 4.304200
13.652800 4.403200
13.677900 4.618100
13.702900 4.436000
13.728000 4.476600
13.753000 4.820000
13.778100 4.904900
13.803100 5.050800
13.828100 5.110700
13.853200 4.091100
13.878200 3.943500
13.903300 3.888900
13.928300 4.123300
13.953400 4.320000
13.978400 4.449300
14.003500 4.591100
14.028500 4.835100
14.053500 5.089500
14.078600 5.253100
14.103600 5.338700
14.128700 5.756700
14.153700 5.978300
14.178800 6.318400
14.203800 6.334200
14.228900 6.396800
14.253900 6.873100
14.278900 6.803200
14.304000 5.050600
14.329000 4.791000
14.354100 4.644900
14.379100 4.596900
14.404200 4.606300
14.429200 5.170900
14.454200 5.155900
14.479300 4.778200
14.504300 4.614900
14.529400 4.488600
14.554400 4.386200
14.579500 4.715300
14.604500 5.034900
14.629600 5.370000
14.654600 5.217800
14.679600 5.198600
14.704700 5.060900
14.729700 5.098200
14.754800 5.103400
14.779800 5.107600
14.804900 6.249400
14.829900 6.174000
14.855000 5.001000
14.880000 4.397600
14.905000 4.285100
14.930100 4.380100
14.955100 4.542800
14.980200 4.837900
15.005200 6.027000
15.030300 7.064900
15.055300 7.719500
15.080400 8.251200
15.105400 8.424200
15.130400 7.586600
15.155500 6.137900
15.180500 5.577700
15.205600 4.426100
15.230600 4.314600
15.255700 4.225600
15.280700 4.362000
15.305800 6.786200
15.330800 8.405800
15.355800 8.470800
15.380900 7.386100
15.405900 5.918400
15.431000 5.237400
15.456000 5.179100
15.481100 5.331500
15.506100 5.029900
15.531200 4.935300
15.556200 5.221000
15.581200 5.626600
15.606300 6.549700
15.631300 6.248400
15.656400 5.985600
15.681400 5.462600
15.706500 5.252000
15.731500 5.575800
15.756600 5.752300
15.781600 5.809000
15.806600 5.503800
15.831700 5.237800
15.856700 5.189700
15.881800 5.340600
15.906800 5.444400
15.931900 5.999800
15.956900 6.351900
15.982000 6.708600
16.007000 6.924300
16.032000 6.797200
16.057100 6.804500
16.082100 6.748800
16.107200 6.430400
16.132200 6.115300
16.157300 5.243000
16.182300 4.887900
16.207300 4.460200
16.232400 4.139400
16.257400 4.192000
16.282500 4.784600
16.307500 4.591900
16.332600 4.396900
16.357600 4.446700
16.382700 5.061600
16.407700 5.430700
16.432700 6.118400
16.457800 5.327400
16.482800 4.230500
16.507900 4.084200
16.532900 4.248200
16.558000 4.563800
16.583000 5.058000
16.608100 5.741500
16.633100 6.348400
16.658100 6.354600
16.683200 5.992500
16.708200 5.230100
16.733300 4.555900
16.758300 4.082200
16.783400 3.867800
16.808400 3.620100
16.833500 3.592800
16.858500 3.590100
16.883500 4.048700
16.908600 6.466900
16.933600 4.572500
16.958700 4.270900
16.983700 4.099300
17.008800 3.893400
17.033800 3.864800
17.058900 4.281800
17.083900 4.236200
17.108900 4.140200
17.134000 3.985800
17.159000 3.862700
17.184100 3.647200
17.209100 4.126200
17.234200 4.008100
17.259200 3.922800
17.284300 3.882400
17.309300 4.017300
17.334300 4.199300
17.359400 4.414800
17.384400 4.190300
17.409500 4.312100
17.434500 4.399200
17.459600 4.449400
17.484600 4.530500
17.509700 4.803300
17.534700 4.598200
17.559700 4.544300
17.584800 4.262600
17.609800 3.952700
17.634900 3.825200
17.659900 3.477800
17.685000 3.314500
17.710000 3.270700
17.735100 3.415500
17.760100 3.427200
17.785100 3.433500
17.810200 3.443500
17.835200 3.522000
17.860300 3.420000
17.885300 3.352200
17.910400 3.391000
17.935400 3.510700
17.960400 4.242300
17.985500 3.724700
18.010500 3.902800
18.035600 4.196000
18.060600 4.455200
18.085700 4.628800
18.110700 4.635800
18.135800 4.647300
18.160800 4.698200
18.185800 4.615400
18.210900 4.198200
18.235900 4.076600
18.261000 4.111600
18.286000 4.476600
18.311100 4.684900
18.336100 4.621700
18.361200 4.882700
18.386200 5.135100
18.411200 5.291000
18.436300 5.362800
18.461300 5.605100
18.486400 5.662200
18.511400 5.083500
18.536500 4.275600
18.561500 4.036200
18.586600 3.945300
18.611600 3.865700
18.636600 3.846600
18.661700 3.607100
18.686700 3.529200
18.711800 3.493000
18.736800 3.605600
18.761900 3.779900
18.786900 4.088800
18.812000 4.518600
18.837000 4.839000
18.862000 5.319600
18.887100 5.472400
18.912100 6.087500
18.937200 6.164600
18.962200 5.734800
18.987300 5.238600
19.012300 4.792700
19.037400 4.744900
19.062400 4.663900
19.087400 4.602100
19.112500 4.604100
19.137500 4.734100
19.162600 5.084300
19.187600 5.229100
19.212700 5.341900
19.237700 5.050200
19.262800 4.945400
19.287800 4.886000
19.312800 4.986200
19.337900 5.168600
19.362900 5.421500
19.388000 5.640500
19.413000 5.544700
19.438100 5.557200
19.463100 5.325200
19.488200 5.096800
19.513200 4.860000
19.538200 4.672200
19.563300 4.487200
19.588300 4.331600
19.613400 4.139400
19.638400 3.976300
19.663500 3.842000
19.688500 3.892100
19.713600 3.968700
19.738600 4.337500
19.763600 4.480300
19.788700 4.573600
19.813700 4.685700
19.838800 5.538800
19.863800 5.980300
19.888900 5.983000
19.913900 6.009900
19.938900 6.111900
19.964000 6.492000
19.989000 5.850500
20.014100 5.073700
20.039100 4.759700
20.064200 4.288800
20.089200 4.031100
20.114300 3.817800
20.139300 3.714100
20.164300 3.768600
20.189400 3.693100
20.214400 3.306500
20.239500 3.051200
20.264500 3.159000
20.289600 3.630000
20.314600 3.939300
20.339700 4.069400
20.364700 4.237200
20.389700 4.380600
20.414800 4.448100
20.439800 4.394400
20.464900 4.318900
20.489900 4.487800
20.515000 4.575600
20.540000 4.828300
20.565100 4.770000
20.590100 4.912800
20.615100 5.055400
20.640200 5.096100
20.665200 5.936800
20.690300 4.933700
20.715300 4.878500
20.740400 4.550700
20.765400 4.628700
20.790500 5.093300
20.815500 4.907300
20.840500 4.926000
20.865600 5.031500
20.890600 5.200600
20.915700 5.234000
20.940700 5.229800
20.965800 5.258300
20.990800 5.189500
21.015900 5.107200
21.040900 4.599700
21.065900 4.118200
21.091000 4.319100
21.116000 4.446000
21.141100 4.792400
21.166100 5.015700
21.191200 4.541100
21.216200 4.651700
21.241300 4.743600
21.266300 4.956100
21.291300 4.751700
21.316400 4.802500
21.341400 4.801800
21.366500 5.033000
21.391500 4.906900
21.416600 5.869400
21.441600 4.871900
21.466700 4.160700
21.491700 3.948000
21.516700 4.125400
21.541800 4.234800
21.566800 4.308800
21.591900 4.312300
21.616900 4.346600
21.642000 4.258800
21.667000 4.200000
21.692000 4.089400
21.717100 3.765500
21.742100 3.708200
21.767200 3.743800
21.792200 3.757500
21.817300 3.729500
21.842300 3.870500
21.867400 4.056500
21.892400 4.584400
21.917400 4.616000
21.942500 4.596300
21.967500 4.822000
21.992600 4.335800
22.017600 4.099400
22.042700 4.119400
22.067700 4.346200
22.092800 4.469800
22.117800 4.175200
22.142800 3.891500
22.167900 3.547600
22.192900 3.710200
22.218000 4.189000
22.243000 4.632300
22.268100 4.432400
22.293100 4.318300
22.318200 3.769200
22.343200 3.436000
22.368200 3.263600
22.393300 3.158200
22.418300 3.416900
22.443400 3.643700
22.468400 4.548200
22.493500 4.571600
22.518500 5.313200
22.543600 5.416200
22.568600 5.865900
22.593600 4.839600
22.618700 4.484800
22.643700 4.362700
22.668800 4.506700
22.693800 4.403400
22.718900 4.597700
22.743900 4.686100
22.769000 5.120100
22.794000 5.999000
22.819000 5.404700
22.844100 4.774300
22.869100 4.329800
22.894200 3.987800
22.919200 4.036800
22.944300 4.009200
22.969300 3.833800
22.994400 3.448100
23.019400 3.350000
23.044400 3.402500
23.069500 3.570200
23.094500 3.117100
23.119600 2.921900
23.144600 3.043200
23.169700 3.144300
23.194700 3.191400
23.219800 1.563600
23.244800 0.543600
23.269800 0.010300
23.294900 0.000000
23.319900 0.000000
23.345000 0.000000
23.370000 0.000000
23.395100 0.000000
23.420100 0.000000
23.445100 0.000000
23.470200 0.000000
23.495200 0.000000
23.520300 0.000000
23.545300 0.000000
23.570400 0.000000
23.595400 0.000000
23.620500 0.000000
23.645500 0.000000
23.670500 0.000000
23.695600 0.000000
23.720600 0.000000
23.745700 0.000000
23.770700 0.000000
23.795800 0.000000
23.820800 0.000000
23.845900 0.000000
23.870900 0.000000
23.895900 0.000000
23.921000 0.000000
23.946000 0.000000
23.971100 0.000000
23.996100 0.000000
24.021200 0.000000
24.046200 0.000000
24.071300 0.000000
24.096300 0.000000
24.121300 0.000000
24.146400 0.000000
24.171400 0.000000
24.196500 0.000000
24.221500 0.000000
24.246600 0.000000
24.271600 0.000000
24.296700 0.000000
24.321700 0.000000
24.346700 0.000000
24.371800 0.000000
24.396800 0.000000
24.421900 0.000000
24.446900 0.000000
24.472000 0.000000
24.497000 0.000000
24.522100 0.000000
24.547100 0.000000
24.572100 0.000000
24.597200 0.000000
24.622200 0.000000
24.647300 0.000000
24.672300 0.000000
24.697400 0.000000
24.722400 0.000000
24.747500 0.000000
24.772500 0.000000
24.797500 0.000000
24.822600 0.000000
24.847600 0.000000
24.872700 0.000000
24.897700 0.000000
24.922800 0.000000
24.947800 0.000000
24.972900 0.000000
24.997900 0.000000
25.022900 0.000000
25.048000 0.000000
25.073000 0.000000
25.098100 0.000000
25.123100 0.000000
25.148200 0.000000
25.173200 0.000000
25.198300 0.000000
25.223300 0.000000
25.248300 0.000000
25.273400 0.000000
25.298400 0.000000
25.323500 0.000000
25.348500 0.000000
25.373600 0.000000
25.398600 0.000000
25.423600 0.000000
25.448700 0.000000
25.473700 0.000000
25.498800 0.000000
25.523800 0.000000
25.548900 0.000000
e
