set title 'mp-569157 - Density of States'
set xlabel 'Energy (eV)'
set ylabel 'DOS (states/eV)'
set grid
set xrange [-10:10]
set yrange [0:81.213]
set xzeroaxis lt -1
set terminal png size 800,600
set output 'mp-569157_dos_gnuplot.png'
plot '-' using 1:2 with lines title 'DOS'
-13.291200 0.000000
-13.276100 0.000000
-13.261000 0.000000
-13.245900 0.000000
-13.230800 0.000000
-13.215700 0.000000
-13.200500 0.000000
-13.185400 0.000000
-13.170300 0.000000
-13.155200 0.000000
-13.140100 0.000000
-13.125000 0.000000
-13.109900 0.000000
-13.094700 0.000000
-13.079600 0.000000
-13.064500 0.000000
-13.049400 0.000000
-13.034300 0.000000
-13.019200 0.000000
-13.004100 0.000000
-12.988900 0.000000
-12.973800 0.000000
-12.958700 0.000000
-12.943600 0.000000
-12.928500 0.000000
-12.913400 0.000000
-12.898300 0.000000
-12.883100 0.000000
-12.868000 0.000000
-12.852900 0.000000
-12.837800 0.000000
-12.822700 0.000000
-12.807600 0.000000
-12.792500 0.000000
-12.777300 0.000000
-12.762200 0.000000
-12.747100 0.000000
-12.732000 0.000000
-12.716900 0.000000
-12.701800 0.000000
-12.686700 0.000000
-12.671500 0.000000
-12.656400 0.000000
-12.641300 0.000000
-12.626200 0.000000
-12.611100 0.000000
-12.596000 0.000000
-12.580900 0.000000
-12.565700 0.000000
-12.550600 0.000000
-12.535500 0.000000
-12.520400 0.000000
-12.505300 0.000000
-12.490200 0.000000
-12.475100 0.000000
-12.459900 0.000000
-12.444800 0.000000
-12.429700 0.000000
-12.414600 0.000000
-12.399500 0.000000
-12.384400 0.000000
-12.369300 0.000000
-12.354100 0.000000
-12.339000 0.000000
-12.323900 0.000000
-12.308800 0.000000
-12.293700 0.000000
-12.278600 0.000000
-12.263500 0.000000
-12.248300 0.000000
-12.233200 0.000000
-12.218100 0.000000
-12.203000 0.000000
-12.187900 0.000000
-12.172800 0.000000
-12.157700 0.000000
-12.142500 0.000000
-12.127400 0.000000
-12.112300 0.000000
-12.097200 0.000000
-12.082100 0.000000
-12.067000 0.000000
-12.051900 0.000000
-12.036700 0.000000
-12.021600 0.000000
-12.006500 0.000000
-11.991400 0.000000
-11.976300 0.000000
-11.961200 0.000000
-11.946100 0.000000
-11.930900 0.000000
-11.915800 0.002200
-11.900700 0.354800
-11.885600 1.052000
-11.870500 1.749200
-11.855400 2.446400
-11.840300 3.143800
-11.825100 3.841100
-11.810000 4.538600
-11.794900 5.236100
-11.779800 5.933600
-11.764700 6.631200
-11.749600 7.328900
-11.734500 9.054500
-11.719300 9.203600
-11.704200 8.647600
-11.689100 8.091600
-11.674000 7.535600
-11.658900 6.979500
-11.643800 6.423500
-11.628700 5.867400
-11.613500 5.311300
-11.598400 4.755200
-11.583300 4.199100
-11.568200 3.642900
-11.553100 3.086800
-11.538000 2.530600
-11.522900 1.974400
-11.507700 1.418200
-11.492600 0.862000
-11.477500 0.305800
-11.462400 0.150600
-11.447300 0.487800
-11.432200 0.824900
-11.417100 1.162100
-11.401900 1.499300
-11.386800 1.836500
-11.371700 2.173700
-11.356600 2.510800
-11.341500 2.848000
-11.326400 3.185200
-11.311300 3.522400
-11.296100 3.859600
-11.281000 4.196900
-11.265900 4.534100
-11.250800 4.871300
-11.235700 5.208500
-11.220600 5.545800
-11.205500 5.883000
-11.190300 6.220200
-11.175200 6.557500
-11.160100 6.894700
-11.145000 7.232000
-11.129900 7.569200
-11.114800 4.420200
-11.099700 4.184000
-11.084500 3.948000
-11.069400 3.712100
-11.054300 3.476300
-11.039200 3.240700
-11.024100 3.005300
-11.009000 2.770100
-10.993900 2.535000
-10.978700 2.300000
-10.963600 2.065300
-10.948500 1.830600
-10.933400 1.596200
-10.918300 1.361900
-10.903200 1.127700
-10.888100 0.893700
-10.872900 0.659900
-10.857800 0.426200
-10.842700 0.192700
-10.827600 0.052400
-10.812500 0.001300
-10.797400 0.000000
-10.782300 9.539000
-10.767100 52.548800
-10.752000 13.110400
-10.736900 9.233500
-10.721800 95.985000
-10.706700 38.205400
-10.691600 6.208100
-10.676500 4.877800
-10.661300 10.983500
-10.646200 17.132600
-10.631100 23.314000
-10.616000 29.527900
-10.600900 30.289300
-10.585800 118.831400
-10.570700 39.681000
-10.555500 0.925300
-10.540400 0.000000
-10.525300 0.000000
-10.510200 0.000000
-10.495100 0.000000
-10.480000 0.000000
-10.464900 0.000000
-10.449700 0.000000
-10.434600 0.000000
-10.419500 0.000000
-10.404400 0.000000
-10.389300 0.000000
-10.374200 0.000000
-10.359100 0.000000
-10.343900 0.000000
-10.328800 0.000000
-10.313700 0.000000
-10.298600 0.000000
-10.283500 0.000000
-10.268400 0.000000
-10.253300 0.000000
-10.238100 0.000000
-10.223000 0.000000
-10.207900 0.000000
-10.192800 0.000000
-10.177700 0.000000
-10.162600 0.000000
-10.147500 0.000000
-10.132300 0.000000
-10.117200 0.000000
-10.102100 0.000000
-10.087000 0.000000
-10.071900 0.000000
-10.056800 0.000000
-10.041700 0.000000
-10.026500 0.000000
-10.011400 0.000000
-9.996300 0.000000
-9.981200 0.000000
-9.966100 0.000000
-9.951000 0.000000
-9.935900 0.000000
-9.920700 0.000000
-9.905600 0.000000
-9.890500 0.000000
-9.875400 0.000000
-9.860300 0.000000
-9.845200 0.000000
-9.830100 0.000000
-9.814900 0.000000
-9.799800 0.000000
-9.784700 0.000000
-9.769600 0.000000
-9.754500 0.000000
-9.739400 0.000000
-9.724300 0.000000
-9.709100 0.000000
-9.694000 0.035700
-9.678900 0.133200
-9.663800 0.230800
-9.648700 0.328300
-9.633600 0.425900
-9.618500 0.523400
-9.603300 0.621000
-9.588200 0.718500
-9.573100 0.816100
-9.558000 0.913600
-9.542900 1.011200
-9.527800 1.108700
-9.512600 1.206200
-9.497500 1.303800
-9.482400 1.401300
-9.467300 1.498900
-9.452200 1.596400
-9.437100 1.694000
-9.422000 1.791500
-9.406800 1.889100
-9.391700 1.986600
-9.376600 2.084100
-9.361500 2.181700
-9.346400 2.279200
-9.331300 2.376800
-9.316200 2.474300
-9.301000 2.571900
-9.285900 2.669400
-9.270800 2.767000
-9.255700 2.864500
-9.240600 6.447600
-9.225500 6.206700
-9.210400 5.965800
-9.195200 5.724900
-9.180100 5.484100
-9.165000 5.243200
-9.149900 5.002300
-9.134800 4.761500
-9.119700 4.520600
-9.104600 4.279800
-9.089400 4.039000
-9.074300 3.798200
-9.059200 3.557300
-9.044100 3.316500
-9.029000 3.075700
-9.013900 2.834900
-8.998800 2.594200
-8.983600 2.353400
-8.968500 2.112600
-8.953400 1.871800
-8.938300 1.631100
-8.923200 1.390300
-8.908100 1.149600
-8.893000 0.908900
-8.877800 0.668200
-8.862700 0.427400
-8.847600 0.186700
-8.832500 0.109800
-8.817400 0.511800
-8.802300 0.930100
-8.787200 1.348300
-8.772000 1.766500
-8.756900 2.184600
-8.741800 2.602700
-8.726700 3.020700
-8.711600 3.438700
-8.696500 3.856600
-8.681400 4.274500
-8.666200 4.692300
-8.651100 5.110000
-8.636000 5.527700
-8.620900 5.945400
-8.605800 6.363000
-8.590700 6.780500
-8.575600 7.198000
-8.560400 7.615500
-8.545300 8.032800
-8.530200 8.032600
-8.515100 6.868100
-8.500000 6.264100
-8.484900 5.661100
-8.469800 5.058900
-8.454600 4.457500
-8.439500 3.857100
-8.424400 3.257500
-8.409300 2.658800
-8.394200 2.061000
-8.379100 1.464100
-8.364000 0.868000
-8.348800 0.342300
-8.333700 0.022300
-8.318600 0.000000
-8.303500 0.000000
-8.288400 0.000000
-8.273300 0.000000
-8.258200 0.000000
-8.243000 0.000000
-8.227900 0.000000
-8.212800 0.000000
-8.197700 0.000000
-8.182600 0.000000
-8.167500 0.000000
-8.152400 0.000000
-8.137200 0.000000
-8.122100 0.000000
-8.107000 0.000000
-8.091900 0.000000
-8.076800 0.000000
-8.061700 0.000000
-8.046600 0.000000
-8.031400 0.000000
-8.016300 0.000000
-8.001200 0.000000
-7.986100 0.000000
-7.971000 0.000000
-7.955900 0.000000
-7.940800 0.000000
-7.925600 0.000000
-7.910500 0.000000
-7.895400 0.000000
-7.880300 0.000000
-7.865200 0.000000
-7.850100 0.000000
-7.835000 0.000000
-7.819800 0.000000
-7.804700 0.000000
-7.789600 0.000000
-7.774500 0.000000
-7.759400 0.000000
-7.744300 0.000000
-7.729200 0.000000
-7.714000 0.000000
-7.698900 0.000000
-7.683800 0.000000
-7.668700 0.000000
-7.653600 0.000000
-7.638500 0.000000
-7.623400 0.000000
-7.608200 0.000000
-7.593100 0.000000
-7.578000 0.000000
-7.562900 0.000000
-7.547800 0.000000
-7.532700 0.000000
-7.517600 0.000000
-7.502400 0.000000
-7.487300 0.000000
-7.472200 0.000000
-7.457100 0.000000
-7.442000 0.000000
-7.426900 0.000000
-7.411800 0.000000
-7.396600 0.000000
-7.381500 0.000000
-7.366400 0.000000
-7.351300 0.000000
-7.336200 0.000000
-7.321100 0.000000
-7.306000 0.000000
-7.290800 0.000000
-7.275700 0.000000
-7.260600 0.000000
-7.245500 0.000000
-7.230400 0.000000
-7.215300 0.000000
-7.200200 0.000000
-7.185000 0.000000
-7.169900 0.000000
-7.154800 0.000000
-7.139700 0.000000
-7.124600 0.000000
-7.109500 0.000000
-7.094400 0.000000
-7.079200 0.000000
-7.064100 0.000000
-7.049000 0.000000
-7.033900 0.000000
-7.018800 0.000000
-7.003700 0.000000
-6.988600 0.000000
-6.973400 0.000000
-6.958300 0.000000
-6.943200 0.000000
-6.928100 0.000000
-6.913000 0.000000
-6.897900 0.000000
-6.882800 0.000000
-6.867600 0.000000
-6.852500 0.000000
-6.837400 0.000000
-6.822300 0.000000
-6.807200 0.000000
-6.792100 0.000000
-6.777000 0.000000
-6.761800 0.000000
-6.746700 0.000000
-6.731600 0.000000
-6.716500 0.000000
-6.701400 0.000000
-6.686300 0.000000
-6.671200 0.000000
-6.656000 0.000000
-6.640900 0.000000
-6.625800 0.000000
-6.610700 0.000000
-6.595600 0.000000
-6.580500 0.000000
-6.565400 0.000000
-6.550200 0.000000
-6.535100 0.000000
-6.520000 0.000000
-6.504900 0.000000
-6.489800 0.000000
-6.474700 0.000000
-6.459600 0.000000
-6.444400 0.000000
-6.429300 0.000000
-6.414200 0.000000
-6.399100 0.000000
-6.384000 0.000000
-6.368900 0.000000
-6.353800 0.000000
-6.338600 0.000000
-6.323500 0.000000
-6.308400 0.000000
-6.293300 0.000000
-6.278200 0.000000
-6.263100 0.000000
-6.248000 0.000000
-6.232800 0.000000
-6.217700 0.000000
-6.202600 0.000000
-6.187500 0.000000
-6.172400 0.000000
-6.157300 0.000000
-6.142200 0.000000
-6.127000 0.000000
-6.111900 0.000000
-6.096800 0.000000
-6.081700 0.000000
-6.066600 0.000000
-6.051500 0.000000
-6.036400 0.000000
-6.021200 0.000000
-6.006100 0.000000
-5.991000 0.000000
-5.975900 0.000000
-5.960800 0.000000
-5.945700 0.000000
-5.930600 0.000000
-5.915400 0.000000
-5.900300 0.000000
-5.885200 0.000000
-5.870100 0.000000
-5.855000 0.000000
-5.839900 0.000000
-5.824800 0.000000
-5.809600 0.000000
-5.794500 0.000000
-5.779400 0.000000
-5.764300 0.000000
-5.749200 0.000000
-5.734100 0.000000
-5.719000 0.000000
-5.703800 0.000000
-5.688700 0.000000
-5.673600 0.000000
-5.658500 0.000000
-5.643400 0.000000
-5.628300 0.000000
-5.613100 0.000000
-5.598000 0.000000
-5.582900 0.000000
-5.567800 0.000000
-5.552700 0.000000
-5.537600 0.000000
-5.522500 0.000000
-5.507300 0.000000
-5.492200 0.000000
-5.477100 0.000000
-5.462000 0.000000
-5.446900 0.000000
-5.431800 0.000000
-5.416700 0.000000
-5.401500 0.000000
-5.386400 0.000000
-5.371300 0.000000
-5.356200 0.000000
-5.341100 0.000000
-5.326000 0.000000
-5.310900 0.000000
-5.295700 0.000000
-5.280600 0.000000
-5.265500 0.000000
-5.250400 0.000000
-5.235300 0.000000
-5.220200 0.000000
-5.205100 0.000000
-5.189900 0.000000
-5.174800 0.000000
-5.159700 0.000000
-5.144600 0.000000
-5.129500 0.000000
-5.114400 0.000000
-5.099300 0.000000
-5.084100 0.000000
-5.069000 0.000000
-5.053900 0.000000
-5.038800 0.000000
-5.023700 0.000000
-5.008600 0.000000
-4.993500 0.000000
-4.978300 0.000000
-4.963200 0.000000
-4.948100 0.000000
-4.933000 0.000000
-4.917900 0.000000
-4.902800 0.000000
-4.887700 0.000000
-4.872500 0.000000
-4.857400 0.000000
-4.842300 0.000000
-4.827200 0.000000
-4.812100 0.000000
-4.797000 0.000000
-4.781900 0.000000
-4.766700 0.000000
-4.751600 0.000000
-4.736500 0.000000
-4.721400 0.000000
-4.706300 0.000000
-4.691200 0.000000
-4.676100 0.000000
-4.660900 0.000000
-4.645800 0.000000
-4.630700 0.000000
-4.615600 0.000000
-4.600500 0.000000
-4.585400 0.000000
-4.570300 0.000000
-4.555100 0.000000
-4.540000 0.000000
-4.524900 0.000000
-4.509800 0.000000
-4.494700 0.000000
-4.479600 0.000000
-4.464500 0.000000
-4.449300 0.000000
-4.434200 0.000000
-4.419100 0.000000
-4.404000 0.000000
-4.388900 0.000000
-4.373800 0.000000
-4.358700 0.000000
-4.343500 0.000000
-4.328400 0.000000
-4.313300 0.000000
-4.298200 0.000000
-4.283100 0.000000
-4.268000 0.000000
-4.252900 0.000000
-4.237700 0.000000
-4.222600 0.000000
-4.207500 0.000000
-4.192400 0.000000
-4.177300 0.000000
-4.162200 0.000000
-4.147100 0.000000
-4.131900 0.000000
-4.116800 0.000000
-4.101700 0.000000
-4.086600 0.000000
-4.071500 0.000000
-4.056400 0.000000
-4.041300 0.000000
-4.026100 0.000000
-4.011000 0.000000
-3.995900 0.000000
-3.980800 0.000000
-3.965700 0.000000
-3.950600 0.000000
-3.935500 0.000000
-3.920300 0.000000
-3.905200 0.000000
-3.890100 0.000000
-3.875000 0.000000
-3.859900 0.000000
-3.844800 0.000000
-3.829700 0.000000
-3.814500 0.000000
-3.799400 0.000000
-3.784300 0.000000
-3.769200 0.000000
-3.754100 0.000000
-3.739000 0.000000
-3.723900 0.000000
-3.708700 0.000000
-3.693600 0.000000
-3.678500 0.000000
-3.663400 0.000000
-3.648300 0.000000
-3.633200 0.000000
-3.618100 0.000000
-3.602900 0.000000
-3.587800 0.000000
-3.572700 0.000000
-3.557600 0.000000
-3.542500 0.000000
-3.527400 0.000000
-3.512300 0.000000
-3.497100 0.000000
-3.482000 0.000000
-3.466900 0.000000
-3.451800 0.000000
-3.436700 0.000000
-3.421600 0.000000
-3.406500 0.000000
-3.391300 0.000000
-3.376200 0.000000
-3.361100 0.000000
-3.346000 0.000000
-3.330900 0.000000
-3.315800 0.000000
-3.300700 0.000000
-3.285500 0.000000
-3.270400 0.000000
-3.255300 0.000000
-3.240200 0.000000
-3.225100 0.000000
-3.210000 0.000000
-3.194900 0.000000
-3.179700 0.000000
-3.164600 0.000000
-3.149500 0.000000
-3.134400 0.000000
-3.119300 0.000000
-3.104200 0.000000
-3.089100 0.000000
-3.073900 0.000000
-3.058800 0.000000
-3.043700 0.000000
-3.028600 0.000000
-3.013500 0.000000
-2.998400 0.000000
-2.983300 0.000000
-2.968100 0.000000
-2.953000 0.000000
-2.937900 0.000000
-2.922800 0.000000
-2.907700 0.000000
-2.892600 0.000000
-2.877500 0.000000
-2.862300 0.000000
-2.847200 0.000000
-2.832100 0.000000
-2.817000 0.000000
-2.801900 0.000000
-2.786800 0.000000
-2.771700 0.000000
-2.756500 0.000000
-2.741400 16.598100
-2.726300 19.808200
-2.711200 19.957600
-2.696100 19.850000
-2.681000 11.879000
-2.665900 8.806400
-2.650700 7.926300
-2.635600 7.046100
-2.620500 6.165900
-2.605400 5.285700
-2.590300 4.405400
-2.575200 3.525000
-2.560100 2.644600
-2.544900 1.764200
-2.529800 1.920400
-2.514700 4.136900
-2.499600 8.487400
-2.484500 15.578900
-2.469400 24.309000
-2.454300 34.048900
-2.439100 44.798100
-2.424000 15.675900
-2.408900 2.773500
-2.393800 3.894900
-2.378700 5.768700
-2.363600 8.572000
-2.348500 12.335400
-2.333300 17.054900
-2.318200 22.664000
-2.303100 27.168800
-2.288000 19.556500
-2.272900 0.000000
-2.257800 0.000000
-2.242700 0.000000
-2.227500 0.000000
-2.212400 0.000000
-2.197300 0.000000
-2.182200 0.000000
-2.167100 0.000000
-2.152000 0.000000
-2.136900 0.000000
-2.121700 0.000000
-2.106600 0.000000
-2.091500 0.000000
-2.076400 0.000000
-2.061300 0.000000
-2.046200 0.000000
-2.031100 0.000000
-2.015900 1.640500
-2.000800 5.778900
-1.985700 9.609300
-1.970600 13.131600
-1.955500 20.672200
-1.940400 17.012500
-1.925300 13.446500
-1.910100 9.974300
-1.895000 8.531600
-1.879900 8.400600
-1.864800 9.095700
-1.849700 10.616900
-1.834600 13.891000
-1.819400 35.184800
-1.804300 26.899000
-1.789200 28.714200
-1.774100 16.916600
-1.759000 9.000500
-1.743900 4.686500
-1.728800 1.952700
-1.713600 0.396900
-1.698500 0.122900
-1.683400 0.542200
-1.668300 0.985300
-1.653200 1.428000
-1.638100 1.870300
-1.623000 2.312100
-1.607800 2.753500
-1.592700 3.194500
-1.577600 3.635000
-1.562500 4.075100
-1.547400 4.514700
-1.532300 4.953900
-1.517200 5.392700
-1.502000 5.831000
-1.486900 6.268900
-1.471800 6.706300
-1.456700 7.143300
-1.441600 7.579900
-1.426500 8.016000
-1.411400 22.799200
-1.396200 9.520400
-1.381100 7.805800
-1.366000 5.942200
-1.350900 4.119700
-1.335800 2.672300
-1.320700 1.537000
-1.305600 0.713600
-1.290400 0.202300
-1.275300 0.003000
-1.260200 0.000000
-1.245100 0.000000
-1.230000 0.000000
-1.214900 0.000000
-1.199800 0.000000
-1.184600 0.000000
-1.169500 0.000000
-1.154400 0.000000
-1.139300 0.000000
-1.124200 0.000000
-1.109100 0.000000
-1.094000 0.000000
-1.078800 0.000000
-1.063700 0.000000
-1.048600 0.000000
-1.033500 0.000000
-1.018400 0.000000
-1.003300 0.000000
-0.988200 0.000000
-0.973000 0.000000
-0.957900 0.000000
-0.942800 0.000000
-0.927700 0.076200
-0.912600 0.347800
-0.897500 0.816200
-0.882400 1.481300
-0.867200 2.360000
-0.852100 4.138800
-0.837000 7.187800
-0.821900 11.043900
-0.806800 15.477400
-0.791700 20.488300
-0.776600 19.797100
-0.761400 15.995700
-0.746300 12.185600
-0.731200 9.695100
-0.716100 6.297500
-0.701000 3.454300
-0.685900 11.348900
-0.670800 19.332700
-0.655600 24.003600
-0.640500 16.172300
-0.625400 11.332300
-0.610300 23.801600
-0.595200 21.059600
-0.580100 18.812600
-0.565000 17.060700
-0.549800 15.716300
-0.534700 14.669200
-0.519600 13.966300
-0.504500 13.742100
-0.489400 14.275900
-0.474300 15.576700
-0.459200 17.688100
-0.444000 21.164500
-0.428900 20.029000
-0.413800 47.783800
-0.398700 20.000200
-0.383600 12.683800
-0.368500 11.237000
-0.353400 14.271800
-0.338200 20.338300
-0.323100 24.444000
-0.308000 47.954000
-0.292900 25.465700
-0.277800 39.464200
-0.262700 36.673700
-0.247600 16.779200
-0.232400 8.163600
-0.217300 9.895200
-0.202200 11.830800
-0.187100 13.970500
-0.172000 15.753800
-0.156900 15.032700
-0.141800 13.993700
-0.126600 12.631400
-0.111500 10.056000
-0.096400 16.203500
-0.081300 41.184800
-0.066200 34.214100
-0.051100 24.585700
-0.036000 16.714400
-0.020800 10.641100
-0.005700 6.512600
0.009400 3.549500
0.024500 46.322500
0.039600 34.260800
0.054700 60.319200
0.069800 34.534400
0.085000 24.823500
0.100100 21.144100
0.115200 17.945000
0.130300 15.635900
0.145400 14.239500
0.160500 13.885200
0.175600 13.753600
0.190800 52.322200
0.205900 73.829800
0.221000 35.993800
0.236100 30.887400
0.251200 23.381100
0.266300 0.000000
0.281400 0.000000
0.296600 0.000000
0.311700 0.000000
0.326800 0.000000
0.341900 0.000000
0.357000 0.000000
0.372100 0.000000
0.387200 0.000000
0.402400 0.000000
0.417500 0.000000
0.432600 0.000000
0.447700 0.000000
0.462800 0.000000
0.477900 0.000000
0.493000 0.000000
0.508200 0.000000
0.523300 0.000000
0.538400 0.000000
0.553500 0.000000
0.568600 0.000000
0.583700 0.000000
0.598800 0.000000
0.614000 0.000000
0.629100 0.000000
0.644200 0.000000
0.659300 0.000000
0.674400 0.000000
0.689500 0.000000
0.704600 0.000000
0.719800 0.000000
0.734900 0.000000
0.750000 0.000000
0.765100 0.000000
0.780200 0.000000
0.795300 0.000000
0.810400 0.000000
0.825600 0.000000
0.840700 0.000000
0.855800 0.000000
0.870900 0.000000
0.886000 0.000000
0.901100 0.000000
0.916200 0.000000
0.931400 0.000000
0.946500 0.000000
0.961600 0.000000
0.976700 0.000000
0.991800 0.000000
1.006900 0.000000
1.022000 0.000000
1.037200 0.000000
1.052300 0.000000
1.067400 0.000000
1.082500 0.000000
1.097600 0.000000
1.112700 0.000000
1.127800 0.000000
1.143000 0.000000
1.158100 0.000000
1.173200 0.000000
1.188300 0.000000
1.203400 0.000000
1.218500 0.000000
1.233600 0.000000
1.248800 0.000000
1.263900 0.000000
1.279000 0.000000
1.294100 0.000000
1.309200 0.000000
1.324300 0.000000
1.339400 0.000000
1.354600 0.000000
1.369700 0.000000
1.384800 0.000000
1.399900 0.000000
1.415000 0.000000
1.430100 0.000000
1.445200 0.000000
1.460400 0.000000
1.475500 0.000000
1.490600 0.000000
1.505700 0.000000
1.520800 0.000000
1.535900 0.000000
1.551000 0.000000
1.566200 0.000000
1.581300 0.000000
1.596400 0.000000
1.611500 0.000000
1.626600 0.000000
1.641700 0.000000
1.656800 0.000000
1.672000 0.000000
1.687100 0.000000
1.702200 0.000000
1.717300 0.000000
1.732400 0.000000
1.747500 0.000000
1.762600 0.000000
1.777800 0.000000
1.792900 0.000000
1.808000 0.000000
1.823100 0.000000
1.838200 0.000000
1.853300 0.000000
1.868400 0.000000
1.883600 0.000000
1.898700 0.000000
1.913800 0.000000
1.928900 0.000000
1.944000 0.000000
1.959100 0.000000
1.974200 0.000000
1.989400 0.000000
2.004500 0.000000
2.019600 0.000000
2.034700 0.000000
2.049800 0.000000
2.064900 0.000000
2.080100 0.000000
2.095200 0.000000
2.110300 0.000000
2.125400 0.000000
2.140500 0.000000
2.155600 0.000000
2.170700 0.000000
2.185900 0.000000
2.201000 0.000000
2.216100 0.000000
2.231200 0.000000
2.246300 0.000000
2.261400 0.000000
2.276500 0.000000
2.291700 0.000000
2.306800 0.000000
2.321900 0.000000
2.337000 0.000000
2.352100 0.000000
2.367200 0.000000
2.382300 0.000000
2.397500 0.000000
2.412600 0.000000
2.427700 0.000000
2.442800 0.000000
2.457900 0.000000
2.473000 0.000000
2.488100 0.000000
2.503300 0.000000
2.518400 0.000000
2.533500 0.000000
2.548600 0.000000
2.563700 0.000000
2.578800 0.000000
2.593900 0.000000
2.609100 0.000000
2.624200 0.000000
2.639300 0.000000
2.654400 0.000000
2.669500 0.000000
2.684600 0.000000
2.699700 0.000000
2.714900 0.000000
2.730000 0.000000
2.745100 0.000000
2.760200 0.000000
2.775300 0.000000
2.790400 0.000000
2.805500 0.000000
2.820700 0.145200
2.835800 0.457100
2.850900 0.833400
2.866000 1.274200
2.881100 1.779400
2.896200 2.349100
2.911300 2.983200
2.926500 3.681800
2.941600 4.438100
2.956700 5.227700
2.971800 6.048400
2.986900 9.123100
3.002000 10.527900
3.017100 11.635100
3.032300 12.444700
3.047400 12.956800
3.062500 13.169600
3.077600 11.113800
3.092700 7.248700
3.107800 4.891900
3.122900 3.768700
3.138100 3.742900
3.153200 4.042100
3.168300 4.549100
3.183400 5.263900
3.198500 6.186600
3.213600 7.317000
3.228700 8.655300
3.243900 10.201400
3.259000 12.140700
3.274100 15.134800
3.289200 16.202500
3.304300 15.846900
3.319400 15.334100
3.334500 14.664400
3.349700 13.837600
3.364800 12.853800
3.379900 6.886600
3.395000 9.039700
3.410100 10.602100
3.425200 11.573800
3.440300 11.954800
3.455500 11.966200
3.470600 22.175100
3.485700 10.531600
3.500800 4.333600
3.515900 1.009800
3.531000 0.000000
3.546100 0.005200
3.561300 0.257500
3.576400 0.889200
3.591500 1.900300
3.606600 3.290900
3.621700 5.060900
3.636800 7.210300
3.651900 11.282100
3.667100 13.714300
3.682200 14.820200
3.697300 14.873100
3.712400 13.992400
3.727500 12.178200
3.742600 9.430400
3.757700 6.591000
3.772900 4.478800
3.788000 12.982500
3.803100 21.194400
3.818200 28.408400
3.833300 34.510400
3.848400 14.972200
3.863500 12.421300
3.878700 10.346400
3.893800 8.747300
3.908900 7.624200
3.924000 6.976600
3.939100 6.797300
3.954200 7.083300
3.969300 7.834600
3.984500 9.051000
3.999600 18.187100
4.014700 7.583200
4.029800 7.382000
4.044900 7.155300
4.060000 6.901300
4.075100 6.593600
4.090300 6.223700
4.105400 5.791600
4.120500 5.297200
4.135600 4.740500
4.150700 4.121600
4.165800 3.440500
4.180900 2.697100
4.196100 2.279300
4.211200 1.888800
4.226300 1.539700
4.241400 1.287300
4.256500 1.057500
4.271600 0.850200
4.286700 0.665600
4.301900 0.503500
4.317000 0.364000
4.332100 0.247100
4.347200 0.152700
4.362300 0.081000
4.377400 0.031800
4.392500 0.005200
4.407700 0.000000
4.422800 0.000000
4.437900 0.000000
4.453000 0.000000
4.468100 0.000000
4.483200 0.000000
4.498300 0.000000
4.513500 0.000000
4.528600 0.000000
4.543700 0.000000
4.558800 0.000000
4.573900 0.000000
4.589000 0.000000
4.604100 0.000000
4.619300 0.000000
4.634400 0.000000
4.649500 0.000000
4.664600 0.000000
4.679700 0.000000
4.694800 0.000000
4.709900 0.000000
4.725100 0.000000
4.740200 0.000000
4.755300 0.000000
4.770400 0.000000
4.785500 0.000000
4.800600 0.000000
4.815700 0.000000
4.830900 0.000000
4.846000 0.000000
4.861100 0.000000
4.876200 0.000000
4.891300 0.000000
4.906400 0.000000
4.921500 0.000000
4.936700 0.000000
4.951800 0.000000
4.966900 0.000000
4.982000 0.000000
4.997100 0.000000
5.012200 0.000000
5.027300 0.000000
5.042500 0.000000
5.057600 0.000000
5.072700 0.000000
5.087800 0.000000
5.102900 0.000000
5.118000 0.000000
5.133100 0.000000
5.148300 0.000000
5.163400 0.000000
5.178500 0.000000
5.193600 0.000000
5.208700 0.000000
5.223800 0.000000
5.238900 0.000000
5.254100 0.000000
5.269200 0.000000
5.284300 0.000000
5.299400 0.000000
5.314500 0.000000
5.329600 0.000000
5.344700 0.000000
5.359900 0.000000
5.375000 0.000000
5.390100 0.000000
5.405200 0.000000
5.420300 0.000000
5.435400 0.000000
5.450500 0.000000
5.465700 0.000000
5.480800 0.000000
5.495900 0.000000
5.511000 0.000000
5.526100 0.000000
5.541200 0.000000
5.556300 0.000000
5.571500 0.000000
5.586600 0.000000
5.601700 0.000000
5.616800 0.000000
5.631900 0.000000
5.647000 0.000000
5.662100 0.000000
5.677300 0.000000
5.692400 0.000000
5.707500 0.000000
5.722600 0.000000
5.737700 0.000000
5.752800 0.000000
5.767900 0.000000
5.783100 0.000000
5.798200 0.000000
5.813300 0.000000
5.828400 0.000000
5.843500 0.000000
5.858600 0.000000
5.873800 0.000000
5.888900 0.000000
5.904000 0.000000
5.919100 0.000000
5.934200 0.000000
5.949300 0.001600
5.964400 0.006000
5.979600 0.013300
5.994700 0.023500
6.009800 0.036600
6.024900 0.052500
6.040000 0.071300
6.055100 0.093000
6.070200 0.117500
6.085400 0.145000
6.100500 0.175300
6.115600 0.208400
6.130700 0.244500
6.145800 0.283400
6.160900 0.325200
6.176000 0.369900
6.191200 0.417400
6.206300 0.467900
6.221400 0.521100
6.236500 0.577300
6.251600 0.636400
6.266700 0.698300
6.281800 0.763100
6.297000 0.830700
6.312100 0.901300
6.327200 0.974700
6.342300 1.051000
6.357400 1.130100
6.372500 1.275300
6.387600 2.258800
6.402800 3.141200
6.417900 3.922500
6.433000 4.602700
6.448100 5.181900
6.463200 5.894300
6.478300 6.603100
6.493400 7.180300
6.508600 7.626000
6.523700 7.940100
6.538800 8.144000
6.553900 10.242900
6.569000 13.294000
6.584100 17.202600
6.599200 9.402200
6.614400 6.783400
6.629500 4.971000
6.644600 3.964800
6.659700 3.765000
6.674800 4.368500
6.689900 5.332800
6.705000 6.342200
6.720200 7.396800
6.735300 8.496500
6.750400 9.641200
6.765500 10.831100
6.780600 12.066100
6.795700 12.379200
6.810800 11.241500
6.826000 9.692700
6.841100 5.668400
6.856200 5.711100
6.871300 5.768900
6.886400 5.843200
6.901500 5.944500
6.916600 6.076700
6.931800 6.239900
6.946900 6.434000
6.962000 6.659100
6.977100 6.915000
6.992200 7.202000
7.007300 7.519800
7.022400 7.868600
7.037600 8.248400
7.052700 8.659100
7.067800 9.100700
7.082900 6.973200
7.098000 5.705300
7.113100 5.634900
7.128200 5.625300
7.143400 5.640600
7.158500 5.680700
7.173600 5.745500
7.188700 5.835100
7.203800 5.949600
7.218900 6.088800
7.234000 6.252700
7.249200 22.426000
7.264300 16.686400
7.279400 12.446700
7.294500 9.707000
7.309600 16.738200
7.324700 15.838500
7.339800 15.029500
7.355000 14.311100
7.370100 13.683400
7.385200 13.146300
7.400300 12.699900
7.415400 12.184500
7.430500 10.877700
7.445600 9.728100
7.460800 8.735900
7.475900 7.934700
7.491000 7.487200
7.506100 7.142200
7.521200 6.933500
7.536300 7.154700
7.551400 7.870000
7.566600 9.079300
7.581700 10.782700
7.596800 12.980200
7.611900 8.605200
7.627000 8.981700
7.642100 9.302500
7.657200 9.466900
7.672400 9.272200
7.687500 8.712700
7.702600 7.796900
7.717700 6.640400
7.732800 5.305100
7.747900 4.610700
7.763000 4.433700
7.778200 4.625100
7.793300 5.065500
7.808400 5.723600
7.823500 6.599500
7.838600 7.693200
7.853700 27.229900
7.868800 29.047100
7.884000 23.359400
7.899100 18.148400
7.914200 13.952800
7.929300 12.587100
7.944400 11.404100
7.959500 10.404000
7.974600 9.589800
7.989800 9.022000
8.004900 8.723100
8.020000 8.693000
8.035100 8.866100
8.050200 9.100200
8.065300 9.390300
8.080400 9.735800
8.095600 11.695200
8.110700 15.466500
8.125800 18.234700
8.140900 26.416000
8.156000 17.359300
8.171100 15.495200
8.186200 12.582300
8.201400 8.620600
8.216500 4.144900
8.231600 3.737000
8.246700 3.384900
8.261800 3.100800
8.276900 2.885000
8.292000 2.737300
8.307200 2.652000
8.322300 2.623600
8.337400 2.652100
8.352500 2.737400
8.367600 2.879700
8.382700 3.078800
8.397800 3.334800
8.413000 3.647700
8.428100 6.450600
8.443200 13.500900
8.458300 17.044300
8.473400 19.397100
8.488500 20.471900
8.503600 20.281700
8.518800 14.442300
8.533900 8.935700
8.549000 5.371100
8.564100 3.664100
8.579200 10.700200
8.594300 11.966800
8.609400 11.834500
8.624600 12.011500
8.639700 12.871200
8.654800 14.611500
8.669900 17.232600
8.685000 15.369100
8.700100 11.066500
8.715200 8.440900
8.730400 7.492300
8.745500 8.220700
8.760600 12.069500
8.775700 16.510000
8.790800 21.371700
8.805900 26.654500
8.821000 32.692300
8.836200 1.865400
8.851300 2.424900
8.866400 3.071500
8.881500 4.008500
8.896600 5.102600
8.911700 6.231300
8.926800 7.383600
8.942000 6.921700
8.957100 7.598900
8.972200 8.260800
8.987300 8.907300
9.002400 9.538400
9.017500 10.154100
9.032600 10.754400
9.047800 11.339300
9.062900 11.450700
9.078000 11.421300
9.093100 11.342600
9.108200 11.214500
9.123300 11.037200
9.138400 10.810500
9.153600 10.534500
9.168700 10.063200
9.183800 9.580300
9.198900 9.100800
9.214000 8.624600
9.229100 8.151900
9.244200 7.682500
9.259400 7.216600
9.274500 6.754000
9.289600 6.294900
9.304700 5.839100
9.319800 5.415400
9.334900 5.068900
9.350000 9.167400
9.365200 10.883600
9.380300 9.986000
9.395400 9.143500
9.410500 8.355200
9.425600 7.612800
9.440700 6.914400
9.455800 6.259900
9.471000 5.649300
9.486100 5.082700
9.501200 4.560000
9.516300 4.081300
9.531400 5.602000
9.546500 10.451700
9.561600 14.770400
9.576800 28.674700
9.591900 13.915600
9.607000 12.198500
9.622100 10.613000
9.637200 9.158900
9.652300 7.836400
9.667400 6.645400
9.682600 5.585900
9.697700 4.657900
9.712800 3.861400
9.727900 3.196400
9.743000 2.646400
9.758100 2.154600
9.773300 8.633700
9.788400 8.663500
9.803500 8.667400
9.818600 8.645300
9.833700 8.597300
9.848800 8.523400
9.863900 8.423500
9.879100 8.297300
9.894200 8.116500
9.909300 7.921000
9.924400 8.769200
9.939500 9.961500
9.954600 11.497200
9.969700 11.042600
9.984900 13.485800
10.000000 23.158800
10.015100 24.355900
10.030200 24.748300
10.045300 25.469400
10.060400 15.028500
10.075500 11.790600
10.090700 9.761200
10.105800 8.415200
10.120900 7.583700
10.136000 7.266800
10.151100 7.464300
10.166200 7.872700
10.181300 8.151300
10.196500 8.309400
10.211600 12.181100
10.226700 18.485300
10.241800 21.063200
10.256900 11.931300
10.272000 7.006200
10.287100 2.706400
10.302300 1.905200
10.317400 3.332400
10.332500 4.991600
10.347600 6.882900
10.362700 9.006300
10.377800 11.361700
10.392900 17.476000
10.408100 16.188900
10.423200 14.786500
10.438300 13.263000
10.453400 11.618400
10.468500 9.915200
10.483600 8.231900
10.498700 6.569000
10.513900 4.926300
10.529000 1.994300
10.544100 2.312000
10.559200 2.714200
10.574300 3.174000
10.589400 3.676800
10.604500 4.222500
10.619700 4.811100
10.634800 5.442700
10.649900 6.115900
10.665000 6.825100
10.680100 7.570000
10.695200 8.538000
10.710300 9.668700
10.725500 10.978000
10.740600 12.355300
10.755700 13.615300
10.770800 14.759300
10.785900 15.801600
10.801000 16.746200
10.816100 17.593200
10.831300 18.524500
10.846400 14.942800
10.861500 13.506300
10.876600 12.779400
10.891700 12.164700
10.906800 11.427800
10.921900 10.568800
10.937100 9.587700
10.952200 8.486000
10.967300 3.508900
10.982400 3.869300
10.997500 4.266400
11.012600 4.760900
11.027700 5.367100
11.042900 6.084900
11.058000 6.914300
11.073100 7.855300
11.088200 16.507200
11.103300 12.117700
11.118400 13.171000
11.133500 14.330900
11.148700 15.597400
11.163800 16.971400
11.178900 7.708000
11.194000 9.062200
11.209100 10.570800
11.224200 12.244600
11.239300 14.085900
11.254500 18.703900
11.269600 20.633800
11.284700 21.710500
11.299800 21.415500
11.314900 8.027400
11.330000 17.575400
11.345100 30.434900
11.360300 18.602500
11.375400 10.925400
11.390500 6.265100
11.405600 5.501300
11.420700 4.855400
11.435800 4.427800
11.450900 4.468700
11.466100 5.057200
11.481200 6.067700
11.496300 7.500100
11.511400 10.186600
11.526500 13.156100
11.541600 15.051100
11.556700 16.161700
11.571900 16.896400
11.587000 17.305500
11.602100 17.324100
11.617200 15.011400
11.632300 3.064900
11.647400 3.937600
11.662500 4.889800
11.677700 5.850200
11.692800 6.818800
11.707900 7.804500
11.723000 8.813300
11.738100 9.882600
11.753200 10.986100
11.768300 12.115400
11.783500 12.702300
11.798600 12.788400
11.813700 12.884900
11.828800 12.991800
11.843900 13.110600
11.859000 13.246100
11.874100 13.193100
11.889300 12.820900
11.904400 12.428300
11.919500 12.014600
11.934600 8.667800
11.949700 8.985200
11.964800 9.323600
11.979900 9.682900
11.995100 10.063300
12.010200 10.464700
12.025300 10.887000
12.040400 11.330400
12.055500 11.794800
12.070600 12.280200
12.085700 12.788800
12.100900 13.516500
12.116000 10.463000
12.131100 12.115100
12.146200 13.837600
12.161300 14.424300
12.176400 14.615900
12.191500 14.726500
12.206700 14.756200
12.221800 14.704900
12.236900 14.573100
12.252000 14.363700
12.267100 14.077700
12.282200 13.714800
12.297300 7.955200
12.312500 8.166800
12.327600 8.384600
12.342700 8.608600
12.357800 8.838700
12.372900 9.074900
12.388000 9.317300
12.403100 9.565800
12.418300 9.820600
12.433400 11.019000
12.448500 11.253600
12.463600 9.247100
12.478700 7.472500
12.493800 5.930000
12.508900 4.619500
12.524100 3.541000
12.539200 2.694500
12.554300 2.617800
12.569400 2.619200
12.584500 2.646100
12.599600 2.698400
12.614700 2.776300
12.629900 2.879700
12.645000 3.008600
12.660100 3.163000
12.675200 5.584300
12.690300 10.621100
12.705400 10.594400
12.720500 10.669100
12.735700 10.845000
12.750800 11.122300
12.765900 11.501000
12.781000 13.742800
12.796100 29.931600
12.811200 15.383800
12.826300 17.820900
12.841500 22.237300
12.856600 35.834000
12.871700 30.318100
12.886800 21.052700
12.901900 7.868000
12.917000 6.665300
12.932100 19.097000
12.947300 16.078800
12.962400 15.755000
12.977500 15.029000
12.992600 13.900700
13.007700 12.370100
13.022800 10.351100
13.037900 8.188700
13.053100 6.863300
13.068200 6.979700
13.083300 10.171200
13.098400 15.907200
13.113500 16.297400
13.128600 15.637000
13.143700 13.925900
13.158900 11.301300
13.174000 9.069600
13.189100 7.524000
13.204200 6.649300
13.219300 6.402500
13.234400 6.780800
13.249500 7.557900
13.264700 8.433500
13.279800 9.481900
13.294900 25.735400
13.310000 28.644900
13.325100 18.144400
13.340200 16.493600
13.355300 15.041500
13.370500 13.788100
13.385600 12.733500
13.400700 11.877500
13.415800 11.220300
13.430900 12.263900
13.446000 17.620800
13.461100 10.751600
13.476300 11.186700
13.491400 11.598300
13.506500 12.118700
13.521600 14.237900
13.536700 18.373800
13.551800 27.160800
13.567000 9.152800
13.582100 9.791700
13.597200 10.136800
13.612300 10.184800
13.627400 10.510900
13.642500 11.164500
13.657600 11.582400
13.672800 12.021200
13.687900 12.480900
13.703000 12.961700
13.718100 13.463400
13.733200 13.986000
13.748300 14.529600
13.763400 15.094300
13.778600 16.754800
13.793700 15.171600
13.808800 14.122000
13.823900 13.135900
13.839000 12.206300
13.854100 11.791200
13.869200 12.129600
13.884400 12.605600
13.899500 12.591800
13.914600 12.637400
13.929700 12.654600
13.944800 12.643300
13.959900 12.603700
13.975000 12.535700
13.990200 12.439300
14.005300 11.464800
14.020400 10.348500
14.035500 9.333400
14.050600 8.419700
14.065700 7.760100
14.080800 8.065800
14.096000 8.360500
14.111100 8.643600
14.126200 8.915300
14.141300 9.175200
14.156400 9.418500
14.171500 10.005600
14.186600 10.809900
14.201800 16.523900
14.216900 15.756900
14.232000 15.074300
14.247100 14.458600
14.262200 14.116800
14.277300 14.114800
14.292400 14.312900
14.307600 14.542000
14.322700 23.070800
14.337800 20.509600
14.352900 18.407100
14.368000 16.763500
14.383100 15.578800
14.398200 14.918600
14.413400 14.578700
14.428500 19.794700
14.443600 17.998200
14.458700 16.371200
14.473800 14.913500
14.488900 13.585800
14.504000 12.710800
14.519200 11.928900
14.534300 11.387600
14.549400 10.913700
14.564500 10.497000
14.579600 10.137500
14.594700 9.835200
14.609800 9.590100
14.625000 9.402300
14.640100 9.271600
14.655200 9.197700
14.670300 17.426600
14.685400 12.045800
14.700500 11.781000
14.715600 12.369000
14.730800 13.488600
14.745900 15.122600
14.761000 13.277800
14.776100 13.073600
14.791200 12.925400
14.806300 12.769700
14.821400 12.606400
14.836600 13.081300
14.851700 15.044800
14.866800 14.017300
14.881900 13.003900
14.897000 12.004700
14.912100 11.019700
14.927200 10.115400
14.942400 9.404500
14.957500 8.731500
14.972600 8.074500
14.987700 13.238300
15.002800 13.673000
15.017900 14.074800
15.033000 14.443800
15.048200 14.780000
15.063300 15.083200
15.078400 15.354700
15.093500 14.002200
15.108600 11.512600
15.123700 9.109400
15.138800 7.282000
15.154000 6.030500
15.169100 5.336700
15.184200 4.877600
15.199300 4.443900
15.214400 4.035600
15.229500 3.652700
15.244600 3.293000
15.259800 2.955000
15.274900 2.638600
15.290000 2.344000
15.305100 2.070700
15.320200 1.814100
15.335300 1.575500
15.350400 1.355500
15.365600 1.151600
15.380700 0.963800
15.395800 0.792100
15.410900 0.636500
15.426000 0.497100
15.441100 0.373700
15.456200 0.266500
15.471400 0.175400
15.486500 0.100300
15.501600 0.057400
15.516700 0.031000
15.531800 0.013000
15.546900 0.003300
15.562000 0.000000
15.577200 0.000000
15.592300 0.000000
15.607400 0.000000
15.622500 0.000000
15.637600 0.000000
15.652700 0.000000
15.667800 0.000000
15.683000 0.000000
15.698100 0.000000
15.713200 0.000000
15.728300 0.000000
15.743400 0.000000
15.758500 0.000000
15.773600 0.000000
15.788800 0.000000
15.803900 0.000000
15.819000 0.000000
15.834100 0.000000
15.849200 0.000000
15.864300 0.000000
15.879400 0.000000
15.894600 0.000000
15.909700 0.000000
15.924800 0.000000
15.939900 0.000000
15.955000 0.000000
15.970100 0.000000
15.985200 0.000000
16.000400 0.000000
16.015500 0.000000
16.030600 0.000000
16.045700 0.000000
16.060800 0.000000
16.075900 0.000000
16.091000 0.000000
16.106200 0.000000
16.121300 0.000000
16.136400 0.000000
16.151500 0.000000
16.166600 0.000000
16.181700 0.000000
16.196800 0.000000
16.212000 0.000000
16.227100 0.000000
16.242200 0.000000
16.257300 0.000000
16.272400 0.000000
16.287500 0.000000
16.302600 0.000000
16.317800 0.000000
16.332900 0.000000
16.348000 0.000000
16.363100 0.000000
16.378200 0.000000
16.393300 0.000000
16.408400 0.000000
16.423600 0.000000
16.438700 0.000000
16.453800 0.000000
16.468900 0.000000
16.484000 0.000000
16.499100 0.000000
16.514200 0.000000
16.529400 0.000000
16.544500 0.000000
16.559600 0.000000
16.574700 0.000000
16.589800 0.000000
16.604900 0.000000
16.620000 0.000000
16.635200 0.000000
16.650300 0.000000
16.665400 0.000000
16.680500 0.000000
16.695600 0.000000
16.710700 0.000000
16.725800 0.000000
16.741000 0.000000
16.756100 0.000000
16.771200 0.000000
16.786300 0.000000
16.801400 0.000000
16.816500 0.000000
16.831600 0.000000
16.846800 0.000000
16.861900 0.000000
16.877000 0.000000
16.892100 0.000000
16.907200 0.000000
16.922300 0.000000
16.937400 0.000000
e
