set title 'mp-1225203 - Density of States'
set xlabel 'Energy (eV)'
set ylabel 'DOS (states/eV)'
set grid
set xrange [-10:10]
set yrange [0:7.629]
set xzeroaxis lt -1
set terminal png size 800,600
set output 'mp-1225203_dos_gnuplot.png'
plot '-' using 1:2 with lines title 'DOS'
-52.447000 0.000000
-52.396700 0.000000
-52.346400 0.000000
-52.296100 0.000000
-52.245800 0.000000
-52.195500 0.000000
-52.145200 0.000000
-52.095000 0.000000
-52.044700 0.000000
-51.994400 0.000000
-51.944100 0.000000
-51.893800 0.000000
-51.843500 0.000000
-51.793200 0.000000
-51.742900 0.000000
-51.692600 0.000000
-51.642300 0.000000
-51.592100 0.000000
-51.541800 0.000000
-51.491500 0.000000
-51.441200 0.000000
-51.390900 0.000000
-51.340600 0.000000
-51.290300 0.000000
-51.240000 0.000000
-51.189700 0.000000
-51.139400 0.000000
-51.089200 0.000000
-51.038900 0.000000
-50.988600 0.000000
-50.938300 0.000000
-50.888000 0.000000
-50.837700 0.000000
-50.787400 0.000000
-50.737100 0.000000
-50.686800 0.000000
-50.636500 0.000000
-50.586300 0.000000
-50.536000 0.000000
-50.485700 0.000000
-50.435400 0.000000
-50.385100 0.000000
-50.334800 0.000000
-50.284500 0.000000
-50.234200 0.000000
-50.183900 0.000000
-50.133600 0.000000
-50.083400 0.000000
-50.033100 0.000000
-49.982800 0.000000
-49.932500 0.000000
-49.882200 0.000000
-49.831900 0.000000
-49.781600 0.000000
-49.731300 0.000000
-49.681000 0.000000
-49.630700 0.000000
-49.580500 0.000000
-49.530200 0.000000
-49.479900 0.000000
-49.429600 0.000000
-49.379300 0.000000
-49.329000 0.000000
-49.278700 0.000000
-49.228400 0.000000
-49.178100 0.000000
-49.127800 0.000000
-49.077600 0.000000
-49.027300 0.000000
-48.977000 0.000000
-48.926700 0.000000
-48.876400 0.000000
-48.826100 0.000000
-48.775800 0.000000
-48.725500 0.000000
-48.675200 0.000000
-48.624900 0.000000
-48.574700 0.000000
-48.524400 0.000000
-48.474100 0.000000
-48.423800 0.000000
-48.373500 0.000000
-48.323200 0.000000
-48.272900 0.000000
-48.222600 0.000000
-48.172300 0.000000
-48.122000 0.000000
-48.071800 0.000000
-48.021500 0.000000
-47.971200 0.000000
-47.920900 0.000000
-47.870600 6.448700
-47.820300 15.078000
-47.770000 5.583300
-47.719700 11.941100
-47.669400 19.903000
-47.619100 39.783400
-47.568900 11.312100
-47.518600 0.000000
-47.468300 0.000000
-47.418000 5.734000
-47.367700 26.583100
-47.317400 4.901700
-47.267100 13.159300
-47.216800 26.304300
-47.166500 15.770300
-47.116200 0.000000
-47.066000 0.000000
-47.015700 0.000000
-46.965400 0.000000
-46.915100 0.000000
-46.864800 0.000000
-46.814500 0.000000
-46.764200 0.000000
-46.713900 0.000000
-46.663600 0.000000
-46.613300 0.000000
-46.563100 0.000000
-46.512800 0.000000
-46.462500 0.000000
-46.412200 0.000000
-46.361900 0.000000
-46.311600 0.000000
-46.261300 0.000000
-46.211000 0.000000
-46.160700 0.000000
-46.110400 0.000000
-46.060200 0.000000
-46.009900 0.000000
-45.959600 0.000000
-45.909300 0.000000
-45.859000 0.000000
-45.808700 0.000000
-45.758400 0.000000
-45.708100 0.000000
-45.657800 0.000000
-45.607500 0.000000
-45.557300 0.000000
-45.507000 0.000000
-45.456700 0.000000
-45.406400 0.000000
-45.356100 0.000000
-45.305800 0.000000
-45.255500 0.000000
-45.205200 0.000000
-45.154900 0.000000
-45.104600 0.000000
-45.054400 0.000000
-45.004100 0.000000
-44.953800 0.000000
-44.903500 0.000000
-44.853200 0.000000
-44.802900 0.000000
-44.752600 0.000000
-44.702300 0.000000
-44.652000 0.000000
-44.601700 0.000000
-44.551500 0.000000
-44.501200 0.000000
-44.450900 0.000000
-44.400600 0.000000
-44.350300 0.000000
-44.300000 0.000000
-44.249700 0.000000
-44.199400 0.000000
-44.149100 0.000000
-44.098800 0.000000
-44.048600 0.000000
-43.998300 0.000000
-43.948000 0.000000
-43.897700 0.000000
-43.847400 0.000000
-43.797100 0.000000
-43.746800 0.000000
-43.696500 0.000000
-43.646200 0.000000
-43.595900 0.000000
-43.545700 0.000000
-43.495400 0.000000
-43.445100 0.000000
-43.394800 0.000000
-43.344500 0.000000
-43.294200 0.000000
-43.243900 0.000000
-43.193600 0.000000
-43.143300 0.000000
-43.093000 0.000000
-43.042800 0.000000
-42.992500 0.000000
-42.942200 0.000000
-42.891900 0.000000
-42.841600 0.000000
-42.791300 0.000000
-42.741000 0.000000
-42.690700 0.000000
-42.640400 0.000000
-42.590100 0.000000
-42.539900 0.000000
-42.489600 0.000000
-42.439300 0.000000
-42.389000 0.000000
-42.338700 0.000000
-42.288400 0.000000
-42.238100 0.000000
-42.187800 0.000000
-42.137500 0.000000
-42.087200 0.000000
-42.037000 0.000000
-41.986700 0.000000
-41.936400 0.000000
-41.886100 0.000000
-41.835800 0.000000
-41.785500 0.000000
-41.735200 0.000000
-41.684900 0.000000
-41.634600 0.000000
-41.584300 0.000000
-41.534100 0.000000
-41.483800 0.000000
-41.433500 0.000000
-41.383200 0.000000
-41.332900 0.000000
-41.282600 0.000000
-41.232300 0.000000
-41.182000 0.000000
-41.131700 0.000000
-41.081400 0.000000
-41.031200 0.000000
-40.980900 0.000000
-40.930600 0.000000
-40.880300 0.000000
-40.830000 0.000000
-40.779700 0.000000
-40.729400 0.000000
-40.679100 0.000000
-40.628800 0.000000
-40.578500 0.000000
-40.528300 0.000000
-40.478000 0.000000
-40.427700 0.000000
-40.377400 0.000000
-40.327100 0.000000
-40.276800 0.000000
-40.226500 0.000000
-40.176200 0.000000
-40.125900 0.000000
-40.075600 0.000000
-40.025400 0.000000
-39.975100 0.000000
-39.924800 0.000000
-39.874500 0.000000
-39.824200 0.000000
-39.773900 0.000000
-39.723600 0.000000
-39.673300 0.000000
-39.623000 0.000000
-39.572700 0.000000
-39.522500 0.000000
-39.472200 0.000000
-39.421900 0.000000
-39.371600 0.000000
-39.321300 0.000000
-39.271000 0.000000
-39.220700 0.000000
-39.170400 0.000000
-39.120100 0.000000
-39.069800 0.000000
-39.019500 0.000000
-38.969300 0.000000
-38.919000 0.000000
-38.868700 0.000000
-38.818400 0.000000
-38.768100 0.000000
-38.717800 0.000000
-38.667500 0.000000
-38.617200 0.000000
-38.566900 0.000000
-38.516600 0.000000
-38.466400 0.000000
-38.416100 0.000000
-38.365800 0.000000
-38.315500 0.000000
-38.265200 0.000000
-38.214900 0.000000
-38.164600 0.000000
-38.114300 0.000000
-38.064000 0.000000
-38.013700 0.000000
-37.963500 0.000000
-37.913200 0.000000
-37.862900 0.000000
-37.812600 0.000000
-37.762300 0.000000
-37.712000 0.000000
-37.661700 0.000000
-37.611400 0.000000
-37.561100 0.000000
-37.510800 0.000000
-37.460600 0.000000
-37.410300 0.000000
-37.360000 0.000000
-37.309700 0.000000
-37.259400 0.000000
-37.209100 0.000000
-37.158800 0.000000
-37.108500 0.000000
-37.058200 0.000000
-37.007900 0.000000
-36.957700 0.000000
-36.907400 0.000000
-36.857100 0.000000
-36.806800 0.000000
-36.756500 0.000000
-36.706200 0.000000
-36.655900 0.000000
-36.605600 0.000000
-36.555300 0.000000
-36.505000 0.000000
-36.454800 0.000000
-36.404500 0.000000
-36.354200 0.000000
-36.303900 0.000000
-36.253600 0.000000
-36.203300 0.000000
-36.153000 0.000000
-36.102700 0.000000
-36.052400 0.000000
-36.002100 0.000000
-35.951900 0.000000
-35.901600 0.000000
-35.851300 0.000000
-35.801000 0.000000
-35.750700 0.000000
-35.700400 0.000000
-35.650100 0.000000
-35.599800 0.000000
-35.549500 0.000000
-35.499200 0.000000
-35.449000 0.000000
-35.398700 0.000000
-35.348400 0.000000
-35.298100 0.000000
-35.247800 0.000000
-35.197500 0.000000
-35.147200 0.000000
-35.096900 0.000000
-35.046600 0.000000
-34.996300 0.000000
-34.946100 0.000000
-34.895800 0.000000
-34.845500 0.000000
-34.795200 0.000000
-34.744900 0.000000
-34.694600 0.000000
-34.644300 0.000000
-34.594000 0.000000
-34.543700 0.000000
-34.493400 0.000000
-34.443200 0.000000
-34.392900 0.000000
-34.342600 0.000000
-34.292300 0.000000
-34.242000 0.000000
-34.191700 0.000000
-34.141400 0.000000
-34.091100 0.000000
-34.040800 0.000000
-33.990500 0.000000
-33.940300 0.000000
-33.890000 0.000000
-33.839700 0.000000
-33.789400 0.000000
-33.739100 0.000000
-33.688800 0.000000
-33.638500 0.000000
-33.588200 0.000000
-33.537900 0.000000
-33.487600 0.000000
-33.437400 0.000000
-33.387100 0.000000
-33.336800 0.000000
-33.286500 0.000000
-33.236200 0.000000
-33.185900 0.000000
-33.135600 0.000000
-33.085300 0.000000
-33.035000 0.000000
-32.984700 0.000000
-32.934500 0.000000
-32.884200 0.000000
-32.833900 0.000000
-32.783600 0.000000
-32.733300 0.000000
-32.683000 0.000000
-32.632700 0.000000
-32.582400 0.000000
-32.532100 0.000000
-32.481800 0.000000
-32.431600 0.000000
-32.381300 0.000000
-32.331000 0.000000
-32.280700 0.000000
-32.230400 0.000000
-32.180100 0.000000
-32.129800 0.000000
-32.079500 0.000000
-32.029200 0.000000
-31.978900 0.000000
-31.928700 0.000000
-31.878400 0.000000
-31.828100 0.000000
-31.777800 0.000000
-31.727500 0.000000
-31.677200 0.000000
-31.626900 0.000000
-31.576600 0.000000
-31.526300 0.000000
-31.476000 0.000000
-31.425800 0.000000
-31.375500 0.000000
-31.325200 0.000000
-31.274900 0.000000
-31.224600 0.000000
-31.174300 0.000000
-31.124000 0.000000
-31.073700 0.000000
-31.023400 0.000000
-30.973100 0.000000
-30.922900 0.000000
-30.872600 0.000000
-30.822300 0.000000
-30.772000 0.000000
-30.721700 0.000000
-30.671400 0.000000
-30.621100 0.000000
-30.570800 0.000000
-30.520500 0.000000
-30.470200 0.000000
-30.420000 0.000000
-30.369700 0.000000
-30.319400 0.000000
-30.269100 0.000000
-30.218800 0.000000
-30.168500 0.000000
-30.118200 0.000000
-30.067900 0.000000
-30.017600 0.000000
-29.967300 0.000000
-29.917100 0.000000
-29.866800 0.000000
-29.816500 0.000000
-29.766200 0.000000
-29.715900 0.000000
-29.665600 0.000000
-29.615300 0.000000
-29.565000 0.000000
-29.514700 0.000000
-29.464400 0.000000
-29.414200 0.000000
-29.363900 0.000000
-29.313600 0.000000
-29.263300 0.000000
-29.213000 0.000000
-29.162700 0.000000
-29.112400 0.000000
-29.062100 0.000000
-29.011800 0.000000
-28.961500 0.000000
-28.911300 0.000000
-28.861000 0.000000
-28.810700 0.000000
-28.760400 0.000000
-28.710100 0.000000
-28.659800 0.000000
-28.609500 0.000000
-28.559200 0.000000
-28.508900 0.000000
-28.458600 0.000000
-28.408400 0.000000
-28.358100 0.000000
-28.307800 0.000000
-28.257500 0.000000
-28.207200 0.000000
-28.156900 0.000000
-28.106600 0.000000
-28.056300 0.000000
-28.006000 0.000000
-27.955700 0.000000
-27.905500 0.000000
-27.855200 0.000000
-27.804900 0.000000
-27.754600 0.000000
-27.704300 0.000000
-27.654000 0.000000
-27.603700 0.000000
-27.553400 0.000000
-27.503100 0.000000
-27.452800 0.000000
-27.402600 0.000000
-27.352300 0.000000
-27.302000 0.000000
-27.251700 0.000000
-27.201400 0.000000
-27.151100 0.000000
-27.100800 0.000000
-27.050500 0.000000
-27.000200 0.000000
-26.949900 0.000000
-26.899700 0.000000
-26.849400 0.000000
-26.799100 0.000000
-26.748800 0.000000
-26.698500 0.000000
-26.648200 0.000000
-26.597900 0.000000
-26.547600 0.000000
-26.497300 0.000000
-26.447000 0.000000
-26.396800 0.000000
-26.346500 0.000000
-26.296200 0.000000
-26.245900 0.000000
-26.195600 0.000000
-26.145300 0.000000
-26.095000 0.000000
-26.044700 0.000000
-25.994400 0.000000
-25.944100 0.000000
-25.893900 0.000000
-25.843600 0.000000
-25.793300 0.000000
-25.743000 0.000000
-25.692700 0.000000
-25.642400 0.000000
-25.592100 0.000000
-25.541800 0.000000
-25.491500 0.000000
-25.441200 0.000000
-25.391000 0.000000
-25.340700 0.000000
-25.290400 0.000000
-25.240100 0.000000
-25.189800 0.000000
-25.139500 0.000000
-25.089200 0.000000
-25.038900 0.000000
-24.988600 0.000000
-24.938300 0.000000
-24.888100 0.000000
-24.837800 0.000000
-24.787500 0.000000
-24.737200 0.000000
-24.686900 0.000000
-24.636600 0.000000
-24.586300 0.000000
-24.536000 0.000000
-24.485700 0.000000
-24.435400 0.000000
-24.385200 0.000000
-24.334900 0.000000
-24.284600 0.000000
-24.234300 0.000000
-24.184000 0.000000
-24.133700 0.000000
-24.083400 0.000000
-24.033100 0.000000
-23.982800 0.000000
-23.932500 0.000000
-23.882300 0.000000
-23.832000 0.000000
-23.781700 0.000000
-23.731400 0.000000
-23.681100 0.000000
-23.630800 0.000000
-23.580500 0.000000
-23.530200 0.000000
-23.479900 0.000000
-23.429600 0.000000
-23.379400 0.000000
-23.329100 0.000000
-23.278800 0.000000
-23.228500 0.000000
-23.178200 0.000000
-23.127900 0.000000
-23.077600 0.000000
-23.027300 0.000000
-22.977000 0.000000
-22.926700 0.000000
-22.876400 0.000000
-22.826200 0.000000
-22.775900 0.000000
-22.725600 0.000000
-22.675300 0.000000
-22.625000 0.000000
-22.574700 0.000000
-22.524400 0.000000
-22.474100 0.000000
-22.423800 0.000000
-22.373500 0.000000
-22.323300 0.000000
-22.273000 0.000000
-22.222700 0.000000
-22.172400 0.000000
-22.122100 0.000000
-22.071800 0.000000
-22.021500 0.000000
-21.971200 0.000000
-21.920900 0.000000
-21.870600 0.000000
-21.820400 0.000000
-21.770100 0.000000
-21.719800 0.000000
-21.669500 0.000000
-21.619200 0.000000
-21.568900 0.000000
-21.518600 0.000000
-21.468300 0.000000
-21.418000 0.000000
-21.367700 0.000000
-21.317500 0.000000
-21.267200 0.000000
-21.216900 0.000000
-21.166600 0.000000
-21.116300 0.000000
-21.066000 0.000000
-21.015700 0.000000
-20.965400 0.000000
-20.915100 0.000000
-20.864800 0.000000
-20.814600 0.000000
-20.764300 0.000000
-20.714000 0.000000
-20.663700 0.000000
-20.613400 0.000000
-20.563100 0.000000
-20.512800 0.000000
-20.462500 0.000000
-20.412200 0.000000
-20.361900 0.000000
-20.311700 0.000000
-20.261400 0.000000
-20.211100 0.000000
-20.160800 0.000000
-20.110500 0.000000
-20.060200 0.000000
-20.009900 0.000000
-19.959600 0.000000
-19.909300 0.000000
-19.859000 0.000000
-19.808800 0.000000
-19.758500 0.000000
-19.708200 0.000000
-19.657900 0.000000
-19.607600 0.000000
-19.557300 0.000000
-19.507000 0.000000
-19.456700 0.000000
-19.406400 0.000000
-19.356100 0.000000
-19.305900 0.000000
-19.255600 0.000000
-19.205300 0.000000
-19.155000 0.000000
-19.104700 0.000000
-19.054400 0.000000
-19.004100 0.000000
-18.953800 0.000000
-18.903500 0.000000
-18.853200 0.000000
-18.803000 0.000000
-18.752700 0.000000
-18.702400 0.000000
-18.652100 0.000000
-18.601800 0.000000
-18.551500 0.000000
-18.501200 0.000000
-18.450900 0.000000
-18.400600 0.000000
-18.350300 0.000000
-18.300100 0.000000
-18.249800 0.000000
-18.199500 0.000000
-18.149200 0.000000
-18.098900 0.000000
-18.048600 0.000000
-17.998300 0.000000
-17.948000 0.000000
-17.897700 0.000000
-17.847400 0.000000
-17.797200 0.000000
-17.746900 0.000000
-17.696600 0.000000
-17.646300 0.000000
-17.596000 0.000000
-17.545700 0.000000
-17.495400 0.000000
-17.445100 0.000000
-17.394800 0.000000
-17.344500 0.000000
-17.294300 0.000000
-17.244000 0.000000
-17.193700 0.000000
-17.143400 0.000000
-17.093100 0.000000
-17.042800 0.000000
-16.992500 0.000000
-16.942200 0.000000
-16.891900 0.000000
-16.841600 0.000000
-16.791400 0.000000
-16.741100 0.000000
-16.690800 0.000000
-16.640500 0.000000
-16.590200 0.000000
-16.539900 0.000000
-16.489600 0.000000
-16.439300 0.000000
-16.389000 0.000000
-16.338700 0.000000
-16.288500 0.000000
-16.238200 0.000000
-16.187900 0.000000
-16.137600 0.000000
-16.087300 0.000000
-16.037000 0.000000
-15.986700 0.000000
-15.936400 0.000000
-15.886100 0.000000
-15.835800 0.000000
-15.785600 0.000000
-15.735300 0.000000
-15.685000 0.000000
-15.634700 0.000000
-15.584400 0.000000
-15.534100 0.000000
-15.483800 0.000000
-15.433500 0.000000
-15.383200 0.000000
-15.332900 0.000000
-15.282700 0.000000
-15.232400 0.000000
-15.182100 0.000000
-15.131800 0.000000
-15.081500 0.000000
-15.031200 0.000000
-14.980900 0.000000
-14.930600 0.000000
-14.880300 0.000000
-14.830000 0.000000
-14.779800 0.000000
-14.729500 0.000000
-14.679200 0.000000
-14.628900 0.000000
-14.578600 0.000000
-14.528300 0.000000
-14.478000 0.000000
-14.427700 0.000000
-14.377400 0.000000
-14.327100 0.000000
-14.276900 0.000000
-14.226600 0.000000
-14.176300 0.000000
-14.126000 0.000000
-14.075700 0.000000
-14.025400 0.000000
-13.975100 0.000000
-13.924800 0.000000
-13.874500 0.000000
-13.824200 0.000000
-13.774000 0.000000
-13.723700 0.000000
-13.673400 0.000000
-13.623100 0.000000
-13.572800 0.000000
-13.522500 0.000000
-13.472200 0.000000
-13.421900 0.000000
-13.371600 0.000000
-13.321300 0.000000
-13.271100 0.000000
-13.220800 0.000000
-13.170500 0.000000
-13.120200 0.000000
-13.069900 0.000000
-13.019600 0.000000
-12.969300 0.000000
-12.919000 0.000000
-12.868700 0.000000
-12.818400 0.000000
-12.768200 0.000000
-12.717900 0.000000
-12.667600 0.000000
-12.617300 0.000000
-12.567000 0.000000
-12.516700 0.000000
-12.466400 0.000000
-12.416100 0.000000
-12.365800 0.000000
-12.315500 0.000000
-12.265300 0.000000
-12.215000 0.000000
-12.164700 0.000000
-12.114400 0.000000
-12.064100 0.000000
-12.013800 0.000000
-11.963500 0.000000
-11.913200 0.000000
-11.862900 0.000000
-11.812600 0.000000
-11.762400 0.136400
-11.712100 0.303200
-11.661800 0.188300
-11.611500 0.203600
-11.561200 0.218900
-11.510900 0.234300
-11.460600 0.227700
-11.410300 0.214300
-11.360000 0.217500
-11.309700 0.224200
-11.259500 0.230900
-11.209200 0.237700
-11.158900 0.244400
-11.108600 0.239300
-11.058300 0.241900
-11.008000 0.244500
-10.957700 0.247100
-10.907400 0.251600
-10.857100 0.256700
-10.806800 0.261800
-10.756600 0.266900
-10.706300 0.272000
-10.656000 0.276800
-10.605700 0.281800
-10.555400 0.287800
-10.505100 0.293900
-10.454800 0.300000
-10.404500 0.306000
-10.354200 0.312500
-10.303900 0.319000
-10.253700 0.325600
-10.203400 0.332100
-10.153100 0.353700
-10.102800 0.369700
-10.052500 0.385400
-10.002200 0.400800
-9.951900 0.416200
-9.901600 0.431600
-9.851300 0.448600
-9.801000 0.468100
-9.750800 0.487500
-9.700500 0.568900
-9.650200 0.645500
-9.599900 0.766700
-9.549600 0.921900
-9.499300 1.111500
-9.449000 0.677500
-9.398700 0.565800
-9.348400 0.734100
-9.298100 0.585000
-9.247900 0.435900
-9.197600 0.591700
-9.147300 0.000000
-9.097000 0.000000
-9.046700 0.000000
-8.996400 0.000000
-8.946100 0.000000
-8.895800 0.000000
-8.845500 0.000000
-8.795200 0.000000
-8.745000 0.000000
-8.694700 0.000000
-8.644400 0.000000
-8.594100 0.000000
-8.543800 0.000000
-8.493500 0.000000
-8.443200 0.000000
-8.392900 0.000000
-8.342600 0.000000
-8.292300 0.000000
-8.242100 0.000000
-8.191800 0.000000
-8.141500 0.000000
-8.091200 0.000000
-8.040900 0.000000
-7.990600 0.000000
-7.940300 0.000000
-7.890000 0.000000
-7.839700 0.000000
-7.789400 0.000000
-7.739200 0.000000
-7.688900 0.000000
-7.638600 0.000000
-7.588300 0.000000
-7.538000 0.000000
-7.487700 0.000000
-7.437400 0.000000
-7.387100 0.000000
-7.336800 0.000000
-7.286500 0.000000
-7.236300 0.000000
-7.186000 0.000000
-7.135700 0.000000
-7.085400 0.000000
-7.035100 0.000000
-6.984800 0.000000
-6.934500 0.000000
-6.884200 0.000000
-6.833900 0.000000
-6.783600 0.000000
-6.733300 0.000000
-6.683100 0.000000
-6.632800 0.000000
-6.582500 0.000000
-6.532200 0.000000
-6.481900 0.000000
-6.431600 0.000000
-6.381300 0.000000
-6.331000 0.000000
-6.280700 0.000000
-6.230400 0.000000
-6.180200 0.000000
-6.129900 0.000000
-6.079600 0.000000
-6.029300 0.000000
-5.979000 0.000000
-5.928700 0.000000
-5.878400 0.000000
-5.828100 0.000000
-5.777800 0.000000
-5.727500 0.000000
-5.677300 0.000000
-5.627000 0.000000
-5.576700 0.000000
-5.526400 0.000000
-5.476100 0.000000
-5.425800 0.000000
-5.375500 0.000000
-5.325200 0.000000
-5.274900 0.000000
-5.224600 0.000000
-5.174400 0.000000
-5.124100 0.000000
-5.073800 0.000000
-5.023500 0.000000
-4.973200 0.000000
-4.922900 0.000000
-4.872600 0.000000
-4.822300 0.000000
-4.772000 0.000000
-4.721700 0.000000
-4.671500 0.000000
-4.621200 0.000000
-4.570900 0.000000
-4.520600 0.000000
-4.470300 0.000000
-4.420000 0.000000
-4.369700 0.000000
-4.319400 0.000000
-4.269100 0.000000
-4.218800 0.000000
-4.168600 0.000000
-4.118300 0.000000
-4.068000 0.000000
-4.017700 0.000000
-3.967400 0.000000
-3.917100 0.000000
-3.866800 0.000000
-3.816500 0.000000
-3.766200 0.000000
-3.715900 0.000000
-3.665700 0.000000
-3.615400 0.000000
-3.565100 0.000000
-3.514800 0.000000
-3.464500 0.000000
-3.414200 0.000000
-3.363900 0.000000
-3.313600 0.000000
-3.263300 0.000000
-3.213000 0.000000
-3.162800 0.000000
-3.112500 0.000000
-3.062200 0.000000
-3.011900 0.000000
-2.961600 0.000000
-2.911300 0.000000
-2.861000 0.000000
-2.810700 0.000000
-2.760400 0.000000
-2.710100 0.000000
-2.659900 0.000000
-2.609600 0.007300
-2.559300 0.031800
-2.509000 0.067000
-2.458700 0.090200
-2.408400 0.109700
-2.358100 0.424800
-2.307800 0.481500
-2.257500 0.512200
-2.207200 0.562600
-2.157000 0.612900
-2.106700 0.596400
-2.056400 0.581700
-2.006100 0.597100
-1.955800 0.611600
-1.905500 0.627100
-1.855200 0.646800
-1.804900 0.670600
-1.754600 0.710600
-1.704300 0.755700
-1.654100 1.082400
-1.603800 0.978600
-1.553500 0.876300
-1.503200 0.774700
-1.452900 0.673400
-1.402600 0.535800
-1.352300 0.539800
-1.302000 0.577100
-1.251700 0.626900
-1.201400 0.681200
-1.151200 0.723100
-1.100900 0.764700
-1.050600 0.967800
-1.000300 1.626000
-0.950000 0.081800
-0.899700 0.093200
-0.849400 0.105700
-0.799100 0.224000
-0.748800 0.415500
-0.698500 0.600900
-0.648300 0.767100
-0.598000 2.468700
-0.547700 1.811900
-0.497400 2.077400
-0.447100 3.475200
-0.396800 2.834600
-0.346500 2.630900
-0.296200 0.625200
-0.245900 0.413400
-0.195600 1.432100
-0.145400 0.828500
-0.095100 0.431000
-0.044800 0.369400
0.005500 0.314800
0.055800 0.274500
0.106100 0.237800
0.156400 0.237300
0.206700 0.242000
0.257000 0.246700
0.307300 0.270500
0.357500 0.343200
0.407800 0.450600
0.458100 0.538800
0.508400 0.628700
0.558700 0.728500
0.609000 0.868800
0.659300 1.123500
0.709600 1.354700
0.759900 1.402300
0.810200 1.058200
0.860400 0.794600
0.910700 0.750400
0.961000 0.729100
1.011300 0.709900
1.061600 0.673600
1.111900 0.679200
1.162200 0.639200
1.212500 0.633300
1.262800 0.641300
1.313100 0.665700
1.363300 0.718700
1.413600 1.169100
1.463900 1.189600
1.514200 1.390700
1.564500 2.053600
1.614800 2.159700
1.665100 2.340800
1.715400 1.807800
1.765700 1.570400
1.816000 1.850100
1.866200 2.092700
1.916500 2.687500
1.966800 2.725600
2.017100 3.498300
2.067400 2.725900
2.117700 2.143600
2.168000 2.210900
2.218300 2.483200
2.268600 2.615400
2.318900 2.456000
2.369100 2.590700
2.419400 3.137900
2.469700 3.344300
2.520000 3.708500
2.570300 3.895600
2.620600 3.395600
2.670900 3.220800
2.721200 1.642200
2.771500 2.229700
2.821800 3.761700
2.872000 3.435200
2.922300 0.970400
2.972600 1.936700
3.022900 4.997400
3.073200 3.907600
3.123500 3.683300
3.173800 1.673500
3.224100 2.299000
3.274400 2.264700
3.324700 2.229000
3.374900 2.469500
3.425200 2.455000
3.475500 3.370700
3.525800 3.342200
3.576100 3.248500
3.626400 3.013400
3.676700 3.026400
3.727000 3.335300
3.777300 3.843300
3.827600 5.183000
3.877800 3.979600
3.928100 3.593000
3.978400 3.646500
4.028700 4.936700
4.079000 4.802500
4.129300 5.412300
4.179600 6.238800
4.229900 6.935300
4.280200 3.567000
4.330500 5.380700
4.380700 4.548900
4.431000 3.173200
4.481300 2.974800
4.531600 2.885600
4.581900 3.103600
4.632200 3.725800
4.682500 3.591200
4.732800 3.865200
4.783100 4.056000
4.833400 4.197500
4.883600 5.699700
4.933900 3.373100
4.984200 3.283500
5.034500 2.961700
5.084800 3.285400
5.135100 3.785200
5.185400 5.155300
5.235700 4.292600
5.286000 3.743200
5.336300 3.489800
5.386500 3.294200
5.436800 3.089400
5.487100 3.306300
5.537400 3.656000
5.587700 3.702600
5.638000 3.919600
5.688300 4.455300
5.738600 4.808300
5.788900 4.146400
5.839200 4.034000
5.889400 4.257900
5.939700 5.200100
5.990000 5.989000
6.040300 6.894000
6.090600 6.799000
6.140900 6.131500
6.191200 4.922800
6.241500 4.436600
6.291800 4.211700
6.342100 3.180000
6.392300 2.533900
6.442600 2.270700
6.492900 2.200900
6.543200 2.162500
6.593500 2.139700
6.643800 2.138900
6.694100 2.282500
6.744400 2.434600
6.794700 2.654900
6.845000 1.884400
6.895200 1.861700
6.945500 1.990200
6.995800 1.459800
7.046100 1.013100
7.096400 0.835200
7.146700 1.012600
7.197000 1.095700
7.247300 1.223300
7.297600 1.364000
7.347900 1.511500
7.398100 1.865400
7.448400 1.436900
7.498700 1.462400
7.549000 1.377400
7.599300 1.040800
7.649600 0.789100
7.699900 0.647500
7.750200 0.624000
7.800500 0.731400
7.850800 0.972700
7.901000 1.173900
7.951300 1.528700
8.001600 1.821800
8.051900 1.766300
8.102200 1.713200
8.152500 1.313100
8.202800 1.083900
8.253100 0.974300
8.303400 0.892000
8.353700 0.839700
8.403900 0.790800
8.454200 0.830800
8.504500 1.532100
8.554800 1.985600
8.605100 2.120100
8.655400 1.671400
8.705700 1.567400
8.756000 1.483500
8.806300 1.241900
8.856600 1.049000
8.906800 1.413100
8.957100 1.225500
9.007400 0.821700
9.057700 0.753100
9.108000 0.676300
9.158300 0.663100
9.208600 0.645300
9.258900 0.644100
9.309200 0.642200
9.359500 0.643200
9.409800 0.650100
9.460000 0.684100
9.510300 0.605900
9.560600 0.585900
9.610900 0.564500
9.661200 0.543700
9.711500 0.524900
9.761800 0.497000
9.812100 0.472400
9.862400 0.449700
9.912700 0.430300
9.962900 0.415400
10.013200 0.407700
10.063500 0.401700
10.113800 0.394600
10.164100 0.388400
10.214400 0.383000
10.264700 0.376400
10.315000 0.362800
10.365300 0.357600
10.415600 0.362500
10.465800 0.363900
10.516100 0.592900
10.566400 0.289400
10.616700 0.287900
10.667000 0.285600
10.717300 0.282700
10.767600 0.279100
10.817900 0.275200
10.868200 0.270400
10.918500 0.264300
10.968700 0.252900
11.019000 0.245200
11.069300 0.239400
11.119600 0.236000
11.169900 0.236100
11.220200 0.236900
11.270500 0.238300
11.320800 0.240400
11.371100 0.243300
11.421400 0.247000
11.471600 0.251600
11.521900 0.315100
11.572200 0.419200
11.622500 0.509500
11.672800 0.437200
11.723100 0.389000
11.773400 0.374700
11.823700 0.369200
11.874000 0.368200
11.924300 0.367200
11.974500 0.366400
12.024800 0.463400
12.075100 0.339400
12.125400 0.336200
12.175700 0.336100
12.226000 0.331600
12.276300 0.327900
12.326600 0.330700
12.376900 0.325500
12.427200 0.305700
12.477400 0.274700
12.527700 0.264300
12.578000 0.295300
12.628300 0.310700
12.678600 0.322100
12.728900 0.337900
12.779200 0.316000
12.829500 0.296100
12.879800 0.294900
12.930100 0.328700
12.980300 0.397500
13.030600 0.455900
13.080900 0.495700
13.131200 0.548400
13.181500 0.596600
13.231800 0.540000
13.282100 0.527900
13.332400 0.594000
13.382700 0.503900
13.433000 0.439800
13.483200 0.415900
13.533500 0.442000
13.583800 0.464200
13.634100 0.506900
13.684400 0.514000
13.734700 0.478500
13.785000 0.397400
13.835300 0.372900
13.885600 0.353500
13.935900 0.349700
13.986100 0.358200
14.036400 0.375100
14.086700 0.402300
14.137000 0.438500
14.187300 0.481000
14.237600 0.493900
14.287900 0.506100
14.338200 0.523400
14.388500 0.577800
14.438800 0.796600
14.489000 0.778700
14.539300 0.779700
14.589600 0.843300
14.639900 0.876000
14.690200 0.887500
14.740500 0.827800
14.790800 0.782300
14.841100 0.752400
14.891400 0.734700
14.941700 0.732000
14.991900 0.733300
15.042200 0.733200
15.092500 0.764100
15.142800 0.755000
15.193100 0.758100
15.243400 0.753000
15.293700 0.766200
15.344000 0.820700
15.394300 0.848300
15.444600 0.809300
15.494800 0.771700
15.545100 0.757600
15.595400 0.750500
15.645700 0.731800
15.696000 0.675800
15.746300 0.590400
15.796600 0.556300
15.846900 0.522900
15.897200 0.485400
15.947500 0.491700
15.997700 0.498300
16.048000 0.505600
16.098300 0.511300
16.148600 0.517800
16.198900 0.539900
16.249200 0.535700
16.299500 0.558800
16.349800 0.558200
16.400100 0.555400
16.450400 0.553600
16.500600 0.551500
16.550900 0.548900
16.601200 0.549400
16.651500 0.557800
16.701800 0.560300
16.752100 0.557700
16.802400 0.557600
16.852700 0.552700
16.903000 0.545100
16.953300 0.546200
17.003500 0.547200
17.053800 0.549200
17.104100 0.552200
17.154400 0.561300
17.204700 0.566400
17.255000 0.575000
17.305300 0.564100
17.355600 0.538100
17.405900 0.540400
17.456200 0.556700
17.506400 0.600900
17.556700 0.612300
17.607000 0.613100
17.657300 0.625700
17.707600 0.631200
17.757900 0.639300
17.808200 0.650100
17.858500 0.659400
17.908800 0.672200
17.959100 0.727900
18.009300 0.793400
18.059600 0.827200
18.109900 0.796400
18.160200 0.728500
18.210500 0.699500
18.260800 0.680600
18.311100 0.672200
18.361400 0.672700
18.411700 0.680100
18.462000 0.707000
18.512200 0.727700
18.562500 0.736400
18.612800 0.753600
18.663100 0.760800
18.713400 0.757500
18.763700 0.761300
18.814000 0.648300
18.864300 0.682200
18.914600 0.729900
18.964900 0.795300
19.015100 0.900600
19.065400 0.964000
19.115700 0.981600
19.166000 0.971200
19.216300 0.879000
19.266600 0.815800
19.316900 0.812700
19.367200 0.810300
19.417500 0.812500
19.467800 0.830100
19.518000 0.840500
19.568300 0.855200
19.618600 0.819800
19.668900 0.796500
19.719200 0.783300
19.769500 0.779200
19.819800 0.792700
19.870100 0.834400
19.920400 0.856500
19.970700 0.885100
20.020900 0.911800
20.071200 0.938000
20.121500 1.035600
20.171800 1.014900
20.222100 1.026100
20.272400 1.054900
20.322700 1.110200
20.373000 1.132500
20.423300 1.131100
20.473600 1.102200
20.523800 1.193600
20.574100 1.170300
20.624400 1.057400
20.674700 1.081300
20.725000 0.999800
20.775300 0.990400
20.825600 1.036000
20.875900 1.050800
20.926200 1.086400
20.976500 1.116400
21.026700 1.124200
21.077000 1.109700
21.127300 1.079900
21.177600 1.105700
21.227900 1.117300
21.278200 1.076900
21.328500 1.020100
21.378800 0.976700
21.429100 0.939500
21.479400 0.904300
21.529600 0.863600
21.579900 0.841600
21.630200 0.791900
21.680500 0.862300
21.730800 1.024500
21.781100 1.175300
21.831400 1.063000
21.881700 0.892800
21.932000 0.860800
21.982300 0.846300
22.032500 0.842000
22.082800 0.842800
22.133100 0.858100
22.183400 0.866500
22.233700 0.843800
22.284000 0.824100
22.334300 0.812600
22.384600 0.799400
22.434900 0.787900
22.485200 0.779700
22.535400 0.771000
22.585700 0.764100
22.636000 0.758900
22.686300 0.754200
22.736600 0.752200
22.786900 0.760100
22.837200 0.776500
22.887500 0.797800
22.937800 0.816900
22.988100 0.843700
23.038300 0.858700
23.088600 0.973400
23.138900 0.919300
23.189200 0.876800
23.239500 0.846400
23.289800 0.831100
23.340100 0.817600
23.390400 0.806400
23.440700 0.802300
23.491000 0.800200
23.541200 0.800800
23.591500 0.810500
23.641800 0.835100
23.692100 0.879700
23.742400 0.938100
23.792700 0.974800
23.843000 1.008400
23.893300 1.037400
23.943600 1.109300
23.993900 1.228700
24.044100 1.275200
24.094400 1.305900
24.144700 1.262900
24.195000 1.183300
24.245300 1.174600
24.295600 1.203500
24.345900 1.321300
24.396200 1.406100
24.446500 1.433400
24.496800 1.461800
24.547000 1.432500
24.597300 1.406900
24.647600 1.484800
24.697900 1.218300
24.748200 1.138700
24.798500 1.080500
24.848800 1.039700
24.899100 1.023000
24.949400 1.050200
24.999700 0.972000
25.049900 0.904100
25.100200 0.848100
25.150500 0.846200
25.200800 0.829300
25.251100 0.825700
25.301400 0.829300
25.351700 0.839600
25.402000 0.863300
25.452300 0.917800
25.502600 0.953900
25.552900 0.950500
25.603100 0.905300
25.653400 0.869200
25.703700 0.843500
25.754000 0.834100
25.804300 0.825300
25.854600 0.815600
25.904900 0.808800
25.955200 0.818600
26.005500 0.866400
26.055800 0.934100
26.106000 1.023200
26.156300 1.172900
26.206600 1.274000
26.256900 1.379400
26.307200 1.359300
26.357500 1.241700
26.407800 1.148400
26.458100 1.166100
26.508400 1.239100
26.558700 1.051800
26.608900 0.960500
26.659200 0.925400
26.709500 0.917300
26.759800 0.904500
26.810100 0.952100
26.860400 0.947600
26.910700 0.945300
26.961000 0.948100
27.011300 0.975800
27.061600 0.965300
27.111800 0.915100
27.162100 0.926900
27.212400 0.776400
27.262700 0.748200
27.313000 0.764600
27.363300 0.787500
27.413600 0.789700
27.463900 0.797100
27.514200 0.809300
27.564500 0.830800
27.614700 0.830100
27.665000 0.830000
27.715300 0.839500
27.765600 0.856300
27.815900 0.862700
27.866200 0.870700
27.916500 0.875200
27.966800 0.887100
28.017100 0.891400
28.067400 0.900800
28.117600 0.915400
28.167900 0.932200
28.218200 0.953000
28.268500 0.975900
28.318800 1.004900
28.369100 1.043400
28.419400 1.084700
28.469700 1.208900
28.520000 1.326600
28.570300 1.343400
28.620500 1.239300
28.670800 1.135300
28.721100 1.109500
28.771400 1.074500
28.821700 1.057500
28.872000 1.079500
28.922300 1.080800
28.972600 1.070300
29.022900 1.006900
29.073200 0.975900
29.123400 0.962700
29.173700 0.953400
29.224000 0.944200
29.274300 0.948500
29.324600 0.968900
29.374900 1.029200
29.425200 1.072300
29.475500 1.073400
29.525800 1.087600
29.576100 1.126200
29.626300 1.096800
29.676600 1.026900
29.726900 0.967000
29.777200 0.935600
29.827500 0.914400
29.877800 0.899900
29.928100 0.888200
29.978400 0.878400
30.028700 0.876900
30.079000 0.883000
30.129200 0.885100
30.179500 0.893100
30.229800 0.913400
30.280100 0.936500
30.330400 0.961900
30.380700 0.990200
30.431000 1.011200
30.481300 1.019100
30.531600 1.013100
30.581900 0.997100
30.632100 0.987100
30.682400 0.994700
30.732700 1.002500
30.783000 1.015400
30.833300 1.017800
30.883600 1.031600
30.933900 1.036200
30.984200 1.039000
31.034500 1.046100
31.084800 0.979200
31.135000 0.915600
31.185300 0.885100
31.235600 0.881600
31.285900 0.898800
31.336200 0.949700
31.386500 0.959600
31.436800 0.903200
31.487100 0.835900
31.537400 0.805600
31.587700 0.779200
31.637900 0.835000
31.688200 0.870400
31.738500 0.896700
31.788800 0.841900
31.839100 0.790200
31.889400 0.762900
31.939700 0.745400
31.990000 0.717800
32.040300 0.719800
32.090600 0.752100
32.140800 0.764000
32.191100 0.699100
32.241400 0.681500
32.291700 0.684000
32.342000 0.677000
32.392300 0.680700
32.442600 0.708200
32.492900 0.662600
32.543200 0.634100
32.593500 0.608200
32.643700 0.602200
32.694000 0.611300
32.744300 0.606700
32.794600 0.592900
32.844900 0.575700
32.895200 0.610000
32.945500 0.616200
32.995800 0.639500
33.046100 0.684400
33.096400 0.682100
33.146600 0.686200
33.196900 0.722000
33.247200 0.747200
33.297500 0.773700
33.347800 0.820900
33.398100 0.882400
33.448400 0.891300
33.498700 0.868700
33.549000 0.884100
33.599300 0.909800
33.649500 0.923100
33.699800 0.918300
33.750100 0.905300
33.800400 0.879200
33.850700 0.879800
33.901000 0.872000
33.951300 0.886400
34.001600 0.868300
34.051900 0.901500
34.102200 1.021700
34.152400 1.168000
34.202700 1.209000
34.253000 1.249200
34.303300 1.206900
34.353600 1.271200
34.403900 1.398700
34.454200 1.356800
34.504500 1.303400
34.554800 1.307900
34.605100 1.237800
34.655300 1.054800
34.705600 0.965800
34.755900 0.904500
34.806200 0.869900
34.856500 0.856900
34.906800 0.882700
34.957100 0.924300
35.007400 1.012900
35.057700 1.015700
35.108000 1.043500
35.158200 1.021900
35.208500 1.014200
35.258800 1.030500
35.309100 1.099200
35.359400 1.162700
35.409700 1.234200
35.460000 1.299900
35.510300 1.290400
35.560600 1.266400
35.610900 1.205800
35.661100 1.160000
35.711400 1.228900
35.761700 1.392200
35.812000 1.395500
35.862300 1.404500
35.912600 1.363400
35.962900 1.273300
36.013200 1.236000
36.063500 1.209900
36.113800 1.020200
36.164000 0.914800
36.214300 0.845600
36.264600 0.845200
36.314900 0.859400
36.365200 0.945300
36.415500 0.997500
36.465800 0.978000
36.516100 1.003100
36.566400 0.997800
36.616700 0.989800
36.666900 0.977900
36.717200 0.986800
36.767500 0.998100
36.817800 1.011400
36.868100 0.993900
36.918400 0.974300
36.968700 0.974900
37.019000 0.976600
37.069300 1.047700
37.119600 0.954700
37.169800 0.993800
37.220100 1.060000
37.270400 1.082100
37.320700 1.153600
37.371000 1.158000
37.421300 1.118200
37.471600 1.061500
37.521900 1.024800
37.572200 1.001500
37.622500 0.991800
37.672700 0.977500
37.723000 1.026100
37.773300 1.026100
37.823600 1.037600
37.873900 1.030100
37.924200 1.018100
37.974500 1.039200
38.024800 1.022200
38.075100 0.965000
38.125400 0.919300
38.175600 0.870300
38.225900 0.853200
38.276200 0.873000
38.326500 0.880800
38.376800 0.915300
38.427100 0.989100
38.477400 1.071800
38.527700 1.133500
38.578000 1.145800
38.628300 1.177700
38.678500 1.196800
38.728800 1.145900
38.779100 1.082100
38.829400 0.978200
38.879700 0.906300
38.930000 0.851500
38.980300 0.804700
39.030600 0.770600
39.080900 0.758700
39.131200 0.771900
39.181400 0.796900
39.231700 0.819800
39.282000 0.859200
39.332300 0.851500
39.382600 0.824400
39.432900 0.804500
39.483200 0.839600
39.533500 0.814400
39.583800 0.776000
39.634100 0.758600
39.684300 0.744300
39.734600 0.737700
39.784900 0.758100
39.835200 0.755500
39.885500 0.724300
39.935800 0.739000
39.986100 0.754400
40.036400 0.759700
40.086700 0.766200
40.137000 0.773200
40.187200 0.764800
40.237500 0.732500
40.287800 0.697900
40.338100 0.677200
40.388400 0.668000
40.438700 0.661800
40.489000 0.657800
40.539300 0.652700
40.589600 0.683300
40.639900 0.709100
40.690100 0.704200
40.740400 0.697100
40.790700 0.686200
40.841000 0.654300
40.891300 0.610200
40.941600 0.592600
40.991900 0.567400
41.042200 0.535300
41.092500 0.523500
41.142800 0.511200
41.193000 0.496100
41.243300 0.476200
41.293600 0.448700
41.343900 0.431800
41.394200 0.418000
41.444500 0.404500
41.494800 0.408000
41.545100 0.423000
41.595400 0.424700
41.645700 0.438700
41.696000 0.435200
41.746200 0.424100
41.796500 0.422800
41.846800 0.421900
41.897100 0.412300
41.947400 0.397900
41.997700 0.381800
42.048000 0.381400
42.098300 0.354900
42.148600 0.302600
42.198900 0.215600
42.249100 0.142000
42.299400 0.076900
42.349700 0.046600
42.400000 0.037500
42.450300 0.031600
42.500600 0.027400
42.550900 0.023700
42.601200 0.020300
42.651500 0.017200
42.701800 0.014400
42.752000 0.012000
42.802300 0.009800
42.852600 0.007800
42.902900 0.006000
42.953200 0.004500
43.003500 0.003100
43.053800 0.002000
43.104100 0.001100
43.154400 0.000400
43.204700 0.000000
43.254900 0.000000
43.305200 0.000000
43.355500 0.000000
43.405800 0.000000
43.456100 0.000000
43.506400 0.000000
43.556700 0.000000
43.607000 0.000000
43.657300 0.000000
43.707600 0.000000
43.757800 0.000000
43.808100 0.000000
43.858400 0.000000
43.908700 0.000000
43.959000 0.000000
44.009300 0.000000
44.059600 0.000000
44.109900 0.000000
44.160200 0.000000
44.210500 0.000000
44.260700 0.000000
44.311000 0.000000
44.361300 0.000000
44.411600 0.000000
44.461900 0.000000
44.512200 0.000000
44.562500 0.000000
44.612800 0.000000
44.663100 0.000000
44.713400 0.000000
44.763600 0.000000
44.813900 0.000000
44.864200 0.000000
44.914500 0.000000
44.964800 0.000000
45.015100 0.000000
45.065400 0.000000
45.115700 0.000000
45.166000 0.000000
45.216300 0.000000
45.266500 0.000000
45.316800 0.000000
45.367100 0.000000
45.417400 0.000000
45.467700 0.000000
45.518000 0.000000
45.568300 0.000000
45.618600 0.000000
45.668900 0.000000
45.719200 0.000000
45.769400 0.000000
45.819700 0.000000
45.870000 0.000000
45.920300 0.000000
45.970600 0.000000
46.020900 0.000000
46.071200 0.000000
46.121500 0.000000
46.171800 0.000000
46.222100 0.000000
46.272300 0.000000
46.322600 0.000000
46.372900 0.000000
46.423200 0.000000
46.473500 0.000000
46.523800 0.000000
46.574100 0.000000
46.624400 0.000000
46.674700 0.000000
46.725000 0.000000
46.775200 0.000000
46.825500 0.000000
46.875800 0.000000
46.926100 0.000000
46.976400 0.000000
47.026700 0.000000
47.077000 0.000000
47.127300 0.000000
47.177600 0.000000
47.227900 0.000000
47.278100 0.000000
47.328400 0.000000
47.378700 0.000000
47.429000 0.000000
47.479300 0.000000
47.529600 0.000000
47.579900 0.000000
47.630200 0.000000
47.680500 0.000000
47.730800 0.000000
47.781000 0.000000
47.831300 0.000000
47.881600 0.000000
47.931900 0.000000
47.982200 0.000000
48.032500 0.000000
48.082800 0.000000
48.133100 0.000000
e
