set title 'mp-974416 - Density of States'
set xlabel 'Energy (eV)'
set ylabel 'DOS (states/eV)'
set grid
set xrange [-10:10]
set yrange [0:7.371]
set xzeroaxis lt -1
set terminal png size 800,600
set output 'mp-974416_dos_gnuplot.png'
plot '-' using 1:2 with lines title 'DOS'
-39.242300 0.000000
-39.195100 0.000000
-39.147900 0.000000
-39.100800 0.000000
-39.053600 0.000000
-39.006400 0.000000
-38.959200 0.000000
-38.912000 0.000000
-38.864800 0.000000
-38.817600 0.000000
-38.770400 0.000000
-38.723200 0.000000
-38.676000 0.000000
-38.628800 0.000000
-38.581600 0.000000
-38.534500 0.000000
-38.487300 0.000000
-38.440100 0.000000
-38.392900 0.000000
-38.345700 0.000000
-38.298500 0.000000
-38.251300 0.000000
-38.204100 0.000000
-38.156900 0.000000
-38.109700 0.000000
-38.062500 0.000000
-38.015300 0.000000
-37.968200 0.000000
-37.921000 0.000000
-37.873800 0.000000
-37.826600 0.000000
-37.779400 0.000000
-37.732200 0.000000
-37.685000 0.000000
-37.637800 0.000000
-37.590600 0.000000
-37.543400 0.000000
-37.496200 0.000000
-37.449000 0.000000
-37.401900 0.000000
-37.354700 0.000000
-37.307500 0.000000
-37.260300 0.000000
-37.213100 0.000000
-37.165900 0.000000
-37.118700 0.000000
-37.071500 0.000000
-37.024300 0.000000
-36.977100 0.000000
-36.929900 0.000000
-36.882700 0.000000
-36.835600 0.000000
-36.788400 0.000000
-36.741200 0.000000
-36.694000 0.000000
-36.646800 0.000000
-36.599600 0.000000
-36.552400 0.000000
-36.505200 0.000000
-36.458000 0.000000
-36.410800 0.000000
-36.363600 0.000000
-36.316400 0.000000
-36.269300 0.000000
-36.222100 0.000000
-36.174900 0.000000
-36.127700 0.000000
-36.080500 0.000000
-36.033300 0.000000
-35.986100 0.000000
-35.938900 0.000000
-35.891700 0.000000
-35.844500 0.000000
-35.797300 0.000000
-35.750100 0.000000
-35.703000 0.000000
-35.655800 0.000000
-35.608600 0.000000
-35.561400 0.000000
-35.514200 0.000000
-35.467000 0.000000
-35.419800 0.000000
-35.372600 0.000000
-35.325400 0.000000
-35.278200 0.000000
-35.231000 0.000000
-35.183800 0.000000
-35.136700 0.000000
-35.089500 0.000000
-35.042300 0.004000
-34.995100 0.144400
-34.947900 1.346200
-34.900700 4.408400
-34.853500 8.426600
-34.806300 13.901300
-34.759100 19.515900
-34.711900 22.811100
-34.664700 25.709700
-34.617600 22.708000
-34.570400 14.073200
-34.523200 12.645500
-34.476000 15.460300
-34.428800 19.119400
-34.381600 22.837700
-34.334400 23.314200
-34.287200 25.396700
-34.240000 28.749100
-34.192800 33.086000
-34.145600 36.726800
-34.098400 24.008700
-34.051300 6.462400
-34.004100 0.555700
-33.956900 0.012500
-33.909700 0.000100
-33.862500 0.000000
-33.815300 0.000000
-33.768100 0.000000
-33.720900 0.000000
-33.673700 0.000000
-33.626500 0.000000
-33.579300 0.000000
-33.532100 0.000000
-33.485000 0.000000
-33.437800 0.000000
-33.390600 0.000000
-33.343400 0.000000
-33.296200 0.000000
-33.249000 0.000000
-33.201800 0.000000
-33.154600 0.000000
-33.107400 0.000000
-33.060200 0.000000
-33.013000 0.000000
-32.965800 0.000000
-32.918700 0.000000
-32.871500 0.000000
-32.824300 0.000000
-32.777100 0.000000
-32.729900 0.000000
-32.682700 0.000000
-32.635500 0.000000
-32.588300 0.000000
-32.541100 0.000000
-32.493900 0.000000
-32.446700 0.000000
-32.399500 0.000000
-32.352400 0.000000
-32.305200 0.000000
-32.258000 0.000000
-32.210800 0.000000
-32.163600 0.000000
-32.116400 0.000000
-32.069200 0.000000
-32.022000 0.000000
-31.974800 0.000000
-31.927600 0.000000
-31.880400 0.000000
-31.833200 0.000000
-31.786100 0.000000
-31.738900 0.000000
-31.691700 0.000000
-31.644500 0.000000
-31.597300 0.000000
-31.550100 0.000000
-31.502900 0.000000
-31.455700 0.000000
-31.408500 0.000000
-31.361300 0.000000
-31.314100 0.000000
-31.266900 0.000000
-31.219800 0.000000
-31.172600 0.000000
-31.125400 0.000000
-31.078200 0.000000
-31.031000 0.000000
-30.983800 0.000000
-30.936600 0.000000
-30.889400 0.000000
-30.842200 0.000600
-30.795000 0.085800
-30.747800 2.795600
-30.700600 22.281300
-30.653500 50.981700
-30.606300 39.576100
-30.559100 10.597500
-30.511900 0.808300
-30.464700 0.014200
-30.417500 0.000100
-30.370300 0.000000
-30.323100 0.000000
-30.275900 0.000000
-30.228700 0.000000
-30.181500 0.000000
-30.134300 0.000000
-30.087200 0.000000
-30.040000 0.000000
-29.992800 0.000000
-29.945600 0.000000
-29.898400 0.000000
-29.851200 0.000000
-29.804000 0.000000
-29.756800 0.000000
-29.709600 0.000000
-29.662400 0.000000
-29.615200 0.000000
-29.568000 0.000000
-29.520900 0.000000
-29.473700 0.000000
-29.426500 0.000000
-29.379300 0.000000
-29.332100 0.000000
-29.284900 0.000000
-29.237700 0.000000
-29.190500 0.000000
-29.143300 0.000000
-29.096100 0.000000
-29.048900 0.000000
-29.001700 0.000000
-28.954600 0.000000
-28.907400 0.000000
-28.860200 0.000000
-28.813000 0.000000
-28.765800 0.000000
-28.718600 0.000000
-28.671400 0.000000
-28.624200 0.000000
-28.577000 0.000000
-28.529800 0.000000
-28.482600 0.000000
-28.435400 0.000000
-28.388300 0.000000
-28.341100 0.000000
-28.293900 0.000000
-28.246700 0.000000
-28.199500 0.000000
-28.152300 0.000000
-28.105100 0.000000
-28.057900 0.000000
-28.010700 0.000000
-27.963500 0.000000
-27.916300 0.000000
-27.869100 0.000000
-27.822000 0.000000
-27.774800 0.000000
-27.727600 0.000000
-27.680400 0.000000
-27.633200 0.000000
-27.586000 0.000000
-27.538800 0.000000
-27.491600 0.000000
-27.444400 0.000000
-27.397200 0.000000
-27.350000 0.000000
-27.302800 0.000000
-27.255700 0.000000
-27.208500 0.000000
-27.161300 0.000000
-27.114100 0.000000
-27.066900 0.000000
-27.019700 0.000000
-26.972500 0.000000
-26.925300 0.000000
-26.878100 0.000000
-26.830900 0.000000
-26.783700 0.000000
-26.736600 0.000000
-26.689400 0.000000
-26.642200 0.000000
-26.595000 0.000000
-26.547800 0.000000
-26.500600 0.000000
-26.453400 0.000000
-26.406200 0.000000
-26.359000 0.000000
-26.311800 0.000000
-26.264600 0.000000
-26.217400 0.000000
-26.170300 0.000000
-26.123100 0.000000
-26.075900 0.000000
-26.028700 0.000000
-25.981500 0.000000
-25.934300 0.000000
-25.887100 0.000000
-25.839900 0.000000
-25.792700 0.000000
-25.745500 0.000000
-25.698300 0.000000
-25.651100 0.000000
-25.604000 0.000000
-25.556800 0.000000
-25.509600 0.000000
-25.462400 0.000000
-25.415200 0.000000
-25.368000 0.000000
-25.320800 0.000000
-25.273600 0.000000
-25.226400 0.000000
-25.179200 0.000000
-25.132000 0.000000
-25.084800 0.000000
-25.037700 0.000000
-24.990500 0.000000
-24.943300 0.000000
-24.896100 0.000000
-24.848900 0.000000
-24.801700 0.000000
-24.754500 0.000000
-24.707300 0.000000
-24.660100 0.000000
-24.612900 0.000000
-24.565700 0.000000
-24.518500 0.000000
-24.471400 0.000000
-24.424200 0.000000
-24.377000 0.000000
-24.329800 0.000000
-24.282600 0.000000
-24.235400 0.000000
-24.188200 0.000000
-24.141000 0.000000
-24.093800 0.000000
-24.046600 0.000000
-23.999400 0.000000
-23.952200 0.000000
-23.905100 0.000000
-23.857900 0.000000
-23.810700 0.000000
-23.763500 0.000000
-23.716300 0.000000
-23.669100 0.000000
-23.621900 0.000000
-23.574700 0.000000
-23.527500 0.000000
-23.480300 0.000000
-23.433100 0.000000
-23.385900 0.000000
-23.338800 0.000000
-23.291600 0.000000
-23.244400 0.000000
-23.197200 0.000000
-23.150000 0.000000
-23.102800 0.000000
-23.055600 0.000000
-23.008400 0.000000
-22.961200 0.000000
-22.914000 0.000000
-22.866800 0.000000
-22.819600 0.000000
-22.772500 0.000000
-22.725300 0.000000
-22.678100 0.000000
-22.630900 0.000000
-22.583700 0.000000
-22.536500 0.000000
-22.489300 0.000000
-22.442100 0.000000
-22.394900 0.000000
-22.347700 0.000000
-22.300500 0.000000
-22.253300 0.000000
-22.206200 0.000000
-22.159000 0.000000
-22.111800 0.000000
-22.064600 0.000000
-22.017400 0.000000
-21.970200 0.000000
-21.923000 0.000000
-21.875800 0.000000
-21.828600 0.000000
-21.781400 0.000000
-21.734200 0.000000
-21.687000 0.000000
-21.639900 0.000000
-21.592700 0.000000
-21.545500 0.000000
-21.498300 0.000000
-21.451100 0.000000
-21.403900 0.000000
-21.356700 0.000000
-21.309500 0.000000
-21.262300 0.000000
-21.215100 0.000000
-21.167900 0.000000
-21.120700 0.000000
-21.073600 0.000000
-21.026400 0.000000
-20.979200 0.000000
-20.932000 0.000000
-20.884800 0.000000
-20.837600 0.000000
-20.790400 0.000000
-20.743200 0.000000
-20.696000 0.000000
-20.648800 0.000000
-20.601600 0.000000
-20.554400 0.000000
-20.507300 0.000000
-20.460100 0.000000
-20.412900 0.000000
-20.365700 0.000000
-20.318500 0.000000
-20.271300 0.000000
-20.224100 0.000000
-20.176900 0.000000
-20.129700 0.000000
-20.082500 0.000000
-20.035300 0.000000
-19.988100 0.000000
-19.941000 0.000000
-19.893800 0.000000
-19.846600 0.000000
-19.799400 0.000000
-19.752200 0.000000
-19.705000 0.000000
-19.657800 0.000000
-19.610600 0.000000
-19.563400 0.000000
-19.516200 0.000000
-19.469000 0.000000
-19.421800 0.000000
-19.374700 0.000000
-19.327500 0.000000
-19.280300 0.000000
-19.233100 0.000000
-19.185900 0.000000
-19.138700 0.000000
-19.091500 0.000000
-19.044300 0.000000
-18.997100 0.000000
-18.949900 0.000000
-18.902700 0.000000
-18.855500 0.000000
-18.808400 0.000000
-18.761200 0.000000
-18.714000 0.000000
-18.666800 0.000000
-18.619600 0.000000
-18.572400 0.000000
-18.525200 0.000000
-18.478000 0.000000
-18.430800 0.000000
-18.383600 0.000000
-18.336400 0.000000
-18.289300 0.000000
-18.242100 0.000000
-18.194900 0.000000
-18.147700 0.000000
-18.100500 0.000000
-18.053300 0.000000
-18.006100 0.000000
-17.958900 0.000000
-17.911700 0.000000
-17.864500 0.000000
-17.817300 0.000000
-17.770100 0.000000
-17.723000 0.000000
-17.675800 0.000000
-17.628600 0.000000
-17.581400 0.000000
-17.534200 0.000000
-17.487000 0.000000
-17.439800 0.000000
-17.392600 0.000000
-17.345400 0.000000
-17.298200 0.000000
-17.251000 0.000000
-17.203800 0.000000
-17.156700 0.000000
-17.109500 0.000000
-17.062300 0.000000
-17.015100 0.000000
-16.967900 0.000000
-16.920700 0.000000
-16.873500 0.000000
-16.826300 0.000000
-16.779100 0.000000
-16.731900 0.000000
-16.684700 0.000000
-16.637500 0.000000
-16.590400 0.000000
-16.543200 0.000000
-16.496000 0.000000
-16.448800 0.000000
-16.401600 0.000000
-16.354400 0.000000
-16.307200 0.000000
-16.260000 0.000000
-16.212800 0.000000
-16.165600 0.000000
-16.118400 0.000000
-16.071200 0.000000
-16.024100 0.000000
-15.976900 0.000000
-15.929700 0.000000
-15.882500 0.000000
-15.835300 0.000000
-15.788100 0.000000
-15.740900 0.000000
-15.693700 0.000000
-15.646500 0.000000
-15.599300 0.000000
-15.552100 0.000000
-15.504900 0.000000
-15.457800 0.000000
-15.410600 0.000000
-15.363400 0.000000
-15.316200 0.000000
-15.269000 0.000000
-15.221800 0.000000
-15.174600 0.000000
-15.127400 0.000000
-15.080200 0.000000
-15.033000 0.000000
-14.985800 0.000000
-14.938600 0.000000
-14.891500 0.000000
-14.844300 0.000000
-14.797100 0.000000
-14.749900 0.000000
-14.702700 0.000000
-14.655500 0.000000
-14.608300 0.000000
-14.561100 0.000000
-14.513900 0.000000
-14.466700 0.000000
-14.419500 0.000000
-14.372300 0.000000
-14.325200 0.000000
-14.278000 0.000000
-14.230800 0.000000
-14.183600 0.000000
-14.136400 0.000000
-14.089200 0.000000
-14.042000 0.000000
-13.994800 0.000000
-13.947600 0.000000
-13.900400 0.000000
-13.853200 0.000000
-13.806000 0.000000
-13.758900 0.000000
-13.711700 0.000000
-13.664500 0.000000
-13.617300 0.000000
-13.570100 0.000000
-13.522900 0.000000
-13.475700 0.000000
-13.428500 0.000000
-13.381300 0.000000
-13.334100 0.000000
-13.286900 0.000000
-13.239700 0.000000
-13.192600 0.000000
-13.145400 0.000000
-13.098200 0.000000
-13.051000 0.000000
-13.003800 0.000000
-12.956600 0.000000
-12.909400 0.000000
-12.862200 0.000000
-12.815000 0.000000
-12.767800 0.000000
-12.720600 0.000000
-12.673400 0.000000
-12.626300 0.000000
-12.579100 0.000000
-12.531900 0.000000
-12.484700 0.000000
-12.437500 0.000000
-12.390300 0.000000
-12.343100 0.000000
-12.295900 0.000000
-12.248700 0.000000
-12.201500 0.000000
-12.154300 0.000000
-12.107100 0.000000
-12.060000 0.000000
-12.012800 0.000000
-11.965600 0.000000
-11.918400 0.000000
-11.871200 0.000000
-11.824000 0.000000
-11.776800 0.000000
-11.729600 0.000000
-11.682400 0.000000
-11.635200 0.000000
-11.588000 0.000000
-11.540800 0.000000
-11.493700 0.000000
-11.446500 0.000000
-11.399300 0.000000
-11.352100 0.000000
-11.304900 0.000000
-11.257700 0.000000
-11.210500 0.000000
-11.163300 0.000000
-11.116100 0.000000
-11.068900 0.000000
-11.021700 0.000000
-10.974500 0.000000
-10.927400 0.000000
-10.880200 0.000000
-10.833000 0.000000
-10.785800 0.000000
-10.738600 0.000000
-10.691400 0.000000
-10.644200 0.000000
-10.597000 0.000000
-10.549800 0.000000
-10.502600 0.000000
-10.455400 0.000000
-10.408300 0.000000
-10.361100 0.000000
-10.313900 0.000000
-10.266700 0.000000
-10.219500 0.000000
-10.172300 0.000000
-10.125100 0.000000
-10.077900 0.000000
-10.030700 0.000000
-9.983500 0.000000
-9.936300 0.000000
-9.889100 0.000000
-9.842000 0.000000
-9.794800 0.000000
-9.747600 0.000000
-9.700400 0.000000
-9.653200 0.000000
-9.606000 0.000000
-9.558800 0.000000
-9.511600 0.000000
-9.464400 0.000000
-9.417200 0.000000
-9.370000 0.000000
-9.322800 0.000000
-9.275700 0.000000
-9.228500 0.000000
-9.181300 0.000000
-9.134100 0.000000
-9.086900 0.000000
-9.039700 0.000000
-8.992500 0.000000
-8.945300 0.000000
-8.898100 0.000000
-8.850900 0.000000
-8.803700 0.000000
-8.756500 0.000000
-8.709400 0.000000
-8.662200 0.000000
-8.615000 0.000000
-8.567800 0.000000
-8.520600 0.000000
-8.473400 0.000000
-8.426200 0.000000
-8.379000 0.000000
-8.331800 0.000000
-8.284600 0.000000
-8.237400 0.000000
-8.190200 0.000000
-8.143100 0.000000
-8.095900 0.000000
-8.048700 0.000000
-8.001500 0.000000
-7.954300 0.000000
-7.907100 0.000000
-7.859900 0.000000
-7.812700 0.000000
-7.765500 0.000000
-7.718300 0.000000
-7.671100 0.000000
-7.623900 0.000000
-7.576800 0.000000
-7.529600 0.000000
-7.482400 0.000000
-7.435200 0.000000
-7.388000 0.000000
-7.340800 0.000000
-7.293600 0.000000
-7.246400 0.000000
-7.199200 0.000000
-7.152000 0.000000
-7.104800 0.000000
-7.057600 0.000000
-7.010500 0.000000
-6.963300 0.000000
-6.916100 0.000000
-6.868900 0.000000
-6.821700 0.000000
-6.774500 0.000000
-6.727300 0.000000
-6.680100 0.000000
-6.632900 0.000000
-6.585700 0.000000
-6.538500 0.000000
-6.491300 0.000000
-6.444200 0.000000
-6.397000 0.000000
-6.349800 0.000000
-6.302600 0.000000
-6.255400 0.000000
-6.208200 0.000000
-6.161000 0.000000
-6.113800 0.000000
-6.066600 0.000000
-6.019400 0.000000
-5.972200 0.000000
-5.925000 0.000000
-5.877900 0.000000
-5.830700 0.000000
-5.783500 0.000000
-5.736300 0.000000
-5.689100 0.000000
-5.641900 0.000000
-5.594700 0.000000
-5.547500 0.000000
-5.500300 0.000000
-5.453100 0.000000
-5.405900 0.000000
-5.358700 0.000000
-5.311600 0.000000
-5.264400 0.000000
-5.217200 0.000000
-5.170000 0.000000
-5.122800 0.000000
-5.075600 0.000000
-5.028400 0.000000
-4.981200 0.000000
-4.934000 0.000000
-4.886800 0.000000
-4.839600 0.000000
-4.792400 0.000000
-4.745300 0.000000
-4.698100 0.000000
-4.650900 0.000000
-4.603700 0.000000
-4.556500 0.000000
-4.509300 0.000000
-4.462100 0.000000
-4.414900 0.000000
-4.367700 0.000000
-4.320500 0.000000
-4.273300 0.000000
-4.226100 0.000000
-4.179000 0.000000
-4.131800 0.000000
-4.084600 0.000000
-4.037400 0.000000
-3.990200 0.000000
-3.943000 0.000000
-3.895800 0.000000
-3.848600 0.000000
-3.801400 0.000000
-3.754200 0.000000
-3.707000 0.000000
-3.659800 0.000000
-3.612700 0.000000
-3.565500 0.000000
-3.518300 0.000000
-3.471100 0.000000
-3.423900 0.000000
-3.376700 0.000000
-3.329500 0.000000
-3.282300 0.000000
-3.235100 0.000000
-3.187900 0.000000
-3.140700 0.000000
-3.093500 0.000000
-3.046400 0.000000
-2.999200 0.000000
-2.952000 0.000000
-2.904800 0.000000
-2.857600 0.000000
-2.810400 0.000000
-2.763200 0.000000
-2.716000 0.000000
-2.668800 0.000000
-2.621600 0.000000
-2.574400 0.000000
-2.527300 0.000000
-2.480100 0.000000
-2.432900 0.001600
-2.385700 0.013900
-2.338500 0.031800
-2.291300 0.048300
-2.244100 0.052800
-2.196900 0.104800
-2.149700 0.206800
-2.102500 0.113100
-2.055300 0.015800
-2.008100 0.025000
-1.961000 0.146100
-1.913800 0.232900
-1.866600 0.234100
-1.819400 0.191500
-1.772200 0.266000
-1.725000 0.253100
-1.677800 0.068900
-1.630600 0.014300
-1.583400 0.095900
-1.536200 0.243000
-1.489000 0.296500
-1.441800 0.241100
-1.394700 0.359400
-1.347500 0.563400
-1.300300 0.229900
-1.253100 0.035400
-1.205900 0.120800
-1.158700 0.256000
-1.111500 0.275500
-1.064300 0.346300
-1.017100 0.549400
-0.969900 0.364600
-0.922700 0.084200
-0.875500 0.098800
-0.828400 0.410100
-0.781200 0.555600
-0.734000 0.375000
-0.686800 0.391900
-0.639600 0.488400
-0.592400 0.233800
-0.545200 0.185000
-0.498000 0.350000
-0.450800 0.573900
-0.403600 0.716100
-0.356400 0.592500
-0.309200 0.581200
-0.262100 0.319600
-0.214900 0.065700
-0.167700 0.084500
-0.120500 0.406700
-0.073300 0.774000
-0.026100 0.775900
0.021100 0.675200
0.068300 0.692200
0.115500 0.522300
0.162700 0.407300
0.209900 0.552000
0.257100 1.018600
0.304200 0.756900
0.351400 0.246800
0.398600 0.555000
0.445800 0.903800
0.493000 0.658400
0.540200 0.590900
0.587400 0.993900
0.634600 1.173900
0.681800 0.974500
0.729000 0.909800
0.776200 1.052900
0.823400 1.077800
0.870500 1.320200
0.917700 2.088500
0.964900 2.173300
1.012100 1.881900
1.059300 2.258900
1.106500 2.367800
1.153700 2.210200
1.200900 2.673700
1.248100 3.240000
1.295300 3.200400
1.342500 3.300700
1.389700 2.780900
1.436800 2.535200
1.484000 2.885700
1.531200 2.950400
1.578400 3.175000
1.625600 3.881300
1.672800 4.289500
1.720000 4.210400
1.767200 3.136800
1.814400 3.157100
1.861600 3.534500
1.908800 2.812800
1.956000 3.618800
2.003100 4.820900
2.050300 4.941000
2.097500 4.471500
2.144700 4.103200
2.191900 3.928900
2.239100 3.931000
2.286300 4.014300
2.333500 4.591600
2.380700 4.735700
2.427900 3.976000
2.475100 3.685700
2.522300 4.001600
2.569400 4.306000
2.616600 3.926100
2.663800 3.304700
2.711000 3.998300
2.758200 4.171700
2.805400 4.487000
2.852600 5.377500
2.899800 3.786900
2.947000 2.475500
2.994200 3.265200
3.041400 3.466600
3.088600 3.247500
3.135700 3.254900
3.182900 3.016700
3.230100 2.887700
3.277300 2.794700
3.324500 2.652100
3.371700 2.896800
3.418900 2.636400
3.466100 2.755700
3.513300 3.350300
3.560500 4.016100
3.607700 5.288100
3.654900 5.511400
3.702000 4.851200
3.749200 4.910800
3.796400 3.687400
3.843600 3.559200
3.890800 3.917300
3.938000 3.439600
3.985200 2.618200
4.032400 3.191000
4.079600 3.917300
4.126800 3.827000
4.174000 3.728500
4.221200 3.293300
4.268300 3.326600
4.315500 4.328900
4.362700 4.115600
4.409900 3.623000
4.457100 4.832700
4.504300 5.043200
4.551500 4.086200
4.598700 3.563200
4.645900 4.082900
4.693100 4.852200
4.740300 5.119700
4.787500 5.482700
4.834600 4.352400
4.881800 3.433400
4.929000 3.892100
4.976200 3.868100
5.023400 3.972500
5.070600 4.876800
5.117800 6.054300
5.165000 6.701200
5.212200 6.024400
5.259400 4.567400
5.306600 4.094400
5.353800 4.908700
5.400900 5.688200
5.448100 5.424900
5.495300 4.968800
5.542500 4.280900
5.589700 5.135300
5.636900 6.431000
5.684100 5.360700
5.731300 4.946700
5.778500 5.836700
5.825700 5.640000
5.872900 4.474300
5.920000 4.923100
5.967200 5.299400
6.014400 5.437400
6.061600 6.416400
6.108800 6.543900
6.156000 4.933500
6.203200 5.090900
6.250400 6.543400
6.297600 6.225200
6.344800 5.365600
6.392000 4.630700
6.439200 4.058600
6.486300 3.781700
6.533500 4.034100
6.580700 4.076500
6.627900 3.387100
6.675100 3.798400
6.722300 3.897200
6.769500 3.901400
6.816700 4.085600
6.863900 3.441200
6.911100 3.624300
6.958300 3.231000
7.005500 2.552600
7.052600 2.550000
7.099800 2.938300
7.147000 2.831700
7.194200 3.364800
7.241400 4.140300
7.288600 4.251200
7.335800 3.732100
7.383000 3.062800
7.430200 3.179300
7.477400 3.937500
7.524600 3.739100
7.571800 3.045200
7.618900 2.819700
7.666100 3.270100
7.713300 4.368000
7.760500 4.760100
7.807700 3.790900
7.854900 3.268700
7.902100 4.029200
7.949300 4.595000
7.996500 4.026100
8.043700 3.772600
8.090900 3.505500
8.138100 3.345300
8.185200 2.923600
8.232400 3.140600
8.279600 3.266700
8.326800 3.208700
8.374000 3.325800
8.421200 3.374500
8.468400 2.713700
8.515600 2.141500
8.562800 2.515900
8.610000 2.799600
8.657200 2.792900
8.704400 3.065200
8.751500 3.395300
8.798700 3.309300
8.845900 3.311500
8.893100 2.970400
8.940300 2.460400
8.987500 2.635200
9.034700 2.588300
9.081900 2.450300
9.129100 2.455100
9.176300 2.603500
9.223500 3.140600
9.270700 3.093100
9.317800 3.369900
9.365000 3.482800
9.412200 3.230700
9.459400 3.935100
9.506600 3.715600
9.553800 3.325200
9.601000 2.650500
9.648200 2.343400
9.695400 2.624900
9.742600 2.924200
9.789800 2.898000
9.837000 2.972000
9.884100 3.424200
9.931300 3.526700
9.978500 2.611400
10.025700 2.355300
10.072900 2.668200
10.120100 3.247200
10.167300 3.655800
10.214500 3.486100
10.261700 3.239300
10.308900 2.785800
10.356100 3.086800
10.403300 3.486300
10.450400 3.008400
10.497600 2.794400
10.544800 3.182300
10.592000 3.208600
10.639200 3.106400
10.686400 2.849700
10.733600 2.821900
10.780800 3.449600
10.828000 3.655500
10.875200 3.314600
10.922400 4.130200
10.969600 5.683800
11.016700 5.679900
11.063900 4.786100
11.111100 4.692300
11.158300 4.679600
11.205500 4.174600
11.252700 4.485100
11.299900 5.258000
11.347100 4.808700
11.394300 4.558100
11.441500 4.180500
11.488700 3.940000
11.535900 4.252900
11.583000 3.946500
11.630200 3.205800
11.677400 2.550000
11.724600 2.120300
11.771800 2.702900
11.819000 3.249800
11.866200 2.704700
11.913400 1.986800
11.960600 1.525700
12.007800 1.406900
12.055000 2.000800
12.102200 2.826300
12.149300 2.229200
12.196500 1.510200
12.243700 1.675100
12.290900 1.463000
12.338100 1.081300
12.385300 1.145200
12.432500 1.015000
12.479700 1.130000
12.526900 1.608700
12.574100 1.399000
12.621300 0.734100
12.668500 0.667100
12.715600 0.960800
12.762800 1.473900
12.810000 1.431300
12.857200 1.144300
12.904400 0.939800
12.951600 0.947600
12.998800 1.189800
13.046000 1.841700
13.093200 1.933100
13.140400 1.269400
13.187600 0.639700
13.234800 0.704600
13.281900 1.448000
13.329100 1.695500
13.376300 1.726500
13.423500 1.590900
13.470700 1.202800
13.517900 0.977300
13.565100 0.943700
13.612300 1.433400
13.659500 1.663100
13.706700 1.221800
13.753900 1.346700
13.801000 1.694500
13.848200 2.055000
13.895400 2.465700
13.942600 2.507800
13.989800 1.921400
14.037000 1.280600
14.084200 1.034500
14.131400 1.253400
14.178600 1.278000
14.225800 0.981100
14.273000 1.062700
14.320200 1.122100
14.367300 1.085000
14.414500 1.669300
14.461700 1.660700
14.508900 1.195900
14.556100 0.997200
14.603300 1.002000
14.650500 0.993300
14.697700 0.782500
14.744900 0.887500
14.792100 1.130100
14.839300 1.161800
14.886500 1.598200
14.933600 1.718400
14.980800 1.060200
15.028000 0.735000
15.075200 0.767300
15.122400 0.570600
15.169600 0.510700
15.216800 0.808400
15.264000 1.109500
15.311200 1.097900
15.358400 0.693700
15.405600 0.503700
15.452800 0.884500
15.499900 1.370700
15.547100 1.004800
15.594300 0.653500
15.641500 0.952100
15.688700 0.897000
15.735900 0.745400
15.783100 0.708400
15.830300 0.792700
15.877500 0.699200
15.924700 0.310800
15.971900 0.771700
16.019100 1.706600
16.066200 2.244900
16.113400 2.083300
16.160600 1.182100
16.207800 0.687600
16.255000 0.819000
16.302200 1.400900
16.349400 1.431900
16.396600 1.562600
16.443800 1.760700
16.491000 1.619100
16.538200 1.581700
16.585400 1.388700
16.632500 1.475900
16.679700 1.381100
16.726900 0.962100
16.774100 1.226600
16.821300 1.743800
16.868500 1.525900
16.915700 1.874800
16.962900 2.241000
17.010100 2.087200
17.057300 1.724700
17.104500 1.413000
17.151700 1.459400
17.198800 1.717400
17.246000 2.084300
17.293200 2.223200
17.340400 1.906200
17.387600 1.414000
17.434800 1.069700
17.482000 1.278800
17.529200 1.706600
17.576400 1.719900
17.623600 1.295800
17.670800 1.335200
17.718000 1.498300
17.765100 1.700600
17.812300 1.561400
17.859500 1.425200
17.906700 1.473900
17.953900 1.276700
18.001100 1.101800
18.048300 1.224500
18.095500 0.866400
18.142700 1.296100
18.189900 2.212400
18.237100 2.219000
18.284300 1.820500
18.331400 1.398600
18.378600 1.047300
18.425800 0.790500
18.473000 1.058500
18.520200 1.594000
18.567400 1.680600
18.614600 1.329200
18.661800 1.111900
18.709000 1.372000
18.756200 1.408800
18.803400 1.499800
18.850600 1.879500
18.897700 1.666900
18.944900 1.201400
18.992100 1.100800
19.039300 0.895100
19.086500 1.034900
19.133700 1.271100
19.180900 1.248700
19.228100 1.196200
19.275300 1.610100
19.322500 1.885000
19.369700 1.928100
19.416900 1.672100
19.464000 1.169400
19.511200 1.119700
19.558400 1.466300
19.605600 1.534700
19.652800 1.255700
19.700000 1.679300
19.747200 2.340300
19.794400 2.288300
19.841600 1.436500
19.888800 1.056500
19.936000 1.362700
19.983200 1.330000
20.030300 1.153500
20.077500 1.299900
20.124700 1.527100
20.171900 1.555300
20.219100 1.999000
20.266300 1.859200
20.313500 1.122800
20.360700 0.973300
20.407900 1.354700
20.455100 1.473500
20.502300 1.662100
20.549500 1.855300
20.596600 1.781800
20.643800 1.853800
20.691000 2.176800
20.738200 2.485600
20.785400 2.053300
20.832600 1.290800
20.879800 1.096000
20.927000 1.105400
20.974200 1.323900
21.021400 1.750600
21.068600 2.050200
21.115800 2.368600
21.162900 2.443300
21.210100 1.841700
21.257300 1.694800
21.304500 1.633400
21.351700 1.867400
21.398900 2.550100
21.446100 3.106800
21.493300 2.889200
21.540500 2.420300
21.587700 1.954700
21.634900 2.064200
21.682100 2.090800
21.729200 1.773600
21.776400 1.829700
21.823600 2.079000
21.870800 2.521900
21.918000 2.819500
21.965200 2.252200
22.012400 1.590300
22.059600 1.437900
22.106800 1.632600
22.154000 2.008700
22.201200 2.661500
22.248300 3.119900
22.295500 2.702900
22.342700 2.656500
22.389900 2.982400
22.437100 3.275800
22.484300 3.100100
22.531500 2.975100
22.578700 2.790600
22.625900 2.726300
22.673100 2.699000
22.720300 2.844500
22.767500 3.213000
22.814600 3.640700
22.861800 3.713400
22.909000 3.833700
22.956200 4.082400
23.003400 3.567200
23.050600 2.850700
23.097800 2.410400
23.145000 2.565000
23.192200 2.697600
23.239400 2.438900
23.286600 3.427100
23.333800 5.301500
23.380900 4.950600
23.428100 3.510000
23.475300 2.571700
23.522500 2.830600
23.569700 3.028300
23.616900 2.866000
23.664100 3.243100
23.711300 3.126900
23.758500 3.315100
23.805700 3.345600
23.852900 3.261600
23.900100 3.442900
23.947200 2.707100
23.994400 2.236100
24.041600 2.663000
24.088800 3.295300
24.136000 3.910900
24.183200 3.063100
24.230400 2.329600
24.277600 2.930200
24.324800 3.097900
24.372000 2.474200
24.419200 2.370100
24.466400 2.670800
24.513500 3.231300
24.560700 3.698200
24.607900 4.585800
24.655100 4.666800
24.702300 4.123000
24.749500 3.505300
24.796700 3.041500
24.843900 3.956000
24.891100 4.571500
24.938300 4.202000
24.985500 3.421600
25.032700 2.655400
25.079800 2.602800
25.127000 2.290100
25.174200 2.347800
25.221400 2.613000
25.268600 2.420800
25.315800 2.117500
25.363000 1.792800
25.410200 2.223500
25.457400 2.459300
25.504600 2.527300
25.551800 2.920100
25.599000 2.882300
25.646100 2.198900
25.693300 2.023500
25.740500 2.480500
25.787700 2.321300
25.834900 1.499500
25.882100 1.133600
25.929300 1.250100
25.976500 1.171700
26.023700 1.335700
26.070900 1.460800
26.118100 1.477900
26.165300 1.563900
26.212400 1.619000
26.259600 1.309600
26.306800 1.434000
26.354000 1.613300
26.401200 1.429200
26.448400 1.223400
26.495600 1.105600
26.542800 1.179900
26.590000 1.233100
26.637200 1.377300
26.684400 1.054200
26.731600 0.770700
26.778700 0.867500
26.825900 1.227800
26.873100 1.990900
26.920300 2.567000
26.967500 2.685300
27.014700 2.845900
27.061900 2.828600
27.109100 2.525400
27.156300 2.804800
27.203500 2.948100
27.250700 3.253200
27.297900 3.062600
27.345000 2.191900
27.392200 2.169600
27.439400 2.543500
27.486600 2.505100
27.533800 2.567100
27.581000 2.696600
27.628200 2.339400
27.675400 2.335500
27.722600 2.404000
27.769800 2.629900
27.817000 2.899600
27.864200 2.838300
27.911300 2.818700
27.958500 2.101600
28.005700 1.870200
28.052900 2.285500
28.100100 3.091500
28.147300 2.804200
28.194500 1.949800
28.241700 2.092900
28.288900 2.486700
28.336100 2.538100
28.383300 2.150200
28.430500 2.453600
28.477600 2.433300
28.524800 2.310300
28.572000 2.598900
28.619200 3.573600
28.666400 4.315900
28.713600 3.988100
28.760800 3.301200
28.808000 2.559700
28.855200 2.709500
28.902400 3.214100
28.949600 2.921500
28.996800 2.565800
29.043900 2.239000
29.091100 2.304400
29.138300 2.666400
29.185500 2.716300
29.232700 3.124900
29.279900 3.108700
29.327100 3.078100
29.374300 3.269000
29.421500 3.248400
29.468700 3.040000
29.515900 3.332600
29.563100 3.962500
29.610200 3.745700
29.657400 2.683400
29.704600 1.855400
29.751800 1.487000
29.799000 1.450800
29.846200 1.793400
29.893400 2.390200
29.940600 2.382800
29.987800 2.178800
30.035000 1.957000
30.082200 1.677600
30.129300 1.638300
30.176500 1.590500
30.223700 1.741700
30.270900 1.527600
30.318100 1.276900
30.365300 0.966100
30.412500 0.759600
30.459700 0.908600
30.506900 1.106800
30.554100 1.533200
30.601300 1.299100
30.648500 0.858000
30.695600 0.898900
30.742800 1.102700
30.790000 0.966300
30.837200 0.917300
30.884400 1.069500
30.931600 1.381700
30.978800 1.567400
31.026000 1.400900
31.073200 1.090400
31.120400 0.927600
31.167600 1.429600
31.214800 1.432700
31.261900 0.962500
31.309100 0.856700
31.356300 0.938500
31.403500 1.136800
31.450700 1.270000
31.497900 1.236900
31.545100 1.099300
31.592300 1.220300
31.639500 1.444900
31.686700 2.002600
31.733900 1.726000
31.781100 1.027900
31.828200 1.593500
31.875400 2.084900
31.922600 1.750600
31.969800 1.593500
32.017000 1.759300
32.064200 2.115000
32.111400 1.947400
32.158600 1.200600
32.205800 0.788200
32.253000 0.900700
32.300200 1.595700
32.347400 2.615400
32.394500 2.460300
32.441700 1.700300
32.488900 2.016300
32.536100 1.994200
32.583300 1.833000
32.630500 2.236800
32.677700 2.492700
32.724900 3.186200
32.772100 3.477100
32.819300 3.130200
32.866500 2.736200
32.913700 2.654500
32.960800 3.006500
33.008000 3.043000
33.055200 3.171400
33.102400 3.667500
33.149600 3.647500
33.196800 3.331700
33.244000 2.452900
33.291200 2.018600
33.338400 2.269700
33.385600 2.462600
33.432800 2.738100
33.480000 2.678400
33.527100 2.846300
33.574300 3.057800
33.621500 2.915700
33.668700 3.530900
33.715900 3.011300
33.763100 1.964900
33.810300 1.833500
33.857500 2.390700
33.904700 2.717100
33.951900 2.657200
33.999100 2.569700
34.046300 2.061000
34.093400 1.827100
34.140600 2.213900
34.187800 2.495500
34.235000 2.099500
34.282200 2.034200
34.329400 2.299500
34.376600 2.640600
34.423800 2.391900
34.471000 2.013800
34.518200 2.089400
34.565400 2.388400
34.612600 2.155000
34.659700 1.781000
34.706900 1.690000
34.754100 1.883900
34.801300 2.307000
34.848500 2.445600
34.895700 1.810400
34.942900 1.380300
34.990100 1.580800
35.037300 1.886000
35.084500 2.491100
35.131700 2.774100
35.178900 2.762200
35.226000 3.491000
35.273200 2.765900
35.320400 1.845600
35.367600 1.951400
35.414800 2.114000
35.462000 2.614600
35.509200 3.027100
35.556400 3.454900
35.603600 3.085000
35.650800 3.513600
35.698000 3.728900
35.745200 3.209700
35.792300 2.757100
35.839500 3.014100
35.886700 4.103100
35.933900 3.888800
35.981100 3.485800
36.028300 3.615100
36.075500 3.739300
36.122700 3.818900
36.169900 3.662800
36.217100 3.793300
36.264300 3.316400
36.311500 3.227500
36.358600 3.852900
36.405800 4.689600
36.453000 3.989200
36.500200 3.159400
36.547400 2.867600
36.594600 3.186100
36.641800 4.467600
36.689000 4.710100
36.736200 3.815800
36.783400 3.394000
36.830600 3.911500
36.877800 3.471400
36.924900 3.223400
36.972100 3.965000
37.019300 4.523900
37.066500 5.143000
37.113700 4.802800
37.160900 4.459500
37.208100 4.320100
37.255300 4.077100
37.302500 4.751000
37.349700 4.551500
37.396900 4.113200
37.444100 5.477000
37.491200 5.512600
37.538400 4.887800
37.585600 4.462400
37.632800 3.866400
37.680000 4.006800
37.727200 3.971300
37.774400 3.632500
37.821600 3.562000
37.868800 3.906000
37.916000 3.585400
37.963200 3.417600
38.010400 4.381900
38.057500 4.627800
38.104700 4.039300
38.151900 4.437100
38.199100 5.305300
38.246300 5.422900
38.293500 4.559600
38.340700 4.367800
38.387900 4.082500
38.435100 3.919400
38.482300 3.372600
38.529500 2.951700
38.576600 3.804600
38.623800 4.591000
38.671000 4.803500
38.718200 4.231400
38.765400 3.240200
38.812600 2.367500
38.859800 1.938800
38.907000 1.918200
38.954200 1.966500
39.001400 1.622400
39.048600 1.312400
39.095800 1.979600
39.142900 2.265500
39.190100 2.147700
39.237300 2.445200
39.284500 2.481700
39.331700 2.130400
39.378900 2.351600
39.426100 2.063100
39.473300 2.163600
39.520500 2.181500
39.567700 2.064800
39.614900 2.214000
39.662100 2.827600
39.709200 2.939600
39.756400 2.663100
39.803600 2.322900
39.850800 1.876400
39.898000 1.653800
39.945200 2.235200
39.992400 2.682500
40.039600 2.523400
40.086800 2.387400
40.134000 2.115100
40.181200 1.871200
40.228400 2.501300
40.275500 2.663000
40.322700 3.088700
40.369900 3.629900
40.417100 3.544100
40.464300 3.229700
40.511500 2.810600
40.558700 2.242800
40.605900 2.138100
40.653100 2.398900
40.700300 2.583800
40.747500 3.016300
40.794700 3.131500
40.841800 2.592500
40.889000 2.189300
40.936200 1.855600
40.983400 1.806300
41.030600 2.468600
41.077800 3.636400
41.125000 3.644800
41.172200 2.658900
41.219400 2.469200
41.266600 2.180400
41.313800 2.515000
41.361000 3.847200
41.408100 4.461400
41.455300 4.345500
41.502500 4.075600
41.549700 3.502600
41.596900 3.157400
41.644100 3.389400
41.691300 3.846300
41.738500 3.659500
41.785700 2.844400
41.832900 2.394700
41.880100 2.612900
41.927300 2.073400
41.974400 1.879200
42.021600 2.029600
42.068800 2.472200
42.116000 3.387600
42.163200 2.709300
42.210400 2.360800
42.257600 2.494900
42.304800 2.024600
42.352000 2.122800
42.399200 2.197100
42.446400 2.371100
42.493600 2.748300
42.540700 2.846900
42.587900 2.269100
42.635100 2.105800
42.682300 2.365900
42.729500 2.350500
42.776700 2.555600
42.823900 2.599900
42.871100 2.645700
42.918300 2.769800
42.965500 2.635900
43.012700 2.751800
43.059900 3.296600
43.107000 3.608300
43.154200 2.897200
43.201400 2.727100
43.248600 2.546700
43.295800 2.436000
43.343000 2.687700
43.390200 2.524800
43.437400 2.426500
43.484600 2.294900
43.531800 2.364400
43.579000 2.349900
43.626200 2.418200
43.673300 2.912500
43.720500 3.501100
43.767700 3.709600
43.814900 3.634900
43.862100 3.349700
43.909300 3.274000
43.956500 2.636300
44.003700 1.954000
44.050900 2.828500
44.098100 3.827300
44.145300 3.143500
44.192500 2.194700
44.239600 2.399000
44.286800 2.698300
44.334000 2.619200
44.381200 2.742900
44.428400 3.372700
44.475600 3.759900
44.522800 3.366800
44.570000 2.907600
44.617200 3.565200
44.664400 3.389300
44.711600 2.060900
44.758800 2.101700
44.805900 2.819000
44.853100 3.516600
44.900300 3.683500
44.947500 3.793500
44.994700 3.733100
45.041900 3.542700
45.089100 3.077500
45.136300 3.529300
45.183500 4.255400
45.230700 3.899800
45.277900 3.338300
45.325100 3.543400
45.372200 4.161300
45.419400 4.275200
45.466600 3.482600
45.513800 3.429300
45.561000 3.947700
45.608200 4.671800
45.655400 4.522800
45.702600 4.205400
45.749800 4.067500
45.797000 3.343700
45.844200 2.423900
45.891400 2.429200
45.938500 2.731400
45.985700 3.079900
46.032900 2.832300
46.080100 2.978500
46.127300 4.069000
46.174500 4.588000
46.221700 3.878000
46.268900 3.595300
46.316100 3.573600
46.363300 3.650600
46.410500 3.690300
46.457600 4.487400
46.504800 4.855600
46.552000 3.955100
46.599200 3.283500
46.646400 3.336800
46.693600 3.726700
46.740800 3.645400
46.788000 3.630900
46.835200 3.832100
46.882400 3.377200
46.929600 2.653400
46.976800 2.569700
47.023900 3.308000
47.071100 3.622400
47.118300 3.208500
47.165500 3.443100
47.212700 3.383600
47.259900 3.474800
47.307100 3.096000
47.354300 3.199500
47.401500 3.836700
47.448700 3.696200
47.495900 3.439500
47.543100 3.380900
47.590200 3.021200
47.637400 2.883700
47.684600 3.198500
47.731800 3.188800
47.779000 2.823300
47.826200 3.188300
47.873400 3.752100
47.920600 4.297400
47.967800 4.776200
48.015000 5.053000
48.062200 4.903900
48.109400 4.755400
48.156500 4.802700
48.203700 4.672100
48.250900 4.208400
48.298100 3.463900
48.345300 3.779000
48.392500 4.392800
48.439700 3.369800
48.486900 2.813400
48.534100 3.566400
48.581300 4.325600
48.628500 4.388600
48.675700 4.160100
48.722800 4.048200
48.770000 4.149500
48.817200 3.648600
48.864400 3.308700
48.911600 3.922100
48.958800 3.827400
49.006000 3.302400
49.053200 3.785400
49.100400 3.624600
49.147600 3.208500
49.194800 3.313100
49.242000 3.314300
49.289100 3.059600
49.336300 2.744400
49.383500 1.914700
49.430700 1.255400
49.477900 1.292300
49.525100 1.306600
49.572300 0.776500
49.619500 0.316200
49.666700 0.407400
49.713900 0.694100
49.761100 0.655200
49.808300 0.619500
49.855400 0.456300
49.902600 0.391400
49.949800 0.616300
49.997000 0.579300
50.044200 0.192400
50.091400 0.265800
50.138600 0.376800
50.185800 0.184800
50.233000 0.143400
50.280200 0.327500
50.327400 0.264100
50.374600 0.055200
50.421700 0.016500
50.468900 0.112600
50.516100 0.190800
50.563300 0.069400
50.610500 0.005200
50.657700 0.000100
50.704900 0.000000
50.752100 0.000300
50.799300 0.006900
50.846500 0.037200
50.893700 0.042800
50.940900 0.010500
50.988000 0.000500
51.035200 0.000000
51.082400 0.000000
51.129600 0.000000
51.176800 0.000000
51.224000 0.000000
51.271200 0.000000
51.318400 0.000000
51.365600 0.000000
51.412800 0.000000
51.460000 0.000000
51.507200 0.000000
51.554300 0.000000
51.601500 0.000000
51.648700 0.000000
51.695900 0.000000
51.743100 0.000000
51.790300 0.000000
51.837500 0.000000
51.884700 0.000000
51.931900 0.000000
51.979100 0.000000
52.026300 0.000000
52.073500 0.000000
52.120600 0.000000
52.167800 0.000000
52.215000 0.000000
52.262200 0.000000
52.309400 0.000000
52.356600 0.000000
52.403800 0.000000
52.451000 0.000000
52.498200 0.000000
52.545400 0.000000
52.592600 0.000000
52.639800 0.000000
52.686900 0.000000
52.734100 0.000000
52.781300 0.000000
52.828500 0.000000
52.875700 0.000000
52.922900 0.000000
52.970100 0.000000
53.017300 0.000000
53.064500 0.000000
53.111700 0.000000
53.158900 0.000000
53.206100 0.000000
53.253200 0.000000
53.300400 0.000000
53.347600 0.000000
53.394800 0.000000
53.442000 0.000000
53.489200 0.000000
53.536400 0.000000
53.583600 0.000000
53.630800 0.000000
53.678000 0.000000
53.725200 0.000000
53.772400 0.000000
53.819500 0.000000
53.866700 0.000000
53.913900 0.000000
53.961100 0.000000
54.008300 0.000000
54.055500 0.000000
54.102700 0.000000
54.149900 0.000000
54.197100 0.000000
54.244300 0.000000
54.291500 0.000000
54.338700 0.000000
54.385800 0.000000
54.433000 0.000000
54.480200 0.000000
54.527400 0.000000
54.574600 0.000000
54.621800 0.000000
54.669000 0.000000
54.716200 0.000000
54.763400 0.000000
54.810600 0.000000
54.857800 0.000000
54.904900 0.000000
54.952100 0.000000
54.999300 0.000000
55.046500 0.000000
55.093700 0.000000
55.140900 0.000000
e
