set title 'mp-23177 - Density of States'
set xlabel 'Energy (eV)'
set ylabel 'DOS (states/eV)'
set grid
set xrange [-10:10]
set yrange [0:89.526]
set xzeroaxis lt -1
set terminal png size 800,600
set output 'mp-23177_dos_gnuplot.png'
plot '-' using 1:2 with lines title 'DOS'
-16.802100 0.000000
-16.776700 0.000000
-16.751300 0.000000
-16.725800 0.000000
-16.700400 0.000000
-16.675000 0.000000
-16.649500 0.000000
-16.624100 0.000000
-16.598700 0.000000
-16.573200 0.000000
-16.547800 0.000000
-16.522400 0.000000
-16.497000 0.000000
-16.471500 0.000000
-16.446100 0.000000
-16.420700 0.000000
-16.395200 0.000000
-16.369800 0.000000
-16.344400 0.000000
-16.319000 0.000000
-16.293500 0.000000
-16.268100 0.000000
-16.242700 0.000000
-16.217200 0.000000
-16.191800 0.000000
-16.166400 0.000000
-16.140900 0.000000
-16.115500 0.000000
-16.090100 0.000000
-16.064700 0.000000
-16.039200 0.000000
-16.013800 0.000000
-15.988400 0.000000
-15.962900 0.000000
-15.937500 0.000000
-15.912100 0.000000
-15.886600 0.000000
-15.861200 0.000000
-15.835800 0.000000
-15.810400 0.000000
-15.784900 0.000000
-15.759500 0.000000
-15.734100 0.000000
-15.708600 0.000000
-15.683200 0.000000
-15.657800 0.000000
-15.632300 0.000000
-15.606900 0.000000
-15.581500 0.000000
-15.556100 0.000000
-15.530600 0.000000
-15.505200 0.000000
-15.479800 0.000000
-15.454300 0.000000
-15.428900 0.000000
-15.403500 0.000000
-15.378100 0.000000
-15.352600 0.000000
-15.327200 0.000000
-15.301800 0.000000
-15.276300 0.000000
-15.250900 0.000000
-15.225500 0.000000
-15.200000 0.000000
-15.174600 0.000000
-15.149200 0.000000
-15.123800 0.000000
-15.098300 0.000000
-15.072900 0.000000
-15.047500 0.000000
-15.022000 0.000000
-14.996600 0.000000
-14.971200 0.000000
-14.945700 0.000000
-14.920300 0.000000
-14.894900 0.000000
-14.869500 0.000000
-14.844000 0.000000
-14.818600 0.000000
-14.793200 0.000000
-14.767700 0.000000
-14.742300 0.000000
-14.716900 0.000000
-14.691500 0.000000
-14.666000 0.000000
-14.640600 0.000000
-14.615200 0.000000
-14.589700 0.000000
-14.564300 0.000000
-14.538900 0.000000
-14.513400 0.000000
-14.488000 0.009800
-14.462600 1.405200
-14.437200 3.847000
-14.411700 5.472200
-14.386300 8.123800
-14.360900 13.871800
-14.335400 25.775600
-14.310000 27.191000
-14.284600 0.000000
-14.259100 0.000000
-14.233700 7.091100
-14.208300 19.928000
-14.182900 25.375900
-14.157400 11.408500
-14.132000 6.679300
-14.106600 3.235000
-14.081100 0.000000
-14.055700 0.000000
-14.030300 0.000000
-14.004900 0.000000
-13.979400 0.000000
-13.954000 0.000000
-13.928600 0.000000
-13.903100 0.000000
-13.877700 0.000000
-13.852300 0.000000
-13.826800 0.000000
-13.801400 0.000000
-13.776000 0.000000
-13.750600 0.000000
-13.725100 0.000000
-13.699700 0.000000
-13.674300 0.000000
-13.648800 0.000000
-13.623400 0.000000
-13.598000 0.000000
-13.572500 0.000000
-13.547100 0.000000
-13.521700 0.000000
-13.496300 0.000000
-13.470800 0.000000
-13.445400 0.000000
-13.420000 0.000000
-13.394500 0.000000
-13.369100 0.000000
-13.343700 0.000000
-13.318300 0.000000
-13.292800 0.000000
-13.267400 0.000000
-13.242000 0.000000
-13.216500 0.000000
-13.191100 0.000000
-13.165700 0.000000
-13.140200 0.000000
-13.114800 0.000000
-13.089400 0.000000
-13.064000 0.000000
-13.038500 0.000000
-13.013100 0.000000
-12.987700 0.000000
-12.962200 0.000000
-12.936800 0.000000
-12.911400 0.000000
-12.885900 0.000000
-12.860500 0.000000
-12.835100 0.000000
-12.809700 0.000000
-12.784200 0.000000
-12.758800 0.000000
-12.733400 0.000000
-12.707900 0.000000
-12.682500 0.000000
-12.657100 0.000000
-12.631600 0.000000
-12.606200 0.000000
-12.580800 0.000000
-12.555400 0.000000
-12.529900 0.000000
-12.504500 0.000000
-12.479100 0.000000
-12.453600 0.000000
-12.428200 0.000000
-12.402800 0.000000
-12.377400 0.000000
-12.351900 0.000000
-12.326500 0.000000
-12.301100 0.000000
-12.275600 0.000000
-12.250200 0.000000
-12.224800 0.000000
-12.199300 0.000000
-12.173900 0.000000
-12.148500 0.000000
-12.123100 0.000000
-12.097600 0.000000
-12.072200 0.000000
-12.046800 0.000000
-12.021300 0.000000
-11.995900 0.000000
-11.970500 0.000000
-11.945000 0.000000
-11.919600 0.000000
-11.894200 0.000000
-11.868800 0.000000
-11.843300 0.000000
-11.817900 0.000000
-11.792500 0.000000
-11.767000 0.000000
-11.741600 0.000000
-11.716200 0.000000
-11.690800 0.000000
-11.665300 0.000000
-11.639900 0.000000
-11.614500 0.000000
-11.589000 0.000000
-11.563600 0.000000
-11.538200 0.000000
-11.512700 0.000000
-11.487300 0.000000
-11.461900 0.000000
-11.436500 0.000000
-11.411000 0.000000
-11.385600 0.000000
-11.360200 0.000000
-11.334700 0.000000
-11.309300 0.000000
-11.283900 0.000000
-11.258400 0.000000
-11.233000 0.000000
-11.207600 0.000000
-11.182200 0.000000
-11.156700 0.000000
-11.131300 0.000000
-11.105900 0.000000
-11.080400 0.000000
-11.055000 0.000000
-11.029600 0.000000
-11.004200 0.000000
-10.978700 0.000000
-10.953300 0.000000
-10.927900 0.000000
-10.902400 0.000000
-10.877000 0.000000
-10.851600 0.000000
-10.826100 0.000000
-10.800700 0.000000
-10.775300 0.000000
-10.749900 0.000000
-10.724400 0.000000
-10.699000 0.000000
-10.673600 0.000000
-10.648100 0.000000
-10.622700 0.000000
-10.597300 0.000000
-10.571800 0.000000
-10.546400 0.000000
-10.521000 0.000000
-10.495600 0.000000
-10.470100 0.000000
-10.444700 0.000000
-10.419300 0.000000
-10.393800 0.000000
-10.368400 0.000000
-10.343000 0.000000
-10.317600 0.000000
-10.292100 0.000000
-10.266700 0.000000
-10.241300 0.000000
-10.215800 0.000000
-10.190400 0.000000
-10.165000 0.000000
-10.139500 0.000000
-10.114100 0.000000
-10.088700 0.000000
-10.063300 0.000000
-10.037800 0.000000
-10.012400 0.000000
-9.987000 0.000000
-9.961500 0.000000
-9.936100 0.000000
-9.910700 0.000000
-9.885200 0.000000
-9.859800 0.000000
-9.834400 0.000000
-9.809000 0.000000
-9.783500 0.000000
-9.758100 0.000000
-9.732700 0.000000
-9.707200 0.000000
-9.681800 0.000000
-9.656400 0.000000
-9.630900 0.000000
-9.605500 0.000000
-9.580100 0.000000
-9.554700 0.000000
-9.529200 0.000000
-9.503800 0.000000
-9.478400 0.000000
-9.452900 0.000000
-9.427500 0.000000
-9.402100 0.000000
-9.376700 0.000000
-9.351200 0.000000
-9.325800 0.000000
-9.300400 0.000000
-9.274900 0.000000
-9.249500 0.000000
-9.224100 0.000000
-9.198600 0.000000
-9.173200 0.000000
-9.147800 0.000000
-9.122400 0.000000
-9.096900 0.000000
-9.071500 0.000000
-9.046100 0.000000
-9.020600 0.000000
-8.995200 0.000000
-8.969800 0.000000
-8.944300 0.000000
-8.918900 0.000000
-8.893500 0.000000
-8.868100 0.000000
-8.842600 0.000000
-8.817200 0.000000
-8.791800 0.000000
-8.766300 0.000000
-8.740900 0.000000
-8.715500 0.000000
-8.690100 0.000000
-8.664600 0.000000
-8.639200 0.000000
-8.613800 0.000000
-8.588300 0.000000
-8.562900 0.000000
-8.537500 0.000000
-8.512000 0.000000
-8.486600 0.000000
-8.461200 0.000000
-8.435800 0.000000
-8.410300 0.000000
-8.384900 0.000000
-8.359500 0.000000
-8.334000 0.000000
-8.308600 0.000000
-8.283200 0.000000
-8.257700 0.000000
-8.232300 0.000000
-8.206900 0.000000
-8.181500 0.000000
-8.156000 0.000000
-8.130600 0.000000
-8.105200 0.000000
-8.079700 0.000000
-8.054300 0.000000
-8.028900 0.000000
-8.003500 0.000000
-7.978000 0.000000
-7.952600 0.000000
-7.927200 0.000000
-7.901700 0.000000
-7.876300 0.000000
-7.850900 0.000000
-7.825400 0.000000
-7.800000 0.000000
-7.774600 0.000000
-7.749200 0.000000
-7.723700 0.000000
-7.698300 0.000000
-7.672900 0.000000
-7.647400 0.000000
-7.622000 0.000000
-7.596600 0.000000
-7.571100 3.341400
-7.545700 28.604000
-7.520300 39.557700
-7.494900 0.000000
-7.469400 0.000000
-7.444000 0.000000
-7.418600 0.000000
-7.393100 0.000000
-7.367700 0.000000
-7.342300 0.000000
-7.316900 0.000000
-7.291400 0.000000
-7.266000 0.000000
-7.240600 0.000000
-7.215100 0.000000
-7.189700 0.000000
-7.164300 0.000000
-7.138800 0.000000
-7.113400 0.000000
-7.088000 0.000000
-7.062600 0.000000
-7.037100 0.000000
-7.011700 0.000000
-6.986300 0.000000
-6.960800 0.000000
-6.935400 0.000000
-6.910000 0.000000
-6.884500 0.000000
-6.859100 0.000000
-6.833700 0.000000
-6.808300 0.000000
-6.782800 0.000000
-6.757400 0.000000
-6.732000 0.000000
-6.706500 0.000000
-6.681100 0.000000
-6.655700 47.358100
-6.630200 34.275400
-6.604800 56.055300
-6.579400 1.526500
-6.554000 0.000000
-6.528500 0.000000
-6.503100 0.000000
-6.477700 0.000000
-6.452200 0.000000
-6.426800 0.000000
-6.401400 0.000000
-6.376000 0.000000
-6.350500 0.000000
-6.325100 0.000000
-6.299700 0.000000
-6.274200 0.000000
-6.248800 0.000000
-6.223400 0.000000
-6.197900 0.000000
-6.172500 0.000000
-6.147100 0.000000
-6.121700 0.000000
-6.096200 0.000000
-6.070800 0.000000
-6.045400 11.483800
-6.019900 44.288200
-5.994500 19.893000
-5.969100 41.841500
-5.943600 14.297300
-5.918200 0.000000
-5.892800 3.043600
-5.867400 41.210400
-5.841900 81.387000
-5.816500 20.624500
-5.791100 47.519700
-5.765600 35.558000
-5.740200 5.216600
-5.714800 17.831700
-5.689400 43.422600
-5.663900 65.372400
-5.638500 32.255600
-5.613100 0.566200
-5.587600 0.048900
-5.562200 0.000000
-5.536800 0.000000
-5.511300 0.000000
-5.485900 0.000000
-5.460500 0.000000
-5.435100 0.000000
-5.409600 0.000000
-5.384200 0.000000
-5.358800 0.000000
-5.333300 0.000000
-5.307900 0.000000
-5.282500 0.000000
-5.257000 0.000000
-5.231600 0.000000
-5.206200 0.000000
-5.180800 0.000000
-5.155300 0.000000
-5.129900 0.000000
-5.104500 0.000000
-5.079000 0.000000
-5.053600 0.000000
-5.028200 0.000000
-5.002800 0.000000
-4.977300 0.000000
-4.951900 0.000000
-4.926500 0.000000
-4.901000 0.000000
-4.875600 0.000000
-4.850200 0.000000
-4.824700 0.000000
-4.799300 0.000000
-4.773900 0.000000
-4.748500 0.000000
-4.723000 0.000000
-4.697600 0.000000
-4.672200 0.000000
-4.646700 0.000000
-4.621300 0.000000
-4.595900 0.000000
-4.570400 0.000000
-4.545000 0.000000
-4.519600 0.040700
-4.494200 1.063900
-4.468700 2.034900
-4.443300 3.102100
-4.417900 4.210200
-4.392400 4.561500
-4.367000 4.843200
-4.341600 4.926100
-4.316200 4.971100
-4.290700 5.104100
-4.265300 4.666400
-4.239900 4.763600
-4.214400 4.408200
-4.189000 4.097600
-4.163600 3.832000
-4.138100 3.609900
-4.112700 3.349600
-4.087300 3.026700
-4.061900 2.760300
-4.036400 3.514800
-4.011000 1.798500
-3.985600 1.471800
-3.960100 1.379800
-3.934700 1.389300
-3.909300 1.007500
-3.883800 1.348300
-3.858400 1.764000
-3.833000 2.254500
-3.807600 3.416500
-3.782100 4.199500
-3.756700 4.800200
-3.731300 5.210400
-3.705800 7.176100
-3.680400 6.565000
-3.655000 5.789400
-3.629500 5.148700
-3.604100 4.446100
-3.578700 3.890200
-3.553300 3.461400
-3.527800 3.083700
-3.502400 2.757100
-3.477000 2.870500
-3.451500 2.314600
-3.426100 1.620200
-3.400700 1.405400
-3.375300 1.103700
-3.349800 0.837200
-3.324400 0.606000
-3.299000 0.450800
-3.273500 0.320700
-3.248100 0.183000
-3.222700 0.059700
-3.197200 0.000000
-3.171800 0.000000
-3.146400 0.000000
-3.121000 0.000000
-3.095500 0.000000
-3.070100 0.000000
-3.044700 0.000300
-3.019200 0.282900
-2.993800 0.407900
-2.968400 0.545700
-2.942900 0.696200
-2.917500 0.859500
-2.892100 1.035600
-2.866700 1.224600
-2.841200 1.414200
-2.815800 1.608100
-2.790400 1.806200
-2.764900 1.768200
-2.739500 1.945100
-2.714100 2.135700
-2.688700 2.700500
-2.663200 3.054100
-2.637800 3.387300
-2.612400 3.960800
-2.586900 4.406500
-2.561500 4.872100
-2.536100 4.993000
-2.510600 5.483300
-2.485200 5.758500
-2.459800 4.688800
-2.434400 4.722700
-2.408900 4.676900
-2.383500 4.572500
-2.358100 4.420600
-2.332600 4.089600
-2.307200 3.923200
-2.281800 3.775800
-2.256300 3.822400
-2.230900 4.363100
-2.205500 4.243900
-2.180100 4.561300
-2.154600 4.918400
-2.129200 5.253800
-2.103800 5.533200
-2.078300 5.932400
-2.052900 5.692200
-2.027500 5.945100
-2.002100 5.529400
-1.976600 5.486900
-1.951200 5.479700
-1.925800 5.475800
-1.900300 5.489300
-1.874900 5.276000
-1.849500 5.111200
-1.824000 5.563400
-1.798600 6.149100
-1.773200 6.210600
-1.747800 6.105400
-1.722300 5.797800
-1.696900 5.392000
-1.671500 6.006200
-1.646000 7.761800
-1.620600 9.110400
-1.595200 10.932900
-1.569700 11.413100
-1.544300 11.440700
-1.518900 15.130500
-1.493500 12.693700
-1.468000 10.546800
-1.442600 8.723000
-1.417200 7.328700
-1.391700 6.677300
-1.366300 7.328200
-1.340900 5.413900
-1.315500 5.951900
-1.290000 6.430800
-1.264600 7.830100
-1.239200 6.643100
-1.213700 6.469200
-1.188300 5.566000
-1.162900 3.407200
-1.137400 2.801200
-1.112000 2.188200
-1.086600 1.568200
-1.061200 0.941300
-1.035700 0.313700
-1.010300 0.000000
-0.984900 0.000000
-0.959400 0.000000
-0.934000 0.000000
-0.908600 0.000000
-0.883100 0.000000
-0.857700 0.000000
-0.832300 0.000000
-0.806900 0.000000
-0.781400 0.000000
-0.756000 0.000000
-0.730600 0.000000
-0.705100 0.000000
-0.679700 0.000000
-0.654300 0.000000
-0.628800 0.000000
-0.603400 0.000000
-0.578000 0.000000
-0.552600 0.000000
-0.527100 0.000000
-0.501700 0.000000
-0.476300 0.000000
-0.450800 0.000000
-0.425400 0.000000
-0.400000 0.000000
-0.374600 0.000000
-0.349100 0.000000
-0.323700 0.000000
-0.298300 0.000000
-0.272800 0.000000
-0.247400 0.000000
-0.222000 0.000000
-0.196500 0.000000
-0.171100 0.000000
-0.145700 0.000000
-0.120300 0.000000
-0.094800 0.000000
-0.069400 0.000000
-0.044000 0.000000
-0.018500 0.000000
0.006900 0.000000
0.032300 0.000000
0.057800 0.000000
0.083200 0.000000
0.108600 0.000000
0.134000 0.000000
0.159500 0.000000
0.184900 0.000000
0.210300 0.000000
0.235800 0.000000
0.261200 0.000000
0.286600 0.000000
0.312000 0.000000
0.337500 0.000000
0.362900 0.000000
0.388300 0.000000
0.413800 0.000000
0.439200 0.000000
0.464600 0.000000
0.490100 0.000000
0.515500 0.000000
0.540900 0.000000
0.566300 0.000000
0.591800 0.000000
0.617200 0.000000
0.642600 0.000000
0.668100 0.000000
0.693500 0.000000
0.718900 0.000000
0.744400 0.000000
0.769800 0.000000
0.795200 0.000000
0.820600 0.000000
0.846100 0.000000
0.871500 0.000000
0.896900 0.000000
0.922400 0.000000
0.947800 0.000000
0.973200 0.000000
0.998600 0.000000
1.024100 0.000000
1.049500 0.000000
1.074900 0.000000
1.100400 0.000000
1.125800 0.000000
1.151200 0.000000
1.176700 0.000000
1.202100 0.000000
1.227500 0.000000
1.252900 0.000000
1.278400 0.000000
1.303800 0.000000
1.329200 0.000000
1.354700 0.000000
1.380100 0.000000
1.405500 0.000000
1.431000 0.000000
1.456400 0.188200
1.481800 0.478000
1.507200 0.483900
1.532700 0.545800
1.558100 0.629400
1.583500 0.713700
1.609000 0.798700
1.634400 1.172500
1.659800 1.432100
1.685200 1.729700
1.710700 2.065300
1.736100 2.508700
1.761500 2.883800
1.787000 2.979100
1.812400 3.043900
1.837800 3.078100
1.863300 3.081800
1.888700 3.137600
1.914100 3.172200
1.939500 3.077900
1.965000 2.907900
1.990400 2.898000
2.015800 2.821600
2.041300 2.739800
2.066700 2.652400
2.092100 2.559600
2.117600 2.720300
2.143000 2.651900
2.168400 2.569000
2.193800 2.471300
2.219300 2.727000
2.244700 2.888600
2.270100 2.380800
2.295600 1.888500
2.321000 1.411700
2.346400 0.991400
2.371900 0.710800
2.397300 0.525900
2.422700 0.372000
2.448100 0.249300
2.473600 0.155000
2.499000 0.083200
2.524400 0.033500
2.549900 0.006100
2.575300 0.000000
2.600700 0.000000
2.626100 0.000000
2.651600 0.000000
2.677000 0.004200
2.702400 0.015200
2.727900 0.033000
2.753300 0.057700
2.778700 0.089200
2.804200 0.127600
2.829600 0.172800
2.855000 0.224900
2.880400 0.283700
2.905900 0.349500
2.931300 0.422000
2.956700 0.576700
2.982200 0.747700
3.007600 0.902500
3.033000 1.041200
3.058500 1.213700
3.083900 1.417300
3.109300 1.651400
3.134700 1.835400
3.160200 1.922100
3.185600 1.985000
3.211000 2.024100
3.236500 2.039200
3.261900 2.030500
3.287300 2.338400
3.312700 2.336700
3.338200 2.287000
3.363600 2.247100
3.389000 2.217100
3.414500 2.196900
3.439900 2.186600
3.465300 2.312000
3.490800 2.275100
3.516200 2.236600
3.541600 2.203500
3.567000 2.176900
3.592500 2.156700
3.617900 2.143000
3.643300 1.850000
3.668800 1.692500
3.694200 1.554800
3.719600 1.436900
3.745100 1.334500
3.770500 1.236200
3.795900 1.142000
3.821300 1.058900
3.846800 0.981800
3.872200 0.909900
3.897600 0.843300
3.923100 0.781900
3.948500 0.725700
3.973900 0.674800
3.999300 0.629100
4.024800 0.484400
4.050200 0.467300
4.075600 0.639200
4.101100 1.290600
4.126500 2.351200
4.151900 2.927500
4.177400 3.445100
4.202800 3.928900
4.228200 4.378500
4.253600 4.793800
4.279100 4.725900
4.304500 4.367300
4.329900 3.936300
4.355400 3.560500
4.380800 3.237400
4.406200 2.960200
4.431700 2.736300
4.457100 2.627600
4.482500 2.490700
4.507900 2.368600
4.533400 2.257700
4.558800 2.162800
4.584200 2.077800
4.609700 2.002800
4.635100 1.937800
4.660500 1.882700
4.685900 1.401100
4.711400 1.365100
4.736800 1.368100
4.762200 1.408100
4.787700 1.485000
4.813100 1.553400
4.838500 1.551400
4.864000 1.545200
4.889400 1.535400
4.914800 1.577700
4.940200 1.626400
4.965700 1.644600
4.991100 1.674300
5.016500 1.704200
5.042000 1.732500
5.067400 1.763000
5.092800 1.795900
5.118300 1.831100
5.143700 1.868700
5.169100 1.908700
5.194500 1.951000
5.220000 1.995700
5.245400 2.184400
5.270800 2.726100
5.296300 3.053600
5.321700 3.075600
5.347100 2.370600
5.372600 2.327300
5.398000 2.278700
5.423400 2.225300
5.448800 2.167600
5.474300 2.104400
5.499700 2.035600
5.525100 1.961300
5.550600 1.881400
5.576000 1.794200
5.601400 1.681000
5.626800 1.537300
5.652300 1.432200
5.677700 1.402300
5.703100 1.372500
5.728600 1.342700
5.754000 1.313000
5.779400 1.283300
5.804900 1.255500
5.830300 1.230700
5.855700 1.209100
5.881100 1.354400
5.906600 1.573600
5.932000 1.845900
5.957400 2.152500
5.982900 2.472400
6.008300 2.814200
6.033700 3.564300
6.059200 2.760600
6.084600 2.639600
6.110000 2.525200
6.135400 2.643100
6.160900 2.876100
6.186300 3.245900
6.211700 3.693300
6.237200 4.213800
6.262600 4.597700
6.288000 5.246800
6.313400 5.953000
6.338900 6.335900
6.364300 6.531000
6.389700 6.576600
6.415200 5.448400
6.440600 5.246300
6.466000 5.612400
6.491500 5.964200
6.516900 5.552600
6.542300 4.975700
6.567700 4.529300
6.593200 3.659800
6.618600 3.331000
6.644000 3.439600
6.669500 3.521500
6.694900 3.615000
6.720300 3.705700
6.745800 3.786900
6.771200 3.864300
6.796600 3.937700
6.822000 4.007100
6.847500 3.907600
6.872900 3.358000
6.898300 2.063500
6.923800 1.534800
6.949200 1.071300
6.974600 1.007600
7.000000 0.949200
7.025500 0.896000
7.050900 0.848200
7.076300 0.805700
7.101800 0.768500
7.127200 0.736600
7.152600 0.710000
7.178100 0.688700
7.203500 0.817600
7.228900 0.771600
7.254300 0.729200
7.279800 0.690300
7.305200 0.654900
7.330600 0.624100
7.356100 0.600100
7.381500 0.581100
7.406900 0.565900
7.432400 0.554300
7.457800 0.546400
7.483200 0.542100
7.508600 0.541400
7.534100 0.544300
7.559500 0.597300
7.584900 0.677500
7.610400 0.782800
7.635800 0.951500
7.661200 1.279100
7.686600 1.387100
7.712100 1.365400
7.737500 1.405600
7.762900 1.442000
7.788400 1.474500
7.813800 1.503200
7.839200 1.527900
7.864700 1.545200
7.890100 1.553000
7.915500 1.597700
7.940900 1.648500
7.966400 1.701500
7.991800 1.756500
8.017200 1.813700
8.042700 1.873400
8.068100 1.936200
8.093500 2.002100
8.119000 2.071000
8.144400 2.142900
8.169800 2.217900
8.195200 2.296000
8.220700 2.377100
8.246100 2.462800
8.271500 2.831100
8.297000 4.184500
8.322400 5.351500
8.347800 6.008900
8.373300 5.414400
8.398700 4.576300
8.424100 3.521900
8.449500 2.404100
8.475000 1.820100
8.500400 1.646400
8.525800 1.528400
8.551300 1.466000
8.576700 1.440200
8.602100 1.421500
8.627500 1.410200
8.653000 1.407400
8.678400 1.413200
8.703800 1.427700
8.729300 1.450800
8.754700 1.491800
8.780100 1.563600
8.805600 1.644300
8.831000 1.730600
8.856400 1.818800
8.881800 1.908800
8.907300 1.986700
8.932700 2.045700
8.958100 2.117700
8.983600 2.202800
9.009000 2.302700
9.034400 2.449800
9.059900 2.653100
9.085300 2.929300
9.110700 3.310100
9.136100 3.631600
9.161600 3.881600
9.187000 3.961300
9.212400 3.699200
9.237900 3.364400
9.263300 3.085600
9.288700 2.835600
9.314100 2.585400
9.339600 2.731700
9.365000 2.964500
9.390400 3.144000
9.415900 3.339800
9.441300 3.544700
9.466700 3.757200
9.492200 3.994600
9.517600 4.251700
9.543000 4.557200
9.568400 4.931200
9.593900 4.827800
9.619300 5.027000
9.644700 5.089000
9.670200 4.512100
9.695600 4.279800
9.721000 4.146800
9.746500 4.100600
9.771900 4.064900
9.797300 4.031200
9.822700 4.034200
9.848200 4.189900
9.873600 4.234600
9.899000 4.431300
9.924500 3.815500
9.949900 3.320700
9.975300 3.156200
10.000700 3.170700
10.026200 3.184700
10.051600 3.198200
10.077000 3.211700
10.102500 3.226400
10.127900 3.242400
10.153300 3.259700
10.178800 3.278200
10.204200 3.371600
10.229600 3.398400
10.255000 3.503700
10.280500 4.192300
10.305900 4.662700
10.331300 4.914700
10.356800 4.846800
10.382200 4.709100
10.407600 4.562800
10.433100 4.445100
10.458500 4.455600
10.483900 4.302000
10.509300 4.902100
10.534800 3.923400
10.560200 3.978000
10.585600 4.054500
10.611100 3.949700
10.636500 3.874300
10.661900 3.867600
10.687300 3.869600
10.712800 3.912200
10.738200 3.929700
10.763600 4.975800
10.789100 4.015200
10.814500 3.741600
10.839900 3.816500
10.865400 3.428100
10.890800 3.409000
10.916200 3.460500
10.941600 3.523500
10.967100 3.649800
10.992500 3.767300
11.017900 4.138700
11.043400 4.372000
11.068800 4.537900
11.094200 4.465300
11.119700 4.558900
11.145100 4.618600
11.170500 4.644200
11.195900 4.638300
11.221400 4.645100
11.246800 4.681000
11.272200 5.182600
11.297700 4.677600
11.323100 4.515900
11.348500 4.682000
11.374000 3.742100
11.399400 3.153600
11.424800 2.934800
11.450200 2.772800
11.475700 2.793500
11.501100 2.839800
11.526500 2.911600
11.552000 3.019100
11.577400 3.153600
11.602800 3.335800
11.628200 3.537200
11.653700 3.644400
11.679100 3.566400
11.704500 3.692300
11.730000 3.851200
11.755400 3.995900
11.780800 3.992200
11.806300 3.566300
11.831700 3.262800
11.857100 3.357800
11.882500 3.076400
11.908000 2.857600
11.933400 2.773500
11.958800 2.860700
11.984300 3.077600
12.009700 3.491200
12.035100 4.418000
12.060600 5.029300
12.086000 4.579000
12.111400 4.412200
12.136800 4.321900
12.162300 4.536300
12.187700 4.462400
12.213100 4.414400
12.238600 4.330500
12.264000 4.293200
12.289400 4.160100
12.314800 5.152500
12.340300 4.280100
12.365700 3.414500
12.391100 2.307200
12.416600 2.021500
12.442000 1.975600
12.467400 1.938800
12.492900 1.912400
12.518300 1.896400
12.543700 1.890700
12.569100 1.932900
12.594600 2.019600
12.620000 2.142400
12.645400 2.301200
12.670900 2.493800
12.696300 3.936900
12.721700 5.295200
12.747200 5.987900
12.772600 5.792600
12.798000 5.488000
12.823400 5.074100
12.848900 4.551000
12.874300 4.479000
12.899700 3.222600
12.925200 3.036100
12.950600 2.889200
12.976000 2.781800
13.001400 2.720900
13.026900 2.707100
13.052300 2.740200
13.077700 2.820400
13.103200 3.100100
13.128600 3.437500
13.154000 3.786600
13.179500 4.147400
13.204900 4.519900
13.230300 4.934500
13.255700 5.396900
13.281200 5.336900
13.306600 5.547300
13.332000 5.483300
13.357500 5.253000
13.382900 4.485000
13.408300 3.685000
13.433800 1.739500
13.459200 1.702800
13.484600 1.707200
13.510000 1.722200
13.535500 1.744900
13.560900 1.780300
13.586300 1.827700
13.611800 1.887100
13.637200 1.923300
13.662600 3.023700
13.688000 3.313200
13.713500 3.892500
13.738900 4.487700
13.764300 4.851100
13.789800 5.136500
13.815200 5.304700
13.840600 5.376300
13.866100 5.343900
13.891500 5.270300
13.916900 5.358500
13.942300 5.481100
13.967800 5.638200
13.993200 5.163200
14.018600 4.664800
14.044100 4.219100
14.069500 3.716900
14.094900 3.672700
14.120400 5.393100
14.145800 5.667000
14.171200 5.541500
14.196600 5.414700
14.222100 5.291600
14.247500 5.327000
14.272900 4.609000
14.298400 4.443700
14.323800 4.329100
14.349200 4.237100
14.374600 4.167700
14.400100 4.120900
14.425500 4.097100
14.450900 4.136800
14.476400 4.436500
14.501800 5.090600
14.527200 5.179100
14.552700 5.427800
14.578100 6.453300
14.603500 6.331000
14.628900 5.837400
14.654400 5.573900
14.679800 5.406500
14.705200 5.456400
14.730700 5.537100
14.756100 5.085800
14.781500 4.199200
14.807000 3.682900
14.832400 3.572400
14.857800 3.570100
14.883200 3.483600
14.908700 3.338300
14.934100 3.448000
14.959500 3.642500
14.985000 3.876800
15.010400 4.173100
15.035800 3.888200
15.061300 3.888500
15.086700 4.607000
15.112100 5.282300
15.137500 6.510000
15.163000 6.465500
15.188400 4.940900
15.213800 4.888000
15.239300 4.813400
15.264700 4.849100
15.290100 4.687800
15.315500 4.527300
15.341000 4.372400
15.366400 4.166400
15.391800 3.936200
15.417300 3.722000
15.442700 3.574100
15.468100 3.357000
15.493600 3.283600
15.519000 3.318800
15.544400 3.325300
15.569800 3.277300
15.595300 3.257200
15.620700 3.232100
15.646100 3.216300
15.671600 3.183700
15.697000 3.218000
15.722400 3.699000
15.747900 4.825600
15.773300 5.341500
15.798700 6.401100
15.824100 6.986500
15.849600 7.534300
15.875000 8.222000
15.900400 7.701500
15.925900 5.954000
15.951300 5.648700
15.976700 5.423400
16.002100 5.240200
16.027600 5.080000
16.053000 5.896300
16.078400 5.434000
16.103900 5.583500
16.129300 5.918200
16.154700 4.684400
16.180200 4.080200
16.205600 3.625300
16.231000 3.405600
16.256400 3.414600
16.281900 3.398900
16.307300 3.461700
16.332700 3.481000
16.358200 3.553200
16.383600 3.679600
16.409000 3.866100
16.434500 4.001300
16.459900 3.911400
16.485300 3.846200
16.510700 3.796900
16.536200 3.756100
16.561600 3.568000
16.587000 3.514000
16.612500 3.424900
16.637900 3.354000
16.663300 3.306200
16.688700 3.101800
16.714200 3.076500
16.739600 3.089500
16.765000 3.196600
16.790500 3.391400
16.815900 3.674100
16.841300 3.936000
16.866800 3.603200
16.892200 3.729500
16.917600 3.865100
16.943000 4.042300
16.968500 4.136600
16.993900 4.002200
17.019300 3.904900
17.044800 3.905300
17.070200 3.923700
17.095600 3.987000
17.121100 3.996700
17.146500 4.581900
17.171900 5.048900
17.197300 5.336900
17.222800 5.489800
17.248200 5.357300
17.273600 5.092800
17.299100 4.943300
17.324500 4.809700
17.349900 4.710900
17.375300 4.636000
17.400800 4.585100
17.426200 4.558100
17.451600 4.538200
17.477100 4.496300
17.502500 4.525900
17.527900 4.645700
17.553400 4.851100
17.578800 4.966800
17.604200 5.356000
17.629600 5.230700
17.655100 5.740500
17.680500 5.510800
17.705900 4.882100
17.731400 4.131900
17.756800 3.459800
17.782200 3.047700
17.807700 2.887100
17.833100 2.737500
17.858500 2.905000
17.883900 4.812600
17.909400 7.336200
17.934800 7.575400
17.960200 9.731800
17.985700 8.771500
18.011100 6.555200
18.036500 4.924200
18.062000 3.981700
18.087400 3.331600
18.112800 2.905500
18.138200 2.663800
18.163700 2.525200
18.189100 2.400400
18.214500 4.333000
18.240000 3.596300
18.265400 3.365100
18.290800 3.062300
18.316200 2.938000
18.341700 2.907600
18.367100 2.884800
18.392500 2.869500
18.418000 2.861800
18.443400 2.861900
18.468800 2.869500
18.494300 2.884700
18.519700 2.912600
18.545100 3.454100
18.570500 3.910500
18.596000 4.666600
18.621400 5.289900
18.646800 4.181900
18.672300 4.096400
18.697700 4.032400
18.723100 4.087200
18.748600 4.014000
18.774000 3.979400
18.799400 4.023900
18.824800 4.101200
18.850300 4.195900
18.875700 4.308300
18.901100 4.438100
18.926600 4.353800
18.952000 4.122200
18.977400 4.124900
19.002800 4.149000
19.028300 4.176700
19.053700 4.200600
19.079100 4.235600
19.104600 4.264800
19.130000 4.261600
19.155400 4.244500
19.180900 4.213500
19.206300 4.171600
19.231700 4.296200
19.257100 4.335100
19.282600 4.420700
19.308000 4.515200
19.333400 4.647700
19.358900 4.864800
19.384300 5.415000
19.409700 5.276500
19.435200 5.303700
19.460600 5.267500
19.486000 5.201000
19.511400 4.947700
19.536900 4.596800
19.562300 6.348400
19.587700 6.881100
19.613200 6.861400
19.638600 6.164800
19.664000 5.752800
19.689400 5.361200
19.714900 5.151300
19.740300 5.090100
19.765700 4.973900
19.791200 4.858100
19.816600 4.742800
19.842000 4.634300
19.867500 4.405700
19.892900 4.359200
19.918300 4.594500
19.943700 4.944100
19.969200 4.915200
19.994600 4.797700
20.020000 4.710400
20.045500 4.742100
20.070900 4.897200
20.096300 5.321100
20.121800 6.195600
20.147200 5.878200
20.172600 5.156800
20.198000 4.498700
20.223500 4.020900
20.248900 3.616200
20.274300 3.283600
20.299800 2.985300
20.325200 2.906100
20.350600 2.910000
20.376000 2.919000
20.401500 3.156500
20.426900 3.066800
20.452300 3.410300
20.477800 3.863900
20.503200 4.449400
20.528600 5.476800
20.554100 6.721600
20.579500 7.527600
20.604900 8.053200
20.630300 7.197600
20.655800 6.224700
20.681200 5.567300
20.706600 5.408300
20.732100 5.297200
20.757500 5.376800
20.782900 5.264600
20.808400 5.134800
20.833800 5.049800
20.859200 4.956600
20.884600 4.862200
20.910100 4.772500
20.935500 4.686200
20.960900 4.737400
20.986400 5.536600
21.011800 4.473000
21.037200 4.315500
21.062700 4.150500
21.088100 4.010200
21.113500 3.868300
21.138900 4.060400
21.164400 3.750400
21.189800 4.253100
21.215200 4.580700
21.240700 4.817100
21.266100 5.147300
21.291500 5.406100
21.316900 5.408600
21.342400 5.168300
21.367800 5.527800
21.393200 5.209900
21.418700 4.949800
21.444100 4.676500
21.469500 4.540000
21.495000 4.547400
21.520400 4.547800
21.545800 4.541500
21.571200 4.721400
21.596700 4.387300
21.622100 4.051600
21.647500 4.046600
21.673000 7.530300
21.698400 5.892400
21.723800 5.795100
21.749300 5.645400
21.774700 6.008600
21.800100 6.124400
21.825500 6.192500
21.851000 6.172600
21.876400 6.080900
21.901800 5.788900
21.927300 4.538700
21.952700 4.402100
21.978100 4.264100
22.003500 4.146200
22.029000 4.040600
22.054400 3.943700
22.079800 3.900800
22.105300 3.922600
22.130700 4.668600
22.156100 4.954300
22.181600 5.491200
22.207000 6.092800
22.232400 6.690700
22.257800 7.298700
22.283300 7.215000
22.308700 6.789200
22.334100 6.488900
22.359600 6.156900
22.385000 5.824700
22.410400 5.988400
22.435900 5.046900
22.461300 4.899200
22.486700 4.857200
22.512100 4.887300
22.537600 4.965300
22.563000 5.094800
22.588400 5.763700
22.613900 5.652300
22.639300 5.471900
22.664700 5.404900
22.690100 5.445100
22.715600 5.822700
22.741000 6.268200
22.766400 8.489000
22.791900 8.047900
22.817300 6.901600
22.842700 5.871300
22.868200 5.173200
22.893600 4.396800
22.919000 3.969700
22.944400 3.885000
22.969900 3.781500
22.995300 3.659300
23.020700 3.518200
23.046200 3.399900
23.071600 3.302700
23.097000 3.241100
23.122500 3.205900
23.147900 3.191300
23.173300 3.210600
23.198700 3.237000
23.224200 3.287000
23.249600 3.401200
23.275000 3.404000
23.300500 3.423200
23.325900 3.456500
23.351300 3.503800
23.376700 3.724600
23.402200 3.870500
23.427600 4.010800
23.453000 4.472000
23.478500 4.334100
23.503900 4.374800
23.529300 4.504800
23.554800 4.589400
23.580200 4.519700
23.605600 4.350700
23.631000 4.273100
23.656500 4.149100
23.681900 4.012900
23.707300 3.999600
23.732800 4.023500
23.758200 4.052500
23.783600 4.009500
23.809100 3.977400
23.834500 3.969800
23.859900 4.029800
23.885300 4.177200
23.910800 4.308300
23.936200 4.366600
23.961600 5.009600
23.987100 5.325900
24.012500 5.540400
24.037900 5.820500
24.063400 6.171400
24.088800 6.460400
24.114200 6.554500
24.139600 6.530100
24.165100 6.566500
24.190500 6.581000
24.215900 6.379800
24.241400 6.264900
24.266800 6.416700
24.292200 6.394800
24.317600 6.411000
24.343100 6.553000
24.368500 6.750200
24.393900 6.993100
24.419400 7.599700
24.444800 9.851900
24.470200 7.024100
24.495700 6.335500
24.521100 5.820400
24.546500 5.396900
24.571900 5.257000
24.597400 5.113400
24.622800 5.261200
24.648200 5.538400
24.673700 6.007200
24.699100 5.478300
24.724500 5.168200
24.750000 4.918000
24.775400 4.582300
24.800800 4.502500
24.826200 4.047400
24.851700 4.051600
24.877100 4.119600
24.902500 4.276600
24.928000 5.338200
24.953400 4.786900
24.978800 4.812300
25.004200 4.848400
25.029700 4.886300
25.055100 4.897300
25.080500 4.883000
25.106000 4.951000
25.131400 5.084200
25.156800 5.262500
25.182300 5.398100
25.207700 5.698900
25.233100 5.761900
25.258500 5.855100
25.284000 5.940200
25.309400 5.998000
25.334800 6.062000
25.360300 5.987300
25.385700 5.712900
25.411100 5.467200
25.436600 5.196400
25.462000 4.954300
25.487400 4.826200
25.512800 4.739100
25.538300 4.663400
25.563700 4.464400
25.589100 4.552700
25.614600 4.628600
25.640000 4.705600
25.665400 4.790000
25.690800 4.875400
25.716300 4.610100
25.741700 4.855500
25.767100 5.366600
25.792600 5.448500
25.818000 5.501300
25.843400 5.544700
25.868900 5.552200
25.894300 5.603700
25.919700 5.466900
25.945100 5.118000
25.970600 4.735800
25.996000 4.525000
26.021400 4.461200
26.046900 4.404600
26.072300 4.651200
26.097700 4.773200
26.123200 4.916600
26.148600 5.108700
26.174000 5.460300
26.199400 5.687900
26.224900 5.814700
26.250300 6.021100
26.275700 6.244100
26.301200 6.529700
26.326600 6.657700
26.352000 6.582900
26.377400 6.430100
26.402900 8.708800
26.428300 5.903500
26.453700 5.608900
26.479200 5.485500
26.504600 5.467600
26.530000 5.535300
26.555500 5.712200
26.580900 8.137300
26.606300 6.933400
26.631700 7.071100
26.657200 7.136700
26.682600 7.198800
26.708000 7.261000
26.733500 6.969300
26.758900 6.900300
26.784300 6.737800
26.809800 5.386700
26.835200 5.383900
26.860600 4.919800
26.886000 5.172000
26.911500 5.464500
26.936900 5.293100
26.962300 5.303000
26.987800 5.417400
27.013200 5.659800
27.038600 5.349500
27.064100 3.848000
27.089500 3.264100
27.114900 3.307200
27.140300 3.375400
27.165800 4.978200
27.191200 4.169100
27.216600 4.415100
27.242100 5.063900
27.267500 8.600200
27.292900 6.545700
27.318300 7.153500
27.343800 7.919800
27.369200 8.204700
27.394600 7.270200
27.420100 6.832600
27.445500 6.541400
27.470900 6.318700
27.496400 6.139100
27.521800 5.978300
27.547200 5.821400
27.572600 5.712300
27.598100 5.586300
27.623500 5.417200
27.648900 5.302800
27.674400 5.212000
27.699800 5.697900
27.725200 5.185200
27.750700 4.988500
27.776100 4.797400
27.801500 4.659500
27.826900 4.692900
27.852400 5.337200
27.877800 5.465200
27.903200 5.440200
27.928700 5.744900
27.954100 5.915100
27.979500 4.864900
28.004900 4.509600
28.030400 4.309300
28.055800 4.165400
28.081200 3.919300
28.106700 3.963500
28.132100 4.009900
28.157500 4.080500
28.183000 4.158500
28.208400 4.242700
28.233800 4.333100
28.259200 4.106900
28.284700 3.978700
28.310100 3.886000
28.335500 3.853800
28.361000 3.934000
28.386400 4.029900
28.411800 4.159500
28.437300 4.308500
28.462700 4.447700
28.488100 4.496000
28.513500 4.525400
28.539000 4.562000
28.564400 4.578800
28.589800 4.569900
28.615300 4.689700
28.640700 4.819100
28.666100 5.036600
28.691500 5.240600
28.717000 5.433000
28.742400 5.617300
28.767800 5.745600
28.793300 5.621600
28.818700 5.609500
28.844100 6.069800
28.869600 6.222400
28.895000 6.060500
28.920400 5.945700
28.945800 7.481600
28.971300 6.256300
28.996700 5.095600
29.022100 4.794400
29.047600 5.036500
29.073000 5.639400
29.098400 7.511700
29.123900 8.372000
29.149300 6.588100
29.174700 5.213900
29.200100 4.397700
29.225600 4.351300
29.251000 4.373300
29.276400 4.529800
29.301900 4.701500
29.327300 4.926600
29.352700 5.217000
29.378100 5.573500
29.403600 5.851200
29.429000 6.049100
29.454400 6.300500
29.479900 6.640000
29.505300 6.894700
29.530700 6.772300
29.556200 6.457900
29.581600 6.661700
29.607000 7.206400
29.632400 6.626100
29.657900 6.233700
29.683300 5.830500
29.708700 5.333500
29.734200 5.173400
29.759600 5.050200
29.785000 5.077700
29.810500 5.187800
29.835900 5.472600
29.861300 5.798900
29.886700 6.000000
29.912200 6.242200
29.937600 6.313500
29.963000 6.099300
29.988500 5.714500
30.013900 5.903500
30.039300 6.035200
30.064800 6.375900
30.090200 7.325900
30.115600 7.919400
30.141000 9.527700
30.166500 7.700400
30.191900 6.884400
30.217300 6.121400
30.242800 5.732100
30.268200 5.553800
30.293600 5.214800
30.319000 5.156500
30.344500 5.111700
30.369900 5.071800
30.395300 5.089900
30.420800 5.115100
30.446200 5.956200
30.471600 4.875500
30.497100 4.971500
30.522500 5.292700
30.547900 5.081600
30.573300 5.405800
30.598800 5.522400
30.624200 5.568700
30.649600 5.544700
30.675100 5.450500
30.700500 5.289700
30.725900 6.156700
30.751400 4.555100
30.776800 4.479600
30.802200 4.555400
30.827600 5.051200
30.853100 5.322200
30.878500 5.577800
30.903900 5.730900
30.929400 5.759300
30.954800 5.748900
30.980200 5.662900
31.005600 5.601500
31.031100 5.591300
31.056500 5.849300
31.081900 5.443800
31.107400 4.831800
31.132800 4.414300
31.158200 4.658000
31.183700 4.104800
31.209100 4.050500
31.234500 4.278900
31.259900 5.921200
31.285400 5.725700
31.310800 6.234200
31.336200 6.098700
31.361700 5.253000
31.387100 5.295800
31.412500 5.213600
31.438000 4.996900
31.463400 4.647900
31.488800 4.550700
31.514200 4.372400
31.539700 4.074200
31.565100 3.129000
31.590500 2.809400
31.616000 2.404900
31.641400 2.771200
31.666800 2.218500
31.692200 1.638000
31.717700 0.541400
31.743100 0.003800
31.768500 0.000000
31.794000 0.000000
31.819400 0.000000
31.844800 0.000000
31.870300 0.000000
31.895700 0.000000
31.921100 0.000000
31.946500 0.000000
31.972000 0.000000
31.997400 0.000000
32.022800 0.000000
32.048300 0.000000
32.073700 0.000000
32.099100 0.000000
32.124600 0.000000
32.150000 0.000000
32.175400 0.000000
32.200800 0.000000
32.226300 0.000000
32.251700 0.000000
32.277100 0.000000
32.302600 0.000000
32.328000 0.000000
32.353400 0.000000
32.378800 0.000000
32.404300 0.000000
32.429700 0.000000
32.455100 0.000000
32.480600 0.000000
32.506000 0.000000
32.531400 0.000000
32.556900 0.000000
32.582300 0.000000
32.607700 0.000000
32.633100 0.000000
32.658600 0.000000
32.684000 0.000000
32.709400 0.000000
32.734900 0.000000
32.760300 0.000000
32.785700 0.000000
32.811200 0.000000
32.836600 0.000000
32.862000 0.000000
32.887400 0.000000
32.912900 0.000000
32.938300 0.000000
32.963700 0.000000
32.989200 0.000000
33.014600 0.000000
33.040000 0.000000
33.065500 0.000000
33.090900 0.000000
33.116300 0.000000
33.141700 0.000000
33.167200 0.000000
33.192600 0.000000
33.218000 0.000000
33.243500 0.000000
33.268900 0.000000
33.294300 0.000000
33.319700 0.000000
33.345200 0.000000
33.370600 0.000000
33.396000 0.000000
33.421500 0.000000
33.446900 0.000000
33.472300 0.000000
33.497800 0.000000
33.523200 0.000000
33.548600 0.000000
33.574000 0.000000
33.599500 0.000000
33.624900 0.000000
33.650300 0.000000
33.675800 0.000000
33.701200 0.000000
33.726600 0.000000
33.752100 0.000000
33.777500 0.000000
33.802900 0.000000
33.828300 0.000000
33.853800 0.000000
33.879200 0.000000
33.904600 0.000000
33.930100 0.000000
33.955500 0.000000
33.980900 0.000000
34.006300 0.000000
34.031800 0.000000
34.057200 0.000000
e
