set title 'mp-1078568 - Density of States'
set xlabel 'Energy (eV)'
set ylabel 'DOS (states/eV)'
set grid
set xrange [-10:10]
set yrange [0:29.516]
set xzeroaxis lt -1
set terminal png size 800,600
set output 'mp-1078568_dos_gnuplot.png'
plot '-' using 1:2 with lines title 'DOS'
-13.379700 0.000000
-13.359300 0.000000
-13.338900 0.000000
-13.318500 0.000000
-13.298100 0.000000
-13.277700 0.000000
-13.257300 0.000000
-13.236900 0.000000
-13.216500 0.000000
-13.196100 0.000000
-13.175700 0.000000
-13.155300 0.000000
-13.134900 0.000000
-13.114500 0.000000
-13.094100 0.000000
-13.073700 0.000000
-13.053300 0.000000
-13.032900 0.000000
-13.012500 0.000000
-12.992100 0.000000
-12.971700 0.000000
-12.951300 0.000000
-12.930900 0.000000
-12.910500 0.000000
-12.890100 0.000000
-12.869700 0.000000
-12.849300 0.000000
-12.828900 0.000000
-12.808500 0.000000
-12.788100 0.000000
-12.767700 0.000000
-12.747300 0.000000
-12.726900 0.000000
-12.706500 0.000000
-12.686100 0.000000
-12.665700 0.000000
-12.645300 0.000000
-12.624900 0.000000
-12.604500 0.000000
-12.584100 0.000000
-12.563700 0.000000
-12.543300 0.000000
-12.522900 0.000000
-12.502500 0.000000
-12.482100 0.000000
-12.461700 0.000000
-12.441300 0.000000
-12.420900 0.000000
-12.400500 0.000000
-12.380100 0.000000
-12.359700 0.000000
-12.339300 0.000000
-12.318900 0.000000
-12.298500 0.000000
-12.278100 0.000000
-12.257700 0.000000
-12.237300 0.000000
-12.216900 0.000000
-12.196500 0.000000
-12.176100 0.000000
-12.155700 0.000000
-12.135300 0.000000
-12.114900 0.000000
-12.094500 0.000000
-12.074100 0.000000
-12.053700 0.000000
-12.033300 0.000000
-12.012900 0.000000
-11.992500 0.000000
-11.972100 0.000000
-11.951700 0.000000
-11.931300 0.000000
-11.910900 0.000000
-11.890500 0.000000
-11.870100 0.000000
-11.849700 0.000000
-11.829300 0.000000
-11.808900 0.000000
-11.788500 0.000000
-11.768100 0.000000
-11.747700 0.000000
-11.727300 0.000000
-11.706900 0.000000
-11.686500 0.000000
-11.666100 0.000000
-11.645700 0.000000
-11.625300 0.000000
-11.604900 0.000000
-11.584500 0.000000
-11.564100 0.000000
-11.543700 0.000000
-11.523400 0.108900
-11.503000 0.819400
-11.482600 1.205900
-11.462200 1.557700
-11.441800 1.881600
-11.421400 2.191000
-11.401000 2.524100
-11.380600 2.869400
-11.360200 3.245200
-11.339800 3.652800
-11.319400 4.120000
-11.299000 4.657200
-11.278600 5.341600
-11.258200 6.221000
-11.237800 7.746300
-11.217400 8.858900
-11.197000 9.033500
-11.176600 9.567700
-11.156200 12.943600
-11.135800 8.912300
-11.115400 0.014500
-11.095000 4.649700
-11.074600 15.987800
-11.054200 9.380000
-11.033800 8.810100
-11.013400 8.669100
-10.993000 8.703800
-10.972600 7.683500
-10.952200 5.971200
-10.931800 5.061000
-10.911400 4.352900
-10.891000 3.793000
-10.870600 3.294800
-10.850200 2.865000
-10.829800 2.467000
-10.809400 2.091800
-10.789000 1.727900
-10.768600 1.366600
-10.748200 0.968600
-10.727800 0.380300
-10.707400 0.000000
-10.687000 0.000000
-10.666600 0.000000
-10.646200 0.000000
-10.625800 0.000000
-10.605400 0.000000
-10.585000 0.000000
-10.564600 0.000000
-10.544200 0.000000
-10.523800 0.000000
-10.503400 0.000000
-10.483000 0.000000
-10.462600 0.000000
-10.442200 0.000000
-10.421800 0.000000
-10.401400 0.000000
-10.381000 0.000000
-10.360600 0.000000
-10.340200 0.000000
-10.319800 0.000000
-10.299400 0.000000
-10.279000 0.000000
-10.258600 0.000000
-10.238200 0.000000
-10.217800 0.000000
-10.197400 0.000000
-10.177000 0.000000
-10.156600 0.000000
-10.136200 0.000000
-10.115800 0.000000
-10.095400 0.000000
-10.075000 0.000000
-10.054600 0.000000
-10.034200 0.000000
-10.013800 0.000000
-9.993400 0.000000
-9.973000 0.000000
-9.952600 0.000000
-9.932200 0.000000
-9.911800 0.000000
-9.891400 0.000000
-9.871000 0.000000
-9.850600 0.000000
-9.830200 0.000000
-9.809800 0.000000
-9.789400 0.000000
-9.769000 0.000000
-9.748600 0.000000
-9.728200 0.000000
-9.707800 0.000000
-9.687400 0.000000
-9.667000 0.000000
-9.646600 0.000000
-9.626300 0.000000
-9.605900 0.000000
-9.585500 0.000000
-9.565100 0.000000
-9.544700 0.000000
-9.524300 0.000000
-9.503900 0.000000
-9.483500 0.000000
-9.463100 0.000000
-9.442700 0.000000
-9.422300 0.000000
-9.401900 0.000000
-9.381500 0.000000
-9.361100 0.000000
-9.340700 0.000000
-9.320300 0.000000
-9.299900 0.000000
-9.279500 0.000000
-9.259100 0.000000
-9.238700 0.000000
-9.218300 0.000000
-9.197900 0.000000
-9.177500 0.000000
-9.157100 0.000000
-9.136700 0.000000
-9.116300 0.000000
-9.095900 0.000000
-9.075500 0.000000
-9.055100 0.000000
-9.034700 0.000000
-9.014300 0.000000
-8.993900 0.000000
-8.973500 0.000000
-8.953100 0.000000
-8.932700 0.000000
-8.912300 0.000000
-8.891900 0.000000
-8.871500 0.000000
-8.851100 0.000000
-8.830700 0.000000
-8.810300 0.000000
-8.789900 0.000000
-8.769500 0.000000
-8.749100 0.000000
-8.728700 0.000000
-8.708300 0.000000
-8.687900 0.000000
-8.667500 0.000000
-8.647100 0.000000
-8.626700 0.000000
-8.606300 0.000000
-8.585900 0.000000
-8.565500 0.000000
-8.545100 0.000000
-8.524700 0.000000
-8.504300 0.000000
-8.483900 0.000000
-8.463500 0.000000
-8.443100 0.000000
-8.422700 0.000000
-8.402300 0.000000
-8.381900 0.000000
-8.361500 0.000000
-8.341100 0.000000
-8.320700 0.000000
-8.300300 0.000000
-8.279900 0.000000
-8.259500 0.000000
-8.239100 0.000000
-8.218700 0.000000
-8.198300 0.000000
-8.177900 0.000000
-8.157500 0.000000
-8.137100 0.000000
-8.116700 0.000000
-8.096300 0.000000
-8.075900 0.000000
-8.055500 0.000000
-8.035100 0.000000
-8.014700 0.000000
-7.994300 0.000000
-7.973900 0.000000
-7.953500 0.000000
-7.933100 0.000000
-7.912700 0.000000
-7.892300 0.000000
-7.871900 0.000000
-7.851500 0.000000
-7.831100 0.000000
-7.810700 0.000000
-7.790300 0.000000
-7.769900 0.000000
-7.749500 0.000000
-7.729200 0.000000
-7.708800 0.000000
-7.688400 0.000000
-7.668000 0.000000
-7.647600 0.000000
-7.627200 0.000000
-7.606800 0.000000
-7.586400 0.000000
-7.566000 0.000000
-7.545600 0.000000
-7.525200 0.000000
-7.504800 0.000000
-7.484400 0.000000
-7.464000 0.000000
-7.443600 0.000000
-7.423200 0.000000
-7.402800 0.000000
-7.382400 0.000000
-7.362000 0.000000
-7.341600 0.000000
-7.321200 0.000000
-7.300800 0.000000
-7.280400 0.000000
-7.260000 0.000000
-7.239600 0.000000
-7.219200 0.000000
-7.198800 0.000000
-7.178400 0.000000
-7.158000 0.000000
-7.137600 0.000000
-7.117200 0.000000
-7.096800 0.000000
-7.076400 0.000000
-7.056000 0.000000
-7.035600 0.000000
-7.015200 0.000000
-6.994800 0.000000
-6.974400 0.000000
-6.954000 0.000000
-6.933600 0.000000
-6.913200 0.000000
-6.892800 0.000000
-6.872400 0.000000
-6.852000 0.000000
-6.831600 0.000000
-6.811200 0.000000
-6.790800 0.000000
-6.770400 0.000000
-6.750000 0.000000
-6.729600 0.000000
-6.709200 0.000000
-6.688800 0.000000
-6.668400 0.000000
-6.648000 0.000000
-6.627600 0.000000
-6.607200 0.000000
-6.586800 0.000000
-6.566400 0.000000
-6.546000 0.000000
-6.525600 0.000000
-6.505200 0.000000
-6.484800 0.000000
-6.464400 0.000000
-6.444000 0.000000
-6.423600 0.000000
-6.403200 0.000000
-6.382800 0.000000
-6.362400 0.000000
-6.342000 0.000000
-6.321600 0.000000
-6.301200 0.000000
-6.280800 0.000000
-6.260400 0.000000
-6.240000 0.000000
-6.219600 0.000000
-6.199200 0.000000
-6.178800 0.000000
-6.158400 0.000000
-6.138000 0.000000
-6.117600 0.000000
-6.097200 0.000000
-6.076800 0.000000
-6.056400 0.000000
-6.036000 0.000000
-6.015600 0.000000
-5.995200 0.000000
-5.974800 0.000000
-5.954400 0.000000
-5.934000 0.000000
-5.913600 0.000000
-5.893200 0.000000
-5.872800 0.000000
-5.852500 0.000000
-5.832100 0.000000
-5.811700 0.000000
-5.791300 0.000000
-5.770900 0.000000
-5.750500 0.000000
-5.730100 0.000000
-5.709700 0.000000
-5.689300 0.000000
-5.668900 0.000000
-5.648500 0.000000
-5.628100 0.000000
-5.607700 0.000000
-5.587300 0.000000
-5.566900 0.000000
-5.546500 0.000000
-5.526100 0.000000
-5.505700 0.000000
-5.485300 0.000000
-5.464900 0.000000
-5.444500 0.000000
-5.424100 0.000000
-5.403700 0.000000
-5.383300 0.000000
-5.362900 0.000000
-5.342500 0.000000
-5.322100 0.000000
-5.301700 0.000000
-5.281300 0.000000
-5.260900 0.000000
-5.240500 0.000000
-5.220100 0.000000
-5.199700 0.000000
-5.179300 0.000000
-5.158900 0.000000
-5.138500 0.000000
-5.118100 0.000000
-5.097700 0.000000
-5.077300 0.000000
-5.056900 0.000000
-5.036500 0.000000
-5.016100 0.000000
-4.995700 0.000000
-4.975300 0.000000
-4.954900 0.000000
-4.934500 0.000000
-4.914100 0.000000
-4.893700 0.000000
-4.873300 0.000000
-4.852900 0.000000
-4.832500 0.000000
-4.812100 0.000000
-4.791700 0.000000
-4.771300 0.000000
-4.750900 0.000000
-4.730500 0.000000
-4.710100 0.000000
-4.689700 0.000000
-4.669300 0.000000
-4.648900 0.000000
-4.628500 0.000000
-4.608100 0.000000
-4.587700 0.000000
-4.567300 0.000000
-4.546900 0.000000
-4.526500 0.000000
-4.506100 0.000000
-4.485700 0.000000
-4.465300 0.000000
-4.444900 0.000000
-4.424500 0.000000
-4.404100 0.000000
-4.383700 0.000000
-4.363300 0.000000
-4.342900 0.000000
-4.322500 0.000000
-4.302100 0.000000
-4.281700 0.000000
-4.261300 0.000000
-4.240900 0.000000
-4.220500 0.000000
-4.200100 0.000000
-4.179700 0.000000
-4.159300 0.000000
-4.138900 0.000000
-4.118500 0.000000
-4.098100 0.000000
-4.077700 0.000000
-4.057300 0.000000
-4.036900 0.000000
-4.016500 0.000000
-3.996100 0.000000
-3.975700 0.000000
-3.955400 0.000000
-3.935000 0.000000
-3.914600 0.000000
-3.894200 0.000000
-3.873800 0.000000
-3.853400 0.000000
-3.833000 0.000000
-3.812600 0.000000
-3.792200 0.000000
-3.771800 0.000000
-3.751400 0.000000
-3.731000 0.000000
-3.710600 0.000000
-3.690200 0.000000
-3.669800 0.000000
-3.649400 0.000000
-3.629000 0.000000
-3.608600 0.000000
-3.588200 0.000000
-3.567800 0.000000
-3.547400 0.000000
-3.527000 0.000000
-3.506600 0.000000
-3.486200 0.000000
-3.465800 0.000000
-3.445400 0.000000
-3.425000 0.000000
-3.404600 0.000000
-3.384200 0.000000
-3.363800 0.000000
-3.343400 0.000000
-3.323000 0.000000
-3.302600 0.000000
-3.282200 0.000000
-3.261800 0.000000
-3.241400 0.000000
-3.221000 0.000000
-3.200600 0.000000
-3.180200 0.000000
-3.159800 0.000000
-3.139400 0.000000
-3.119000 0.000000
-3.098600 0.000000
-3.078200 0.000000
-3.057800 0.000000
-3.037400 0.000000
-3.017000 0.000000
-2.996600 0.000000
-2.976200 0.000000
-2.955800 0.000000
-2.935400 0.000000
-2.915000 0.000000
-2.894600 0.000000
-2.874200 0.000000
-2.853800 0.000000
-2.833400 0.000000
-2.813000 0.000000
-2.792600 1.263100
-2.772200 2.953800
-2.751800 6.156300
-2.731400 6.455600
-2.711000 5.700800
-2.690600 6.186400
-2.670200 6.322100
-2.649800 6.556500
-2.629400 6.803900
-2.609000 7.045700
-2.588600 8.047800
-2.568200 8.655600
-2.547800 7.667600
-2.527400 5.870600
-2.507000 5.944100
-2.486600 6.035700
-2.466200 6.190700
-2.445800 7.469800
-2.425400 9.418700
-2.405000 8.815800
-2.384600 7.771700
-2.364200 7.525800
-2.343800 7.729900
-2.323400 8.165800
-2.303000 9.505700
-2.282600 8.524500
-2.262200 7.166500
-2.241800 6.855100
-2.221400 7.174000
-2.201000 9.363200
-2.180600 7.357000
-2.160200 7.231900
-2.139800 6.850400
-2.119400 6.571900
-2.099000 6.904500
-2.078600 7.390900
-2.058300 8.344400
-2.037900 9.727400
-2.017500 10.451000
-1.997100 7.046400
-1.976700 4.787600
-1.956300 2.759700
-1.935900 1.134900
-1.915500 1.620100
-1.895100 3.003200
-1.874700 4.996200
-1.854300 7.640000
-1.833900 9.012200
-1.813500 9.599100
-1.793100 7.951500
-1.772700 6.963200
-1.752300 6.427300
-1.731900 6.159300
-1.711500 6.039700
-1.691100 6.018100
-1.670700 6.140700
-1.650300 6.382500
-1.629900 6.462900
-1.609500 6.538900
-1.589100 6.627300
-1.568700 6.737500
-1.548300 6.853500
-1.527900 7.138400
-1.507500 7.232800
-1.487100 7.307100
-1.466700 7.607900
-1.446300 7.523400
-1.425900 8.316100
-1.405500 10.341700
-1.385100 8.929300
-1.364700 5.907300
-1.344300 5.097800
-1.323900 4.614200
-1.303500 4.383200
-1.283100 4.329500
-1.262700 4.304700
-1.242300 4.344100
-1.221900 4.986600
-1.201500 6.064900
-1.181100 5.890600
-1.160700 4.873400
-1.140300 4.326200
-1.119900 4.031900
-1.099500 3.866300
-1.079100 3.770400
-1.058700 3.736100
-1.038300 3.558100
-1.017900 3.505100
-0.997500 3.516300
-0.977100 3.390000
-0.956700 3.152600
-0.936300 2.932000
-0.915900 2.719000
-0.895500 2.948300
-0.875100 2.783400
-0.854700 2.001700
-0.834300 1.249900
-0.813900 0.780700
-0.793500 0.604200
-0.773100 0.470800
-0.752700 0.229800
-0.732300 0.000000
-0.711900 0.000000
-0.691500 0.000000
-0.671100 0.000000
-0.650700 0.000000
-0.630300 0.000000
-0.609900 0.000000
-0.589500 0.000000
-0.569100 0.000000
-0.548700 0.000000
-0.528300 0.000000
-0.507900 0.000000
-0.487500 0.000000
-0.467100 0.000000
-0.446700 0.000000
-0.426300 0.000000
-0.405900 0.000000
-0.385500 0.000000
-0.365100 0.000000
-0.344700 0.000000
-0.324300 0.000000
-0.303900 0.000000
-0.283500 0.219700
-0.263100 0.658700
-0.242700 0.983800
-0.222300 1.217500
-0.201900 1.507600
-0.181500 1.855500
-0.161200 2.232700
-0.140800 2.511800
-0.120400 2.776700
-0.100000 3.224900
-0.079600 3.792600
-0.059200 4.485600
-0.038800 5.158600
-0.018400 5.979600
0.002000 6.021200
0.022400 6.906800
0.042800 7.150300
0.063200 7.750600
0.083600 8.102700
0.104000 8.123200
0.124400 8.981000
0.144800 14.183900
0.165200 12.870300
0.185600 13.785500
0.206000 13.868900
0.226400 11.864800
0.246800 11.586300
0.267200 11.162800
0.287600 12.507200
0.308000 11.578300
0.328400 10.369200
0.348800 11.334100
0.369200 13.959100
0.389600 14.718600
0.410000 15.877000
0.430400 14.243900
0.450800 12.881100
0.471200 14.723800
0.491600 17.809100
0.512000 10.949400
0.532400 10.397200
0.552800 9.650200
0.573200 12.503100
0.593600 14.433200
0.614000 14.966100
0.634400 18.116100
0.654800 13.115700
0.675200 13.885300
0.695600 16.080800
0.716000 15.163800
0.736400 14.540200
0.756800 16.222400
0.777200 20.726200
0.797600 17.298500
0.818000 13.589800
0.838400 13.625100
0.858800 15.598000
0.879200 17.039800
0.899600 14.344000
0.920000 12.023100
0.940400 13.953400
0.960800 13.521300
0.981200 12.121500
1.001600 13.748500
1.022000 12.491700
1.042400 12.098200
1.062800 12.562100
1.083200 14.195300
1.103600 15.652800
1.124000 18.221800
1.144400 26.832600
1.164800 23.677300
1.185200 19.255000
1.205600 10.798400
1.226000 8.272000
1.246400 9.584900
1.266800 12.628700
1.287200 16.113100
1.307600 17.367200
1.328000 15.419300
1.348400 15.540500
1.368800 16.101600
1.389200 16.260500
1.409600 17.464400
1.430000 17.011800
1.450400 12.252100
1.470800 11.874400
1.491200 11.464800
1.511600 11.845700
1.532000 13.008400
1.552400 12.655200
1.572800 12.933600
1.593200 13.703300
1.613600 12.859400
1.634000 12.654300
1.654400 13.132800
1.674800 13.754500
1.695200 12.618300
1.715500 12.540900
1.735900 12.963200
1.756300 13.909700
1.776700 16.372500
1.797100 14.540400
1.817500 13.216600
1.837900 13.734600
1.858300 13.257400
1.878700 12.987300
1.899100 15.313300
1.919500 15.240400
1.939900 15.231900
1.960300 14.965900
1.980700 14.667600
2.001100 11.008500
2.021500 11.214600
2.041900 12.132500
2.062300 14.209300
2.082700 17.639200
2.103100 15.842400
2.123500 13.851000
2.143900 13.300800
2.164300 13.347900
2.184700 14.142800
2.205100 14.389500
2.225500 13.513900
2.245900 13.297900
2.266300 14.680700
2.286700 16.066400
2.307100 15.451100
2.327500 16.449800
2.347900 16.871500
2.368300 14.410000
2.388700 13.650800
2.409100 13.480800
2.429500 13.740700
2.449900 17.242300
2.470300 18.033500
2.490700 13.140500
2.511100 13.073000
2.531500 15.789000
2.551900 16.773800
2.572300 14.375100
2.592700 12.031100
2.613100 12.854700
2.633500 19.689200
2.653900 19.349900
2.674300 15.971300
2.694700 15.079800
2.715100 16.327900
2.735500 13.984100
2.755900 12.584200
2.776300 11.694900
2.796700 12.576900
2.817100 17.509100
2.837500 17.853900
2.857900 17.591600
2.878300 18.754800
2.898700 17.253800
2.919100 17.821400
2.939500 17.524600
2.959900 18.713500
2.980300 17.844400
3.000700 17.447800
3.021100 20.276800
3.041500 20.559400
3.061900 20.338000
3.082300 20.613200
3.102700 25.363500
3.123100 20.519000
3.143500 15.081500
3.163900 17.012700
3.184300 15.569900
3.204700 12.743900
3.225100 11.788200
3.245500 11.938300
3.265900 10.421500
3.286300 8.141100
3.306700 4.835600
3.327100 4.263700
3.347500 3.808100
3.367900 3.625400
3.388300 3.485500
3.408700 3.412300
3.429100 3.608700
3.449500 3.904700
3.469900 3.979400
3.490300 5.746400
3.510700 6.207300
3.531100 6.255500
3.551500 6.127100
3.571900 6.347400
3.592300 6.428600
3.612600 6.806400
3.633000 7.415500
3.653400 7.184200
3.673800 6.564400
3.694200 6.470900
3.714600 6.166100
3.735000 5.887300
3.755400 5.681500
3.775800 5.303700
3.796200 4.951600
3.816600 4.863500
3.837000 5.123100
3.857400 5.319100
3.877800 4.830000
3.898200 4.352000
3.918600 4.072100
3.939000 3.343800
3.959400 2.262600
3.979800 1.650700
4.000200 1.299000
4.020600 1.316600
4.041000 1.484400
4.061400 1.766800
4.081800 2.392900
4.102200 3.260900
4.122600 3.474900
4.143000 3.795000
4.163400 4.166800
4.183800 4.832900
4.204200 5.608300
4.224600 5.692500
4.245000 5.122200
4.265400 4.588800
4.285800 3.988600
4.306200 3.637600
4.326600 3.343200
4.347000 3.071900
4.367400 2.898700
4.387800 2.613400
4.408200 2.674200
4.428600 2.481500
4.449000 2.208300
4.469400 2.424800
4.489800 3.204000
4.510200 3.607300
4.530600 3.220300
4.551000 1.939100
4.571400 1.982900
4.591800 1.977700
4.612200 2.198400
4.632600 2.514400
4.653000 2.744900
4.673400 3.329700
4.693800 3.621800
4.714200 3.717000
4.734600 3.935700
4.755000 3.789100
4.775400 3.742500
4.795800 3.759000
4.816200 3.795000
4.836600 3.826000
4.857000 4.078800
4.877400 4.053500
4.897800 4.084700
4.918200 4.061600
4.938600 3.992200
4.959000 3.966900
4.979400 3.933300
4.999800 3.917800
5.020200 3.937800
5.040600 3.849000
5.061000 3.784800
5.081400 4.056800
5.101800 4.157600
5.122200 4.462000
5.142600 4.098700
5.163000 3.197300
5.183400 2.787100
5.203800 2.423500
5.224200 2.414200
5.244600 2.633800
5.265000 2.959100
5.285400 2.861400
5.305800 2.208400
5.326200 2.586000
5.346600 3.447000
5.367000 5.410000
5.387400 5.026700
5.407800 5.811300
5.428200 6.588500
5.448600 5.429300
5.469000 6.042300
5.489400 6.238000
5.509700 6.434600
5.530100 6.456700
5.550500 6.699100
5.570900 6.998200
5.591300 7.575400
5.611700 8.165800
5.632100 7.337200
5.652500 7.075800
5.672900 7.462100
5.693300 6.966900
5.713700 6.699900
5.734100 6.350200
5.754500 5.769500
5.774900 5.278500
5.795300 4.665400
5.815700 4.281300
5.836100 4.127700
5.856500 4.004400
5.876900 3.484800
5.897300 3.534700
5.917700 3.382900
5.938100 3.074700
5.958500 2.629800
5.978900 2.048400
5.999300 1.544500
6.019700 1.114400
6.040100 0.774400
6.060500 0.566600
6.080900 0.514200
6.101300 0.472500
6.121700 0.453800
6.142100 0.658500
6.162500 0.699200
6.182900 0.720000
6.203300 0.725700
6.223700 0.745200
6.244100 0.810000
6.264500 0.811400
6.284900 0.821300
6.305300 0.853400
6.325700 0.897900
6.346100 0.965100
6.366500 1.029700
6.386900 1.096900
6.407300 1.316700
6.427700 1.735100
6.448100 1.564200
6.468500 1.493100
6.488900 1.470700
6.509300 1.481200
6.529700 1.465700
6.550100 1.518000
6.570500 1.631900
6.590900 1.743800
6.611300 1.810600
6.631700 1.878400
6.652100 1.948200
6.672500 2.020300
6.692900 2.104800
6.713300 2.193300
6.733700 2.307400
6.754100 2.479300
6.774500 2.590100
6.794900 2.653200
6.815300 2.672400
6.835700 3.222800
6.856100 3.424900
6.876500 3.539800
6.896900 3.696700
6.917300 3.643600
6.937700 3.459100
6.958100 3.381200
6.978500 3.288100
6.998900 3.234500
7.019300 3.215000
7.039700 3.191300
7.060100 3.117500
7.080500 3.137000
7.100900 3.152100
7.121300 3.134500
7.141700 3.119000
7.162100 3.210300
7.182500 3.235500
7.202900 2.942800
7.223300 2.768500
7.243700 2.662900
7.264100 2.662400
7.284500 2.700700
7.304900 2.714700
7.325300 2.757300
7.345700 3.083800
7.366100 4.098500
7.386500 2.939400
7.406800 3.034900
7.427200 3.464600
7.447600 4.411600
7.468000 4.471100
7.488400 4.307100
7.508800 4.317500
7.529200 4.567800
7.549600 4.889500
7.570000 4.419600
7.590400 3.370000
7.610800 2.980300
7.631200 2.584100
7.651600 2.297800
7.672000 2.060600
7.692400 1.531800
7.712800 1.168000
7.733200 0.922100
7.753600 0.727700
7.774000 0.600500
7.794400 0.513700
7.814800 0.472100
7.835200 0.427500
7.855600 0.345600
7.876000 0.287700
7.896400 0.271100
7.916800 0.254200
7.937200 0.236900
7.957600 0.219000
7.978000 0.200700
7.998400 0.200700
8.018800 0.241200
8.039200 0.266400
8.059600 0.283300
8.080000 0.295700
8.100400 0.303700
8.120800 0.362300
8.141200 0.360500
8.161600 0.363500
8.182000 0.371300
8.202400 0.384000
8.222800 0.400000
8.243200 0.411800
8.263600 0.418600
8.284000 0.427500
8.304400 0.439000
8.324800 0.453000
8.345200 0.469600
8.365600 0.488800
8.386000 0.510700
8.406400 0.544600
8.426800 0.595300
8.447200 0.662800
8.467600 0.749600
8.488000 0.849000
8.508400 0.894800
8.528800 0.884400
8.549200 0.832400
8.569600 0.860000
8.590000 0.888700
8.610400 0.918100
8.630800 0.944300
8.651200 0.965300
8.671600 0.986800
8.692000 1.015100
8.712400 1.043100
8.732800 1.070200
8.753200 1.096600
8.773600 1.122200
8.794000 1.146500
8.814400 1.170000
8.834800 1.186200
8.855200 1.201100
8.875600 1.516800
8.896000 1.413600
8.916400 1.525400
8.936800 1.628300
8.957200 1.718100
8.977600 1.796100
8.998000 1.863800
9.018400 1.908500
9.038800 1.948200
9.059200 2.010100
9.079600 2.081700
9.100000 2.151100
9.120400 2.223400
9.140800 2.298600
9.161200 2.373900
9.181600 2.589300
9.202000 2.681300
9.222400 2.774500
9.242800 2.867400
9.263200 3.030000
9.283500 3.423800
9.303900 3.831700
9.324300 3.855200
9.344700 3.721200
9.365100 3.499800
9.385500 3.198100
9.405900 3.088200
9.426300 3.027100
9.446700 3.313800
9.467100 3.233900
9.487500 3.148600
9.507900 3.145100
9.528300 3.232200
9.548700 3.355100
9.569100 3.476900
9.589500 3.713900
9.609900 3.456900
9.630300 3.131300
9.650700 2.785200
9.671100 2.668200
9.691500 2.794900
9.711900 2.115400
9.732300 2.130500
9.752700 2.222400
9.773100 2.335700
9.793500 2.704900
9.813900 2.793400
9.834300 2.919200
9.854700 3.442200
9.875100 3.146500
9.895500 3.008100
9.915900 2.970200
9.936300 2.895500
9.956700 2.320100
9.977100 1.753400
9.997500 1.326700
10.017900 1.079400
10.038300 0.907900
10.058700 0.836300
10.079100 0.777400
10.099500 0.725600
10.119900 1.036200
10.140300 1.249300
10.160700 1.280900
10.181100 1.223100
10.201500 1.155400
10.221900 1.127500
10.242300 1.145300
10.262700 1.162600
10.283100 1.177400
10.303500 1.191000
10.323900 1.209400
10.344300 1.242600
10.364700 1.327100
10.385100 1.311300
10.405500 1.355800
10.425900 1.399400
10.446300 1.423800
10.466700 1.462500
10.487100 1.505300
10.507500 1.554600
10.527900 1.610100
10.548300 1.693700
10.568700 1.789300
10.589100 1.842000
10.609500 1.885700
10.629900 1.938900
10.650300 2.023500
10.670700 2.110100
10.691100 2.089900
10.711500 2.047200
10.731900 2.010800
10.752300 1.990200
10.772700 1.986800
10.793100 1.998800
10.813500 2.020600
10.833900 2.005800
10.854300 1.947800
10.874700 1.955800
10.895100 1.704000
10.915500 1.665700
10.935900 1.635800
10.956300 1.616200
10.976700 1.603600
10.997100 1.560300
11.017500 1.510900
11.037900 1.465800
11.058300 1.418400
11.078700 1.348100
11.099100 1.301600
11.119500 1.266500
11.139900 1.244700
11.160300 1.234600
11.180600 1.229700
11.201000 1.228300
11.221400 1.242800
11.241800 1.283800
11.262200 1.320000
11.282600 1.369600
11.303000 1.393100
11.323400 1.302200
11.343800 1.362300
11.364200 1.383300
11.384600 1.385100
11.405000 1.398100
11.425400 1.413800
11.445800 1.432300
11.466200 1.457100
11.486600 1.507900
11.507000 1.587300
11.527400 1.696200
11.547800 2.012200
11.568200 1.692000
11.588600 1.726800
11.609000 1.789400
11.629400 1.782100
11.649800 1.776700
11.670200 1.887700
11.690600 1.793900
11.711000 1.866400
11.731400 1.933200
11.751800 2.007100
11.772200 2.093600
11.792600 2.213200
11.813000 2.352600
11.833400 2.491600
11.853800 2.630200
11.874200 2.820600
11.894600 3.193000
11.915000 3.669900
11.935400 3.753300
11.955800 3.714300
11.976200 3.635300
11.996600 3.504900
12.017000 3.291800
12.037400 2.964000
12.057800 2.820400
12.078200 2.977600
12.098600 2.415900
12.119000 2.318500
12.139400 2.249900
12.159800 2.181800
12.180200 2.125500
12.200600 2.092800
12.221000 2.088200
12.241400 2.103400
12.261800 2.118500
12.282200 2.131300
12.302600 2.137500
12.323000 2.117400
12.343400 2.046700
12.363800 2.219500
12.384200 2.588700
12.404600 2.778800
12.425000 2.232600
12.445400 2.159900
12.465800 1.849800
12.486200 1.687500
12.506600 1.572500
12.527000 1.495700
12.547400 1.425900
12.567800 1.314800
12.588200 1.263000
12.608600 1.213400
12.629000 1.147400
12.649400 1.109100
12.669800 1.085700
12.690200 1.079200
12.710600 1.084200
12.731000 1.101100
12.751400 1.122100
12.771800 1.143000
12.792200 1.164100
12.812600 1.185200
12.833000 1.208900
12.853400 1.236300
12.873800 1.275700
12.894200 1.337400
12.914600 1.420600
12.935000 1.517400
12.955400 1.575400
12.975800 1.584800
12.996200 1.595300
13.016600 1.611600
13.037000 1.636000
13.057400 1.668900
13.077700 1.709000
13.098100 1.743100
13.118500 1.788100
13.138900 1.856400
13.159300 2.268200
13.179700 2.388500
13.200100 2.544400
13.220500 2.730300
13.240900 3.095300
13.261300 3.095600
13.281700 3.161700
13.302100 3.223100
13.322500 3.256400
13.342900 3.329300
13.363300 3.380800
13.383700 3.341200
13.404100 3.221100
13.424500 3.155500
13.444900 3.093000
13.465300 3.036600
13.485700 3.005200
13.506100 2.997000
13.526500 2.937700
13.546900 2.821100
13.567300 2.683200
13.587700 2.589000
13.608100 2.552900
13.628500 2.434000
13.648900 2.484500
13.669300 2.308500
13.689700 2.086500
13.710100 1.756600
13.730500 1.568900
13.750900 1.500800
13.771300 1.458900
13.791700 1.479700
13.812100 1.604700
13.832500 1.671500
13.852900 1.771600
13.873300 1.835000
13.893700 1.846600
13.914100 1.896000
13.934500 1.928500
13.954900 1.934800
13.975300 1.999000
13.995700 2.036900
14.016100 2.054300
14.036500 2.065500
14.056900 2.065400
14.077300 2.052800
14.097700 2.042800
14.118100 2.052200
14.138500 2.245600
14.158900 2.454500
14.179300 2.601500
14.199700 2.658100
14.220100 2.744800
14.240500 2.790300
14.260900 2.899700
14.281300 2.936500
14.301700 2.942200
14.322100 2.919200
14.342500 2.768200
14.362900 2.745800
14.383300 2.739700
14.403700 2.721600
14.424100 2.744000
14.444500 2.731800
14.464900 2.700400
14.485300 2.651700
14.505700 2.607300
14.526100 2.564500
14.546500 2.521400
14.566900 2.504900
14.587300 2.547200
14.607700 2.640100
14.628100 2.687600
14.648500 2.685700
14.668900 2.623800
14.689300 2.554500
14.709700 2.565100
14.730100 2.577700
14.750500 2.659500
14.770900 2.773700
14.791300 2.757200
14.811700 2.784600
14.832100 2.807300
14.852500 2.831800
14.872900 2.846700
14.893300 2.846200
14.913700 2.879600
14.934100 2.727100
14.954500 2.822000
14.974800 2.898500
14.995200 2.985100
15.015600 3.063000
15.036000 3.112800
15.056400 3.157200
15.076800 3.140500
15.097200 3.033500
15.117600 2.977300
15.138000 2.940700
15.158400 2.890900
15.178800 2.839300
15.199200 2.825800
15.219600 3.191400
15.240000 3.312600
15.260400 3.336300
15.280800 3.391900
15.301200 3.419700
15.321600 3.448600
15.342000 3.493300
15.362400 3.553400
15.382800 3.604300
15.403200 3.684200
15.423600 3.794000
15.444000 3.911100
15.464400 4.071900
15.484800 4.080700
15.505200 3.936300
15.525600 3.855000
15.546000 3.812700
15.566400 3.277700
15.586800 3.241700
15.607200 3.245500
15.627600 3.224200
15.648000 3.169300
15.668400 3.073500
15.688800 2.923600
15.709200 2.828000
15.729600 2.820200
15.750000 2.903500
15.770400 2.962000
15.790800 2.958100
15.811200 3.003000
15.831600 3.207100
15.852000 3.459600
15.872400 3.722800
15.892800 3.740800
15.913200 3.569800
15.933600 3.488000
15.954000 3.464100
15.974400 3.438900
15.994800 3.434000
16.015200 3.389800
16.035600 3.314300
16.056000 3.280900
16.076400 3.383200
16.096800 3.599900
16.117200 3.793500
16.137600 3.900400
16.158000 3.906900
16.178400 3.914000
16.198800 4.016200
16.219200 4.096300
16.239600 4.064700
16.260000 4.002000
16.280400 4.028500
16.300800 4.071900
16.321200 4.114600
16.341600 4.156700
16.362000 4.108000
16.382400 4.043100
16.402800 3.985600
16.423200 3.937800
16.443600 3.895600
16.464000 3.861900
16.484400 3.749800
16.504800 3.638900
16.525200 3.601000
16.545600 3.759500
16.566000 3.909600
16.586400 4.027600
16.606800 4.182300
16.627200 4.170500
16.647600 4.546800
16.668000 4.542500
16.688400 4.398200
16.708800 4.107200
16.729200 3.905300
16.749600 3.674400
16.770000 3.315700
16.790400 3.104600
16.810800 3.291300
16.831200 2.924800
16.851500 2.662500
16.871900 2.569200
16.892300 2.489400
16.912700 2.420100
16.933100 2.360200
16.953500 2.374500
16.973900 2.408900
16.994300 2.473700
17.014700 2.543000
17.035100 2.469000
17.055500 2.334900
17.075900 2.168200
17.096300 2.085000
17.116700 1.907200
17.137100 1.873800
17.157500 1.911200
17.177900 1.948600
17.198300 1.965000
17.218700 1.971200
17.239100 2.013500
17.259500 2.051600
17.279900 2.073900
17.300300 2.096300
17.320700 2.115400
17.341100 2.128600
17.361500 2.133900
17.381900 2.131600
17.402300 2.121700
17.422700 2.108900
17.443100 2.098800
17.463500 2.086300
17.483900 2.069800
17.504300 2.061700
17.524700 2.061600
17.545100 2.070400
17.565500 2.091300
17.585900 2.127100
17.606300 2.181400
17.626700 2.256600
17.647100 2.345900
17.667500 2.427000
17.687900 2.543200
17.708300 2.625700
17.728700 2.666900
17.749100 2.663000
17.769500 2.699100
17.789900 2.910000
17.810300 2.860200
17.830700 2.831500
17.851100 2.816800
17.871500 2.777200
17.891900 2.753200
17.912300 3.453300
17.932700 2.842700
17.953100 2.745900
17.973500 2.723700
17.993900 2.709100
18.014300 2.704600
18.034700 2.693700
18.055100 2.670800
18.075500 2.587300
18.095900 2.566400
18.116300 2.638700
18.136700 2.903700
18.157100 2.651300
18.177500 2.447300
18.197900 2.325100
18.218300 2.268000
18.238700 2.274300
18.259100 2.290200
18.279500 2.316100
18.299900 2.376600
18.320300 2.408600
18.340700 2.445300
18.361100 2.492900
18.381500 2.601900
18.401900 2.697100
18.422300 2.763100
18.442700 2.805000
18.463100 2.833200
18.483500 2.871100
18.503900 2.935600
18.524300 2.979700
18.544700 2.997300
18.565100 3.003000
18.585500 2.972500
18.605900 2.912600
18.626300 2.869600
18.646700 2.813200
18.667100 2.746600
18.687500 2.692000
18.707900 2.676200
18.728300 2.717200
18.748600 2.694900
18.769000 2.624800
18.789400 2.610300
18.809800 2.609000
18.830200 2.609500
18.850600 2.612600
18.871000 2.629600
18.891400 2.640100
18.911800 2.685200
18.932200 2.720800
18.952600 2.740700
18.973000 2.752700
18.993400 2.736600
19.013800 2.731000
19.034200 2.796200
19.054600 2.912800
19.075000 3.034400
19.095400 3.010500
19.115800 3.007500
19.136200 3.061900
19.156600 3.105600
19.177000 3.136300
19.197400 3.140400
19.217800 3.122900
19.238200 3.061400
19.258600 2.961500
19.279000 2.858700
19.299400 2.763200
19.319800 2.698600
19.340200 2.664700
19.360600 2.650100
19.381000 2.659400
19.401400 2.619600
19.421800 2.562700
19.442200 2.509500
19.462600 2.424600
19.483000 2.198600
19.503400 2.040200
19.523800 2.143800
19.544200 2.255500
19.564600 2.757800
19.585000 3.180600
19.605400 3.041300
19.625800 3.169500
19.646200 3.321600
19.666600 3.501000
19.687000 3.749400
19.707400 4.012500
19.727800 4.206900
19.748200 4.357100
19.768600 4.445200
19.789000 4.460400
19.809400 4.383000
19.829800 4.287900
19.850200 4.035200
19.870600 3.925500
19.891000 3.803300
19.911400 3.715600
19.931800 3.615100
19.952200 3.630600
19.972600 3.578400
19.993000 3.587000
20.013400 4.237000
20.033800 4.107600
20.054200 4.517600
20.074600 4.789800
20.095000 4.713500
20.115400 4.549700
20.135800 4.407200
20.156200 4.586600
20.176600 4.313000
20.197000 4.405800
20.217400 4.777000
20.237800 5.119400
20.258200 5.155600
20.278600 5.184500
20.299000 5.188400
20.319400 5.148300
20.339800 5.223100
20.360200 6.293700
20.380600 6.164300
20.401000 6.156200
20.421400 5.798600
20.441800 4.987000
20.462200 4.466300
20.482600 4.256000
20.503000 4.164600
20.523400 4.084200
20.543800 4.009300
20.564200 3.971700
20.584600 3.918800
20.605000 3.900700
20.625400 3.912100
20.645700 3.712500
20.666100 3.996200
20.686500 4.002000
20.706900 3.895000
20.727300 3.969300
20.747700 4.065900
20.768100 4.194400
20.788500 4.186800
20.808900 4.333100
20.829300 5.116100
20.849700 4.867700
20.870100 4.562100
20.890500 4.068400
20.910900 3.331000
20.931300 2.765900
20.951700 2.710300
20.972100 2.683800
20.992500 2.672500
21.012900 2.675300
21.033300 2.751900
21.053700 2.934200
21.074100 3.216000
21.094500 3.814700
21.114900 4.383600
21.135300 4.663700
21.155700 4.730200
21.176100 4.591000
21.196500 4.671400
21.216900 5.046300
21.237300 4.603500
21.257700 4.334100
21.278100 4.193000
21.298500 4.068100
21.318900 3.963600
21.339300 3.887900
21.359700 3.770800
21.380100 3.360000
21.400500 3.217600
21.420900 3.098000
21.441300 2.993400
21.461700 2.984700
21.482100 2.889600
21.502500 2.980100
21.522900 3.120900
21.543300 3.387900
21.563700 3.763800
21.584100 4.171800
21.604500 4.520700
21.624900 4.748000
21.645300 4.666400
21.665700 4.536400
21.686100 4.489100
21.706500 4.481000
21.726900 4.408700
21.747300 4.294400
21.767700 4.209300
21.788100 4.091200
21.808500 4.169200
21.828900 4.081900
21.849300 4.092800
21.869700 4.063200
21.890100 3.881100
21.910500 3.989400
21.930900 4.051500
21.951300 4.003700
21.971700 3.915800
21.992100 3.921900
22.012500 3.772800
22.032900 3.544700
22.053300 3.466200
22.073700 3.560700
22.094100 3.654000
22.114500 3.486600
22.134900 3.251900
22.155300 3.449800
22.175700 3.224500
22.196100 3.219900
22.216500 3.236900
22.236900 3.296500
22.257300 3.381500
22.277700 3.757500
22.298100 4.086600
22.318500 4.197900
22.338900 4.614800
22.359300 4.676400
22.379700 4.564000
22.400100 4.429900
22.420500 4.410000
22.440900 4.488400
22.461300 4.544000
22.481700 4.721500
22.502100 4.872600
22.522400 4.762500
22.542800 4.650400
22.563200 4.563200
22.583600 4.465900
22.604000 4.341400
22.624400 4.685700
22.644800 5.196500
22.665200 5.473600
22.685600 5.713900
22.706000 5.843700
22.726400 5.907400
22.746800 5.944900
22.767200 6.118200
22.787600 6.376700
22.808000 6.343900
22.828400 6.520600
22.848800 6.860300
22.869200 6.265100
22.889600 6.182700
22.910000 6.595500
22.930400 6.407100
22.950800 5.765300
22.971200 5.354600
22.991600 4.872900
23.012000 4.381400
23.032400 3.953800
23.052800 3.627800
23.073200 3.607000
23.093600 3.371900
23.114000 3.197100
23.134400 3.132000
23.154800 3.181300
23.175200 3.248300
23.195600 3.401600
23.216000 4.071100
23.236400 5.036400
23.256800 5.541100
23.277200 5.542500
23.297600 5.068100
23.318000 4.523300
23.338400 4.004400
23.358800 3.857700
23.379200 3.883800
23.399600 4.186300
23.420000 4.049600
23.440400 3.722000
23.460800 3.809800
23.481200 4.009600
23.501600 4.224600
23.522000 4.420200
23.542400 4.637400
23.562800 4.781500
23.583200 4.842300
23.603600 4.827500
23.624000 4.715700
23.644400 4.843100
23.664800 4.451300
23.685200 4.053900
23.705600 3.979800
23.726000 3.922900
23.746400 3.860700
23.766800 3.806100
23.787200 3.843400
23.807600 3.694600
23.828000 3.441000
23.848400 3.349900
23.868800 3.269100
23.889200 3.186400
23.909600 3.094800
23.930000 2.996700
23.950400 2.910800
23.970800 2.836000
23.991200 2.751400
24.011600 2.662300
24.032000 2.586300
24.052400 2.517600
24.072800 2.505300
24.093200 2.439600
24.113600 2.376700
24.134000 2.321800
24.154400 2.282900
24.174800 2.259500
24.195200 2.250600
24.215600 2.243100
24.236000 2.202000
24.256400 2.134000
24.276800 2.067100
24.297200 2.000700
24.317600 1.949800
24.338000 1.904900
24.358400 1.870500
24.378800 1.854800
24.399200 1.859500
24.419500 1.840700
24.439900 1.845800
24.460300 1.838000
24.480700 1.816100
24.501100 1.721800
24.521500 1.591600
24.541900 1.477000
24.562300 1.394600
24.582700 1.328800
24.603100 1.273800
24.623500 1.052700
24.643900 1.041100
24.664300 1.029900
24.684700 1.013900
24.705100 0.992800
24.725500 0.966400
24.745900 0.937600
24.766300 0.909200
24.786700 0.888200
24.807100 0.875400
24.827500 0.870500
24.847900 0.868100
24.868300 0.867300
24.888700 0.872400
24.909100 0.868700
24.929500 0.861000
24.949900 0.856700
24.970300 0.952800
24.990700 0.905600
25.011100 0.857800
25.031500 0.848100
25.051900 0.842100
25.072300 0.841800
25.092700 0.850300
25.113100 0.875100
25.133500 0.915500
25.153900 0.937000
25.174300 0.926700
25.194700 0.926200
25.215100 0.953300
25.235500 0.949300
25.255900 0.924700
25.276300 0.891300
25.296700 0.855000
25.317100 0.816700
25.337500 0.779300
25.357900 0.897600
25.378300 0.751700
25.398700 0.714700
25.419100 0.687200
25.439500 0.702600
25.459900 0.642600
25.480300 0.550300
25.500700 0.449500
25.521100 0.376700
25.541500 0.295000
25.561900 0.054500
25.582300 0.000000
25.602700 0.000000
25.623100 0.000000
25.643500 0.000000
25.663900 0.000000
25.684300 0.000000
25.704700 0.000000
25.725100 0.000000
25.745500 0.000000
25.765900 0.000000
25.786300 0.000000
25.806700 0.000000
25.827100 0.000000
25.847500 0.000000
25.867900 0.000000
25.888300 0.000000
25.908700 0.000000
25.929100 0.000000
25.949500 0.000000
25.969900 0.000000
25.990300 0.000000
26.010700 0.000000
26.031100 0.000000
26.051500 0.000000
26.071900 0.000000
26.092300 0.000000
26.112700 0.000000
26.133100 0.000000
26.153500 0.000000
26.173900 0.000000
26.194300 0.000000
26.214700 0.000000
26.235100 0.000000
26.255500 0.000000
26.275900 0.000000
26.296300 0.000000
26.316600 0.000000
26.337000 0.000000
26.357400 0.000000
26.377800 0.000000
26.398200 0.000000
26.418600 0.000000
26.439000 0.000000
26.459400 0.000000
26.479800 0.000000
26.500200 0.000000
26.520600 0.000000
26.541000 0.000000
26.561400 0.000000
26.581800 0.000000
26.602200 0.000000
26.622600 0.000000
26.643000 0.000000
26.663400 0.000000
26.683800 0.000000
26.704200 0.000000
26.724600 0.000000
26.745000 0.000000
26.765400 0.000000
26.785800 0.000000
26.806200 0.000000
26.826600 0.000000
26.847000 0.000000
26.867400 0.000000
26.887800 0.000000
26.908200 0.000000
26.928600 0.000000
26.949000 0.000000
26.969400 0.000000
26.989800 0.000000
27.010200 0.000000
27.030600 0.000000
27.051000 0.000000
27.071400 0.000000
27.091800 0.000000
27.112200 0.000000
27.132600 0.000000
27.153000 0.000000
27.173400 0.000000
27.193800 0.000000
27.214200 0.000000
27.234600 0.000000
27.255000 0.000000
27.275400 0.000000
27.295800 0.000000
27.316200 0.000000
27.336600 0.000000
27.357000 0.000000
27.377400 0.000000
27.397800 0.000000
27.418200 0.000000
e
