set title 'mp-571197 - Density of States'
set xlabel 'Energy (eV)'
set ylabel 'DOS (states/eV)'
set grid
set xrange [-10:10]
set yrange [0:942.116]
set xzeroaxis lt -1
set terminal png size 800,600
set output 'mp-571197_dos_gnuplot.png'
plot '-' using 1:2 with lines title 'DOS'
-11.986400 0.000000
-11.973400 0.000000
-11.960400 0.000000
-11.947500 0.000000
-11.934500 0.000000
-11.921500 0.000000
-11.908500 0.000000
-11.895500 0.000000
-11.882500 0.000000
-11.869500 0.000000
-11.856500 0.000000
-11.843600 0.000000
-11.830600 0.000000
-11.817600 0.000000
-11.804600 0.000000
-11.791600 0.000000
-11.778600 0.000000
-11.765600 0.000000
-11.752600 0.000000
-11.739700 0.000000
-11.726700 0.000000
-11.713700 0.000000
-11.700700 0.000000
-11.687700 0.000000
-11.674700 0.000000
-11.661700 0.000000
-11.648800 0.000000
-11.635800 0.000000
-11.622800 0.000000
-11.609800 0.000000
-11.596800 0.000000
-11.583800 0.000000
-11.570800 0.000000
-11.557800 0.000000
-11.544900 0.000000
-11.531900 0.000000
-11.518900 0.000000
-11.505900 0.000000
-11.492900 0.000000
-11.479900 0.000000
-11.466900 0.000000
-11.453900 0.000000
-11.441000 0.000000
-11.428000 0.000000
-11.415000 0.000000
-11.402000 0.000000
-11.389000 0.000000
-11.376000 0.000000
-11.363000 0.000000
-11.350000 0.000000
-11.337100 0.000000
-11.324100 0.000000
-11.311100 0.000000
-11.298100 0.000000
-11.285100 0.000000
-11.272100 0.000000
-11.259100 0.000000
-11.246100 0.000000
-11.233200 0.000000
-11.220200 0.000000
-11.207200 0.000000
-11.194200 0.000000
-11.181200 0.000000
-11.168200 0.000000
-11.155200 0.000000
-11.142300 0.000000
-11.129300 0.000000
-11.116300 0.000000
-11.103300 0.000000
-11.090300 0.000000
-11.077300 0.000000
-11.064300 0.000000
-11.051300 0.000000
-11.038400 0.000000
-11.025400 0.000000
-11.012400 0.000000
-10.999400 0.000000
-10.986400 0.000000
-10.973400 0.000000
-10.960400 0.000000
-10.947400 0.000000
-10.934500 0.000000
-10.921500 0.000000
-10.908500 0.000000
-10.895500 0.000000
-10.882500 0.000000
-10.869500 0.000000
-10.856500 0.000000
-10.843500 0.000000
-10.830600 0.000000
-10.817600 0.000000
-10.804600 0.041300
-10.791600 0.727100
-10.778600 2.105900
-10.765600 3.732900
-10.752600 6.071700
-10.739600 8.818000
-10.726700 12.147200
-10.713700 13.985800
-10.700700 13.754300
-10.687700 14.625400
-10.674700 14.708400
-10.661700 13.285400
-10.648700 13.755700
-10.635800 14.226000
-10.622800 14.696300
-10.609800 15.166600
-10.596800 15.636900
-10.583800 16.107200
-10.570800 16.589800
-10.557800 17.128400
-10.544800 17.693000
-10.531900 18.315200
-10.518900 19.003400
-10.505900 19.721200
-10.492900 20.438000
-10.479900 21.146600
-10.466900 21.847500
-10.453900 22.538200
-10.440900 23.228800
-10.428000 23.919500
-10.415000 24.610200
-10.402000 25.300900
-10.389000 25.991600
-10.376000 27.442100
-10.363000 31.032800
-10.350000 41.745200
-10.337000 61.508100
-10.324100 70.794300
-10.311100 102.533100
-10.298100 107.054100
-10.285100 120.538200
-10.272100 131.292700
-10.259100 153.894100
-10.246100 236.739600
-10.233100 234.806400
-10.220200 271.627200
-10.207200 0.000000
-10.194200 0.000000
-10.181200 0.000000
-10.168200 0.000000
-10.155200 0.000000
-10.142200 0.000000
-10.129300 0.000000
-10.116300 0.000000
-10.103300 0.000000
-10.090300 0.000000
-10.077300 0.000000
-10.064300 0.000000
-10.051300 0.000000
-10.038300 0.000000
-10.025400 0.000000
-10.012400 0.000000
-9.999400 0.000000
-9.986400 0.000000
-9.973400 0.000000
-9.960400 0.000000
-9.947400 0.000000
-9.934400 0.000000
-9.921500 0.000000
-9.908500 0.000000
-9.895500 0.000000
-9.882500 0.000000
-9.869500 0.000000
-9.856500 0.000000
-9.843500 0.000000
-9.830500 0.000000
-9.817600 0.000000
-9.804600 0.000000
-9.791600 0.000000
-9.778600 0.000000
-9.765600 0.000000
-9.752600 0.000000
-9.739600 0.000000
-9.726600 0.000000
-9.713700 0.000000
-9.700700 0.000000
-9.687700 0.000000
-9.674700 0.000000
-9.661700 0.000000
-9.648700 0.000000
-9.635700 0.000000
-9.622800 0.000000
-9.609800 0.000000
-9.596800 0.000000
-9.583800 0.000000
-9.570800 0.000000
-9.557800 0.000000
-9.544800 0.000000
-9.531800 0.000000
-9.518900 0.000000
-9.505900 0.000000
-9.492900 0.000000
-9.479900 0.000000
-9.466900 0.000000
-9.453900 0.000000
-9.440900 0.000000
-9.427900 0.000000
-9.415000 0.000000
-9.402000 0.000000
-9.389000 0.000000
-9.376000 0.000000
-9.363000 0.000000
-9.350000 0.000000
-9.337000 0.000000
-9.324000 0.000000
-9.311100 0.000000
-9.298100 0.000000
-9.285100 0.000000
-9.272100 0.000000
-9.259100 0.000000
-9.246100 0.000000
-9.233100 0.000000
-9.220100 0.000000
-9.207200 0.000000
-9.194200 0.000000
-9.181200 0.000000
-9.168200 0.000000
-9.155200 0.000000
-9.142200 0.000000
-9.129200 0.000000
-9.116300 0.000000
-9.103300 0.000000
-9.090300 0.000000
-9.077300 0.000000
-9.064300 0.000000
-9.051300 0.000000
-9.038300 0.000000
-9.025300 0.000000
-9.012400 0.000000
-8.999400 0.000000
-8.986400 0.000000
-8.973400 0.000000
-8.960400 0.000000
-8.947400 0.000000
-8.934400 0.000000
-8.921400 0.000000
-8.908500 0.000000
-8.895500 0.000000
-8.882500 0.000000
-8.869500 0.000000
-8.856500 0.000000
-8.843500 0.000000
-8.830500 0.000000
-8.817500 0.000000
-8.804600 0.000000
-8.791600 0.000000
-8.778600 0.000000
-8.765600 0.000000
-8.752600 0.000000
-8.739600 0.000000
-8.726600 0.000000
-8.713600 0.000000
-8.700700 0.000000
-8.687700 0.000000
-8.674700 0.000000
-8.661700 0.000000
-8.648700 0.000000
-8.635700 0.000000
-8.622700 0.000000
-8.609800 0.000000
-8.596800 0.000000
-8.583800 0.000000
-8.570800 0.000000
-8.557800 0.000000
-8.544800 0.000000
-8.531800 0.000000
-8.518800 0.000000
-8.505900 0.000000
-8.492900 0.000000
-8.479900 0.000000
-8.466900 0.000000
-8.453900 0.000000
-8.440900 0.000000
-8.427900 0.000000
-8.414900 0.000000
-8.402000 0.000000
-8.389000 0.000000
-8.376000 0.000000
-8.363000 0.000000
-8.350000 0.000000
-8.337000 0.000000
-8.324000 0.000000
-8.311000 0.000000
-8.298100 0.000000
-8.285100 0.000000
-8.272100 0.000000
-8.259100 0.000000
-8.246100 0.000000
-8.233100 0.000000
-8.220100 0.000000
-8.207100 0.000000
-8.194200 0.000000
-8.181200 0.000000
-8.168200 0.000000
-8.155200 0.000000
-8.142200 0.000000
-8.129200 0.000000
-8.116200 0.000000
-8.103300 0.000000
-8.090300 0.000000
-8.077300 0.000000
-8.064300 0.000000
-8.051300 0.000000
-8.038300 0.000000
-8.025300 0.000000
-8.012300 0.000000
-7.999400 0.000000
-7.986400 0.000000
-7.973400 0.000000
-7.960400 0.000000
-7.947400 0.000000
-7.934400 0.000000
-7.921400 0.000000
-7.908400 0.000000
-7.895500 0.000000
-7.882500 0.000000
-7.869500 0.000000
-7.856500 0.000000
-7.843500 0.000000
-7.830500 0.000000
-7.817500 0.000000
-7.804500 0.000000
-7.791600 0.000000
-7.778600 0.000000
-7.765600 0.000000
-7.752600 0.000000
-7.739600 0.000000
-7.726600 0.000000
-7.713600 0.000000
-7.700600 0.000000
-7.687700 0.000000
-7.674700 0.000000
-7.661700 0.000000
-7.648700 0.000000
-7.635700 0.000000
-7.622700 0.000000
-7.609700 0.000000
-7.596800 0.000000
-7.583800 0.000000
-7.570800 0.000000
-7.557800 0.000000
-7.544800 0.000000
-7.531800 0.000000
-7.518800 0.000000
-7.505800 0.000000
-7.492900 0.000000
-7.479900 0.000000
-7.466900 0.000000
-7.453900 0.000000
-7.440900 0.000000
-7.427900 0.000000
-7.414900 0.000000
-7.401900 0.000000
-7.389000 0.000000
-7.376000 0.000000
-7.363000 0.000000
-7.350000 0.000000
-7.337000 0.000000
-7.324000 0.000000
-7.311000 0.000000
-7.298000 0.000000
-7.285100 0.000000
-7.272100 0.000000
-7.259100 0.000000
-7.246100 0.000000
-7.233100 0.000000
-7.220100 0.000000
-7.207100 0.000000
-7.194100 0.000000
-7.181200 0.000000
-7.168200 0.000000
-7.155200 0.000000
-7.142200 0.000000
-7.129200 0.000000
-7.116200 0.000000
-7.103200 0.000000
-7.090300 0.000000
-7.077300 0.000000
-7.064300 0.000000
-7.051300 0.000000
-7.038300 0.000000
-7.025300 0.000000
-7.012300 0.000000
-6.999300 0.000000
-6.986400 0.000000
-6.973400 0.000000
-6.960400 0.000000
-6.947400 0.000000
-6.934400 0.000000
-6.921400 0.000000
-6.908400 0.000000
-6.895400 0.000000
-6.882500 0.000000
-6.869500 0.000000
-6.856500 0.000000
-6.843500 0.000000
-6.830500 0.000000
-6.817500 0.000000
-6.804500 0.000000
-6.791500 0.000000
-6.778600 0.000000
-6.765600 0.000000
-6.752600 0.000000
-6.739600 0.000000
-6.726600 0.000000
-6.713600 0.000000
-6.700600 0.000000
-6.687600 0.000000
-6.674700 0.000000
-6.661700 0.000000
-6.648700 0.000000
-6.635700 0.000000
-6.622700 0.000000
-6.609700 0.000000
-6.596700 0.000000
-6.583800 0.000000
-6.570800 0.000000
-6.557800 0.000000
-6.544800 0.000000
-6.531800 0.000000
-6.518800 0.000000
-6.505800 92.288200
-6.492800 169.259100
-6.479900 338.688000
-6.466900 272.666900
-6.453900 146.838700
-6.440900 111.378600
-6.427900 105.603700
-6.414900 105.124400
-6.401900 418.551600
-6.388900 285.600800
-6.376000 210.895900
-6.363000 86.718900
-6.350000 138.941300
-6.337000 649.754000
-6.324000 847.475800
-6.311000 217.754900
-6.298000 856.468900
-6.285000 70.390300
-6.272100 202.768200
-6.259100 108.588300
-6.246100 92.910200
-6.233100 77.232000
-6.220100 133.165000
-6.207100 0.000000
-6.194100 0.000000
-6.181100 0.000000
-6.168200 0.000000
-6.155200 0.000000
-6.142200 0.000000
-6.129200 0.000000
-6.116200 0.000000
-6.103200 0.000000
-6.090200 0.000000
-6.077300 0.000000
-6.064300 0.000000
-6.051300 0.000000
-6.038300 0.000000
-6.025300 0.000000
-6.012300 0.000000
-5.999300 0.000000
-5.986300 0.000000
-5.973400 0.000000
-5.960400 0.000000
-5.947400 0.000000
-5.934400 0.000000
-5.921400 0.000000
-5.908400 0.000000
-5.895400 0.000000
-5.882400 0.000000
-5.869500 0.000000
-5.856500 0.000000
-5.843500 0.000000
-5.830500 0.000000
-5.817500 0.000000
-5.804500 0.000000
-5.791500 0.000000
-5.778500 0.000000
-5.765600 0.000000
-5.752600 0.000000
-5.739600 0.000000
-5.726600 0.000000
-5.713600 0.000000
-5.700600 0.000000
-5.687600 0.000000
-5.674700 0.000000
-5.661700 0.000000
-5.648700 0.000000
-5.635700 0.000000
-5.622700 0.000000
-5.609700 0.000000
-5.596700 0.000000
-5.583700 0.000000
-5.570800 0.000000
-5.557800 0.000000
-5.544800 0.000000
-5.531800 0.000000
-5.518800 0.000000
-5.505800 0.000000
-5.492800 0.000000
-5.479800 0.000000
-5.466900 0.000000
-5.453900 0.000000
-5.440900 0.000000
-5.427900 0.000000
-5.414900 0.000000
-5.401900 0.000000
-5.388900 0.000000
-5.375900 0.000000
-5.363000 0.000000
-5.350000 0.000000
-5.337000 0.000000
-5.324000 0.000000
-5.311000 0.000000
-5.298000 0.000000
-5.285000 0.000000
-5.272000 0.000000
-5.259100 0.000000
-5.246100 0.000000
-5.233100 0.000000
-5.220100 0.000000
-5.207100 0.000000
-5.194100 0.000000
-5.181100 0.000000
-5.168200 0.000000
-5.155200 0.000000
-5.142200 0.000000
-5.129200 0.000000
-5.116200 0.000000
-5.103200 0.000000
-5.090200 0.000000
-5.077200 0.000000
-5.064300 0.000000
-5.051300 0.000000
-5.038300 0.000000
-5.025300 0.000000
-5.012300 0.000000
-4.999300 0.000000
-4.986300 0.000000
-4.973300 0.000000
-4.960400 0.000000
-4.947400 0.000000
-4.934400 0.000000
-4.921400 0.000000
-4.908400 0.000000
-4.895400 0.000000
-4.882400 0.000000
-4.869400 0.000000
-4.856500 0.000000
-4.843500 0.000000
-4.830500 0.000000
-4.817500 0.000000
-4.804500 0.000000
-4.791500 0.000000
-4.778500 0.000000
-4.765500 0.000000
-4.752600 0.000000
-4.739600 0.000000
-4.726600 0.000000
-4.713600 0.000000
-4.700600 0.000000
-4.687600 0.000000
-4.674600 0.000000
-4.661700 0.000000
-4.648700 0.000000
-4.635700 0.000000
-4.622700 0.000000
-4.609700 0.000000
-4.596700 0.000000
-4.583700 0.000000
-4.570700 0.000000
-4.557800 0.000000
-4.544800 0.000000
-4.531800 0.000000
-4.518800 0.000000
-4.505800 0.000000
-4.492800 0.000000
-4.479800 0.000000
-4.466800 0.000000
-4.453900 0.000000
-4.440900 0.000000
-4.427900 0.000000
-4.414900 0.000000
-4.401900 0.000000
-4.388900 0.000000
-4.375900 0.000000
-4.362900 0.000000
-4.350000 0.000000
-4.337000 0.000000
-4.324000 0.000000
-4.311000 0.000000
-4.298000 0.000000
-4.285000 0.000000
-4.272000 0.000000
-4.259000 0.000000
-4.246100 0.000000
-4.233100 0.000000
-4.220100 0.000000
-4.207100 0.000000
-4.194100 0.000000
-4.181100 0.000000
-4.168100 0.000000
-4.155200 0.000000
-4.142200 0.000000
-4.129200 0.000000
-4.116200 0.000000
-4.103200 0.000000
-4.090200 0.000000
-4.077200 0.000000
-4.064200 0.000000
-4.051300 0.000000
-4.038300 0.000000
-4.025300 0.000000
-4.012300 0.000000
-3.999300 0.000000
-3.986300 0.000000
-3.973300 0.000000
-3.960300 0.000000
-3.947400 0.000000
-3.934400 0.000000
-3.921400 0.000000
-3.908400 0.000000
-3.895400 0.000000
-3.882400 0.000000
-3.869400 0.000000
-3.856400 0.000000
-3.843500 0.000000
-3.830500 0.000000
-3.817500 0.000000
-3.804500 0.000000
-3.791500 0.000000
-3.778500 0.000000
-3.765500 0.000000
-3.752500 0.000000
-3.739600 0.000000
-3.726600 0.000000
-3.713600 0.000000
-3.700600 0.000000
-3.687600 0.000000
-3.674600 0.000000
-3.661600 0.000000
-3.648700 0.000000
-3.635700 0.000000
-3.622700 0.000000
-3.609700 0.000000
-3.596700 0.000000
-3.583700 0.000000
-3.570700 0.000000
-3.557700 0.000000
-3.544800 0.000000
-3.531800 0.000000
-3.518800 0.000000
-3.505800 0.000000
-3.492800 0.000000
-3.479800 0.000000
-3.466800 0.000000
-3.453800 0.000000
-3.440900 0.000000
-3.427900 0.000000
-3.414900 0.000000
-3.401900 0.000000
-3.388900 0.000000
-3.375900 0.000000
-3.362900 0.000000
-3.349900 0.000000
-3.337000 0.000000
-3.324000 0.000000
-3.311000 0.000000
-3.298000 0.000000
-3.285000 0.000000
-3.272000 0.000000
-3.259000 0.000000
-3.246000 0.000000
-3.233100 0.000000
-3.220100 0.000000
-3.207100 0.000000
-3.194100 0.000000
-3.181100 0.000000
-3.168100 0.000000
-3.155100 0.000000
-3.142200 0.000000
-3.129200 0.000000
-3.116200 0.000000
-3.103200 0.000000
-3.090200 0.000000
-3.077200 0.000000
-3.064200 0.000000
-3.051200 0.000000
-3.038300 0.000000
-3.025300 0.000000
-3.012300 0.000000
-2.999300 0.000000
-2.986300 0.000000
-2.973300 0.000000
-2.960300 0.000000
-2.947300 0.000000
-2.934400 0.000000
-2.921400 0.000000
-2.908400 0.000000
-2.895400 0.000000
-2.882400 0.000000
-2.869400 0.000000
-2.856400 0.000000
-2.843400 0.000000
-2.830500 0.000000
-2.817500 0.000000
-2.804500 0.000000
-2.791500 0.000000
-2.778500 0.000000
-2.765500 0.000000
-2.752500 0.000000
-2.739500 0.000000
-2.726600 0.000000
-2.713600 0.000000
-2.700600 0.000000
-2.687600 0.000000
-2.674600 0.000000
-2.661600 0.000000
-2.648600 0.000000
-2.635700 0.000000
-2.622700 0.000000
-2.609700 0.000000
-2.596700 0.000000
-2.583700 12.499600
-2.570700 32.107800
-2.557700 22.234200
-2.544700 45.325600
-2.531800 46.333400
-2.518800 42.086800
-2.505800 48.045800
-2.492800 50.433300
-2.479800 47.164200
-2.466800 39.458200
-2.453800 35.888900
-2.440800 35.088500
-2.427900 31.891100
-2.414900 26.827800
-2.401900 26.339800
-2.388900 22.298900
-2.375900 22.021000
-2.362900 18.757800
-2.349900 18.671700
-2.336900 18.585600
-2.324000 18.499400
-2.311000 18.946900
-2.298000 19.893200
-2.285000 21.684200
-2.272000 26.459600
-2.259000 31.998400
-2.246000 32.455300
-2.233000 33.196200
-2.220100 35.934800
-2.207100 12.641500
-2.194100 11.069600
-2.181100 11.464900
-2.168100 11.858600
-2.155100 11.962800
-2.142100 12.004400
-2.129200 12.023000
-2.116200 12.005400
-2.103200 25.069200
-2.090200 4.260000
-2.077200 4.166300
-2.064200 4.072700
-2.051200 3.979000
-2.038200 3.885300
-2.025300 3.791600
-2.012300 3.698000
-1.999300 7.151700
-1.986300 8.056100
-1.973300 4.520900
-1.960300 0.985800
-1.947300 0.000000
-1.934300 0.000000
-1.921400 0.000000
-1.908400 0.000000
-1.895400 0.000000
-1.882400 0.000000
-1.869400 0.000000
-1.856400 0.000000
-1.843400 0.000000
-1.830400 0.000000
-1.817500 0.000000
-1.804500 0.000000
-1.791500 0.000000
-1.778500 0.000000
-1.765500 0.000000
-1.752500 0.000000
-1.739500 0.000000
-1.726500 0.000000
-1.713600 0.000000
-1.700600 0.000000
-1.687600 0.000000
-1.674600 5.132500
-1.661600 3.790000
-1.648600 7.597500
-1.635600 10.413800
-1.622700 7.750700
-1.609700 6.885900
-1.596700 12.626800
-1.583700 10.882400
-1.570700 9.204700
-1.557700 8.565000
-1.544700 13.169100
-1.531700 21.145500
-1.518800 17.388700
-1.505800 13.710200
-1.492800 19.162000
-1.479800 18.129100
-1.466800 17.139700
-1.453800 17.789100
-1.440800 18.438500
-1.427800 19.087900
-1.414900 19.737300
-1.401900 20.386700
-1.388900 30.817700
-1.375900 23.406200
-1.362900 52.791000
-1.349900 22.358300
-1.336900 19.630500
-1.323900 16.902600
-1.311000 19.087800
-1.298000 13.850700
-1.285000 14.050400
-1.272000 20.750500
-1.259000 17.442900
-1.246000 14.135200
-1.233000 19.475900
-1.220000 9.860400
-1.207100 21.604900
-1.194100 12.118400
-1.181100 7.499000
-1.168100 7.407600
-1.155100 7.889400
-1.142100 8.412700
-1.129100 8.400000
-1.116200 8.395600
-1.103200 9.024100
-1.090200 9.063500
-1.077200 9.765800
-1.064200 9.840600
-1.051200 9.917700
-1.038200 11.371200
-1.025200 11.505100
-1.012300 12.315500
-0.999300 12.475800
-0.986300 12.636100
-0.973300 12.796400
-0.960300 12.954300
-0.947300 13.110600
-0.934300 13.267000
-0.921300 13.416100
-0.908400 13.562300
-0.895400 13.708400
-0.882400 13.840100
-0.869400 13.971000
-0.856400 14.102000
-0.843400 14.232900
-0.830400 14.363800
-0.817400 14.494700
-0.804500 14.625600
-0.791500 14.756500
-0.778500 14.887500
-0.765500 15.496600
-0.752500 16.189900
-0.739500 17.333600
-0.726500 18.659000
-0.713500 21.147200
-0.700600 22.977100
-0.687600 25.147900
-0.674600 25.495500
-0.661600 27.084400
-0.648600 28.860500
-0.635600 29.173600
-0.622600 29.494400
-0.609700 29.875000
-0.596700 29.350100
-0.583700 31.481700
-0.570700 32.100600
-0.557700 33.656600
-0.544700 32.406200
-0.531700 32.946600
-0.518700 31.602900
-0.505800 31.615000
-0.492800 31.622300
-0.479800 31.474300
-0.466800 31.371500
-0.453800 31.456500
-0.440800 31.564500
-0.427800 31.672500
-0.414800 31.780500
-0.401900 31.176700
-0.388900 31.478000
-0.375900 31.858300
-0.362900 32.635000
-0.349900 32.798900
-0.336900 33.586600
-0.323900 34.374300
-0.310900 35.074400
-0.298000 35.748600
-0.285000 35.769200
-0.272000 35.662400
-0.259000 34.880400
-0.246000 34.054100
-0.233000 31.811500
-0.220000 31.699200
-0.207000 27.014200
-0.194100 26.309200
-0.181100 28.026800
-0.168100 26.693900
-0.155100 25.303600
-0.142100 27.742600
-0.129100 24.442500
-0.116100 21.331600
-0.103200 20.661300
-0.090200 20.034300
-0.077200 19.947400
-0.064200 19.354400
-0.051200 18.731800
-0.038200 18.131900
-0.025200 17.535100
-0.012200 16.928100
0.000700 16.361700
0.013700 15.852500
0.026700 15.372500
0.039700 14.941500
0.052700 14.596000
0.065700 14.271300
0.078700 14.050000
0.091700 13.817700
0.104600 14.524800
0.117600 14.517600
0.130600 14.509700
0.143600 14.499800
0.156600 14.496200
0.169600 15.557900
0.182600 17.248200
0.195600 17.878100
0.208500 18.508000
0.221500 19.140400
0.234500 19.775000
0.247500 20.417000
0.260500 22.182100
0.273500 25.219000
0.286500 25.475800
0.299500 25.618000
0.312400 26.614700
0.325400 29.930800
0.338400 31.883900
0.351400 32.700600
0.364400 36.800500
0.377400 39.208600
0.390400 41.149100
0.403300 42.323300
0.416300 44.548900
0.429300 45.759700
0.442300 47.288700
0.455300 46.600800
0.468300 58.900500
0.481300 65.572800
0.494300 70.188300
0.507200 73.553600
0.520200 51.009300
0.533200 49.621700
0.546200 66.426000
0.559200 45.817100
0.572200 40.746000
0.585200 41.369300
0.598200 40.709400
0.611100 48.018900
0.624100 47.166200
0.637100 39.310900
0.650100 59.262600
0.663100 57.625600
0.676100 50.688800
0.689100 64.693100
0.702100 56.240300
0.715000 67.509600
0.728000 55.396500
0.741000 53.406100
0.754000 53.501200
0.767000 48.554100
0.780000 45.986000
0.793000 43.417900
0.806000 41.221900
0.818900 36.154100
0.831900 33.410000
0.844900 28.991800
0.857900 26.197100
0.870900 23.607800
0.883900 20.993400
0.896900 23.457500
0.909800 39.534900
0.922800 20.269200
0.935800 8.965100
0.948800 6.336100
0.961800 22.276500
0.974800 0.000000
0.987800 0.000000
1.000800 0.000000
1.013700 0.000000
1.026700 0.000000
1.039700 0.000000
1.052700 0.000000
1.065700 0.000000
1.078700 0.000000
1.091700 0.000000
1.104700 0.000000
1.117600 0.000000
1.130600 0.000000
1.143600 0.000000
1.156600 0.000000
1.169600 0.000000
1.182600 0.000000
1.195600 0.000000
1.208600 0.000000
1.221500 0.000000
1.234500 0.000000
1.247500 0.000000
1.260500 0.000000
1.273500 0.000000
1.286500 0.000000
1.299500 0.000000
1.312500 0.000000
1.325400 0.000000
1.338400 0.000000
1.351400 0.000000
1.364400 0.000000
1.377400 0.000000
1.390400 0.000000
1.403400 0.000000
1.416300 0.000000
1.429300 0.000000
1.442300 0.000000
1.455300 0.000000
1.468300 0.000000
1.481300 0.000000
1.494300 0.000000
1.507300 0.000000
1.520200 0.000000
1.533200 0.000000
1.546200 0.000000
1.559200 0.000000
1.572200 0.000000
1.585200 0.000000
1.598200 0.000000
1.611200 0.000000
1.624100 0.000000
1.637100 0.000000
1.650100 0.000000
1.663100 0.000000
1.676100 0.000000
1.689100 0.000000
1.702100 0.000000
1.715100 0.000000
1.728000 0.000000
1.741000 0.000000
1.754000 0.000000
1.767000 0.000000
1.780000 0.000000
1.793000 0.000000
1.806000 0.000000
1.819000 0.000000
1.831900 0.000000
1.844900 0.000000
1.857900 0.000000
1.870900 0.000000
1.883900 0.000000
1.896900 0.000000
1.909900 0.000000
1.922800 0.000000
1.935800 0.000000
1.948800 0.000000
1.961800 0.000000
1.974800 0.000000
1.987800 0.000000
2.000800 0.000000
2.013800 0.000000
2.026700 0.000000
2.039700 0.000000
2.052700 0.000000
2.065700 0.000000
2.078700 0.000000
2.091700 0.000000
2.104700 0.000000
2.117700 0.000000
2.130600 0.000000
2.143600 0.000000
2.156600 0.000000
2.169600 0.000000
2.182600 0.000000
2.195600 0.000000
2.208600 0.000000
2.221600 0.000000
2.234500 0.000000
2.247500 0.000000
2.260500 0.000000
2.273500 0.000000
2.286500 0.000000
2.299500 0.000000
2.312500 0.000000
2.325500 0.000000
2.338400 0.000000
2.351400 0.000000
2.364400 0.000000
2.377400 0.000000
2.390400 0.000000
2.403400 0.000000
2.416400 0.000000
2.429300 0.000000
2.442300 0.000000
2.455300 0.000000
2.468300 0.000000
2.481300 0.000000
2.494300 0.000000
2.507300 0.000000
2.520300 0.000000
2.533200 0.000000
2.546200 0.000000
2.559200 0.000000
2.572200 0.000000
2.585200 0.000000
2.598200 0.000000
2.611200 0.000000
2.624200 0.000000
2.637100 0.000000
2.650100 0.000000
2.663100 0.000000
2.676100 0.000000
2.689100 0.000000
2.702100 0.000000
2.715100 0.000000
2.728100 0.000000
2.741000 0.000000
2.754000 0.000000
2.767000 0.000000
2.780000 0.000000
2.793000 0.000000
2.806000 0.000000
2.819000 0.000000
2.831900 0.000000
2.844900 0.000000
2.857900 0.000000
2.870900 0.000000
2.883900 0.000000
2.896900 0.000000
2.909900 0.000000
2.922900 0.000000
2.935800 0.000000
2.948800 0.000000
2.961800 0.000000
2.974800 0.000000
2.987800 0.000000
3.000800 0.000000
3.013800 0.000000
3.026800 0.000000
3.039700 0.000000
3.052700 0.000000
3.065700 0.000000
3.078700 0.000000
3.091700 0.000000
3.104700 0.000000
3.117700 0.000000
3.130700 0.000000
3.143600 0.000000
3.156600 0.000000
3.169600 0.000000
3.182600 0.000000
3.195600 0.000000
3.208600 0.000000
3.221600 0.000000
3.234600 0.000000
3.247500 0.000000
3.260500 0.000000
3.273500 0.000000
3.286500 0.000000
3.299500 0.000000
3.312500 0.000000
3.325500 0.000000
3.338400 0.000000
3.351400 0.000000
3.364400 0.000000
3.377400 0.000000
3.390400 0.000500
3.403400 0.010000
3.416400 0.843600
3.429400 0.892400
3.442300 1.831900
3.455300 1.917800
3.468300 2.890900
3.481300 3.015800
3.494300 3.140800
3.507300 3.265700
3.520300 4.463700
3.533300 4.619200
3.546200 4.774700
3.559200 6.170200
3.572200 6.375600
3.585200 6.581100
3.598200 8.081700
3.611200 9.693700
3.624200 9.930300
3.637200 10.166900
3.650100 10.403500
3.663100 10.640100
3.676100 10.876600
3.689100 11.113200
3.702100 11.349800
3.715100 11.586400
3.728100 12.156400
3.741100 12.744900
3.754000 13.505400
3.767000 14.388200
3.780000 15.280300
3.793000 16.249500
3.806000 17.240100
3.819000 18.230600
3.832000 19.221200
3.844900 20.222700
3.857900 21.382700
3.870900 22.542600
3.883900 23.702500
3.896900 21.319300
3.909900 22.746100
3.922900 28.287400
3.935900 31.891000
3.948800 22.426300
3.961800 20.733000
3.974800 26.153800
3.987800 25.312100
4.000800 27.749500
4.013800 26.262800
4.026800 27.555400
4.039800 30.159600
4.052700 28.663000
4.065700 27.711200
4.078700 25.892000
4.091700 23.534700
4.104700 22.105400
4.117700 20.170900
4.130700 19.140100
4.143700 18.109300
4.156600 16.743000
4.169600 16.331000
4.182600 17.577700
4.195600 16.070900
4.208600 14.564100
4.221600 16.422700
4.234600 12.533800
4.247600 9.029000
4.260500 7.069500
4.273500 9.120300
4.286500 12.005700
4.299500 5.491600
4.312500 6.379200
4.325500 0.000000
4.338500 0.000000
4.351400 0.000000
4.364400 0.000000
4.377400 0.000000
4.390400 0.000000
4.403400 0.000000
4.416400 0.000000
4.429400 0.000000
4.442400 0.000000
4.455300 0.000000
4.468300 0.000000
4.481300 0.000000
4.494300 0.000000
4.507300 0.000000
4.520300 0.000000
4.533300 0.000000
4.546300 0.000000
4.559200 0.000000
4.572200 0.000000
4.585200 0.000000
4.598200 0.000000
4.611200 0.000000
4.624200 0.000000
4.637200 0.000000
4.650200 0.000000
4.663100 0.000000
4.676100 0.000000
4.689100 0.000000
4.702100 0.000000
4.715100 0.000000
4.728100 0.000000
4.741100 0.000000
4.754100 0.000000
4.767000 0.000000
4.780000 0.000000
4.793000 0.000000
4.806000 0.000000
4.819000 0.000000
4.832000 0.000000
4.845000 0.000000
4.857900 0.000000
4.870900 0.000000
4.883900 0.000000
4.896900 0.000000
4.909900 0.000000
4.922900 0.000000
4.935900 0.000000
4.948900 0.000000
4.961800 0.000000
4.974800 0.000000
4.987800 0.000000
5.000800 0.000000
5.013800 0.000000
5.026800 0.000000
5.039800 0.000000
5.052800 0.000000
5.065700 0.000000
5.078700 0.000000
5.091700 0.000000
5.104700 0.000000
5.117700 0.000000
5.130700 0.000000
5.143700 0.000000
5.156700 0.000000
5.169600 0.000000
5.182600 0.000000
5.195600 0.000000
5.208600 0.000000
5.221600 0.000000
5.234600 0.000000
5.247600 0.000000
5.260600 0.000000
5.273500 0.000000
5.286500 0.000000
5.299500 0.000000
5.312500 0.000000
5.325500 0.000000
5.338500 0.000000
5.351500 0.000000
5.364400 0.000000
5.377400 0.000000
5.390400 0.000000
5.403400 0.000000
5.416400 0.000000
5.429400 0.000000
5.442400 0.000000
5.455400 0.000000
5.468300 0.000000
5.481300 0.010700
5.494300 0.049100
5.507300 0.113200
5.520300 0.177900
5.533300 0.242600
5.546300 0.307300
5.559300 0.372000
5.572200 0.436700
5.585200 0.501400
5.598200 0.566100
5.611200 0.630800
5.624200 0.695500
5.637200 0.760200
5.650200 0.824900
5.663200 0.889600
5.676100 0.954300
5.689100 1.019000
5.702100 1.083700
5.715100 1.148400
5.728100 1.213100
5.741100 1.277800
5.754100 1.342500
5.767100 1.407200
5.780000 1.471900
5.793000 1.536600
5.806000 1.601300
5.819000 1.666000
5.832000 1.730700
5.845000 1.795400
5.858000 1.860100
5.870900 1.924800
5.883900 1.989500
5.896900 2.054200
5.909900 2.118900
5.922900 2.183600
5.935900 2.248300
5.948900 2.313000
5.961900 2.377700
5.974800 2.442400
5.987800 3.395100
6.000800 5.761000
6.013800 6.880900
6.026800 8.261500
6.039800 8.247000
6.052800 8.794800
6.065800 9.177400
6.078700 9.585200
6.091700 10.656700
6.104700 11.243600
6.117700 11.970300
6.130700 12.612000
6.143700 13.175900
6.156700 13.842600
6.169700 13.895200
6.182600 14.489200
6.195600 14.599400
6.208600 14.709600
6.221600 15.333100
6.234600 15.485700
6.247600 15.638300
6.260600 15.790900
6.273600 15.943600
6.286500 16.096200
6.299500 16.248800
6.312500 16.401400
6.325500 16.554000
6.338500 16.706600
6.351500 16.859200
6.364500 16.914700
6.377400 19.989600
6.390400 19.624300
6.403400 19.258900
6.416400 18.893600
6.429400 18.528300
6.442400 18.007500
6.455400 17.612600
6.468400 24.689000
6.481300 27.793800
6.494300 24.430000
6.507300 21.066200
6.520300 17.702400
6.533300 16.595000
6.546300 16.178900
6.559300 15.762800
6.572300 15.265000
6.585200 14.875800
6.598200 14.582400
6.611200 12.914400
6.624200 11.973300
6.637200 13.493200
6.650200 15.266500
6.663200 17.039700
6.676200 13.209000
6.689100 13.707000
6.702100 16.130700
6.715100 14.493800
6.728100 14.204600
6.741100 13.915400
6.754100 15.914800
6.767100 17.851400
6.780100 17.361300
6.793000 14.962400
6.806000 14.172300
6.819000 12.412300
6.832000 11.877200
6.845000 11.342000
6.858000 10.806800
6.871000 10.271600
6.883900 9.960400
6.896900 13.755300
6.909900 13.143600
6.922900 12.572700
6.935900 15.811500
6.948900 14.611300
6.961900 13.411000
6.974900 12.481600
6.987800 10.983400
7.000800 11.084500
7.013800 11.210500
7.026800 12.184100
7.039800 13.735700
7.052800 16.824300
7.065800 16.238000
7.078800 19.953600
7.091700 18.955900
7.104700 20.034300
7.117700 24.610500
7.130700 23.385700
7.143700 21.615400
7.156700 22.713600
7.169700 22.490500
7.182700 22.334700
7.195600 26.308300
7.208600 20.720100
7.221600 22.141900
7.234600 51.588200
7.247600 24.886900
7.260600 24.280700
7.273600 23.137700
7.286600 23.611100
7.299500 22.073300
7.312500 15.168700
7.325500 15.586700
7.338500 16.522700
7.351500 17.458700
7.364500 18.394700
7.377500 19.330800
7.390400 20.280500
7.403400 29.375100
7.416400 24.689500
7.429400 27.818500
7.442400 28.513600
7.455400 31.526500
7.468400 33.623500
7.481400 31.752600
7.494300 26.933800
7.507300 26.667900
7.520300 29.008500
7.533300 30.741500
7.546300 32.552700
7.559300 35.189400
7.572300 35.819700
7.585300 36.533200
7.598200 36.650500
7.611200 36.372600
7.624200 37.080500
7.637200 34.313700
7.650200 33.262800
7.663200 34.155600
7.676200 44.611200
7.689200 33.001600
7.702100 39.266100
7.715100 31.083800
7.728100 28.907200
7.741100 32.316000
7.754100 31.784300
7.767100 30.269100
7.780100 28.754000
7.793100 27.306000
7.806000 24.608200
7.819000 24.217400
7.832000 24.332800
7.845000 24.943300
7.858000 27.855200
7.871000 30.247200
7.884000 32.772900
7.896900 25.219500
7.909900 24.103000
7.922900 26.729800
7.935900 25.899900
7.948900 30.768200
7.961900 27.878900
7.974900 25.555300
7.987900 23.207400
8.000800 23.967300
8.013800 23.532700
8.026800 23.098000
8.039800 22.663400
8.052800 26.523200
8.065800 29.698700
8.078800 29.072500
8.091800 28.446200
8.104700 29.711400
8.117700 28.887200
8.130700 28.127000
8.143700 27.366800
8.156700 30.498500
8.169700 29.891300
8.182700 29.284100
8.195700 35.811200
8.208600 31.483600
8.221600 27.811800
8.234600 28.201200
8.247600 43.579600
8.260600 27.005500
8.273600 24.865600
8.286600 22.511500
8.299600 20.204100
8.312500 18.369400
8.325500 19.636300
8.338500 17.448200
8.351500 15.260100
8.364500 13.483600
8.377500 11.531600
8.390500 10.328100
8.403400 9.529800
8.416400 9.320500
8.429400 9.111100
8.442400 8.901800
8.455400 8.692400
8.468400 7.931100
8.481400 7.687500
8.494400 7.444000
8.507300 7.200500
8.520300 6.956900
8.533300 6.713400
8.546300 7.274900
8.559300 6.971900
8.572300 6.855300
8.585300 6.738700
8.598300 6.622200
8.611200 6.043500
8.624200 5.970200
8.637200 5.897000
8.650200 5.835000
8.663200 5.797600
8.676200 6.036700
8.689200 6.579300
8.702200 8.084200
8.715100 10.028800
8.728100 11.973500
8.741100 13.918100
8.754100 11.125500
8.767100 7.770100
8.780100 7.800600
8.793100 8.216800
8.806100 8.633000
8.819000 8.653600
8.832000 8.631200
8.845000 8.821700
8.858000 9.012200
8.871000 13.762200
8.884000 13.857700
8.897000 12.070400
8.909900 10.935800
8.922900 10.634400
8.935900 10.333100
8.948900 10.031800
8.961900 9.730400
8.974900 9.429100
8.987900 9.127800
9.000900 9.367700
9.013800 10.032800
9.026800 10.189600
9.039800 11.674100
9.052800 16.906100
9.065800 14.842900
9.078800 16.342900
9.091800 17.147300
9.104800 21.030200
9.117700 18.929100
9.130700 17.176400
9.143700 22.061100
9.156700 17.478900
9.169700 17.289000
9.182700 19.545100
9.195700 21.801100
9.208700 23.072700
9.221600 24.335600
9.234600 26.584300
9.247600 24.975000
9.260600 22.641700
9.273600 26.273200
9.286600 24.916800
9.299600 28.084200
9.312600 17.812600
9.325500 17.458500
9.338500 21.943700
9.351500 34.513000
9.364500 29.582600
9.377500 26.438300
9.390500 20.709100
9.403500 22.098100
9.416400 23.696500
9.429400 25.407300
9.442400 27.118100
9.455400 24.252400
9.468400 24.349900
9.481400 24.609100
9.494400 24.928500
9.507400 25.642200
9.520300 21.449500
9.533300 28.874000
9.546300 20.145700
9.559300 19.259500
9.572300 19.017100
9.585300 18.774800
9.598300 26.669300
9.611300 24.861700
9.624200 23.076800
9.637200 22.204500
9.650200 47.945900
9.663200 20.516100
9.676200 21.366600
9.689200 20.440400
9.702200 21.244600
9.715200 22.068400
9.728100 22.947600
9.741100 21.950500
9.754100 24.152300
9.767100 19.905200
9.780100 22.043200
9.793100 25.414200
9.806100 22.012700
9.819100 22.630900
9.832000 23.597100
9.845000 23.099100
9.858000 24.202900
9.871000 25.464200
9.884000 24.235200
9.897000 22.203200
9.910000 21.556700
9.922900 23.975300
9.935900 25.296600
9.948900 24.638200
9.961900 27.893800
9.974900 28.241100
9.987900 30.393800
10.000900 23.153000
10.013900 22.366900
10.026800 25.985600
10.039800 15.965200
10.052800 17.102300
10.065800 20.963100
10.078800 25.261700
10.091800 29.560200
10.104800 16.864100
10.117800 17.030400
10.130700 17.342800
10.143700 21.169400
10.156700 18.885700
10.169700 18.886400
10.182700 20.121800
10.195700 21.357200
10.208700 22.592600
10.221700 17.052600
10.234600 14.621400
10.247600 15.698100
10.260600 15.487500
10.273600 15.998100
10.286600 15.792800
10.299600 15.587600
10.312600 15.382400
10.325600 15.363300
10.338500 16.215400
10.351500 17.067400
10.364500 17.919500
10.377500 15.140100
10.390500 17.232900
10.403500 19.419800
10.416500 15.314100
10.429400 15.584600
10.442400 16.813800
10.455400 13.828100
10.468400 13.898300
10.481400 13.969000
10.494400 14.067000
10.507400 14.164900
10.520400 14.262900
10.533300 14.360800
10.546300 11.813700
10.559300 11.698900
10.572300 11.584100
10.585300 11.544800
10.598300 11.511300
10.611300 11.487500
10.624300 11.463800
10.637200 11.443800
10.650200 11.446700
10.663200 11.452400
10.676200 11.458100
10.689200 12.457800
10.702200 17.266700
10.715200 13.481600
10.728200 13.494100
10.741100 11.927800
10.754100 11.884300
10.767100 11.832300
10.780100 11.780300
10.793100 12.783300
10.806100 14.971800
10.819100 17.270200
10.832100 14.304500
10.845000 14.347800
10.858000 14.391100
10.871000 14.359500
10.884000 14.351900
10.897000 14.360600
10.910000 14.377600
10.923000 14.394600
10.935900 15.330600
10.948900 16.621600
10.961900 16.657400
10.974900 16.693200
10.987900 17.202300
11.000900 17.154500
11.013900 17.103800
11.026900 17.000600
11.039800 18.519100
11.052800 18.324800
11.065800 18.130500
11.078800 17.936200
11.091800 17.741800
11.104800 21.369100
11.117800 21.129700
11.130800 20.890600
11.143700 21.905700
11.156700 21.359600
11.169700 20.816300
11.182700 22.494500
11.195700 21.729600
11.208700 20.980200
11.221700 22.046000
11.234700 21.145900
11.247600 20.814800
11.260600 19.890900
11.273600 19.680800
11.286600 19.072400
11.299600 18.559000
11.312600 18.099600
11.325600 21.896700
11.338500 20.337700
11.351500 18.803600
11.364500 20.647400
11.377500 19.906500
11.390500 19.546900
11.403500 18.842500
11.416500 21.890800
11.429500 22.118400
11.442400 22.450400
11.455400 22.782300
11.468400 23.099400
11.481400 23.428500
11.494400 18.521600
11.507400 17.511100
11.520400 16.978000
11.533400 16.524000
11.546300 16.281400
11.559300 14.993200
11.572300 14.725000
11.585300 14.493900
11.598300 14.271000
11.611300 15.013200
11.624300 17.471100
11.637300 19.380800
11.650200 22.720600
11.663200 20.891800
11.676200 19.093700
11.689200 18.506400
11.702200 15.252200
11.715200 15.154000
11.728200 15.068700
11.741200 21.765200
11.754100 16.332100
11.767100 16.325100
11.780100 16.318100
11.793100 15.145800
11.806100 15.573800
11.819100 13.987500
11.832100 13.967900
11.845000 13.993300
11.858000 14.018700
11.871000 12.566100
11.884000 12.558900
11.897000 12.562500
11.910000 12.632000
11.923000 12.722100
11.936000 11.462000
11.948900 11.595900
11.961900 11.796600
11.974900 11.997400
11.987900 12.781700
12.000900 13.139800
12.013900 13.497900
12.026900 12.525200
12.039900 12.850400
12.052800 13.175500
12.065800 11.674700
12.078800 13.927500
12.091800 14.547000
12.104800 16.366500
12.117800 10.912900
12.130800 11.291800
12.143800 11.204700
12.156700 11.835400
12.169700 10.752200
12.182700 11.242500
12.195700 11.732700
12.208700 12.222900
12.221700 13.204100
12.234700 14.221200
12.247700 14.457900
12.260600 14.561200
12.273600 14.664600
12.286600 12.828800
12.299600 12.771200
12.312600 12.713500
12.325600 14.820300
12.338600 14.187800
12.351500 13.555300
12.364500 12.922800
12.377500 13.737200
12.390500 13.664900
12.403500 12.540200
12.416500 11.482000
12.429500 10.423700
12.442500 9.736500
12.455400 10.049500
12.468400 10.022200
12.481400 8.353400
12.494400 7.596600
12.507400 6.839700
12.520400 6.371500
12.533400 6.010600
12.546400 5.649700
12.559300 5.288800
12.572300 4.927800
12.585300 4.670300
12.598300 3.674800
12.611300 3.788200
12.624300 3.901500
12.637300 4.014900
12.650300 4.128300
12.663200 5.788900
12.676200 5.216600
12.689200 4.644300
12.702200 4.072000
12.715200 3.499600
12.728200 2.927300
12.741200 2.355000
12.754200 1.782700
12.767100 1.282500
12.780100 0.867600
12.793100 0.452700
12.806100 0.037700
12.819100 0.000000
12.832100 0.000000
12.845100 0.000000
12.858000 0.000000
12.871000 0.000000
12.884000 0.000000
12.897000 0.000000
12.910000 0.000000
12.923000 0.000000
12.936000 0.000000
12.949000 0.000000
12.961900 0.000000
12.974900 0.000000
12.987900 0.000000
13.000900 0.000000
13.013900 0.000000
13.026900 0.000000
13.039900 0.000000
13.052900 0.000000
13.065800 0.000000
13.078800 0.000000
13.091800 0.000000
13.104800 0.000000
13.117800 0.000000
13.130800 0.000000
13.143800 0.000000
13.156800 0.000000
13.169700 0.000000
13.182700 0.000000
13.195700 0.000000
13.208700 0.000000
13.221700 0.000000
13.234700 0.000000
13.247700 0.000000
13.260700 0.000000
13.273600 0.000000
13.286600 0.000000
13.299600 0.000000
13.312600 0.000000
13.325600 0.000000
13.338600 0.000000
13.351600 0.000000
13.364500 0.000000
13.377500 0.000000
13.390500 0.000000
13.403500 0.000000
13.416500 0.000000
13.429500 0.000000
13.442500 0.000000
13.455500 0.000000
13.468400 0.000000
13.481400 0.000000
13.494400 0.000000
13.507400 0.000000
13.520400 0.000000
13.533400 0.000000
13.546400 0.000000
13.559400 0.000000
13.572300 0.000000
13.585300 0.000000
13.598300 0.000000
13.611300 0.000000
13.624300 0.000000
13.637300 0.000000
13.650300 0.000000
13.663300 0.000000
13.676200 0.000000
13.689200 0.000000
13.702200 0.000000
13.715200 0.000000
13.728200 0.000000
13.741200 0.000000
13.754200 0.000000
13.767200 0.000000
13.780100 0.000000
13.793100 0.000000
13.806100 0.000000
13.819100 0.000000
13.832100 0.000000
13.845100 0.000000
13.858100 0.000000
13.871000 0.000000
13.884000 0.000000
13.897000 0.000000
13.910000 0.000000
13.923000 0.000000
13.936000 0.000000
13.949000 0.000000
13.962000 0.000000
13.974900 0.000000
13.987900 0.000000
e
