set title 'mp-1224976 - Density of States'
set xlabel 'Energy (eV)'
set ylabel 'DOS (states/eV)'
set grid
set xrange [-10:10]
set yrange [0:4.722]
set xzeroaxis lt -1
set terminal png size 800,600
set output 'mp-1224976_dos_gnuplot.png'
plot '-' using 1:2 with lines title 'DOS'
-64.018600 0.000000
-63.947500 0.000000
-63.876500 0.000000
-63.805400 0.000000
-63.734300 0.000000
-63.663200 0.000000
-63.592200 0.000000
-63.521100 0.000000
-63.450000 0.000000
-63.378900 0.000000
-63.307900 0.000000
-63.236800 0.000000
-63.165700 0.000000
-63.094600 0.000000
-63.023600 0.000000
-62.952500 0.000000
-62.881400 0.000000
-62.810300 0.000000
-62.739300 0.000000
-62.668200 0.000000
-62.597100 0.000000
-62.526000 0.000000
-62.455000 0.000000
-62.383900 0.000000
-62.312800 0.000000
-62.241700 0.000000
-62.170700 0.000000
-62.099600 0.000000
-62.028500 0.000000
-61.957400 0.000000
-61.886400 0.000000
-61.815300 0.000000
-61.744200 0.000000
-61.673200 0.000000
-61.602100 0.000000
-61.531000 0.000000
-61.459900 0.000000
-61.388900 0.000000
-61.317800 0.000000
-61.246700 0.000000
-61.175600 0.000000
-61.104600 0.000000
-61.033500 0.000000
-60.962400 0.000000
-60.891300 0.000000
-60.820300 0.000000
-60.749200 0.000000
-60.678100 0.000000
-60.607000 0.000000
-60.536000 0.000000
-60.464900 0.000000
-60.393800 0.000000
-60.322700 0.000000
-60.251700 0.000000
-60.180600 0.000000
-60.109500 0.000000
-60.038400 0.000000
-59.967400 0.000000
-59.896300 0.000000
-59.825200 0.000000
-59.754100 0.000000
-59.683100 0.000000
-59.612000 0.000000
-59.540900 0.000000
-59.469800 0.000000
-59.398800 0.000000
-59.327700 0.000000
-59.256600 0.000000
-59.185500 0.000000
-59.114500 0.000000
-59.043400 0.000000
-58.972300 0.000000
-58.901300 0.000000
-58.830200 0.000000
-58.759100 0.000000
-58.688000 0.000000
-58.617000 0.000000
-58.545900 0.000000
-58.474800 0.000000
-58.403700 0.000000
-58.332700 0.000000
-58.261600 0.000000
-58.190500 0.000000
-58.119400 0.000000
-58.048400 0.000000
-57.977300 0.000000
-57.906200 0.000000
-57.835100 0.000000
-57.764100 0.000000
-57.693000 0.000000
-57.621900 0.000000
-57.550800 12.454800
-57.479800 10.559200
-57.408700 0.000000
-57.337600 0.000000
-57.266500 0.000000
-57.195500 0.000000
-57.124400 0.000000
-57.053300 0.000000
-56.982200 0.000000
-56.911200 0.000000
-56.840100 0.000000
-56.769000 0.000000
-56.697900 0.000000
-56.626900 0.000000
-56.555800 0.000000
-56.484700 0.000000
-56.413600 0.000000
-56.342600 0.000000
-56.271500 0.000000
-56.200400 0.000000
-56.129300 0.000000
-56.058300 0.000000
-55.987200 0.000000
-55.916100 0.000000
-55.845100 0.000000
-55.774000 0.000000
-55.702900 0.000000
-55.631800 0.000000
-55.560800 0.000000
-55.489700 0.000000
-55.418600 0.000000
-55.347500 0.000000
-55.276500 0.000000
-55.205400 0.000000
-55.134300 0.000000
-55.063200 0.000000
-54.992200 0.000000
-54.921100 0.000000
-54.850000 0.000000
-54.778900 0.000000
-54.707900 0.000000
-54.636800 0.000000
-54.565700 0.000000
-54.494600 0.000000
-54.423600 0.000000
-54.352500 0.000000
-54.281400 0.000000
-54.210300 0.000000
-54.139300 0.000000
-54.068200 0.000000
-53.997100 0.000000
-53.926000 0.000000
-53.855000 0.000000
-53.783900 0.000000
-53.712800 0.000000
-53.641700 0.000000
-53.570700 0.000000
-53.499600 0.000000
-53.428500 0.000000
-53.357400 0.000000
-53.286400 0.000000
-53.215300 0.000000
-53.144200 0.000000
-53.073200 0.000000
-53.002100 0.000000
-52.931000 0.000000
-52.859900 0.000000
-52.788900 0.000000
-52.717800 0.000000
-52.646700 0.000000
-52.575600 0.000000
-52.504600 0.000000
-52.433500 0.000000
-52.362400 0.000000
-52.291300 0.000000
-52.220300 0.000000
-52.149200 0.000000
-52.078100 0.000000
-52.007000 0.000000
-51.936000 0.000000
-51.864900 0.000000
-51.793800 0.000000
-51.722700 0.000000
-51.651700 0.000000
-51.580600 0.000000
-51.509500 0.000000
-51.438400 0.000000
-51.367400 0.000000
-51.296300 0.000000
-51.225200 0.000000
-51.154100 0.000000
-51.083100 0.000000
-51.012000 0.000000
-50.940900 0.000000
-50.869800 0.000000
-50.798800 0.000000
-50.727700 0.000000
-50.656600 0.000000
-50.585500 0.000000
-50.514500 0.000000
-50.443400 0.000000
-50.372300 0.000000
-50.301300 0.000000
-50.230200 0.000000
-50.159100 0.000000
-50.088000 0.000000
-50.017000 0.000000
-49.945900 0.000000
-49.874800 0.000000
-49.803700 0.000000
-49.732700 0.000000
-49.661600 0.000000
-49.590500 0.000000
-49.519400 0.000000
-49.448400 0.000000
-49.377300 0.000000
-49.306200 0.000000
-49.235100 0.000000
-49.164100 0.000000
-49.093000 0.000000
-49.021900 0.000000
-48.950800 0.000000
-48.879800 0.000000
-48.808700 0.000000
-48.737600 0.000000
-48.666500 0.000000
-48.595500 0.000000
-48.524400 0.000000
-48.453300 0.000000
-48.382200 0.000000
-48.311200 0.000000
-48.240100 0.000000
-48.169000 0.000000
-48.097900 0.000000
-48.026900 0.000000
-47.955800 0.000000
-47.884700 23.474300
-47.813600 4.091900
-47.742600 4.129800
-47.671500 8.157900
-47.600400 6.636700
-47.529300 0.000000
-47.458300 0.000000
-47.387200 0.000000
-47.316100 0.000000
-47.245100 0.000000
-47.174000 0.000000
-47.102900 0.000000
-47.031800 0.000000
-46.960800 0.000000
-46.889700 0.000000
-46.818600 0.000000
-46.747500 0.000000
-46.676500 0.000000
-46.605400 0.000000
-46.534300 0.000000
-46.463200 0.000000
-46.392200 0.000000
-46.321100 0.000000
-46.250000 0.000000
-46.178900 0.000000
-46.107900 0.000000
-46.036800 0.000000
-45.965700 0.000000
-45.894600 0.000000
-45.823600 0.000000
-45.752500 0.000000
-45.681400 0.000000
-45.610300 0.000000
-45.539300 0.000000
-45.468200 0.000000
-45.397100 0.000000
-45.326000 0.000000
-45.255000 0.000000
-45.183900 0.000000
-45.112800 0.000000
-45.041700 0.000000
-44.970700 0.000000
-44.899600 0.000000
-44.828500 0.000000
-44.757400 0.000000
-44.686400 0.000000
-44.615300 0.000000
-44.544200 0.000000
-44.473200 0.000000
-44.402100 0.000000
-44.331000 0.000000
-44.259900 0.000000
-44.188900 0.000000
-44.117800 0.000000
-44.046700 0.000000
-43.975600 0.000000
-43.904600 0.000000
-43.833500 0.000000
-43.762400 0.000000
-43.691300 0.000000
-43.620300 0.000000
-43.549200 0.000000
-43.478100 0.000000
-43.407000 0.000000
-43.336000 0.000000
-43.264900 0.000000
-43.193800 0.000000
-43.122700 0.000000
-43.051700 0.000000
-42.980600 0.000000
-42.909500 0.000000
-42.838400 0.000000
-42.767400 0.000000
-42.696300 0.000000
-42.625200 0.000000
-42.554100 0.000000
-42.483100 0.000000
-42.412000 0.000000
-42.340900 0.000000
-42.269800 0.000000
-42.198800 0.000000
-42.127700 0.000000
-42.056600 0.000000
-41.985500 0.000000
-41.914500 0.000000
-41.843400 0.000000
-41.772300 0.000000
-41.701300 0.000000
-41.630200 0.000000
-41.559100 0.000000
-41.488000 0.000000
-41.417000 0.000000
-41.345900 0.000000
-41.274800 0.000000
-41.203700 0.000000
-41.132700 0.000000
-41.061600 0.000000
-40.990500 0.000000
-40.919400 0.000000
-40.848400 0.000000
-40.777300 0.000000
-40.706200 0.000000
-40.635100 0.000000
-40.564100 0.000000
-40.493000 0.000000
-40.421900 0.000000
-40.350800 0.000000
-40.279800 0.000000
-40.208700 0.000000
-40.137600 0.000000
-40.066500 0.000000
-39.995500 0.000000
-39.924400 0.000000
-39.853300 0.000000
-39.782200 0.000000
-39.711200 0.000000
-39.640100 0.000000
-39.569000 0.000000
-39.497900 0.000000
-39.426900 0.000000
-39.355800 0.000000
-39.284700 0.000000
-39.213600 0.000000
-39.142600 0.000000
-39.071500 0.000000
-39.000400 0.000000
-38.929300 0.000000
-38.858300 0.000000
-38.787200 0.000000
-38.716100 0.000000
-38.645100 0.000000
-38.574000 0.000000
-38.502900 0.000000
-38.431800 0.000000
-38.360800 0.000000
-38.289700 0.000000
-38.218600 0.000000
-38.147500 0.000000
-38.076500 0.000000
-38.005400 0.000000
-37.934300 0.000000
-37.863200 0.000000
-37.792200 0.000000
-37.721100 0.000000
-37.650000 0.000000
-37.578900 0.000000
-37.507900 0.000000
-37.436800 0.000000
-37.365700 0.000000
-37.294600 0.000000
-37.223600 0.000000
-37.152500 0.000000
-37.081400 0.000000
-37.010300 0.000000
-36.939300 0.000000
-36.868200 0.000000
-36.797100 0.000000
-36.726000 0.000000
-36.655000 0.000000
-36.583900 0.000000
-36.512800 0.000000
-36.441700 0.000000
-36.370700 0.000000
-36.299600 0.000000
-36.228500 0.000000
-36.157400 0.000000
-36.086400 0.000000
-36.015300 0.000000
-35.944200 0.000000
-35.873200 0.000000
-35.802100 0.000000
-35.731000 0.000000
-35.659900 0.000000
-35.588900 0.000000
-35.517800 0.000000
-35.446700 0.000000
-35.375600 0.000000
-35.304600 0.000000
-35.233500 0.000000
-35.162400 0.000000
-35.091300 0.000000
-35.020300 0.000000
-34.949200 0.000000
-34.878100 0.000000
-34.807000 0.000000
-34.736000 0.000000
-34.664900 0.000000
-34.593800 0.000000
-34.522700 0.000000
-34.451700 0.000000
-34.380600 0.000000
-34.309500 0.000000
-34.238400 0.000000
-34.167400 0.000000
-34.096300 0.000000
-34.025200 0.000000
-33.954100 0.000000
-33.883100 0.000000
-33.812000 0.000000
-33.740900 0.000000
-33.669800 0.000000
-33.598800 0.000000
-33.527700 0.000000
-33.456600 0.000000
-33.385500 0.000000
-33.314500 0.000000
-33.243400 0.000000
-33.172300 0.000000
-33.101300 0.000000
-33.030200 0.000000
-32.959100 0.000000
-32.888000 0.000000
-32.817000 0.000000
-32.745900 0.000000
-32.674800 0.000000
-32.603700 0.000000
-32.532700 0.000000
-32.461600 0.000000
-32.390500 0.000000
-32.319400 0.000000
-32.248400 0.000000
-32.177300 0.000000
-32.106200 0.000000
-32.035100 0.000000
-31.964100 0.000000
-31.893000 0.000000
-31.821900 0.000000
-31.750800 0.000000
-31.679800 0.000000
-31.608700 0.000000
-31.537600 0.000000
-31.466500 0.000000
-31.395500 0.000000
-31.324400 0.000000
-31.253300 0.000000
-31.182200 0.000000
-31.111200 0.000000
-31.040100 0.000000
-30.969000 0.000000
-30.897900 0.000000
-30.826900 0.000000
-30.755800 0.000000
-30.684700 0.000000
-30.613600 0.000000
-30.542600 0.000000
-30.471500 0.000000
-30.400400 0.000000
-30.329400 0.000000
-30.258300 0.000000
-30.187200 0.000000
-30.116100 0.000000
-30.045100 0.000000
-29.974000 0.000000
-29.902900 0.000000
-29.831800 0.000000
-29.760800 0.000000
-29.689700 0.000000
-29.618600 0.000000
-29.547500 0.000000
-29.476500 0.000000
-29.405400 0.000000
-29.334300 0.000000
-29.263200 0.000000
-29.192200 0.000000
-29.121100 0.000000
-29.050000 0.000000
-28.978900 0.000000
-28.907900 0.000000
-28.836800 0.000000
-28.765700 0.000000
-28.694600 0.000000
-28.623600 0.000000
-28.552500 0.000000
-28.481400 0.000000
-28.410300 0.000000
-28.339300 0.000000
-28.268200 0.000000
-28.197100 0.000000
-28.126000 0.000000
-28.055000 0.000000
-27.983900 0.000000
-27.912800 0.000000
-27.841700 0.000000
-27.770700 0.000000
-27.699600 0.000000
-27.628500 0.000000
-27.557400 0.000000
-27.486400 0.000000
-27.415300 0.000000
-27.344200 0.000000
-27.273200 0.000000
-27.202100 0.000000
-27.131000 0.000000
-27.059900 0.000000
-26.988900 0.000000
-26.917800 0.000000
-26.846700 0.000000
-26.775600 0.000000
-26.704600 0.000000
-26.633500 0.000000
-26.562400 0.000000
-26.491300 0.000000
-26.420300 0.000000
-26.349200 0.000000
-26.278100 0.000000
-26.207000 0.000000
-26.136000 0.000000
-26.064900 0.000000
-25.993800 0.000000
-25.922700 0.000000
-25.851700 0.000000
-25.780600 0.000000
-25.709500 0.000000
-25.638400 0.000000
-25.567400 0.000000
-25.496300 0.000000
-25.425200 0.000000
-25.354100 0.000000
-25.283100 0.000000
-25.212000 0.000000
-25.140900 0.000000
-25.069800 0.000000
-24.998800 0.000000
-24.927700 0.000000
-24.856600 0.000000
-24.785500 0.000000
-24.714500 0.000000
-24.643400 0.000000
-24.572300 0.000000
-24.501300 0.000000
-24.430200 0.000000
-24.359100 0.000000
-24.288000 0.000000
-24.217000 0.000000
-24.145900 0.000000
-24.074800 0.000000
-24.003700 0.000000
-23.932700 0.000000
-23.861600 0.000000
-23.790500 0.000000
-23.719400 0.000000
-23.648400 0.000000
-23.577300 0.000000
-23.506200 0.000000
-23.435100 0.000000
-23.364100 0.000000
-23.293000 0.000000
-23.221900 0.000000
-23.150800 0.000000
-23.079800 0.000000
-23.008700 0.000000
-22.937600 0.000000
-22.866500 0.000000
-22.795500 0.000000
-22.724400 0.000000
-22.653300 0.000000
-22.582200 0.000000
-22.511200 0.000000
-22.440100 0.000000
-22.369000 0.000000
-22.297900 0.000000
-22.226900 0.000000
-22.155800 0.000000
-22.084700 0.000000
-22.013600 0.000000
-21.942600 0.000000
-21.871500 0.000000
-21.800400 0.000000
-21.729400 0.000000
-21.658300 0.000000
-21.587200 0.000000
-21.516100 0.000000
-21.445100 0.000000
-21.374000 0.000000
-21.302900 0.000000
-21.231800 0.000000
-21.160800 0.000000
-21.089700 0.000000
-21.018600 0.000000
-20.947500 0.000000
-20.876500 0.000000
-20.805400 0.000000
-20.734300 0.000000
-20.663200 0.000000
-20.592200 0.000000
-20.521100 0.000000
-20.450000 0.000000
-20.378900 0.000000
-20.307900 0.000000
-20.236800 0.000000
-20.165700 0.000000
-20.094600 0.000000
-20.023600 0.000000
-19.952500 0.000000
-19.881400 0.000000
-19.810300 0.000000
-19.739300 0.000000
-19.668200 0.000000
-19.597100 0.000000
-19.526000 0.000000
-19.455000 0.000000
-19.383900 0.000000
-19.312800 0.000000
-19.241700 0.000000
-19.170700 0.000000
-19.099600 0.000000
-19.028500 0.000000
-18.957400 0.000000
-18.886400 0.000000
-18.815300 0.000000
-18.744200 0.000000
-18.673200 0.000000
-18.602100 0.000000
-18.531000 0.000000
-18.459900 0.000000
-18.388900 0.000000
-18.317800 0.000000
-18.246700 0.000000
-18.175600 0.000000
-18.104600 0.000000
-18.033500 0.000000
-17.962400 0.000000
-17.891300 0.000000
-17.820300 0.000000
-17.749200 0.000000
-17.678100 0.000000
-17.607000 0.000000
-17.536000 0.000000
-17.464900 0.000000
-17.393800 0.000000
-17.322700 0.000000
-17.251700 0.000000
-17.180600 0.000000
-17.109500 0.000000
-17.038400 0.000000
-16.967400 0.000000
-16.896300 0.000000
-16.825200 0.000000
-16.754100 0.000000
-16.683100 0.000000
-16.612000 0.000000
-16.540900 0.000000
-16.469800 0.000000
-16.398800 0.000000
-16.327700 0.000000
-16.256600 0.000000
-16.185500 0.000000
-16.114500 0.000000
-16.043400 0.000000
-15.972300 0.000000
-15.901300 0.000000
-15.830200 0.000000
-15.759100 0.000000
-15.688000 0.000000
-15.617000 0.000000
-15.545900 0.000000
-15.474800 0.000000
-15.403700 0.000000
-15.332700 0.000000
-15.261600 0.000000
-15.190500 0.000000
-15.119400 0.000000
-15.048400 0.000000
-14.977300 0.000000
-14.906200 0.000000
-14.835100 0.000000
-14.764100 0.000000
-14.693000 0.000000
-14.621900 0.000000
-14.550800 0.000000
-14.479800 0.000000
-14.408700 0.000000
-14.337600 0.000000
-14.266500 0.000000
-14.195500 0.000000
-14.124400 0.000000
-14.053300 0.000000
-13.982200 0.000000
-13.911200 0.000000
-13.840100 0.000000
-13.769000 0.000000
-13.697900 0.000000
-13.626900 0.000000
-13.555800 0.000000
-13.484700 0.000000
-13.413600 0.000000
-13.342600 0.000000
-13.271500 0.000000
-13.200400 0.000000
-13.129400 0.000000
-13.058300 0.000000
-12.987200 0.000000
-12.916100 0.000000
-12.845100 0.000000
-12.774000 0.000000
-12.702900 0.000000
-12.631800 0.000000
-12.560800 0.000000
-12.489700 0.000000
-12.418600 0.000000
-12.347500 0.000000
-12.276500 0.000000
-12.205400 0.000000
-12.134300 0.000000
-12.063200 0.000000
-11.992200 0.000000
-11.921100 0.000000
-11.850000 0.000000
-11.778900 0.000000
-11.707900 0.000000
-11.636800 0.000000
-11.565700 0.000000
-11.494600 0.000000
-11.423600 0.000000
-11.352500 0.000000
-11.281400 0.000000
-11.210300 0.000000
-11.139300 0.000000
-11.068200 0.000000
-10.997100 0.000000
-10.926000 0.000000
-10.855000 0.000000
-10.783900 0.000000
-10.712800 0.000000
-10.641700 0.000000
-10.570700 0.000000
-10.499600 0.000000
-10.428500 0.000000
-10.357400 0.000000
-10.286400 0.000000
-10.215300 0.000000
-10.144200 0.000000
-10.073200 0.000000
-10.002100 0.000000
-9.931000 0.000000
-9.859900 0.000000
-9.788900 0.000000
-9.717800 0.000000
-9.646700 0.000000
-9.575600 0.000000
-9.504600 0.000000
-9.433500 0.000000
-9.362400 0.000000
-9.291300 0.000000
-9.220300 0.000000
-9.149200 0.000000
-9.078100 0.000000
-9.007000 0.000000
-8.936000 0.000000
-8.864900 0.000000
-8.793800 0.000000
-8.722700 0.000000
-8.651700 0.000000
-8.580600 0.000000
-8.509500 0.000000
-8.438400 0.000000
-8.367400 0.000000
-8.296300 0.000000
-8.225200 0.000000
-8.154100 0.000000
-8.083100 0.000000
-8.012000 0.000000
-7.940900 0.000000
-7.869800 0.000000
-7.798800 0.000000
-7.727700 0.000000
-7.656600 0.000000
-7.585500 0.000000
-7.514500 0.000000
-7.443400 0.000000
-7.372300 0.000000
-7.301300 0.000000
-7.230200 0.000000
-7.159100 0.000000
-7.088000 0.000000
-7.017000 0.000000
-6.945900 0.000000
-6.874800 0.000000
-6.803700 0.000000
-6.732700 0.000000
-6.661600 0.000000
-6.590500 0.000000
-6.519400 0.000000
-6.448400 0.000000
-6.377300 0.000000
-6.306200 0.000000
-6.235100 0.000000
-6.164100 0.000000
-6.093000 0.000000
-6.021900 0.000000
-5.950800 0.000000
-5.879800 0.000000
-5.808700 0.000000
-5.737600 0.000000
-5.666500 0.000000
-5.595500 0.000000
-5.524400 0.000000
-5.453300 0.000000
-5.382200 0.000000
-5.311200 0.000000
-5.240100 0.000000
-5.169000 0.000000
-5.097900 0.000000
-5.026900 0.000000
-4.955800 0.000000
-4.884700 0.000000
-4.813600 0.000000
-4.742600 0.000000
-4.671500 0.000000
-4.600400 0.000000
-4.529400 0.000000
-4.458300 0.000000
-4.387200 0.000000
-4.316100 0.000000
-4.245100 0.000000
-4.174000 0.000000
-4.102900 0.000000
-4.031800 0.000000
-3.960800 0.000000
-3.889700 0.000000
-3.818600 0.000000
-3.747500 0.000000
-3.676500 0.000000
-3.605400 0.000000
-3.534300 0.000000
-3.463200 0.000000
-3.392200 0.000000
-3.321100 0.000000
-3.250000 0.000000
-3.178900 0.000000
-3.107900 0.000000
-3.036800 0.000000
-2.965700 0.000000
-2.894600 0.000000
-2.823600 0.000000
-2.752500 0.000000
-2.681400 0.000000
-2.610300 0.000000
-2.539300 0.000000
-2.468200 0.000000
-2.397100 0.000000
-2.326000 0.000000
-2.255000 0.004100
-2.183900 0.021200
-2.112800 0.025700
-2.041700 0.031400
-1.970700 0.037600
-1.899600 0.042900
-1.828500 0.046500
-1.757400 0.049700
-1.686400 0.053500
-1.615300 0.057500
-1.544200 0.061800
-1.473200 0.065700
-1.402100 0.068300
-1.331000 0.071500
-1.259900 0.074600
-1.188900 0.077900
-1.117800 0.081100
-1.046700 0.084700
-0.975600 0.088300
-0.904600 0.091900
-0.833500 0.095000
-0.762400 0.098100
-0.691300 0.101500
-0.620300 0.105000
-0.549200 0.108600
-0.478100 0.112300
-0.407000 0.116400
-0.336000 0.121900
-0.264900 0.127000
-0.193800 0.130100
-0.122700 0.133700
-0.051700 0.135900
0.019400 0.136900
0.090500 0.144600
0.161600 0.150000
0.232600 0.156100
0.303700 0.162800
0.374800 0.169100
0.445900 0.176000
0.516900 0.182800
0.588000 0.190600
0.659100 0.199200
0.730200 0.208700
0.801200 0.219800
0.872300 0.232500
0.943400 0.246500
1.014500 0.261800
1.085500 0.279900
1.156600 0.301600
1.227700 0.327100
1.298700 0.358100
1.369800 0.406400
1.440900 0.492600
1.512000 0.702900
1.583000 0.814000
1.654100 1.018100
1.725200 1.142000
1.796300 1.152700
1.867300 1.178900
1.938400 1.193600
2.009500 1.222300
2.080600 1.272800
2.151600 1.214800
2.222700 1.440000
2.293800 1.595000
2.364900 1.724900
2.435900 1.903400
2.507000 2.097200
2.578100 2.004700
2.649200 2.061000
2.720200 1.961500
2.791300 1.566400
2.862400 1.548700
2.933500 1.328700
3.004500 1.443700
3.075600 1.814200
3.146700 1.721200
3.217800 1.510400
3.288800 1.641900
3.359900 1.817600
3.431000 1.872900
3.502100 2.128100
3.573100 2.276800
3.644200 2.390200
3.715300 2.377800
3.786400 2.464700
3.857400 2.746100
3.928500 2.802600
3.999600 2.938300
4.070600 3.226000
4.141700 3.071700
4.212800 3.597900
4.283900 2.583800
4.354900 2.749600
4.426000 2.292700
4.497100 1.770300
4.568200 1.986200
4.639200 2.241500
4.710300 2.232500
4.781400 2.325000
4.852500 2.574600
4.923500 2.521300
4.994600 2.676300
5.065700 2.835300
5.136800 2.743400
5.207800 2.452700
5.278900 2.227900
5.350000 2.224000
5.421100 2.276200
5.492100 2.346000
5.563200 2.472900
5.634300 2.694900
5.705400 3.030400
5.776400 3.746600
5.847500 4.293000
5.918600 2.751700
5.989700 2.605200
6.060700 1.947200
6.131800 0.864300
6.202900 0.668400
6.274000 0.380900
6.345000 0.375200
6.416100 0.361600
6.487200 0.345700
6.558300 0.328500
6.629300 0.327500
6.700400 0.326300
6.771500 0.324100
6.842600 0.319800
6.913600 0.316700
6.984700 0.314300
7.055800 0.313600
7.126800 0.310000
7.197900 0.305200
7.269000 0.299800
7.340100 0.296100
7.411100 0.293400
7.482200 0.291100
7.553300 0.288800
7.624400 0.287000
7.695400 0.285600
7.766500 0.285600
7.837600 0.288900
7.908700 0.295000
7.979700 0.287800
8.050800 0.287700
8.121900 0.287500
8.193000 0.282800
8.264000 0.272700
8.335100 0.267700
8.406200 0.264600
8.477300 0.262900
8.548300 0.265700
8.619400 0.267200
8.690500 0.254100
8.761600 0.246500
8.832600 0.248200
8.903700 0.251700
8.974800 0.253500
9.045900 0.252000
9.116900 0.249000
9.188000 0.249900
9.259100 0.254200
9.330200 0.252200
9.401200 0.250000
9.472300 0.250100
9.543400 0.251300
9.614500 0.259000
9.685500 0.237100
9.756600 0.228700
9.827700 0.225200
9.898700 0.224700
9.969800 0.232100
10.040900 0.232900
10.112000 0.227400
10.183000 0.219800
10.254100 0.217000
10.325200 0.213800
10.396300 0.210700
10.467300 0.207600
10.538400 0.204100
10.609500 0.200100
10.680600 0.196100
10.751600 0.206600
10.822700 0.183200
10.893800 0.162900
10.964900 0.156200
11.035900 0.155300
11.107000 0.160200
11.178100 0.167800
11.249200 0.158900
11.320200 0.155300
11.391300 0.150400
11.462400 0.148000
11.533500 0.147000
11.604500 0.145500
11.675600 0.143000
11.746700 0.140300
11.817800 0.137500
11.888800 0.135400
11.959900 0.132600
12.031000 0.127800
12.102100 0.122400
12.173100 0.117300
12.244200 0.111800
12.315300 0.105600
12.386400 0.129200
12.457400 0.141800
12.528500 0.188400
12.599600 0.235400
12.670600 0.241300
12.741700 0.243000
12.812800 0.278200
12.883900 0.285300
12.954900 0.297100
13.026000 0.297800
13.097100 0.297200
13.168200 0.317200
13.239200 0.335000
13.310300 0.335200
13.381400 0.317500
13.452500 0.317500
13.523500 0.310800
13.594600 0.305400
13.665700 0.303100
13.736800 0.307700
13.807800 0.309100
13.878900 0.290900
13.950000 0.283600
14.021100 0.279800
14.092100 0.279100
14.163200 0.279200
14.234300 0.279400
14.305400 0.279900
14.376400 0.281100
14.447500 0.280900
14.518600 0.281300
14.589700 0.278200
14.660700 0.272100
14.731800 0.268200
14.802900 0.259400
14.874000 0.250500
14.945000 0.242500
15.016100 0.234300
15.087200 0.224200
15.158300 0.213400
15.229300 0.205200
15.300400 0.198800
15.371500 0.192100
15.442600 0.186500
15.513600 0.183900
15.584700 0.186000
15.655800 0.191700
15.726800 0.200300
15.797900 0.208400
15.869000 0.229100
15.940100 0.328200
16.011100 0.398800
16.082200 0.361200
16.153300 0.334800
16.224400 0.320700
16.295400 0.308800
16.366500 0.300000
16.437600 0.294700
16.508700 0.283000
16.579700 0.290000
16.650800 0.312700
16.721900 0.345500
16.793000 0.368300
16.864000 0.377200
16.935100 0.369500
17.006200 0.370000
17.077300 0.375000
17.148300 0.376900
17.219400 0.376000
17.290500 0.382500
17.361600 0.389400
17.432600 0.383700
17.503700 0.377100
17.574800 0.370900
17.645900 0.363800
17.716900 0.355100
17.788000 0.341400
17.859100 0.346400
17.930200 0.342400
18.001200 0.344600
18.072300 0.350900
18.143400 0.360100
18.214500 0.371700
18.285500 0.378800
18.356600 0.396800
18.427700 0.393200
18.498700 0.389600
18.569800 0.384600
18.640900 0.382500
18.712000 0.383000
18.783000 0.382000
18.854100 0.379900
18.925200 0.374700
18.996300 0.375800
19.067300 0.383900
19.138400 0.392400
19.209500 0.386800
19.280600 0.385700
19.351600 0.387000
19.422700 0.389200
19.493800 0.389900
19.564900 0.391800
19.635900 0.394300
19.707000 0.395600
19.778100 0.398300
19.849200 0.403200
19.920200 0.402700
19.991300 0.405900
20.062400 0.412100
20.133500 0.417300
20.204500 0.422100
20.275600 0.430800
20.346700 0.434900
20.417800 0.427500
20.488800 0.420300
20.559900 0.416800
20.631000 0.423000
20.702100 0.428000
20.773100 0.428900
20.844200 0.419900
20.915300 0.427400
20.986400 0.438200
21.057400 0.440100
21.128500 0.451500
21.199600 0.461300
21.270600 0.452100
21.341700 0.455500
21.412800 0.459700
21.483900 0.463900
21.554900 0.465700
21.626000 0.464400
21.697100 0.466200
21.768200 0.460400
21.839200 0.456400
21.910300 0.450400
21.981400 0.428300
22.052500 0.422300
22.123500 0.431000
22.194600 0.448500
22.265700 0.425600
22.336800 0.416600
22.407800 0.399700
22.478900 0.398300
22.550000 0.400800
22.621100 0.398800
22.692100 0.393200
22.763200 0.390200
22.834300 0.392400
22.905400 0.395800
22.976400 0.399000
23.047500 0.401200
23.118600 0.399100
23.189700 0.396600
23.260700 0.393700
23.331800 0.404900
23.402900 0.418600
23.474000 0.400200
23.545000 0.396600
23.616100 0.397200
23.687200 0.387800
23.758300 0.379100
23.829300 0.375800
23.900400 0.384300
23.971500 0.384500
24.042600 0.371800
24.113600 0.363600
24.184700 0.358600
24.255800 0.358300
24.326800 0.361800
24.397900 0.366300
24.469000 0.367500
24.540100 0.367100
24.611100 0.368600
24.682200 0.370500
24.753300 0.370000
24.824400 0.368300
24.895400 0.364100
24.966500 0.361600
25.037600 0.356800
25.108700 0.354000
25.179700 0.350900
25.250800 0.347500
25.321900 0.343800
25.393000 0.340200
25.464000 0.337100
25.535100 0.335100
25.606200 0.333400
25.677300 0.331600
25.748300 0.329400
25.819400 0.327300
25.890500 0.335200
25.961600 0.345100
26.032600 0.351300
26.103700 0.351400
26.174800 0.357500
26.245900 0.362800
26.316900 0.370300
26.388000 0.376900
26.459100 0.380500
26.530200 0.381600
26.601200 0.381300
26.672300 0.379400
26.743400 0.374100
26.814500 0.369600
26.885500 0.366900
26.956600 0.363400
27.027700 0.360400
27.098700 0.359500
27.169800 0.356800
27.240900 0.360100
27.312000 0.375900
27.383000 0.404800
27.454100 0.432600
27.525200 0.446600
27.596300 0.462300
27.667300 0.473800
27.738400 0.492900
27.809500 0.492200
27.880600 0.495300
27.951600 0.489500
28.022700 0.479400
28.093800 0.474200
28.164900 0.468900
28.235900 0.461500
28.307000 0.460200
28.378100 0.467300
28.449200 0.478400
28.520200 0.476200
28.591300 0.469800
28.662400 0.471600
28.733500 0.476300
28.804500 0.482500
28.875600 0.489900
28.946700 0.497100
29.017800 0.498100
29.088800 0.497800
29.159900 0.494100
29.231000 0.496000
29.302100 0.500300
29.373100 0.500100
29.444200 0.500800
29.515300 0.505600
29.586400 0.510700
29.657400 0.522800
29.728500 0.526800
29.799600 0.518300
29.870600 0.520900
29.941700 0.523900
30.012800 0.535200
30.083900 0.551900
30.154900 0.569700
30.226000 0.579700
30.297100 0.590100
30.368200 0.591500
30.439200 0.576100
30.510300 0.552000
30.581400 0.543000
30.652500 0.540700
30.723500 0.546700
30.794600 0.552100
30.865700 0.555500
30.936800 0.556000
31.007800 0.533000
31.078900 0.519000
31.150000 0.505500
31.221100 0.495300
31.292100 0.477900
31.363200 0.463500
31.434300 0.453700
31.505400 0.447300
31.576400 0.439400
31.647500 0.433400
31.718600 0.420400
31.789700 0.415700
31.860700 0.414900
31.931800 0.412600
32.002900 0.421000
32.074000 0.411600
32.145000 0.404300
32.216100 0.399700
32.287200 0.399600
32.358300 0.403800
32.429300 0.399800
32.500400 0.396900
32.571500 0.390600
32.642600 0.381800
32.713600 0.373800
32.784700 0.366600
32.855800 0.360600
32.926800 0.356100
32.997900 0.357800
33.069000 0.363100
33.140100 0.358000
33.211100 0.359300
33.282200 0.344500
33.353300 0.334600
33.424400 0.333300
33.495400 0.336500
33.566500 0.341600
33.637600 0.349900
33.708700 0.337100
33.779700 0.315700
33.850800 0.301400
33.921900 0.285600
33.993000 0.276800
34.064000 0.272300
34.135100 0.269000
34.206200 0.270600
34.277300 0.273200
34.348300 0.279000
34.419400 0.291300
34.490500 0.316200
34.561600 0.336800
34.632600 0.363700
34.703700 0.392300
34.774800 0.427100
34.845900 0.478200
34.916900 0.515900
34.988000 0.550100
35.059100 0.595700
35.130200 0.633400
35.201200 0.649800
35.272300 0.652900
35.343400 0.655800
35.414500 0.635100
35.485500 0.660700
35.556600 0.644400
35.627700 0.624200
35.698700 0.594800
35.769800 0.579800
35.840900 0.582900
35.912000 0.613300
35.983000 0.619400
36.054100 0.632100
36.125200 0.631600
36.196300 0.618300
36.267300 0.598100
36.338400 0.593500
36.409500 0.589300
36.480600 0.580100
36.551600 0.588200
36.622700 0.581800
36.693800 0.570600
36.764900 0.544100
36.835900 0.507600
36.907000 0.481700
36.978100 0.470500
37.049200 0.468000
37.120200 0.468000
37.191300 0.466700
37.262400 0.461600
37.333500 0.462700
37.404500 0.450900
37.475600 0.441600
37.546700 0.439700
37.617800 0.436700
37.688800 0.429800
37.759900 0.423400
37.831000 0.420500
37.902100 0.416800
37.973100 0.409900
38.044200 0.406800
38.115300 0.404600
38.186400 0.402900
38.257400 0.399600
38.328500 0.396900
38.399600 0.392700
38.470600 0.392900
38.541700 0.394000
38.612800 0.404800
38.683900 0.421500
38.754900 0.431200
38.826000 0.437900
38.897100 0.446800
38.968200 0.473000
39.039200 0.486700
39.110300 0.497800
39.181400 0.511000
39.252500 0.536600
39.323500 0.553500
39.394600 0.573100
39.465700 0.591500
39.536800 0.608400
39.607800 0.586800
39.678900 0.569000
39.750000 0.564800
39.821100 0.567900
39.892100 0.568100
39.963200 0.559900
40.034300 0.565200
40.105400 0.566100
40.176400 0.565300
40.247500 0.566800
40.318600 0.578300
40.389700 0.571300
40.460700 0.583900
40.531800 0.593800
40.602900 0.607100
40.674000 0.608700
40.745000 0.607500
40.816100 0.619800
40.887200 0.605000
40.958300 0.590600
41.029300 0.578500
41.100400 0.563700
41.171500 0.547500
41.242600 0.536800
41.313600 0.531800
41.384700 0.532400
41.455800 0.553900
41.526800 0.544700
41.597900 0.535900
41.669000 0.519000
41.740100 0.504100
41.811100 0.497200
41.882200 0.496900
41.953300 0.510000
42.024400 0.522800
42.095400 0.535000
42.166500 0.555800
42.237600 0.571300
42.308700 0.591800
42.379700 0.629900
42.450800 0.655400
42.521900 0.686400
42.593000 0.725700
42.664000 0.793200
42.735100 0.939300
42.806200 1.094600
42.877300 1.317500
42.948300 1.475200
43.019400 2.013700
43.090500 2.343000
43.161600 2.141900
43.232600 1.305300
43.303700 0.944100
43.374800 0.799300
43.445900 0.716900
43.516900 0.672400
43.588000 0.645900
43.659100 0.635800
43.730200 0.629700
43.801200 0.618900
43.872300 0.612000
43.943400 0.611600
44.014500 0.606900
44.085500 0.608100
44.156600 0.611100
44.227700 0.608600
44.298700 0.595200
44.369800 0.592600
44.440900 0.598500
44.512000 0.607300
44.583000 0.613700
44.654100 0.599700
44.725200 0.596900
44.796300 0.592100
44.867300 0.591000
44.938400 0.585100
45.009500 0.600200
45.080600 0.575400
45.151600 0.570800
45.222700 0.566600
45.293800 0.555600
45.364900 0.546000
45.435900 0.535400
45.507000 0.528900
45.578100 0.525200
45.649200 0.521900
45.720200 0.521000
45.791300 0.529000
45.862400 0.531100
45.933500 0.523300
46.004500 0.527800
46.075600 0.536200
46.146700 0.533400
46.217800 0.534500
46.288800 0.539500
46.359900 0.549400
46.431000 0.556300
46.502100 0.562400
46.573100 0.575000
46.644200 0.591400
46.715300 0.598300
46.786400 0.606700
46.857400 0.608400
46.928500 0.594200
46.999600 0.586600
47.070600 0.588600
47.141700 0.589400
47.212800 0.591200
47.283900 0.582300
47.354900 0.570000
47.426000 0.557500
47.497100 0.546000
47.568200 0.535100
47.639200 0.534100
47.710300 0.538600
47.781400 0.540500
47.852500 0.546100
47.923500 0.555500
47.994600 0.568500
48.065700 0.581600
48.136800 0.594200
48.207800 0.609400
48.278900 0.602000
48.350000 0.607200
48.421100 0.612400
48.492100 0.621600
48.563200 0.622100
48.634300 0.606600
48.705400 0.591700
48.776400 0.584600
48.847500 0.586300
48.918600 0.583100
48.989700 0.579800
49.060700 0.581200
49.131800 0.581300
49.202900 0.572300
49.274000 0.564100
49.345000 0.558900
49.416100 0.561000
49.487200 0.571700
49.558300 0.584400
49.629300 0.595800
49.700400 0.609400
49.771500 0.606100
49.842500 0.596000
49.913600 0.588300
49.984700 0.583200
50.055800 0.580000
50.126800 0.576700
50.197900 0.579300
50.269000 0.573000
50.340100 0.578700
50.411100 0.586400
50.482200 0.602700
50.553300 0.615300
50.624400 0.626100
50.695400 0.637300
50.766500 0.649500
50.837600 0.662500
50.908700 0.681000
50.979700 0.680300
51.050800 0.670700
51.121900 0.670100
51.193000 0.668400
51.264000 0.668800
51.335100 0.657300
51.406200 0.656800
51.477300 0.655600
51.548300 0.659200
51.619400 0.673600
51.690500 0.699200
51.761600 0.730700
51.832600 0.763900
51.903700 0.802100
51.974800 0.831300
52.045900 0.828800
52.116900 0.814300
52.188000 0.807600
52.259100 0.806200
52.330200 0.811100
52.401200 0.829300
52.472300 0.847900
52.543400 0.858200
52.614500 0.878600
52.685500 0.917700
52.756600 0.988700
52.827700 1.093300
52.898700 1.223600
52.969800 1.322100
53.040900 1.394700
53.112000 1.360000
53.183000 1.235500
53.254100 1.190800
53.325200 1.127700
53.396300 1.150300
53.467300 1.093300
53.538400 0.954300
53.609500 0.973600
53.680600 0.959500
53.751600 0.946500
53.822700 0.945800
53.893800 0.942900
53.964900 0.933300
54.035900 0.916800
54.107000 0.891900
54.178100 0.864200
54.249200 0.830100
54.320200 0.813200
54.391300 0.814200
54.462400 0.806400
54.533500 0.797100
54.604500 0.775000
54.675600 0.745100
54.746700 0.727600
54.817800 0.689200
54.888800 0.657400
54.959900 0.635800
55.031000 0.598800
55.102100 0.569700
55.173100 0.551300
55.244200 0.562200
55.315300 0.582700
55.386400 0.575400
55.457400 0.571700
55.528500 0.578300
55.599600 0.565900
55.670600 0.552400
55.741700 0.544900
55.812800 0.542000
55.883900 0.537600
55.954900 0.535500
56.026000 0.541400
56.097100 0.547300
56.168200 0.551100
56.239200 0.562000
56.310300 0.567100
56.381400 0.566400
56.452500 0.556300
56.523500 0.551700
56.594600 0.550200
56.665700 0.552200
56.736800 0.557800
56.807800 0.568200
56.878900 0.571700
56.950000 0.584700
57.021100 0.611200
57.092100 0.641900
57.163200 0.668000
57.234300 0.676800
57.305400 0.688000
57.376400 0.711200
57.447500 0.744200
57.518600 0.760000
57.589700 0.760100
57.660700 0.765500
57.731800 0.758200
57.802900 0.754200
57.874000 0.711800
57.945000 0.679200
58.016100 0.647000
58.087200 0.644600
58.158300 0.649400
58.229300 0.663300
58.300400 0.662600
58.371500 0.658400
58.442500 0.655300
58.513600 0.649000
58.584700 0.624100
58.655800 0.611600
58.726800 0.583800
58.797900 0.570200
58.869000 0.563900
58.940100 0.555000
59.011100 0.553000
59.082200 0.554300
59.153300 0.548000
59.224400 0.539400
59.295400 0.545200
59.366500 0.546700
59.437600 0.564900
59.508700 0.576300
59.579700 0.605500
59.650800 0.615700
59.721900 0.617400
59.793000 0.620600
59.864000 0.619500
59.935100 0.626200
60.006200 0.638900
60.077300 0.642600
60.148300 0.632300
60.219400 0.626000
60.290500 0.617200
60.361600 0.605600
60.432600 0.604900
60.503700 0.614300
60.574800 0.637400
60.645900 0.634700
60.716900 0.640800
60.788000 0.631100
60.859100 0.627000
60.930200 0.636300
61.001200 0.635400
61.072300 0.646300
61.143400 0.674600
61.214500 0.713100
61.285500 0.698000
61.356600 0.671700
61.427700 0.677500
61.498700 0.659200
61.569800 0.669600
61.640900 0.674800
61.712000 0.675400
61.783000 0.673300
61.854100 0.687200
61.925200 0.676900
61.996300 0.693600
62.067300 0.681800
62.138400 0.674100
62.209500 0.660300
62.280600 0.654000
62.351600 0.642100
62.422700 0.634000
62.493800 0.630900
62.564900 0.654400
62.635900 0.676200
62.707000 0.699400
62.778100 0.707100
62.849200 0.710700
62.920200 0.722100
62.991300 0.729900
63.062400 0.728200
63.133500 0.705400
63.204500 0.687200
63.275600 0.680900
63.346700 0.678200
63.417800 0.680700
63.488800 0.706300
63.559900 0.714900
63.631000 0.721400
63.702100 0.734100
63.773100 0.795700
63.844200 0.771700
63.915300 0.790100
63.986400 0.808300
64.057400 0.798900
64.128500 0.793600
64.199600 0.793400
64.270600 0.789300
64.341700 0.768500
64.412800 0.734800
64.483900 0.720300
64.554900 0.690700
64.626000 0.671700
64.697100 0.671400
64.768200 0.667700
64.839200 0.667100
64.910300 0.664400
64.981400 0.677500
65.052500 0.704800
65.123500 0.714500
65.194600 0.724100
65.265700 0.729200
65.336800 0.706900
65.407800 0.684500
65.478900 0.671200
65.550000 0.666700
65.621100 0.678600
65.692100 0.655700
65.763200 0.641400
65.834300 0.619900
65.905400 0.616400
65.976400 0.607700
66.047500 0.580100
66.118600 0.545600
66.189700 0.526500
66.260700 0.497000
66.331800 0.475500
66.402900 0.451300
66.474000 0.432200
66.545000 0.412500
66.616100 0.396300
66.687200 0.389500
66.758300 0.388800
66.829300 0.394300
66.900400 0.407700
66.971500 0.418500
67.042500 0.413700
67.113600 0.382000
67.184700 0.371700
67.255800 0.362400
67.326800 0.352100
67.397900 0.338300
67.469000 0.325700
67.540100 0.317400
67.611100 0.306100
67.682200 0.270300
67.753300 0.254400
67.824400 0.243200
67.895400 0.233200
67.966500 0.225600
68.037600 0.217300
68.108700 0.200400
68.179700 0.186900
68.250800 0.177500
68.321900 0.172300
68.393000 0.167900
68.464000 0.166600
68.535100 0.158000
68.606200 0.152500
68.677300 0.146900
68.748300 0.142500
68.819400 0.140800
68.890500 0.140700
68.961600 0.140800
69.032600 0.142700
69.103700 0.145500
69.174800 0.147400
69.245900 0.145200
69.316900 0.140400
69.388000 0.133500
69.459100 0.123300
69.530200 0.111000
69.601200 0.097800
69.672300 0.082800
69.743400 0.074200
69.814500 0.068300
69.885500 0.063000
69.956600 0.058600
70.027700 0.053300
70.098700 0.046200
70.169800 0.040000
70.240900 0.035100
70.312000 0.031300
70.383000 0.027700
70.454100 0.024200
70.525200 0.020800
70.596300 0.017500
70.667300 0.014400
70.738400 0.011100
70.809500 0.007700
70.880600 0.004700
70.951600 0.002600
71.022700 0.001200
71.093800 0.000400
71.164900 0.000000
71.235900 0.000000
71.307000 0.000000
71.378100 0.000000
71.449200 0.000000
71.520200 0.000000
71.591300 0.000000
71.662400 0.000000
71.733500 0.000000
71.804500 0.000000
71.875600 0.000000
71.946700 0.000000
72.017800 0.000000
72.088800 0.000000
72.159900 0.000000
72.231000 0.000000
72.302100 0.000000
72.373100 0.000000
72.444200 0.000000
72.515300 0.000000
72.586400 0.000000
72.657400 0.000000
72.728500 0.000000
72.799600 0.000000
72.870600 0.000000
72.941700 0.000000
73.012800 0.000000
73.083900 0.000000
73.154900 0.000000
73.226000 0.000000
73.297100 0.000000
73.368200 0.000000
73.439200 0.000000
73.510300 0.000000
73.581400 0.000000
73.652500 0.000000
73.723500 0.000000
73.794600 0.000000
73.865700 0.000000
73.936800 0.000000
74.007800 0.000000
74.078900 0.000000
74.150000 0.000000
74.221100 0.000000
74.292100 0.000000
74.363200 0.000000
74.434300 0.000000
74.505400 0.000000
74.576400 0.000000
74.647500 0.000000
74.718600 0.000000
74.789700 0.000000
74.860700 0.000000
74.931800 0.000000
75.002900 0.000000
75.074000 0.000000
75.145000 0.000000
75.216100 0.000000
75.287200 0.000000
75.358300 0.000000
75.429300 0.000000
75.500400 0.000000
75.571500 0.000000
75.642500 0.000000
75.713600 0.000000
75.784700 0.000000
75.855800 0.000000
75.926800 0.000000
75.997900 0.000000
76.069000 0.000000
76.140100 0.000000
76.211100 0.000000
76.282200 0.000000
76.353300 0.000000
76.424400 0.000000
76.495400 0.000000
76.566500 0.000000
76.637600 0.000000
76.708700 0.000000
76.779700 0.000000
76.850800 0.000000
76.921900 0.000000
76.993000 0.000000
77.064000 0.000000
77.135100 0.000000
77.206200 0.000000
77.277300 0.000000
77.348300 0.000000
77.419400 0.000000
77.490500 0.000000
77.561600 0.000000
77.632600 0.000000
77.703700 0.000000
77.774800 0.000000
77.845900 0.000000
77.916900 0.000000
77.988000 0.000000
78.059100 0.000000
78.130200 0.000000
e
