set title 'mp-1443 - Density of States'
set xlabel 'Energy (eV)'
set ylabel 'DOS (states/eV)'
set grid
set xrange [-10:10]
set yrange [0:138.393]
set xzeroaxis lt -1
set terminal png size 800,600
set output 'mp-1443_dos_gnuplot.png'
plot '-' using 1:2 with lines title 'DOS'
-23.966500 0.000000
-23.943300 0.000000
-23.920100 0.000000
-23.897000 0.000000
-23.873800 0.000000
-23.850600 0.000000
-23.827400 0.000000
-23.804200 0.000000
-23.781000 0.000000
-23.757800 0.000000
-23.734600 0.000000
-23.711400 0.000000
-23.688200 0.000000
-23.665100 0.000000
-23.641900 0.000000
-23.618700 0.000000
-23.595500 0.000000
-23.572300 0.000000
-23.549100 0.000000
-23.525900 0.000000
-23.502700 0.000000
-23.479500 0.000000
-23.456300 0.000000
-23.433100 0.000000
-23.410000 0.000000
-23.386800 0.000000
-23.363600 0.000000
-23.340400 0.000000
-23.317200 0.000000
-23.294000 0.000000
-23.270800 0.000000
-23.247600 0.000000
-23.224400 0.000000
-23.201200 0.000000
-23.178100 0.000000
-23.154900 0.000000
-23.131700 0.000000
-23.108500 0.000000
-23.085300 0.000000
-23.062100 0.000000
-23.038900 0.000000
-23.015700 0.000000
-22.992500 0.000000
-22.969300 0.000000
-22.946100 0.000000
-22.923000 0.000000
-22.899800 0.000000
-22.876600 0.000000
-22.853400 0.000000
-22.830200 0.000000
-22.807000 0.000000
-22.783800 0.000000
-22.760600 0.000000
-22.737400 0.000000
-22.714200 0.000000
-22.691100 0.000000
-22.667900 0.000000
-22.644700 0.000000
-22.621500 0.000000
-22.598300 0.000000
-22.575100 0.000000
-22.551900 0.000000
-22.528700 0.000000
-22.505500 0.000000
-22.482300 0.000000
-22.459100 0.000000
-22.436000 0.000000
-22.412800 0.000000
-22.389600 0.000000
-22.366400 0.000000
-22.343200 0.000000
-22.320000 0.000000
-22.296800 0.000000
-22.273600 0.000000
-22.250400 0.000000
-22.227200 0.000000
-22.204100 0.000000
-22.180900 0.000000
-22.157700 0.000000
-22.134500 0.000000
-22.111300 0.000000
-22.088100 0.000000
-22.064900 0.000000
-22.041700 0.000000
-22.018500 0.000000
-21.995300 0.000000
-21.972200 0.000000
-21.949000 0.000000
-21.925800 0.000000
-21.902600 0.000000
-21.879400 0.000000
-21.856200 426.765100
-21.833000 0.000000
-21.809800 0.000000
-21.786600 0.000000
-21.763400 0.000000
-21.740200 0.000000
-21.717100 0.000000
-21.693900 0.000000
-21.670700 0.000000
-21.647500 0.000000
-21.624300 0.000000
-21.601100 0.000000
-21.577900 0.000000
-21.554700 0.000000
-21.531500 0.000000
-21.508300 0.000000
-21.485200 0.000000
-21.462000 0.000000
-21.438800 0.000000
-21.415600 0.000000
-21.392400 0.000000
-21.369200 10.589100
-21.346000 30.200500
-21.322800 55.193300
-21.299600 44.148100
-21.276400 16.289000
-21.253200 0.000000
-21.230100 42.046700
-21.206900 142.842400
-21.183700 0.000000
-21.160500 0.000000
-21.137300 0.000000
-21.114100 0.000000
-21.090900 0.000000
-21.067700 126.673300
-21.044500 316.029500
-21.021300 0.000000
-20.998200 0.000000
-20.975000 0.000000
-20.951800 0.000000
-20.928600 0.000000
-20.905400 0.000000
-20.882200 220.892800
-20.859000 0.000000
-20.835800 0.000000
-20.812600 0.000000
-20.789400 0.000000
-20.766200 0.000000
-20.743100 0.000000
-20.719900 0.000000
-20.696700 0.000000
-20.673500 0.000000
-20.650300 0.000000
-20.627100 0.000000
-20.603900 120.468200
-20.580700 2.411800
-20.557500 0.000000
-20.534300 0.000000
-20.511200 0.000000
-20.488000 0.000000
-20.464800 0.000000
-20.441600 0.000000
-20.418400 0.000000
-20.395200 0.000000
-20.372000 0.000000
-20.348800 0.000000
-20.325600 0.000000
-20.302400 0.000000
-20.279300 0.000000
-20.256100 0.000000
-20.232900 0.000000
-20.209700 0.000000
-20.186500 0.000000
-20.163300 0.000000
-20.140100 0.000000
-20.116900 0.000000
-20.093700 0.000000
-20.070500 0.000000
-20.047300 0.000000
-20.024200 0.000000
-20.001000 0.000000
-19.977800 0.000000
-19.954600 0.000000
-19.931400 0.000000
-19.908200 0.000000
-19.885000 0.000000
-19.861800 0.000000
-19.838600 0.000000
-19.815400 0.000000
-19.792300 0.000000
-19.769100 0.000000
-19.745900 0.000000
-19.722700 0.000000
-19.699500 0.000000
-19.676300 0.000000
-19.653100 0.000000
-19.629900 0.000000
-19.606700 0.000000
-19.583500 0.000000
-19.560300 0.000000
-19.537200 0.000000
-19.514000 0.000000
-19.490800 0.000000
-19.467600 0.000000
-19.444400 0.000000
-19.421200 0.000000
-19.398000 0.000000
-19.374800 0.000000
-19.351600 0.000000
-19.328400 0.000000
-19.305300 0.000000
-19.282100 0.000000
-19.258900 0.000000
-19.235700 0.000000
-19.212500 0.000000
-19.189300 0.000000
-19.166100 0.000000
-19.142900 0.000000
-19.119700 0.000000
-19.096500 0.000000
-19.073300 0.000000
-19.050200 0.000000
-19.027000 0.000000
-19.003800 0.000000
-18.980600 0.000000
-18.957400 0.000000
-18.934200 3.470200
-18.911000 44.858000
-18.887800 13.830000
-18.864600 74.790700
-18.841400 12.727500
-18.818300 0.000000
-18.795100 450.624800
-18.771900 210.288300
-18.748700 347.256200
-18.725500 34.962500
-18.702300 0.000000
-18.679100 0.000000
-18.655900 0.000000
-18.632700 2.700800
-18.609500 42.703100
-18.586400 65.333900
-18.563200 30.986300
-18.540000 20.378600
-18.516800 0.000000
-18.493600 10.558000
-18.470400 15.660300
-18.447200 17.293300
-18.424000 110.321600
-18.400800 23.202400
-18.377600 15.510800
-18.354400 110.995400
-18.331300 91.717100
-18.308100 4.155200
-18.284900 0.000000
-18.261700 0.000000
-18.238500 0.000000
-18.215300 81.211600
-18.192100 51.184600
-18.168900 0.000000
-18.145700 0.000000
-18.122500 0.000000
-18.099400 0.000000
-18.076200 0.000000
-18.053000 0.000000
-18.029800 0.000000
-18.006600 0.000000
-17.983400 0.000000
-17.960200 0.000000
-17.937000 0.000000
-17.913800 0.000000
-17.890600 0.000000
-17.867400 0.000000
-17.844300 0.000000
-17.821100 0.000000
-17.797900 0.000000
-17.774700 0.000000
-17.751500 0.000000
-17.728300 0.000000
-17.705100 0.000000
-17.681900 0.000000
-17.658700 0.000000
-17.635500 0.000000
-17.612400 0.000000
-17.589200 0.000000
-17.566000 0.000000
-17.542800 0.000000
-17.519600 0.000000
-17.496400 0.000000
-17.473200 0.000000
-17.450000 0.000000
-17.426800 0.000000
-17.403600 0.000000
-17.380400 0.000000
-17.357300 0.000000
-17.334100 0.000000
-17.310900 0.000000
-17.287700 0.000000
-17.264500 0.000000
-17.241300 0.000000
-17.218100 0.000000
-17.194900 0.000000
-17.171700 0.000000
-17.148500 0.000000
-17.125400 0.000000
-17.102200 0.000000
-17.079000 0.000000
-17.055800 0.000000
-17.032600 0.000000
-17.009400 0.000000
-16.986200 0.000000
-16.963000 0.000000
-16.939800 0.000000
-16.916600 0.000000
-16.893500 0.000000
-16.870300 0.000000
-16.847100 0.000000
-16.823900 0.000000
-16.800700 0.000000
-16.777500 0.000000
-16.754300 0.000000
-16.731100 0.000000
-16.707900 0.000000
-16.684700 0.000000
-16.661500 0.000000
-16.638400 0.000000
-16.615200 0.000000
-16.592000 0.000000
-16.568800 0.000000
-16.545600 0.000000
-16.522400 0.000000
-16.499200 0.000000
-16.476000 0.000000
-16.452800 0.000000
-16.429600 0.000000
-16.406500 0.000000
-16.383300 0.000000
-16.360100 0.000000
-16.336900 0.000000
-16.313700 0.000000
-16.290500 0.000000
-16.267300 0.000000
-16.244100 0.000000
-16.220900 0.000000
-16.197700 0.000000
-16.174500 0.000000
-16.151400 0.000000
-16.128200 0.000000
-16.105000 0.000000
-16.081800 0.000000
-16.058600 0.000000
-16.035400 0.000000
-16.012200 0.000000
-15.989000 0.000000
-15.965800 0.000000
-15.942600 0.000000
-15.919500 0.000000
-15.896300 0.000000
-15.873100 0.000000
-15.849900 0.000000
-15.826700 0.000000
-15.803500 0.000000
-15.780300 0.000000
-15.757100 0.000000
-15.733900 0.000000
-15.710700 0.000000
-15.687500 0.000000
-15.664400 0.000000
-15.641200 0.000000
-15.618000 0.000000
-15.594800 0.000000
-15.571600 0.000000
-15.548400 0.000000
-15.525200 0.000000
-15.502000 0.000000
-15.478800 0.000000
-15.455600 0.000000
-15.432500 0.000000
-15.409300 0.000000
-15.386100 0.000000
-15.362900 0.000000
-15.339700 0.000000
-15.316500 0.000000
-15.293300 0.000000
-15.270100 0.000000
-15.246900 0.000000
-15.223700 0.000000
-15.200600 0.000000
-15.177400 0.000000
-15.154200 0.000000
-15.131000 0.000000
-15.107800 0.000000
-15.084600 0.000000
-15.061400 0.000000
-15.038200 0.000000
-15.015000 0.000000
-14.991800 0.000000
-14.968600 0.000000
-14.945500 0.000000
-14.922300 0.000000
-14.899100 0.000000
-14.875900 0.000000
-14.852700 0.000000
-14.829500 0.000000
-14.806300 0.000000
-14.783100 0.000000
-14.759900 0.000000
-14.736700 0.000000
-14.713600 0.000000
-14.690400 0.000000
-14.667200 0.000000
-14.644000 0.000000
-14.620800 0.000000
-14.597600 0.000000
-14.574400 0.000000
-14.551200 0.000000
-14.528000 0.000000
-14.504800 0.000000
-14.481600 0.000000
-14.458500 0.000000
-14.435300 0.000000
-14.412100 0.000000
-14.388900 0.000000
-14.365700 0.000000
-14.342500 0.000000
-14.319300 0.000000
-14.296100 0.000000
-14.272900 0.000000
-14.249700 0.000000
-14.226600 0.000000
-14.203400 0.000000
-14.180200 0.000000
-14.157000 0.000000
-14.133800 0.000000
-14.110600 0.000000
-14.087400 0.000000
-14.064200 0.000000
-14.041000 0.000000
-14.017800 0.000000
-13.994600 0.000000
-13.971500 0.000000
-13.948300 0.000000
-13.925100 0.000000
-13.901900 0.000000
-13.878700 0.000000
-13.855500 0.000000
-13.832300 0.000000
-13.809100 0.000000
-13.785900 0.000000
-13.762700 0.000000
-13.739600 0.000000
-13.716400 0.000000
-13.693200 0.000000
-13.670000 0.000000
-13.646800 0.000000
-13.623600 0.000000
-13.600400 0.000000
-13.577200 0.000000
-13.554000 0.000000
-13.530800 0.000000
-13.507700 0.000000
-13.484500 0.000000
-13.461300 0.000000
-13.438100 0.000000
-13.414900 0.000000
-13.391700 0.000000
-13.368500 0.000000
-13.345300 0.000000
-13.322100 0.000000
-13.298900 0.000000
-13.275700 0.000000
-13.252600 0.000000
-13.229400 0.000000
-13.206200 0.000000
-13.183000 0.000000
-13.159800 0.000000
-13.136600 0.000000
-13.113400 0.000000
-13.090200 0.000000
-13.067000 0.000000
-13.043800 0.000000
-13.020700 0.000000
-12.997500 0.000000
-12.974300 0.000000
-12.951100 0.000000
-12.927900 0.000000
-12.904700 0.000000
-12.881500 0.000000
-12.858300 0.000000
-12.835100 0.000000
-12.811900 0.000000
-12.788700 0.000000
-12.765600 0.000000
-12.742400 0.000000
-12.719200 0.000000
-12.696000 0.000000
-12.672800 0.000000
-12.649600 0.000000
-12.626400 0.000000
-12.603200 0.000000
-12.580000 0.000000
-12.556800 0.000000
-12.533700 0.000000
-12.510500 0.000000
-12.487300 0.000000
-12.464100 0.000000
-12.440900 0.000000
-12.417700 0.000000
-12.394500 0.000000
-12.371300 0.000000
-12.348100 0.000000
-12.324900 0.000000
-12.301700 0.000000
-12.278600 0.000000
-12.255400 0.000000
-12.232200 0.000000
-12.209000 0.000000
-12.185800 0.000000
-12.162600 0.000000
-12.139400 0.000000
-12.116200 0.000000
-12.093000 0.000000
-12.069800 0.000000
-12.046700 0.000000
-12.023500 0.000000
-12.000300 0.000000
-11.977100 0.000000
-11.953900 0.000000
-11.930700 0.000000
-11.907500 0.000000
-11.884300 0.000000
-11.861100 0.000000
-11.837900 0.000000
-11.814800 0.000000
-11.791600 0.000000
-11.768400 0.000000
-11.745200 0.000000
-11.722000 0.000000
-11.698800 0.000000
-11.675600 0.000000
-11.652400 0.000000
-11.629200 0.000000
-11.606000 0.000000
-11.582800 0.000000
-11.559700 0.000000
-11.536500 0.000000
-11.513300 0.000000
-11.490100 0.000000
-11.466900 0.000000
-11.443700 0.000000
-11.420500 0.000000
-11.397300 0.000000
-11.374100 0.000000
-11.350900 0.000000
-11.327800 0.000000
-11.304600 0.000000
-11.281400 0.000000
-11.258200 0.000000
-11.235000 0.000000
-11.211800 0.000000
-11.188600 0.000000
-11.165400 0.000000
-11.142200 0.000000
-11.119000 0.000000
-11.095800 0.000000
-11.072700 0.000000
-11.049500 0.000000
-11.026300 0.000000
-11.003100 0.000000
-10.979900 0.000000
-10.956700 0.000000
-10.933500 0.000000
-10.910300 0.000000
-10.887100 0.000000
-10.863900 0.000000
-10.840800 0.000000
-10.817600 0.000000
-10.794400 0.000000
-10.771200 0.000000
-10.748000 0.000000
-10.724800 0.000000
-10.701600 0.000000
-10.678400 0.000000
-10.655200 0.000000
-10.632000 0.000000
-10.608800 0.000000
-10.585700 0.000000
-10.562500 0.000000
-10.539300 0.000000
-10.516100 0.000000
-10.492900 0.000000
-10.469700 0.000000
-10.446500 0.000000
-10.423300 0.000000
-10.400100 0.000000
-10.376900 0.000000
-10.353800 0.000000
-10.330600 0.000000
-10.307400 0.000000
-10.284200 0.000000
-10.261000 0.000000
-10.237800 0.000000
-10.214600 0.000000
-10.191400 0.000000
-10.168200 0.000000
-10.145000 0.000000
-10.121900 0.000000
-10.098700 0.000000
-10.075500 0.000000
-10.052300 0.000000
-10.029100 0.000000
-10.005900 0.000000
-9.982700 0.000000
-9.959500 0.000000
-9.936300 0.000000
-9.913100 0.000000
-9.889900 0.000000
-9.866800 0.000000
-9.843600 0.000000
-9.820400 0.000000
-9.797200 0.000000
-9.774000 0.000000
-9.750800 0.000000
-9.727600 0.000000
-9.704400 0.000000
-9.681200 0.000000
-9.658000 0.000000
-9.634900 0.000000
-9.611700 0.000000
-9.588500 0.000000
-9.565300 0.000000
-9.542100 0.000000
-9.518900 0.000000
-9.495700 0.000000
-9.472500 0.000000
-9.449300 0.000000
-9.426100 0.000000
-9.402900 0.000000
-9.379800 0.000000
-9.356600 0.000000
-9.333400 0.000000
-9.310200 0.000000
-9.287000 0.000000
-9.263800 0.000000
-9.240600 0.000000
-9.217400 0.000000
-9.194200 0.000000
-9.171000 0.000000
-9.147900 0.000000
-9.124700 0.000000
-9.101500 0.000000
-9.078300 0.000000
-9.055100 0.000000
-9.031900 0.000000
-9.008700 0.000000
-8.985500 0.000000
-8.962300 0.000000
-8.939100 0.000000
-8.915900 0.000000
-8.892800 0.000000
-8.869600 0.000000
-8.846400 0.000000
-8.823200 0.000000
-8.800000 0.000000
-8.776800 0.000000
-8.753600 0.000000
-8.730400 0.000000
-8.707200 0.000000
-8.684000 0.000000
-8.660900 0.000000
-8.637700 0.000000
-8.614500 0.000000
-8.591300 0.000000
-8.568100 0.000000
-8.544900 0.000000
-8.521700 0.000000
-8.498500 0.000000
-8.475300 0.000000
-8.452100 0.000000
-8.429000 0.000000
-8.405800 0.000000
-8.382600 0.000000
-8.359400 0.000000
-8.336200 0.000000
-8.313000 0.000000
-8.289800 0.000000
-8.266600 0.000000
-8.243400 0.000000
-8.220200 0.000000
-8.197000 0.000000
-8.173900 0.000000
-8.150700 0.000000
-8.127500 0.000000
-8.104300 0.000000
-8.081100 0.000000
-8.057900 0.000000
-8.034700 0.000000
-8.011500 0.000000
-7.988300 0.000000
-7.965100 0.000000
-7.942000 0.000000
-7.918800 0.000000
-7.895600 0.000000
-7.872400 0.000000
-7.849200 0.000000
-7.826000 0.000000
-7.802800 0.000000
-7.779600 0.000000
-7.756400 0.000000
-7.733200 0.000000
-7.710000 0.000000
-7.686900 0.000000
-7.663700 0.000000
-7.640500 0.000000
-7.617300 0.000000
-7.594100 0.000000
-7.570900 0.000000
-7.547700 0.000000
-7.524500 0.000000
-7.501300 0.000000
-7.478100 0.000000
-7.455000 0.000000
-7.431800 0.000000
-7.408600 0.000000
-7.385400 0.000000
-7.362200 0.000000
-7.339000 0.000000
-7.315800 0.000000
-7.292600 0.000000
-7.269400 0.000000
-7.246200 0.000000
-7.223000 0.000000
-7.199900 0.000000
-7.176700 0.000000
-7.153500 0.000000
-7.130300 0.000000
-7.107100 0.000000
-7.083900 0.000000
-7.060700 0.000000
-7.037500 0.000000
-7.014300 0.000000
-6.991100 0.000000
-6.968000 0.000000
-6.944800 0.000000
-6.921600 0.000000
-6.898400 0.000000
-6.875200 0.000000
-6.852000 0.000000
-6.828800 0.000000
-6.805600 0.000000
-6.782400 0.000000
-6.759200 0.000000
-6.736100 0.000000
-6.712900 0.000000
-6.689700 0.000000
-6.666500 0.000000
-6.643300 0.000000
-6.620100 0.000000
-6.596900 0.000000
-6.573700 0.000000
-6.550500 0.000000
-6.527300 3.692300
-6.504100 8.012700
-6.481000 11.001000
-6.457800 13.533400
-6.434600 17.968400
-6.411400 16.750400
-6.388200 14.699900
-6.365000 12.017400
-6.341800 11.542700
-6.318600 11.613300
-6.295400 19.849800
-6.272200 22.659000
-6.249100 47.153700
-6.225900 0.000000
-6.202700 0.000000
-6.179500 0.000000
-6.156300 0.000000
-6.133100 0.000000
-6.109900 0.000000
-6.086700 0.000000
-6.063500 2.830800
-6.040300 4.189300
-6.017100 5.123400
-5.994000 5.672000
-5.970800 6.065700
-5.947600 6.277700
-5.924400 4.233700
-5.901200 3.563800
-5.878000 3.325500
-5.854800 3.608700
-5.831600 7.555900
-5.808400 9.764900
-5.785200 11.096900
-5.762100 9.280000
-5.738900 8.560900
-5.715700 7.773400
-5.692500 7.110800
-5.669300 6.433500
-5.646100 6.425000
-5.622900 33.541700
-5.599700 5.012700
-5.576500 3.646400
-5.553300 4.283200
-5.530100 13.799700
-5.507000 4.646800
-5.483800 3.024100
-5.460600 1.605900
-5.437400 0.698500
-5.414200 0.000000
-5.391000 0.000000
-5.367800 0.000000
-5.344600 0.000000
-5.321400 0.000000
-5.298200 0.000000
-5.275100 0.000000
-5.251900 0.000000
-5.228700 0.000000
-5.205500 0.610600
-5.182300 1.615200
-5.159100 2.898800
-5.135900 5.194000
-5.112700 3.816000
-5.089500 3.589000
-5.066300 3.294500
-5.043200 2.932400
-5.020000 2.768400
-4.996800 2.594800
-4.973600 2.394600
-4.950400 2.954600
-4.927200 4.174900
-4.904000 8.940200
-4.880800 6.326000
-4.857600 4.606100
-4.834400 5.874100
-4.811200 7.748800
-4.788100 7.671300
-4.764900 6.757200
-4.741700 5.542300
-4.718500 4.715600
-4.695300 4.240000
-4.672100 3.821500
-4.648900 3.454100
-4.625700 3.111200
-4.602500 2.789700
-4.579300 2.489700
-4.556200 2.211200
-4.533000 2.022600
-4.509800 1.963300
-4.486600 2.132600
-4.463400 2.784900
-4.440200 3.618300
-4.417000 4.522900
-4.393800 5.109700
-4.370600 4.942300
-4.347400 4.419800
-4.324200 3.625300
-4.301100 2.766500
-4.277900 2.279200
-4.254700 1.904600
-4.231500 1.523000
-4.208300 1.114600
-4.185100 0.628800
-4.161900 0.044700
-4.138700 0.000000
-4.115500 4.238100
-4.092300 30.668300
-4.069200 22.219400
-4.046000 16.847000
-4.022800 15.826700
-3.999600 16.109100
-3.976400 16.129500
-3.953200 15.222100
-3.930000 12.480100
-3.906800 6.694400
-3.883600 4.030300
-3.860400 3.987900
-3.837200 3.823000
-3.814100 4.854600
-3.790900 14.653900
-3.767700 23.710900
-3.744500 25.860900
-3.721300 24.263200
-3.698100 23.034600
-3.674900 23.834000
-3.651700 22.268700
-3.628500 28.110300
-3.605300 12.879600
-3.582200 15.521400
-3.559000 16.242800
-3.535800 26.080200
-3.512600 15.223800
-3.489400 16.768100
-3.466200 12.983500
-3.443000 12.139200
-3.419800 10.679500
-3.396600 9.958700
-3.373400 9.387100
-3.350300 3.702100
-3.327100 0.186700
-3.303900 0.608800
-3.280700 1.789200
-3.257500 2.441500
-3.234300 3.074900
-3.211100 3.885100
-3.187900 4.568800
-3.164700 5.360700
-3.141500 6.811000
-3.118300 8.453500
-3.095200 9.221900
-3.072000 27.972300
-3.048800 23.840000
-3.025600 42.464400
-3.002400 21.514300
-2.979200 7.750600
-2.956000 11.310400
-2.932800 27.076800
-2.909600 24.576400
-2.886400 39.770800
-2.863300 19.510900
-2.840100 17.310800
-2.816900 23.280600
-2.793700 19.594000
-2.770500 40.133600
-2.747300 33.619100
-2.724100 30.080800
-2.700900 20.849600
-2.677700 19.964900
-2.654500 23.611300
-2.631300 28.732800
-2.608200 23.292600
-2.585000 29.079800
-2.561800 25.290600
-2.538600 31.181600
-2.515400 18.688800
-2.492200 14.852200
-2.469000 15.941400
-2.445800 21.317600
-2.422600 21.243200
-2.399400 22.787800
-2.376300 38.548500
-2.353100 18.768400
-2.329900 35.078400
-2.306700 42.638900
-2.283500 27.003200
-2.260300 41.734800
-2.237100 33.609000
-2.213900 15.965500
-2.190700 13.836200
-2.167500 32.984500
-2.144300 25.979200
-2.121200 30.222600
-2.098000 43.716500
-2.074800 31.448200
-2.051600 25.119500
-2.028400 22.096500
-2.005200 22.297000
-1.982000 33.846700
-1.958800 29.331900
-1.935600 49.369400
-1.912400 26.356500
-1.889300 39.480900
-1.866100 70.184300
-1.842900 60.947900
-1.819700 81.332700
-1.796500 61.566900
-1.773300 32.825300
-1.750100 28.836300
-1.726900 51.049700
-1.703700 24.915400
-1.680500 5.557400
-1.657400 29.059400
-1.634200 41.438000
-1.611000 53.957700
-1.587800 25.075800
-1.564600 44.167600
-1.541400 26.231700
-1.518200 69.718400
-1.495000 36.997100
-1.471800 31.642100
-1.448600 53.398700
-1.425400 31.523700
-1.402300 59.673300
-1.379100 41.429200
-1.355900 53.175600
-1.332700 32.751300
-1.309500 41.177500
-1.286300 67.867100
-1.263100 39.661000
-1.239900 64.505400
-1.216700 125.811400
-1.193500 69.982600
-1.170400 36.589900
-1.147200 31.006400
-1.124000 21.317300
-1.100800 14.398300
-1.077600 9.840300
-1.054400 4.232300
-1.031200 0.000000
-1.008000 0.000000
-0.984800 0.000000
-0.961600 0.000000
-0.938400 0.000000
-0.915300 0.000000
-0.892100 0.000000
-0.868900 0.000000
-0.845700 0.000000
-0.822500 0.000000
-0.799300 0.003000
-0.776100 0.015900
-0.752900 0.039000
-0.729700 0.072200
-0.706500 0.115700
-0.683400 0.169400
-0.660200 0.233200
-0.637000 0.307200
-0.613800 0.391500
-0.590600 0.485900
-0.567400 0.590500
-0.544200 0.707900
-0.521000 0.864600
-0.497800 1.165800
-0.474600 1.579300
-0.451400 1.789500
-0.428300 1.868300
-0.405100 1.941200
-0.381900 2.010700
-0.358700 2.076800
-0.335500 2.139400
-0.312300 2.172200
-0.289100 2.108900
-0.265900 2.205600
-0.242700 2.377900
-0.219500 2.559500
-0.196400 2.780600
-0.173200 3.325400
-0.150000 3.817700
-0.126800 4.257600
-0.103600 4.443000
-0.080400 4.761900
-0.057200 5.582200
-0.034000 5.981600
-0.010800 6.580700
0.012400 7.418000
0.035500 8.075200
0.058700 7.996000
0.081900 7.801800
0.105100 8.079300
0.128300 7.148600
0.151500 5.499700
0.174700 5.493500
0.197900 5.459000
0.221100 5.396000
0.244300 5.304600
0.267500 3.616500
0.290600 3.788600
0.313800 6.533500
0.337000 4.662100
0.360200 4.635900
0.383400 0.000000
0.406600 0.000000
0.429800 0.000000
0.453000 0.000000
0.476200 0.000000
0.499400 0.670100
0.522500 2.132600
0.545700 22.048100
0.568900 7.110600
0.592100 11.314100
0.615300 25.796500
0.638500 11.667500
0.661700 12.008300
0.684900 12.102600
0.708100 13.497400
0.731300 12.110000
0.754500 7.565000
0.777600 6.721200
0.800800 7.406200
0.824000 10.938800
0.847200 10.236200
0.870400 6.818900
0.893600 2.010900
0.916800 0.240100
0.940000 0.000000
0.963200 0.000000
0.986400 0.000000
1.009500 0.000000
1.032700 0.000000
1.055900 0.000000
1.079100 0.000000
1.102300 0.000000
1.125500 0.000000
1.148700 0.000000
1.171900 0.000000
1.195100 0.000000
1.218300 0.000000
1.241400 0.000000
1.264600 0.000000
1.287800 0.000000
1.311000 0.000000
1.334200 0.000000
1.357400 0.000000
1.380600 0.000000
1.403800 0.000000
1.427000 0.000000
1.450200 0.000000
1.473400 0.000000
1.496500 0.000000
1.519700 0.000000
1.542900 0.000000
1.566100 0.000000
1.589300 0.000000
1.612500 0.000000
1.635700 0.000000
1.658900 0.000000
1.682100 0.000000
1.705300 0.000000
1.728400 0.000000
1.751600 0.000000
1.774800 0.000000
1.798000 0.000000
1.821200 0.000000
1.844400 0.000000
1.867600 0.000000
1.890800 0.000000
1.914000 0.000000
1.937200 0.000000
1.960400 0.000000
1.983500 0.000000
2.006700 0.000000
2.029900 0.000000
2.053100 0.000000
2.076300 0.000000
2.099500 0.000000
2.122700 0.000000
2.145900 0.000000
2.169100 0.000000
2.192300 0.000000
2.215400 0.000000
2.238600 0.000000
2.261800 0.000000
2.285000 0.000000
2.308200 0.000000
2.331400 0.000000
2.354600 0.000000
2.377800 0.000000
2.401000 0.000000
2.424200 0.000000
2.447400 0.000000
2.470500 0.000000
2.493700 0.000000
2.516900 0.000000
2.540100 0.000000
2.563300 0.000000
2.586500 0.000000
2.609700 0.000000
2.632900 0.000000
2.656100 0.000000
2.679300 0.000000
2.702400 0.000000
2.725600 0.000000
2.748800 0.000000
2.772000 0.000000
2.795200 0.000000
2.818400 0.000000
2.841600 0.000000
2.864800 0.000000
2.888000 0.000000
2.911200 0.000000
2.934300 0.000000
2.957500 0.000000
2.980700 0.000000
3.003900 0.000000
3.027100 0.000000
3.050300 0.000000
3.073500 0.000000
3.096700 0.000000
3.119900 0.000000
3.143100 0.000000
3.166300 0.000000
3.189400 0.000000
3.212600 0.000000
3.235800 0.000000
3.259000 0.000000
3.282200 0.000000
3.305400 0.000000
3.328600 0.000000
3.351800 0.000000
3.375000 0.000000
3.398200 0.000000
3.421300 0.000000
3.444500 0.000000
3.467700 0.000000
3.490900 0.000000
3.514100 0.000000
3.537300 0.000000
3.560500 0.000000
3.583700 0.000000
3.606900 0.000000
3.630100 0.000000
3.653300 0.000000
3.676400 0.000000
3.699600 0.000000
3.722800 0.000000
3.746000 0.000000
3.769200 0.000000
3.792400 0.000000
3.815600 0.000000
3.838800 0.000000
3.862000 0.000000
3.885200 0.000000
3.908300 0.000000
3.931500 0.000000
3.954700 0.000000
3.977900 0.000000
4.001100 0.000000
4.024300 0.000000
4.047500 0.000000
4.070700 0.000000
4.093900 0.000000
4.117100 0.000000
4.140300 0.000000
4.163400 0.290400
4.186600 0.836000
4.209800 1.888000
4.233000 3.097900
4.256200 4.027000
4.279400 4.812900
4.302600 5.333100
4.325800 5.581700
4.349000 5.618600
4.372200 5.314600
4.395300 4.689500
4.418500 4.573100
4.441700 4.487700
4.464900 4.317100
4.488100 4.061300
4.511300 6.173500
4.534500 3.016000
4.557700 2.776000
4.580900 2.871600
4.604100 3.216800
4.627200 3.550200
4.650400 3.812500
4.673600 4.091100
4.696800 6.528900
4.720000 7.228100
4.743200 8.443500
4.766400 9.318700
4.789600 9.373500
4.812800 7.524600
4.836000 6.881300
4.859200 6.150500
4.882300 5.332200
4.905500 5.103800
4.928700 3.758800
4.951900 2.641100
4.975100 1.789300
4.998300 0.577900
5.021500 0.351400
5.044700 0.168700
5.067900 0.052000
5.091100 0.002000
5.114200 0.000000
5.137400 0.000000
5.160600 0.000000
5.183800 0.000000
5.207000 0.000000
5.230200 0.000000
5.253400 0.000000
5.276600 0.000000
5.299800 0.000000
5.323000 0.000000
5.346200 0.000000
5.369300 0.000000
5.392500 0.000000
5.415700 0.000000
5.438900 0.000000
5.462100 0.000000
5.485300 0.000000
5.508500 0.000000
5.531700 0.000000
5.554900 0.000000
5.578100 0.000000
5.601200 0.000000
5.624400 1.180600
5.647600 1.560700
5.670800 1.985000
5.694000 1.302400
5.717200 1.441900
5.740400 1.583300
5.763600 1.726800
5.786800 1.872200
5.810000 2.019600
5.833200 6.506900
5.856300 4.599700
5.879500 5.413000
5.902700 9.822300
5.925900 17.632400
5.949100 24.000300
5.972300 19.166600
5.995500 18.499600
6.018700 20.143300
6.041900 20.471800
6.065100 19.279000
6.088200 17.737000
6.111400 15.191600
6.134600 13.913000
6.157800 11.518500
6.181000 10.029000
6.204200 9.999900
6.227400 10.396000
6.250600 11.033500
6.273800 11.554900
6.297000 11.440600
6.320100 13.375700
6.343300 12.258900
6.366500 9.143100
6.389700 3.048400
6.412900 0.633900
6.436100 0.151400
6.459300 0.110200
6.482500 4.611700
6.505700 11.911800
6.528900 14.870500
6.552100 10.277800
6.575200 10.388600
6.598400 8.950300
6.621600 7.994100
6.644800 7.072100
6.668000 9.535600
6.691200 11.312100
6.714400 13.003000
6.737600 14.837500
6.760800 15.336300
6.784000 12.087300
6.807100 8.732200
6.830300 5.997500
6.853500 3.476900
6.876700 1.235200
6.899900 0.808600
6.923100 1.584300
6.946300 2.465600
6.969500 2.850000
6.992700 3.414200
7.015900 4.471200
7.039100 4.549200
7.062200 5.002100
7.085400 5.481900
7.108600 6.275600
7.131800 7.063000
7.155000 7.670800
7.178200 8.014800
7.201400 8.160400
7.224600 9.243100
7.247800 10.923500
7.271000 11.790700
7.294100 10.840300
7.317300 9.654000
7.340500 8.868000
7.363700 10.115700
7.386900 11.746200
7.410100 13.898900
7.433300 16.902800
7.456500 14.999100
7.479700 11.201300
7.502900 7.901000
7.526100 7.909900
7.549200 6.658600
7.572400 6.376600
7.595600 6.755500
7.618800 7.272000
7.642000 8.443200
7.665200 7.875000
7.688400 6.964600
7.711600 12.783600
7.734800 16.127400
7.758000 6.998700
7.781100 5.774900
7.804300 4.568800
7.827500 3.848400
7.850700 3.406100
7.873900 3.034700
7.897100 7.242200
7.920300 4.329500
7.943500 3.853300
7.966700 3.919700
7.989900 4.402900
8.013000 4.592600
8.036200 4.912000
8.059400 5.751100
8.082600 6.802700
8.105800 9.130900
8.129000 12.418500
8.152200 17.246600
8.175400 17.447100
8.198600 14.009000
8.221800 10.459400
8.245000 7.965800
8.268100 6.090600
8.291300 5.876400
8.314500 5.528400
8.337700 4.298800
8.360900 4.019400
8.384100 3.702600
8.407300 3.329100
8.430500 2.899000
8.453700 2.393300
8.476900 2.003800
8.500000 1.638700
8.523200 1.217800
8.546400 0.785500
8.569600 0.425400
8.592800 0.137600
8.616000 0.000000
8.639200 0.000000
8.662400 0.000000
8.685600 0.000000
8.708800 0.000000
8.732000 0.000000
8.755100 0.000000
8.778300 0.000000
8.801500 0.000000
8.824700 0.000000
8.847900 0.000000
8.871100 0.000000
8.894300 0.000000
8.917500 0.000000
8.940700 0.000000
8.963900 0.000000
8.987000 0.000000
9.010200 0.000000
9.033400 0.000000
9.056600 0.000000
9.079800 0.000000
9.103000 0.000000
9.126200 0.000000
9.149400 0.000000
9.172600 0.000000
9.195800 0.000000
9.219000 0.000000
9.242100 0.000000
9.265300 0.000000
9.288500 0.000000
9.311700 0.000000
9.334900 0.000000
9.358100 0.000000
9.381300 0.000000
9.404500 0.000000
9.427700 0.000000
9.450900 0.000000
9.474000 0.000000
9.497200 0.000000
9.520400 0.000000
9.543600 0.000000
9.566800 0.000000
9.590000 0.000000
9.613200 0.000000
9.636400 0.000000
9.659600 0.000000
9.682800 1.004900
9.705900 1.480000
9.729100 1.994400
9.752300 2.548200
9.775500 3.141300
9.798700 4.364600
9.821900 8.462100
9.845100 14.087300
9.868300 15.235000
9.891500 14.068500
9.914700 12.978800
9.937900 11.657100
9.961000 13.222400
9.984200 4.436300
10.007400 5.900600
10.030600 8.053400
10.053800 10.061900
10.077000 11.039800
10.100200 10.618300
10.123400 11.471700
10.146600 7.805400
10.169800 1.881200
10.192900 3.187400
10.216100 5.341200
10.239300 13.108800
10.262500 14.996600
10.285700 15.381100
10.308900 15.946800
10.332100 10.879200
10.355300 10.124800
10.378500 20.011000
10.401700 20.528300
10.424900 16.873400
10.448000 11.488700
10.471200 3.317500
10.494400 1.697200
10.517600 0.761200
10.540800 0.335200
10.564000 1.179900
10.587200 7.063200
10.610400 14.552500
10.633600 13.556600
10.656800 11.512100
10.679900 8.424300
10.703100 11.601800
10.726300 6.028700
10.749500 16.630200
10.772700 16.801500
10.795900 15.875500
10.819100 13.612700
10.842300 14.074400
10.865500 14.139200
10.888700 4.367800
10.911900 2.459500
10.935000 1.653900
10.958200 1.039100
10.981400 0.751300
11.004600 0.664100
11.027800 0.757100
11.051000 1.023700
11.074200 1.357900
11.097400 1.689800
11.120600 1.974100
11.143800 2.209400
11.166900 2.381300
11.190100 2.557200
11.213300 2.795000
11.236500 3.028900
11.259700 3.195900
11.282900 3.369000
11.306100 3.557900
11.329300 3.792000
11.352500 3.983600
11.375700 4.135500
11.398800 4.247800
11.422000 4.338600
11.445200 4.380500
11.468400 4.408500
11.491600 4.432600
11.514800 4.472800
11.538000 4.533900
11.561200 4.608000
11.584400 4.671300
11.607600 4.745200
11.630800 4.846900
11.653900 4.946100
11.677100 5.027400
11.700300 5.049200
11.723500 5.046300
11.746700 5.097700
11.769900 5.839700
11.793100 5.873700
11.816300 5.920800
11.839500 6.180000
11.862700 6.452200
11.885800 6.723100
11.909000 6.749600
11.932200 6.757400
11.955400 6.811700
11.978600 6.884900
12.001800 7.089600
12.025000 7.252600
12.048200 7.465400
12.071400 7.696100
12.094600 7.892800
12.117800 8.192900
12.140900 8.647000
12.164100 9.627100
12.187300 9.834800
12.210500 9.967700
12.233700 9.602400
12.256900 9.236800
12.280100 8.957600
12.303300 9.126300
12.326500 8.250600
12.349700 8.048400
12.372800 7.917300
12.396000 7.798900
12.419200 7.026800
12.442400 7.019100
12.465600 7.526900
12.488800 8.054600
12.512000 7.734000
12.535200 10.170500
12.558400 10.587900
12.581600 10.193000
12.604800 9.875200
12.627900 9.421200
12.651100 8.291900
12.674300 8.719800
12.697500 8.418400
12.720700 8.243500
12.743900 7.487300
12.767100 7.879100
12.790300 8.198800
12.813500 10.800700
12.836700 6.168400
12.859800 7.040800
12.883000 7.261700
12.906200 7.087800
12.929400 7.172800
12.952600 7.235700
12.975800 8.449900
12.999000 12.656100
13.022200 9.399700
13.045400 6.014900
13.068600 6.470500
13.091700 6.641100
13.114900 6.850100
13.138100 7.097200
13.161300 9.874000
13.184500 10.212500
13.207700 9.634800
13.230900 9.036100
13.254100 8.426300
13.277300 7.791700
13.300500 10.874300
13.323700 16.582700
13.346800 20.196800
13.370000 19.670500
13.393200 7.647600
13.416400 9.313300
13.439600 10.408100
13.462800 14.796700
13.486000 15.022400
13.509200 19.203600
13.532400 20.112800
13.555600 18.797200
13.578700 18.953600
13.601900 14.546400
13.625100 10.605900
13.648300 7.185700
13.671500 7.923700
13.694700 9.404000
13.717900 11.078800
13.741100 12.628300
13.764300 14.076400
13.787500 18.258900
13.810700 25.117700
13.833800 11.410400
13.857000 10.706900
13.880200 9.938800
13.903400 9.920700
13.926600 9.675000
13.949800 9.497100
13.973000 12.119100
13.996200 12.876300
14.019400 8.265700
14.042600 8.331000
14.065700 8.538900
14.088900 11.621700
14.112100 15.500500
14.135300 12.717700
14.158500 13.972700
14.181700 15.448200
14.204900 16.193500
14.228100 15.093200
14.251300 12.479000
14.274500 10.425500
14.297700 6.947800
14.320800 7.199100
14.344000 8.345600
14.367200 11.469400
14.390400 12.647300
14.413600 9.200900
14.436800 6.875700
14.460000 7.441300
14.483200 9.160700
14.506400 16.677800
14.529600 15.047500
14.552700 14.755200
14.575900 14.919700
14.599100 12.157700
14.622300 11.545100
14.645500 9.917100
14.668700 9.192200
14.691900 8.747500
14.715100 8.815200
14.738300 8.885800
14.761500 10.223600
14.784600 11.761400
14.807800 15.941900
14.831000 16.161900
14.854200 13.716800
14.877400 11.676600
14.900600 10.991300
14.923800 9.929600
14.947000 8.557100
14.970200 7.780000
14.993400 7.641500
15.016600 9.467100
15.039700 10.613800
15.062900 14.606100
15.086100 11.892500
15.109300 12.680600
15.132500 13.406500
15.155700 12.117900
15.178900 11.986200
15.202100 13.076100
15.225300 12.241400
15.248500 11.563800
15.271600 10.456800
15.294800 9.300800
15.318000 6.935100
15.341200 5.638000
15.364400 5.223700
15.387600 8.751400
15.410800 15.414900
15.434000 11.013500
15.457200 10.386100
15.480400 9.736800
15.503600 9.364400
15.526700 8.946200
15.549900 8.556200
15.573100 8.071100
15.596300 9.759200
15.619500 11.107000
15.642700 13.434100
15.665900 11.984900
15.689100 9.180700
15.712300 13.546100
15.735500 9.940600
15.758600 9.562700
15.781800 8.927700
15.805000 8.290800
15.828200 7.761700
15.851400 9.504300
15.874600 10.455900
15.897800 8.883300
15.921000 8.092000
15.944200 8.251400
15.967400 8.747300
15.990600 9.223500
16.013700 9.918200
16.036900 10.526400
16.060100 11.662400
16.083300 16.881900
16.106500 13.404000
16.129700 7.937300
16.152900 6.029100
16.176100 6.962200
16.199300 13.429700
16.222500 10.253300
16.245600 11.518800
16.268800 14.921800
16.292000 17.113300
16.315200 12.723500
16.338400 7.683800
16.361600 7.402000
16.384800 9.220800
16.408000 11.829600
16.431200 16.173800
16.454400 13.674500
16.477500 11.089400
16.500700 6.696200
16.523900 6.921200
16.547100 7.897000
16.570300 8.937400
16.593500 10.521800
16.616700 11.621300
16.639900 12.347600
16.663100 12.407300
16.686300 11.769000
16.709500 8.936100
16.732600 10.042100
16.755800 12.350400
16.779000 14.647900
16.802200 12.220000
16.825400 9.231900
16.848600 8.914900
16.871800 6.652600
16.895000 5.596300
16.918200 4.257900
16.941400 5.874400
16.964500 6.946100
16.987700 8.313100
17.010900 8.398300
17.034100 10.906700
17.057300 13.300000
17.080500 14.769900
17.103700 13.389000
17.126900 11.363500
17.150100 10.482700
17.173300 10.305900
17.196500 10.209600
17.219600 9.906100
17.242800 9.274300
17.266000 8.508400
17.289200 8.840000
17.312400 8.255800
17.335600 8.488700
17.358800 8.803100
17.382000 11.703800
17.405200 13.720100
17.428400 10.384800
17.451500 9.900100
17.474700 12.696400
17.497900 13.939300
17.521100 11.838000
17.544300 11.498700
17.567500 11.203000
17.590700 10.512300
17.613900 9.832900
17.637100 8.838500
17.660300 7.785500
17.683500 9.649500
17.706600 10.849300
17.729800 11.846400
17.753000 13.012300
17.776200 13.371000
17.799400 11.058800
17.822600 11.795700
17.845800 13.051200
17.869000 13.658800
17.892200 14.500400
17.915400 17.401100
17.938500 17.186200
17.961700 12.146500
17.984900 10.812100
18.008100 9.756200
18.031300 8.631200
18.054500 8.288800
18.077700 8.842900
18.100900 9.509700
18.124100 8.863600
18.147300 9.113700
18.170400 8.550700
18.193600 8.652500
18.216800 8.842900
18.240000 9.200000
18.263200 10.478500
18.286400 15.644300
18.309600 17.940000
18.332800 15.011300
18.356000 13.738000
18.379200 19.835900
18.402400 13.449400
18.425500 12.609700
18.448700 12.511300
18.471900 11.353800
18.495100 10.376100
18.518300 10.035600
18.541500 9.897800
18.564700 9.004700
18.587900 8.831500
18.611100 8.230600
18.634300 7.777000
18.657400 7.634400
18.680600 12.136800
18.703800 10.282000
18.727000 9.422000
18.750200 9.453000
18.773400 9.650000
18.796600 9.817800
18.819800 10.725800
18.843000 11.541000
18.866200 9.929500
18.889400 9.438300
18.912500 8.891800
18.935700 8.195900
18.958900 9.585800
18.982100 11.515600
19.005300 13.161900
19.028500 12.648500
19.051700 11.196300
19.074900 12.805900
19.098100 12.164500
19.121300 11.669700
19.144400 10.771400
19.167600 10.737700
19.190800 10.650400
19.214000 10.595000
19.237200 10.179600
19.260400 9.412100
19.283600 9.184600
19.306800 9.200600
19.330000 7.744800
19.353200 6.748600
19.376400 6.295000
19.399500 5.780100
19.422700 5.250100
19.445900 4.705000
19.469100 4.144700
19.492300 3.731200
19.515500 3.364500
19.538700 3.009000
19.561900 2.664700
19.585100 2.333200
19.608300 2.023900
19.631400 1.757000
19.654600 1.527900
19.677800 1.306300
19.701000 1.082600
19.724200 0.992100
19.747400 0.936300
19.770600 0.881000
19.793800 0.826100
19.817000 0.771600
19.840200 0.717600
19.863300 0.663900
19.886500 0.610700
19.909700 0.557900
19.932900 0.505600
19.956100 0.453700
19.979300 0.402400
20.002500 0.352900
20.025700 0.305100
20.048900 0.259100
20.072100 0.214800
20.095300 0.173700
20.118400 0.136900
20.141600 0.104600
20.164800 0.076600
20.188000 0.052900
20.211200 0.033600
20.234400 0.018700
20.257600 0.008200
20.280800 0.002000
20.304000 0.000000
20.327200 0.000000
20.350300 0.000000
20.373500 0.000000
20.396700 0.000000
20.419900 0.000000
20.443100 0.000000
20.466300 0.000000
20.489500 0.000000
20.512700 0.000000
20.535900 0.000000
20.559100 0.000000
20.582300 0.000000
20.605400 0.000000
20.628600 0.000000
20.651800 0.000000
20.675000 0.000000
20.698200 0.000000
20.721400 0.000000
20.744600 0.000000
20.767800 0.000000
20.791000 0.000000
20.814200 0.000000
20.837300 0.000000
20.860500 0.000000
20.883700 0.000000
20.906900 0.000000
20.930100 0.000000
20.953300 0.000000
20.976500 0.000000
20.999700 0.000000
21.022900 0.000000
21.046100 0.000000
21.069300 0.000000
21.092400 0.000000
21.115600 0.000000
21.138800 0.000000
21.162000 0.000000
21.185200 0.000000
21.208400 0.000000
21.231600 0.000000
21.254800 0.000000
21.278000 0.000000
21.301200 0.000000
21.324300 0.000000
21.347500 0.000000
21.370700 0.000000
21.393900 0.000000
21.417100 0.000000
21.440300 0.000000
21.463500 0.000000
21.486700 0.000000
21.509900 0.000000
21.533100 0.000000
21.556200 0.000000
21.579400 0.000000
21.602600 0.000000
21.625800 0.000000
21.649000 0.000000
21.672200 0.000000
21.695400 0.000000
21.718600 0.000000
21.741800 0.000000
21.765000 0.000000
21.788200 0.000000
21.811300 0.000000
21.834500 0.000000
21.857700 0.000000
21.880900 0.000000
21.904100 0.000000
21.927300 0.000000
21.950500 0.000000
21.973700 0.000000
21.996900 0.000000
22.020100 0.000000
22.043200 0.000000
22.066400 0.000000
22.089600 0.000000
22.112800 0.000000
22.136000 0.000000
22.159200 0.000000
22.182400 0.000000
22.205600 0.000000
22.228800 0.000000
22.252000 0.000000
22.275200 0.000000
22.298300 0.000000
22.321500 0.000000
22.344700 0.000000
22.367900 0.000000
22.391100 0.000000
22.414300 0.000000
e
