set title 'mp-1216270 - Density of States'
set xlabel 'Energy (eV)'
set ylabel 'DOS (states/eV)'
set grid
set xrange [-10:10]
set yrange [0:10.688]
set xzeroaxis lt -1
set terminal png size 800,600
set output 'mp-1216270_dos_gnuplot.png'
plot '-' using 1:2 with lines title 'DOS'
-34.501400 0.000000
-34.464500 0.000000
-34.427600 0.000000
-34.390700 0.000000
-34.353800 0.000000
-34.316900 0.000000
-34.280000 0.000000
-34.243100 0.000000
-34.206200 0.000000
-34.169300 0.000000
-34.132400 0.000000
-34.095600 0.000000
-34.058700 0.000000
-34.021800 0.000000
-33.984900 0.000000
-33.948000 0.000000
-33.911100 0.000000
-33.874200 0.000000
-33.837300 0.000000
-33.800400 0.000000
-33.763500 0.000000
-33.726600 0.000000
-33.689700 0.000000
-33.652800 0.000000
-33.615900 0.000000
-33.579000 0.000000
-33.542100 0.000000
-33.505200 0.000000
-33.468300 0.000000
-33.431400 0.000000
-33.394500 0.000000
-33.357700 0.000000
-33.320800 0.000000
-33.283900 0.000000
-33.247000 0.000000
-33.210100 0.000000
-33.173200 0.000000
-33.136300 0.000000
-33.099400 0.000000
-33.062500 0.000000
-33.025600 0.000000
-32.988700 0.000000
-32.951800 0.000000
-32.914900 0.000000
-32.878000 0.000000
-32.841100 0.000000
-32.804200 0.000000
-32.767300 0.000000
-32.730400 0.000000
-32.693500 0.000000
-32.656600 0.000000
-32.619800 0.000000
-32.582900 0.000000
-32.546000 0.000000
-32.509100 0.000000
-32.472200 0.000000
-32.435300 0.000000
-32.398400 0.000000
-32.361500 0.000000
-32.324600 0.000000
-32.287700 0.000000
-32.250800 0.000000
-32.213900 0.000000
-32.177000 0.000000
-32.140100 0.000000
-32.103200 0.000000
-32.066300 0.000000
-32.029400 0.000000
-31.992500 0.000000
-31.955600 0.000000
-31.918700 0.000000
-31.881900 0.000000
-31.845000 0.000000
-31.808100 0.000000
-31.771200 0.000000
-31.734300 0.000000
-31.697400 0.000000
-31.660500 0.000000
-31.623600 0.000000
-31.586700 0.000000
-31.549800 0.000000
-31.512900 0.000000
-31.476000 0.000000
-31.439100 0.000000
-31.402200 0.000000
-31.365300 0.000000
-31.328400 0.000000
-31.291500 0.000000
-31.254600 0.000000
-31.217700 0.000000
-31.180800 0.000000
-31.144000 1.871900
-31.107100 8.082400
-31.070200 24.604000
-31.033300 41.632400
-30.996400 6.251300
-30.959500 4.544700
-30.922600 4.866800
-30.885700 6.156200
-30.848800 7.553700
-30.811900 9.581900
-30.775000 18.203500
-30.738100 10.695300
-30.701200 8.530300
-30.664300 0.000000
-30.627400 0.000000
-30.590500 0.000000
-30.553600 0.000000
-30.516700 0.000000
-30.479800 0.000000
-30.442900 0.000000
-30.406100 0.000000
-30.369200 0.000000
-30.332300 0.000000
-30.295400 0.000000
-30.258500 0.000000
-30.221600 0.000000
-30.184700 0.000000
-30.147800 0.000000
-30.110900 0.000000
-30.074000 0.000000
-30.037100 0.000000
-30.000200 0.000000
-29.963300 0.000000
-29.926400 0.000000
-29.889500 0.000000
-29.852600 0.000000
-29.815700 0.000000
-29.778800 0.000000
-29.741900 0.000000
-29.705000 0.000000
-29.668200 0.000000
-29.631300 0.000000
-29.594400 0.000000
-29.557500 0.000000
-29.520600 0.000000
-29.483700 0.000000
-29.446800 0.000000
-29.409900 0.000000
-29.373000 0.000000
-29.336100 0.000000
-29.299200 0.000000
-29.262300 0.000000
-29.225400 0.000000
-29.188500 0.000000
-29.151600 0.000000
-29.114700 0.000000
-29.077800 0.000000
-29.040900 0.000000
-29.004000 0.000000
-28.967100 0.000000
-28.930300 0.000000
-28.893400 0.000000
-28.856500 0.000000
-28.819600 0.000000
-28.782700 0.000000
-28.745800 0.000000
-28.708900 0.000000
-28.672000 0.000000
-28.635100 0.000000
-28.598200 0.000000
-28.561300 0.000000
-28.524400 0.000000
-28.487500 0.000000
-28.450600 0.000000
-28.413700 0.000000
-28.376800 0.000000
-28.339900 0.000000
-28.303000 0.000000
-28.266100 0.000000
-28.229200 0.000000
-28.192400 0.000000
-28.155500 0.000000
-28.118600 0.000000
-28.081700 0.000000
-28.044800 0.000000
-28.007900 0.000000
-27.971000 0.000000
-27.934100 0.000000
-27.897200 0.000000
-27.860300 0.000000
-27.823400 0.000000
-27.786500 0.000000
-27.749600 0.000000
-27.712700 0.000000
-27.675800 0.000000
-27.638900 0.000000
-27.602000 0.000000
-27.565100 0.000000
-27.528200 0.000000
-27.491300 0.000000
-27.454500 0.000000
-27.417600 0.000000
-27.380700 0.000000
-27.343800 0.000000
-27.306900 0.000000
-27.270000 0.000000
-27.233100 0.000000
-27.196200 0.000000
-27.159300 0.000000
-27.122400 0.000000
-27.085500 0.000000
-27.048600 0.000000
-27.011700 0.000000
-26.974800 0.000000
-26.937900 0.000000
-26.901000 0.000000
-26.864100 0.000000
-26.827200 0.000000
-26.790300 0.000000
-26.753400 0.000000
-26.716600 0.000000
-26.679700 0.000000
-26.642800 0.000000
-26.605900 0.000000
-26.569000 0.000000
-26.532100 0.000000
-26.495200 0.000000
-26.458300 0.000000
-26.421400 0.000000
-26.384500 0.000000
-26.347600 0.000000
-26.310700 0.000000
-26.273800 0.000000
-26.236900 0.000000
-26.200000 0.000000
-26.163100 0.000000
-26.126200 0.000000
-26.089300 0.000000
-26.052400 0.000000
-26.015500 0.000000
-25.978700 0.000000
-25.941800 0.000000
-25.904900 0.000000
-25.868000 0.000000
-25.831100 0.000000
-25.794200 0.000000
-25.757300 0.000000
-25.720400 0.000000
-25.683500 0.000000
-25.646600 0.000000
-25.609700 0.000000
-25.572800 0.000000
-25.535900 0.000000
-25.499000 0.000000
-25.462100 0.000000
-25.425200 0.000000
-25.388300 0.000000
-25.351400 0.000000
-25.314500 0.000000
-25.277600 0.000000
-25.240800 0.000000
-25.203900 0.000000
-25.167000 0.000000
-25.130100 0.000000
-25.093200 0.000000
-25.056300 0.000000
-25.019400 0.000000
-24.982500 0.000000
-24.945600 0.000000
-24.908700 0.000000
-24.871800 0.000000
-24.834900 0.000000
-24.798000 0.000000
-24.761100 0.000000
-24.724200 0.000000
-24.687300 0.000000
-24.650400 0.000000
-24.613500 0.000000
-24.576600 0.000000
-24.539700 0.000000
-24.502900 0.000000
-24.466000 0.000000
-24.429100 0.000000
-24.392200 0.000000
-24.355300 0.000000
-24.318400 0.000000
-24.281500 0.000000
-24.244600 0.000000
-24.207700 0.000000
-24.170800 0.000000
-24.133900 0.000000
-24.097000 0.000000
-24.060100 0.000000
-24.023200 0.000000
-23.986300 0.000000
-23.949400 0.000000
-23.912500 0.000000
-23.875600 0.000000
-23.838700 0.000000
-23.801800 0.000000
-23.765000 0.000000
-23.728100 0.000000
-23.691200 0.000000
-23.654300 0.000000
-23.617400 0.000000
-23.580500 0.000000
-23.543600 0.000000
-23.506700 0.000000
-23.469800 0.000000
-23.432900 0.000000
-23.396000 0.000000
-23.359100 0.000000
-23.322200 0.000000
-23.285300 0.000000
-23.248400 0.000000
-23.211500 0.000000
-23.174600 0.000000
-23.137700 0.000000
-23.100800 0.000000
-23.063900 0.000000
-23.027100 0.000000
-22.990200 0.000000
-22.953300 0.000000
-22.916400 0.000000
-22.879500 0.000000
-22.842600 0.000000
-22.805700 0.000000
-22.768800 0.000000
-22.731900 0.000000
-22.695000 0.000000
-22.658100 0.000000
-22.621200 0.000000
-22.584300 0.000000
-22.547400 0.000000
-22.510500 0.000000
-22.473600 0.000000
-22.436700 0.000000
-22.399800 0.000000
-22.362900 0.000000
-22.326000 0.000000
-22.289200 0.000000
-22.252300 0.000000
-22.215400 0.000000
-22.178500 0.000000
-22.141600 0.000000
-22.104700 0.000000
-22.067800 0.000000
-22.030900 0.000000
-21.994000 0.000000
-21.957100 0.000000
-21.920200 0.000000
-21.883300 0.000000
-21.846400 0.000000
-21.809500 0.000000
-21.772600 0.000000
-21.735700 0.000000
-21.698800 0.000000
-21.661900 0.000000
-21.625000 0.000000
-21.588100 0.000000
-21.551300 0.000000
-21.514400 0.000000
-21.477500 0.000000
-21.440600 0.000000
-21.403700 0.000000
-21.366800 0.000000
-21.329900 0.000000
-21.293000 0.000000
-21.256100 0.000000
-21.219200 0.000000
-21.182300 0.000000
-21.145400 0.000000
-21.108500 0.000000
-21.071600 0.000000
-21.034700 0.000000
-20.997800 0.000000
-20.960900 0.000000
-20.924000 0.000000
-20.887100 0.000000
-20.850200 0.000000
-20.813400 0.000000
-20.776500 0.000000
-20.739600 0.000000
-20.702700 0.000000
-20.665800 0.000000
-20.628900 0.000000
-20.592000 0.000000
-20.555100 0.000000
-20.518200 0.000000
-20.481300 0.000000
-20.444400 0.000000
-20.407500 0.000000
-20.370600 0.000000
-20.333700 0.000000
-20.296800 0.000000
-20.259900 0.000000
-20.223000 0.000000
-20.186100 0.000000
-20.149200 0.000000
-20.112300 0.000000
-20.075500 0.000000
-20.038600 0.000000
-20.001700 0.000000
-19.964800 0.000000
-19.927900 0.000000
-19.891000 0.000000
-19.854100 0.000000
-19.817200 0.000000
-19.780300 0.000000
-19.743400 0.000000
-19.706500 0.000000
-19.669600 0.000000
-19.632700 0.000000
-19.595800 0.000000
-19.558900 0.000000
-19.522000 0.000000
-19.485100 0.000000
-19.448200 0.000000
-19.411300 0.000000
-19.374400 0.000000
-19.337600 0.000000
-19.300700 0.000000
-19.263800 0.000000
-19.226900 0.000000
-19.190000 0.000000
-19.153100 0.000000
-19.116200 0.000000
-19.079300 0.000000
-19.042400 0.000000
-19.005500 0.000000
-18.968600 0.000000
-18.931700 0.000000
-18.894800 0.000000
-18.857900 0.000000
-18.821000 0.000000
-18.784100 0.000000
-18.747200 0.000000
-18.710300 0.000000
-18.673400 0.000000
-18.636500 0.000000
-18.599700 0.000000
-18.562800 0.000000
-18.525900 0.000000
-18.489000 0.000000
-18.452100 0.000000
-18.415200 0.000000
-18.378300 0.000000
-18.341400 0.000000
-18.304500 0.000000
-18.267600 0.000000
-18.230700 0.000000
-18.193800 0.000000
-18.156900 0.000000
-18.120000 0.000000
-18.083100 0.000000
-18.046200 0.000000
-18.009300 0.000000
-17.972400 0.000000
-17.935500 0.000000
-17.898600 0.000000
-17.861800 0.000000
-17.824900 0.000000
-17.788000 0.000000
-17.751100 0.000000
-17.714200 0.000000
-17.677300 0.000000
-17.640400 0.000000
-17.603500 0.000000
-17.566600 0.000000
-17.529700 0.000000
-17.492800 0.000000
-17.455900 0.000000
-17.419000 0.000000
-17.382100 0.000000
-17.345200 0.000000
-17.308300 0.000000
-17.271400 0.000000
-17.234500 0.000000
-17.197600 0.000000
-17.160700 0.000000
-17.123900 0.000000
-17.087000 0.000000
-17.050100 0.000000
-17.013200 0.000000
-16.976300 0.000000
-16.939400 0.000000
-16.902500 0.000000
-16.865600 0.000000
-16.828700 0.000000
-16.791800 0.000000
-16.754900 0.000000
-16.718000 0.000000
-16.681100 0.000000
-16.644200 0.000000
-16.607300 0.000000
-16.570400 0.000000
-16.533500 0.000000
-16.496600 0.000000
-16.459700 0.000000
-16.422800 0.000000
-16.386000 0.000000
-16.349100 0.000000
-16.312200 0.000000
-16.275300 0.000000
-16.238400 0.000000
-16.201500 0.000000
-16.164600 0.000000
-16.127700 0.000000
-16.090800 0.000000
-16.053900 0.000000
-16.017000 0.000000
-15.980100 0.000000
-15.943200 0.000000
-15.906300 0.000000
-15.869400 0.000000
-15.832500 0.000000
-15.795600 0.000000
-15.758700 0.000000
-15.721800 0.000000
-15.684900 0.000000
-15.648100 0.000000
-15.611200 0.000000
-15.574300 0.000000
-15.537400 0.000000
-15.500500 0.000000
-15.463600 0.000000
-15.426700 0.000000
-15.389800 0.000000
-15.352900 0.000000
-15.316000 0.000000
-15.279100 0.000000
-15.242200 0.000000
-15.205300 0.000000
-15.168400 0.000000
-15.131500 0.000000
-15.094600 0.000000
-15.057700 0.000000
-15.020800 0.000000
-14.983900 0.000000
-14.947000 0.000000
-14.910200 0.000000
-14.873300 0.000000
-14.836400 0.000000
-14.799500 0.000000
-14.762600 0.000000
-14.725700 0.000000
-14.688800 0.000000
-14.651900 0.000000
-14.615000 0.000000
-14.578100 0.000000
-14.541200 0.000000
-14.504300 0.000000
-14.467400 0.000000
-14.430500 0.000000
-14.393600 0.000000
-14.356700 0.000000
-14.319800 0.000000
-14.282900 0.000000
-14.246000 0.000000
-14.209100 0.000000
-14.172300 0.000000
-14.135400 0.000000
-14.098500 0.000000
-14.061600 0.000000
-14.024700 0.000000
-13.987800 0.000000
-13.950900 0.000000
-13.914000 0.000000
-13.877100 0.000000
-13.840200 0.000000
-13.803300 0.000000
-13.766400 0.000000
-13.729500 0.000000
-13.692600 0.000000
-13.655700 0.000000
-13.618800 0.000000
-13.581900 0.000000
-13.545000 0.000000
-13.508100 0.000000
-13.471200 0.000000
-13.434400 0.000000
-13.397500 0.000000
-13.360600 0.000000
-13.323700 0.000000
-13.286800 0.000000
-13.249900 0.000000
-13.213000 0.000000
-13.176100 0.000000
-13.139200 0.000000
-13.102300 0.000000
-13.065400 0.000000
-13.028500 0.000000
-12.991600 0.000000
-12.954700 0.000000
-12.917800 0.000000
-12.880900 0.000000
-12.844000 0.000000
-12.807100 0.000000
-12.770200 0.000000
-12.733300 0.000000
-12.696500 0.000000
-12.659600 0.000000
-12.622700 0.000000
-12.585800 0.000000
-12.548900 0.000000
-12.512000 0.000000
-12.475100 0.000000
-12.438200 0.000000
-12.401300 0.000000
-12.364400 0.000000
-12.327500 0.000000
-12.290600 0.000000
-12.253700 0.000000
-12.216800 0.000000
-12.179900 0.000000
-12.143000 0.000000
-12.106100 0.000000
-12.069200 0.000000
-12.032300 0.000000
-11.995400 0.000000
-11.958600 0.000000
-11.921700 0.000000
-11.884800 0.000000
-11.847900 0.000000
-11.811000 0.000000
-11.774100 0.000000
-11.737200 0.000000
-11.700300 0.000000
-11.663400 0.000000
-11.626500 0.000000
-11.589600 0.000000
-11.552700 0.000000
-11.515800 0.000000
-11.478900 0.000000
-11.442000 0.000000
-11.405100 0.000000
-11.368200 0.000000
-11.331300 0.000000
-11.294400 0.000000
-11.257500 0.000000
-11.220700 0.000000
-11.183800 0.000000
-11.146900 0.000000
-11.110000 0.000000
-11.073100 0.000000
-11.036200 0.000000
-10.999300 0.000000
-10.962400 0.000000
-10.925500 0.000000
-10.888600 0.000000
-10.851700 0.000000
-10.814800 0.000000
-10.777900 0.000000
-10.741000 0.000000
-10.704100 0.000000
-10.667200 0.000000
-10.630300 0.000000
-10.593400 0.000000
-10.556500 0.000000
-10.519600 0.000000
-10.482800 0.000000
-10.445900 0.000000
-10.409000 0.000000
-10.372100 0.000000
-10.335200 0.000000
-10.298300 0.000000
-10.261400 0.000000
-10.224500 0.000000
-10.187600 0.000000
-10.150700 0.000000
-10.113800 0.000000
-10.076900 0.000000
-10.040000 0.000000
-10.003100 0.000000
-9.966200 0.000000
-9.929300 0.000000
-9.892400 0.000000
-9.855500 0.000000
-9.818600 0.000000
-9.781700 0.000000
-9.744900 0.000000
-9.708000 0.000000
-9.671100 0.000000
-9.634200 0.000000
-9.597300 0.000000
-9.560400 0.000000
-9.523500 0.000000
-9.486600 0.000000
-9.449700 0.000000
-9.412800 0.000000
-9.375900 0.000000
-9.339000 0.000000
-9.302100 0.000000
-9.265200 0.000000
-9.228300 0.000000
-9.191400 0.000000
-9.154500 0.000000
-9.117600 0.000000
-9.080700 0.000000
-9.043800 0.000000
-9.007000 0.000000
-8.970100 0.000000
-8.933200 0.000000
-8.896300 0.000000
-8.859400 0.000000
-8.822500 0.000000
-8.785600 0.000000
-8.748700 0.000000
-8.711800 0.000000
-8.674900 0.000000
-8.638000 0.000000
-8.601100 0.000000
-8.564200 0.000000
-8.527300 0.000000
-8.490400 0.000000
-8.453500 0.000000
-8.416600 0.000000
-8.379700 0.000000
-8.342800 0.000000
-8.305900 0.000000
-8.269100 0.000000
-8.232200 0.000000
-8.195300 0.000000
-8.158400 0.000000
-8.121500 0.000000
-8.084600 0.000000
-8.047700 0.000000
-8.010800 0.000000
-7.973900 0.000000
-7.937000 0.000000
-7.900100 0.000000
-7.863200 0.000000
-7.826300 0.000000
-7.789400 0.000000
-7.752500 0.000000
-7.715600 0.000000
-7.678700 0.000000
-7.641800 0.000000
-7.604900 0.000000
-7.568000 0.000000
-7.531200 0.000000
-7.494300 0.000000
-7.457400 0.000000
-7.420500 0.000000
-7.383600 0.000000
-7.346700 0.000000
-7.309800 0.000000
-7.272900 0.000000
-7.236000 0.000000
-7.199100 0.000000
-7.162200 0.000000
-7.125300 0.000000
-7.088400 0.000000
-7.051500 0.000000
-7.014600 0.000000
-6.977700 0.000000
-6.940800 0.000000
-6.903900 0.000000
-6.867000 0.000000
-6.830100 0.000000
-6.793300 0.000000
-6.756400 0.000000
-6.719500 0.000000
-6.682600 0.000000
-6.645700 0.000000
-6.608800 0.000000
-6.571900 0.000000
-6.535000 0.000000
-6.498100 0.000000
-6.461200 0.000000
-6.424300 0.000000
-6.387400 0.000000
-6.350500 0.000000
-6.313600 0.000000
-6.276700 0.000000
-6.239800 0.000000
-6.202900 0.000000
-6.166000 0.000000
-6.129100 0.000000
-6.092200 0.000000
-6.055400 0.000000
-6.018500 0.000000
-5.981600 0.000000
-5.944700 0.000000
-5.907800 0.000000
-5.870900 0.000000
-5.834000 0.000000
-5.797100 0.000000
-5.760200 0.000000
-5.723300 0.000000
-5.686400 0.000000
-5.649500 0.000000
-5.612600 0.000000
-5.575700 0.000000
-5.538800 0.000000
-5.501900 0.000000
-5.465000 0.000000
-5.428100 0.000000
-5.391200 0.000000
-5.354300 0.000000
-5.317500 0.000000
-5.280600 0.000000
-5.243700 0.000000
-5.206800 0.000000
-5.169900 0.000000
-5.133000 0.000000
-5.096100 0.000000
-5.059200 0.000000
-5.022300 0.000000
-4.985400 0.000000
-4.948500 0.000000
-4.911600 0.000000
-4.874700 0.000000
-4.837800 0.000000
-4.800900 0.000000
-4.764000 0.000000
-4.727100 0.000000
-4.690200 0.000000
-4.653300 0.000000
-4.616400 0.000000
-4.579600 0.000000
-4.542700 0.000000
-4.505800 0.000000
-4.468900 0.000000
-4.432000 0.000000
-4.395100 0.000000
-4.358200 0.000000
-4.321300 0.000000
-4.284400 0.000000
-4.247500 0.000000
-4.210600 0.000000
-4.173700 0.000000
-4.136800 0.000000
-4.099900 0.000000
-4.063000 0.000000
-4.026100 0.000000
-3.989200 0.000000
-3.952300 0.000000
-3.915400 0.000000
-3.878500 0.000000
-3.841700 0.000000
-3.804800 0.000000
-3.767900 0.000000
-3.731000 0.000000
-3.694100 0.000000
-3.657200 0.000000
-3.620300 0.000000
-3.583400 0.000000
-3.546500 0.000000
-3.509600 0.000000
-3.472700 0.000000
-3.435800 0.000000
-3.398900 0.000000
-3.362000 0.000000
-3.325100 0.000000
-3.288200 0.000000
-3.251300 0.000000
-3.214400 0.000000
-3.177500 0.000000
-3.140600 0.000000
-3.103800 0.000000
-3.066900 0.000000
-3.030000 0.000000
-2.993100 0.000000
-2.956200 0.000000
-2.919300 0.000000
-2.882400 0.000000
-2.845500 0.000000
-2.808600 0.000000
-2.771700 0.000000
-2.734800 0.000000
-2.697900 0.000000
-2.661000 0.000000
-2.624100 0.000000
-2.587200 0.000000
-2.550300 0.000000
-2.513400 0.000000
-2.476500 0.000000
-2.439600 0.000000
-2.402700 0.000000
-2.365900 0.000000
-2.329000 0.000000
-2.292100 0.000000
-2.255200 0.005300
-2.218300 0.020300
-2.181400 0.040800
-2.144500 0.065500
-2.107600 0.094100
-2.070700 0.126200
-2.033800 0.161600
-1.996900 0.151700
-1.960000 0.162200
-1.923100 0.177600
-1.886200 0.191500
-1.849300 0.203000
-1.812400 0.211700
-1.775500 0.217000
-1.738600 0.216000
-1.701700 0.202000
-1.664800 0.207000
-1.628000 0.212100
-1.591100 0.217100
-1.554200 0.222200
-1.517300 0.226200
-1.480400 0.235000
-1.443500 0.245900
-1.406600 0.258900
-1.369700 0.273500
-1.332800 0.289200
-1.295900 0.307000
-1.259000 0.310200
-1.222100 0.314800
-1.185200 0.322900
-1.148300 0.331800
-1.111400 0.341500
-1.074500 0.352500
-1.037600 0.364900
-1.000700 0.378600
-0.963800 0.393400
-0.926900 0.409900
-0.890100 0.429900
-0.853200 0.449800
-0.816300 0.468000
-0.779400 0.482600
-0.742500 0.493500
-0.705600 0.500900
-0.668700 0.494300
-0.631800 0.488600
-0.594900 0.494200
-0.558000 0.500300
-0.521100 0.506800
-0.484200 0.513500
-0.447300 0.520400
-0.410400 0.527600
-0.373500 0.535600
-0.336600 0.543800
-0.299700 0.552500
-0.262800 0.561500
-0.225900 0.570600
-0.189000 0.583400
-0.152200 0.606400
-0.115300 0.637100
-0.078400 0.675000
-0.041500 0.721600
-0.004600 0.782900
0.032300 0.836800
0.069200 0.866900
0.106100 0.899300
0.143000 0.926300
0.179900 0.942600
0.216800 0.919300
0.253700 0.941800
0.290600 0.973200
0.327500 1.018800
0.364400 1.078000
0.401300 1.155100
0.438200 1.264500
0.475100 1.391500
0.512000 1.752100
0.548900 2.078600
0.585700 2.258300
0.622600 2.379500
0.659500 2.524600
0.696400 2.433200
0.733300 2.273200
0.770200 2.612000
0.807100 3.303800
0.844000 3.548000
0.880900 3.731200
0.917800 3.969700
0.954700 4.021500
0.991600 3.818200
1.028500 3.669100
1.065400 3.441800
1.102300 3.484000
1.139200 3.529600
1.176100 3.735700
1.213000 3.842400
1.249900 3.911500
1.286800 4.124600
1.323600 4.417500
1.360500 4.674000
1.397400 4.423800
1.434300 4.350400
1.471200 4.306200
1.508100 4.247600
1.545000 4.269800
1.581900 4.438300
1.618800 4.792100
1.655700 4.803700
1.692600 4.806500
1.729500 4.979800
1.766400 4.883000
1.803300 4.949000
1.840200 5.239800
1.877100 5.758600
1.914000 5.697700
1.950900 5.280300
1.987800 5.541800
2.024600 6.007300
2.061500 6.276400
2.098400 6.268200
2.135300 6.119900
2.172200 5.801300
2.209100 5.920000
2.246000 6.190600
2.282900 4.774800
2.319800 3.058100
2.356700 2.858900
2.393600 2.172000
2.430500 2.211900
2.467400 2.968500
2.504300 3.586000
2.541200 4.109200
2.578100 4.448600
2.615000 4.874400
2.651900 5.786700
2.688800 6.842900
2.725700 7.393200
2.762500 7.044700
2.799400 6.312400
2.836300 6.048200
2.873200 6.711800
2.910100 5.948400
2.947000 7.330300
2.983900 7.265200
3.020800 6.878500
3.057700 6.954100
3.094600 6.042400
3.131500 5.915400
3.168400 6.879700
3.205300 5.709200
3.242200 5.315700
3.279100 4.989800
3.316000 4.870900
3.352900 4.667700
3.389800 5.002900
3.426700 6.046300
3.463600 6.612100
3.500400 6.707300
3.537300 6.882900
3.574200 7.000200
3.611100 5.364400
3.648000 4.613500
3.684900 3.977400
3.721800 4.289100
3.758700 4.529200
3.795600 4.245500
3.832500 4.226500
3.869400 5.839700
3.906300 6.221400
3.943200 4.950100
3.980100 4.929700
4.017000 5.351400
4.053900 5.984200
4.090800 6.148100
4.127700 6.337400
4.164600 6.645800
4.201500 6.904100
4.238300 7.048000
4.275200 6.694000
4.312100 6.263200
4.349000 6.483900
4.385900 7.049100
4.422800 7.730700
4.459700 7.892000
4.496600 7.686400
4.533500 6.603400
4.570400 5.909600
4.607300 5.435000
4.644200 4.813200
4.681100 4.383000
4.718000 4.325400
4.754900 4.356800
4.791800 4.229000
4.828700 3.907300
4.865600 4.011800
4.902500 4.257500
4.939400 4.455500
4.976200 5.851800
5.013100 4.828200
5.050000 5.123400
5.086900 6.662700
5.123800 5.901000
5.160700 5.519800
5.197600 5.934800
5.234500 7.040100
5.271400 6.106700
5.308300 4.725000
5.345200 4.631400
5.382100 3.893400
5.419000 3.852500
5.455900 4.270500
5.492800 5.083700
5.529700 5.479100
5.566600 6.039600
5.603500 5.548000
5.640400 4.863200
5.677300 4.764800
5.714100 5.392700
5.751000 5.287500
5.787900 5.217400
5.824800 5.393500
5.861700 4.912300
5.898600 4.692000
5.935500 4.558900
5.972400 4.661500
6.009300 4.861400
6.046200 4.711300
6.083100 4.251500
6.120000 4.001700
6.156900 3.818200
6.193800 3.590800
6.230700 3.341300
6.267600 3.152900
6.304500 3.158700
6.341400 3.397600
6.378300 3.679000
6.415200 5.933200
6.452000 8.508200
6.488900 9.716200
6.525800 7.184000
6.562700 6.320400
6.599600 4.604800
6.636500 3.758500
6.673400 3.900200
6.710300 3.912900
6.747200 3.931800
6.784100 4.002200
6.821000 4.111800
6.857900 4.229300
6.894800 4.388200
6.931700 4.586600
6.968600 5.089600
7.005500 5.070300
7.042400 4.451700
7.079300 3.968900
7.116200 3.406800
7.153100 2.983800
7.189900 2.820500
7.226800 2.714900
7.263700 2.741000
7.300600 3.439800
7.337500 3.239500
7.374400 3.179500
7.411300 3.489200
7.448200 3.703000
7.485100 3.915000
7.522000 3.984000
7.558900 3.693800
7.595800 3.269300
7.632700 3.288600
7.669600 3.618100
7.706500 3.992800
7.743400 4.579100
7.780300 5.463400
7.817200 5.768100
7.854100 4.897800
7.891000 4.859100
7.927800 5.165400
7.964700 4.804200
8.001600 4.225200
8.038500 4.141700
8.075400 4.150100
8.112300 4.264100
8.149200 4.277000
8.186100 4.081800
8.223000 3.870900
8.259900 3.683600
8.296800 3.493000
8.333700 3.268800
8.370600 3.134200
8.407500 3.099900
8.444400 3.346800
8.481300 3.201800
8.518200 3.307300
8.555100 3.660300
8.592000 3.852100
8.628900 3.771600
8.665700 3.579100
8.702600 3.609700
8.739500 3.699100
8.776400 3.782000
8.813300 4.014900
8.850200 4.268600
8.887100 4.184300
8.924000 4.237500
8.960900 3.405800
8.997800 3.729900
9.034700 4.879300
9.071600 5.560300
9.108500 3.736700
9.145400 3.023300
9.182300 2.549900
9.219200 2.509900
9.256100 2.501800
9.293000 2.496800
9.329900 2.512300
9.366800 2.493300
9.403600 2.423700
9.440500 2.338800
9.477400 2.246900
9.514300 2.164300
9.551200 2.073400
9.588100 2.009200
9.625000 1.899400
9.661900 1.878000
9.698800 1.902000
9.735700 1.926100
9.772600 1.941200
9.809500 1.921800
9.846400 1.895200
9.883300 1.869300
9.920200 1.835200
9.957100 1.791500
9.994000 1.737000
10.030900 1.699100
10.067800 1.664900
10.104700 1.632100
10.141500 1.598900
10.178400 1.562800
10.215300 1.518100
10.252200 1.473700
10.289100 1.444600
10.326000 1.425900
10.362900 1.411500
10.399800 1.401400
10.436700 1.399500
10.473600 1.413600
10.510500 1.441800
10.547400 1.451000
10.584300 1.452500
10.621200 1.429600
10.658100 1.383100
10.695000 1.365900
10.731900 1.373500
10.768800 1.520500
10.805700 1.288000
10.842600 1.211500
10.879400 1.168800
10.916300 1.131300
10.953200 1.102000
10.990100 1.064600
11.027000 1.028900
11.063900 0.994700
11.100800 0.966100
11.137700 0.956100
11.174600 0.956300
11.211500 0.956900
11.248400 0.957300
11.285300 0.957700
11.322200 0.959800
11.359100 0.959200
11.396000 0.957500
11.432900 0.953700
11.469800 0.951000
11.506700 0.949300
11.543600 0.948000
11.580500 0.948500
11.617300 0.950600
11.654200 0.953700
11.691100 0.958000
11.728000 0.982700
11.764900 1.068700
11.801800 1.063600
11.838700 1.026200
11.875600 1.022800
11.912500 1.060400
11.949400 1.128800
11.986300 1.196800
12.023200 1.127200
12.060100 1.095700
12.097000 1.086300
12.133900 1.103800
12.170800 1.101200
12.207700 0.950000
12.244600 0.936800
12.281500 0.928100
12.318400 0.923400
12.355200 0.948200
12.392100 1.010500
12.429000 1.210500
12.465900 1.095600
12.502800 1.087500
12.539700 1.045300
12.576600 0.965100
12.613500 0.820700
12.650400 0.721400
12.687300 0.665100
12.724200 0.628100
12.761100 0.605800
12.798000 0.601400
12.834900 0.601300
12.871800 0.601100
12.908700 0.600900
12.945600 0.607000
12.982500 0.628200
13.019400 0.648300
13.056300 0.696700
13.093100 1.047100
13.130000 1.249300
13.166900 1.550500
13.203800 1.861500
13.240700 1.988700
13.277600 2.092300
13.314500 1.950400
13.351400 1.834600
13.388300 1.753600
13.425200 1.710800
13.462100 1.655600
13.499000 1.616100
13.535900 1.582000
13.572800 1.561100
13.609700 1.530400
13.646600 1.486200
13.683500 1.429300
13.720400 1.355800
13.757300 1.285300
13.794200 1.241100
13.831000 1.213000
13.867900 1.163400
13.904800 1.091500
13.941700 0.998100
13.978600 0.950200
14.015500 0.924200
14.052400 0.893700
14.089300 0.858400
14.126200 0.820200
14.163100 0.788400
14.200000 0.779600
14.236900 0.796100
14.273800 0.828500
14.310700 0.864700
14.347600 0.962200
14.384500 1.625000
14.421400 1.827300
14.458300 1.879200
14.495200 1.903600
14.532100 1.999600
14.568900 1.809600
14.605800 1.618800
14.642700 1.596100
14.679600 1.526100
14.716500 1.427100
14.753400 1.294400
14.790300 1.268900
14.827200 1.144400
14.864100 1.111400
14.901000 1.097600
14.937900 1.100100
14.974800 1.114200
15.011700 1.118000
15.048600 1.118500
15.085500 1.119700
15.122400 1.115700
15.159300 1.109700
15.196200 1.123100
15.233100 1.123600
15.270000 1.100100
15.306800 1.041700
15.343700 1.022000
15.380600 1.010900
15.417500 1.003000
15.454400 0.998000
15.491300 0.996300
15.528200 0.997800
15.565100 1.009600
15.602000 1.038700
15.638900 1.118600
15.675800 1.174300
15.712700 1.241400
15.749600 1.295200
15.786500 1.331500
15.823400 1.352900
15.860300 1.368000
15.897200 1.375800
15.934100 1.378500
15.971000 1.375000
16.007900 1.388700
16.044700 1.413600
16.081600 1.432900
16.118500 1.429700
16.155400 1.396300
16.192300 1.324100
16.229200 1.226300
16.266100 1.147300
16.303000 1.079200
16.339900 1.017800
16.376800 0.984900
16.413700 0.965500
16.450600 0.957800
16.487500 0.960600
16.524400 0.972500
16.561300 0.992800
16.598200 1.001600
16.635100 0.994000
16.672000 0.978000
16.708900 0.959700
16.745800 0.927200
16.782600 0.890200
16.819500 0.864600
16.856400 0.855600
16.893300 0.849600
16.930200 0.846300
16.967100 0.839600
17.004000 0.841600
17.040900 0.913200
17.077800 0.952800
17.114700 1.014200
17.151600 1.085400
17.188500 1.158600
17.225400 1.304900
17.262300 1.402400
17.299200 1.494000
17.336100 1.620500
17.373000 1.715700
17.409900 1.878500
17.446800 2.046900
17.483700 2.191400
17.520500 2.274400
17.557400 2.043300
17.594300 1.915900
17.631200 1.874000
17.668100 1.763100
17.705000 1.641600
17.741900 1.546700
17.778800 1.479700
17.815700 1.432400
17.852600 1.394200
17.889500 1.361800
17.926400 1.340200
17.963300 1.341400
18.000200 1.360500
18.037100 1.384100
18.074000 1.415800
18.110900 1.459700
18.147800 1.381500
18.184700 1.363400
18.221600 1.344200
18.258400 1.324200
18.295300 1.313300
18.332200 1.306700
18.369100 1.299700
18.406000 1.291400
18.442900 1.282700
18.479800 1.278900
18.516700 1.280700
18.553600 1.291200
18.590500 1.307700
18.627400 1.339300
18.664300 1.378300
18.701200 1.420500
18.738100 1.458000
18.775000 1.496800
18.811900 1.546600
18.848800 1.596500
18.885700 1.705200
18.922600 1.726800
18.959500 1.745100
18.996300 1.771600
19.033200 1.827000
19.070100 1.874800
19.107000 1.932000
19.143900 2.037400
19.180800 1.959700
19.217700 1.839800
19.254600 1.792600
19.291500 1.737700
19.328400 1.720200
19.365300 1.780500
19.402200 1.844600
19.439100 1.908900
19.476000 1.973500
19.512900 2.021000
19.549800 1.969300
19.586700 1.948300
19.623600 1.944500
19.660500 1.975300
19.697400 1.997400
19.734200 2.021600
19.771100 2.026000
19.808000 1.953000
19.844900 1.880100
19.881800 1.853000
19.918700 1.838300
19.955600 1.829000
19.992500 1.829800
20.029400 1.842500
20.066300 1.865400
20.103200 1.886900
20.140100 1.912300
20.177000 1.948100
20.213900 1.986600
20.250800 2.029000
20.287700 2.108400
20.324600 2.286100
20.361500 2.283300
20.398400 2.282900
20.435300 2.282000
20.472100 2.220100
20.509000 2.182200
20.545900 2.140600
20.582800 2.175300
20.619700 2.090100
20.656600 2.058100
20.693500 2.038100
20.730400 2.015500
20.767300 2.018600
20.804200 2.026500
20.841100 2.013100
20.878000 1.968200
20.914900 1.904600
20.951800 1.880300
20.988700 1.929800
21.025600 2.066800
21.062500 2.109500
21.099400 2.152800
21.136300 2.144900
21.173200 2.130500
21.210000 2.145800
21.246900 2.192400
21.283800 2.266100
21.320700 2.350300
21.357600 2.405800
21.394500 2.419800
21.431400 2.359100
21.468300 2.295100
21.505200 2.270200
21.542100 2.259100
21.579000 2.251600
21.615900 2.248000
21.652800 2.257500
21.689700 2.278400
21.726600 2.304400
21.763500 2.359200
21.800400 2.374700
21.837300 2.375800
21.874200 2.466100
21.911100 2.561600
21.947900 2.674000
21.984800 2.784700
22.021700 2.797400
22.058600 2.757900
22.095500 2.683100
22.132400 2.604400
22.169300 2.515700
22.206200 2.456200
22.243100 2.411300
22.280000 2.363500
22.316900 2.333400
22.353800 2.291900
22.390700 2.228400
22.427600 2.204500
22.464500 2.190700
22.501400 2.182700
22.538300 2.199400
22.575200 2.233000
22.612100 2.266600
22.649000 2.311400
22.685800 2.375900
22.722700 2.464500
22.759600 2.603200
22.796500 2.749900
22.833400 2.810900
22.870300 2.824400
22.907200 2.829100
22.944100 2.815800
22.981000 2.752900
23.017900 2.919600
23.054800 2.619700
23.091700 2.587800
23.128600 2.592000
23.165500 2.605700
23.202400 2.617100
23.239300 2.590800
23.276200 2.602500
23.313100 2.689000
23.350000 2.662400
23.386900 2.730800
23.423700 2.782000
23.460600 2.839500
23.497500 2.818900
23.534400 2.840800
23.571300 2.825200
23.608200 2.797400
23.645100 2.752900
23.682000 2.782600
23.718900 2.612300
23.755800 2.316700
23.792700 2.205300
23.829600 2.174800
23.866500 2.164500
23.903400 2.181600
23.940300 2.228700
23.977200 2.450500
24.014100 2.697600
24.051000 2.544500
24.087900 2.201800
24.124800 2.097200
24.161600 2.020500
24.198500 1.964200
24.235400 1.919500
24.272300 1.883400
24.309200 1.857300
24.346100 1.840000
24.383000 1.832600
24.419900 1.829400
24.456800 1.825500
24.493700 1.914400
24.530600 1.834000
24.567500 1.857400
24.604400 1.862000
24.641300 1.857000
24.678200 1.853600
24.715100 1.867200
24.752000 1.876600
24.788900 1.882600
24.825800 1.885200
24.862700 1.879000
24.899500 1.933800
24.936400 1.849100
24.973300 1.691800
25.010200 1.632400
25.047100 1.599700
25.084000 1.575200
25.120900 1.559900
25.157800 1.558400
25.194700 1.601900
25.231600 1.616600
25.268500 1.605300
25.305400 1.605800
25.342300 1.616200
25.379200 1.653100
25.416100 1.702600
25.453000 1.786000
25.489900 1.821700
25.526800 1.845800
25.563700 1.865500
25.600600 1.811600
25.637400 1.645700
25.674300 1.524700
25.711200 1.457400
25.748100 1.418600
25.785000 1.433600
25.821900 1.439200
25.858800 1.438600
25.895700 1.531500
25.932600 1.503800
25.969500 1.481700
26.006400 1.511100
26.043300 1.526000
26.080200 1.501100
26.117100 1.536900
26.154000 1.569300
26.190900 1.587000
26.227800 1.598700
26.264700 1.613700
26.301600 1.619000
26.338500 1.646100
26.375300 1.689800
26.412200 1.741000
26.449100 1.814300
26.486000 1.882800
26.522900 1.953900
26.559800 1.986700
26.596700 1.966000
26.633600 1.925300
26.670500 1.886600
26.707400 1.850200
26.744300 1.839100
26.781200 1.875000
26.818100 1.937000
26.855000 2.081400
26.891900 2.367300
26.928800 2.560900
26.965700 2.634900
27.002600 2.622200
27.039500 2.635800
27.076400 2.673600
27.113200 2.760200
27.150100 2.881600
27.187000 3.018400
27.223900 3.105000
27.260800 3.214600
27.297700 3.293500
27.334600 3.341500
27.371500 3.325900
27.408400 3.378600
27.445300 3.511100
27.482200 3.470200
27.519100 3.394700
27.556000 3.371100
27.592900 3.379300
27.629800 3.435600
27.666700 3.481900
27.703600 3.503000
27.740500 3.496500
27.777400 3.459300
27.814300 3.411200
27.851100 3.288200
27.888000 3.100900
27.924900 2.846500
27.961800 2.581900
27.998700 2.488800
28.035600 2.469100
28.072500 2.433600
28.109400 2.515800
28.146300 2.547100
28.183200 2.642900
28.220100 2.705900
28.257000 2.712900
28.293900 2.689500
28.330800 2.690600
28.367700 2.723100
28.404600 2.765400
28.441500 2.795500
28.478400 2.892300
28.515300 2.955300
28.552200 3.140300
28.589000 2.889600
28.625900 2.872000
28.662800 2.938700
28.699700 2.767700
28.736600 2.818600
28.773500 2.641500
28.810400 2.496200
28.847300 2.396500
28.884200 2.296600
28.921100 2.499500
28.958000 2.287100
28.994900 2.249000
29.031800 2.306600
29.068700 2.352700
29.105600 2.377200
29.142500 2.478700
29.179400 2.525900
29.216300 2.511300
29.253200 2.508000
29.290100 2.535200
29.326900 2.595700
29.363800 2.691800
29.400700 2.491300
29.437600 2.359700
29.474500 2.283900
29.511400 2.353900
29.548300 2.406500
29.585200 2.283600
29.622100 2.321700
29.659000 2.089000
29.695900 1.968400
29.732800 1.953800
29.769700 1.918700
29.806600 1.866300
29.843500 1.836100
29.880400 1.797800
29.917300 1.739600
29.954200 1.660500
29.991100 1.561900
30.028000 1.441700
30.064800 1.346700
30.101700 1.271600
30.138600 1.223200
30.175500 1.168000
30.212400 1.112300
30.249300 1.088800
30.286200 1.072400
30.323100 1.061200
30.360000 1.054900
30.396900 1.056300
30.433800 1.095800
30.470700 1.170400
30.507600 1.176800
30.544500 1.128600
30.581400 1.155500
30.618300 1.177000
30.655200 1.180000
30.692100 1.171800
30.729000 1.126100
30.765900 1.112200
30.802700 1.120200
30.839600 1.136600
30.876500 1.157800
30.913400 1.177300
30.950300 1.185300
30.987200 1.202800
31.024100 1.236200
31.061000 1.265500
31.097900 1.291900
31.134800 1.326200
31.171700 1.362100
31.208600 1.374500
31.245500 1.355200
31.282400 1.340100
31.319300 1.365000
31.356200 1.433800
31.393100 1.522000
31.430000 1.613400
31.466900 1.715300
31.503800 1.835800
31.540600 2.281600
31.577500 2.514000
31.614400 2.637700
31.651300 2.634600
31.688200 2.461800
31.725100 2.381700
31.762000 2.296000
31.798900 2.218500
31.835800 2.185900
31.872700 2.124100
31.909600 2.064200
31.946500 2.047000
31.983400 2.094400
32.020300 2.136600
32.057200 2.141700
32.094100 2.153100
32.131000 2.175300
32.167900 2.203900
32.204800 2.174300
32.241700 2.135800
32.278500 2.133500
32.315400 2.124500
32.352300 2.103600
32.389200 2.010200
32.426100 1.978200
32.463000 1.936500
32.499900 2.000200
32.536800 2.104700
32.573700 2.245300
32.610600 2.288500
32.647500 2.290500
32.684400 2.284300
32.721300 2.281700
32.758200 2.280900
32.795100 2.309300
32.832000 2.314100
32.868900 2.303600
32.905800 2.329400
32.942700 2.393900
32.979600 2.485400
33.016400 2.663200
33.053300 2.516800
33.090200 2.472900
33.127100 2.483900
33.164000 2.382000
33.200900 2.357700
33.237800 2.350800
33.274700 2.442500
33.311600 2.377500
33.348500 2.442800
33.385400 2.646300
33.422300 2.895500
33.459200 2.756000
33.496100 2.644600
33.533000 2.511500
33.569900 2.397000
33.606800 2.348800
33.643700 2.368400
33.680600 2.344100
33.717500 2.343100
33.754300 2.371500
33.791200 2.390200
33.828100 2.366300
33.865000 2.338500
33.901900 2.332200
33.938800 2.334200
33.975700 2.343800
34.012600 2.391300
34.049500 2.447800
34.086400 2.425000
34.123300 2.429000
34.160200 2.455400
34.197100 2.513300
34.234000 2.546300
34.270900 2.634200
34.307800 2.710500
34.344700 2.382900
34.381600 2.173700
34.418500 2.052900
34.455400 1.974600
34.492200 1.706600
34.529100 1.459100
34.566000 1.419500
34.602900 1.439800
34.639800 1.549300
34.676700 1.664700
34.713600 1.773200
34.750500 1.815100
34.787400 1.896200
34.824300 2.246100
34.861200 2.012400
34.898100 1.806600
34.935000 1.344700
34.971900 1.082400
35.008800 0.729400
35.045700 0.559300
35.082600 0.456200
35.119500 0.407600
35.156400 0.374500
35.193300 0.345500
35.230100 0.320500
35.267000 0.300300
35.303900 0.285900
35.340800 0.274400
35.377700 0.263500
35.414600 0.252300
35.451500 0.237600
35.488400 0.222000
35.525300 0.205600
35.562200 0.188400
35.599100 0.170500
35.636000 0.153100
35.672900 0.150300
35.709800 0.147300
35.746700 0.135000
35.783600 0.110300
35.820500 0.078500
35.857400 0.057900
35.894300 0.041600
35.931200 0.000500
35.968000 0.000000
36.004900 0.000000
36.041800 0.000000
36.078700 0.000000
36.115600 0.000000
36.152500 0.000000
36.189400 0.000000
36.226300 0.000000
36.263200 0.000000
36.300100 0.000000
36.337000 0.000000
36.373900 0.000000
36.410800 0.000000
36.447700 0.000000
36.484600 0.000000
36.521500 0.000000
36.558400 0.000000
36.595300 0.000000
36.632200 0.000000
36.669100 0.000000
36.705900 0.000000
36.742800 0.000000
36.779700 0.000000
36.816600 0.000000
36.853500 0.000000
36.890400 0.000000
36.927300 0.000000
36.964200 0.000000
37.001100 0.000000
37.038000 0.000000
37.074900 0.000000
37.111800 0.000000
37.148700 0.000000
37.185600 0.000000
37.222500 0.000000
37.259400 0.000000
37.296300 0.000000
37.333200 0.000000
37.370100 0.000000
37.407000 0.000000
37.443800 0.000000
37.480700 0.000000
37.517600 0.000000
37.554500 0.000000
37.591400 0.000000
37.628300 0.000000
37.665200 0.000000
37.702100 0.000000
37.739000 0.000000
37.775900 0.000000
37.812800 0.000000
37.849700 0.000000
37.886600 0.000000
37.923500 0.000000
37.960400 0.000000
37.997300 0.000000
38.034200 0.000000
38.071100 0.000000
38.108000 0.000000
38.144900 0.000000
38.181700 0.000000
38.218600 0.000000
38.255500 0.000000
38.292400 0.000000
38.329300 0.000000
38.366200 0.000000
38.403100 0.000000
38.440000 0.000000
38.476900 0.000000
38.513800 0.000000
38.550700 0.000000
38.587600 0.000000
38.624500 0.000000
38.661400 0.000000
38.698300 0.000000
38.735200 0.000000
38.772100 0.000000
38.809000 0.000000
38.845900 0.000000
38.882800 0.000000
38.919600 0.000000
38.956500 0.000000
38.993400 0.000000
39.030300 0.000000
39.067200 0.000000
39.104100 0.000000
39.141000 0.000000
39.177900 0.000000
39.214800 0.000000
39.251700 0.000000
39.288600 0.000000
e
