set title 'mp-755137 - Density of States'
set xlabel 'Energy (eV)'
set ylabel 'DOS (states/eV)'
set grid
set xrange [-10:10]
set yrange [0:17.009]
set xzeroaxis lt -1
set terminal png size 800,600
set output 'mp-755137_dos_gnuplot.png'
plot '-' using 1:2 with lines title 'DOS'
-18.080300 0.000000
-18.057600 0.000000
-18.034900 0.000000
-18.012100 0.000000
-17.989400 0.000000
-17.966700 0.000000
-17.943900 0.000000
-17.921200 0.000000
-17.898400 0.000000
-17.875700 0.000000
-17.853000 0.000000
-17.830200 0.000000
-17.807500 0.000000
-17.784800 0.000000
-17.762000 0.000000
-17.739300 0.000000
-17.716600 0.000000
-17.693800 0.000000
-17.671100 0.000000
-17.648400 0.000000
-17.625600 0.000000
-17.602900 0.000000
-17.580200 0.000000
-17.557400 0.000000
-17.534700 0.000000
-17.512000 0.000000
-17.489200 0.000000
-17.466500 0.000000
-17.443800 0.000000
-17.421000 0.000000
-17.398300 0.000000
-17.375600 0.000000
-17.352800 0.000000
-17.330100 0.000000
-17.307400 0.000000
-17.284600 0.000000
-17.261900 0.000000
-17.239200 0.000000
-17.216400 0.000000
-17.193700 0.000000
-17.171000 0.000000
-17.148200 0.000000
-17.125500 0.000000
-17.102800 0.000000
-17.080000 0.000000
-17.057300 0.000000
-17.034600 0.000000
-17.011800 0.000000
-16.989100 0.000000
-16.966400 0.000000
-16.943600 0.000000
-16.920900 0.000000
-16.898100 0.000000
-16.875400 0.000000
-16.852700 0.000000
-16.829900 0.000000
-16.807200 0.000000
-16.784500 0.000000
-16.761700 0.000000
-16.739000 0.000000
-16.716300 0.000000
-16.693500 0.000000
-16.670800 0.000000
-16.648100 0.000000
-16.625300 0.000000
-16.602600 0.000000
-16.579900 0.000000
-16.557100 0.000000
-16.534400 0.000000
-16.511700 0.000000
-16.488900 0.000000
-16.466200 0.000000
-16.443500 0.000000
-16.420700 0.000000
-16.398000 0.000000
-16.375300 0.000000
-16.352500 0.000000
-16.329800 0.000000
-16.307100 0.000000
-16.284300 0.000000
-16.261600 0.000000
-16.238900 0.000000
-16.216100 0.000000
-16.193400 0.000000
-16.170700 0.000000
-16.147900 0.000000
-16.125200 0.000000
-16.102500 0.000000
-16.079700 0.000000
-16.057000 0.000000
-16.034300 0.000000
-16.011500 0.001400
-15.988800 0.195600
-15.966100 0.464100
-15.943300 0.537500
-15.920600 0.677300
-15.897900 0.792100
-15.875100 0.867800
-15.852400 0.952300
-15.829600 1.039200
-15.806900 1.131200
-15.784200 1.217100
-15.761400 1.295400
-15.738700 1.380000
-15.716000 1.470100
-15.693200 1.560400
-15.670500 1.652800
-15.647800 1.758200
-15.625000 1.890800
-15.602300 2.042300
-15.579600 2.219800
-15.556800 2.365100
-15.534100 2.468800
-15.511400 2.619500
-15.488600 2.891200
-15.465900 3.294700
-15.443200 3.463100
-15.420400 3.980900
-15.397700 5.152000
-15.375000 4.069000
-15.352200 3.304000
-15.329500 3.156400
-15.306800 2.846000
-15.284000 2.583400
-15.261300 2.486900
-15.238600 2.480700
-15.215800 2.480800
-15.193100 2.373200
-15.170400 2.281900
-15.147600 2.206700
-15.124900 2.216000
-15.102200 2.230800
-15.079400 2.246600
-15.056700 2.284200
-15.034000 2.317400
-15.011200 2.355700
-14.988500 2.379600
-14.965800 2.403100
-14.943000 2.472400
-14.920300 2.543000
-14.897600 2.650800
-14.874800 2.784200
-14.852100 2.935700
-14.829300 3.114300
-14.806600 3.346100
-14.783900 3.411100
-14.761100 3.800000
-14.738400 4.202200
-14.715700 4.675000
-14.692900 5.317700
-14.670200 6.554000
-14.647500 9.474000
-14.624700 12.519800
-14.602000 4.561500
-14.579300 2.119400
-14.556500 0.000000
-14.533800 1.106400
-14.511100 4.613700
-14.488300 4.575000
-14.465600 4.536700
-14.442900 4.498800
-14.420100 4.461300
-14.397400 4.641600
-14.374700 3.464600
-14.351900 3.790600
-14.329200 3.569500
-14.306500 3.545600
-14.283700 3.540900
-14.261000 3.536600
-14.238300 3.624600
-14.215500 3.797800
-14.192800 3.903300
-14.170100 4.497500
-14.147300 4.374700
-14.124600 4.467500
-14.101900 6.805300
-14.079100 6.176800
-14.056400 6.032800
-14.033700 6.830400
-14.010900 5.764500
-13.988200 5.760800
-13.965500 6.316300
-13.942700 7.976500
-13.920000 9.076800
-13.897300 9.568700
-13.874500 7.800800
-13.851800 5.980200
-13.829100 5.068700
-13.806300 4.284700
-13.783600 3.547100
-13.760800 2.750700
-13.738100 0.255000
-13.715400 0.000000
-13.692600 0.000000
-13.669900 0.000000
-13.647200 0.000000
-13.624400 0.000000
-13.601700 0.000000
-13.579000 0.000000
-13.556200 0.000000
-13.533500 0.000000
-13.510800 0.000000
-13.488000 0.000000
-13.465300 0.000000
-13.442600 0.000000
-13.419800 0.000000
-13.397100 0.000000
-13.374400 0.000000
-13.351600 0.000000
-13.328900 0.000000
-13.306200 0.000000
-13.283400 0.000000
-13.260700 0.000000
-13.238000 0.000000
-13.215200 0.000000
-13.192500 0.000000
-13.169800 0.000000
-13.147000 0.000000
-13.124300 0.000000
-13.101600 0.000000
-13.078800 0.000000
-13.056100 0.000000
-13.033400 0.000000
-13.010600 0.000000
-12.987900 0.000000
-12.965200 0.000000
-12.942400 0.000000
-12.919700 0.000000
-12.897000 0.000000
-12.874200 0.000000
-12.851500 0.000000
-12.828800 0.000000
-12.806000 0.000000
-12.783300 0.000000
-12.760500 0.000000
-12.737800 0.000000
-12.715100 0.000000
-12.692300 0.000000
-12.669600 0.000000
-12.646900 0.000000
-12.624100 0.000000
-12.601400 0.000000
-12.578700 0.000000
-12.555900 0.000000
-12.533200 0.000000
-12.510500 0.000000
-12.487700 0.000000
-12.465000 0.000000
-12.442300 0.000000
-12.419500 0.000000
-12.396800 0.000000
-12.374100 0.000000
-12.351300 0.000000
-12.328600 0.000000
-12.305900 0.000000
-12.283100 0.000000
-12.260400 0.000000
-12.237700 0.000000
-12.214900 0.000000
-12.192200 0.000000
-12.169500 0.000000
-12.146700 0.000000
-12.124000 0.000000
-12.101300 0.000000
-12.078500 0.000000
-12.055800 0.000000
-12.033100 0.000000
-12.010300 0.000000
-11.987600 0.000000
-11.964900 0.000000
-11.942100 0.000000
-11.919400 0.000000
-11.896700 0.000000
-11.873900 0.000000
-11.851200 0.000000
-11.828500 0.000000
-11.805700 0.000000
-11.783000 0.000000
-11.760200 0.000000
-11.737500 0.000000
-11.714800 0.000000
-11.692000 0.000000
-11.669300 0.000000
-11.646600 0.000000
-11.623800 0.000000
-11.601100 0.000000
-11.578400 0.000000
-11.555600 0.000000
-11.532900 0.000000
-11.510200 0.000000
-11.487400 0.000000
-11.464700 0.000000
-11.442000 0.000000
-11.419200 0.000000
-11.396500 0.000000
-11.373800 0.000000
-11.351000 0.000000
-11.328300 0.000000
-11.305600 0.000000
-11.282800 0.000000
-11.260100 0.000000
-11.237400 0.000000
-11.214600 0.000000
-11.191900 0.000000
-11.169200 0.000000
-11.146400 0.000000
-11.123700 0.000000
-11.101000 0.000000
-11.078200 0.000000
-11.055500 0.000000
-11.032800 0.000000
-11.010000 0.000000
-10.987300 0.000000
-10.964600 0.000000
-10.941800 0.000000
-10.919100 0.000000
-10.896400 0.000000
-10.873600 0.000000
-10.850900 0.000000
-10.828200 0.000000
-10.805400 0.000000
-10.782700 0.000000
-10.760000 0.000000
-10.737200 0.000000
-10.714500 0.000000
-10.691700 0.000000
-10.669000 0.000000
-10.646300 0.000000
-10.623500 0.000000
-10.600800 0.000000
-10.578100 0.000000
-10.555300 0.000000
-10.532600 0.000000
-10.509900 0.000000
-10.487100 0.000000
-10.464400 0.000000
-10.441700 0.000000
-10.418900 0.000000
-10.396200 0.000000
-10.373500 0.000000
-10.350700 0.000000
-10.328000 0.000000
-10.305300 0.000000
-10.282500 0.000000
-10.259800 0.000000
-10.237100 0.000000
-10.214300 0.000000
-10.191600 0.000000
-10.168900 0.000000
-10.146100 0.000000
-10.123400 0.000000
-10.100700 0.000000
-10.077900 0.000000
-10.055200 0.000000
-10.032500 0.000000
-10.009700 0.000000
-9.987000 0.000000
-9.964300 0.000000
-9.941500 0.000000
-9.918800 0.000000
-9.896100 0.000000
-9.873300 0.000000
-9.850600 0.000000
-9.827900 0.000000
-9.805100 0.000000
-9.782400 0.000000
-9.759700 0.000000
-9.736900 0.000000
-9.714200 0.000000
-9.691400 0.000000
-9.668700 0.000000
-9.646000 0.000000
-9.623200 0.000000
-9.600500 0.000000
-9.577800 0.000000
-9.555000 0.000000
-9.532300 0.000000
-9.509600 0.000000
-9.486800 0.000000
-9.464100 0.000000
-9.441400 0.000000
-9.418600 0.000000
-9.395900 0.000000
-9.373200 0.000000
-9.350400 0.000000
-9.327700 0.000000
-9.305000 0.000000
-9.282200 0.000000
-9.259500 0.000000
-9.236800 0.000000
-9.214000 0.000000
-9.191300 0.000000
-9.168600 0.000000
-9.145800 0.000000
-9.123100 0.000000
-9.100400 0.000000
-9.077600 0.000000
-9.054900 0.000000
-9.032200 0.000000
-9.009400 0.000000
-8.986700 0.000000
-8.964000 0.000000
-8.941200 0.000000
-8.918500 0.000000
-8.895800 0.000000
-8.873000 0.000000
-8.850300 0.000000
-8.827600 0.000000
-8.804800 0.000000
-8.782100 0.000000
-8.759400 0.000000
-8.736600 0.000000
-8.713900 0.000000
-8.691200 0.000000
-8.668400 0.000000
-8.645700 0.000000
-8.622900 0.000000
-8.600200 0.000000
-8.577500 0.000000
-8.554700 0.000000
-8.532000 0.000000
-8.509300 0.000000
-8.486500 0.000000
-8.463800 0.000000
-8.441100 0.000000
-8.418300 0.000000
-8.395600 0.000000
-8.372900 0.000000
-8.350100 0.000000
-8.327400 0.000000
-8.304700 0.000000
-8.281900 0.000000
-8.259200 0.000000
-8.236500 0.000000
-8.213700 0.000000
-8.191000 0.000000
-8.168300 0.000000
-8.145500 0.000000
-8.122800 0.000000
-8.100100 0.000000
-8.077300 0.338900
-8.054600 0.635300
-8.031900 0.856400
-8.009100 1.167000
-7.986400 1.537200
-7.963700 2.391400
-7.940900 1.766300
-7.918200 1.712100
-7.895500 1.620500
-7.872700 1.516900
-7.850000 1.425800
-7.827300 1.399800
-7.804500 1.369600
-7.781800 1.382300
-7.759100 1.402700
-7.736300 1.418000
-7.713600 1.428700
-7.690900 1.468700
-7.668100 1.518500
-7.645400 1.568000
-7.622600 1.761000
-7.599900 1.721800
-7.577200 1.741100
-7.554400 1.762100
-7.531700 1.783400
-7.509000 1.805900
-7.486200 1.891000
-7.463500 2.057700
-7.440800 2.212700
-7.418000 2.379300
-7.395300 2.425700
-7.372600 2.483700
-7.349800 2.458700
-7.327100 2.366800
-7.304400 2.190100
-7.281600 1.968500
-7.258900 1.900300
-7.236200 1.827900
-7.213400 1.764500
-7.190700 1.707800
-7.168000 1.656700
-7.145200 1.610500
-7.122500 1.565300
-7.099800 1.515900
-7.077000 1.489500
-7.054300 1.467900
-7.031600 1.450600
-7.008800 1.432000
-6.986100 1.415100
-6.963400 1.403100
-6.940600 1.391500
-6.917900 1.380700
-6.895200 1.371700
-6.872400 1.363600
-6.849700 1.354000
-6.827000 1.343600
-6.804200 1.334500
-6.781500 1.327400
-6.758800 1.319900
-6.736000 1.316000
-6.713300 1.314500
-6.690600 1.301000
-6.667800 1.277600
-6.645100 1.254600
-6.622300 1.235200
-6.599600 1.218400
-6.576900 1.220600
-6.554100 1.222000
-6.531400 1.222300
-6.508700 1.226300
-6.485900 1.241100
-6.463200 1.255600
-6.440500 1.264300
-6.417700 1.269100
-6.395000 1.270000
-6.372300 1.271400
-6.349500 1.274100
-6.326800 1.284900
-6.304100 1.345600
-6.281300 1.435600
-6.258600 1.514900
-6.235900 1.606400
-6.213100 1.751000
-6.190400 1.789400
-6.167700 1.752700
-6.144900 1.669500
-6.122200 1.443300
-6.099500 1.363100
-6.076700 1.291600
-6.054000 1.226900
-6.031300 1.165900
-6.008500 1.111600
-5.985800 1.064300
-5.963100 1.022100
-5.940300 0.983600
-5.917600 0.948900
-5.894900 0.917700
-5.872100 0.892700
-5.849400 0.869000
-5.826700 0.843100
-5.803900 0.819300
-5.781200 0.795700
-5.758500 0.766300
-5.735700 0.739100
-5.713000 0.716500
-5.690300 0.697000
-5.667500 0.678700
-5.644800 0.661300
-5.622100 0.644500
-5.599300 0.683900
-5.576600 0.620900
-5.553800 0.565100
-5.531100 0.552900
-5.508400 0.541400
-5.485600 0.529400
-5.462900 0.519000
-5.440200 0.509400
-5.417400 0.499900
-5.394700 0.490100
-5.372000 0.481400
-5.349200 0.473200
-5.326500 0.465100
-5.303800 0.457200
-5.281000 0.469700
-5.258300 0.463800
-5.235600 0.434100
-5.212800 0.425200
-5.190100 0.416800
-5.167400 0.408400
-5.144600 0.399800
-5.121900 0.390900
-5.099200 0.381600
-5.076400 0.371700
-5.053700 0.361100
-5.031000 0.350300
-5.008200 0.339300
-4.985500 0.328500
-4.962800 0.318000
-4.940000 0.308400
-4.917300 0.300700
-4.894600 0.293600
-4.871800 0.287100
-4.849100 0.280700
-4.826400 0.274300
-4.803600 0.268000
-4.780900 0.261800
-4.758200 0.255500
-4.735400 0.249300
-4.712700 0.243200
-4.690000 0.237000
-4.667200 0.230900
-4.644500 0.224700
-4.621800 0.218800
-4.599000 0.213100
-4.576300 0.207300
-4.553500 0.201700
-4.530800 0.195700
-4.508100 0.189300
-4.485300 0.183500
-4.462600 0.178600
-4.439900 0.173800
-4.417100 0.169000
-4.394400 0.164200
-4.371700 0.159400
-4.348900 0.154400
-4.326200 0.149400
-4.303500 0.144500
-4.280700 0.139700
-4.258000 0.134800
-4.235300 0.130000
-4.212500 0.125300
-4.189800 0.120600
-4.167100 0.116000
-4.144300 0.111500
-4.121600 0.107100
-4.098900 0.102900
-4.076100 0.098900
-4.053400 0.095000
-4.030700 0.091300
-4.007900 0.087800
-3.985200 0.084600
-3.962500 0.081400
-3.939700 0.078300
-3.917000 0.075200
-3.894300 0.072300
-3.871500 0.069500
-3.848800 0.066000
-3.826100 0.060900
-3.803300 0.054100
-3.780600 0.046600
-3.757900 0.040800
-3.735100 0.034400
-3.712400 0.027900
-3.689700 0.021900
-3.666900 0.016700
-3.644200 0.012200
-3.621500 0.008400
-3.598700 0.005300
-3.576000 0.002900
-3.553300 0.001200
-3.530500 0.000300
-3.507800 0.000000
-3.485000 0.000000
-3.462300 0.000000
-3.439600 0.000000
-3.416800 0.000000
-3.394100 0.000000
-3.371400 0.000000
-3.348600 0.000000
-3.325900 0.000000
-3.303200 0.000000
-3.280400 0.000000
-3.257700 0.000000
-3.235000 0.000000
-3.212200 0.000000
-3.189500 0.000000
-3.166800 0.000000
-3.144000 0.000000
-3.121300 0.000000
-3.098600 0.000000
-3.075800 0.000000
-3.053100 0.000000
-3.030400 0.000000
-3.007600 0.000000
-2.984900 0.000000
-2.962200 0.000000
-2.939400 0.000000
-2.916700 0.000000
-2.894000 0.000000
-2.871200 0.000000
-2.848500 0.000000
-2.825800 0.000000
-2.803000 0.000000
-2.780300 0.191000
-2.757600 0.250900
-2.734800 0.391700
-2.712100 0.563000
-2.689400 0.759500
-2.666600 0.995600
-2.643900 1.275200
-2.621200 1.650200
-2.598400 2.124700
-2.575700 3.145100
-2.553000 3.662500
-2.530200 3.881500
-2.507500 3.696900
-2.484700 3.484800
-2.462000 3.306000
-2.439300 3.128400
-2.416500 3.026800
-2.393800 3.292000
-2.371100 3.578200
-2.348300 3.660900
-2.325600 3.375300
-2.302900 3.227100
-2.280100 3.194400
-2.257400 3.174700
-2.234700 3.313100
-2.211900 3.418900
-2.189200 3.425600
-2.166500 3.495200
-2.143700 4.148500
-2.121000 5.378200
-2.098300 5.327400
-2.075500 4.290300
-2.052800 3.512100
-2.030100 3.398400
-2.007300 3.861800
-1.984600 4.210500
-1.961900 3.586800
-1.939100 3.616000
-1.916400 3.656900
-1.893700 3.936500
-1.870900 4.553800
-1.848200 4.538000
-1.825500 4.491400
-1.802700 4.221000
-1.780000 4.220700
-1.757300 4.210400
-1.734500 4.223600
-1.711800 4.262600
-1.689100 4.443600
-1.666300 4.245500
-1.643600 3.967400
-1.620900 3.563400
-1.598100 3.199200
-1.575400 2.976800
-1.552700 2.853500
-1.529900 2.719000
-1.507200 2.557200
-1.484500 2.385700
-1.461700 1.955400
-1.439000 1.697800
-1.416200 1.452700
-1.393500 1.259400
-1.370800 1.132100
-1.348000 1.290300
-1.325300 1.445400
-1.302600 1.600700
-1.279800 1.847200
-1.257100 1.974200
-1.234400 2.194000
-1.211600 2.543300
-1.188900 3.133900
-1.166200 3.901700
-1.143400 4.327100
-1.120700 4.332500
-1.098000 4.327500
-1.075200 4.577400
-1.052500 4.807200
-1.029800 4.705900
-1.007000 4.532200
-0.984300 4.282400
-0.961600 4.007800
-0.938800 3.792500
-0.916100 3.590900
-0.893400 3.401900
-0.870600 3.502900
-0.847900 3.426100
-0.825200 3.653600
-0.802400 3.652100
-0.779700 3.597400
-0.757000 3.580900
-0.734200 3.588800
-0.711500 3.576900
-0.688800 3.627200
-0.666000 3.570300
-0.643300 3.554900
-0.620600 3.532400
-0.597800 3.517800
-0.575100 3.540000
-0.552400 3.680100
-0.529600 3.708900
-0.506900 3.770500
-0.484200 3.723500
-0.461400 3.687400
-0.438700 3.702500
-0.415900 3.770900
-0.393200 3.726100
-0.370500 3.714300
-0.347700 3.687900
-0.325000 3.688900
-0.302300 3.771200
-0.279500 3.594600
-0.256800 3.565700
-0.234100 3.313600
-0.211300 3.113700
-0.188600 3.075600
-0.165900 3.112300
-0.143100 2.883300
-0.120400 2.696200
-0.097700 2.568400
-0.074900 2.442300
-0.052200 2.416100
-0.029500 2.458200
-0.006700 2.454500
0.016000 2.412400
0.038700 2.405100
0.061500 2.534200
0.084200 2.686900
0.106900 2.841000
0.129700 2.958900
0.152400 3.047300
0.175100 3.107900
0.197900 3.112700
0.220600 3.002900
0.243300 3.043100
0.266100 3.188300
0.288800 3.472400
0.311500 3.596700
0.334300 3.938400
0.357000 4.133200
0.379700 4.087400
0.402500 4.130900
0.425200 4.247700
0.447900 4.547900
0.470700 4.766500
0.493400 4.967400
0.516100 5.134400
0.538900 5.579800
0.561600 5.865400
0.584400 6.042100
0.607100 6.510600
0.629800 6.374200
0.652600 7.087200
0.675300 5.568300
0.698000 5.248000
0.720800 8.178000
0.743500 13.909100
0.766200 12.360200
0.789000 10.146300
0.811700 10.917800
0.834400 10.170200
0.857200 9.235800
0.879900 10.919300
0.902600 14.442400
0.925400 14.681400
0.948100 14.349800
0.970800 13.862700
0.993600 14.729000
1.016300 9.280500
1.039000 6.744900
1.061800 5.711100
1.084500 5.405400
1.107200 5.176000
1.130000 5.845000
1.152700 7.201100
1.175400 7.720200
1.198200 8.919600
1.220900 8.421200
1.243600 7.721900
1.266400 8.628900
1.289100 9.206700
1.311800 9.789300
1.334600 12.115900
1.357300 15.462700
1.380000 13.058400
1.402800 12.215700
1.425500 13.052600
1.448200 12.439600
1.471000 9.043300
1.493700 5.928500
1.516400 2.302000
1.539200 0.675200
1.561900 0.685300
1.584600 0.698000
1.607400 0.712500
1.630100 0.728000
1.652900 0.734200
1.675600 0.713000
1.698300 0.711100
1.721100 0.715800
1.743800 0.724900
1.766500 0.739000
1.789300 0.755500
1.812000 0.774600
1.834700 0.800900
1.857500 0.831000
1.880200 0.863100
1.902900 0.898200
1.925700 0.936500
1.948400 0.978300
1.971100 1.047000
1.993900 1.234400
2.016600 1.852500
2.039300 1.760000
2.062100 1.790200
2.084800 1.876100
2.107500 1.931100
2.130300 1.945100
2.153000 1.860500
2.175700 1.788100
2.198500 1.700100
2.221200 1.663800
2.243900 1.667700
2.266700 1.791200
2.289400 2.147200
2.312100 2.286900
2.334900 2.112900
2.357600 1.699500
2.380300 1.419000
2.403100 1.325900
2.425800 1.262700
2.448500 1.214100
2.471300 1.167300
2.494000 1.075400
2.516700 1.096100
2.539500 1.148900
2.562200 1.128500
2.584900 1.065800
2.607700 1.067600
2.630400 1.087100
2.653200 1.104700
2.675900 1.115400
2.698600 1.120300
2.721400 1.134600
2.744100 1.140400
2.766800 1.136600
2.789600 1.128000
2.812300 1.111600
2.835000 1.083200
2.857800 1.100300
2.880500 1.125200
2.903200 1.154400
2.926000 1.186900
2.948700 1.222900
2.971400 1.262200
2.994200 1.303600
3.016900 1.348400
3.039600 1.398700
3.062400 1.454200
3.085100 1.516100
3.107800 1.588200
3.130600 1.703900
3.153300 1.838400
3.176000 1.989200
3.198800 2.160400
3.221500 2.354300
3.244200 2.543700
3.267000 2.804500
3.289700 3.147200
3.312400 3.823900
3.335200 5.831500
3.357900 4.984400
3.380600 3.413400
3.403400 3.058900
3.426100 3.092900
3.448800 3.225000
3.471600 4.454500
3.494300 5.636200
3.517000 5.692700
3.539800 2.955700
3.562500 2.408300
3.585200 2.075700
3.608000 1.739300
3.630700 1.591700
3.653400 1.444100
3.676200 1.308900
3.698900 1.232900
3.721700 1.218000
3.744400 1.210100
3.767100 1.204900
3.789900 1.012700
3.812600 0.878000
3.835300 0.763400
3.858100 0.535900
3.880800 0.308400
3.903500 0.081000
3.926300 0.000000
3.949000 0.000000
3.971700 0.000000
3.994500 0.000000
4.017200 0.000000
4.039900 0.000000
4.062700 0.000000
4.085400 0.000000
4.108100 0.000000
4.130900 0.000000
4.153600 0.000000
4.176300 0.000000
4.199100 0.000000
4.221800 0.000000
4.244500 0.000000
4.267300 0.000000
4.290000 0.000000
4.312700 0.000000
4.335500 0.000000
4.358200 0.000000
4.380900 0.000000
4.403700 0.000000
4.426400 0.000000
4.449100 0.000000
4.471900 0.000000
4.494600 0.000000
4.517300 0.000000
4.540100 0.000000
4.562800 0.000000
4.585500 0.000000
4.608300 0.000000
4.631000 0.000000
4.653700 0.000000
4.676500 0.000000
4.699200 0.000000
4.722000 0.000000
4.744700 0.000000
4.767400 0.000000
4.790200 0.000000
4.812900 0.000000
4.835600 0.000000
4.858400 0.000000
4.881100 0.000000
4.903800 0.000000
4.926600 0.000000
4.949300 0.000000
4.972000 0.000000
4.994800 0.000000
5.017500 0.000000
5.040200 0.000000
5.063000 0.000000
5.085700 0.000000
5.108400 0.000000
5.131200 0.000000
5.153900 0.000000
5.176600 0.000000
5.199400 0.000000
5.222100 0.000000
5.244800 0.000000
5.267600 0.000000
5.290300 0.000000
5.313000 0.000000
5.335800 0.000000
5.358500 0.000000
5.381200 0.000000
5.404000 0.000000
5.426700 0.000000
5.449400 0.000000
5.472200 0.000000
5.494900 0.000000
5.517600 0.000000
5.540400 0.000000
5.563100 0.000000
5.585800 0.000000
5.608600 0.000000
5.631300 0.000000
5.654000 0.000000
5.676800 0.000000
5.699500 0.000000
5.722200 0.000000
5.745000 0.000000
5.767700 0.000000
5.790500 0.000000
5.813200 0.000000
5.835900 0.000000
5.858700 0.000000
5.881400 0.000000
5.904100 0.000000
5.926900 0.000000
5.949600 0.000000
5.972300 0.000000
5.995100 0.000000
6.017800 0.000000
6.040500 0.000000
6.063300 0.000000
6.086000 0.000000
6.108700 0.000000
6.131500 0.000000
6.154200 0.000000
6.176900 0.000000
6.199700 0.000000
6.222400 0.000000
6.245100 0.000000
6.267900 0.000000
6.290600 0.000000
6.313300 0.000000
6.336100 0.000000
6.358800 0.000000
6.381500 0.000000
6.404300 0.000000
6.427000 0.000000
6.449700 0.000000
6.472500 0.000000
6.495200 0.000000
6.517900 0.000000
6.540700 0.000000
6.563400 0.000000
6.586100 0.000000
6.608900 0.000200
6.631600 0.595400
6.654300 0.912900
6.677100 1.088200
6.699800 1.618800
6.722500 2.630800
6.745300 3.426000
6.768000 3.275800
6.790800 3.043800
6.813500 2.915200
6.836200 2.860200
6.859000 2.929400
6.881700 3.067900
6.904400 3.039800
6.927200 3.026100
6.949900 3.137500
6.972600 3.246800
6.995400 3.200100
7.018100 3.202900
7.040800 3.250500
7.063600 3.310800
7.086300 3.373700
7.109000 3.780600
7.131800 3.888300
7.154500 3.830700
7.177200 3.582700
7.200000 3.248000
7.222700 3.123900
7.245400 2.979900
7.268200 3.012300
7.290900 2.972800
7.313600 2.923400
7.336400 3.005700
7.359100 3.045700
7.381800 3.079500
7.404600 3.118900
7.427300 3.159600
7.450000 3.258500
7.472800 3.392900
7.495500 3.503400
7.518200 3.571300
7.541000 3.539200
7.563700 3.593200
7.586400 3.483200
7.609200 3.347900
7.631900 3.218200
7.654600 3.135000
7.677400 3.134100
7.700100 3.094300
7.722800 3.091700
7.745600 3.088300
7.768300 3.080600
7.791100 3.068300
7.813800 2.958700
7.836500 2.861300
7.859300 2.738100
7.882000 2.650100
7.904700 2.615700
7.927500 2.610700
7.950200 2.621900
7.972900 2.654600
7.995700 2.678600
8.018400 2.682100
8.041100 2.666500
8.063900 2.914300
8.086600 2.763800
8.109300 2.595300
8.132100 2.471000
8.154800 2.354100
8.177500 2.192100
8.200300 2.067200
8.223000 1.948100
8.245700 1.863400
8.268500 1.814300
8.291200 1.786200
8.313900 1.782400
8.336700 1.748800
8.359400 1.730800
8.382100 1.716700
8.404900 1.709100
8.427600 1.703800
8.450300 1.677800
8.473100 1.671400
8.495800 1.676000
8.518500 1.682600
8.541300 1.686100
8.564000 1.698900
8.586700 1.730600
8.609500 1.784000
8.632200 1.833000
8.654900 1.951400
8.677700 2.006600
8.700400 2.063100
8.723100 2.154000
8.745900 2.210600
8.768600 2.177100
8.791300 2.474500
8.814100 2.789300
8.836800 3.141900
8.859600 3.431000
8.882300 3.307100
8.905000 3.286300
8.927800 3.432100
8.950500 3.622300
8.973200 3.689100
8.996000 3.669700
9.018700 3.781000
9.041400 3.770000
9.064200 3.800300
9.086900 3.835300
9.109600 3.851500
9.132400 3.957100
9.155100 4.218300
9.177800 4.246300
9.200600 4.466800
9.223300 4.530800
9.246000 4.283900
9.268800 4.354300
9.291500 4.454000
9.314200 4.361300
9.337000 4.349400
9.359700 4.387900
9.382400 4.422800
9.405200 4.618100
9.427900 4.889300
9.450600 5.184800
9.473400 5.635300
9.496100 5.899500
9.518800 6.200400
9.541600 5.539200
9.564300 5.033700
9.587000 4.745300
9.609800 4.395800
9.632500 4.063800
9.655200 3.870700
9.678000 3.856200
9.700700 3.998000
9.723400 4.271400
9.746200 4.533700
9.768900 5.591500
9.791600 5.846800
9.814400 6.009800
9.837100 5.627600
9.859900 5.287400
9.882600 5.396400
9.905300 5.910600
9.928100 5.664500
9.950800 5.083700
9.973500 4.717200
9.996300 4.381800
10.019000 4.074300
10.041700 3.781600
10.064500 3.593100
10.087200 3.502400
10.109900 3.285900
10.132700 3.244100
10.155400 3.063900
10.178100 2.901200
10.200900 2.790000
10.223600 2.581000
10.246300 2.134600
10.269100 1.964000
10.291800 1.680400
10.314500 0.623100
10.337300 0.280100
10.360000 0.285300
10.382700 0.290900
10.405500 0.296600
10.428200 0.302000
10.450900 0.299700
10.473700 0.296300
10.496400 0.296100
10.519100 0.298900
10.541900 0.303100
10.564600 0.307300
10.587300 0.311600
10.610100 0.315400
10.632800 0.319600
10.655500 0.324800
10.678300 0.330200
10.701000 0.335900
10.723700 0.341800
10.746500 0.347900
10.769200 0.354200
10.791900 0.360500
10.814700 0.366900
10.837400 0.373400
10.860100 0.380200
10.882900 0.387200
10.905600 0.394400
10.928400 0.401700
10.951100 0.409200
10.973800 0.417000
10.996600 0.425200
11.019300 0.435200
11.042000 0.446200
11.064800 0.457200
11.087500 0.468100
11.110200 0.479100
11.133000 0.490000
11.155700 0.501000
11.178400 0.512200
11.201200 0.524300
11.223900 0.537200
11.246600 0.551500
11.269400 0.566100
11.292100 0.580500
11.314800 0.595400
11.337600 0.611100
11.360300 0.639800
11.383000 0.689800
11.405800 0.761100
11.428500 0.857800
11.451200 0.996200
11.474000 1.160100
11.496700 1.303300
11.519400 1.424200
11.542200 1.505800
11.564900 1.567000
11.587600 1.622900
11.610400 1.675200
11.633100 1.703300
11.655800 1.728100
11.678600 1.750700
11.701300 1.758700
11.724000 1.744100
11.746800 1.708900
11.769500 1.679000
11.792200 1.686100
11.815000 1.685800
11.837700 1.684800
11.860400 1.701900
11.883200 1.771500
11.905900 1.772600
11.928700 1.828200
11.951400 2.212000
11.974100 2.828900
11.996900 2.734400
12.019600 3.040700
12.042300 3.445100
12.065100 3.796700
12.087800 4.252300
12.110500 2.961600
12.133300 3.136900
12.156000 3.361600
12.178700 3.965700
12.201500 5.108500
12.224200 5.684100
12.246900 5.640100
12.269700 5.576600
12.292400 5.461900
12.315100 5.158600
12.337900 4.455800
12.360600 3.952300
12.383300 3.560800
12.406100 3.231900
12.428800 2.905600
12.451500 2.646000
12.474300 2.350200
12.497000 2.236000
12.519700 2.362800
12.542500 2.605200
12.565200 3.348700
12.587900 3.779500
12.610700 4.217200
12.633400 3.960300
12.656100 3.853000
12.678900 3.803700
12.701600 3.828700
12.724300 4.005000
12.747100 4.051800
12.769800 4.041400
12.792500 4.252200
12.815300 4.150700
12.838000 3.322500
12.860700 3.111700
12.883500 3.044600
12.906200 2.909800
12.929000 2.783900
12.951700 2.713600
12.974400 2.696300
12.997200 2.732400
13.019900 2.700500
13.042600 2.807500
13.065400 3.031000
13.088100 3.281500
13.110800 3.450000
13.133600 3.229500
13.156300 2.888700
13.179000 2.642300
13.201800 2.412100
13.224500 2.547700
13.247200 2.811700
13.270000 3.175100
13.292700 3.452200
13.315400 3.123800
13.338200 3.070700
13.360900 2.920000
13.383600 2.706300
13.406400 2.472200
13.429100 2.396900
13.451800 2.299500
13.474600 2.178800
13.497300 2.099400
13.520000 2.068000
13.542800 2.045400
13.565500 2.031000
13.588200 2.016400
13.611000 2.004500
13.633700 2.018700
13.656400 2.004700
13.679200 1.964500
13.701900 1.911900
13.724600 1.887000
13.747400 1.848800
13.770100 1.816500
13.792800 1.810500
13.815600 1.796700
13.838300 1.773300
13.861000 1.743500
13.883800 1.705500
13.906500 1.654000
13.929200 1.578500
13.952000 1.514300
13.974700 1.452200
13.997500 1.388200
14.020200 1.385200
14.042900 1.317000
14.065700 1.302200
14.088400 1.270700
14.111100 1.233400
14.133900 1.047300
14.156600 0.883200
14.179300 0.835900
14.202100 0.795000
14.224800 0.755300
14.247500 0.716300
14.270300 0.677700
14.293000 0.639200
14.315700 0.598500
14.338500 0.557000
14.361200 0.516300
14.383900 0.478100
14.406700 0.444000
14.429400 0.415800
14.452100 0.395400
14.474900 0.384400
14.497600 0.384000
14.520300 0.384100
14.543100 0.385400
14.565800 0.386600
14.588500 0.386000
14.611300 0.428800
14.634000 0.487200
14.656700 0.543200
14.679500 0.594600
14.702200 0.643400
14.724900 0.796100
14.747700 0.930900
14.770400 1.022500
14.793100 1.033300
14.815900 0.988200
14.838600 0.903200
14.861300 0.837700
14.884100 0.807200
14.906800 0.798700
14.929500 0.789700
14.952300 0.809900
14.975000 0.829700
14.997800 0.849500
15.020500 0.869200
15.043200 0.889700
15.066000 0.910800
15.088700 0.947900
15.111400 0.982100
15.134200 1.005800
15.156900 1.021200
15.179600 0.994700
15.202400 1.014500
15.225100 1.041600
15.247800 1.071000
15.270600 1.098200
15.293300 1.157300
15.316000 1.237200
15.338800 1.333800
15.361500 1.314200
15.384200 1.462000
15.407000 1.751900
15.429700 2.079200
15.452400 2.460300
15.475200 2.703500
15.497900 3.020200
15.520600 3.267900
15.543400 3.056200
15.566100 3.173200
15.588800 3.268700
15.611600 3.461800
15.634300 3.620800
15.657000 3.974100
15.679800 3.989600
15.702500 4.249000
15.725200 4.529100
15.748000 4.951300
15.770700 5.331300
15.793400 5.805100
15.816200 5.716900
15.838900 6.035900
15.861600 6.060500
15.884400 6.206400
15.907100 5.763300
15.929800 5.295300
15.952600 5.205100
15.975300 5.640600
15.998000 5.680000
16.020800 5.484000
16.043500 5.140100
16.066300 4.316100
16.089000 4.052700
16.111700 4.020600
16.134500 3.942600
16.157200 3.523000
16.179900 3.594600
16.202700 3.668700
16.225400 3.652700
16.248100 3.626600
16.270900 3.644100
16.293600 3.714600
16.316300 3.788900
16.339100 3.820200
16.361800 3.829500
16.384500 3.915400
16.407300 4.074600
16.430000 4.151200
16.452700 3.820600
16.475500 2.943000
16.498200 2.626900
16.520900 2.295700
16.543700 2.110300
16.566400 1.980300
16.589100 1.844600
16.611900 1.757100
16.634600 1.746400
16.657300 1.813300
16.680100 1.947700
16.702800 2.127700
16.725500 2.333100
16.748300 2.843900
16.771000 3.298000
16.793700 3.747300
16.816500 4.582700
16.839200 5.330700
16.861900 5.786500
16.884700 5.701500
16.907400 5.652900
16.930100 5.860300
16.952900 5.750700
16.975600 5.449500
16.998300 4.943100
17.021100 4.449900
17.043800 4.138500
17.066600 4.060500
17.089300 4.110600
17.112000 4.289800
17.134800 4.496100
17.157500 4.713900
17.180200 4.961900
17.203000 4.953800
17.225700 4.856700
17.248400 4.249000
17.271200 3.962900
17.293900 3.805000
17.316600 3.965600
17.339400 3.786700
17.362100 4.208400
17.384800 4.296000
17.407600 4.503300
17.430300 4.334200
17.453000 4.121800
17.475800 3.682700
17.498500 3.313700
17.521200 3.139800
17.544000 2.924900
17.566700 2.443800
17.589400 2.236800
17.612200 2.158800
17.634900 2.254300
17.657600 2.435600
17.680400 2.603300
17.703100 2.833900
17.725800 3.102100
17.748600 3.151300
17.771300 3.113900
17.794000 3.121800
17.816800 3.159700
17.839500 3.227300
17.862200 3.310100
17.885000 3.397500
17.907700 3.434700
17.930400 3.457400
17.953200 3.478300
17.975900 3.501300
17.998600 3.563000
18.021400 3.635000
18.044100 3.690400
18.066800 3.726200
18.089600 3.750000
18.112300 3.816300
18.135100 3.741300
18.157800 3.719000
18.180500 3.704000
18.203300 3.655100
18.226000 3.538800
18.248700 3.402500
18.271500 3.264700
18.294200 3.165400
18.316900 2.957600
18.339700 2.571000
18.362400 2.462600
18.385100 2.449600
18.407900 2.481700
18.430600 2.519700
18.453300 2.597600
18.476100 2.727200
18.498800 2.860700
18.521500 3.038300
18.544300 3.297400
18.567000 3.630200
18.589700 3.894400
18.612500 4.166800
18.635200 4.458400
18.657900 4.784700
18.680700 5.084400
18.703400 5.207600
18.726100 5.320500
18.748900 5.440800
18.771600 5.331000
18.794300 5.054100
18.817100 4.993500
18.839800 4.617000
18.862500 4.336900
18.885300 4.069700
18.908000 3.886700
18.930700 4.120800
18.953500 3.625000
18.976200 3.398000
18.998900 3.309800
19.021700 3.337800
19.044400 3.565300
19.067100 3.650700
19.089900 3.805900
19.112600 3.742800
19.135400 3.849300
19.158100 3.848400
19.180800 3.981900
19.203600 3.999400
19.226300 3.966300
19.249000 4.065600
19.271800 3.738500
19.294500 3.608200
19.317200 4.010600
19.340000 3.928000
19.362700 3.847200
19.385400 3.774400
19.408200 3.785500
19.430900 3.845900
19.453600 3.899100
19.476400 4.004800
19.499100 4.242600
19.521800 4.298000
19.544600 4.534700
19.567300 4.805100
19.590000 5.038900
19.612800 5.227900
19.635500 5.170100
19.658200 5.141700
19.681000 5.063200
19.703700 4.761200
19.726400 4.459900
19.749200 4.321300
19.771900 4.299000
19.794600 4.413300
19.817400 4.165900
19.840100 4.184800
19.862800 4.158300
19.885600 4.120400
19.908300 4.027300
19.931000 3.810600
19.953800 3.689600
19.976500 3.610400
19.999200 3.564200
20.022000 3.427000
20.044700 3.307100
20.067400 3.245200
20.090200 3.445200
20.112900 3.919200
20.135700 4.505600
20.158400 5.296700
20.181100 5.917400
20.203900 6.063700
20.226600 6.512400
20.249300 5.930300
20.272100 5.775700
20.294800 5.145400
20.317500 4.718400
20.340300 4.331900
20.363000 4.013100
20.385700 4.124000
20.408500 4.254700
20.431200 4.448200
20.453900 4.920100
20.476700 5.041100
20.499400 4.925700
20.522100 4.968700
20.544900 4.657800
20.567600 4.425400
20.590300 4.390900
20.613100 4.424900
20.635800 4.551600
20.658500 4.755000
20.681300 4.758900
20.704000 4.574500
20.726700 4.193000
20.749500 3.879000
20.772200 3.627600
20.794900 3.647300
20.817700 3.770400
20.840400 3.805800
20.863100 3.744300
20.885900 3.698800
20.908600 3.698800
20.931300 3.778200
20.954100 3.874300
20.976800 3.869600
20.999500 3.838200
21.022300 3.800000
21.045000 3.886600
21.067700 3.893200
21.090500 3.784600
21.113200 3.608400
21.135900 3.489000
21.158700 3.444300
21.181400 3.392500
21.204200 3.396400
21.226900 3.410400
21.249600 3.489600
21.272400 3.541400
21.295100 3.698200
21.317800 3.799700
21.340600 3.852700
21.363300 3.779100
21.386000 3.925100
21.408800 4.230600
21.431500 4.562600
21.454200 4.374600
21.477000 4.459400
21.499700 4.638800
21.522400 4.867200
21.545200 5.379300
21.567900 5.719600
21.590600 6.059400
21.613400 6.129800
21.636100 6.141300
21.658800 5.919600
21.681600 6.056500
21.704300 6.207700
21.727000 5.869100
21.749800 5.712800
21.772500 5.662800
21.795200 5.691400
21.818000 5.438900
21.840700 5.324100
21.863400 5.048900
21.886200 4.890000
21.908900 4.826900
21.931600 4.858800
21.954400 4.947500
21.977100 5.045900
21.999800 5.114100
22.022600 5.149200
22.045300 5.372200
22.068000 5.471100
22.090800 5.341400
22.113500 5.250600
22.136200 5.177900
22.159000 5.159400
22.181700 5.095100
22.204500 5.006000
22.227200 4.948200
22.249900 5.099700
22.272700 5.230900
22.295400 5.341100
22.318100 5.555300
22.340900 5.421800
22.363600 5.103900
22.386300 4.925600
22.409100 4.858200
22.431800 4.832000
22.454500 4.746400
22.477300 4.670500
22.500000 4.605800
22.522700 4.591200
22.545500 4.703600
22.568200 4.634500
22.590900 4.590300
22.613700 4.476700
22.636400 4.459200
22.659100 4.463600
22.681900 4.480300
22.704600 4.483200
22.727300 4.478800
22.750100 4.410500
22.772800 4.400800
22.795500 4.391000
22.818300 4.427200
22.841000 4.502600
22.863700 4.903400
22.886500 5.448100
22.909200 5.411400
22.931900 5.321700
22.954700 5.286200
22.977400 5.386200
23.000100 5.333000
23.022900 5.239400
23.045600 5.100100
23.068300 4.942900
23.091100 4.745200
23.113800 4.505500
23.136500 4.336400
23.159300 4.228400
23.182000 3.976600
23.204700 3.843800
23.227500 3.857500
23.250200 4.042500
23.273000 4.368500
23.295700 4.593300
23.318400 4.853700
23.341200 4.978700
23.363900 5.142600
23.386600 5.367500
23.409400 5.860900
23.432100 6.219800
23.454800 6.244900
23.477600 6.206200
23.500300 5.994000
23.523000 5.697000
23.545800 5.528300
23.568500 5.623400
23.591200 5.630400
23.614000 5.504300
23.636700 5.415700
23.659400 5.510600
23.682200 5.790700
23.704900 5.778600
23.727600 5.682000
23.750400 5.805600
23.773100 5.973500
23.795800 5.653100
23.818600 5.625600
23.841300 5.716000
23.864000 5.774800
23.886800 5.317700
23.909500 5.180900
23.932200 4.875400
23.955000 4.712700
23.977700 4.513400
24.000400 4.517300
24.023200 4.656800
24.045900 4.655300
24.068600 4.443400
24.091400 4.193300
24.114100 3.888100
24.136800 3.643700
24.159600 3.606400
24.182300 3.710400
24.205000 4.031000
24.227800 4.342800
24.250500 4.683700
24.273300 4.880000
24.296000 4.970400
24.318700 5.141400
24.341500 4.987400
24.364200 4.889000
24.386900 4.640200
24.409700 4.237600
24.432400 3.836600
24.455100 3.179300
24.477900 2.461700
24.500600 1.786200
24.523300 1.271800
24.546100 0.960900
24.568800 0.785800
24.591500 0.661600
24.614300 0.564400
24.637000 0.480700
24.659700 0.407900
24.682500 0.339100
24.705200 0.278600
24.727900 0.238200
24.750700 0.209400
24.773400 0.182300
24.796100 0.157900
24.818900 0.136200
24.841600 0.117100
24.864300 0.101000
24.887100 0.088100
24.909800 0.082500
24.932500 0.078300
24.955300 0.075600
24.978000 0.067600
25.000700 0.058900
25.023500 0.050700
25.046200 0.043200
25.068900 0.036300
25.091700 0.030000
25.114400 0.024400
25.137100 0.019300
25.159900 0.014800
25.182600 0.010900
25.205300 0.007600
25.228100 0.004900
25.250800 0.002800
25.273600 0.001300
25.296300 0.000400
25.319000 0.000000
25.341800 0.000000
25.364500 0.000000
25.387200 0.000000
25.410000 0.000000
25.432700 0.000000
25.455400 0.000000
25.478200 0.000000
25.500900 0.000000
25.523600 0.000000
25.546400 0.000000
25.569100 0.000000
25.591800 0.000000
25.614600 0.000000
25.637300 0.000000
25.660000 0.000000
25.682800 0.000000
25.705500 0.000000
25.728200 0.000000
25.751000 0.000000
25.773700 0.000000
25.796400 0.000000
25.819200 0.000000
25.841900 0.000000
25.864600 0.000000
25.887400 0.000000
25.910100 0.000000
25.932800 0.000000
25.955600 0.000000
25.978300 0.000000
26.001000 0.000000
26.023800 0.000000
26.046500 0.000000
26.069200 0.000000
26.092000 0.000000
26.114700 0.000000
26.137400 0.000000
26.160200 0.000000
26.182900 0.000000
26.205600 0.000000
26.228400 0.000000
26.251100 0.000000
26.273800 0.000000
26.296600 0.000000
26.319300 0.000000
26.342100 0.000000
26.364800 0.000000
26.387500 0.000000
26.410300 0.000000
26.433000 0.000000
26.455700 0.000000
26.478500 0.000000
26.501200 0.000000
26.523900 0.000000
26.546700 0.000000
26.569400 0.000000
26.592100 0.000000
26.614900 0.000000
26.637600 0.000000
26.660300 0.000000
26.683100 0.000000
26.705800 0.000000
26.728500 0.000000
26.751300 0.000000
26.774000 0.000000
26.796700 0.000000
26.819500 0.000000
26.842200 0.000000
26.864900 0.000000
26.887700 0.000000
26.910400 0.000000
26.933100 0.000000
26.955900 0.000000
26.978600 0.000000
27.001300 0.000000
27.024100 0.000000
27.046800 0.000000
27.069500 0.000000
27.092300 0.000000
27.115000 0.000000
27.137700 0.000000
27.160500 0.000000
27.183200 0.000000
27.205900 0.000000
27.228700 0.000000
27.251400 0.000000
27.274100 0.000000
27.296900 0.000000
27.319600 0.000000
27.342400 0.000000
27.365100 0.000000
27.387800 0.000000
e
