set title 'mp-2650 - Density of States'
set xlabel 'Energy (eV)'
set ylabel 'DOS (states/eV)'
set grid
set xrange [-10:10]
set yrange [0:484.732]
set xzeroaxis lt -1
set terminal png size 800,600
set output 'mp-2650_dos_gnuplot.png'
plot '-' using 1:2 with lines title 'DOS'
-16.542000 0.000000
-16.528200 0.000000
-16.514500 0.000000
-16.500700 0.000000
-16.486900 0.000000
-16.473100 0.000000
-16.459300 0.000000
-16.445500 0.000000
-16.431700 0.000000
-16.417900 0.000000
-16.404100 0.000000
-16.390300 0.000000
-16.376500 0.000000
-16.362700 0.000000
-16.349000 0.000000
-16.335200 0.000000
-16.321400 0.000000
-16.307600 0.000000
-16.293800 0.000000
-16.280000 0.000000
-16.266200 0.000000
-16.252400 0.000000
-16.238600 0.000000
-16.224800 0.000000
-16.211000 0.000000
-16.197200 0.000000
-16.183400 0.000000
-16.169700 0.000000
-16.155900 0.000000
-16.142100 0.000000
-16.128300 0.000000
-16.114500 0.000000
-16.100700 0.000000
-16.086900 0.000000
-16.073100 0.000000
-16.059300 0.000000
-16.045500 0.000000
-16.031700 0.000000
-16.017900 0.000000
-16.004200 0.000000
-15.990400 0.000000
-15.976600 0.000000
-15.962800 0.000000
-15.949000 0.000000
-15.935200 0.000000
-15.921400 0.000000
-15.907600 0.000000
-15.893800 0.000000
-15.880000 0.000000
-15.866200 0.000000
-15.852400 0.000000
-15.838600 0.000000
-15.824900 0.000000
-15.811100 0.000000
-15.797300 0.000000
-15.783500 0.000000
-15.769700 0.000000
-15.755900 0.000000
-15.742100 0.000000
-15.728300 0.000000
-15.714500 0.000000
-15.700700 0.000000
-15.686900 0.000000
-15.673100 0.000000
-15.659400 0.000000
-15.645600 0.000000
-15.631800 0.000000
-15.618000 0.000000
-15.604200 0.000000
-15.590400 0.000000
-15.576600 0.000000
-15.562800 0.000000
-15.549000 0.000000
-15.535200 0.000000
-15.521400 0.000000
-15.507600 0.000000
-15.493800 0.000000
-15.480100 0.000000
-15.466300 0.000000
-15.452500 0.000000
-15.438700 0.000000
-15.424900 0.000000
-15.411100 0.000000
-15.397300 0.000000
-15.383500 0.000000
-15.369700 0.000000
-15.355900 0.000000
-15.342100 0.000000
-15.328300 0.000000
-15.314600 0.000000
-15.300800 0.000000
-15.287000 8.304200
-15.273200 137.583800
-15.259400 353.201300
-15.245600 78.959100
-15.231800 0.000000
-15.218000 0.000000
-15.204200 0.000000
-15.190400 0.000000
-15.176600 0.000000
-15.162800 0.000000
-15.149000 0.000000
-15.135300 0.000000
-15.121500 0.000000
-15.107700 0.000000
-15.093900 0.000000
-15.080100 0.000000
-15.066300 0.000000
-15.052500 0.000000
-15.038700 0.000000
-15.024900 0.000000
-15.011100 0.000000
-14.997300 0.000000
-14.983500 0.000000
-14.969800 0.000000
-14.956000 0.000000
-14.942200 0.000000
-14.928400 0.000000
-14.914600 0.000000
-14.900800 0.000000
-14.887000 0.000000
-14.873200 0.000000
-14.859400 0.000000
-14.845600 0.000000
-14.831800 0.000000
-14.818000 0.000000
-14.804200 0.000000
-14.790500 0.000000
-14.776700 0.000000
-14.762900 0.000000
-14.749100 0.000000
-14.735300 0.000000
-14.721500 0.000000
-14.707700 0.000000
-14.693900 0.000000
-14.680100 0.000000
-14.666300 0.000000
-14.652500 0.000000
-14.638700 0.000000
-14.625000 0.000000
-14.611200 0.000000
-14.597400 0.000000
-14.583600 0.000000
-14.569800 0.000000
-14.556000 0.000000
-14.542200 0.000000
-14.528400 0.000000
-14.514600 0.000000
-14.500800 0.000000
-14.487000 0.000000
-14.473200 0.000000
-14.459400 0.000000
-14.445700 0.000000
-14.431900 0.000000
-14.418100 0.000000
-14.404300 0.000000
-14.390500 0.000000
-14.376700 0.000000
-14.362900 0.000000
-14.349100 0.000000
-14.335300 0.000000
-14.321500 0.000000
-14.307700 80.019700
-14.293900 120.433100
-14.280200 154.296000
-14.266400 0.000000
-14.252600 0.000000
-14.238800 0.000000
-14.225000 0.000000
-14.211200 0.000000
-14.197400 0.000000
-14.183600 0.000000
-14.169800 0.000000
-14.156000 0.000000
-14.142200 0.000000
-14.128400 0.000000
-14.114600 0.000000
-14.100900 0.000000
-14.087100 0.000000
-14.073300 0.000000
-14.059500 0.000000
-14.045700 0.000000
-14.031900 0.000000
-14.018100 0.000000
-14.004300 0.000000
-13.990500 0.000000
-13.976700 0.000000
-13.962900 0.000000
-13.949100 0.000000
-13.935400 0.000000
-13.921600 0.000000
-13.907800 0.000000
-13.894000 0.000000
-13.880200 0.000000
-13.866400 0.000000
-13.852600 0.000000
-13.838800 0.000000
-13.825000 0.000000
-13.811200 0.000000
-13.797400 0.000000
-13.783600 0.000000
-13.769800 0.000000
-13.756100 0.000000
-13.742300 0.000000
-13.728500 0.000000
-13.714700 0.000000
-13.700900 0.000000
-13.687100 0.000000
-13.673300 0.000000
-13.659500 0.000000
-13.645700 0.000000
-13.631900 0.000000
-13.618100 0.000000
-13.604300 0.000000
-13.590600 0.000000
-13.576800 0.000000
-13.563000 0.000000
-13.549200 0.000000
-13.535400 0.000000
-13.521600 0.000000
-13.507800 0.000000
-13.494000 0.000000
-13.480200 0.000000
-13.466400 0.000000
-13.452600 0.000000
-13.438800 0.000000
-13.425000 0.000000
-13.411300 0.000000
-13.397500 0.000000
-13.383700 0.000000
-13.369900 0.000000
-13.356100 0.000000
-13.342300 0.000000
-13.328500 0.000000
-13.314700 0.000000
-13.300900 0.000000
-13.287100 0.000000
-13.273300 0.000000
-13.259500 61.076300
-13.245800 211.936000
-13.232000 80.825200
-13.218200 365.394900
-13.204400 267.824000
-13.190600 0.000000
-13.176800 0.000000
-13.163000 0.000000
-13.149200 0.000000
-13.135400 0.000000
-13.121600 0.000000
-13.107800 0.000000
-13.094000 0.000000
-13.080200 0.000000
-13.066500 0.000000
-13.052700 0.000000
-13.038900 0.000000
-13.025100 0.000000
-13.011300 0.000000
-12.997500 0.000000
-12.983700 0.000000
-12.969900 0.000000
-12.956100 0.000000
-12.942300 0.000000
-12.928500 0.000000
-12.914700 0.000000
-12.901000 0.000000
-12.887200 0.000000
-12.873400 0.000000
-12.859600 0.000000
-12.845800 0.000000
-12.832000 0.000000
-12.818200 0.000000
-12.804400 0.000000
-12.790600 0.000000
-12.776800 0.000000
-12.763000 0.000000
-12.749200 0.000000
-12.735400 0.000000
-12.721700 0.000000
-12.707900 0.000000
-12.694100 0.000000
-12.680300 0.000000
-12.666500 0.000000
-12.652700 0.000000
-12.638900 0.000000
-12.625100 0.000000
-12.611300 0.000000
-12.597500 0.000000
-12.583700 0.000000
-12.569900 0.000000
-12.556200 0.000000
-12.542400 0.000000
-12.528600 0.000000
-12.514800 0.000000
-12.501000 0.000000
-12.487200 0.000000
-12.473400 0.000000
-12.459600 0.000000
-12.445800 0.000000
-12.432000 0.000000
-12.418200 0.000000
-12.404400 0.000000
-12.390600 0.000000
-12.376900 0.000000
-12.363100 0.000000
-12.349300 0.000000
-12.335500 0.000000
-12.321700 0.000000
-12.307900 0.000000
-12.294100 0.000000
-12.280300 0.000000
-12.266500 0.000000
-12.252700 0.000000
-12.238900 0.000000
-12.225100 0.000000
-12.211300 0.000000
-12.197600 0.000000
-12.183800 0.000000
-12.170000 0.000000
-12.156200 0.000000
-12.142400 0.000000
-12.128600 0.000000
-12.114800 79.183600
-12.101000 0.000000
-12.087200 0.000000
-12.073400 0.000000
-12.059600 0.000000
-12.045800 0.000000
-12.032100 0.000000
-12.018300 0.000000
-12.004500 0.000000
-11.990700 0.000000
-11.976900 0.000000
-11.963100 0.000000
-11.949300 0.000000
-11.935500 0.000000
-11.921700 0.000000
-11.907900 36.494900
-11.894100 175.092800
-11.880300 98.229300
-11.866500 105.760000
-11.852800 176.954900
-11.839000 22.793300
-11.825200 0.000000
-11.811400 0.000000
-11.797600 0.000000
-11.783800 0.000000
-11.770000 0.000000
-11.756200 0.000000
-11.742400 168.194700
-11.728600 192.569900
-11.714800 156.171800
-11.701000 0.000000
-11.687300 0.000000
-11.673500 0.000000
-11.659700 0.000000
-11.645900 0.000000
-11.632100 0.000000
-11.618300 0.000000
-11.604500 0.000000
-11.590700 0.000000
-11.576900 0.000000
-11.563100 0.000000
-11.549300 0.000000
-11.535500 0.000000
-11.521700 0.000000
-11.508000 0.000000
-11.494200 0.000000
-11.480400 0.000000
-11.466600 0.000000
-11.452800 0.000000
-11.439000 0.000000
-11.425200 0.000000
-11.411400 0.000000
-11.397600 0.000000
-11.383800 0.000000
-11.370000 0.000000
-11.356200 0.000000
-11.342500 0.000000
-11.328700 0.000000
-11.314900 0.000000
-11.301100 0.000000
-11.287300 0.000000
-11.273500 0.000000
-11.259700 0.000000
-11.245900 0.000000
-11.232100 0.000000
-11.218300 0.000000
-11.204500 0.000000
-11.190700 0.000000
-11.176900 0.000000
-11.163200 0.000000
-11.149400 0.000000
-11.135600 0.000000
-11.121800 0.000000
-11.108000 0.000000
-11.094200 0.000000
-11.080400 0.000000
-11.066600 0.000000
-11.052800 0.000000
-11.039000 0.000000
-11.025200 0.000000
-11.011400 0.000000
-10.997700 0.000000
-10.983900 0.000000
-10.970100 0.000000
-10.956300 0.000000
-10.942500 0.000000
-10.928700 0.000000
-10.914900 0.000000
-10.901100 0.000000
-10.887300 0.000000
-10.873500 0.000000
-10.859700 0.000000
-10.845900 0.000000
-10.832100 0.000000
-10.818400 0.000000
-10.804600 0.000000
-10.790800 0.000000
-10.777000 0.000000
-10.763200 0.000000
-10.749400 0.000000
-10.735600 0.000000
-10.721800 0.000000
-10.708000 0.000000
-10.694200 0.000000
-10.680400 0.000000
-10.666600 0.000000
-10.652900 0.000000
-10.639100 0.000000
-10.625300 0.000000
-10.611500 0.000000
-10.597700 0.000000
-10.583900 0.000000
-10.570100 0.000000
-10.556300 0.000000
-10.542500 0.000000
-10.528700 0.000000
-10.514900 0.000000
-10.501100 0.000000
-10.487300 0.000000
-10.473600 0.000000
-10.459800 0.000000
-10.446000 0.000000
-10.432200 0.000000
-10.418400 0.000000
-10.404600 0.000000
-10.390800 0.000000
-10.377000 0.000000
-10.363200 0.000000
-10.349400 0.000000
-10.335600 0.000000
-10.321800 0.000000
-10.308100 0.000000
-10.294300 0.000000
-10.280500 0.000000
-10.266700 0.000000
-10.252900 0.000000
-10.239100 0.000000
-10.225300 0.000000
-10.211500 0.000000
-10.197700 0.000000
-10.183900 0.000000
-10.170100 0.000000
-10.156300 0.000000
-10.142500 0.000000
-10.128800 0.000000
-10.115000 0.000000
-10.101200 0.000000
-10.087400 0.000000
-10.073600 0.000000
-10.059800 0.000000
-10.046000 0.000000
-10.032200 0.000000
-10.018400 0.000000
-10.004600 0.000000
-9.990800 0.000000
-9.977000 0.000000
-9.963300 0.000000
-9.949500 0.000000
-9.935700 0.000000
-9.921900 0.000000
-9.908100 0.000000
-9.894300 0.000000
-9.880500 0.000000
-9.866700 0.000000
-9.852900 0.000000
-9.839100 0.000000
-9.825300 0.000000
-9.811500 0.000000
-9.797700 0.000000
-9.784000 0.000000
-9.770200 0.000000
-9.756400 0.000000
-9.742600 0.000000
-9.728800 0.000000
-9.715000 0.000000
-9.701200 0.000000
-9.687400 0.000000
-9.673600 15.791000
-9.659800 41.652500
-9.646000 112.094200
-9.632200 112.154600
-9.618500 13.251800
-9.604700 125.734100
-9.590900 63.047300
-9.577100 43.262600
-9.563300 17.124600
-9.549500 0.000000
-9.535700 0.000000
-9.521900 0.000000
-9.508100 0.000000
-9.494300 0.000000
-9.480500 0.000000
-9.466700 0.000000
-9.452900 0.000000
-9.439200 0.000000
-9.425400 0.000000
-9.411600 0.000000
-9.397800 0.000000
-9.384000 0.000000
-9.370200 0.000000
-9.356400 0.000000
-9.342600 0.000000
-9.328800 0.000000
-9.315000 0.000000
-9.301200 0.000000
-9.287400 0.000000
-9.273700 0.000000
-9.259900 0.000000
-9.246100 0.000000
-9.232300 0.000000
-9.218500 0.000000
-9.204700 0.000000
-9.190900 0.000000
-9.177100 0.000000
-9.163300 0.000000
-9.149500 0.000000
-9.135700 0.000000
-9.121900 0.000000
-9.108100 0.000000
-9.094400 0.000000
-9.080600 0.000000
-9.066800 0.000000
-9.053000 0.000000
-9.039200 0.000000
-9.025400 0.000000
-9.011600 0.000000
-8.997800 0.000000
-8.984000 0.000000
-8.970200 0.000000
-8.956400 0.000000
-8.942600 0.000000
-8.928900 0.000000
-8.915100 0.000000
-8.901300 0.000000
-8.887500 0.000000
-8.873700 0.000000
-8.859900 0.000000
-8.846100 0.000000
-8.832300 0.000000
-8.818500 0.000000
-8.804700 0.000000
-8.790900 0.000000
-8.777100 0.000000
-8.763300 0.000000
-8.749600 0.000000
-8.735800 0.000000
-8.722000 0.000000
-8.708200 0.000000
-8.694400 0.000000
-8.680600 0.000000
-8.666800 0.000000
-8.653000 0.000000
-8.639200 0.000000
-8.625400 0.000000
-8.611600 0.000000
-8.597800 0.000000
-8.584100 0.000000
-8.570300 0.000000
-8.556500 0.000000
-8.542700 0.000000
-8.528900 0.000000
-8.515100 0.000000
-8.501300 0.000000
-8.487500 0.000000
-8.473700 0.000000
-8.459900 0.000000
-8.446100 0.000000
-8.432300 0.000000
-8.418500 0.000000
-8.404800 0.000000
-8.391000 0.000000
-8.377200 0.000000
-8.363400 0.000000
-8.349600 0.000000
-8.335800 0.000000
-8.322000 0.000000
-8.308200 0.000000
-8.294400 0.000000
-8.280600 0.000000
-8.266800 0.000000
-8.253000 0.000000
-8.239300 0.000000
-8.225500 54.921400
-8.211700 196.462400
-8.197900 71.399100
-8.184100 12.387900
-8.170300 69.385100
-8.156500 85.145600
-8.142700 45.974500
-8.128900 46.484300
-8.115100 0.000000
-8.101300 0.000000
-8.087500 0.000000
-8.073700 0.000000
-8.060000 0.000000
-8.046200 0.000000
-8.032400 0.000000
-8.018600 0.000000
-8.004800 0.000000
-7.991000 0.000000
-7.977200 0.000000
-7.963400 0.000000
-7.949600 0.000000
-7.935800 0.000000
-7.922000 0.000000
-7.908200 0.000000
-7.894500 0.000000
-7.880700 0.000000
-7.866900 0.000000
-7.853100 0.000000
-7.839300 0.000000
-7.825500 0.000000
-7.811700 0.000000
-7.797900 0.000000
-7.784100 0.000000
-7.770300 0.000000
-7.756500 234.706400
-7.742700 239.433300
-7.728900 101.866400
-7.715200 126.025600
-7.701400 30.778700
-7.687600 7.147600
-7.673800 0.000000
-7.660000 0.000000
-7.646200 0.000000
-7.632400 0.000000
-7.618600 0.000000
-7.604800 0.000000
-7.591000 0.000000
-7.577200 0.000000
-7.563400 0.000000
-7.549700 0.000000
-7.535900 0.000000
-7.522100 0.000000
-7.508300 0.000000
-7.494500 0.000000
-7.480700 0.000000
-7.466900 0.000000
-7.453100 0.000000
-7.439300 0.000000
-7.425500 0.000000
-7.411700 0.000000
-7.397900 0.000000
-7.384100 0.000000
-7.370400 0.000000
-7.356600 0.000000
-7.342800 0.000000
-7.329000 0.000000
-7.315200 0.000000
-7.301400 0.000000
-7.287600 0.000000
-7.273800 0.000000
-7.260000 0.000000
-7.246200 0.000000
-7.232400 0.000000
-7.218600 0.000000
-7.204800 0.000000
-7.191100 0.000000
-7.177300 0.000000
-7.163500 0.000000
-7.149700 0.000000
-7.135900 0.000000
-7.122100 0.000000
-7.108300 0.000000
-7.094500 0.000000
-7.080700 0.000000
-7.066900 0.000000
-7.053100 0.000000
-7.039300 0.000000
-7.025600 0.000000
-7.011800 0.000000
-6.998000 0.000000
-6.984200 0.000000
-6.970400 0.000000
-6.956600 17.364500
-6.942800 139.573500
-6.929000 47.737700
-6.915200 38.258100
-6.901400 68.623500
-6.887600 36.490100
-6.873800 53.364700
-6.860000 63.805000
-6.846300 67.132400
-6.832500 45.874100
-6.818700 19.801300
-6.804900 0.000000
-6.791100 0.000000
-6.777300 0.000000
-6.763500 0.000000
-6.749700 0.000000
-6.735900 0.000000
-6.722100 0.000000
-6.708300 0.000000
-6.694500 0.000000
-6.680800 0.000000
-6.667000 0.000000
-6.653200 0.000000
-6.639400 0.000000
-6.625600 0.000000
-6.611800 0.000000
-6.598000 0.000000
-6.584200 0.000000
-6.570400 0.000000
-6.556600 0.000000
-6.542800 0.000000
-6.529000 0.000000
-6.515200 0.000000
-6.501500 0.000000
-6.487700 0.000000
-6.473900 0.000000
-6.460100 0.000000
-6.446300 0.000000
-6.432500 0.000000
-6.418700 0.000000
-6.404900 0.000000
-6.391100 0.000000
-6.377300 0.000000
-6.363500 0.000000
-6.349700 0.000000
-6.336000 0.000000
-6.322200 0.000000
-6.308400 0.000000
-6.294600 0.000000
-6.280800 0.000000
-6.267000 0.000000
-6.253200 0.000000
-6.239400 0.000000
-6.225600 0.000000
-6.211800 0.000000
-6.198000 0.000000
-6.184200 0.000000
-6.170400 0.000000
-6.156700 0.000000
-6.142900 0.000000
-6.129100 0.000000
-6.115300 0.000000
-6.101500 0.000000
-6.087700 0.000000
-6.073900 0.000000
-6.060100 0.000000
-6.046300 0.000000
-6.032500 0.000000
-6.018700 0.000000
-6.004900 0.000000
-5.991200 0.000000
-5.977400 0.000000
-5.963600 0.000000
-5.949800 0.000000
-5.936000 0.000000
-5.922200 0.000000
-5.908400 0.000000
-5.894600 0.000000
-5.880800 0.000000
-5.867000 0.000000
-5.853200 0.000000
-5.839400 0.000000
-5.825600 0.000000
-5.811900 0.000000
-5.798100 0.000000
-5.784300 0.000000
-5.770500 0.000000
-5.756700 0.000000
-5.742900 0.000000
-5.729100 0.000000
-5.715300 0.000000
-5.701500 0.000000
-5.687700 0.000000
-5.673900 0.000000
-5.660100 0.000000
-5.646400 0.000000
-5.632600 0.000000
-5.618800 0.000000
-5.605000 0.000000
-5.591200 0.000000
-5.577400 0.000000
-5.563600 0.000000
-5.549800 0.000000
-5.536000 0.000000
-5.522200 0.000000
-5.508400 0.000000
-5.494600 0.000000
-5.480800 0.000000
-5.467100 0.000000
-5.453300 0.000000
-5.439500 0.000000
-5.425700 0.000000
-5.411900 0.000000
-5.398100 0.000000
-5.384300 0.000000
-5.370500 0.000000
-5.356700 0.000000
-5.342900 0.000000
-5.329100 0.000000
-5.315300 0.000000
-5.301600 0.000000
-5.287800 0.000000
-5.274000 0.000000
-5.260200 0.000000
-5.246400 295.872100
-5.232600 437.913600
-5.218800 70.861600
-5.205000 0.000000
-5.191200 0.000000
-5.177400 0.000000
-5.163600 0.000000
-5.149800 0.000000
-5.136000 0.000000
-5.122300 0.000000
-5.108500 0.000000
-5.094700 0.000000
-5.080900 0.000000
-5.067100 0.000000
-5.053300 0.000000
-5.039500 0.000000
-5.025700 0.000000
-5.011900 0.000000
-4.998100 0.000000
-4.984300 0.000000
-4.970500 0.000000
-4.956800 0.000000
-4.943000 0.000000
-4.929200 0.000000
-4.915400 0.000000
-4.901600 126.196700
-4.887800 440.665400
-4.874000 216.168500
-4.860200 0.000000
-4.846400 0.000000
-4.832600 0.000000
-4.818800 0.000000
-4.805000 0.000000
-4.791200 0.000000
-4.777500 0.000000
-4.763700 0.000000
-4.749900 0.000000
-4.736100 0.000000
-4.722300 0.000000
-4.708500 0.000000
-4.694700 0.000000
-4.680900 0.000000
-4.667100 0.000000
-4.653300 0.000000
-4.639500 0.000000
-4.625700 0.000000
-4.612000 0.000000
-4.598200 0.000000
-4.584400 0.000000
-4.570600 0.000000
-4.556800 0.000000
-4.543000 0.000000
-4.529200 0.000000
-4.515400 0.000000
-4.501600 0.000000
-4.487800 0.000000
-4.474000 0.000000
-4.460200 0.000000
-4.446400 1.129500
-4.432700 6.152800
-4.418900 11.176200
-4.405100 21.674700
-4.391300 47.637100
-4.377500 66.758300
-4.363700 59.020800
-4.349900 54.920800
-4.336100 24.798700
-4.322300 0.000000
-4.308500 0.000000
-4.294700 36.715800
-4.280900 58.950400
-4.267200 65.301000
-4.253400 33.775500
-4.239600 33.578400
-4.225800 30.750900
-4.212000 13.091600
-4.198200 1.317300
-4.184400 0.000000
-4.170600 0.000000
-4.156800 0.000000
-4.143000 0.000000
-4.129200 4.710800
-4.115400 10.109700
-4.101600 14.556700
-4.087900 19.003700
-4.074100 22.372100
-4.060300 26.351700
-4.046500 39.938700
-4.032700 58.081600
-4.018900 61.233800
-4.005100 31.321300
-3.991300 0.398500
-3.977500 82.606900
-3.963700 63.040800
-3.949900 60.164000
-3.936100 38.803600
-3.922400 31.712300
-3.908600 15.687600
-3.894800 0.000000
-3.881000 45.430000
-3.867200 86.986300
-3.853400 37.985100
-3.839600 38.566400
-3.825800 61.381800
-3.812000 32.710400
-3.798200 99.149200
-3.784400 171.030300
-3.770600 75.219400
-3.756800 12.882400
-3.743100 24.175100
-3.729300 60.930100
-3.715500 105.913900
-3.701700 102.203200
-3.687900 106.875900
-3.674100 120.016600
-3.660300 0.000000
-3.646500 0.000000
-3.632700 0.000000
-3.618900 0.000000
-3.605100 0.000000
-3.591300 0.000000
-3.577600 0.000000
-3.563800 0.000000
-3.550000 0.000000
-3.536200 0.000000
-3.522400 0.000000
-3.508600 0.000000
-3.494800 0.000000
-3.481000 0.000000
-3.467200 0.000000
-3.453400 0.000000
-3.439600 0.000000
-3.425800 0.000000
-3.412000 0.000000
-3.398300 0.000000
-3.384500 0.000000
-3.370700 0.818100
-3.356900 4.034400
-3.343100 7.250700
-3.329300 11.909000
-3.315500 17.129200
-3.301700 19.894800
-3.287900 20.072000
-3.274100 39.106900
-3.260300 73.441200
-3.246500 73.329000
-3.232800 17.372400
-3.219000 0.000000
-3.205200 0.000000
-3.191400 0.000000
-3.177600 20.532700
-3.163800 41.193100
-3.150000 61.327200
-3.136200 64.381700
-3.122400 40.005000
-3.108600 30.058100
-3.094800 23.632600
-3.081000 11.335500
-3.067200 0.000000
-3.053500 0.000000
-3.039700 0.000000
-3.025900 0.000000
-3.012100 0.000000
-2.998300 0.000000
-2.984500 0.000000
-2.970700 0.000000
-2.956900 0.000000
-2.943100 0.000000
-2.929300 0.000000
-2.915500 0.000000
-2.901700 0.000000
-2.888000 0.000000
-2.874200 0.000000
-2.860400 0.000000
-2.846600 0.000000
-2.832800 0.000000
-2.819000 0.000000
-2.805200 0.000000
-2.791400 0.000000
-2.777600 0.000000
-2.763800 0.000000
-2.750000 0.000000
-2.736200 0.000000
-2.722400 0.000000
-2.708700 0.000000
-2.694900 0.000000
-2.681100 0.000000
-2.667300 0.000000
-2.653500 0.000000
-2.639700 0.000000
-2.625900 0.000000
-2.612100 0.000000
-2.598300 0.000000
-2.584500 0.000000
-2.570700 0.000000
-2.556900 0.000000
-2.543200 0.000000
-2.529400 0.000000
-2.515600 14.888000
-2.501800 22.322200
-2.488000 27.575300
-2.474200 32.828400
-2.460400 46.824700
-2.446600 71.165100
-2.432800 59.338100
-2.419000 17.127500
-2.405200 24.740800
-2.391400 40.427200
-2.377600 68.049400
-2.363900 88.933600
-2.350100 51.791900
-2.336300 0.000000
-2.322500 0.000000
-2.308700 0.000000
-2.294900 0.000000
-2.281100 0.000000
-2.267300 0.000000
-2.253500 0.000000
-2.239700 0.000000
-2.225900 0.000000
-2.212100 0.000000
-2.198300 0.000000
-2.184600 0.000000
-2.170800 0.000000
-2.157000 0.000000
-2.143200 0.000000
-2.129400 0.000000
-2.115600 17.427800
-2.101800 147.449200
-2.088000 102.932800
-2.074200 0.000000
-2.060400 114.324800
-2.046600 35.427500
-2.032800 95.220700
-2.019100 29.113000
-2.005300 23.059600
-1.991500 253.033800
-1.977700 41.267700
-1.963900 93.680000
-1.950100 109.107200
-1.936300 154.472200
-1.922500 31.223700
-1.908700 5.759900
-1.894900 0.000000
-1.881100 0.000000
-1.867300 0.000000
-1.853500 0.000000
-1.839800 0.000000
-1.826000 0.000000
-1.812200 0.000000
-1.798400 0.000000
-1.784600 0.000000
-1.770800 0.000000
-1.757000 0.000000
-1.743200 0.000000
-1.729400 0.000000
-1.715600 0.000000
-1.701800 0.000000
-1.688000 0.000000
-1.674300 0.000000
-1.660500 0.000000
-1.646700 0.000000
-1.632900 0.000000
-1.619100 0.000000
-1.605300 0.000000
-1.591500 4.363300
-1.577700 24.327800
-1.563900 29.546700
-1.550100 34.765500
-1.536300 87.788800
-1.522500 97.574000
-1.508700 33.660500
-1.495000 18.296400
-1.481200 18.299000
-1.467400 18.301700
-1.453600 22.212800
-1.439800 26.768800
-1.426000 35.422700
-1.412200 45.322500
-1.398400 47.357600
-1.384600 49.468000
-1.370800 39.640900
-1.357000 39.228400
-1.343200 32.863500
-1.329500 32.595100
-1.315700 26.491700
-1.301900 19.740800
-1.288100 14.783600
-1.274300 13.482700
-1.260500 13.437100
-1.246700 16.480400
-1.232900 23.126300
-1.219100 28.094800
-1.205300 32.040100
-1.191500 37.269100
-1.177700 39.517300
-1.163900 39.515900
-1.150200 35.943600
-1.136400 32.198500
-1.122600 17.675400
-1.108800 12.927500
-1.095000 8.179700
-1.081200 38.153800
-1.067400 73.621100
-1.053600 127.689600
-1.039800 42.021800
-1.026000 4.484300
-1.012200 32.493000
-0.998400 86.184300
-0.984700 66.649900
-0.970900 107.335900
-0.957100 0.000000
-0.943300 77.649500
-0.929500 72.174700
-0.915700 0.000000
-0.901900 0.000000
-0.888100 0.000000
-0.874300 0.000000
-0.860500 0.000000
-0.846700 9.614800
-0.832900 29.331200
-0.819100 40.805200
-0.805400 43.040300
-0.791600 59.650500
-0.777800 61.936600
-0.764000 45.028400
-0.750200 0.000000
-0.736400 0.000000
-0.722600 0.000000
-0.708800 0.000000
-0.695000 0.000000
-0.681200 0.000000
-0.667400 0.000000
-0.653600 0.000000
-0.639900 0.000000
-0.626100 0.000000
-0.612300 81.808100
-0.598500 59.785600
-0.584700 60.770400
-0.570900 39.353500
-0.557100 37.019900
-0.543300 14.583800
-0.529500 6.805000
-0.515700 14.624000
-0.501900 96.812200
-0.488100 102.198800
-0.474300 76.034600
-0.460600 3.383400
-0.446800 0.000000
-0.433000 42.287500
-0.419200 61.975700
-0.405400 57.377300
-0.391600 68.288800
-0.377800 47.471000
-0.364000 55.139600
-0.350200 90.725100
-0.336400 123.282400
-0.322600 54.426300
-0.308800 41.560300
-0.295100 58.246200
-0.281300 60.923100
-0.267500 57.148400
-0.253700 90.816400
-0.239900 43.332900
-0.226100 49.292600
-0.212300 177.844800
-0.198500 16.855600
-0.184700 89.159000
-0.170900 120.919400
-0.157100 63.718900
-0.143300 18.018800
-0.129500 14.450100
-0.115800 44.038700
-0.102000 69.730300
-0.088200 90.740500
-0.074400 69.514900
-0.060600 0.000000
-0.046800 0.000000
-0.033000 0.000000
-0.019200 0.000000
-0.005400 38.551800
0.008400 59.220400
0.022200 170.347600
0.036000 39.472300
0.049700 105.560800
0.063500 108.108700
0.077300 60.581500
0.091100 0.000000
0.104900 0.000000
0.118700 0.000000
0.132500 0.000000
0.146300 0.000000
0.160100 0.000000
0.173900 0.000000
0.187700 27.637500
0.201500 31.282600
0.215300 39.558600
0.229000 61.741600
0.242800 36.751100
0.256600 72.171700
0.270400 102.593400
0.284200 73.927100
0.298000 96.688100
0.311800 68.876400
0.325600 26.846600
0.339400 0.000000
0.353200 0.000000
0.367000 0.000000
0.380800 0.000000
0.394500 0.000000
0.408300 0.000000
0.422100 0.000000
0.435900 0.000000
0.449700 0.000000
0.463500 0.000000
0.477300 0.000000
0.491100 0.000000
0.504900 0.000000
0.518700 0.000000
0.532500 0.000000
0.546300 0.000000
0.560100 0.000000
0.573800 0.000000
0.587600 0.000000
0.601400 0.000000
0.615200 0.000000
0.629000 0.000000
0.642800 0.000000
0.656600 0.000000
0.670400 0.000000
0.684200 0.000000
0.698000 0.000000
0.711800 0.000000
0.725600 0.000000
0.739300 0.000000
0.753100 0.000000
0.766900 0.000000
0.780700 0.000000
0.794500 0.000000
0.808300 0.000000
0.822100 0.000000
0.835900 0.000000
0.849700 0.000000
0.863500 0.000000
0.877300 0.000000
0.891100 0.000000
0.904900 0.000000
0.918600 0.000000
0.932400 0.000000
0.946200 0.000000
0.960000 0.000000
0.973800 0.000000
0.987600 0.000000
1.001400 0.000000
1.015200 0.000000
1.029000 0.000000
1.042800 0.000000
1.056600 0.000000
1.070400 0.000000
1.084100 0.000000
1.097900 0.000000
1.111700 0.000000
1.125500 0.000000
1.139300 0.000000
1.153100 0.000000
1.166900 0.000000
1.180700 0.000000
1.194500 0.000000
1.208300 0.000000
1.222100 0.000000
1.235900 0.000000
1.249700 0.000000
1.263400 0.000000
1.277200 0.000000
1.291000 0.000000
1.304800 0.000000
1.318600 0.000000
1.332400 0.000000
1.346200 0.000000
1.360000 0.000000
1.373800 0.000000
1.387600 0.000000
1.401400 0.000000
1.415200 0.000000
1.428900 0.000000
1.442700 0.000000
1.456500 0.000000
1.470300 0.000000
1.484100 0.000000
1.497900 0.000000
1.511700 0.000000
1.525500 0.000000
1.539300 0.000000
1.553100 0.000000
1.566900 0.000000
1.580700 0.000000
1.594500 0.000000
1.608200 0.000000
1.622000 0.000000
1.635800 0.000000
1.649600 0.000000
1.663400 0.000000
1.677200 0.000000
1.691000 0.000000
1.704800 0.000000
1.718600 0.000000
1.732400 0.000000
1.746200 0.000000
1.760000 0.000000
1.773700 0.000000
1.787500 0.000000
1.801300 0.000000
1.815100 0.000000
1.828900 0.000000
1.842700 0.000000
1.856500 0.000000
1.870300 0.000000
1.884100 0.000000
1.897900 0.000000
1.911700 0.000000
1.925500 0.000000
1.939300 0.000000
1.953000 0.000000
1.966800 0.000000
1.980600 0.000000
1.994400 0.000000
2.008200 0.000000
2.022000 0.000000
2.035800 0.000000
2.049600 0.000000
2.063400 0.000000
2.077200 0.000000
2.091000 0.000000
2.104800 0.000000
2.118500 0.000000
2.132300 0.000000
2.146100 0.000000
2.159900 0.000000
2.173700 0.000000
2.187500 0.000000
2.201300 0.000000
2.215100 0.000000
2.228900 0.000000
2.242700 0.000000
2.256500 0.000000
2.270300 0.000000
2.284100 0.000000
2.297800 0.000000
2.311600 0.000000
2.325400 0.000000
2.339200 0.000000
2.353000 0.000000
2.366800 0.000000
2.380600 0.000000
2.394400 0.000000
2.408200 0.000000
2.422000 0.000000
2.435800 0.000000
2.449600 0.000000
2.463400 0.000000
2.477100 0.000000
2.490900 0.000000
2.504700 0.000000
2.518500 0.000000
2.532300 0.000000
2.546100 0.000000
2.559900 0.000000
2.573700 0.000000
2.587500 0.000000
2.601300 0.000000
2.615100 0.000000
2.628900 0.000000
2.642600 0.000000
2.656400 0.000000
2.670200 0.000000
2.684000 0.000000
2.697800 0.000000
2.711600 0.000000
2.725400 0.000000
2.739200 0.000000
2.753000 0.000000
2.766800 0.000000
2.780600 0.000000
2.794400 0.000000
2.808200 0.000000
2.821900 0.000000
2.835700 0.000000
2.849500 0.000000
2.863300 0.000000
2.877100 0.000000
2.890900 0.000000
2.904700 0.000000
2.918500 0.000000
2.932300 0.000000
2.946100 0.000000
2.959900 0.000000
2.973700 0.000000
2.987400 0.000000
3.001200 0.000000
3.015000 0.000000
3.028800 0.000000
3.042600 0.000000
3.056400 0.000000
3.070200 0.000000
3.084000 0.000000
3.097800 0.000000
3.111600 9.754200
3.125400 85.334700
3.139200 27.460100
3.153000 23.092400
3.166700 18.724800
3.180500 75.207200
3.194300 18.239600
3.208100 3.906600
3.221900 52.604600
3.235700 60.726500
3.249500 65.860900
3.263300 45.054000
3.277100 27.068100
3.290900 17.658000
3.304700 8.248000
3.318500 4.740200
3.332200 11.661400
3.346000 35.353800
3.359800 42.556700
3.373600 48.613600
3.387400 43.927800
3.401200 37.990900
3.415000 34.437600
3.428800 31.815400
3.442600 34.081500
3.456400 28.871700
3.470200 40.000700
3.484000 51.129600
3.497800 53.552900
3.511500 48.996800
3.525300 45.751500
3.539100 46.910000
3.552900 46.835500
3.566700 68.861700
3.580500 66.326800
3.594300 61.682600
3.608100 41.403600
3.621900 38.191700
3.635700 34.979800
3.649500 80.629200
3.663300 108.418600
3.677000 140.616300
3.690800 77.354800
3.704600 80.894200
3.718400 69.945400
3.732200 53.394700
3.746000 40.756300
3.759800 40.441700
3.773600 50.893600
3.787400 50.330000
3.801200 18.771400
3.815000 32.257100
3.828800 47.662900
3.842600 42.181800
3.856300 38.576700
3.870100 60.080900
3.883900 42.088600
3.897700 37.811400
3.911500 38.279200
3.925300 35.741500
3.939100 25.999400
3.952900 36.791900
3.966700 42.710300
3.980500 40.425400
3.994300 21.992800
4.008100 1.846900
4.021800 0.000000
4.035600 0.000000
4.049400 0.000000
4.063200 1.611900
4.077000 15.420200
4.090800 34.865800
4.104600 89.107800
4.118400 98.842900
4.132200 76.942700
4.146000 48.966800
4.159800 29.169400
4.173600 34.527200
4.187400 47.138600
4.201100 45.198600
4.214900 31.737800
4.228700 16.419200
4.242500 1.100600
4.256300 0.000000
4.270100 0.000000
4.283900 0.000000
4.297700 0.000000
4.311500 0.199800
4.325300 2.063300
4.339100 3.926800
4.352900 5.790300
4.366600 7.653800
4.380400 36.107700
4.394200 44.341700
4.408000 52.575600
4.421800 80.893100
4.435600 31.467900
4.449400 20.523900
4.463200 9.579900
4.477000 5.086400
4.490800 3.494300
4.504600 1.902200
4.518400 0.310100
4.532200 0.000000
4.545900 144.672800
4.559700 130.215100
4.573500 6.488400
4.587300 0.000000
4.601100 0.000000
4.614900 0.000000
4.628700 0.000000
4.642500 0.000000
4.656300 0.000000
4.670100 0.000000
4.683900 0.000000
4.697700 0.000000
4.711400 0.000000
4.725200 0.000000
4.739000 0.000000
4.752800 0.000000
4.766600 0.000000
4.780400 22.372200
4.794200 46.089400
4.808000 58.284100
4.821800 73.948800
4.835600 35.000900
4.849400 96.933200
4.863200 78.186400
4.877000 114.499100
4.890700 0.000000
4.904500 0.000000
4.918300 192.287500
4.932100 34.954300
4.945900 13.752800
4.959700 0.000000
4.973500 85.383300
4.987300 18.535400
5.001100 19.771700
5.014900 21.008000
5.028700 25.225800
5.042500 31.616500
5.056200 24.928600
5.070000 18.240600
5.083800 12.014800
5.097600 6.312400
5.111400 0.610000
5.125200 0.000000
5.139000 0.000000
5.152800 0.649900
5.166600 7.903200
5.180400 15.156400
5.194200 21.615500
5.208000 27.123900
5.221800 32.632300
5.235500 17.313200
5.249300 18.413100
5.263100 19.513000
5.276900 41.139800
5.290700 50.710600
5.304500 52.945900
5.318300 86.075900
5.332100 23.856600
5.345900 30.502600
5.359700 39.422600
5.373500 42.246900
5.387300 37.041800
5.401000 9.150700
5.414800 3.254000
5.428600 0.000000
5.442400 0.000000
5.456200 0.000000
5.470000 0.000000
5.483800 0.000000
5.497600 0.000000
5.511400 0.000000
5.525200 0.000000
5.539000 0.000000
5.552800 0.000000
5.566600 0.000000
5.580300 0.000000
5.594100 0.000000
5.607900 0.000000
5.621700 0.000000
5.635500 0.000000
5.649300 0.000000
5.663100 0.000000
5.676900 0.000000
5.690700 0.000000
5.704500 6.848900
5.718300 13.962900
5.732100 17.687100
5.745800 18.986800
5.759600 21.898500
5.773400 24.883300
5.787200 26.999900
5.801000 27.140900
5.814800 32.438600
5.828600 41.538800
5.842400 50.766300
5.856200 59.993800
5.870000 89.044300
5.883800 76.651200
5.897600 83.564300
5.911400 68.969700
5.925100 56.989900
5.938900 72.695700
5.952700 40.188400
5.966500 38.514100
5.980300 38.297800
5.994100 47.722300
6.007900 69.952800
6.021700 57.575800
6.035500 45.796500
6.049300 12.830800
6.063100 8.430900
6.076900 4.960500
6.090600 1.490100
6.104400 0.000000
6.118200 0.000000
6.132000 0.000000
6.145800 0.000000
6.159600 0.000000
6.173400 0.000000
6.187200 0.000000
6.201000 0.000000
6.214800 0.000000
6.228600 0.000000
6.242400 0.000000
6.256200 0.000000
6.269900 0.000000
6.283700 1.011000
6.297500 3.696900
6.311300 6.710100
6.325100 11.409000
6.338900 16.350600
6.352700 21.292300
6.366500 26.503700
6.380300 30.522800
6.394100 29.246000
6.407900 27.969300
6.421700 26.692500
6.435400 25.335400
6.449200 20.470300
6.463000 15.605200
6.476800 17.571000
6.490600 21.332700
6.504400 19.782800
6.518200 18.275700
6.532000 18.635100
6.545800 20.993400
6.559600 23.351800
6.573400 25.710100
6.587200 28.068400
6.601000 30.426700
6.614700 32.299900
6.628500 28.932300
6.642300 17.919100
6.656100 10.111900
6.669900 9.452400
6.683700 11.054800
6.697500 11.244400
6.711300 11.434000
6.725100 11.623600
6.738900 11.588500
6.752700 11.520400
6.766500 11.452200
6.780200 11.384100
6.794000 11.316000
6.807800 11.247900
6.821600 11.183700
6.835400 11.361200
6.849200 11.538700
6.863000 11.716300
6.876800 11.816100
6.890600 11.427900
6.904400 11.039600
6.918200 10.651400
6.932000 10.263200
6.945800 9.874900
6.959500 9.486700
6.973300 9.665700
6.987100 12.247800
7.000900 18.152100
7.014700 22.016500
7.028500 21.013200
7.042300 19.601000
7.056100 18.188900
7.069900 16.825600
7.083700 16.299700
7.097500 15.773700
7.111300 15.247800
7.125000 14.986100
7.138800 15.600100
7.152600 16.214000
7.166400 16.980600
7.180200 18.446000
7.194000 19.586100
7.207800 21.043300
7.221600 23.368800
7.235400 17.814800
7.249200 10.990400
7.263000 6.891600
7.276800 7.854300
7.290600 8.817000
7.304300 9.950500
7.318100 13.526000
7.331900 17.101600
7.345700 20.677100
7.359500 24.252700
7.373300 27.867800
7.387100 25.603600
7.400900 42.978700
7.414700 33.597200
7.428500 39.393000
7.442300 19.524500
7.456100 19.700400
7.469900 22.935500
7.483600 26.170700
7.497400 29.405900
7.511200 31.703900
7.525000 24.068600
7.538800 24.928200
7.552600 27.021400
7.566400 29.114700
7.580200 5.296800
7.594000 7.573200
7.607800 13.358500
7.621600 19.143800
7.635400 24.781800
7.649100 36.788800
7.662900 49.968300
7.676700 44.766600
7.690500 39.047800
7.704300 36.129000
7.718100 33.635700
7.731900 30.470500
7.745700 81.017800
7.759500 83.306400
7.773300 40.278500
7.787100 33.377000
7.800900 32.537900
7.814700 39.464600
7.828400 43.366000
7.842200 53.703000
7.856000 46.621100
7.869800 40.793100
7.883600 32.131500
7.897400 1.237100
7.911200 49.367700
7.925000 63.223300
7.938800 84.314100
7.952600 39.467500
7.966400 43.866900
7.980200 40.933400
7.993900 34.988500
8.007700 29.686800
8.021500 33.193500
8.035300 36.700200
8.049100 92.752200
8.062900 11.110500
8.076700 12.059000
8.090500 19.547700
8.104300 27.036500
8.118100 36.390900
8.131900 45.793100
8.145700 50.087600
8.159500 56.257900
8.173200 63.807200
8.187000 51.633300
8.200800 46.128200
8.214600 40.499400
8.228400 39.950100
8.242200 24.737200
8.256000 23.131800
8.269800 21.526500
8.283600 17.786300
8.297400 33.994100
8.311200 85.040000
8.325000 38.339200
8.338700 48.648800
8.352500 38.917300
8.366300 46.066300
8.380100 52.198900
8.393900 52.792300
8.407700 63.683800
8.421500 33.936000
8.435300 35.371200
8.449100 40.320700
8.462900 23.454400
8.476700 23.689100
8.490500 23.923800
8.504300 31.398500
8.518000 47.136900
8.531800 39.544400
8.545600 69.402200
8.559400 23.159300
8.573200 12.910400
8.587000 9.181200
8.600800 14.441700
8.614600 28.443400
8.628400 32.136800
8.642200 41.444000
8.656000 48.384900
8.669800 91.523800
8.683500 37.346400
8.697300 38.210500
8.711100 38.510900
8.724900 44.316800
8.738700 49.311700
8.752500 52.019600
8.766300 44.263900
8.780100 37.106500
8.793900 27.850700
8.807700 30.383300
8.821500 43.330800
8.835300 22.189200
8.849100 27.538000
8.862800 59.145400
8.876600 43.169600
8.890400 48.150000
8.904200 39.043100
8.918000 34.583300
8.931800 77.651200
8.945600 102.166000
8.959400 23.739200
8.973200 28.967900
8.987000 31.602500
9.000800 34.582200
9.014600 31.299200
9.028300 28.016100
9.042100 28.866500
9.055900 27.362200
9.069700 23.995200
9.083500 22.888400
9.097300 27.661700
9.111100 33.176300
9.124900 33.942700
9.138700 36.164400
9.152500 37.029600
9.166300 39.311600
9.180100 22.573500
9.193900 39.307300
9.207600 40.110200
9.221400 39.241400
9.235200 49.012100
9.249000 50.424400
9.262800 51.448800
9.276600 47.421800
9.290400 38.150000
9.304200 33.932800
9.318000 37.668700
9.331800 42.038500
9.345600 39.688300
9.359400 31.575100
9.373100 23.446300
9.386900 23.706900
9.400700 36.484700
9.414500 38.733400
9.428300 35.595700
9.442100 30.339500
9.455900 41.813800
9.469700 34.635100
9.483500 28.360000
9.497300 36.665800
9.511100 37.435000
9.524900 34.549000
9.538700 31.902800
9.552400 26.794200
9.566200 20.766900
9.580000 14.735700
9.593800 26.033200
9.607600 23.381500
9.621400 21.129900
9.635200 21.434200
9.649000 17.908400
9.662800 14.745600
9.676600 11.580200
9.690400 8.412500
9.704200 5.394300
9.717900 4.508700
9.731700 3.623000
9.745500 2.737400
9.759300 1.851800
9.773100 0.966100
9.786900 0.080500
9.800700 0.000000
9.814500 0.000000
9.828300 0.000000
9.842100 0.000000
9.855900 0.000000
9.869700 0.000000
9.883500 0.000000
9.897200 0.000000
9.911000 0.000000
9.924800 0.000000
9.938600 0.000000
9.952400 0.000000
9.966200 0.000000
9.980000 0.000000
9.993800 0.000000
10.007600 0.000000
10.021400 0.000000
10.035200 0.000000
10.049000 0.000000
10.062700 0.000000
10.076500 0.000000
10.090300 0.000000
10.104100 0.000000
10.117900 0.000000
10.131700 0.000000
10.145500 0.000000
10.159300 0.000000
10.173100 0.000000
10.186900 0.000000
10.200700 0.000000
10.214500 0.000000
10.228300 0.000000
10.242000 0.000000
10.255800 0.000000
10.269600 0.000000
10.283400 0.000000
10.297200 0.000000
10.311000 0.000000
10.324800 0.000000
10.338600 0.000000
10.352400 0.000000
10.366200 0.000000
10.380000 0.000000
10.393800 0.000000
10.407500 0.000000
10.421300 0.000000
10.435100 0.000000
10.448900 0.000000
10.462700 0.000000
10.476500 0.000000
10.490300 0.000000
10.504100 0.000000
10.517900 0.000000
10.531700 0.000000
10.545500 0.000000
10.559300 0.000000
10.573100 0.000000
10.586800 0.000000
10.600600 0.000000
10.614400 0.000000
10.628200 0.000000
10.642000 0.000000
10.655800 0.000000
10.669600 0.000000
10.683400 0.000000
10.697200 0.000000
10.711000 0.000000
10.724800 0.000000
10.738600 0.000000
10.752300 0.000000
10.766100 0.000000
10.779900 0.000000
10.793700 0.000000
10.807500 0.000000
10.821300 0.000000
10.835100 0.000000
10.848900 0.000000
10.862700 0.000000
10.876500 0.000000
10.890300 0.000000
10.904100 0.000000
10.917900 0.000000
10.931600 0.000000
10.945400 0.000000
10.959200 0.000000
10.973000 0.000000
10.986800 0.000000
11.000600 0.000000
11.014400 0.000000
11.028200 0.000000
11.042000 0.000000
e
