set title 'mp-982930 - Density of States'
set xlabel 'Energy (eV)'
set ylabel 'DOS (states/eV)'
set grid
set xrange [-10:10]
set yrange [0:40.658]
set xzeroaxis lt -1
set terminal png size 800,600
set output 'mp-982930_dos_gnuplot.png'
plot '-' using 1:2 with lines title 'DOS'
-26.952900 0.000000
-26.926000 0.000000
-26.899100 0.000000
-26.872200 0.000000
-26.845300 0.000000
-26.818400 0.000000
-26.791500 0.000000
-26.764600 0.000000
-26.737700 0.000000
-26.710800 0.000000
-26.683900 0.000000
-26.657000 0.000000
-26.630100 0.000000
-26.603200 0.000000
-26.576300 0.000000
-26.549500 0.000000
-26.522600 0.000000
-26.495700 0.000000
-26.468800 0.000000
-26.441900 0.000000
-26.415000 0.000000
-26.388100 0.000000
-26.361200 0.000000
-26.334300 0.000000
-26.307400 0.000000
-26.280500 0.000000
-26.253600 0.000000
-26.226700 0.000000
-26.199800 0.000000
-26.172900 0.000000
-26.146000 0.000000
-26.119100 0.000000
-26.092200 0.000000
-26.065300 0.000000
-26.038400 0.000000
-26.011500 0.000000
-25.984600 0.000000
-25.957700 0.000000
-25.930800 0.000000
-25.903900 0.000000
-25.877000 0.000000
-25.850100 0.000000
-25.823200 0.000000
-25.796300 0.000000
-25.769400 0.000000
-25.742500 0.000000
-25.715600 0.000000
-25.688700 0.000000
-25.661800 0.000000
-25.634900 0.000000
-25.608000 0.000000
-25.581100 0.000000
-25.554200 0.000000
-25.527300 0.000000
-25.500400 0.000000
-25.473500 0.000000
-25.446600 0.000000
-25.419700 0.000000
-25.392800 0.000000
-25.366000 0.000000
-25.339100 0.000000
-25.312200 0.000000
-25.285300 0.000000
-25.258400 0.000000
-25.231500 0.000000
-25.204600 0.000000
-25.177700 0.000000
-25.150800 0.000000
-25.123900 0.000000
-25.097000 0.000000
-25.070100 0.000000
-25.043200 0.000000
-25.016300 0.000000
-24.989400 0.000000
-24.962500 0.000000
-24.935600 0.000000
-24.908700 0.000000
-24.881800 0.000000
-24.854900 0.000000
-24.828000 0.000000
-24.801100 0.000000
-24.774200 0.000000
-24.747300 0.000000
-24.720400 0.000000
-24.693500 0.000000
-24.666600 0.000200
-24.639700 0.007100
-24.612800 0.119600
-24.585900 1.160300
-24.559000 6.492600
-24.532100 21.052400
-24.505200 40.061000
-24.478300 46.905700
-24.451400 39.464100
-24.424500 30.752700
-24.397600 21.926900
-24.370700 11.054800
-24.343800 3.395800
-24.316900 0.607500
-24.290000 0.062500
-24.263100 0.003700
-24.236200 0.000100
-24.209300 0.000000
-24.182500 0.000000
-24.155600 0.000000
-24.128700 0.000000
-24.101800 0.000000
-24.074900 0.000000
-24.048000 0.000000
-24.021100 0.000000
-23.994200 0.000000
-23.967300 0.000000
-23.940400 0.000000
-23.913500 0.000000
-23.886600 0.000000
-23.859700 0.000000
-23.832800 0.000000
-23.805900 0.000000
-23.779000 0.000000
-23.752100 0.000000
-23.725200 0.000000
-23.698300 0.000000
-23.671400 0.000000
-23.644500 0.000000
-23.617600 0.000000
-23.590700 0.000000
-23.563800 0.000000
-23.536900 0.000000
-23.510000 0.000000
-23.483100 0.000000
-23.456200 0.000000
-23.429300 0.000000
-23.402400 0.000000
-23.375500 0.000000
-23.348600 0.000000
-23.321700 0.000000
-23.294800 0.000000
-23.267900 0.000000
-23.241000 0.000000
-23.214100 0.000000
-23.187200 0.000000
-23.160300 0.000000
-23.133400 0.000000
-23.106500 0.000000
-23.079600 0.000000
-23.052700 0.000000
-23.025800 0.000000
-22.998900 0.000000
-22.972100 0.000000
-22.945200 0.000000
-22.918300 0.000000
-22.891400 0.000000
-22.864500 0.000000
-22.837600 0.000000
-22.810700 0.000000
-22.783800 0.000000
-22.756900 0.000000
-22.730000 0.000000
-22.703100 0.000000
-22.676200 0.000000
-22.649300 0.000000
-22.622400 0.000000
-22.595500 0.000000
-22.568600 0.000000
-22.541700 0.000000
-22.514800 0.000000
-22.487900 0.000000
-22.461000 0.000000
-22.434100 0.000000
-22.407200 0.000000
-22.380300 0.000000
-22.353400 0.000000
-22.326500 0.000000
-22.299600 0.000000
-22.272700 0.000000
-22.245800 0.000000
-22.218900 0.000000
-22.192000 0.000000
-22.165100 0.000000
-22.138200 0.000000
-22.111300 0.000000
-22.084400 0.000000
-22.057500 0.000000
-22.030600 0.000000
-22.003700 0.000000
-21.976800 0.000000
-21.949900 0.000000
-21.923000 0.000000
-21.896100 0.000000
-21.869200 0.000000
-21.842300 0.000000
-21.815400 0.000000
-21.788600 0.000000
-21.761700 0.000000
-21.734800 0.000000
-21.707900 0.000000
-21.681000 0.000000
-21.654100 0.000000
-21.627200 0.000000
-21.600300 0.000000
-21.573400 0.000000
-21.546500 0.000000
-21.519600 0.000000
-21.492700 0.000000
-21.465800 0.000000
-21.438900 0.000000
-21.412000 0.000000
-21.385100 0.000000
-21.358200 0.000000
-21.331300 0.000000
-21.304400 0.000000
-21.277500 0.000000
-21.250600 0.000000
-21.223700 0.000000
-21.196800 0.000000
-21.169900 0.000000
-21.143000 0.000000
-21.116100 0.000000
-21.089200 0.000000
-21.062300 0.000000
-21.035400 0.000000
-21.008500 0.000000
-20.981600 0.000000
-20.954700 0.000000
-20.927800 0.000000
-20.900900 0.000000
-20.874000 0.000000
-20.847100 0.000000
-20.820200 0.000000
-20.793300 0.000000
-20.766400 0.000000
-20.739500 0.000000
-20.712600 0.000000
-20.685700 0.000000
-20.658800 0.000000
-20.631900 0.000000
-20.605100 0.000000
-20.578200 0.000000
-20.551300 0.000000
-20.524400 0.000000
-20.497500 0.000000
-20.470600 0.000000
-20.443700 0.000000
-20.416800 0.000000
-20.389900 0.000000
-20.363000 0.000000
-20.336100 0.000000
-20.309200 0.000000
-20.282300 0.000000
-20.255400 0.000000
-20.228500 0.000000
-20.201600 0.000000
-20.174700 0.000000
-20.147800 0.000000
-20.120900 0.000000
-20.094000 0.000000
-20.067100 0.000000
-20.040200 0.000000
-20.013300 0.000000
-19.986400 0.000000
-19.959500 0.000000
-19.932600 0.000000
-19.905700 0.000000
-19.878800 0.000000
-19.851900 0.000000
-19.825000 0.000000
-19.798100 0.000000
-19.771200 0.000000
-19.744300 0.000000
-19.717400 0.000000
-19.690500 0.000000
-19.663600 0.000000
-19.636700 0.000000
-19.609800 0.000000
-19.582900 0.000000
-19.556000 0.000000
-19.529100 0.000000
-19.502200 0.000000
-19.475300 0.000000
-19.448400 0.000000
-19.421500 0.000000
-19.394700 0.000000
-19.367800 0.000000
-19.340900 0.000000
-19.314000 0.000000
-19.287100 0.000000
-19.260200 0.000000
-19.233300 0.000000
-19.206400 0.000000
-19.179500 0.000000
-19.152600 0.000000
-19.125700 0.000000
-19.098800 0.000000
-19.071900 0.000000
-19.045000 0.000000
-19.018100 0.000000
-18.991200 0.000000
-18.964300 0.000000
-18.937400 0.000000
-18.910500 0.000000
-18.883600 0.000000
-18.856700 0.000000
-18.829800 0.000000
-18.802900 0.000000
-18.776000 0.000000
-18.749100 0.000000
-18.722200 0.000000
-18.695300 0.000000
-18.668400 0.000000
-18.641500 0.000000
-18.614600 0.000000
-18.587700 0.000000
-18.560800 0.000000
-18.533900 0.000000
-18.507000 0.000000
-18.480100 0.000000
-18.453200 0.000000
-18.426300 0.000000
-18.399400 0.000000
-18.372500 0.000000
-18.345600 0.000000
-18.318700 0.000000
-18.291800 0.000000
-18.264900 0.000000
-18.238000 0.000000
-18.211200 0.000000
-18.184300 0.000000
-18.157400 0.000000
-18.130500 0.000000
-18.103600 0.000000
-18.076700 0.000000
-18.049800 0.000000
-18.022900 0.000000
-17.996000 0.000000
-17.969100 0.000000
-17.942200 0.000000
-17.915300 0.000000
-17.888400 0.000000
-17.861500 0.000000
-17.834600 0.000000
-17.807700 0.000000
-17.780800 0.000000
-17.753900 0.000000
-17.727000 0.000000
-17.700100 0.000000
-17.673200 0.000000
-17.646300 0.000000
-17.619400 0.000000
-17.592500 0.000000
-17.565600 0.000000
-17.538700 0.000000
-17.511800 0.000000
-17.484900 0.000000
-17.458000 0.000000
-17.431100 0.000000
-17.404200 0.000000
-17.377300 0.000000
-17.350400 0.000000
-17.323500 0.000000
-17.296600 0.000000
-17.269700 0.000000
-17.242800 0.000000
-17.215900 0.000000
-17.189000 0.000000
-17.162100 0.000000
-17.135200 0.000000
-17.108300 0.000000
-17.081400 0.000000
-17.054500 0.000000
-17.027600 0.000000
-17.000800 0.000000
-16.973900 0.000000
-16.947000 0.000000
-16.920100 0.000000
-16.893200 0.000000
-16.866300 0.000000
-16.839400 0.000000
-16.812500 0.000000
-16.785600 0.000000
-16.758700 0.000000
-16.731800 0.000000
-16.704900 0.000000
-16.678000 0.000000
-16.651100 0.000000
-16.624200 0.000000
-16.597300 0.000000
-16.570400 0.000000
-16.543500 0.000000
-16.516600 0.000000
-16.489700 0.000000
-16.462800 0.000000
-16.435900 0.000000
-16.409000 0.000000
-16.382100 0.000000
-16.355200 0.000000
-16.328300 0.000000
-16.301400 0.000000
-16.274500 0.000000
-16.247600 0.000000
-16.220700 0.000000
-16.193800 0.000000
-16.166900 0.000000
-16.140000 0.000000
-16.113100 0.000000
-16.086200 0.000000
-16.059300 0.000000
-16.032400 0.000000
-16.005500 0.000000
-15.978600 0.000000
-15.951700 0.000000
-15.924800 0.000000
-15.897900 0.000000
-15.871000 0.000000
-15.844100 0.000000
-15.817300 0.000000
-15.790400 0.000000
-15.763500 0.000000
-15.736600 0.000000
-15.709700 0.000000
-15.682800 0.000000
-15.655900 0.000000
-15.629000 0.000000
-15.602100 0.000000
-15.575200 0.000000
-15.548300 0.000000
-15.521400 0.000000
-15.494500 0.000000
-15.467600 0.000000
-15.440700 0.000000
-15.413800 0.000000
-15.386900 0.000000
-15.360000 0.000000
-15.333100 0.000000
-15.306200 0.000000
-15.279300 0.000000
-15.252400 0.000000
-15.225500 0.000000
-15.198600 0.000000
-15.171700 0.000000
-15.144800 0.000000
-15.117900 0.000000
-15.091000 0.000000
-15.064100 0.000000
-15.037200 0.000000
-15.010300 0.000000
-14.983400 0.000000
-14.956500 0.000000
-14.929600 0.000000
-14.902700 0.000000
-14.875800 0.000000
-14.848900 0.000000
-14.822000 0.000000
-14.795100 0.000000
-14.768200 0.000000
-14.741300 0.000000
-14.714400 0.000000
-14.687500 0.000000
-14.660600 0.000000
-14.633800 0.000000
-14.606900 0.000000
-14.580000 0.000000
-14.553100 0.000000
-14.526200 0.000000
-14.499300 0.000000
-14.472400 0.000000
-14.445500 0.000000
-14.418600 0.000000
-14.391700 0.000000
-14.364800 0.000000
-14.337900 0.000000
-14.311000 0.000000
-14.284100 0.000000
-14.257200 0.000000
-14.230300 0.000000
-14.203400 0.000000
-14.176500 0.000000
-14.149600 0.000000
-14.122700 0.000000
-14.095800 0.000000
-14.068900 0.000000
-14.042000 0.000000
-14.015100 0.000000
-13.988200 0.000000
-13.961300 0.000000
-13.934400 0.000000
-13.907500 0.000000
-13.880600 0.000000
-13.853700 0.000000
-13.826800 0.000000
-13.799900 0.000000
-13.773000 0.000000
-13.746100 0.000000
-13.719200 0.000000
-13.692300 0.000000
-13.665400 0.000000
-13.638500 0.000000
-13.611600 0.000000
-13.584700 0.000000
-13.557800 0.000000
-13.530900 0.000000
-13.504000 0.000000
-13.477100 0.000000
-13.450200 0.000000
-13.423400 0.000000
-13.396500 0.000000
-13.369600 0.000000
-13.342700 0.000000
-13.315800 0.000000
-13.288900 0.000000
-13.262000 0.000000
-13.235100 0.000000
-13.208200 0.000000
-13.181300 0.000000
-13.154400 0.000000
-13.127500 0.000000
-13.100600 0.000000
-13.073700 0.000000
-13.046800 0.000000
-13.019900 0.000000
-12.993000 0.000000
-12.966100 0.000000
-12.939200 0.000000
-12.912300 0.000000
-12.885400 0.000000
-12.858500 0.000000
-12.831600 0.000000
-12.804700 0.000000
-12.777800 0.000000
-12.750900 0.000000
-12.724000 0.000000
-12.697100 0.000000
-12.670200 0.000000
-12.643300 0.000000
-12.616400 0.000000
-12.589500 0.000000
-12.562600 0.000000
-12.535700 0.000000
-12.508800 0.000000
-12.481900 0.000000
-12.455000 0.000000
-12.428100 0.000000
-12.401200 0.000000
-12.374300 0.000000
-12.347400 0.000000
-12.320500 0.000000
-12.293600 0.000000
-12.266700 0.000000
-12.239900 0.000000
-12.213000 0.000000
-12.186100 0.000000
-12.159200 0.000000
-12.132300 0.000000
-12.105400 0.000000
-12.078500 0.000000
-12.051600 0.000000
-12.024700 0.000000
-11.997800 0.000000
-11.970900 0.000000
-11.944000 0.000000
-11.917100 0.000000
-11.890200 0.000000
-11.863300 0.000000
-11.836400 0.000000
-11.809500 0.000000
-11.782600 0.000000
-11.755700 0.000000
-11.728800 0.000000
-11.701900 0.000000
-11.675000 0.000000
-11.648100 0.000000
-11.621200 0.000000
-11.594300 0.000000
-11.567400 0.000000
-11.540500 0.000000
-11.513600 0.000000
-11.486700 0.000000
-11.459800 0.000000
-11.432900 0.000000
-11.406000 0.000000
-11.379100 0.000000
-11.352200 0.000000
-11.325300 0.000000
-11.298400 0.000000
-11.271500 0.000000
-11.244600 0.000000
-11.217700 0.000000
-11.190800 0.000000
-11.163900 0.000000
-11.137000 0.000000
-11.110100 0.000000
-11.083200 0.000000
-11.056400 0.000000
-11.029500 0.000000
-11.002600 0.000000
-10.975700 0.000000
-10.948800 0.000000
-10.921900 0.000000
-10.895000 0.000000
-10.868100 0.000000
-10.841200 0.000000
-10.814300 0.000000
-10.787400 0.000000
-10.760500 0.000000
-10.733600 0.000000
-10.706700 0.000000
-10.679800 0.000000
-10.652900 0.000000
-10.626000 0.000000
-10.599100 0.000000
-10.572200 0.000000
-10.545300 0.000000
-10.518400 0.000000
-10.491500 0.000000
-10.464600 0.000000
-10.437700 0.000000
-10.410800 0.000000
-10.383900 0.000000
-10.357000 0.000000
-10.330100 0.000000
-10.303200 0.000000
-10.276300 0.000000
-10.249400 0.000000
-10.222500 0.000000
-10.195600 0.000000
-10.168700 0.000000
-10.141800 0.000000
-10.114900 0.000000
-10.088000 0.000000
-10.061100 0.000000
-10.034200 0.000000
-10.007300 0.000000
-9.980400 0.000000
-9.953500 0.000000
-9.926600 0.000000
-9.899700 0.000000
-9.872800 0.000000
-9.846000 0.000000
-9.819100 0.000000
-9.792200 0.000000
-9.765300 0.000000
-9.738400 0.000000
-9.711500 0.000000
-9.684600 0.000000
-9.657700 0.000000
-9.630800 0.000000
-9.603900 0.000000
-9.577000 0.000000
-9.550100 0.000000
-9.523200 0.000000
-9.496300 0.000000
-9.469400 0.000000
-9.442500 0.000000
-9.415600 0.000000
-9.388700 0.000000
-9.361800 0.000000
-9.334900 0.000000
-9.308000 0.000000
-9.281100 0.000000
-9.254200 0.000000
-9.227300 0.000000
-9.200400 0.000000
-9.173500 0.000000
-9.146600 0.000000
-9.119700 0.000000
-9.092800 0.000000
-9.065900 0.000000
-9.039000 0.000000
-9.012100 0.000000
-8.985200 0.000000
-8.958300 0.000000
-8.931400 0.000000
-8.904500 0.000000
-8.877600 0.000000
-8.850700 0.000000
-8.823800 0.000000
-8.796900 0.000000
-8.770000 0.000000
-8.743100 0.000000
-8.716200 0.000000
-8.689300 0.000000
-8.662500 0.000000
-8.635600 0.000000
-8.608700 0.000000
-8.581800 0.000000
-8.554900 0.000000
-8.528000 0.000000
-8.501100 0.000000
-8.474200 0.000000
-8.447300 0.000000
-8.420400 0.000000
-8.393500 0.000000
-8.366600 0.000000
-8.339700 0.000000
-8.312800 0.000000
-8.285900 0.000000
-8.259000 0.000000
-8.232100 0.000000
-8.205200 0.000000
-8.178300 0.000000
-8.151400 0.000000
-8.124500 0.000000
-8.097600 0.000000
-8.070700 0.000000
-8.043800 0.000000
-8.016900 0.000000
-7.990000 0.000000
-7.963100 0.000000
-7.936200 0.000000
-7.909300 0.000000
-7.882400 0.000000
-7.855500 0.000000
-7.828600 0.000000
-7.801700 0.000000
-7.774800 0.000000
-7.747900 0.000000
-7.721000 0.000000
-7.694100 0.000000
-7.667200 0.000000
-7.640300 0.000000
-7.613400 0.000000
-7.586500 0.000000
-7.559600 0.000000
-7.532700 0.000000
-7.505800 0.000000
-7.478900 0.000000
-7.452100 0.000000
-7.425200 0.000000
-7.398300 0.000000
-7.371400 0.000000
-7.344500 0.000000
-7.317600 0.000000
-7.290700 0.000000
-7.263800 0.000000
-7.236900 0.000000
-7.210000 0.000000
-7.183100 0.000000
-7.156200 0.000000
-7.129300 0.000000
-7.102400 0.000000
-7.075500 0.000000
-7.048600 0.000000
-7.021700 0.000000
-6.994800 0.000000
-6.967900 0.000000
-6.941000 0.000000
-6.914100 0.000000
-6.887200 0.000000
-6.860300 0.000000
-6.833400 0.000000
-6.806500 0.000000
-6.779600 0.000000
-6.752700 0.000000
-6.725800 0.000000
-6.698900 0.000000
-6.672000 0.000000
-6.645100 0.000000
-6.618200 0.000000
-6.591300 0.000000
-6.564400 0.000000
-6.537500 0.000000
-6.510600 0.000000
-6.483700 0.000000
-6.456800 0.000000
-6.429900 0.000000
-6.403000 0.000000
-6.376100 0.000000
-6.349200 0.000000
-6.322300 0.000000
-6.295400 0.000000
-6.268600 0.000000
-6.241700 0.000000
-6.214800 0.000000
-6.187900 0.000000
-6.161000 0.000000
-6.134100 0.000000
-6.107200 0.000000
-6.080300 0.000000
-6.053400 0.000000
-6.026500 0.000000
-5.999600 0.000000
-5.972700 0.000000
-5.945800 0.000000
-5.918900 0.000000
-5.892000 0.000000
-5.865100 0.000000
-5.838200 0.000000
-5.811300 0.000000
-5.784400 0.000000
-5.757500 0.000000
-5.730600 0.000000
-5.703700 0.000000
-5.676800 0.000000
-5.649900 0.000000
-5.623000 0.000000
-5.596100 0.000000
-5.569200 0.000000
-5.542300 0.000000
-5.515400 0.000000
-5.488500 0.000000
-5.461600 0.000000
-5.434700 0.000000
-5.407800 0.000000
-5.380900 0.000000
-5.354000 0.000000
-5.327100 0.000000
-5.300200 0.000000
-5.273300 0.000000
-5.246400 0.000000
-5.219500 0.000000
-5.192600 0.000000
-5.165700 0.000100
-5.138800 0.001000
-5.111900 0.009800
-5.085100 0.063500
-5.058200 0.271100
-5.031300 0.775300
-5.004400 1.519500
-4.977500 2.214500
-4.950600 2.910700
-4.923700 3.909000
-4.896800 4.872800
-4.869900 5.844400
-4.843000 8.103900
-4.816100 11.975900
-4.789200 16.277800
-4.762300 20.366400
-4.735400 24.143000
-4.708500 27.263600
-4.681600 29.288300
-4.654700 29.467300
-4.627800 28.104200
-4.600900 27.165800
-4.574000 27.973500
-4.547100 30.106400
-4.520200 32.328200
-4.493300 33.937800
-4.466400 35.174900
-4.439500 36.246300
-4.412600 36.857000
-4.385700 36.962000
-4.358800 36.512800
-4.331900 34.859300
-4.305000 32.506300
-4.278100 30.682600
-4.251200 29.957500
-4.224300 31.186400
-4.197400 34.012200
-4.170500 35.420200
-4.143600 33.416200
-4.116700 30.238800
-4.089800 28.912700
-4.062900 29.648900
-4.036000 30.976900
-4.009100 31.867100
-3.982200 31.303300
-3.955300 27.843000
-3.928400 21.925400
-3.901500 16.250800
-3.874700 12.485200
-3.847800 9.895900
-3.820900 7.507700
-3.794000 5.477200
-3.767100 4.286500
-3.740200 3.546200
-3.713300 2.520800
-3.686400 1.584400
-3.659500 1.393200
-3.632600 1.591600
-3.605700 1.508100
-3.578800 1.053200
-3.551900 0.546800
-3.525000 0.212500
-3.498100 0.059100
-3.471200 0.010800
-3.444300 0.001200
-3.417400 0.000100
-3.390500 0.000000
-3.363600 0.000000
-3.336700 0.000000
-3.309800 0.000000
-3.282900 0.000000
-3.256000 0.000100
-3.229100 0.001300
-3.202200 0.007000
-3.175300 0.022600
-3.148400 0.045000
-3.121500 0.064800
-3.094600 0.087700
-3.067700 0.122200
-3.040800 0.176700
-3.013900 0.268100
-2.987000 0.347600
-2.960100 0.325000
-2.933200 0.206900
-2.906300 0.092800
-2.879400 0.065200
-2.852500 0.151500
-2.825600 0.325600
-2.798700 0.473300
-2.771800 0.474400
-2.744900 0.379000
-2.718000 0.329700
-2.691200 0.368800
-2.664300 0.485300
-2.637400 0.567200
-2.610500 0.461800
-2.583600 0.281400
-2.556700 0.207600
-2.529800 0.194600
-2.502900 0.188900
-2.476000 0.301800
-2.449100 0.560400
-2.422200 0.729900
-2.395300 0.653300
-2.368400 0.492900
-2.341500 0.404500
-2.314600 0.423000
-2.287700 0.544600
-2.260800 0.636900
-2.233900 0.553200
-2.207000 0.346800
-2.180100 0.228800
-2.153200 0.341900
-2.126300 0.643100
-2.099400 0.907000
-2.072500 0.881600
-2.045600 0.661600
-2.018700 0.592700
-1.991800 0.697500
-1.964900 0.726000
-1.938000 0.634700
-1.911100 0.516700
-1.884200 0.413600
-1.857300 0.399400
-1.830400 0.429900
-1.803500 0.373000
-1.776600 0.334100
-1.749700 0.497300
-1.722800 0.771100
-1.695900 0.941800
-1.669000 1.007800
-1.642100 1.030600
-1.615200 0.979900
-1.588300 0.900700
-1.561400 0.815000
-1.534500 0.686500
-1.507600 0.543500
-1.480800 0.466800
-1.453900 0.525200
-1.427000 0.728700
-1.400100 1.073700
-1.373200 1.375700
-1.346300 1.356700
-1.319400 1.028400
-1.292500 0.622200
-1.265600 0.392500
-1.238700 0.412200
-1.211800 0.482800
-1.184900 0.441900
-1.158000 0.351400
-1.131100 0.312600
-1.104200 0.370400
-1.077300 0.555700
-1.050400 0.787600
-1.023500 0.958100
-0.996600 1.142900
-0.969700 1.305000
-0.942800 1.238700
-0.915900 1.087100
-0.889000 1.040400
-0.862100 0.894100
-0.835200 0.602500
-0.808300 0.491900
-0.781400 0.667600
-0.754500 0.847300
-0.727600 0.924400
-0.700700 1.102400
-0.673800 1.345000
-0.646900 1.438600
-0.620000 1.333200
-0.593100 1.075600
-0.566200 0.744000
-0.539300 0.499500
-0.512400 0.484400
-0.485500 0.642400
-0.458600 0.808400
-0.431700 0.940600
-0.404800 1.033900
-0.377900 0.937300
-0.351000 0.657200
-0.324100 0.490600
-0.297300 0.670500
-0.270400 1.068100
-0.243500 1.275200
-0.216600 1.164100
-0.189700 1.063000
-0.162800 1.061100
-0.135900 1.020600
-0.109000 1.093200
-0.082100 1.376100
-0.055200 1.582700
-0.028300 1.447300
-0.001400 1.212800
0.025500 1.138300
0.052400 1.055000
0.079300 0.956900
0.106200 0.999900
0.133100 1.006400
0.160000 0.903300
0.186900 0.968300
0.213800 1.233100
0.240700 1.473600
0.267600 1.558300
0.294500 1.425100
0.321400 1.187200
0.348300 1.184900
0.375200 1.451300
0.402100 1.500700
0.429000 1.192600
0.455900 0.944600
0.482800 0.865200
0.509700 0.793500
0.536600 0.785000
0.563500 0.926600
0.590400 1.113800
0.617300 1.222600
0.644200 1.301700
0.671100 1.334900
0.698000 1.127900
0.724900 0.700400
0.751800 0.317100
0.778700 0.115600
0.805600 0.071700
0.832500 0.200000
0.859400 0.560700
0.886200 1.048600
0.913100 1.421500
0.940000 1.570100
0.966900 1.491000
0.993800 1.249100
1.020700 0.970200
1.047600 0.772000
1.074500 0.758900
1.101400 0.954900
1.128300 1.164200
1.155200 1.135700
1.182100 0.980600
1.209000 0.898500
1.235900 0.907900
1.262800 0.979200
1.289700 0.991800
1.316600 0.953800
1.343500 1.039700
1.370400 1.289200
1.397300 1.542900
1.424200 1.627400
1.451100 1.550800
1.478000 1.438700
1.504900 1.422000
1.531800 1.514500
1.558700 1.734300
1.585600 2.040900
1.612500 2.129600
1.639400 1.971600
1.666300 1.838800
1.693200 1.751300
1.720100 1.768200
1.747000 1.984300
1.773900 2.180100
1.800800 2.187400
1.827700 1.917100
1.854600 1.382400
1.881500 1.030000
1.908400 1.249000
1.935300 1.727100
1.962200 1.911100
1.989100 1.811800
2.016000 1.744500
2.042900 1.680900
2.069800 1.520600
2.096600 1.425600
2.123500 1.442600
2.150400 1.471200
2.177300 1.559500
2.204200 1.728400
2.231100 1.834100
2.258000 1.702000
2.284900 1.362100
2.311800 1.048900
2.338700 0.956800
2.365600 1.090800
2.392500 1.262500
2.419400 1.361700
2.446300 1.412800
2.473200 1.372900
2.500100 1.337400
2.527000 1.446000
2.553900 1.526500
2.580800 1.464600
2.607700 1.474000
2.634600 1.556500
2.661500 1.388400
2.688400 0.954500
2.715300 0.593900
2.742200 0.494500
2.769100 0.549500
2.796000 0.535800
2.822900 0.404300
2.849800 0.311300
2.876700 0.309300
2.903600 0.327100
2.930500 0.353400
2.957400 0.398700
2.984300 0.376500
3.011200 0.251400
3.038100 0.182900
3.065000 0.324800
3.091900 0.617500
3.118800 0.789100
3.145700 0.650700
3.172600 0.346900
3.199500 0.119300
3.226400 0.026100
3.253300 0.003700
3.280100 0.002000
3.307000 0.012300
3.333900 0.051800
3.360800 0.127100
3.387700 0.187400
3.414600 0.195200
3.441500 0.210600
3.468400 0.259300
3.495300 0.281200
3.522200 0.260800
3.549100 0.211500
3.576000 0.178600
3.602900 0.266700
3.629800 0.470600
3.656700 0.608200
3.683600 0.581600
3.710500 0.543800
3.737400 0.648200
3.764300 0.828700
3.791200 0.926800
3.818100 0.891400
3.845000 0.792100
3.871900 0.686100
3.898800 0.622000
3.925700 0.737300
3.952600 1.098000
3.979500 1.412500
4.006400 1.366200
4.033300 1.047400
4.060200 0.655100
4.087100 0.394300
4.114000 0.534800
4.140900 1.187000
4.167800 2.072300
4.194700 2.647600
4.221600 2.651600
4.248500 2.378200
4.275400 2.189600
4.302300 1.901900
4.329200 1.331900
4.356100 0.826000
4.383000 0.612800
4.409900 0.686300
4.436800 0.983400
4.463600 1.254000
4.490500 1.314600
4.517400 1.311500
4.544300 1.481900
4.571200 1.800700
4.598100 1.951500
4.625000 1.707100
4.651900 1.316500
4.678800 1.229200
4.705700 1.435300
4.732600 1.617000
4.759500 1.749300
4.786400 1.962000
4.813300 2.211400
4.840200 2.317400
4.867100 2.299200
4.894000 2.375100
4.920900 2.577300
4.947800 2.766600
4.974700 2.544300
5.001600 1.718900
5.028500 1.005200
5.055400 1.088500
5.082300 1.675300
5.109200 1.982500
5.136100 1.726500
5.163000 1.324100
5.189900 1.139300
5.216800 1.062800
5.243700 0.935400
5.270600 0.849000
5.297500 0.944500
5.324400 1.137500
5.351300 1.195000
5.378200 1.072100
5.405100 1.037400
5.432000 1.397200
5.458900 2.078300
5.485800 2.596700
5.512700 2.649900
5.539600 2.373900
5.566500 2.014300
5.593400 1.759900
5.620300 1.718500
5.647200 1.864100
5.674000 2.036300
5.700900 2.119600
5.727800 2.114800
5.754700 1.976400
5.781600 1.628800
5.808500 1.344400
5.835400 1.521800
5.862300 2.044800
5.889200 2.534600
5.916100 2.946300
5.943000 3.437800
5.969900 3.732600
5.996800 3.494200
6.023700 3.116200
6.050600 3.073200
6.077500 3.554600
6.104400 4.481500
6.131300 5.087400
6.158200 4.748800
6.185100 3.786800
6.212000 2.839500
6.238900 2.303000
6.265800 2.407100
6.292700 3.137600
6.319600 3.878400
6.346500 3.965500
6.373400 3.512200
6.400300 3.036400
6.427200 2.881100
6.454100 2.965900
6.481000 2.957400
6.507900 2.696100
6.534800 2.317600
6.561700 2.096800
6.588600 1.971800
6.615500 1.765400
6.642400 1.657900
6.669300 1.831600
6.696200 2.197200
6.723100 2.443800
6.750000 2.402300
6.776900 2.337200
6.803800 2.408200
6.830700 2.462400
6.857500 2.470400
6.884400 2.612700
6.911300 3.094900
6.938200 3.673500
6.965100 3.724800
6.992000 3.299200
7.018900 2.900700
7.045800 2.512100
7.072700 2.263700
7.099600 2.470200
7.126500 2.648100
7.153400 2.339800
7.180300 1.954900
7.207200 1.970000
7.234100 2.367300
7.261000 2.648200
7.287900 2.446500
7.314800 2.044300
7.341700 1.715100
7.368600 1.381700
7.395500 1.179700
7.422400 1.365700
7.449300 1.775400
7.476200 2.034700
7.503100 2.104000
7.530000 2.336500
7.556900 2.818900
7.583800 3.015300
7.610700 2.732200
7.637600 2.417900
7.664500 2.280500
7.691400 2.186200
7.718300 2.095700
7.745200 1.972800
7.772100 1.697400
7.799000 1.462800
7.825900 1.617100
7.852800 2.147200
7.879700 2.863800
7.906600 3.594100
7.933500 4.061800
7.960400 4.267300
7.987300 4.482900
8.014200 4.548900
8.041100 4.166500
8.067900 3.507100
8.094800 2.975400
8.121700 2.859200
8.148600 2.958900
8.175500 2.838600
8.202400 2.446500
8.229300 1.925900
8.256200 1.384300
8.283100 0.944600
8.310000 0.748600
8.336900 0.877800
8.363800 1.248100
8.390700 1.731000
8.417600 2.135600
8.444500 2.074600
8.471400 1.588300
8.498300 1.396400
8.525200 1.955000
8.552100 2.916200
8.579000 3.660400
8.605900 4.022100
8.632800 4.464800
8.659700 5.538500
8.686600 6.874900
8.713500 7.376600
8.740400 6.879400
8.767300 6.145100
8.794200 5.565700
8.821100 5.390900
8.848000 5.761600
8.874900 6.027600
8.901800 5.454700
8.928700 4.591700
8.955600 4.411000
8.982500 4.899400
9.009400 5.426500
9.036300 5.246600
9.063200 4.269600
9.090100 3.466700
9.117000 3.521500
9.143900 4.002200
9.170800 4.202700
9.197700 3.983000
9.224600 3.498600
9.251400 2.832500
9.278300 2.219300
9.305200 1.891000
9.332100 1.880800
9.359000 2.168200
9.385900 2.552600
9.412800 2.820100
9.439700 3.043300
9.466600 3.258200
9.493500 3.398900
9.520400 3.529200
9.547300 3.638000
9.574200 3.612300
9.601100 3.740700
9.628000 4.341800
9.654900 4.922700
9.681800 4.886500
9.708700 4.267100
9.735600 3.325800
9.762500 2.350900
9.789400 1.643200
9.816300 1.364800
9.843200 1.574400
9.870100 2.260900
9.897000 3.227300
9.923900 3.985600
9.950800 3.941600
9.977700 3.218100
10.004600 2.744300
10.031500 2.955800
10.058400 3.257600
10.085300 2.962100
10.112200 2.218800
10.139100 1.772100
10.166000 1.919900
10.192900 2.301700
10.219800 2.675800
10.246700 2.833600
10.273600 2.406100
10.300500 1.713900
10.327400 1.354000
10.354300 1.337700
10.381200 1.590800
10.408100 2.132700
10.434900 2.597700
10.461800 2.532700
10.488700 2.010100
10.515600 1.453800
10.542500 1.152300
10.569400 1.143100
10.596300 1.419900
10.623200 2.083400
10.650100 2.919900
10.677000 3.195700
10.703900 2.571500
10.730800 1.653600
10.757700 1.148300
10.784600 1.201700
10.811500 1.588300
10.838400 1.962000
10.865300 2.229600
10.892200 2.518000
10.919100 2.573200
10.946000 2.266900
10.972900 1.976600
10.999800 1.768700
11.026700 1.577100
11.053600 1.671900
11.080500 2.193200
11.107400 2.833600
11.134300 3.191200
11.161200 3.185300
11.188100 2.916300
11.215000 2.427000
11.241900 1.799700
11.268800 1.326600
11.295700 1.320700
11.322600 1.758900
11.349500 2.181800
11.376400 2.210300
11.403300 2.085900
11.430200 2.256900
11.457100 2.674900
11.484000 2.884000
11.510900 2.719100
11.537800 2.362000
11.564700 1.965200
11.591600 1.700200
11.618500 1.762300
11.645300 2.195500
11.672200 2.858600
11.699100 3.477400
11.726000 3.593700
11.752900 3.044600
11.779800 2.369900
11.806700 2.023000
11.833600 1.833800
11.860500 1.625800
11.887400 1.555800
11.914300 1.693000
11.941200 1.941600
11.968100 2.104200
11.995000 2.036700
12.021900 1.999000
12.048800 2.347600
12.075700 2.945900
12.102600 3.270500
12.129500 3.236200
12.156400 3.243200
12.183300 3.259500
12.210200 2.884700
12.237100 2.241500
12.264000 1.810900
12.290900 1.768000
12.317800 1.950300
12.344700 2.028900
12.371600 1.917700
12.398500 1.808000
12.425400 1.753700
12.452300 1.803700
12.479200 2.023300
12.506100 2.220700
12.533000 2.202900
12.559900 1.993700
12.586800 1.792700
12.613700 1.901000
12.640600 2.259300
12.667500 2.578600
12.694400 2.797200
12.721300 2.836800
12.748200 2.616100
12.775100 2.456500
12.802000 2.609300
12.828800 2.705000
12.855700 2.389500
12.882600 1.939700
12.909500 1.762900
12.936400 1.823100
12.963300 1.889800
12.990200 1.881400
13.017100 1.866900
13.044000 1.990200
13.070900 2.152600
13.097800 2.114200
13.124700 2.089800
13.151600 2.341100
13.178500 2.518000
13.205400 2.424500
13.232300 2.465700
13.259200 2.756100
13.286100 2.871200
13.313000 2.742700
13.339900 2.906800
13.366800 3.648500
13.393700 4.440800
13.420600 4.451500
13.447500 3.611700
13.474400 2.879600
13.501300 2.971300
13.528200 3.309300
13.555100 3.133000
13.582000 2.721800
13.608900 2.616200
13.635800 2.899900
13.662700 3.463100
13.689600 3.910600
13.716500 3.762500
13.743400 3.188800
13.770300 2.767200
13.797200 2.701800
13.824100 2.688200
13.851000 2.570800
13.877900 2.520700
13.904800 2.621600
13.931700 2.946000
13.958600 3.493600
13.985500 3.722200
14.012300 3.159400
14.039200 2.310300
14.066100 1.949200
14.093000 2.106500
14.119900 2.356200
14.146800 2.475300
14.173700 2.439200
14.200600 2.273600
14.227500 2.007700
14.254400 1.788700
14.281300 1.868200
14.308200 2.098000
14.335100 2.042400
14.362000 1.800200
14.388900 1.858500
14.415800 2.287100
14.442700 2.832100
14.469600 3.226500
14.496500 3.156500
14.523400 2.595400
14.550300 2.016200
14.577200 1.881000
14.604100 2.134700
14.631000 2.555700
14.657900 3.092100
14.684800 3.481400
14.711700 3.408000
14.738600 2.962200
14.765500 2.428700
14.792400 2.065200
14.819300 2.026400
14.846200 2.304700
14.873100 2.809200
14.900000 3.332200
14.926900 3.652200
14.953800 3.684400
14.980700 3.550500
15.007600 3.391900
15.034500 2.991400
15.061400 2.327500
15.088300 1.969300
15.115200 2.077500
15.142100 2.249400
15.169000 2.497900
15.195900 2.946200
15.222700 3.199500
15.249600 3.094600
15.276500 2.972000
15.303400 3.030100
15.330300 3.037800
15.357200 2.640700
15.384100 2.014200
15.411000 1.487900
15.437900 1.089100
15.464800 0.967000
15.491700 1.220400
15.518600 1.632700
15.545500 2.027400
15.572400 2.260200
15.599300 2.204500
15.626200 2.113700
15.653100 2.153800
15.680000 2.053200
15.706900 1.688800
15.733800 1.361300
15.760700 1.325900
15.787600 1.560800
15.814500 2.020600
15.841400 2.473800
15.868300 2.512100
15.895200 2.208200
15.922100 2.003400
15.949000 1.903300
15.975900 1.614800
16.002800 1.333000
16.029700 1.506700
16.056600 2.036300
16.083500 2.378800
16.110400 2.324400
16.137300 2.227200
16.164200 2.335500
16.191100 2.356800
16.218000 2.114900
16.244900 1.909500
16.271800 1.947200
16.298700 2.143100
16.325600 2.316300
16.352500 2.330600
16.379400 2.207300
16.406200 2.095800
16.433100 2.072000
16.460000 2.107700
16.486900 2.150200
16.513800 2.070500
16.540700 1.787000
16.567600 1.466200
16.594500 1.316000
16.621400 1.377100
16.648300 1.773100
16.675200 2.655800
16.702100 3.538800
16.729000 3.668500
16.755900 3.171700
16.782800 2.709400
16.809700 2.394600
16.836600 2.036000
16.863500 1.778200
16.890400 1.787100
16.917300 1.828500
16.944200 1.721400
16.971100 1.738200
16.998000 2.004200
17.024900 2.189600
17.051800 2.075200
17.078700 1.872400
17.105600 1.836200
17.132500 1.971500
17.159400 2.284900
17.186300 2.674700
17.213200 2.715600
17.240100 2.231400
17.267000 1.601900
17.293900 1.250600
17.320800 1.182900
17.347700 1.172500
17.374600 1.257200
17.401500 1.645000
17.428400 2.541600
17.455300 5.197600
17.482200 12.003300
17.509100 20.584600
17.536000 22.139700
17.562900 14.815600
17.589800 6.765400
17.616600 2.913400
17.643500 2.072600
17.670400 2.163100
17.697300 2.315500
17.724200 2.373500
17.751100 2.138600
17.778000 1.711400
17.804900 1.575100
17.831800 1.727800
17.858700 1.749400
17.885600 1.602500
17.912500 1.499100
17.939400 1.503000
17.966300 1.713800
17.993200 2.179800
18.020100 2.601900
18.047000 2.681800
18.073900 2.533800
18.100800 2.345300
18.127700 2.171600
18.154600 2.113800
18.181500 2.161100
18.208400 2.328700
18.235300 2.761400
18.262200 3.266600
18.289100 3.476800
18.316000 3.548700
18.342900 3.873200
18.369800 4.297600
18.396700 4.326900
18.423600 3.781300
18.450500 3.010800
18.477400 2.573900
18.504300 2.724900
18.531200 3.394400
18.558100 4.408800
18.585000 5.411100
18.611900 5.844300
18.638800 5.563400
18.665700 5.134200
18.692600 4.886800
18.719500 4.492200
18.746400 3.893500
18.773300 3.462200
18.800100 3.323200
18.827000 3.364800
18.853900 3.461600
18.880800 3.567100
18.907700 3.801200
18.934600 4.104300
18.961500 4.294600
18.988400 4.480300
19.015300 4.716400
19.042200 4.780700
19.069100 4.413900
19.096000 3.559700
19.122900 2.691300
19.149800 2.306200
19.176700 2.322300
19.203600 2.423200
19.230500 2.448700
19.257400 2.545000
19.284300 2.881900
19.311200 3.386800
19.338100 3.918200
19.365000 4.175200
19.391900 3.930400
19.418800 3.437200
19.445700 3.000700
19.472600 2.784500
19.499500 2.897500
19.526400 3.228100
19.553300 3.564700
19.580200 3.778100
19.607100 3.791100
19.634000 3.579500
19.660900 3.209900
19.687800 2.756100
19.714700 2.326700
19.741600 2.154800
19.768500 2.373300
19.795400 2.717300
19.822300 2.835800
19.849200 2.948400
19.876100 3.331900
19.903000 3.553500
19.929900 3.368900
19.956800 3.199800
19.983600 3.191000
20.010500 3.093500
20.037400 2.813600
20.064300 2.531300
20.091200 2.588800
20.118100 3.108000
20.145000 3.704900
20.171900 3.839500
20.198800 3.397100
20.225700 2.660400
20.252600 2.076600
20.279500 2.030200
20.306400 2.555300
20.333300 3.351100
20.360200 3.894300
20.387100 3.908600
20.414000 3.670200
20.440900 3.588500
20.467800 3.746100
20.494700 3.728100
20.521600 3.275200
20.548500 2.889700
20.575400 2.904600
20.602300 2.928800
20.629200 2.694000
20.656100 2.403800
20.683000 2.259400
20.709900 2.252500
20.736800 2.379200
20.763700 2.645800
20.790600 2.952200
20.817500 3.255900
20.844400 3.585100
20.871300 3.767000
20.898200 3.682100
20.925100 3.640200
20.952000 3.896000
20.978900 4.265400
21.005800 4.387400
21.032700 4.127800
21.059600 3.700300
21.086500 3.432400
21.113400 3.548800
21.140300 3.819400
21.167200 3.865400
21.194000 3.692900
21.220900 3.466900
21.247800 3.302000
21.274700 3.228800
21.301600 3.237700
21.328500 3.246000
21.355400 3.138000
21.382300 2.963900
21.409200 2.949600
21.436100 3.149500
21.463000 3.381900
21.489900 3.560600
21.516800 3.529100
21.543700 3.155000
21.570600 2.672400
21.597500 2.301000
21.624400 2.139700
21.651300 2.208200
21.678200 2.330300
21.705100 2.588800
21.732000 3.353300
21.758900 4.424700
21.785800 4.900000
21.812700 4.348600
21.839600 3.233500
21.866500 2.167000
21.893400 1.655700
21.920300 2.025200
21.947200 2.880800
21.974100 3.354800
22.001000 3.292300
22.027900 3.268000
22.054800 3.472300
22.081700 3.522400
22.108600 3.206300
22.135500 2.860800
22.162400 2.968300
22.189300 3.538500
22.216200 3.879300
22.243100 3.561500
22.270000 3.260400
22.296900 3.517100
22.323800 3.771000
22.350700 3.603100
22.377500 3.390000
22.404400 3.363600
22.431300 3.441700
22.458200 3.621800
22.485100 3.774000
22.512000 3.571200
22.538900 2.962600
22.565800 2.393900
22.592700 2.200100
22.619600 2.192000
22.646500 2.154500
22.673400 2.199900
22.700300 2.380400
22.727200 2.524700
22.754100 2.598200
22.781000 2.694300
22.807900 2.661500
22.834800 2.341400
22.861700 2.057900
22.888600 2.101200
22.915500 2.165800
22.942400 1.956600
22.969300 1.695900
22.996200 1.744400
23.023100 2.218700
23.050000 2.820500
23.076900 3.047000
23.103800 2.807700
23.130700 2.482200
23.157600 2.282300
23.184500 2.094800
23.211400 1.881000
23.238300 1.741700
23.265200 1.812100
23.292100 2.156000
23.319000 2.543000
23.345900 2.503600
23.372800 2.005900
23.399700 1.665900
23.426600 1.916800
23.453500 2.539000
23.480400 2.960600
23.507300 2.832800
23.534200 2.379200
23.561000 1.977800
23.587900 1.728300
23.614800 1.608800
23.641700 1.565000
23.668600 1.514100
23.695500 1.439500
23.722400 1.282800
23.749300 1.003900
23.776200 0.741100
23.803100 0.662100
23.830000 0.747600
23.856900 0.782000
23.883800 0.645300
23.910700 0.490400
23.937600 0.431400
23.964500 0.354900
23.991400 0.231200
24.018300 0.178300
24.045200 0.185400
24.072100 0.147900
24.099000 0.071100
24.125900 0.019800
24.152800 0.003200
24.179700 0.000900
24.206600 0.006000
24.233500 0.031500
24.260400 0.095000
24.287300 0.165100
24.314200 0.169500
24.341100 0.122300
24.368000 0.119000
24.394900 0.166100
24.421800 0.169000
24.448700 0.102000
24.475600 0.035500
24.502500 0.007100
24.529400 0.000800
24.556300 0.000100
24.583200 0.000000
24.610100 0.000000
24.637000 0.000000
24.663900 0.000000
24.690800 0.000000
24.717700 0.000000
24.744600 0.000000
24.771400 0.000000
24.798300 0.000000
24.825200 0.000000
24.852100 0.000000
24.879000 0.000000
24.905900 0.000000
24.932800 0.000000
24.959700 0.000000
24.986600 0.000000
25.013500 0.000000
25.040400 0.000000
25.067300 0.000000
25.094200 0.000000
25.121100 0.000000
25.148000 0.000000
25.174900 0.000000
25.201800 0.000000
25.228700 0.000000
25.255600 0.000000
25.282500 0.000000
25.309400 0.000000
25.336300 0.000000
25.363200 0.000000
25.390100 0.000000
25.417000 0.000000
25.443900 0.000000
25.470800 0.000000
25.497700 0.000000
25.524600 0.000000
25.551500 0.000000
25.578400 0.000000
25.605300 0.000000
25.632200 0.000000
25.659100 0.000000
25.686000 0.000000
25.712900 0.000000
25.739800 0.000000
25.766700 0.000000
25.793600 0.000000
25.820500 0.000000
25.847400 0.000000
25.874300 0.000000
25.901200 0.000000
25.928100 0.000000
25.954900 0.000000
25.981800 0.000000
26.008700 0.000000
26.035600 0.000000
26.062500 0.000000
26.089400 0.000000
26.116300 0.000000
26.143200 0.000000
26.170100 0.000000
26.197000 0.000000
26.223900 0.000000
26.250800 0.000000
26.277700 0.000000
26.304600 0.000000
26.331500 0.000000
26.358400 0.000000
26.385300 0.000000
26.412200 0.000000
26.439100 0.000000
26.466000 0.000000
26.492900 0.000000
26.519800 0.000000
26.546700 0.000000
26.573600 0.000000
26.600500 0.000000
26.627400 0.000000
26.654300 0.000000
26.681200 0.000000
26.708100 0.000000
26.735000 0.000000
26.761900 0.000000
26.788800 0.000000
26.815700 0.000000
26.842600 0.000000
e
