set title 'mp-1063764 - Density of States'
set xlabel 'Energy (eV)'
set ylabel 'DOS (states/eV)'
set grid
set xrange [-10:10]
set yrange [0:10.071]
set xzeroaxis lt -1
set terminal png size 800,600
set output 'mp-1063764_dos_gnuplot.png'
plot '-' using 1:2 with lines title 'DOS'
-14.928600 0.000000
-14.916800 0.000000
-14.905000 0.000000
-14.893100 0.000000
-14.881300 0.000000
-14.869500 0.000000
-14.857700 0.000000
-14.845900 0.000000
-14.834100 0.000000
-14.822200 0.000000
-14.810400 0.000000
-14.798600 0.000000
-14.786800 0.000000
-14.775000 0.000000
-14.763100 0.000000
-14.751300 0.000000
-14.739500 0.000000
-14.727700 0.000000
-14.715900 0.000000
-14.704000 0.000000
-14.692200 0.000000
-14.680400 0.000000
-14.668600 0.000000
-14.656800 0.000000
-14.644900 0.000000
-14.633100 0.000000
-14.621300 0.000000
-14.609500 0.000000
-14.597700 0.000000
-14.585800 0.000000
-14.574000 0.000000
-14.562200 0.000000
-14.550400 0.000000
-14.538600 0.000000
-14.526700 0.000000
-14.514900 0.000000
-14.503100 0.000000
-14.491300 0.000000
-14.479500 0.000000
-14.467600 0.000000
-14.455800 0.000000
-14.444000 0.000000
-14.432200 0.000000
-14.420400 0.000000
-14.408500 0.000000
-14.396700 0.000000
-14.384900 0.000000
-14.373100 0.000000
-14.361300 0.000000
-14.349400 0.000000
-14.337600 0.000000
-14.325800 0.000000
-14.314000 0.000000
-14.302200 0.000000
-14.290300 0.000000
-14.278500 0.000000
-14.266700 0.000000
-14.254900 0.000000
-14.243100 0.000000
-14.231200 0.000000
-14.219400 0.000000
-14.207600 0.000000
-14.195800 0.000000
-14.184000 0.000000
-14.172100 0.000000
-14.160300 0.000000
-14.148500 0.000000
-14.136700 0.000000
-14.124900 0.000000
-14.113000 0.000000
-14.101200 0.000000
-14.089400 0.000000
-14.077600 0.000000
-14.065800 0.000000
-14.053900 0.000000
-14.042100 0.000000
-14.030300 0.000000
-14.018500 0.000000
-14.006700 0.000000
-13.994800 0.000000
-13.983000 0.000000
-13.971200 0.000000
-13.959400 0.000000
-13.947600 0.000000
-13.935700 0.000000
-13.923900 0.000000
-13.912100 0.000000
-13.900300 0.000000
-13.888500 0.000000
-13.876600 0.000000
-13.864800 0.000000
-13.853000 0.047500
-13.841200 0.570300
-13.829400 1.093100
-13.817500 1.135700
-13.805700 0.964800
-13.793900 0.862600
-13.782100 0.922300
-13.770300 0.982000
-13.758400 1.041700
-13.746600 1.101400
-13.734800 1.086600
-13.723000 1.006900
-13.711200 0.948900
-13.699300 0.962100
-13.687500 0.975400
-13.675700 0.988700
-13.663900 1.001900
-13.652100 1.015200
-13.640200 1.028500
-13.628400 1.044200
-13.616600 1.068500
-13.604800 1.092900
-13.593000 1.067200
-13.581100 1.031800
-13.569300 1.019000
-13.557500 1.021800
-13.545700 1.024600
-13.533900 1.027400
-13.522000 1.030200
-13.510200 1.033000
-13.498400 1.036100
-13.486600 1.051700
-13.474800 1.063500
-13.462900 1.075300
-13.451100 1.087100
-13.439300 1.098900
-13.427500 1.110700
-13.415700 1.122500
-13.403800 1.102700
-13.392000 1.082500
-13.380200 1.080300
-13.368400 1.080900
-13.356600 1.084900
-13.344700 1.089800
-13.332900 1.094800
-13.321100 1.099700
-13.309300 1.106500
-13.297500 1.113600
-13.285600 1.120800
-13.273800 1.128000
-13.262000 1.135100
-13.250200 1.142300
-13.238400 1.149500
-13.226500 1.156600
-13.214700 1.163800
-13.202900 1.171000
-13.191100 1.187300
-13.179300 1.187200
-13.167400 1.181800
-13.155600 1.184300
-13.143800 1.189300
-13.132000 1.194300
-13.120200 1.199300
-13.108300 1.204400
-13.096500 1.209800
-13.084700 1.216000
-13.072900 1.222200
-13.061100 1.228500
-13.049200 1.234700
-13.037400 1.241100
-13.025600 1.250400
-13.013800 1.262500
-13.002000 1.274600
-12.990100 1.286900
-12.978300 1.298000
-12.966500 1.307700
-12.954700 1.317300
-12.942900 1.326900
-12.931000 1.337300
-12.919200 1.351400
-12.907400 1.363800
-12.895600 1.374800
-12.883800 1.385700
-12.871900 1.396700
-12.860100 1.407700
-12.848300 1.418600
-12.836500 1.445900
-12.824700 1.783700
-12.812800 2.546000
-12.801000 2.896200
-12.789200 2.674700
-12.777400 2.595500
-12.765600 2.702200
-12.753700 2.808400
-12.741900 2.913500
-12.730100 2.908900
-12.718300 2.822400
-12.706500 2.832000
-12.694600 2.872700
-12.682800 4.923800
-12.671000 5.073800
-12.659200 3.412800
-12.647400 3.406800
-12.635500 3.415400
-12.623700 3.302400
-12.611900 3.039300
-12.600100 3.022700
-12.588300 3.012600
-12.576400 3.002500
-12.564600 2.992400
-12.552800 2.957700
-12.541000 2.896800
-12.529200 2.902100
-12.517300 2.909000
-12.505500 2.954500
-12.493700 3.021400
-12.481900 3.085600
-12.470100 3.124700
-12.458200 3.142100
-12.446400 6.473700
-12.434600 5.160900
-12.422800 5.439000
-12.411000 5.715300
-12.399100 5.695200
-12.387300 6.512000
-12.375500 7.820200
-12.363700 8.686400
-12.351900 7.476400
-12.340000 6.661600
-12.328200 6.151900
-12.316400 5.511300
-12.304600 5.330600
-12.292800 5.234200
-12.280900 5.267700
-12.269100 5.331800
-12.257300 5.174600
-12.245500 4.993100
-12.233700 5.275000
-12.221800 5.602900
-12.210000 5.534500
-12.198200 7.413600
-12.186400 11.484900
-12.174600 4.198900
-12.162700 0.000000
-12.150900 0.000000
-12.139100 0.000000
-12.127300 0.000000
-12.115500 0.000000
-12.103600 0.000000
-12.091800 0.000000
-12.080000 0.000000
-12.068200 0.000000
-12.056400 0.000000
-12.044600 0.000000
-12.032700 0.000000
-12.020900 0.000000
-12.009100 0.000000
-11.997300 0.000000
-11.985500 0.000000
-11.973600 0.000000
-11.961800 0.000000
-11.950000 0.000000
-11.938200 0.000000
-11.926400 0.000000
-11.914500 0.000000
-11.902700 0.000000
-11.890900 0.000000
-11.879100 0.000000
-11.867300 0.000000
-11.855400 0.000000
-11.843600 0.000000
-11.831800 0.000000
-11.820000 0.000000
-11.808200 0.000000
-11.796300 0.000000
-11.784500 0.000000
-11.772700 0.000000
-11.760900 0.000000
-11.749100 0.000000
-11.737200 0.000000
-11.725400 0.000000
-11.713600 0.000000
-11.701800 0.000000
-11.690000 0.000000
-11.678100 0.000000
-11.666300 0.000000
-11.654500 0.000000
-11.642700 0.000000
-11.630900 0.000000
-11.619000 0.000000
-11.607200 0.000000
-11.595400 0.000000
-11.583600 0.000000
-11.571800 0.000000
-11.559900 0.000000
-11.548100 0.000000
-11.536300 0.000000
-11.524500 0.000000
-11.512700 0.000000
-11.500800 0.000000
-11.489000 0.000000
-11.477200 0.000000
-11.465400 0.000000
-11.453600 0.000000
-11.441700 0.000000
-11.429900 0.000000
-11.418100 0.000000
-11.406300 0.000000
-11.394500 0.000000
-11.382600 0.000000
-11.370800 0.000000
-11.359000 0.000000
-11.347200 0.000000
-11.335400 0.000000
-11.323500 0.000000
-11.311700 0.000000
-11.299900 0.000000
-11.288100 0.000000
-11.276300 0.000000
-11.264400 0.000000
-11.252600 0.000000
-11.240800 0.000000
-11.229000 0.000000
-11.217200 0.000000
-11.205300 0.000000
-11.193500 0.000000
-11.181700 0.000000
-11.169900 0.000000
-11.158100 0.000000
-11.146200 0.000000
-11.134400 0.000000
-11.122600 0.000000
-11.110800 0.000000
-11.099000 0.000000
-11.087100 0.000000
-11.075300 0.000000
-11.063500 0.000000
-11.051700 0.000000
-11.039900 0.000000
-11.028000 0.000000
-11.016200 0.000000
-11.004400 0.000000
-10.992600 0.000000
-10.980800 0.000000
-10.968900 0.000000
-10.957100 0.000000
-10.945300 0.000000
-10.933500 0.000000
-10.921700 0.000000
-10.909800 0.000000
-10.898000 0.000000
-10.886200 0.000000
-10.874400 0.000000
-10.862600 0.000000
-10.850700 0.000000
-10.838900 0.000000
-10.827100 0.000000
-10.815300 0.000000
-10.803500 0.000000
-10.791600 0.000000
-10.779800 0.000000
-10.768000 0.000000
-10.756200 0.000000
-10.744400 0.000000
-10.732500 0.000000
-10.720700 0.000000
-10.708900 0.000000
-10.697100 0.000000
-10.685300 0.000000
-10.673400 0.000000
-10.661600 0.000000
-10.649800 0.000000
-10.638000 0.000000
-10.626200 0.000000
-10.614300 0.000000
-10.602500 0.000000
-10.590700 0.000000
-10.578900 0.000000
-10.567100 0.000000
-10.555200 0.000000
-10.543400 0.000000
-10.531600 0.000000
-10.519800 0.930200
-10.508000 2.592500
-10.496100 3.071700
-10.484300 4.195300
-10.472500 3.503200
-10.460700 2.667500
-10.448900 2.736700
-10.437000 2.757400
-10.425200 2.778100
-10.413400 2.798800
-10.401600 2.651300
-10.389800 2.750400
-10.377900 2.827700
-10.366100 2.688000
-10.354300 2.786700
-10.342500 2.975800
-10.330700 2.963300
-10.318800 2.933000
-10.307000 2.921800
-10.295200 3.047200
-10.283400 3.311100
-10.271600 3.575100
-10.259700 4.477900
-10.247900 6.133800
-10.236100 5.686900
-10.224300 5.094500
-10.212500 4.765800
-10.200600 4.347500
-10.188800 4.002800
-10.177000 3.751200
-10.165200 3.638500
-10.153400 3.583000
-10.141500 3.512200
-10.129700 3.437000
-10.117900 3.307800
-10.106100 3.258400
-10.094300 3.198300
-10.082400 3.159400
-10.070600 3.137900
-10.058800 3.116300
-10.047000 3.094700
-10.035200 3.092800
-10.023300 3.106800
-10.011500 3.096800
-9.999700 3.101800
-9.987900 3.121700
-9.976100 3.140300
-9.964200 3.159000
-9.952400 3.177600
-9.940600 3.196300
-9.928800 3.185200
-9.917000 3.135000
-9.905100 3.206800
-9.893300 3.408500
-9.881500 3.498500
-9.869700 3.569800
-9.857900 3.643300
-9.846000 3.722000
-9.834200 3.795200
-9.822400 5.591500
-9.810600 4.445100
-9.798800 4.569600
-9.786900 4.678100
-9.775100 3.523900
-9.763300 2.487500
-9.751500 2.405600
-9.739700 2.323800
-9.727800 2.242500
-9.716000 2.169500
-9.704200 2.097500
-9.692400 2.036200
-9.680600 2.015600
-9.668700 1.995000
-9.656900 1.978500
-9.645100 1.962800
-9.633300 1.947100
-9.621500 1.779600
-9.609600 1.770700
-9.597800 1.731500
-9.586000 1.740500
-9.574200 1.746300
-9.562400 1.742400
-9.550500 1.705900
-9.538700 1.667500
-9.526900 1.629100
-9.515100 1.590700
-9.503300 1.552300
-9.491400 1.513900
-9.479600 1.475500
-9.467800 1.437100
-9.456000 1.398800
-9.444200 1.374300
-9.432300 1.349800
-9.420500 1.360300
-9.408700 1.388400
-9.396900 1.416600
-9.385100 1.444700
-9.373200 1.472900
-9.361400 1.392900
-9.349600 1.282500
-9.337800 1.172200
-9.326000 1.005600
-9.314100 0.899600
-9.302300 0.810500
-9.290500 0.807900
-9.278700 0.805400
-9.266900 0.802800
-9.255100 0.800200
-9.243200 0.797700
-9.231400 0.792000
-9.219600 0.785100
-9.207800 0.778600
-9.196000 0.772000
-9.184100 0.765800
-9.172300 0.763300
-9.160500 0.751500
-9.148700 0.739100
-9.136900 0.726600
-9.125000 0.714100
-9.113200 0.701600
-9.101400 0.691500
-9.089600 0.686100
-9.077800 0.681000
-9.065900 0.675900
-9.054100 0.670900
-9.042300 0.665900
-9.030500 0.660800
-9.018700 0.655800
-9.006800 0.650700
-8.995000 0.645700
-8.983200 0.640600
-8.971400 0.635600
-8.959600 0.630500
-8.947700 0.625500
-8.935900 0.589700
-8.924100 0.588500
-8.912300 0.588100
-8.900500 0.587800
-8.888600 0.587400
-8.876800 0.587000
-8.865000 0.586700
-8.853200 0.586300
-8.841400 0.586100
-8.829500 0.589400
-8.817700 0.596100
-8.805900 0.601200
-8.794100 0.591100
-8.782300 0.581000
-8.770400 0.570900
-8.758600 0.560800
-8.746800 0.550700
-8.735000 0.540600
-8.723200 0.530500
-8.711300 0.520400
-8.699500 0.514900
-8.687700 0.511200
-8.675900 0.507800
-8.664100 0.504400
-8.652200 0.501000
-8.640400 0.497600
-8.628600 0.494100
-8.616800 0.490700
-8.605000 0.487300
-8.593100 0.483900
-8.581300 0.480400
-8.569500 0.477000
-8.557700 0.452300
-8.545900 0.466500
-8.534000 0.484200
-8.522200 0.501800
-8.510400 0.519500
-8.498600 0.514000
-8.486800 0.500500
-8.474900 0.486900
-8.463100 0.473400
-8.451300 0.459800
-8.439500 0.446300
-8.427700 0.432700
-8.415800 0.419200
-8.404000 0.405600
-8.392200 0.392100
-8.380400 0.378500
-8.368600 0.382300
-8.356700 0.413700
-8.344900 0.445100
-8.333100 0.476600
-8.321300 0.508000
-8.309500 0.539400
-8.297600 0.439600
-8.285800 0.350100
-8.274000 0.260500
-8.262200 0.170900
-8.250400 0.081400
-8.238500 0.000000
-8.226700 0.000000
-8.214900 0.000000
-8.203100 0.000000
-8.191300 0.000000
-8.179400 0.000000
-8.167600 0.000000
-8.155800 0.000000
-8.144000 0.000000
-8.132200 0.000000
-8.120300 0.000000
-8.108500 0.000000
-8.096700 0.000000
-8.084900 0.000000
-8.073100 0.000000
-8.061200 0.000000
-8.049400 0.000000
-8.037600 0.000000
-8.025800 0.000000
-8.014000 0.000000
-8.002100 0.000000
-7.990300 0.000000
-7.978500 0.000000
-7.966700 0.000000
-7.954900 0.000000
-7.943000 0.000000
-7.931200 0.000000
-7.919400 0.000000
-7.907600 0.000000
-7.895800 0.000000
-7.883900 0.000000
-7.872100 0.000000
-7.860300 0.000000
-7.848500 0.000000
-7.836700 0.000000
-7.824800 0.000000
-7.813000 0.000000
-7.801200 0.000000
-7.789400 0.000000
-7.777600 0.000000
-7.765700 0.000000
-7.753900 0.000000
-7.742100 0.000000
-7.730300 0.000000
-7.718500 0.000000
-7.706600 0.000000
-7.694800 0.000000
-7.683000 0.000000
-7.671200 0.000000
-7.659400 0.000000
-7.647500 0.000000
-7.635700 0.000000
-7.623900 0.000000
-7.612100 0.000000
-7.600300 0.000000
-7.588400 0.000000
-7.576600 0.000000
-7.564800 0.000000
-7.553000 0.000000
-7.541200 0.000000
-7.529300 0.000000
-7.517500 0.000000
-7.505700 0.000000
-7.493900 0.000000
-7.482100 0.000000
-7.470200 0.000000
-7.458400 0.000000
-7.446600 0.000000
-7.434800 0.000000
-7.423000 0.000000
-7.411100 0.000000
-7.399300 0.000000
-7.387500 0.000000
-7.375700 0.000000
-7.363900 0.000000
-7.352000 0.000000
-7.340200 0.000000
-7.328400 0.000000
-7.316600 0.000000
-7.304800 0.000000
-7.292900 0.000000
-7.281100 0.000000
-7.269300 0.000000
-7.257500 0.000000
-7.245700 0.000000
-7.233800 0.000000
-7.222000 0.000000
-7.210200 0.000000
-7.198400 0.000000
-7.186600 0.000000
-7.174700 0.000000
-7.162900 0.000000
-7.151100 0.000000
-7.139300 0.000000
-7.127500 0.000000
-7.115600 0.000000
-7.103800 0.000000
-7.092000 0.000000
-7.080200 0.000000
-7.068400 0.000000
-7.056500 0.000000
-7.044700 0.000000
-7.032900 0.000000
-7.021100 0.000000
-7.009300 0.000000
-6.997400 0.000000
-6.985600 0.000000
-6.973800 0.000000
-6.962000 0.000000
-6.950200 0.000000
-6.938300 0.000000
-6.926500 0.000000
-6.914700 0.000000
-6.902900 0.000000
-6.891100 0.000000
-6.879200 0.000000
-6.867400 0.000000
-6.855600 0.000000
-6.843800 0.000000
-6.832000 0.000000
-6.820100 0.000000
-6.808300 0.000000
-6.796500 0.000000
-6.784700 0.000000
-6.772900 0.000000
-6.761000 0.000000
-6.749200 0.000000
-6.737400 0.000000
-6.725600 0.000000
-6.713800 0.000000
-6.701900 0.000000
-6.690100 0.000000
-6.678300 0.000000
-6.666500 0.000000
-6.654700 0.000000
-6.642800 0.000000
-6.631000 0.000000
-6.619200 0.000000
-6.607400 0.000000
-6.595600 0.000000
-6.583700 0.000000
-6.571900 0.000000
-6.560100 0.000000
-6.548300 0.000000
-6.536500 0.000000
-6.524600 0.000000
-6.512800 0.000000
-6.501000 0.000000
-6.489200 0.000000
-6.477400 0.000000
-6.465600 0.000000
-6.453700 0.000000
-6.441900 0.000000
-6.430100 0.000000
-6.418300 0.000000
-6.406500 0.000000
-6.394600 0.000000
-6.382800 0.000000
-6.371000 0.000000
-6.359200 0.000000
-6.347400 0.000000
-6.335500 0.000000
-6.323700 0.000000
-6.311900 0.000000
-6.300100 0.000000
-6.288300 0.000000
-6.276400 0.000000
-6.264600 0.000000
-6.252800 0.000000
-6.241000 0.000000
-6.229200 0.000000
-6.217300 0.000000
-6.205500 0.000000
-6.193700 0.000000
-6.181900 0.000000
-6.170100 0.000000
-6.158200 0.000000
-6.146400 0.000000
-6.134600 0.000000
-6.122800 0.000000
-6.111000 0.000000
-6.099100 0.000000
-6.087300 0.000000
-6.075500 0.000000
-6.063700 0.000000
-6.051900 0.000000
-6.040000 0.000000
-6.028200 0.000000
-6.016400 0.000000
-6.004600 0.000000
-5.992800 0.000000
-5.980900 0.000000
-5.969100 0.000000
-5.957300 0.000000
-5.945500 0.000000
-5.933700 0.000000
-5.921800 0.000000
-5.910000 0.000000
-5.898200 0.000000
-5.886400 0.000000
-5.874600 0.000000
-5.862700 0.000000
-5.850900 0.000000
-5.839100 0.000000
-5.827300 0.000000
-5.815500 0.000000
-5.803600 0.000000
-5.791800 0.000000
-5.780000 0.000000
-5.768200 0.000000
-5.756400 0.000000
-5.744500 0.000000
-5.732700 0.000000
-5.720900 0.000000
-5.709100 0.000000
-5.697300 0.000000
-5.685400 0.000000
-5.673600 0.000000
-5.661800 0.000000
-5.650000 0.000000
-5.638200 0.000000
-5.626300 0.000000
-5.614500 0.000000
-5.602700 0.000000
-5.590900 0.000000
-5.579100 0.000000
-5.567200 0.000000
-5.555400 0.000000
-5.543600 0.000000
-5.531800 0.000000
-5.520000 0.000000
-5.508100 0.000000
-5.496300 0.000000
-5.484500 0.000000
-5.472700 0.000000
-5.460900 0.000000
-5.449000 0.000000
-5.437200 0.000000
-5.425400 0.000000
-5.413600 0.000000
-5.401800 0.000000
-5.389900 0.000000
-5.378100 0.000000
-5.366300 0.000000
-5.354500 0.000000
-5.342700 0.000000
-5.330800 0.000000
-5.319000 0.000000
-5.307200 0.000000
-5.295400 0.000000
-5.283600 0.000000
-5.271700 0.000000
-5.259900 0.000000
-5.248100 0.000000
-5.236300 0.000000
-5.224500 0.000000
-5.212600 0.000000
-5.200800 0.000000
-5.189000 0.000000
-5.177200 0.000000
-5.165400 0.000000
-5.153500 0.000000
-5.141700 0.000000
-5.129900 0.000000
-5.118100 0.000000
-5.106300 0.000000
-5.094400 0.000000
-5.082600 0.000000
-5.070800 0.330400
-5.059000 0.374300
-5.047200 0.418100
-5.035300 0.462000
-5.023500 0.505900
-5.011700 0.549800
-4.999900 0.746500
-4.988100 0.796900
-4.976200 0.847300
-4.964400 0.897700
-4.952600 0.627000
-4.940800 0.648300
-4.929000 0.669600
-4.917100 0.690900
-4.905300 0.712200
-4.893500 0.733600
-4.881700 0.754900
-4.869900 0.776200
-4.858000 0.797500
-4.846200 0.818800
-4.834400 0.840100
-4.822600 0.861400
-4.810800 0.882800
-4.798900 0.904100
-4.787100 0.925400
-4.775300 1.146700
-4.763500 1.019900
-4.751700 0.966500
-4.739800 0.913100
-4.728000 0.859800
-4.716200 0.823700
-4.704400 0.824300
-4.692600 0.824800
-4.680700 0.825300
-4.668900 0.825800
-4.657100 0.793500
-4.645300 0.804500
-4.633500 0.815500
-4.621600 0.826500
-4.609800 0.837500
-4.598000 0.848500
-4.586200 0.859500
-4.574400 0.870500
-4.562500 0.881500
-4.550700 0.892600
-4.538900 0.903600
-4.527100 0.914600
-4.515300 0.925600
-4.503400 0.936600
-4.491600 0.944800
-4.479800 1.019600
-4.468000 0.997300
-4.456200 0.975000
-4.444300 0.952700
-4.432500 0.930900
-4.420700 0.921700
-4.408900 0.911100
-4.397100 0.901000
-4.385200 0.897000
-4.373400 0.897200
-4.361600 0.887600
-4.349800 0.894600
-4.338000 0.901600
-4.326100 0.908600
-4.314300 0.915600
-4.302500 0.922500
-4.290700 0.929500
-4.278900 0.936500
-4.267000 0.943500
-4.255200 0.950500
-4.243400 0.957500
-4.231600 0.964500
-4.219800 0.954600
-4.207900 0.963400
-4.196100 0.972200
-4.184300 0.981100
-4.172500 0.989900
-4.160700 0.998700
-4.148800 1.007500
-4.137000 1.015300
-4.125200 1.082000
-4.113400 1.045200
-4.101600 1.023900
-4.089700 1.020600
-4.077900 1.017300
-4.066100 1.014000
-4.054300 2.653500
-4.042500 1.353400
-4.030600 1.394600
-4.018800 1.436600
-4.007000 1.481200
-3.995200 1.532000
-3.983400 5.259600
-3.971500 1.796800
-3.959700 1.859800
-3.947900 1.955500
-3.936100 1.862500
-3.924300 5.242300
-3.912400 3.965100
-3.900600 4.054900
-3.888800 3.821400
-3.877000 3.516400
-3.865200 3.372200
-3.853300 3.449600
-3.841500 3.530900
-3.829700 3.613800
-3.817900 3.696600
-3.806100 3.650600
-3.794200 3.561400
-3.782400 3.570100
-3.770600 3.691500
-3.758800 3.813000
-3.747000 3.474400
-3.735100 2.973400
-3.723300 2.847800
-3.711500 2.776900
-3.699700 2.727700
-3.687900 3.126000
-3.676100 3.177500
-3.664200 3.217100
-3.652400 3.200200
-3.640600 3.160100
-3.628800 3.088000
-3.617000 3.066100
-3.605100 3.064800
-3.593300 3.071200
-3.581500 3.092100
-3.569700 3.111900
-3.557900 3.160300
-3.546000 3.210300
-3.534200 3.258300
-3.522400 3.306200
-3.510600 3.394800
-3.498800 3.485900
-3.486900 3.624400
-3.475100 3.717600
-3.463300 3.810800
-3.451500 3.903900
-3.439700 3.976300
-3.427800 4.035500
-3.416000 3.977000
-3.404200 4.105400
-3.392400 3.848400
-3.380600 3.958400
-3.368700 3.874400
-3.356900 3.788000
-3.345100 3.654300
-3.333300 3.538300
-3.321500 3.422500
-3.309600 3.341900
-3.297800 3.282800
-3.286000 3.268400
-3.274200 3.295900
-3.262400 3.334800
-3.250500 3.405200
-3.238700 3.453900
-3.226900 3.533600
-3.215100 3.632900
-3.203300 3.789600
-3.191400 3.499300
-3.179600 3.752400
-3.167800 4.005500
-3.156000 3.703500
-3.144200 3.660400
-3.132300 3.622800
-3.120500 3.585200
-3.108700 3.525600
-3.096900 3.536500
-3.085100 3.505800
-3.073200 3.486600
-3.061400 3.477300
-3.049600 3.457200
-3.037800 3.419800
-3.026000 3.394800
-3.014100 3.378800
-3.002300 3.501100
-2.990500 3.481800
-2.978700 3.128300
-2.966900 2.992200
-2.955000 2.985200
-2.943200 3.065400
-2.931400 3.078400
-2.919600 3.091800
-2.907800 3.105200
-2.895900 3.118600
-2.884100 3.134300
-2.872300 3.152800
-2.860500 3.189000
-2.848700 3.196400
-2.836800 3.203800
-2.825000 3.888000
-2.813200 2.815600
-2.801400 2.692500
-2.789600 3.391800
-2.777700 3.109800
-2.765900 3.073500
-2.754100 3.051300
-2.742300 3.126600
-2.730500 3.067800
-2.718600 3.013300
-2.706800 2.994500
-2.695000 3.006800
-2.683200 3.331800
-2.671400 2.797500
-2.659500 2.551700
-2.647700 2.532300
-2.635900 2.512800
-2.624100 2.494600
-2.612300 2.476800
-2.600400 2.459100
-2.588600 2.459900
-2.576800 2.505200
-2.565000 2.876000
-2.553200 2.986400
-2.541300 3.096800
-2.529500 3.207200
-2.517700 3.319000
-2.505900 3.433300
-2.494100 3.551100
-2.482200 3.936900
-2.470400 3.992200
-2.458600 5.519300
-2.446800 5.612800
-2.435000 4.792400
-2.423100 5.695300
-2.411300 5.525700
-2.399500 5.027000
-2.387700 4.974900
-2.375900 4.971000
-2.364000 4.963400
-2.352200 4.937000
-2.340400 4.877700
-2.328600 4.837700
-2.316800 4.521100
-2.304900 4.488500
-2.293100 4.460200
-2.281300 4.493800
-2.269500 3.944000
-2.257700 3.944900
-2.245800 4.020000
-2.234000 3.928800
-2.222200 3.670600
-2.210400 3.572700
-2.198600 3.475000
-2.186700 4.120100
-2.174900 3.427200
-2.163100 2.818900
-2.151300 2.797200
-2.139500 2.776200
-2.127600 3.680000
-2.115800 9.155600
-2.104000 8.430700
-2.092200 4.118000
-2.080400 4.087700
-2.068500 4.058900
-2.056700 4.030200
-2.044900 4.003000
-2.033100 4.028100
-2.021300 4.016400
-2.009400 3.952200
-1.997600 3.965100
-1.985800 3.974300
-1.974000 3.817600
-1.962200 3.499200
-1.950300 3.405100
-1.938500 3.421700
-1.926700 3.438400
-1.914900 3.343200
-1.903100 3.258100
-1.891200 3.268500
-1.879400 3.280100
-1.867600 3.360400
-1.855800 3.698100
-1.844000 3.766700
-1.832100 3.797800
-1.820300 3.828900
-1.808500 3.856400
-1.796700 3.878000
-1.784900 3.901200
-1.773000 3.958600
-1.761200 4.024500
-1.749400 4.090500
-1.737600 4.192000
-1.725800 5.154000
-1.713900 4.449600
-1.702100 3.746600
-1.690300 3.504400
-1.678500 3.338700
-1.666700 3.186700
-1.654800 2.982300
-1.643000 2.839000
-1.631200 2.755200
-1.619400 2.743300
-1.607600 2.731400
-1.595700 2.719600
-1.583900 2.758900
-1.572100 2.987700
-1.560300 3.182400
-1.548500 3.296400
-1.536600 3.233000
-1.524800 3.169600
-1.513000 3.150300
-1.501200 3.478500
-1.489400 3.321900
-1.477500 3.227200
-1.465700 3.132900
-1.453900 3.040500
-1.442100 2.962100
-1.430300 3.000800
-1.418400 3.063400
-1.406600 3.118100
-1.394800 3.105500
-1.383000 3.288400
-1.371200 3.662400
-1.359300 3.821300
-1.347500 3.691300
-1.335700 3.923100
-1.323900 3.908300
-1.312100 3.353700
-1.300200 2.842200
-1.288400 2.585800
-1.276600 2.520400
-1.264800 2.501600
-1.253000 2.506700
-1.241100 2.511800
-1.229300 2.516900
-1.217500 2.478600
-1.205700 2.411900
-1.193900 2.114600
-1.182000 2.187700
-1.170200 3.624600
-1.158400 5.010600
-1.146600 4.998700
-1.134800 4.748600
-1.122900 3.804900
-1.111100 3.766300
-1.099300 3.766900
-1.087500 3.564000
-1.075700 3.629800
-1.063800 3.695500
-1.052000 3.899600
-1.040200 4.256900
-1.028400 4.895800
-1.016600 4.878300
-1.004700 4.348100
-0.992900 3.215500
-0.981100 2.206000
-0.969300 1.893400
-0.957500 1.714200
-0.945600 1.580200
-0.933800 1.446200
-0.922000 1.312200
-0.910200 1.178200
-0.898400 1.096800
-0.886600 1.035700
-0.874700 0.974500
-0.862900 0.913300
-0.851100 0.852100
-0.839300 0.790900
-0.827500 0.733100
-0.815600 0.720300
-0.803800 0.712000
-0.792000 0.799800
-0.780200 0.899900
-0.768400 0.943500
-0.756500 0.904200
-0.744700 0.864800
-0.732900 0.825400
-0.721100 0.786000
-0.709300 0.746600
-0.697400 0.840800
-0.685600 1.144700
-0.673800 1.379500
-0.662000 0.590900
-0.650200 0.000000
-0.638300 0.000000
-0.626500 0.000000
-0.614700 0.000000
-0.602900 0.000000
-0.591100 0.000000
-0.579200 0.000000
-0.567400 0.000000
-0.555600 0.000000
-0.543800 0.000000
-0.532000 0.000000
-0.520100 0.000000
-0.508300 0.000000
-0.496500 0.000000
-0.484700 0.000000
-0.472900 0.000000
-0.461000 0.000000
-0.449200 0.000000
-0.437400 0.000000
-0.425600 0.000000
-0.413800 0.000000
-0.401900 0.000000
-0.390100 0.000000
-0.378300 0.000000
-0.366500 0.000000
-0.354700 0.000000
-0.342800 0.000000
-0.331000 0.000000
-0.319200 0.000000
-0.307400 0.000000
-0.295600 0.000000
-0.283700 0.000000
-0.271900 0.000000
-0.260100 0.000000
-0.248300 0.000000
-0.236500 0.000000
-0.224600 0.000000
-0.212800 0.000000
-0.201000 0.000000
-0.189200 0.000000
-0.177400 0.000000
-0.165500 0.000000
-0.153700 0.000000
-0.141900 0.000000
-0.130100 0.000000
-0.118300 0.000000
-0.106400 0.000000
-0.094600 0.000000
-0.082800 0.000000
-0.071000 0.000000
-0.059200 0.000000
-0.047300 0.000000
-0.035500 0.803600
-0.023700 1.810900
-0.011900 1.297800
-0.000100 1.029800
0.011800 1.070500
0.023600 1.114800
0.035400 1.153800
0.047200 1.103800
0.059000 0.998400
0.070900 0.882700
0.082700 0.804200
0.094500 0.811400
0.106300 0.818600
0.118100 0.825800
0.130000 0.833000
0.141800 0.840100
0.153600 0.847300
0.165400 0.854500
0.177200 0.861700
0.189100 0.869400
0.200900 0.855300
0.212700 0.828500
0.224500 0.801600
0.236300 0.807700
0.248200 0.850200
0.260000 0.902000
0.271800 0.953800
0.283600 1.013300
0.295400 1.167300
0.307300 1.671800
0.319100 2.123200
0.330900 2.403200
0.342700 2.683200
0.354500 3.404600
0.366400 3.957100
0.378200 4.068500
0.390000 4.091400
0.401800 4.171300
0.413600 4.235600
0.425500 4.241800
0.437300 4.277200
0.449100 4.320700
0.460900 4.544500
0.472700 4.759300
0.484600 4.553200
0.496400 4.341600
0.508200 4.240300
0.520000 4.068200
0.531800 3.830800
0.543700 3.595100
0.555500 3.378500
0.567300 3.129900
0.579100 2.869300
0.590900 2.512600
0.602800 1.956100
0.614600 1.254500
0.626400 1.095800
0.638200 1.112700
0.650000 1.129600
0.661900 1.146500
0.673700 1.163300
0.685500 1.180200
0.697300 1.197100
0.709100 1.218300
0.721000 1.280500
0.732800 2.392700
0.744600 2.262200
0.756400 1.996700
0.768200 1.971900
0.780100 1.841300
0.791900 1.837600
0.803700 1.833900
0.815500 1.830400
0.827300 1.827500
0.839200 1.825600
0.851000 1.824300
0.862800 1.822800
0.874600 1.857400
0.886400 1.920000
0.898300 1.985200
0.910100 2.050500
0.921900 2.120200
0.933700 2.163300
0.945500 2.145100
0.957400 2.212000
0.969200 2.209900
0.981000 2.237600
0.992800 2.243700
1.004600 2.256600
1.016500 2.281800
1.028300 2.312700
1.040100 2.326000
1.051900 2.299700
1.063700 2.077600
1.075600 2.066100
1.087400 2.067300
1.099200 2.073300
1.111000 2.081300
1.122800 2.089400
1.134700 2.097400
1.146500 2.105900
1.158300 2.123600
1.170100 2.135000
1.181900 2.146400
1.193800 2.157800
1.205600 2.314000
1.217400 2.668800
1.229200 2.922200
1.241000 3.032100
1.252900 3.150600
1.264700 3.270200
1.276500 3.389800
1.288300 3.497400
1.300100 3.618800
1.312000 3.739400
1.323800 3.832900
1.335600 5.382800
1.347400 3.494500
1.359200 3.565000
1.371100 3.485500
1.382900 3.439200
1.394700 3.375900
1.406500 3.295000
1.418300 3.238700
1.430200 3.191300
1.442000 3.145900
1.453800 3.109700
1.465600 3.081900
1.477400 3.143800
1.489300 3.113200
1.501100 3.091500
1.512900 3.073700
1.524700 3.053300
1.536500 3.054200
1.548400 3.053000
1.560200 3.051100
1.572000 3.049700
1.583800 3.050600
1.595600 3.054600
1.607500 3.064700
1.619300 3.114700
1.631100 3.131000
1.642900 3.134800
1.654700 3.134300
1.666600 3.135300
1.678400 3.152900
1.690200 3.182900
1.702000 3.232000
1.713800 3.232100
1.725700 3.237900
1.737500 3.234700
1.749300 3.228000
1.761100 3.221300
1.772900 3.239100
1.784800 3.313600
1.796600 3.357600
1.808400 3.376700
1.820200 3.400900
1.832000 3.413500
1.843900 3.784900
1.855700 3.342200
1.867500 3.250200
1.879300 3.741400
1.891100 4.292100
1.902900 4.584000
1.914800 4.465400
1.926600 4.381900
1.938400 3.600000
1.950200 3.542500
1.962000 3.494300
1.973900 3.467200
1.985700 3.680300
1.997500 3.908100
2.009300 3.373100
2.021100 3.246100
2.033000 3.055500
2.044800 3.013900
2.056600 2.973900
2.068400 2.944200
2.080200 2.922500
2.092100 2.900900
2.103900 2.879300
2.115700 2.857700
2.127500 2.798900
2.139300 2.873200
2.151200 2.358100
2.163000 2.285600
2.174800 2.307000
2.186600 2.297900
2.198400 2.332600
2.210300 2.365400
2.222100 2.347100
2.233900 2.295500
2.245700 2.287900
2.257500 2.310700
2.269400 2.330900
2.281200 2.350900
2.293000 2.370600
2.304800 2.390400
2.316600 2.409200
2.328500 2.424100
2.340300 2.440000
2.352100 2.461500
2.363900 2.483200
2.375700 2.504900
2.387600 2.527700
2.399400 2.549500
2.411200 2.569400
2.423000 2.589300
2.434800 2.609100
2.446700 2.629000
2.458500 2.670200
2.470300 2.804200
2.482100 3.060200
2.493900 3.239800
2.505800 3.290900
2.517600 3.240900
2.529400 3.189500
2.541200 3.127200
2.553000 3.065400
2.564900 3.017300
2.576700 2.969800
2.588500 2.921600
2.600300 2.892300
2.612100 2.794500
2.624000 2.805500
2.635800 2.853900
2.647600 2.850000
2.659400 2.868500
2.671200 2.912800
2.683100 2.966000
2.694900 3.061700
2.706700 3.129200
2.718500 3.139300
2.730300 3.078000
2.742200 3.005700
2.754000 2.916400
2.765800 2.849900
2.777600 2.784300
2.789400 2.720600
2.801300 2.661500
2.813100 2.611700
2.824900 2.567200
2.836700 2.512700
2.848500 2.464300
2.860400 2.424500
2.872200 2.391200
2.884000 2.361500
2.895800 2.361800
2.907600 2.370800
2.919500 2.380000
2.931300 2.388000
2.943100 2.394900
2.954900 2.402800
2.966700 2.414300
2.978600 2.422800
2.990400 2.431100
3.002200 2.441100
3.014000 2.451200
3.025800 2.461700
3.037700 2.472400
3.049500 2.483200
3.061300 2.493600
3.073100 2.499000
3.084900 2.499600
3.096800 2.500900
3.108600 2.502000
3.120400 2.499900
3.132200 2.498000
3.144000 2.509900
3.155900 2.504200
3.167700 2.478500
3.179500 2.459900
3.191300 2.451400
3.203100 2.446700
3.215000 2.446500
3.226800 2.452600
3.238600 2.459600
3.250400 2.477000
3.262200 2.488900
3.274100 2.498300
3.285900 2.506300
3.297700 2.515300
3.309500 2.539000
3.321300 2.551100
3.333200 2.562400
3.345000 2.573800
3.356800 2.585500
3.368600 2.598100
3.380400 2.610500
3.392300 2.623000
3.404100 2.635500
3.415900 2.655300
3.427700 2.677900
3.439500 2.726300
3.451400 2.773700
3.463200 2.804100
3.475000 2.873000
3.486800 2.986200
3.498600 3.112000
3.510500 3.275300
3.522300 3.286200
3.534100 3.584200
3.545900 3.578700
3.557700 3.523700
3.569600 3.467700
3.581400 3.430400
3.593200 3.460900
3.605000 3.452500
3.616800 3.465300
3.628700 3.504300
3.640500 4.120500
3.652300 3.844000
3.664100 3.519600
3.675900 3.400400
3.687800 3.878400
3.699600 5.213300
3.711400 4.866000
3.723200 5.795500
3.735000 4.174600
3.746900 3.511800
3.758700 3.562500
3.770500 3.701600
3.782300 3.860900
3.794100 3.080500
3.806000 2.876500
3.817800 3.504400
3.829600 3.395900
3.841400 3.658900
3.853200 4.150300
3.865100 5.748900
3.876900 5.394000
3.888700 5.118300
3.900500 4.638400
3.912300 4.165300
3.924200 3.863600
3.936000 3.895500
3.947800 4.270600
3.959600 4.434100
3.971400 4.525600
3.983300 4.577300
3.995100 4.098900
4.006900 4.300100
4.018700 5.252000
4.030500 5.421300
4.042400 4.575300
4.054200 4.501600
4.066000 4.246900
4.077800 7.129100
4.089600 4.570700
4.101500 4.696400
4.113300 3.679800
4.125100 3.301500
4.136900 3.443300
4.148700 2.529500
4.160600 1.828700
4.172400 1.442400
4.184200 1.127200
4.196000 0.551700
4.207800 0.261800
4.219700 0.256300
4.231500 0.250800
4.243300 0.245300
4.255100 0.239900
4.266900 0.234500
4.278800 0.239200
4.290600 0.267100
4.302400 0.247700
4.314200 0.226900
4.326000 0.204800
4.337900 0.183500
4.349700 0.183200
4.361500 0.208900
4.373300 0.235400
4.385100 0.594700
4.397000 0.948200
4.408800 1.084100
4.420600 1.230000
4.432400 1.440100
4.444200 1.638200
4.456100 1.678600
4.467900 1.801900
4.479700 2.169400
4.491500 1.829900
4.503300 1.862700
4.515200 2.228500
4.527000 2.127700
4.538800 2.054300
4.550600 1.902800
4.562400 1.912500
4.574300 1.925900
4.586100 1.891300
4.597900 1.839500
4.609700 1.748500
4.621500 1.681800
4.633400 1.655100
4.645200 1.643300
4.657000 1.635000
4.668800 1.628900
4.680600 1.624900
4.692400 1.620300
4.704300 1.610300
4.716100 1.598800
4.727900 1.590300
4.739700 1.583300
4.751500 1.573800
4.763400 1.551800
4.775200 1.511700
4.787000 1.485000
4.798800 1.466500
4.810600 1.452200
4.822500 1.441300
4.834300 1.432300
4.846100 1.423800
4.857900 1.415700
4.869700 1.408200
4.881600 1.402000
4.893400 1.397200
4.905200 1.373900
4.917000 1.364600
4.928800 1.365200
4.940700 1.367300
4.952500 1.369600
4.964300 1.371500
4.976100 1.373100
4.987900 1.373800
4.999800 1.373500
5.011600 1.372600
5.023400 1.368100
5.035200 1.362000
5.047000 1.359700
5.058900 1.357900
5.070700 1.358000
5.082500 1.358700
5.094300 1.359800
5.106100 1.361200
5.118000 1.363400
5.129800 1.366300
5.141600 1.369800
5.153400 1.374400
5.165200 1.379600
5.177100 1.385400
5.188900 1.391500
5.200700 1.397700
5.212500 1.408500
5.224300 1.423800
5.236200 1.443800
5.248000 1.466200
5.259800 1.493800
5.271600 1.527000
5.283400 1.565600
5.295300 1.609800
5.307100 1.675700
5.318900 1.744200
5.330700 1.823700
5.342500 1.934900
5.354400 2.066800
5.366200 2.186600
5.378000 2.315600
5.389800 2.453600
5.401600 2.611600
5.413500 2.734300
5.425300 2.841800
5.437100 2.892600
5.448900 2.918300
5.460700 2.937600
5.472600 2.954900
5.484400 2.989000
5.496200 3.053500
5.508000 3.062200
5.519800 3.031300
5.531700 2.980000
5.543500 2.951500
5.555300 2.935700
5.567100 2.920600
5.578900 2.904700
5.590800 2.893300
5.602600 2.892500
5.614400 2.894200
5.626200 2.899400
5.638000 2.909700
5.649900 2.925800
5.661700 2.941400
5.673500 2.940200
5.685300 2.916700
5.697100 2.917800
5.709000 2.933700
5.720800 2.975100
5.732600 3.037400
5.744400 3.093700
5.756200 3.143800
5.768100 3.197600
5.779900 3.256900
5.791700 3.328400
5.803500 3.407300
5.815300 3.499500
5.827200 3.606900
5.839000 3.742300
5.850800 3.893200
5.862600 4.823800
5.874400 5.625700
5.886300 6.827400
5.898100 8.887800
5.909900 8.862000
5.921700 7.665300
5.933500 7.397200
5.945400 6.907700
5.957200 6.401500
5.969000 5.764200
5.980800 5.308600
5.992600 4.928900
6.004500 4.631600
6.016300 4.371400
6.028100 4.183500
6.039900 4.029000
6.051700 3.851300
6.063600 3.768900
6.075400 3.634500
6.087200 3.462700
6.099000 3.284000
6.110800 3.147500
6.122700 3.050800
6.134500 2.990400
6.146300 2.976400
6.158100 3.004400
6.169900 3.038600
6.181800 3.046000
6.193600 3.085700
6.205400 3.207900
6.217200 3.633700
6.229000 3.240500
6.240900 3.415800
6.252700 3.475400
6.264500 3.679100
6.276300 3.663400
6.288100 3.745700
6.300000 3.869500
6.311800 4.031400
6.323600 4.163700
6.335400 4.462900
6.347200 5.054800
6.359100 5.324400
6.370900 5.025500
6.382700 4.716200
6.394500 4.411900
6.406300 4.162800
6.418200 3.915100
6.430000 3.676600
6.441800 3.358700
6.453600 3.166900
6.465400 4.038500
6.477300 2.872000
6.489100 2.784000
6.500900 2.714700
6.512700 2.609300
6.524500 2.495300
6.536400 2.392700
6.548200 2.715000
6.560000 2.459200
6.571800 2.209100
6.583600 2.022900
6.595500 1.974200
6.607300 1.949000
6.619100 1.970300
6.630900 2.018400
6.642700 2.141900
6.654600 2.306100
6.666400 2.367200
6.678200 1.955000
6.690000 2.038400
6.701800 2.166400
6.713700 2.326500
6.725500 2.391800
6.737300 2.417800
6.749100 2.459100
6.760900 2.502700
6.772800 2.550700
6.784600 2.634400
6.796400 2.737100
6.808200 2.867500
6.820000 2.998100
6.831900 3.094100
6.843700 3.159400
6.855500 3.196600
6.867300 3.225500
6.879100 3.102400
6.891000 2.998700
6.902800 2.900000
6.914600 2.842800
6.926400 2.805800
6.938200 2.772000
6.950100 2.748700
6.961900 2.717800
6.973700 2.658200
6.985500 2.613100
6.997300 2.573900
7.009200 2.533500
7.021000 2.469400
7.032800 2.464800
7.044600 2.465700
7.056400 2.469800
7.068300 2.474200
7.080100 2.469000
7.091900 2.461500
7.103700 2.451700
7.115500 2.431100
7.127400 2.396900
7.139200 2.355500
7.151000 2.334200
7.162800 2.316700
7.174600 2.303300
7.186500 2.294900
7.198300 2.278800
7.210100 2.240500
7.221900 2.196300
7.233700 2.508800
7.245600 2.266500
7.257400 1.946500
7.269200 1.890000
7.281000 1.865900
7.292800 1.840900
7.304700 1.788600
7.316500 1.787800
7.328300 1.853400
7.340100 3.190700
7.351900 2.012600
7.363800 1.620000
7.375600 1.363900
7.387400 1.174500
7.399200 1.022500
7.411000 0.878600
7.422900 0.519800
7.434700 0.449000
7.446500 0.396900
7.458300 0.351500
7.470100 0.312600
7.481900 0.276100
7.493800 0.246300
7.505600 0.234500
7.517400 0.223600
7.529200 0.213400
7.541000 0.204000
7.552900 0.189300
7.564700 0.154100
7.576500 0.143400
7.588300 0.093800
7.600100 0.053500
7.612000 0.024500
7.623800 0.006700
7.635600 0.000000
7.647400 0.000000
7.659200 0.000000
7.671100 0.000000
7.682900 0.000000
7.694700 0.000000
7.706500 0.000000
7.718300 0.000000
7.730200 0.000000
7.742000 0.000000
7.753800 0.000000
7.765600 0.000000
7.777400 0.000000
7.789300 0.000000
7.801100 0.000000
7.812900 0.000000
7.824700 0.000000
7.836500 0.000000
7.848400 0.000000
7.860200 0.000000
7.872000 0.000000
7.883800 0.000000
7.895600 0.000000
7.907500 0.000000
7.919300 0.000000
7.931100 0.000000
7.942900 0.000000
7.954700 0.000000
7.966600 0.000000
7.978400 0.000000
7.990200 0.000000
8.002000 0.000000
8.013800 0.000000
8.025700 0.000000
8.037500 0.000000
8.049300 0.000000
8.061100 0.000000
8.072900 0.000000
8.084800 0.000000
8.096600 0.000000
8.108400 0.000000
8.120200 0.000000
8.132000 0.000000
8.143900 0.000000
8.155700 0.000000
8.167500 0.000000
8.179300 0.000000
8.191100 0.000000
8.203000 0.000000
8.214800 0.000000
8.226600 0.000000
8.238400 0.000000
8.250200 0.000000
8.262100 0.000000
8.273900 0.000000
8.285700 0.000000
8.297500 0.000000
8.309300 0.000000
8.321200 0.000000
8.333000 0.000000
8.344800 0.000000
8.356600 0.000000
8.368400 0.000000
8.380300 0.000000
8.392100 0.000000
8.403900 0.000000
8.415700 0.000000
8.427500 0.000000
8.439400 0.000000
8.451200 0.000000
8.463000 0.000000
8.474800 0.000000
8.486600 0.000000
8.498500 0.000000
8.510300 0.000000
8.522100 0.000000
8.533900 0.000000
8.545700 0.000000
8.557600 0.000000
8.569400 0.000000
8.581200 0.000000
8.593000 0.000000
8.604800 0.000000
8.616700 0.000000
8.628500 0.000000
8.640300 0.000000
8.652100 0.000000
8.663900 0.000000
8.675800 0.000000
8.687600 0.000000
8.699400 0.000000
8.711200 0.000000
e
