set title 'mp-1226295 - Density of States'
set xlabel 'Energy (eV)'
set ylabel 'DOS (states/eV)'
set grid
set xrange [-10:10]
set yrange [0:60.433]
set xzeroaxis lt -1
set terminal png size 800,600
set output 'mp-1226295_dos_gnuplot.png'
plot '-' using 1:2 with lines title 'DOS'
-39.501500 0.000000
-39.461600 0.000000
-39.421700 0.000000
-39.381800 0.000000
-39.341800 0.000000
-39.301900 0.000000
-39.262000 0.000000
-39.222100 0.000000
-39.182100 0.000000
-39.142200 0.000000
-39.102300 0.000000
-39.062400 0.000000
-39.022400 0.000000
-38.982500 0.000000
-38.942600 0.000000
-38.902700 0.000000
-38.862800 0.000000
-38.822800 0.000000
-38.782900 0.000000
-38.743000 0.000000
-38.703100 0.000000
-38.663100 0.000000
-38.623200 0.000000
-38.583300 0.000000
-38.543400 0.000000
-38.503400 0.000000
-38.463500 0.000000
-38.423600 0.000000
-38.383700 0.000000
-38.343800 0.000000
-38.303800 0.000000
-38.263900 0.000000
-38.224000 0.000000
-38.184100 0.000000
-38.144100 0.000000
-38.104200 0.000000
-38.064300 0.000000
-38.024400 0.000000
-37.984500 0.000000
-37.944500 0.000000
-37.904600 0.000000
-37.864700 0.000000
-37.824800 0.000000
-37.784800 0.000000
-37.744900 0.000000
-37.705000 0.000000
-37.665100 0.000000
-37.625100 0.000000
-37.585200 0.000000
-37.545300 0.000000
-37.505400 0.000000
-37.465500 0.000000
-37.425500 0.000000
-37.385600 0.000000
-37.345700 0.000000
-37.305800 0.000000
-37.265800 0.000000
-37.225900 0.000000
-37.186000 0.000000
-37.146100 0.000000
-37.106200 0.000000
-37.066200 0.000000
-37.026300 0.000000
-36.986400 0.000000
-36.946500 0.000000
-36.906500 0.000000
-36.866600 0.000000
-36.826700 0.000000
-36.786800 0.000000
-36.746800 0.000000
-36.706900 0.000000
-36.667000 0.000000
-36.627100 0.000000
-36.587200 0.000000
-36.547200 0.000000
-36.507300 0.000000
-36.467400 0.000000
-36.427500 0.000000
-36.387500 0.000000
-36.347600 0.000000
-36.307700 0.000000
-36.267800 0.000000
-36.227900 0.000000
-36.187900 0.000000
-36.148000 0.000000
-36.108100 0.000000
-36.068200 0.000000
-36.028200 0.000000
-35.988300 0.000000
-35.948400 0.000000
-35.908500 0.000000
-35.868500 38.512100
-35.828600 0.000000
-35.788700 0.000000
-35.748800 12.213300
-35.708900 50.703500
-35.668900 0.000000
-35.629000 0.000000
-35.589100 0.000000
-35.549200 0.000000
-35.509200 0.000000
-35.469300 0.000000
-35.429400 0.000000
-35.389500 0.000000
-35.349600 0.000000
-35.309600 0.000000
-35.269700 0.000000
-35.229800 0.000000
-35.189900 0.000000
-35.149900 0.000000
-35.110000 0.000000
-35.070100 0.000000
-35.030200 0.000000
-34.990200 0.000000
-34.950300 0.000000
-34.910400 0.000000
-34.870500 0.000000
-34.830600 0.000000
-34.790600 0.000000
-34.750700 0.000000
-34.710800 0.000000
-34.670900 0.000000
-34.630900 0.000000
-34.591000 0.000000
-34.551100 0.000000
-34.511200 0.000000
-34.471200 0.000000
-34.431300 0.000000
-34.391400 0.000000
-34.351500 0.000000
-34.311600 0.000000
-34.271600 0.000000
-34.231700 0.000000
-34.191800 0.000000
-34.151900 0.000000
-34.111900 0.000000
-34.072000 0.000000
-34.032100 0.000000
-33.992200 0.000000
-33.952300 0.000000
-33.912300 0.000000
-33.872400 0.000000
-33.832500 0.000000
-33.792600 0.000000
-33.752600 0.000000
-33.712700 0.000000
-33.672800 0.000000
-33.632900 0.000000
-33.592900 0.000000
-33.553000 0.000000
-33.513100 0.000000
-33.473200 0.000000
-33.433300 0.000000
-33.393300 0.000000
-33.353400 0.000000
-33.313500 0.000000
-33.273600 0.000000
-33.233600 0.000000
-33.193700 0.000000
-33.153800 0.000000
-33.113900 0.000000
-33.074000 0.000000
-33.034000 0.000000
-32.994100 0.000000
-32.954200 0.000000
-32.914300 0.000000
-32.874300 0.000000
-32.834400 0.000000
-32.794500 0.000000
-32.754600 0.000000
-32.714600 0.000000
-32.674700 0.000000
-32.634800 0.000000
-32.594900 0.000000
-32.555000 0.000000
-32.515000 0.000000
-32.475100 0.000000
-32.435200 0.000000
-32.395300 0.000000
-32.355300 0.000000
-32.315400 0.000000
-32.275500 0.000000
-32.235600 0.000000
-32.195700 0.000000
-32.155700 0.000000
-32.115800 0.000000
-32.075900 0.000000
-32.036000 0.000000
-31.996000 0.000000
-31.956100 0.000000
-31.916200 0.000000
-31.876300 0.000000
-31.836300 0.000000
-31.796400 0.000000
-31.756500 0.000000
-31.716600 0.000000
-31.676700 0.000000
-31.636700 0.000000
-31.596800 0.000000
-31.556900 0.000000
-31.517000 0.000000
-31.477000 0.000000
-31.437100 0.000000
-31.397200 0.000000
-31.357300 0.000000
-31.317400 0.000000
-31.277400 0.000000
-31.237500 0.000000
-31.197600 0.000000
-31.157700 0.000000
-31.117700 0.000000
-31.077800 0.000000
-31.037900 0.000000
-30.998000 0.000000
-30.958000 0.000000
-30.918100 0.000000
-30.878200 0.000000
-30.838300 0.000000
-30.798400 0.000000
-30.758400 0.000000
-30.718500 0.000000
-30.678600 0.000000
-30.638700 0.000000
-30.598700 0.000000
-30.558800 0.000000
-30.518900 0.000000
-30.479000 0.000000
-30.439000 0.000000
-30.399100 0.000000
-30.359200 0.000000
-30.319300 0.000000
-30.279400 0.000000
-30.239400 0.000000
-30.199500 0.000000
-30.159600 0.000000
-30.119700 0.000000
-30.079700 0.000000
-30.039800 0.000000
-29.999900 0.000000
-29.960000 0.000000
-29.920100 0.000000
-29.880100 0.000000
-29.840200 0.000000
-29.800300 0.000000
-29.760400 0.000000
-29.720400 0.000000
-29.680500 0.000000
-29.640600 0.000000
-29.600700 0.000000
-29.560700 0.000000
-29.520800 0.000000
-29.480900 0.000000
-29.441000 0.000000
-29.401100 0.000000
-29.361100 0.000000
-29.321200 0.000000
-29.281300 0.000000
-29.241400 0.000000
-29.201400 0.000000
-29.161500 0.000000
-29.121600 0.000000
-29.081700 0.000000
-29.041800 0.000000
-29.001800 0.000000
-28.961900 0.000000
-28.922000 0.000000
-28.882100 0.000000
-28.842100 0.000000
-28.802200 0.000000
-28.762300 0.000000
-28.722400 0.000000
-28.682400 0.000000
-28.642500 0.000000
-28.602600 0.000000
-28.562700 0.000000
-28.522800 0.000000
-28.482800 0.000000
-28.442900 0.000000
-28.403000 0.000000
-28.363100 0.000000
-28.323100 0.000000
-28.283200 0.000000
-28.243300 0.000000
-28.203400 0.000000
-28.163500 0.000000
-28.123500 0.000000
-28.083600 0.000000
-28.043700 0.000000
-28.003800 0.000000
-27.963800 0.000000
-27.923900 0.000000
-27.884000 0.000000
-27.844100 0.000000
-27.804100 0.000000
-27.764200 0.000000
-27.724300 0.000000
-27.684400 0.000000
-27.644500 0.000000
-27.604500 0.000000
-27.564600 0.000000
-27.524700 0.000000
-27.484800 0.000000
-27.444800 0.000000
-27.404900 0.000000
-27.365000 0.000000
-27.325100 0.000000
-27.285200 0.000000
-27.245200 0.000000
-27.205300 0.000000
-27.165400 0.000000
-27.125500 0.000000
-27.085500 0.000000
-27.045600 0.000000
-27.005700 0.000000
-26.965800 0.000000
-26.925800 0.000000
-26.885900 0.000000
-26.846000 0.000000
-26.806100 0.000000
-26.766200 0.000000
-26.726200 0.000000
-26.686300 0.000000
-26.646400 0.000000
-26.606500 0.000000
-26.566500 0.000000
-26.526600 0.000000
-26.486700 0.000000
-26.446800 0.000000
-26.406800 0.000000
-26.366900 0.000000
-26.327000 0.000000
-26.287100 0.000000
-26.247200 0.000000
-26.207200 0.000000
-26.167300 0.000000
-26.127400 0.000000
-26.087500 0.000000
-26.047500 0.000000
-26.007600 0.000000
-25.967700 0.000000
-25.927800 0.000000
-25.887900 0.000000
-25.847900 0.000000
-25.808000 0.000000
-25.768100 0.000000
-25.728200 0.000000
-25.688200 0.000000
-25.648300 0.000000
-25.608400 0.000000
-25.568500 0.000000
-25.528500 0.000000
-25.488600 0.000000
-25.448700 0.000000
-25.408800 0.000000
-25.368900 0.000000
-25.328900 0.000000
-25.289000 0.000000
-25.249100 0.000000
-25.209200 0.000000
-25.169200 0.000000
-25.129300 0.000000
-25.089400 0.000000
-25.049500 0.000000
-25.009600 0.000000
-24.969600 0.000000
-24.929700 0.000000
-24.889800 0.000000
-24.849900 0.000000
-24.809900 0.000000
-24.770000 0.000000
-24.730100 0.000000
-24.690200 0.000000
-24.650200 0.000000
-24.610300 0.000000
-24.570400 0.000000
-24.530500 0.000000
-24.490600 0.000000
-24.450600 0.000000
-24.410700 0.000000
-24.370800 0.000000
-24.330900 0.000000
-24.290900 0.000000
-24.251000 0.000000
-24.211100 0.000000
-24.171200 0.000000
-24.131300 0.000000
-24.091300 0.000000
-24.051400 0.000000
-24.011500 0.000000
-23.971600 0.000000
-23.931600 0.000000
-23.891700 0.000000
-23.851800 0.000000
-23.811900 0.000000
-23.771900 0.000000
-23.732000 0.000000
-23.692100 0.000000
-23.652200 0.000000
-23.612300 0.000000
-23.572300 0.000000
-23.532400 0.000000
-23.492500 0.000000
-23.452600 0.000000
-23.412600 0.000000
-23.372700 0.000000
-23.332800 0.000000
-23.292900 0.000000
-23.253000 0.000000
-23.213000 0.000000
-23.173100 0.000000
-23.133200 0.000000
-23.093300 0.000000
-23.053300 0.000000
-23.013400 0.000000
-22.973500 0.000000
-22.933600 0.000000
-22.893600 0.000000
-22.853700 0.000000
-22.813800 0.000000
-22.773900 0.000000
-22.734000 0.000000
-22.694000 0.000000
-22.654100 0.000000
-22.614200 0.000000
-22.574300 0.000000
-22.534300 0.000000
-22.494400 0.000000
-22.454500 0.000000
-22.414600 0.000000
-22.374600 0.000000
-22.334700 0.000000
-22.294800 0.000000
-22.254900 0.000000
-22.215000 0.000000
-22.175000 0.000000
-22.135100 0.000000
-22.095200 0.000000
-22.055300 0.000000
-22.015300 0.000000
-21.975400 0.000000
-21.935500 0.000000
-21.895600 0.000000
-21.855700 0.000000
-21.815700 0.000000
-21.775800 0.000000
-21.735900 0.000000
-21.696000 0.000000
-21.656000 0.000000
-21.616100 0.000000
-21.576200 0.000000
-21.536300 0.000000
-21.496300 0.000000
-21.456400 0.000000
-21.416500 0.000000
-21.376600 0.000000
-21.336700 0.000000
-21.296700 0.000000
-21.256800 0.000000
-21.216900 0.000000
-21.177000 0.000000
-21.137000 0.000000
-21.097100 0.000000
-21.057200 0.000000
-21.017300 0.000000
-20.977400 0.000000
-20.937400 0.000000
-20.897500 0.000000
-20.857600 0.000000
-20.817700 0.000000
-20.777700 0.000000
-20.737800 0.000000
-20.697900 0.000000
-20.658000 0.000000
-20.618000 0.000000
-20.578100 0.000000
-20.538200 0.000000
-20.498300 0.000000
-20.458400 0.000000
-20.418400 0.000000
-20.378500 0.000000
-20.338600 0.000000
-20.298700 0.000000
-20.258700 0.000000
-20.218800 0.000000
-20.178900 0.000000
-20.139000 0.000000
-20.099100 0.000000
-20.059100 0.000000
-20.019200 0.000000
-19.979300 0.000000
-19.939400 0.000000
-19.899400 0.000000
-19.859500 0.000000
-19.819600 0.000000
-19.779700 0.000000
-19.739700 0.000000
-19.699800 0.000000
-19.659900 0.000000
-19.620000 0.000000
-19.580100 0.000000
-19.540100 0.000000
-19.500200 0.000000
-19.460300 0.000000
-19.420400 0.000000
-19.380400 0.000000
-19.340500 0.000000
-19.300600 0.000000
-19.260700 0.000000
-19.220700 0.000000
-19.180800 0.000000
-19.140900 0.000000
-19.101000 0.000000
-19.061100 0.000000
-19.021100 0.000000
-18.981200 0.000000
-18.941300 0.000000
-18.901400 0.000000
-18.861400 0.000000
-18.821500 0.000000
-18.781600 0.000000
-18.741700 0.000000
-18.701800 0.000000
-18.661800 0.000000
-18.621900 0.000000
-18.582000 0.000000
-18.542100 0.000000
-18.502100 0.000000
-18.462200 0.000000
-18.422300 0.000000
-18.382400 0.000000
-18.342400 0.000000
-18.302500 0.000000
-18.262600 0.000000
-18.222700 0.000000
-18.182800 0.000000
-18.142800 0.000000
-18.102900 0.000000
-18.063000 0.000000
-18.023100 0.000000
-17.983100 0.000000
-17.943200 0.000000
-17.903300 0.000000
-17.863400 0.000000
-17.823500 0.000000
-17.783500 0.000000
-17.743600 0.000000
-17.703700 0.000000
-17.663800 0.000000
-17.623800 0.000000
-17.583900 0.000000
-17.544000 0.000000
-17.504100 0.000000
-17.464100 0.000000
-17.424200 0.000000
-17.384300 0.000000
-17.344400 0.000000
-17.304500 0.000000
-17.264500 0.000000
-17.224600 0.000000
-17.184700 0.000000
-17.144800 0.000000
-17.104800 0.000000
-17.064900 0.000000
-17.025000 0.000000
-16.985100 0.000000
-16.945200 0.000000
-16.905200 0.000000
-16.865300 0.000000
-16.825400 0.000000
-16.785500 0.000000
-16.745500 0.000000
-16.705600 0.000000
-16.665700 0.000000
-16.625800 0.000000
-16.585800 0.000000
-16.545900 0.000000
-16.506000 0.000000
-16.466100 0.000000
-16.426200 0.000000
-16.386200 0.000000
-16.346300 0.000000
-16.306400 0.000000
-16.266500 0.000000
-16.226500 0.000000
-16.186600 0.000000
-16.146700 0.000000
-16.106800 0.000000
-16.066900 0.000000
-16.026900 0.000000
-15.987000 0.000000
-15.947100 0.000000
-15.907200 0.000000
-15.867200 0.000000
-15.827300 0.000000
-15.787400 0.000000
-15.747500 0.000000
-15.707500 0.000000
-15.667600 0.000000
-15.627700 0.000000
-15.587800 0.000000
-15.547900 0.000000
-15.507900 0.000000
-15.468000 0.000000
-15.428100 0.000000
-15.388200 0.000000
-15.348200 0.000000
-15.308300 0.000000
-15.268400 0.000000
-15.228500 0.000000
-15.188500 0.000000
-15.148600 0.000000
-15.108700 0.000000
-15.068800 0.000000
-15.028900 0.000000
-14.988900 0.000000
-14.949000 0.000000
-14.909100 0.000000
-14.869200 0.000000
-14.829200 0.000000
-14.789300 0.000000
-14.749400 0.000000
-14.709500 0.000000
-14.669600 0.000000
-14.629600 0.000000
-14.589700 0.000000
-14.549800 0.000000
-14.509900 0.000000
-14.469900 0.000000
-14.430000 0.000000
-14.390100 0.000000
-14.350200 0.000000
-14.310200 0.000000
-14.270300 0.000000
-14.230400 0.000000
-14.190500 0.000000
-14.150600 0.000000
-14.110600 0.000000
-14.070700 0.000000
-14.030800 0.000000
-13.990900 0.000000
-13.950900 0.000000
-13.911000 0.000000
-13.871100 0.000000
-13.831200 0.000000
-13.791300 0.000000
-13.751300 0.000000
-13.711400 0.000000
-13.671500 0.000000
-13.631600 0.000000
-13.591600 0.000000
-13.551700 0.000000
-13.511800 0.000000
-13.471900 0.000000
-13.431900 0.000000
-13.392000 0.000000
-13.352100 0.000000
-13.312200 0.000000
-13.272300 0.000000
-13.232300 0.000000
-13.192400 0.000000
-13.152500 0.000000
-13.112600 0.000000
-13.072600 0.000000
-13.032700 0.000000
-12.992800 0.000000
-12.952900 0.000000
-12.913000 0.000000
-12.873000 0.000000
-12.833100 0.000000
-12.793200 0.000000
-12.753300 0.000000
-12.713300 0.000000
-12.673400 0.000000
-12.633500 0.000000
-12.593600 0.000000
-12.553600 0.000000
-12.513700 0.000000
-12.473800 0.000000
-12.433900 0.000000
-12.394000 0.000000
-12.354000 0.000000
-12.314100 0.000000
-12.274200 0.000000
-12.234300 0.000000
-12.194300 0.000000
-12.154400 0.000000
-12.114500 0.000000
-12.074600 0.000000
-12.034700 0.000000
-11.994700 0.000000
-11.954800 0.000000
-11.914900 0.000000
-11.875000 0.000000
-11.835000 0.000000
-11.795100 0.000000
-11.755200 0.000000
-11.715300 0.000000
-11.675300 0.000000
-11.635400 0.000000
-11.595500 0.000000
-11.555600 0.000000
-11.515700 0.000000
-11.475700 0.000000
-11.435800 0.000000
-11.395900 0.000000
-11.356000 0.000000
-11.316000 0.000000
-11.276100 0.000000
-11.236200 0.000000
-11.196300 0.000000
-11.156300 0.000000
-11.116400 0.000000
-11.076500 0.000000
-11.036600 0.000000
-10.996700 0.000000
-10.956700 0.000000
-10.916800 0.000000
-10.876900 0.000000
-10.837000 0.000000
-10.797000 0.000000
-10.757100 0.000000
-10.717200 0.000000
-10.677300 0.000000
-10.637400 0.000000
-10.597400 0.000000
-10.557500 0.000000
-10.517600 0.000000
-10.477700 0.000000
-10.437700 0.000000
-10.397800 0.000000
-10.357900 0.000000
-10.318000 0.000000
-10.278000 0.000000
-10.238100 0.000000
-10.198200 0.000000
-10.158300 0.000000
-10.118400 0.000000
-10.078400 0.000000
-10.038500 0.000000
-9.998600 0.000000
-9.958700 0.000000
-9.918700 0.000000
-9.878800 0.000000
-9.838900 0.000000
-9.799000 0.000000
-9.759100 0.000000
-9.719100 0.000000
-9.679200 0.000000
-9.639300 0.000000
-9.599400 0.000000
-9.559400 0.000000
-9.519500 0.000000
-9.479600 0.000000
-9.439700 0.000000
-9.399700 0.000000
-9.359800 0.000000
-9.319900 0.000000
-9.280000 0.000000
-9.240100 0.000000
-9.200100 0.000000
-9.160200 0.000000
-9.120300 0.000000
-9.080400 0.000000
-9.040400 0.000000
-9.000500 0.000000
-8.960600 0.000000
-8.920700 0.000000
-8.880800 0.000000
-8.840800 0.000000
-8.800900 0.000000
-8.761000 0.000000
-8.721100 0.000000
-8.681100 0.000000
-8.641200 0.000000
-8.601300 0.000000
-8.561400 0.000000
-8.521400 0.000000
-8.481500 0.000000
-8.441600 0.000000
-8.401700 0.000000
-8.361800 0.000000
-8.321800 0.000000
-8.281900 0.000000
-8.242000 0.000000
-8.202100 0.000000
-8.162100 0.000000
-8.122200 0.000000
-8.082300 0.000000
-8.042400 0.000000
-8.002500 0.000000
-7.962500 0.000000
-7.922600 0.000000
-7.882700 0.000000
-7.842800 0.000000
-7.802800 0.000000
-7.762900 0.000000
-7.723000 0.000000
-7.683100 0.000000
-7.643100 0.000000
-7.603200 0.000000
-7.563300 0.000000
-7.523400 0.000000
-7.483500 0.000000
-7.443500 0.000000
-7.403600 0.000000
-7.363700 0.000000
-7.323800 0.000000
-7.283800 0.000000
-7.243900 0.000000
-7.204000 0.000000
-7.164100 0.000000
-7.124100 0.000000
-7.084200 0.000000
-7.044300 0.323100
-7.004400 5.810200
-6.964500 5.900500
-6.924500 10.047900
-6.884600 12.152900
-6.844700 21.178900
-6.804800 20.125900
-6.764800 21.145900
-6.724900 38.370000
-6.685000 54.939000
-6.645100 8.268300
-6.605200 16.513200
-6.565200 29.170900
-6.525300 35.797600
-6.485400 26.792000
-6.445500 29.398100
-6.405500 28.479000
-6.365600 20.871400
-6.325700 10.963700
-6.285800 10.278200
-6.245800 2.843300
-6.205900 0.000000
-6.166000 0.000000
-6.126100 0.000000
-6.086200 0.000000
-6.046200 0.000000
-6.006300 0.000000
-5.966400 0.000000
-5.926500 0.000000
-5.886500 0.000000
-5.846600 0.000000
-5.806700 0.000000
-5.766800 0.000000
-5.726900 0.000000
-5.686900 0.000000
-5.647000 0.000000
-5.607100 0.000000
-5.567200 0.000000
-5.527200 0.000000
-5.487300 0.000000
-5.447400 0.000000
-5.407500 0.000000
-5.367500 0.000000
-5.327600 0.000000
-5.287700 0.000000
-5.247800 0.000000
-5.207900 0.000000
-5.167900 0.000000
-5.128000 0.000000
-5.088100 0.000000
-5.048200 0.000000
-5.008200 0.000000
-4.968300 0.000000
-4.928400 0.000000
-4.888500 0.000000
-4.848600 0.000000
-4.808600 0.000000
-4.768700 0.000000
-4.728800 0.000000
-4.688900 0.000000
-4.648900 0.000000
-4.609000 0.000000
-4.569100 0.000000
-4.529200 0.000000
-4.489200 0.000000
-4.449300 0.000000
-4.409400 0.000000
-4.369500 0.000000
-4.329600 0.000000
-4.289600 0.000000
-4.249700 0.000000
-4.209800 0.000000
-4.169900 0.000000
-4.129900 0.000000
-4.090000 0.000000
-4.050100 0.000000
-4.010200 0.000000
-3.970300 0.000000
-3.930300 0.000000
-3.890400 0.000000
-3.850500 0.000000
-3.810600 0.000000
-3.770600 0.000000
-3.730700 0.000000
-3.690800 0.000000
-3.650900 0.000000
-3.610900 0.000000
-3.571000 0.000000
-3.531100 0.000000
-3.491200 0.000000
-3.451300 0.000000
-3.411300 0.000000
-3.371400 0.000000
-3.331500 0.000000
-3.291600 0.000000
-3.251600 0.000000
-3.211700 0.000000
-3.171800 0.000000
-3.131900 0.000000
-3.091900 0.000000
-3.052000 0.000000
-3.012100 0.000000
-2.972200 0.000000
-2.932300 0.000000
-2.892300 0.000000
-2.852400 0.000000
-2.812500 0.000000
-2.772600 0.000000
-2.732600 0.000000
-2.692700 0.000000
-2.652800 0.000000
-2.612900 0.000000
-2.573000 0.000000
-2.533000 0.000000
-2.493100 0.000000
-2.453200 0.000000
-2.413300 0.000000
-2.373300 0.000000
-2.333400 0.000000
-2.293500 0.000000
-2.253600 0.000000
-2.213600 0.000000
-2.173700 0.000000
-2.133800 0.000000
-2.093900 0.000000
-2.054000 0.000000
-2.014000 0.000000
-1.974100 0.000000
-1.934200 0.000000
-1.894300 0.002600
-1.854300 0.020400
-1.814400 0.046600
-1.774500 0.079200
-1.734600 0.116500
-1.694700 0.112200
-1.654700 0.119300
-1.614800 0.129100
-1.574900 0.141500
-1.535000 0.152700
-1.495000 0.161000
-1.455100 0.165900
-1.415200 0.172600
-1.375300 0.181800
-1.335300 0.197800
-1.295400 0.209200
-1.255500 0.213600
-1.215600 0.217700
-1.175700 0.221700
-1.135700 0.226400
-1.095800 0.232000
-1.055900 0.237800
-1.016000 0.243400
-0.976000 0.249900
-0.936100 0.257200
-0.896200 0.265300
-0.856300 0.273500
-0.816400 0.282100
-0.776400 0.290500
-0.736500 0.301100
-0.696600 0.315000
-0.656700 0.327600
-0.616700 0.336800
-0.576800 0.338700
-0.536900 0.323900
-0.497000 0.324900
-0.457000 0.325700
-0.417100 0.326400
-0.377200 0.326800
-0.337300 0.326600
-0.297400 0.325500
-0.257400 0.325800
-0.217500 0.325300
-0.177600 0.323800
-0.137700 0.321900
-0.097700 0.320800
-0.057800 0.320300
-0.017900 0.322900
0.022000 0.330900
0.061900 0.343300
0.101900 0.357000
0.141800 0.371300
0.181700 0.370700
0.221600 0.376800
0.261600 0.383200
0.301500 0.389300
0.341400 0.395700
0.381300 0.401900
0.421300 0.407300
0.461200 0.412200
0.501100 0.416600
0.541000 0.422700
0.580900 0.428300
0.620900 0.433500
0.660800 0.438600
0.700700 0.444600
0.740600 0.453700
0.780600 0.463600
0.820500 0.476700
0.860400 0.492200
0.900300 0.505400
0.940300 0.507100
0.980200 0.494400
1.020100 0.497200
1.060000 0.499800
1.099900 0.502000
1.139900 0.504100
1.179800 0.506000
1.219700 0.507200
1.259600 0.507400
1.299600 0.505000
1.339500 0.503000
1.379400 0.501200
1.419300 0.500300
1.459200 0.501000
1.499200 0.502100
1.539100 0.503500
1.579000 0.505000
1.618900 0.506300
1.658900 0.507600
1.698800 0.508000
1.738700 0.508500
1.778600 0.508900
1.818600 0.509100
1.858500 0.509200
1.898400 0.508500
1.938300 0.507200
1.978200 0.508100
2.018200 0.509100
2.058100 0.510100
2.098000 0.511300
2.137900 0.512900
2.177900 0.514700
2.217800 0.516500
2.257700 0.518500
2.297600 0.520500
2.337500 0.522400
2.377500 0.524300
2.417400 0.526300
2.457300 0.528500
2.497200 0.530700
2.537200 0.533000
2.577100 0.535500
2.617000 0.538100
2.656900 0.540600
2.696900 0.543200
2.736800 0.545500
2.776700 0.548900
2.816600 0.570500
2.856500 0.582000
2.896500 0.592100
2.936400 0.603800
2.976300 0.608300
3.016200 0.607300
3.056200 0.610600
3.096100 0.616200
3.136000 0.628000
3.175900 0.646700
3.215800 0.658700
3.255800 0.663400
3.295700 0.669500
3.335600 0.729400
3.375500 0.780600
3.415500 0.810900
3.455400 0.830600
3.495300 0.811300
3.535200 0.758800
3.575200 0.707200
3.615100 0.677800
3.655000 0.689400
3.694900 0.687300
3.734800 0.693200
3.774800 0.695900
3.814700 0.698400
3.854600 0.718900
3.894500 0.652600
3.934500 0.613300
3.974400 0.596200
4.014300 0.601800
4.054200 0.627600
4.094100 0.678600
4.134100 0.754300
4.174000 0.792400
4.213900 0.807400
4.253800 0.734700
4.293800 0.674300
4.333700 0.635600
4.373600 0.599300
4.413500 0.568500
4.453500 0.502600
4.493400 0.481600
4.533300 0.471100
4.573200 0.446800
4.613100 0.417000
4.653100 0.411700
4.693000 0.361000
4.732900 0.424900
4.772800 0.692600
4.812800 0.689700
4.852700 0.821600
4.892600 1.009400
4.932500 1.023700
4.972500 1.071700
5.012400 0.918000
5.052300 0.746900
5.092200 0.622800
5.132100 0.631000
5.172100 0.675500
5.212000 0.751900
5.251900 0.927800
5.291800 0.984500
5.331800 1.088800
5.371700 1.296000
5.411600 1.541700
5.451500 1.462400
5.491400 1.519500
5.531400 1.644200
5.571300 1.679100
5.611200 1.681900
5.651100 1.631100
5.691100 1.554900
5.731000 1.526000
5.770900 1.674600
5.810800 1.505100
5.850800 1.796800
5.890700 2.292700
5.930600 3.673500
5.970500 2.075200
6.010400 2.248500
6.050400 2.439900
6.090300 2.448300
6.130200 3.154500
6.170100 2.666000
6.210100 2.562700
6.250000 2.671800
6.289900 2.912100
6.329800 2.080400
6.369700 2.034900
6.409700 2.257500
6.449600 2.193900
6.489500 2.285500
6.529400 1.855400
6.569400 1.724600
6.609300 1.765200
6.649200 1.850700
6.689100 2.036500
6.729100 2.226300
6.769000 2.185800
6.808900 2.367700
6.848800 1.777400
6.888700 1.701600
6.928700 2.407600
6.968600 3.287000
7.008500 4.523400
7.048400 3.325000
7.088400 3.442800
7.128300 3.015900
7.168200 3.436800
7.208100 1.315500
7.248000 1.127800
7.288000 2.806700
7.327900 3.393000
7.367800 1.557400
7.407700 1.368000
7.447700 1.311300
7.487600 1.087900
7.527500 1.000400
7.567400 1.076600
7.607400 1.241100
7.647300 1.573800
7.687200 1.693700
7.727100 1.783000
7.767000 1.887600
7.807000 2.171600
7.846900 2.220300
7.886800 1.916000
7.926700 1.470100
7.966700 1.085400
8.006600 1.137800
8.046500 1.167600
8.086400 1.926000
8.126300 2.644300
8.166300 1.990700
8.206200 1.701800
8.246100 1.487800
8.286000 1.339500
8.326000 1.167300
8.365900 1.041500
8.405800 0.948300
8.445700 0.926000
8.485700 0.934400
8.525600 1.061300
8.565500 1.132000
8.605400 1.185700
8.645300 1.218700
8.685300 1.158800
8.725200 1.191200
8.765100 1.189700
8.805000 1.158100
8.845000 1.111100
8.884900 1.054400
8.924800 1.000600
8.964700 0.973800
9.004700 0.934200
9.044600 0.907700
9.084500 0.934500
9.124400 0.999300
9.164300 1.080200
9.204300 1.182500
9.244200 1.253900
9.284100 1.262500
9.324000 1.234300
9.364000 1.201000
9.403900 1.223400
9.443800 1.372200
9.483700 1.035500
9.523600 0.985200
9.563600 0.944300
9.603500 0.878200
9.643400 0.838300
9.683300 0.792600
9.723300 0.742300
9.763200 0.683900
9.803100 0.625400
9.843000 0.574900
9.883000 0.537000
9.922900 0.515200
9.962800 0.516900
10.002700 0.531700
10.042600 0.545300
10.082600 0.566400
10.122500 0.596200
10.162400 0.646600
10.202300 0.629800
10.242300 0.641900
10.282200 0.659800
10.322100 0.683300
10.362000 0.755600
10.401900 0.781200
10.441900 0.796800
10.481800 0.804100
10.521700 0.856200
10.561600 0.913700
10.601600 0.914300
10.641500 0.961900
10.681400 0.990100
10.721300 1.009500
10.761300 1.009000
10.801200 1.018700
10.841100 1.058500
10.881000 1.043100
10.920900 1.016600
10.960900 0.995800
11.000800 0.987400
11.040700 0.963000
11.080600 0.946000
11.120600 0.948200
11.160500 0.958400
11.200400 0.999000
11.240300 0.977300
11.280200 0.969000
11.320200 0.976500
11.360100 0.980800
11.400000 0.978900
11.439900 0.973900
11.479900 0.971500
11.519800 0.951400
11.559700 0.927100
11.599600 0.915100
11.639600 0.915300
11.679500 0.923100
11.719400 0.943500
11.759300 0.972000
11.799200 1.008600
11.839200 1.055700
11.879100 1.103400
11.919000 1.160700
11.958900 1.230600
11.998900 1.243300
12.038800 1.211100
12.078700 1.198800
12.118600 1.190200
12.158500 1.190300
12.198500 1.187600
12.238400 1.185700
12.278300 1.228100
12.318200 1.282900
12.358200 1.207700
12.398100 1.124200
12.438000 1.034800
12.477900 0.983200
12.517900 0.963500
12.557800 0.937200
12.597700 0.938300
12.637600 1.005800
12.677500 1.090400
12.717500 1.150600
12.757400 1.176600
12.797300 1.163900
12.837200 1.111800
12.877200 1.083300
12.917100 1.083700
12.957000 1.105100
12.996900 1.128900
13.036900 1.171900
13.076800 1.210300
13.116700 1.215600
13.156600 1.208400
13.196500 1.171100
13.236500 1.094800
13.276400 1.026100
13.316300 0.966600
13.356200 0.929000
13.396200 0.912800
13.436100 0.903200
13.476000 0.897100
13.515900 0.895100
13.555800 0.914700
13.595800 0.940600
13.635700 0.961000
13.675600 0.974300
13.715500 0.973000
13.755500 0.971700
13.795400 0.973200
13.835300 0.973400
13.875200 0.974400
13.915200 0.972700
13.955100 0.968400
13.995000 0.961900
14.034900 0.957100
14.074800 0.953700
14.114800 0.950200
14.154700 0.945000
14.194600 0.942200
14.234500 0.937500
14.274500 0.928400
14.314400 0.916500
14.354300 0.912800
14.394200 0.915200
14.434100 0.932400
14.474100 0.969700
14.514000 1.022100
14.553900 1.098600
14.593800 1.145400
14.633800 1.107600
14.673700 1.086600
14.713600 1.094400
14.753500 1.108000
14.793500 1.139800
14.833400 1.175500
14.873300 1.191100
14.913200 1.189900
14.953100 1.196800
14.993100 1.206000
15.033000 1.215300
15.072900 1.248700
15.112800 1.275400
15.152800 1.281800
15.192700 1.286100
15.232600 1.283700
15.272500 1.269500
15.312400 1.234700
15.352400 1.199800
15.392300 1.176300
15.432200 1.160300
15.472100 1.141300
15.512100 1.127300
15.552000 1.115000
15.591900 1.111000
15.631800 1.116200
15.671800 1.120200
15.711700 1.127100
15.751600 1.109700
15.791500 1.091200
15.831400 1.082800
15.871400 1.082200
15.911300 1.082300
15.951200 1.077600
15.991100 1.070900
16.031100 1.078100
16.071000 1.100700
16.110900 1.143100
16.150800 1.165600
16.190700 1.168700
16.230700 1.121100
16.270600 1.111800
16.310500 1.102700
16.350400 1.096200
16.390400 1.095300
16.430300 1.092200
16.470200 1.087900
16.510100 1.086900
16.550100 1.072000
16.590000 1.028700
16.629900 1.005900
16.669800 0.988200
16.709700 0.974400
16.749700 0.960100
16.789600 0.945800
16.829500 0.930700
16.869400 0.914700
16.909400 0.911900
16.949300 0.889200
16.989200 0.863500
17.029100 0.838400
17.069100 0.825300
17.109000 0.819700
17.148900 0.825300
17.188800 0.844100
17.228700 0.870800
17.268700 0.881300
17.308600 0.885500
17.348500 0.888900
17.388400 0.871900
17.428400 0.875200
17.468300 0.883100
17.508200 0.891600
17.548100 0.927300
17.588000 2.290500
17.628000 1.192900
17.667900 1.031000
17.707800 1.003300
17.747700 1.012500
17.787700 1.029500
17.827600 1.053200
17.867500 1.079800
17.907400 1.126800
17.947400 1.148000
17.987300 1.147200
18.027200 1.149000
18.067100 1.152900
18.107000 1.156100
18.147000 1.158800
18.186900 1.196400
18.226800 1.317700
18.266700 1.269900
18.306700 1.281300
18.346600 1.297900
18.386500 1.315900
18.426400 1.335000
18.466300 1.375000
18.506300 1.384600
18.546200 1.366700
18.586100 1.366200
18.626000 1.355300
18.666000 1.341100
18.705900 1.310300
18.745800 1.273900
18.785700 1.251900
18.825700 1.228400
18.865600 1.209000
18.905500 1.194100
18.945400 1.180800
18.985300 1.168200
19.025300 1.197700
19.065200 1.180500
19.105100 1.204000
19.145000 1.222800
19.185000 1.266500
19.224900 1.291200
19.264800 1.323000
19.304700 1.366900
19.344600 1.361800
19.384600 1.318300
19.424500 1.324900
19.464400 1.354600
19.504300 1.358700
19.544300 1.364100
19.584200 1.393200
19.624100 1.483500
19.664000 1.434100
19.704000 1.483600
19.743900 1.584300
19.783800 1.613500
19.823700 1.683700
19.863600 1.712900
19.903600 1.713900
19.943500 1.614900
19.983400 1.564900
20.023300 1.562800
20.063300 1.590600
20.103200 1.658900
20.143100 1.711400
20.183000 1.761200
20.222900 1.821200
20.262900 1.849400
20.302800 1.842700
20.342700 1.721200
20.382600 1.695600
20.422600 1.671800
20.462500 1.647300
20.502400 1.621400
20.542300 1.648500
20.582300 1.733600
20.622200 1.677200
20.662100 1.639000
20.702000 1.608300
20.741900 1.653700
20.781900 1.490600
20.821800 1.348700
20.861700 1.339500
20.901600 1.357100
20.941600 1.380200
20.981500 1.380800
21.021400 1.370100
21.061300 1.337500
21.101300 1.298700
21.141200 1.263300
21.181100 1.225600
21.221000 1.193300
21.260900 1.163300
21.300900 1.153300
21.340800 1.164200
21.380700 1.162900
21.420600 1.168500
21.460600 1.187000
21.500500 1.204900
21.540400 1.175500
21.580300 1.184400
21.620200 1.209500
21.660200 1.256000
21.700100 1.334900
21.740000 1.431400
21.779900 1.431900
21.819900 1.342000
21.859800 1.261400
21.899700 1.229500
21.939600 1.203400
21.979600 1.178300
22.019500 1.183900
22.059400 1.192700
22.099300 1.202900
22.139200 1.228700
22.179200 1.259200
22.219100 1.294900
22.259000 1.346900
22.298900 1.401800
22.338900 1.301800
22.378800 1.270100
22.418700 1.307800
22.458600 1.355600
22.498500 1.400000
22.538500 1.340900
22.578400 1.281400
22.618300 1.208300
22.658200 1.145700
22.698200 1.098500
22.738100 1.069600
22.778000 1.052100
22.817900 1.037600
22.857900 1.052400
22.897800 1.027900
22.937700 1.012200
22.977600 1.029800
23.017500 1.047800
23.057500 1.011100
23.097400 1.018500
23.137300 1.035800
23.177200 1.073800
23.217200 1.123400
23.257100 1.180500
23.297000 1.242500
23.336900 1.316800
23.376800 1.445500
23.416800 1.526100
23.456700 1.546900
23.496600 1.522800
23.536500 1.532700
23.576500 1.491000
23.616400 1.482900
23.656300 1.521100
23.696200 1.613700
23.736200 1.686400
23.776100 1.593500
23.816000 1.512300
23.855900 1.549100
23.895800 1.599700
23.935800 1.799500
23.975700 1.963900
24.015600 2.100500
24.055500 2.103500
24.095500 2.038900
24.135400 1.915700
24.175300 1.753300
24.215200 1.772900
24.255100 1.754200
24.295100 1.660900
24.335000 1.595900
24.374900 1.591700
24.414800 1.616700
24.454800 1.657800
24.494700 1.703900
24.534600 1.882400
24.574500 1.969400
24.614500 1.896900
24.654400 1.673600
24.694300 1.517300
24.734200 1.347600
24.774100 1.257300
24.814100 1.236200
24.854000 1.259100
24.893900 1.326900
24.933800 1.334400
24.973800 1.251600
25.013700 1.235500
25.053600 1.215800
25.093500 1.236900
25.133500 1.232000
25.173400 1.310000
25.213300 1.342800
25.253200 1.318800
25.293100 1.246600
25.333100 1.187900
25.373000 1.150300
25.412900 1.146100
25.452800 1.271500
25.492800 1.537600
25.532700 1.399200
25.572600 1.299800
25.612500 1.196500
25.652400 1.218900
25.692400 1.248000
25.732300 1.271400
25.772200 1.300300
25.812100 1.286500
25.852100 1.297200
25.892000 1.276800
25.931900 1.224800
25.971800 1.192100
26.011800 1.170400
26.051700 1.211100
26.091600 1.330300
26.131500 1.446200
26.171400 1.524500
26.211400 1.608100
26.251300 1.816700
26.291200 1.889200
26.331100 1.823900
26.371100 1.852900
26.411000 1.840100
26.450900 2.037000
26.490800 2.047600
26.530700 2.094600
26.570700 2.156700
26.610600 2.246100
26.650500 2.196300
26.690400 1.980700
26.730400 1.886200
26.770300 1.820000
26.810200 1.750300
26.850100 1.738200
26.890100 1.749500
26.930000 1.773600
26.969900 1.806800
27.009800 1.789900
27.049700 1.796700
27.089700 1.810000
27.129600 1.833500
27.169500 1.848200
27.209400 1.867700
27.249400 1.893000
27.289300 1.938200
27.329200 1.907800
27.369100 1.783500
27.409000 1.747900
27.449000 1.757300
27.488900 1.771500
27.528800 1.763000
27.568700 1.697200
27.608700 1.701900
27.648600 1.669400
27.688500 1.627600
27.728400 1.586800
27.768400 1.565100
27.808300 1.543200
27.848200 1.524600
27.888100 1.560000
27.928000 1.612000
27.968000 1.759200
28.007900 1.814800
28.047800 1.822300
28.087700 1.622600
28.127700 1.567800
28.167600 1.532600
28.207500 1.505700
28.247400 1.490000
28.287300 1.487600
28.327300 1.490300
28.367200 1.486400
28.407100 1.487300
28.447000 1.505100
28.487000 1.547900
28.526900 1.684300
28.566800 1.702800
28.606700 1.693700
28.646700 1.801100
28.686600 1.867700
28.726500 1.871400
28.766400 1.882900
28.806300 1.930600
28.846300 1.899500
28.886200 1.849500
28.926100 1.776500
28.966000 1.768300
29.006000 1.859600
29.045900 1.927600
29.085800 1.939800
29.125700 1.977400
29.165700 2.054600
29.205600 2.128100
29.245500 2.143200
29.285400 1.977600
29.325300 1.829000
29.365300 1.761800
29.405200 1.732300
29.445100 1.671000
29.485000 1.725100
29.525000 1.683500
29.564900 1.714800
29.604800 1.820600
29.644700 1.853100
29.684600 1.873000
29.724600 1.857900
29.764500 1.872300
29.804400 1.926700
29.844300 1.912900
29.884300 1.824400
29.924200 1.772900
29.964100 1.742200
30.004000 1.790000
30.044000 1.841800
30.083900 1.838300
30.123800 1.841700
30.163700 1.837700
30.203600 1.817100
30.243600 1.782500
30.283500 1.754000
30.323400 1.700200
30.363300 1.665900
30.403300 1.631100
30.443200 1.578100
30.483100 1.596800
30.523000 1.651500
30.562900 1.641700
30.602900 1.619000
30.642800 1.614600
30.682700 1.655500
30.722600 1.730300
30.762600 1.777500
30.802500 1.765900
30.842400 1.727100
30.882300 1.734300
30.922300 1.700400
30.962200 1.692600
31.002100 1.690200
31.042000 1.685900
31.081900 1.684300
31.121900 1.640200
31.161800 1.620600
31.201700 1.599500
31.241600 1.633600
31.281600 1.670700
31.321500 1.734600
31.361400 1.798100
31.401300 1.800600
31.441200 1.767500
31.481200 1.723300
31.521100 1.691200
31.561000 1.671800
31.600900 1.666500
31.640900 1.674000
31.680800 1.671800
31.720700 1.667700
31.760600 1.672000
31.800600 1.687500
31.840500 1.712300
31.880400 1.835600
31.920300 1.841900
31.960200 1.816500
32.000200 1.784000
32.040100 1.753800
32.080000 1.707300
32.119900 1.662800
32.159900 1.634900
32.199800 1.628700
32.239700 1.634300
32.279600 1.643200
32.319500 1.657800
32.359500 1.640300
32.399400 1.630400
32.439300 1.607900
32.479200 1.596000
32.519200 1.588800
32.559100 1.603300
32.599000 1.616100
32.638900 1.610000
32.678900 1.629400
32.718800 1.634400
32.758700 1.681400
32.798600 1.784600
32.838500 1.818100
32.878500 1.745000
32.918400 1.664900
32.958300 1.586600
32.998200 1.500400
33.038200 1.464100
33.078100 1.450900
33.118000 1.461500
33.157900 1.505300
33.197900 1.456700
33.237800 1.462200
33.277700 1.435900
33.317600 1.441600
33.357500 1.437500
33.397500 1.418800
33.437400 1.400100
33.477300 1.380600
33.517200 1.365100
33.557200 1.362100
33.597100 1.355500
33.637000 1.397500
33.676900 1.387900
33.716800 1.306600
33.756800 1.258300
33.796700 1.222500
33.836600 1.220600
33.876500 1.244600
33.916500 1.271300
33.956400 1.262300
33.996300 1.270500
34.036200 1.257600
34.076200 1.246700
34.116100 1.230800
34.156000 1.242900
34.195900 1.266300
34.235800 1.282500
34.275800 1.296100
34.315700 1.312300
34.355600 1.312100
34.395500 1.305500
34.435500 1.294200
34.475400 1.343700
34.515300 1.321300
34.555200 1.271200
34.595100 1.261600
34.635100 1.265800
34.675000 1.269700
34.714900 1.266400
34.754800 1.238400
34.794800 1.240300
34.834700 1.219200
34.874600 1.256500
34.914500 1.258000
34.954500 1.240900
34.994400 1.192900
35.034300 1.140700
35.074200 1.079600
35.114100 1.016400
35.154100 0.960800
35.194000 0.960800
35.233900 0.982700
35.273800 0.969800
35.313800 0.999300
35.353700 1.106000
35.393600 1.342800
35.433500 1.370800
35.473400 1.365300
35.513400 0.924800
35.553300 0.740800
35.593200 0.622000
35.633100 0.563200
35.673100 0.606300
35.713000 0.624400
35.752900 0.578600
35.792800 0.476100
35.832800 0.373600
35.872700 0.285500
35.912600 0.201000
35.952500 0.133800
35.992400 0.087800
36.032400 0.049800
36.072300 0.043500
36.112200 0.038800
36.152100 0.035000
36.192100 0.032400
36.232000 0.031200
36.271900 0.028200
36.311800 0.022600
36.351700 0.017500
36.391700 0.013100
36.431600 0.009400
36.471500 0.006300
36.511400 0.003800
36.551400 0.001900
36.591300 0.000700
36.631200 0.000100
36.671100 0.000000
36.711100 0.000000
36.751000 0.000000
36.790900 0.000000
36.830800 0.000000
36.870700 0.000000
36.910700 0.000000
36.950600 0.000000
36.990500 0.000000
37.030400 0.000000
37.070400 0.000000
37.110300 0.000000
37.150200 0.000000
37.190100 0.000000
37.230100 0.000000
37.270000 0.000000
37.309900 0.000000
37.349800 0.000000
37.389700 0.000000
37.429700 0.000000
37.469600 0.000000
37.509500 0.000000
37.549400 0.000000
37.589400 0.000000
37.629300 0.000000
37.669200 0.000000
37.709100 0.000000
37.749000 0.000000
37.789000 0.000000
37.828900 0.000000
37.868800 0.000000
37.908700 0.000000
37.948700 0.000000
37.988600 0.000000
38.028500 0.000000
38.068400 0.000000
38.108400 0.000000
38.148300 0.000000
38.188200 0.000000
38.228100 0.000000
38.268000 0.000000
38.308000 0.000000
38.347900 0.000000
38.387800 0.000000
38.427700 0.000000
38.467700 0.000000
38.507600 0.000000
38.547500 0.000000
38.587400 0.000000
38.627300 0.000000
38.667300 0.000000
38.707200 0.000000
38.747100 0.000000
38.787000 0.000000
38.827000 0.000000
38.866900 0.000000
38.906800 0.000000
38.946700 0.000000
38.986700 0.000000
39.026600 0.000000
39.066500 0.000000
39.106400 0.000000
39.146300 0.000000
39.186300 0.000000
39.226200 0.000000
39.266100 0.000000
39.306000 0.000000
39.346000 0.000000
39.385900 0.000000
39.425800 0.000000
39.465700 0.000000
39.505600 0.000000
39.545600 0.000000
39.585500 0.000000
39.625400 0.000000
39.665300 0.000000
39.705300 0.000000
39.745200 0.000000
39.785100 0.000000
39.825000 0.000000
39.865000 0.000000
39.904900 0.000000
39.944800 0.000000
39.984700 0.000000
40.024600 0.000000
40.064600 0.000000
40.104500 0.000000
40.144400 0.000000
40.184300 0.000000
40.224300 0.000000
40.264200 0.000000
40.304100 0.000000
40.344000 0.000000
e
