set title 'mp-1009654 - Density of States'
set xlabel 'Energy (eV)'
set ylabel 'DOS (states/eV)'
set grid
set xrange [-10:10]
set yrange [0:7.976]
set xzeroaxis lt -1
set terminal png size 800,600
set output 'mp-1009654_dos_gnuplot.png'
plot '-' using 1:2 with lines title 'DOS'
-39.930200 0.000000
-39.893200 0.000000
-39.856300 0.000000
-39.819400 0.000000
-39.782500 0.000000
-39.745600 0.000000
-39.708700 0.000000
-39.671800 0.000000
-39.634800 0.000000
-39.597900 0.000000
-39.561000 0.000000
-39.524100 0.000000
-39.487200 0.000000
-39.450300 0.000000
-39.413400 0.000000
-39.376400 0.000000
-39.339500 0.000000
-39.302600 0.000000
-39.265700 0.000000
-39.228800 0.000000
-39.191900 0.000000
-39.155000 0.000000
-39.118000 0.000000
-39.081100 0.000000
-39.044200 0.000000
-39.007300 0.000000
-38.970400 0.000000
-38.933500 0.000000
-38.896600 0.000000
-38.859600 0.000000
-38.822700 0.000000
-38.785800 0.000000
-38.748900 0.000000
-38.712000 0.000000
-38.675100 0.000000
-38.638200 0.000000
-38.601200 0.000000
-38.564300 0.000000
-38.527400 0.000000
-38.490500 0.000000
-38.453600 0.000000
-38.416700 0.000000
-38.379800 0.000000
-38.342900 0.000000
-38.305900 0.000000
-38.269000 0.000000
-38.232100 0.000000
-38.195200 0.000000
-38.158300 0.000000
-38.121400 0.000000
-38.084500 0.000000
-38.047500 0.000000
-38.010600 0.000000
-37.973700 0.000000
-37.936800 0.000000
-37.899900 0.000000
-37.863000 0.000000
-37.826100 0.000000
-37.789100 0.000000
-37.752200 0.000000
-37.715300 0.000000
-37.678400 0.000000
-37.641500 0.000000
-37.604600 0.000000
-37.567700 0.000000
-37.530700 0.000000
-37.493800 0.000000
-37.456900 0.000000
-37.420000 0.000000
-37.383100 0.000000
-37.346200 0.000000
-37.309300 0.000000
-37.272300 0.000000
-37.235400 0.000000
-37.198500 0.000000
-37.161600 0.000000
-37.124700 0.000000
-37.087800 0.000000
-37.050900 0.000000
-37.013900 0.000000
-36.977000 0.000000
-36.940100 0.000000
-36.903200 0.000000
-36.866300 0.000000
-36.829400 0.000000
-36.792500 0.000000
-36.755500 0.000000
-36.718600 0.000000
-36.681700 0.000000
-36.644800 0.000000
-36.607900 0.000000
-36.571000 209.418700
-36.534100 0.000000
-36.497200 0.000000
-36.460200 0.000000
-36.423300 0.000000
-36.386400 0.000000
-36.349500 0.000000
-36.312600 0.000000
-36.275700 0.000000
-36.238800 0.000000
-36.201800 0.000000
-36.164900 0.000000
-36.128000 0.000000
-36.091100 0.000000
-36.054200 0.000000
-36.017300 0.000000
-35.980400 0.000000
-35.943400 0.000000
-35.906500 0.000000
-35.869600 0.000000
-35.832700 0.000000
-35.795800 0.000000
-35.758900 0.000000
-35.722000 0.000000
-35.685000 0.000000
-35.648100 0.000000
-35.611200 0.000000
-35.574300 0.000000
-35.537400 0.000000
-35.500500 0.000000
-35.463600 0.000000
-35.426600 0.000000
-35.389700 0.000000
-35.352800 0.000000
-35.315900 0.000000
-35.279000 0.000000
-35.242100 0.000000
-35.205200 0.000000
-35.168200 0.000000
-35.131300 0.000000
-35.094400 0.000000
-35.057500 0.000000
-35.020600 0.000000
-34.983700 0.000000
-34.946800 0.000000
-34.909800 0.000000
-34.872900 0.000000
-34.836000 0.000000
-34.799100 0.000000
-34.762200 0.000000
-34.725300 0.000000
-34.688400 0.000000
-34.651400 0.000000
-34.614500 0.000000
-34.577600 0.000000
-34.540700 0.000000
-34.503800 0.000000
-34.466900 0.000000
-34.430000 0.000000
-34.393100 0.000000
-34.356100 0.000000
-34.319200 0.000000
-34.282300 0.000000
-34.245400 0.000000
-34.208500 0.000000
-34.171600 0.000000
-34.134700 0.000000
-34.097700 0.000000
-34.060800 0.000000
-34.023900 0.000000
-33.987000 0.000000
-33.950100 0.000000
-33.913200 0.000000
-33.876300 0.000000
-33.839300 0.000000
-33.802400 0.000000
-33.765500 0.000000
-33.728600 0.000000
-33.691700 0.000000
-33.654800 0.000000
-33.617900 0.000000
-33.580900 0.000000
-33.544000 0.000000
-33.507100 0.000000
-33.470200 0.000000
-33.433300 0.000000
-33.396400 0.000000
-33.359500 0.000000
-33.322500 0.000000
-33.285600 0.000000
-33.248700 0.000000
-33.211800 0.000000
-33.174900 0.000000
-33.138000 0.000000
-33.101100 0.000000
-33.064100 0.000000
-33.027200 0.000000
-32.990300 0.000000
-32.953400 0.000000
-32.916500 0.000000
-32.879600 0.000000
-32.842700 0.000000
-32.805700 0.000000
-32.768800 0.000000
-32.731900 0.000000
-32.695000 0.000000
-32.658100 0.000000
-32.621200 0.000000
-32.584300 0.000000
-32.547400 0.000000
-32.510400 0.000000
-32.473500 0.000000
-32.436600 0.000000
-32.399700 0.000000
-32.362800 0.000000
-32.325900 0.000000
-32.289000 0.000000
-32.252000 0.000000
-32.215100 0.000000
-32.178200 0.000000
-32.141300 0.000000
-32.104400 0.000000
-32.067500 0.000000
-32.030600 0.000000
-31.993600 0.000000
-31.956700 0.000000
-31.919800 0.000000
-31.882900 0.000000
-31.846000 0.000000
-31.809100 0.000000
-31.772200 0.000000
-31.735200 0.000000
-31.698300 0.000000
-31.661400 0.000000
-31.624500 0.000000
-31.587600 0.000000
-31.550700 0.000000
-31.513800 0.000000
-31.476800 0.000000
-31.439900 0.000000
-31.403000 0.000000
-31.366100 0.000000
-31.329200 0.000000
-31.292300 0.000000
-31.255400 0.000000
-31.218400 0.000000
-31.181500 0.000000
-31.144600 0.000000
-31.107700 0.000000
-31.070800 0.000000
-31.033900 0.000000
-30.997000 0.000000
-30.960000 0.000000
-30.923100 0.000000
-30.886200 0.000000
-30.849300 0.000000
-30.812400 0.000000
-30.775500 0.000000
-30.738600 0.000000
-30.701700 0.000000
-30.664700 0.000000
-30.627800 0.000000
-30.590900 0.000000
-30.554000 0.000000
-30.517100 0.000000
-30.480200 0.000000
-30.443300 0.000000
-30.406300 0.000000
-30.369400 0.000000
-30.332500 0.000000
-30.295600 0.000000
-30.258700 0.000000
-30.221800 0.000000
-30.184900 0.000000
-30.147900 0.000000
-30.111000 0.000000
-30.074100 0.000000
-30.037200 0.000000
-30.000300 0.000000
-29.963400 0.000000
-29.926500 0.000000
-29.889500 0.000000
-29.852600 0.000000
-29.815700 0.000000
-29.778800 0.000000
-29.741900 0.000000
-29.705000 0.000000
-29.668100 0.000000
-29.631100 0.000000
-29.594200 0.000000
-29.557300 0.000000
-29.520400 0.000000
-29.483500 0.000000
-29.446600 0.000000
-29.409700 0.000000
-29.372700 0.000000
-29.335800 0.000000
-29.298900 0.000000
-29.262000 0.000000
-29.225100 0.000000
-29.188200 0.000000
-29.151300 0.000000
-29.114300 0.000000
-29.077400 0.000000
-29.040500 0.000000
-29.003600 0.000000
-28.966700 0.000000
-28.929800 0.000000
-28.892900 0.000000
-28.855900 0.000000
-28.819000 0.000000
-28.782100 0.000000
-28.745200 0.000000
-28.708300 0.000000
-28.671400 0.000000
-28.634500 0.000000
-28.597600 0.000000
-28.560600 0.000000
-28.523700 0.000000
-28.486800 0.000000
-28.449900 0.000000
-28.413000 0.000000
-28.376100 0.000000
-28.339200 0.000000
-28.302200 0.000000
-28.265300 0.000000
-28.228400 0.000000
-28.191500 0.000000
-28.154600 0.000000
-28.117700 0.000000
-28.080800 0.000000
-28.043800 0.000000
-28.006900 0.000000
-27.970000 0.000000
-27.933100 0.000000
-27.896200 0.000000
-27.859300 0.000000
-27.822400 0.000000
-27.785400 0.000000
-27.748500 0.000000
-27.711600 0.000000
-27.674700 0.000000
-27.637800 0.000000
-27.600900 0.000000
-27.564000 0.000000
-27.527000 0.000000
-27.490100 0.000000
-27.453200 0.000000
-27.416300 0.000000
-27.379400 0.000000
-27.342500 0.000000
-27.305600 0.000000
-27.268600 0.000000
-27.231700 0.000000
-27.194800 0.000000
-27.157900 0.000000
-27.121000 0.000000
-27.084100 0.000000
-27.047200 0.000000
-27.010200 0.000000
-26.973300 0.000000
-26.936400 0.000000
-26.899500 0.000000
-26.862600 0.000000
-26.825700 0.000000
-26.788800 0.000000
-26.751900 0.000000
-26.714900 0.000000
-26.678000 0.000000
-26.641100 0.000000
-26.604200 0.000000
-26.567300 0.000000
-26.530400 0.000000
-26.493500 0.000000
-26.456500 0.000000
-26.419600 0.000000
-26.382700 0.000000
-26.345800 0.000000
-26.308900 0.000000
-26.272000 0.000000
-26.235100 0.000000
-26.198100 0.000000
-26.161200 0.000000
-26.124300 0.000000
-26.087400 0.000000
-26.050500 0.000000
-26.013600 0.000000
-25.976700 0.000000
-25.939700 0.000000
-25.902800 0.000000
-25.865900 0.000000
-25.829000 0.000000
-25.792100 0.000000
-25.755200 0.000000
-25.718300 0.000000
-25.681300 0.000000
-25.644400 0.000000
-25.607500 0.000000
-25.570600 0.000000
-25.533700 0.000000
-25.496800 0.000000
-25.459900 0.000000
-25.422900 0.000000
-25.386000 0.000000
-25.349100 0.000000
-25.312200 0.000000
-25.275300 0.000000
-25.238400 0.000000
-25.201500 0.000000
-25.164500 0.000000
-25.127600 0.000000
-25.090700 0.000000
-25.053800 0.000000
-25.016900 0.000000
-24.980000 0.000000
-24.943100 0.000000
-24.906100 0.000000
-24.869200 0.000000
-24.832300 0.000000
-24.795400 0.000000
-24.758500 0.000000
-24.721600 0.000000
-24.684700 0.000000
-24.647800 0.000000
-24.610800 0.000000
-24.573900 0.000000
-24.537000 0.000000
-24.500100 0.000000
-24.463200 0.000000
-24.426300 0.000000
-24.389400 0.000000
-24.352400 0.000000
-24.315500 0.000000
-24.278600 0.000000
-24.241700 0.000000
-24.204800 0.000000
-24.167900 0.000000
-24.131000 0.000000
-24.094000 0.000000
-24.057100 0.000000
-24.020200 0.000000
-23.983300 0.000000
-23.946400 0.000000
-23.909500 0.000000
-23.872600 0.000000
-23.835600 0.000000
-23.798700 0.000000
-23.761800 0.000000
-23.724900 0.000000
-23.688000 0.000000
-23.651100 0.000000
-23.614200 0.000000
-23.577200 0.000000
-23.540300 0.000000
-23.503400 0.000000
-23.466500 0.000000
-23.429600 0.000000
-23.392700 0.000000
-23.355800 0.000000
-23.318800 0.000000
-23.281900 0.000000
-23.245000 0.000000
-23.208100 0.000000
-23.171200 0.000000
-23.134300 0.000000
-23.097400 0.000000
-23.060400 0.000000
-23.023500 0.000000
-22.986600 0.000000
-22.949700 0.000000
-22.912800 0.000000
-22.875900 0.000000
-22.839000 0.000000
-22.802100 0.000000
-22.765100 0.000000
-22.728200 0.000000
-22.691300 0.000000
-22.654400 0.000000
-22.617500 0.000000
-22.580600 0.000000
-22.543700 0.000000
-22.506700 0.000000
-22.469800 0.000000
-22.432900 0.000000
-22.396000 0.000000
-22.359100 0.000000
-22.322200 0.000000
-22.285300 0.000000
-22.248300 0.000000
-22.211400 0.000000
-22.174500 0.000000
-22.137600 0.000000
-22.100700 0.000000
-22.063800 0.000000
-22.026900 0.000000
-21.989900 0.000000
-21.953000 0.000000
-21.916100 0.000000
-21.879200 0.000000
-21.842300 0.000000
-21.805400 0.000000
-21.768500 0.000000
-21.731500 0.000000
-21.694600 0.000000
-21.657700 0.000000
-21.620800 0.000000
-21.583900 0.000000
-21.547000 0.000000
-21.510100 0.000000
-21.473100 0.000000
-21.436200 0.000000
-21.399300 0.000000
-21.362400 0.000000
-21.325500 0.000000
-21.288600 0.000000
-21.251700 0.000000
-21.214700 0.000000
-21.177800 0.000000
-21.140900 0.000000
-21.104000 0.000000
-21.067100 0.000000
-21.030200 0.000000
-20.993300 0.000000
-20.956400 0.000000
-20.919400 0.000000
-20.882500 0.000000
-20.845600 0.000000
-20.808700 0.000000
-20.771800 0.000000
-20.734900 0.000000
-20.698000 0.000000
-20.661000 0.000000
-20.624100 0.000000
-20.587200 0.000000
-20.550300 0.000000
-20.513400 0.000000
-20.476500 0.000000
-20.439600 0.000000
-20.402600 0.000000
-20.365700 0.000000
-20.328800 0.000000
-20.291900 0.000000
-20.255000 0.000000
-20.218100 0.000000
-20.181200 0.000000
-20.144200 0.000000
-20.107300 0.000000
-20.070400 0.000000
-20.033500 0.000000
-19.996600 0.000000
-19.959700 0.000000
-19.922800 0.000000
-19.885800 0.000000
-19.848900 0.000000
-19.812000 0.000000
-19.775100 0.000000
-19.738200 0.000000
-19.701300 0.000000
-19.664400 0.000000
-19.627400 0.000000
-19.590500 0.000000
-19.553600 0.000000
-19.516700 0.000000
-19.479800 0.000000
-19.442900 0.000000
-19.406000 0.000000
-19.369000 0.000000
-19.332100 0.000000
-19.295200 0.000000
-19.258300 0.000000
-19.221400 0.000000
-19.184500 0.000000
-19.147600 0.000000
-19.110600 0.000000
-19.073700 0.000000
-19.036800 0.000000
-18.999900 27.060700
-18.963000 27.066900
-18.926100 138.346600
-18.889200 127.993300
-18.852300 68.148600
-18.815300 245.820700
-18.778400 57.818900
-18.741500 0.000000
-18.704600 0.000000
-18.667700 0.000000
-18.630800 0.000000
-18.593900 0.000000
-18.556900 0.000000
-18.520000 0.000000
-18.483100 0.000000
-18.446200 0.000000
-18.409300 0.000000
-18.372400 0.000000
-18.335500 0.000000
-18.298500 0.000000
-18.261600 0.000000
-18.224700 0.000000
-18.187800 0.000000
-18.150900 0.000000
-18.114000 0.000000
-18.077100 0.000000
-18.040100 0.000000
-18.003200 0.000000
-17.966300 0.000000
-17.929400 0.000000
-17.892500 0.000000
-17.855600 0.000000
-17.818700 0.000000
-17.781700 0.000000
-17.744800 0.000000
-17.707900 91.309100
-17.671000 20.624900
-17.634100 23.004200
-17.597200 66.623200
-17.560300 0.000000
-17.523300 0.000000
-17.486400 0.000000
-17.449500 0.000000
-17.412600 0.000000
-17.375700 0.000000
-17.338800 0.000000
-17.301900 0.000000
-17.264900 0.000000
-17.228000 0.000000
-17.191100 0.000000
-17.154200 0.000000
-17.117300 0.000000
-17.080400 0.000000
-17.043500 0.000000
-17.006600 0.000000
-16.969600 0.000000
-16.932700 0.000000
-16.895800 0.000000
-16.858900 0.000000
-16.822000 0.000000
-16.785100 0.000000
-16.748200 0.000000
-16.711200 0.000000
-16.674300 0.000000
-16.637400 0.000000
-16.600500 0.000000
-16.563600 0.000000
-16.526700 0.000000
-16.489800 0.000000
-16.452800 0.000000
-16.415900 0.000000
-16.379000 0.000000
-16.342100 0.000000
-16.305200 0.000000
-16.268300 0.000000
-16.231400 0.000000
-16.194400 0.000000
-16.157500 0.000000
-16.120600 0.000000
-16.083700 0.000000
-16.046800 0.000000
-16.009900 0.000000
-15.973000 0.000000
-15.936000 0.000000
-15.899100 0.000000
-15.862200 0.000000
-15.825300 0.000000
-15.788400 0.000000
-15.751500 0.000000
-15.714600 0.000000
-15.677600 0.000000
-15.640700 0.000000
-15.603800 0.000000
-15.566900 0.000000
-15.530000 0.000000
-15.493100 0.000000
-15.456200 0.000000
-15.419200 0.000000
-15.382300 0.000000
-15.345400 0.000000
-15.308500 0.000000
-15.271600 0.000000
-15.234700 0.000000
-15.197800 0.000000
-15.160900 0.000000
-15.123900 0.000000
-15.087000 0.000000
-15.050100 0.000000
-15.013200 0.000000
-14.976300 0.000000
-14.939400 0.000000
-14.902500 0.000000
-14.865500 0.000000
-14.828600 0.000000
-14.791700 0.000000
-14.754800 0.000000
-14.717900 0.000000
-14.681000 0.000000
-14.644100 0.000000
-14.607100 0.000000
-14.570200 0.000000
-14.533300 0.000000
-14.496400 0.000000
-14.459500 0.000000
-14.422600 0.000000
-14.385700 0.000000
-14.348700 0.000000
-14.311800 0.000000
-14.274900 0.000000
-14.238000 0.000000
-14.201100 0.000000
-14.164200 0.000000
-14.127300 0.000000
-14.090300 0.000000
-14.053400 0.000000
-14.016500 0.000000
-13.979600 0.000000
-13.942700 0.000000
-13.905800 0.000000
-13.868900 0.000000
-13.831900 0.000000
-13.795000 0.000000
-13.758100 0.000000
-13.721200 0.000000
-13.684300 0.000000
-13.647400 0.000000
-13.610500 0.000000
-13.573500 0.000000
-13.536600 0.000000
-13.499700 0.000000
-13.462800 0.000000
-13.425900 0.000000
-13.389000 0.000000
-13.352100 0.000000
-13.315100 0.000000
-13.278200 0.000000
-13.241300 0.000000
-13.204400 0.000000
-13.167500 0.000000
-13.130600 0.000000
-13.093700 0.000000
-13.056800 0.000000
-13.019800 0.000000
-12.982900 0.000000
-12.946000 0.000000
-12.909100 0.000000
-12.872200 0.000000
-12.835300 0.000000
-12.798400 0.000000
-12.761400 0.000000
-12.724500 0.000000
-12.687600 0.000000
-12.650700 0.000000
-12.613800 0.000000
-12.576900 0.000000
-12.540000 0.000000
-12.503000 0.000000
-12.466100 0.000000
-12.429200 0.000000
-12.392300 0.000000
-12.355400 0.000000
-12.318500 0.000000
-12.281600 0.000000
-12.244600 0.000000
-12.207700 0.000000
-12.170800 0.000000
-12.133900 0.000000
-12.097000 0.000000
-12.060100 0.000000
-12.023200 0.000000
-11.986200 0.000000
-11.949300 0.000000
-11.912400 0.000000
-11.875500 0.000000
-11.838600 0.000000
-11.801700 0.000000
-11.764800 0.000000
-11.727800 0.000000
-11.690900 0.000000
-11.654000 0.000000
-11.617100 0.000000
-11.580200 0.000000
-11.543300 0.000000
-11.506400 0.000000
-11.469400 0.000000
-11.432500 0.000000
-11.395600 0.000000
-11.358700 0.000000
-11.321800 0.000000
-11.284900 0.000000
-11.248000 0.000000
-11.211100 0.000000
-11.174100 0.000000
-11.137200 0.000000
-11.100300 0.000000
-11.063400 0.000000
-11.026500 0.000000
-10.989600 0.000000
-10.952700 0.000000
-10.915700 0.000000
-10.878800 0.000000
-10.841900 0.000000
-10.805000 0.000000
-10.768100 0.000000
-10.731200 0.000000
-10.694300 0.000000
-10.657300 0.000000
-10.620400 0.000000
-10.583500 0.000000
-10.546600 0.000000
-10.509700 0.000000
-10.472800 0.000000
-10.435900 0.000000
-10.398900 0.000000
-10.362000 0.000000
-10.325100 0.000000
-10.288200 0.000000
-10.251300 0.000000
-10.214400 0.000000
-10.177500 0.000000
-10.140500 0.000000
-10.103600 0.000000
-10.066700 0.000000
-10.029800 0.000000
-9.992900 0.000000
-9.956000 0.000000
-9.919100 0.000000
-9.882100 0.000000
-9.845200 0.000000
-9.808300 0.000000
-9.771400 0.000000
-9.734500 0.000000
-9.697600 0.000000
-9.660700 0.000000
-9.623700 0.000000
-9.586800 0.000000
-9.549900 0.000000
-9.513000 0.000000
-9.476100 0.000000
-9.439200 0.000000
-9.402300 0.000000
-9.365400 0.000000
-9.328400 0.000000
-9.291500 0.000000
-9.254600 0.000000
-9.217700 0.000000
-9.180800 0.000000
-9.143900 0.000000
-9.107000 0.000000
-9.070000 0.000000
-9.033100 0.000000
-8.996200 0.000000
-8.959300 0.000000
-8.922400 0.000000
-8.885500 0.000000
-8.848600 0.000000
-8.811600 0.000000
-8.774700 0.000000
-8.737800 0.000000
-8.700900 0.000000
-8.664000 0.000000
-8.627100 0.000000
-8.590200 0.000000
-8.553200 0.000000
-8.516300 0.000000
-8.479400 0.000000
-8.442500 0.000000
-8.405600 0.000000
-8.368700 0.000000
-8.331800 0.000000
-8.294800 0.000000
-8.257900 0.000000
-8.221000 0.000000
-8.184100 0.000000
-8.147200 0.000000
-8.110300 0.000000
-8.073400 0.000000
-8.036400 0.000000
-7.999500 0.000000
-7.962600 0.000000
-7.925700 0.000000
-7.888800 0.000000
-7.851900 0.000000
-7.815000 0.000000
-7.778000 0.000000
-7.741100 0.000000
-7.704200 0.000000
-7.667300 0.000000
-7.630400 0.000000
-7.593500 0.000000
-7.556600 0.000000
-7.519600 0.000000
-7.482700 0.000000
-7.445800 0.000000
-7.408900 0.000000
-7.372000 0.000000
-7.335100 0.000000
-7.298200 0.000000
-7.261300 0.000000
-7.224300 0.000000
-7.187400 0.000000
-7.150500 0.000000
-7.113600 0.000000
-7.076700 0.000000
-7.039800 0.000000
-7.002900 0.000000
-6.965900 0.000000
-6.929000 0.000000
-6.892100 0.000000
-6.855200 0.000000
-6.818300 0.000000
-6.781400 0.000000
-6.744500 0.000000
-6.707500 0.012000
-6.670600 0.116900
-6.633700 0.228700
-6.596800 0.258000
-6.559900 0.311400
-6.523000 0.368100
-6.486100 0.436000
-6.449100 0.499600
-6.412200 0.570300
-6.375300 0.686700
-6.338400 0.682200
-6.301500 0.681500
-6.264600 0.698300
-6.227700 0.710900
-6.190700 0.711700
-6.153800 0.697500
-6.116900 0.699500
-6.080000 0.705200
-6.043100 0.709500
-6.006200 0.712500
-5.969300 0.714700
-5.932300 0.710400
-5.895400 0.712200
-5.858500 0.717900
-5.821600 0.725100
-5.784700 0.732900
-5.747800 0.736500
-5.710900 0.738400
-5.673900 0.741500
-5.637000 0.743900
-5.600100 0.744400
-5.563200 0.742600
-5.526300 0.745700
-5.489400 0.752200
-5.452500 0.759500
-5.415600 0.767400
-5.378600 0.775900
-5.341700 0.785600
-5.304800 0.795200
-5.267900 0.801300
-5.231000 0.807900
-5.194100 0.813700
-5.157200 0.818400
-5.120200 0.828100
-5.083300 0.840900
-5.046400 0.857400
-5.009500 0.876300
-4.972600 0.895300
-4.935700 0.915600
-4.898800 0.942300
-4.861800 0.976400
-4.824900 1.017000
-4.788000 1.057700
-4.751100 1.099700
-4.714200 1.154100
-4.677300 1.239300
-4.640400 2.002300
-4.603400 1.660900
-4.566500 1.027900
-4.529600 0.940500
-4.492700 0.853200
-4.455800 0.765800
-4.418900 0.678500
-4.382000 0.591200
-4.345000 0.567600
-4.308100 0.594300
-4.271200 0.621000
-4.234300 0.647700
-4.197400 0.456100
-4.160500 0.293500
-4.123600 0.271100
-4.086600 0.248800
-4.049700 0.226400
-4.012800 0.204100
-3.975900 0.181700
-3.939000 0.159400
-3.902100 0.137100
-3.865200 0.114700
-3.828200 0.092400
-3.791300 0.070000
-3.754400 0.047700
-3.717500 0.025300
-3.680600 0.008100
-3.643700 0.021000
-3.606800 0.044700
-3.569800 0.068300
-3.532900 0.092000
-3.496000 0.115700
-3.459100 0.139400
-3.422200 0.163100
-3.385300 0.186800
-3.348400 0.210400
-3.311500 0.234100
-3.274500 0.257800
-3.237600 0.281400
-3.200700 0.551300
-3.163800 0.616100
-3.126900 0.732500
-3.090000 0.747400
-3.053100 0.869000
-3.016100 1.066900
-2.979200 1.125300
-2.942300 1.135300
-2.905400 1.170000
-2.868500 1.203300
-2.831600 1.231500
-2.794700 1.320900
-2.757700 1.151900
-2.720800 0.976300
-2.683900 0.911600
-2.647000 0.854600
-2.610100 0.806300
-2.573200 0.772400
-2.536300 0.751800
-2.499300 0.734700
-2.462400 0.719300
-2.425500 0.706700
-2.388600 0.694700
-2.351700 0.682700
-2.314800 0.670700
-2.277900 0.659600
-2.240900 0.649200
-2.204000 0.639500
-2.167100 0.630700
-2.130200 0.623300
-2.093300 0.616800
-2.056400 0.610200
-2.019500 0.603500
-1.982500 0.595600
-1.945600 0.592200
-1.908700 0.587900
-1.871800 0.584200
-1.834900 0.581200
-1.798000 0.579100
-1.761100 0.577900
-1.724100 0.578000
-1.687200 0.579600
-1.650300 0.581300
-1.613400 0.582900
-1.576500 0.593400
-1.539600 0.636600
-1.502700 0.755900
-1.465800 0.872600
-1.428800 0.984600
-1.391900 1.261800
-1.355000 1.389200
-1.318100 1.083100
-1.281200 0.792500
-1.244300 0.727900
-1.207400 0.684500
-1.170400 0.644100
-1.133500 0.603700
-1.096600 0.565800
-1.059700 0.511200
-1.022800 0.467500
-0.985900 0.438100
-0.949000 0.414500
-0.912000 0.394500
-0.875100 0.377900
-0.838200 0.363300
-0.801300 0.348800
-0.764400 0.332200
-0.727500 0.312200
-0.690600 0.288600
-0.653600 0.276900
-0.616700 0.260300
-0.579800 0.243200
-0.542900 0.226600
-0.506000 0.210500
-0.469100 0.195300
-0.432200 0.181900
-0.395200 0.173600
-0.358300 0.172300
-0.321400 0.166000
-0.284500 0.155000
-0.247600 0.139300
-0.210700 0.124600
-0.173800 0.114000
-0.136800 0.092700
-0.099900 0.072600
-0.063000 0.053500
-0.026100 0.031100
0.010800 0.008200
0.047700 0.000000
0.084600 0.000000
0.121600 0.000000
0.158500 0.000000
0.195400 0.000000
0.232300 0.000000
0.269200 0.000000
0.306100 0.001900
0.343000 0.020800
0.379900 0.051500
0.416900 0.090900
0.453800 0.138700
0.490700 0.195500
0.527600 0.243000
0.564500 0.244200
0.601400 0.268100
0.638300 0.294300
0.675300 0.328000
0.712200 0.363600
0.749100 0.401000
0.786000 0.455800
0.822900 0.544200
0.859800 0.781700
0.896700 1.015900
0.933700 1.221200
0.970600 1.443500
1.007500 1.769900
1.044400 1.843200
1.081300 2.031400
1.118200 2.279800
1.155100 2.220800
1.192100 2.103300
1.229000 2.075300
1.265900 2.019400
1.302800 1.952500
1.339700 1.875000
1.376600 1.715100
1.413500 1.553100
1.450500 1.440500
1.487400 1.397800
1.524300 1.382100
1.561200 1.459800
1.598100 1.590900
1.635000 1.589900
1.671900 1.614600
1.708900 1.698300
1.745800 1.702600
1.782700 1.519200
1.819600 1.388700
1.856500 1.411200
1.893400 1.506300
1.930300 1.635900
1.967300 1.551600
2.004200 1.582900
2.041100 1.640100
2.078000 1.711900
2.114900 1.788000
2.151800 1.889400
2.188700 2.016300
2.225700 2.095300
2.262600 2.171600
2.299500 2.265000
2.336400 2.383100
2.373300 2.524600
2.410200 2.821700
2.447100 2.395700
2.484000 2.333900
2.521000 2.322700
2.557900 2.239500
2.594800 1.973000
2.631700 1.720700
2.668600 1.637500
2.705500 1.583000
2.742400 1.541300
2.779400 1.509100
2.816300 1.472600
2.853200 1.441300
2.890100 1.417100
2.927000 1.513200
2.963900 1.492400
3.000800 1.433500
3.037800 1.405900
3.074700 1.388400
3.111600 1.374500
3.148500 1.361000
3.185400 1.364200
3.222300 1.391700
3.259200 1.395100
3.296200 1.373100
3.333100 1.360000
3.370000 1.365800
3.406900 1.488100
3.443800 1.595200
3.480700 1.669500
3.517600 1.733100
3.554600 1.779700
3.591500 1.854700
3.628400 1.924100
3.665300 2.003000
3.702200 1.970200
3.739100 1.888500
3.776000 1.831200
3.813000 1.731500
3.849900 1.601100
3.886800 1.457500
3.923700 1.364400
3.960600 1.279400
3.997500 1.216000
4.034400 1.150200
4.071400 1.029500
4.108300 0.905500
4.145200 0.791700
4.182100 0.713800
4.219000 0.644300
4.255900 0.576700
4.292800 0.523100
4.329700 0.484500
4.366700 0.452900
4.403600 0.425600
4.440500 0.404000
4.477400 0.386100
4.514300 0.362800
4.551200 0.333800
4.588100 0.304800
4.625100 0.281700
4.662000 0.263700
4.698900 0.250300
4.735800 0.239600
4.772700 0.228600
4.809600 0.219400
4.846500 0.212000
4.883500 0.205400
4.920400 0.199400
4.957300 0.194500
4.994200 0.185100
5.031100 0.160700
5.068000 0.154100
5.104900 0.194600
5.141900 0.262600
5.178800 0.311500
5.215700 0.346800
5.252600 0.378300
5.289500 0.407700
5.326400 0.434200
5.363300 0.458700
5.400300 0.489400
5.437200 0.526700
5.474100 0.571100
5.511000 0.621200
5.547900 0.674000
5.584800 0.739300
5.621700 0.813800
5.658700 0.912900
5.695600 1.051500
5.732500 1.207100
5.769400 1.376900
5.806300 1.591500
5.843200 1.852100
5.880100 2.154800
5.917100 2.488300
5.954000 2.700500
5.990900 3.075600
6.027800 3.088300
6.064700 2.990500
6.101600 3.027300
6.138500 3.012900
6.175400 2.929100
6.212400 2.913600
6.249300 2.962100
6.286200 2.882400
6.323100 2.707300
6.360000 2.601300
6.396900 2.539900
6.433800 2.419400
6.470800 2.305800
6.507700 2.191500
6.544600 2.462100
6.581500 2.604800
6.618400 2.680200
6.655300 2.657800
6.692200 2.583100
6.729200 2.798000
6.766100 3.147000
6.803000 3.436700
6.839900 3.405600
6.876800 3.337600
6.913700 3.436800
6.950600 3.598400
6.987600 3.859400
7.024500 4.240500
7.061400 4.767400
7.098300 5.161400
7.135200 4.949000
7.172100 4.536800
7.209000 4.291600
7.246000 4.520500
7.282900 4.364700
7.319800 4.157900
7.356700 4.244900
7.393600 4.542100
7.430500 4.437900
7.467400 4.700200
7.504400 4.856700
7.541300 4.835700
7.578200 4.782300
7.615100 4.985800
7.652000 4.709400
7.688900 4.085200
7.725800 3.061100
7.762800 2.648700
7.799700 2.464400
7.836600 2.398100
7.873500 2.573800
7.910400 2.684700
7.947300 2.862900
7.984200 2.660600
8.021200 2.381700
8.058100 2.597400
8.095000 2.858000
8.131900 2.826200
8.168800 2.651100
8.205700 2.346600
8.242600 2.062600
8.279500 1.894500
8.316500 1.797500
8.353400 1.751100
8.390300 1.740000
8.427200 1.717800
8.464100 1.750800
8.501000 1.820600
8.537900 1.873800
8.574900 1.921900
8.611800 1.962300
8.648700 2.077600
8.685600 2.221100
8.722500 2.352500
8.759400 2.597900
8.796300 2.878700
8.833300 3.212500
8.870200 3.581700
8.907100 3.728900
8.944000 3.872600
8.980900 4.381900
9.017800 6.100900
9.054700 4.119300
9.091700 3.332200
9.128600 7.251300
9.165500 7.091800
9.202400 5.544900
9.239300 5.222500
9.276200 4.598800
9.313100 3.740000
9.350100 2.442600
9.387000 2.054300
9.423900 1.848600
9.460800 1.563800
9.497700 1.345500
9.534600 1.272600
9.571500 1.241300
9.608500 1.254000
9.645400 1.519800
9.682300 1.729800
9.719200 1.689200
9.756100 1.655400
9.793000 1.639100
9.829900 1.591700
9.866900 1.610500
9.903800 1.563600
9.940700 1.503800
9.977600 1.485000
10.014500 1.484400
10.051400 1.533900
10.088300 1.626400
10.125200 1.744400
10.162200 1.891900
10.199100 2.051100
10.236000 2.223500
10.272900 2.533800
10.309800 2.529500
10.346700 2.669400
10.383600 2.421700
10.420600 2.211500
10.457500 2.154300
10.494400 2.260700
10.531300 2.679000
10.568200 2.556400
10.605100 2.444200
10.642000 2.241500
10.679000 2.128100
10.715900 2.031700
10.752800 1.983800
10.789700 1.967400
10.826600 1.925500
10.863500 1.892300
10.900400 1.880900
10.937400 1.893800
10.974300 1.914700
11.011200 1.909100
11.048100 1.960400
11.085000 2.051200
11.121900 2.232700
11.158800 2.227300
11.195800 2.227500
11.232700 2.169100
11.269600 2.147400
11.306500 2.122800
11.343400 2.153500
11.380300 2.215300
11.417200 2.311700
11.454200 2.467500
11.491100 2.643600
11.528000 2.968600
11.564900 3.129000
11.601800 2.935300
11.638700 2.959800
11.675600 3.033300
11.712600 3.216500
11.749500 3.320100
11.786400 3.061200
11.823300 2.885300
11.860200 2.483700
11.897100 2.184600
11.934000 1.936200
11.970900 1.714900
12.007900 1.796900
12.044800 2.006000
12.081700 1.984300
12.118600 1.859500
12.155500 1.772900
12.192400 1.904000
12.229300 1.969700
12.266300 1.989400
12.303200 2.041800
12.340100 2.218300
12.377000 2.381500
12.413900 2.466800
12.450800 2.549600
12.487700 2.719500
12.524700 2.553500
12.561600 2.649500
12.598500 2.629200
12.635400 2.475500
12.672300 2.393600
12.709200 2.396700
12.746100 2.248600
12.783100 2.180200
12.820000 2.146600
12.856900 2.134000
12.893800 2.218200
12.930700 2.301500
12.967600 2.259900
13.004500 2.148100
13.041500 1.989500
13.078400 1.844800
13.115300 1.753700
13.152200 1.688700
13.189100 1.700200
13.226000 1.718600
13.262900 1.707300
13.299900 1.550700
13.336800 1.614900
13.373700 1.760300
13.410600 1.780100
13.447500 1.816100
13.484400 1.899000
13.521300 1.962200
13.558300 1.921000
13.595200 1.800500
13.632100 1.655300
13.669000 1.587600
13.705900 1.589900
13.742800 1.659000
13.779700 1.767100
13.816700 1.904800
13.853600 2.046600
13.890500 2.193400
13.927400 2.332200
13.964300 2.420600
14.001200 2.477900
14.038100 2.563100
14.075000 2.666900
14.112000 2.774200
14.148900 2.943900
14.185800 3.138700
14.222700 3.328200
14.259600 3.323600
14.296500 3.129500
14.333400 2.821800
14.370400 2.534200
14.407300 2.384500
14.444200 2.224000
14.481100 2.130400
14.518000 2.120300
14.554900 2.119000
14.591800 2.046000
14.628800 2.010800
14.665700 2.029500
14.702600 2.043100
14.739500 1.989800
14.776400 1.923700
14.813300 1.877700
14.850200 1.864100
14.887200 1.828500
14.924100 1.785900
14.961000 1.800500
14.997900 1.814000
15.034800 1.853300
15.071700 1.772800
15.108600 1.699800
15.145600 1.612700
15.182500 1.488100
15.219400 1.338600
15.256300 1.248700
15.293200 1.256600
15.330100 1.244300
15.367000 1.229800
15.404000 1.232700
15.440900 1.311000
15.477800 1.486800
15.514700 1.655700
15.551600 1.802300
15.588500 2.015300
15.625400 2.076500
15.662400 2.045000
15.699300 2.175900
15.736200 2.544700
15.773100 2.820500
15.810000 2.977400
15.846900 3.077100
15.883800 3.044600
15.920700 2.955700
15.957700 2.909800
15.994600 2.926700
16.031500 2.888200
16.068400 2.981800
16.105300 3.012100
16.142200 2.802500
16.179100 2.566700
16.216100 2.469800
16.253000 2.399800
16.289900 2.345200
16.326800 2.280000
16.363700 2.176300
16.400600 2.056400
16.437500 1.993200
16.474500 1.961200
16.511400 1.912100
16.548300 1.861900
16.585200 1.828500
16.622100 1.800000
16.659000 1.758600
16.695900 1.702400
16.732900 1.620500
16.769800 1.515100
16.806700 1.458800
16.843600 1.408000
16.880500 1.355900
16.917400 1.301600
16.954300 1.276500
16.991300 1.336500
17.028200 1.556800
17.065100 1.842900
17.102000 2.105600
17.138900 2.179300
17.175800 1.973200
17.212700 1.981300
17.249700 1.996500
17.286600 2.005000
17.323500 2.001400
17.360400 2.100400
17.397300 2.307400
17.434200 2.453800
17.471100 2.368100
17.508100 2.350500
17.545000 2.309900
17.581900 2.236300
17.618800 2.135400
17.655700 2.040700
17.692600 2.007900
17.729500 1.957400
17.766500 1.998000
17.803400 2.069600
17.840300 2.152000
17.877200 2.188200
17.914100 2.173000
17.951000 2.205500
17.987900 2.288700
18.024800 2.369600
18.061800 2.387700
18.098700 2.311700
18.135600 2.232300
18.172500 2.185300
18.209400 2.127700
18.246300 2.082300
18.283200 2.070100
18.320200 1.991900
18.357100 1.868200
18.394000 1.797400
18.430900 1.728600
18.467800 1.677600
18.504700 1.638700
18.541600 1.624400
18.578600 1.634600
18.615500 1.630200
18.652400 1.742800
18.689300 1.882400
18.726200 2.002900
18.763100 2.102300
18.800000 2.240000
18.837000 2.316400
18.873900 2.321100
18.910800 2.162800
18.947700 2.257500
18.984600 2.371300
19.021500 2.485300
19.058400 2.618200
19.095400 2.628500
19.132300 2.594300
19.169200 2.653500
19.206100 2.625100
19.243000 2.532400
19.279900 2.466300
19.316800 2.401500
19.353800 2.359600
19.390700 2.282400
19.427600 2.206900
19.464500 2.081700
19.501400 1.958100
19.538300 1.854700
19.575200 1.853200
19.612200 1.938500
19.649100 2.052000
19.686000 2.218200
19.722900 2.433600
19.759800 2.740000
19.796700 2.740900
19.833600 2.830000
19.870500 2.916300
19.907500 2.988500
19.944400 2.924400
19.981300 2.839600
20.018200 2.632500
20.055100 2.366700
20.092000 2.112900
20.128900 1.951900
20.165900 1.806700
20.202800 1.702900
20.239700 1.646700
20.276600 1.627300
20.313500 1.657100
20.350400 1.721600
20.387300 1.798700
20.424300 1.925900
20.461200 2.033900
20.498100 2.299100
20.535000 2.577500
20.571900 2.509200
20.608800 2.484700
20.645700 2.443400
20.682700 2.404700
20.719600 2.388400
20.756500 2.362300
20.793400 2.463000
20.830300 2.825800
20.867200 2.944200
20.904100 2.930500
20.941100 2.878800
20.978000 2.751500
21.014900 2.716300
21.051800 2.785100
21.088700 2.806700
21.125600 2.806200
21.162500 2.749400
21.199500 2.692800
21.236400 2.639300
21.273300 2.572700
21.310200 2.542900
21.347100 2.558100
21.384000 2.621100
21.420900 2.706800
21.457900 2.763600
21.494800 2.792500
21.531700 2.868200
21.568600 2.965600
21.605500 3.176400
21.642400 3.197300
21.679300 3.152100
21.716200 3.101600
21.753200 2.929400
21.790100 2.710200
21.827000 2.537000
21.863900 2.429500
21.900800 2.388800
21.937700 2.326300
21.974600 2.296800
22.011600 2.284100
22.048500 2.237900
22.085400 2.312600
22.122300 2.556700
22.159200 2.798800
22.196100 2.851700
22.233000 2.749500
22.270000 2.563300
22.306900 2.528300
22.343800 2.466100
22.380700 2.439700
22.417600 2.422100
22.454500 2.501000
22.491400 2.460700
22.528400 2.454700
22.565300 2.401500
22.602200 2.378200
22.639100 2.416100
22.676000 2.368400
22.712900 2.282800
22.749800 2.210200
22.786800 2.164200
22.823700 2.205800
22.860600 2.337700
22.897500 2.383600
22.934400 2.384200
22.971300 2.522800
23.008200 2.660300
23.045200 2.833600
23.082100 2.879900
23.119000 2.902300
23.155900 2.921600
23.192800 2.831000
23.229700 2.780200
23.266600 2.832700
23.303600 3.025100
23.340500 3.068300
23.377400 3.031900
23.414300 2.932000
23.451200 2.898000
23.488100 2.775900
23.525000 2.669200
23.562000 2.523400
23.598900 2.309500
23.635800 2.111600
23.672700 1.961500
23.709600 1.892700
23.746500 1.963000
23.783400 2.072300
23.820300 2.306100
23.857300 2.484600
23.894200 2.613600
23.931100 2.690500
23.968000 2.573800
24.004900 2.537200
24.041800 2.522600
24.078700 2.574000
24.115700 2.641200
24.152600 2.625900
24.189500 2.787700
24.226400 2.872800
24.263300 2.882300
24.300200 2.838100
24.337100 2.775000
24.374100 2.697500
24.411000 2.528700
24.447900 2.266500
24.484800 2.173800
24.521700 2.136500
24.558600 2.145800
24.595500 2.207900
24.632500 2.291200
24.669400 2.410100
24.706300 2.620400
24.743200 2.846800
24.780100 3.315600
24.817000 3.179200
24.853900 3.076400
24.890900 3.018000
24.927800 2.985600
24.964700 2.792400
25.001600 2.517500
25.038500 2.510100
25.075400 2.520100
25.112300 2.543200
25.149300 2.576100
25.186200 2.592800
25.223100 2.577100
25.260000 2.564200
25.296900 2.602900
25.333800 2.671800
25.370700 2.795200
25.407700 2.856600
25.444600 2.843700
25.481500 2.819000
25.518400 2.780700
25.555300 2.790100
25.592200 2.756500
25.629100 2.669500
25.666000 2.542700
25.703000 2.509400
25.739900 2.630900
25.776800 2.849500
25.813700 2.568200
25.850600 2.367800
25.887500 2.235200
25.924400 2.140100
25.961400 2.056200
25.998300 2.014900
26.035200 2.080300
26.072100 2.261600
26.109000 2.447500
26.145900 2.627400
26.182800 2.744200
26.219800 2.794600
26.256700 2.844300
26.293600 2.939300
26.330500 2.954600
26.367400 3.009600
26.404300 3.093400
26.441200 3.053300
26.478200 2.817200
26.515100 2.573400
26.552000 2.347700
26.588900 2.169400
26.625800 2.075700
26.662700 1.997700
26.699600 1.800200
26.736600 1.708400
26.773500 1.694400
26.810400 1.766700
26.847300 1.946100
26.884200 2.225200
26.921100 2.565200
26.958000 2.962300
26.995000 3.039100
27.031900 2.931500
27.068800 2.926700
27.105700 2.848300
27.142600 2.774300
27.179500 2.708800
27.216400 2.661800
27.253400 2.641500
27.290300 2.786200
27.327200 2.985900
27.364100 2.992800
27.401000 2.993300
27.437900 3.001900
27.474800 2.948200
27.511700 2.909500
27.548700 2.898300
27.585600 2.911600
27.622500 2.953100
27.659400 3.089800
27.696300 3.140500
27.733200 3.001600
27.770100 2.887000
27.807100 2.828900
27.844000 2.819600
27.880900 2.860800
27.917800 2.861000
27.954700 2.822000
27.991600 2.765500
28.028500 2.691700
28.065500 2.621200
28.102400 2.494600
28.139300 2.519800
28.176200 2.498700
28.213100 2.512200
28.250000 2.471000
28.286900 2.389800
28.323900 2.290000
28.360800 2.185100
28.397700 2.088200
28.434600 1.979400
28.471500 1.846900
28.508400 1.771700
28.545300 1.722900
28.582300 1.659500
28.619200 1.649300
28.656100 1.670900
28.693000 1.782600
28.729900 1.849700
28.766800 1.692600
28.803700 1.699500
28.840700 1.691500
28.877600 1.680500
28.914500 1.646400
28.951400 1.604900
28.988300 1.552800
29.025200 1.522400
29.062100 1.492200
29.099100 1.436000
29.136000 1.370800
29.172900 1.292600
29.209800 1.203000
29.246700 1.058200
29.283600 0.889700
29.320500 0.773400
29.357500 0.685000
29.394400 0.609300
29.431300 0.548700
29.468200 0.455100
29.505100 0.396000
29.542000 0.411600
29.578900 0.307800
29.615800 0.274900
29.652800 0.240000
29.689700 0.222300
29.726600 0.209800
29.763500 0.198600
29.800400 0.188800
29.837300 0.180300
29.874200 0.173200
29.911200 0.167500
29.948100 0.163100
29.985000 0.162100
30.021900 0.217700
30.058800 0.148100
30.095700 0.133800
30.132600 0.116800
30.169600 0.100400
30.206500 0.085500
30.243400 0.072300
30.280300 0.060600
30.317200 0.049900
30.354100 0.039700
30.391000 0.030200
30.428000 0.021400
30.464900 0.010500
30.501800 0.002900
30.538700 0.000000
30.575600 0.000000
30.612500 0.000000
30.649400 0.000000
30.686400 0.000000
30.723300 0.000000
30.760200 0.000000
30.797100 0.000000
30.834000 0.000000
30.870900 0.000000
30.907800 0.000000
30.944800 0.000000
30.981700 0.000000
31.018600 0.000000
31.055500 0.000000
31.092400 0.000000
31.129300 0.000000
31.166200 0.000000
31.203200 0.000000
31.240100 0.000000
31.277000 0.000000
31.313900 0.000000
31.350800 0.000000
31.387700 0.000000
31.424600 0.000000
31.461500 0.000000
31.498500 0.000000
31.535400 0.000000
31.572300 0.000000
31.609200 0.000000
31.646100 0.000000
31.683000 0.000000
31.719900 0.000000
31.756900 0.000000
31.793800 0.000000
31.830700 0.000000
31.867600 0.000000
31.904500 0.000000
31.941400 0.000000
31.978300 0.000000
32.015300 0.000000
32.052200 0.000000
32.089100 0.000000
32.126000 0.000000
32.162900 0.000000
32.199800 0.000000
32.236700 0.000000
32.273700 0.000000
32.310600 0.000000
32.347500 0.000000
32.384400 0.000000
32.421300 0.000000
32.458200 0.000000
32.495100 0.000000
32.532100 0.000000
32.569000 0.000000
32.605900 0.000000
32.642800 0.000000
32.679700 0.000000
32.716600 0.000000
32.753500 0.000000
32.790500 0.000000
32.827400 0.000000
32.864300 0.000000
32.901200 0.000000
32.938100 0.000000
32.975000 0.000000
33.011900 0.000000
33.048900 0.000000
33.085800 0.000000
33.122700 0.000000
33.159600 0.000000
33.196500 0.000000
33.233400 0.000000
33.270300 0.000000
33.307300 0.000000
33.344200 0.000000
33.381100 0.000000
33.418000 0.000000
33.454900 0.000000
33.491800 0.000000
33.528700 0.000000
33.565600 0.000000
33.602600 0.000000
33.639500 0.000000
33.676400 0.000000
33.713300 0.000000
33.750200 0.000000
33.787100 0.000000
33.824000 0.000000
33.861000 0.000000
33.897900 0.000000
e
