set title 'mp-557488 - Density of States'
set xlabel 'Energy (eV)'
set ylabel 'DOS (states/eV)'
set grid
set xrange [-10:10]
set yrange [0:174.838]
set xzeroaxis lt -1
set terminal png size 800,600
set output 'mp-557488_dos_gnuplot.png'
plot '-' using 1:2 with lines title 'DOS'
-17.140300 0.000000
-17.126800 0.000000
-17.113400 0.000000
-17.099900 0.000000
-17.086500 0.000000
-17.073000 0.000000
-17.059600 0.000000
-17.046100 0.000000
-17.032700 0.000000
-17.019200 0.000000
-17.005800 0.000000
-16.992300 0.000000
-16.978900 0.000000
-16.965400 0.000000
-16.952000 0.000000
-16.938500 0.000000
-16.925100 0.000000
-16.911600 0.000000
-16.898200 0.000000
-16.884700 0.000000
-16.871300 0.000000
-16.857800 0.000000
-16.844400 0.000000
-16.830900 0.000000
-16.817500 0.000000
-16.804000 0.000000
-16.790600 0.000000
-16.777100 0.000000
-16.763700 0.000000
-16.750200 0.000000
-16.736800 0.000000
-16.723300 0.000000
-16.709900 0.000000
-16.696400 0.000000
-16.683000 0.000000
-16.669500 0.000000
-16.656100 0.000000
-16.642600 0.000000
-16.629200 0.000000
-16.615700 0.000000
-16.602300 0.000000
-16.588900 0.000000
-16.575400 0.000000
-16.562000 0.000000
-16.548500 0.000000
-16.535100 0.000000
-16.521600 0.000000
-16.508200 0.000000
-16.494700 0.000000
-16.481300 0.000000
-16.467800 0.000000
-16.454400 0.000000
-16.440900 0.000000
-16.427500 0.000000
-16.414000 0.000000
-16.400600 0.000000
-16.387100 0.000000
-16.373700 0.000000
-16.360200 0.000000
-16.346800 0.000000
-16.333300 0.000000
-16.319900 0.000000
-16.306400 0.000000
-16.293000 0.000000
-16.279500 0.000000
-16.266100 0.000000
-16.252600 0.000000
-16.239200 0.000000
-16.225700 0.000000
-16.212300 0.000000
-16.198800 0.000000
-16.185400 0.000000
-16.171900 0.000000
-16.158500 0.000000
-16.145000 0.000000
-16.131600 0.000000
-16.118100 0.000000
-16.104700 0.000000
-16.091200 0.000000
-16.077800 0.000000
-16.064300 0.000000
-16.050900 0.000000
-16.037400 0.000000
-16.024000 0.000000
-16.010500 0.000000
-15.997100 0.000000
-15.983600 0.000000
-15.970200 0.000000
-15.956700 0.000000
-15.943300 0.000000
-15.929800 0.000000
-15.916400 2.801400
-15.902900 33.616400
-15.889500 62.089400
-15.876000 378.130700
-15.862600 0.000000
-15.849100 0.000000
-15.835700 0.000000
-15.822200 0.000000
-15.808800 0.000000
-15.795300 0.000000
-15.781900 0.000000
-15.768400 0.000000
-15.755000 0.000000
-15.741500 83.203000
-15.728100 197.631100
-15.714600 0.000000
-15.701200 0.000000
-15.687700 268.156200
-15.674300 158.381700
-15.660800 0.000000
-15.647400 0.000000
-15.633900 0.000000
-15.620500 0.000000
-15.607000 0.000000
-15.593600 0.000000
-15.580100 0.000000
-15.566700 0.000000
-15.553200 0.000000
-15.539800 0.000000
-15.526300 0.000000
-15.512900 0.000000
-15.499400 0.000000
-15.486000 0.000000
-15.472500 0.000000
-15.459100 0.000000
-15.445600 0.000000
-15.432200 0.000000
-15.418700 0.000000
-15.405300 0.000000
-15.391800 0.000000
-15.378400 0.000000
-15.364900 0.000000
-15.351500 0.000000
-15.338000 0.000000
-15.324600 0.000000
-15.311100 0.000000
-15.297700 0.000000
-15.284200 0.000000
-15.270800 0.000000
-15.257300 0.000000
-15.243900 149.915600
-15.230400 137.950300
-15.217000 218.297700
-15.203500 0.000000
-15.190100 0.000000
-15.176600 0.000000
-15.163200 0.000000
-15.149700 0.000000
-15.136300 0.000000
-15.122800 0.000000
-15.109400 0.000000
-15.095900 0.000000
-15.082500 0.000000
-15.069000 0.000000
-15.055600 0.000000
-15.042100 0.000000
-15.028700 0.000000
-15.015200 0.000000
-15.001800 0.000000
-14.988300 0.000000
-14.974900 0.000000
-14.961400 0.000000
-14.948000 0.000000
-14.934500 0.000000
-14.921100 0.000000
-14.907600 0.000000
-14.894200 0.000000
-14.880700 0.000000
-14.867300 0.000000
-14.853800 0.000000
-14.840400 0.000000
-14.826900 0.000000
-14.813500 0.000000
-14.800000 0.000000
-14.786600 0.000000
-14.773100 0.000000
-14.759700 0.000000
-14.746200 0.000000
-14.732800 0.000000
-14.719300 0.000000
-14.705900 0.000000
-14.692400 0.000000
-14.679000 0.000000
-14.665500 0.000000
-14.652100 0.000000
-14.638600 0.000000
-14.625200 0.000000
-14.611700 0.000000
-14.598300 0.000000
-14.584800 0.000000
-14.571400 0.000000
-14.557900 0.000000
-14.544500 134.794000
-14.531000 111.282300
-14.517600 63.064100
-14.504100 0.000000
-14.490700 0.000000
-14.477200 141.797300
-14.463800 100.688700
-14.450300 0.000000
-14.436900 0.000000
-14.423400 0.000000
-14.410000 0.000000
-14.396500 0.000000
-14.383100 0.000000
-14.369600 0.000000
-14.356200 0.000000
-14.342700 0.000000
-14.329300 0.000000
-14.315800 0.000000
-14.302400 0.000000
-14.288900 0.000000
-14.275500 0.000000
-14.262000 0.000000
-14.248600 0.000000
-14.235100 0.000000
-14.221700 0.000000
-14.208200 0.000000
-14.194800 0.000000
-14.181300 0.000000
-14.167900 0.000000
-14.154400 0.000000
-14.141000 0.000000
-14.127500 0.000000
-14.114100 0.000000
-14.100600 0.000000
-14.087200 0.000000
-14.073700 0.000000
-14.060300 0.000000
-14.046800 0.000000
-14.033400 0.000000
-14.019900 0.000000
-14.006500 0.000000
-13.993000 0.000000
-13.979600 0.000000
-13.966100 0.000000
-13.952700 0.000000
-13.939200 0.000000
-13.925800 0.000000
-13.912300 0.000000
-13.898900 0.000000
-13.885400 0.000000
-13.872000 0.000000
-13.858500 0.000000
-13.845100 0.000000
-13.831600 0.000000
-13.818200 0.000000
-13.804700 0.000000
-13.791300 0.000000
-13.777800 0.000000
-13.764400 0.000000
-13.750900 0.000000
-13.737500 0.000000
-13.724000 0.000000
-13.710600 0.000000
-13.697100 0.000000
-13.683700 0.000000
-13.670200 0.000000
-13.656800 0.000000
-13.643300 0.000000
-13.629900 0.000000
-13.616400 0.000000
-13.603000 0.000000
-13.589500 0.000000
-13.576100 0.000000
-13.562600 0.000000
-13.549200 205.512400
-13.535700 113.834000
-13.522300 0.000000
-13.508800 345.066900
-13.495400 94.075800
-13.481900 0.000000
-13.468500 0.000000
-13.455000 0.000000
-13.441600 0.000000
-13.428100 0.000000
-13.414700 0.000000
-13.401200 0.000000
-13.387800 0.000000
-13.374300 0.000000
-13.360900 0.000000
-13.347400 0.000000
-13.334000 0.000000
-13.320500 0.000000
-13.307100 0.000000
-13.293600 0.000000
-13.280200 0.000000
-13.266700 0.000000
-13.253300 0.000000
-13.239800 0.000000
-13.226400 0.000000
-13.212900 0.000000
-13.199500 0.000000
-13.186000 0.000000
-13.172600 0.000000
-13.159100 0.000000
-13.145700 0.000000
-13.132200 0.000000
-13.118800 0.000000
-13.105300 0.000000
-13.091900 0.000000
-13.078400 0.000000
-13.065000 0.000000
-13.051500 0.000000
-13.038100 0.000000
-13.024600 0.000000
-13.011200 0.000000
-12.997700 0.000000
-12.984300 0.000000
-12.970800 0.000000
-12.957400 0.000000
-12.943900 0.000000
-12.930500 0.000000
-12.917000 0.000000
-12.903600 0.000000
-12.890100 0.000000
-12.876700 0.000000
-12.863200 0.000000
-12.849800 0.000000
-12.836300 0.000000
-12.822900 0.000000
-12.809400 0.000000
-12.796000 0.000000
-12.782500 0.000000
-12.769100 0.000000
-12.755600 0.000000
-12.742200 0.000000
-12.728700 0.000000
-12.715300 0.000000
-12.701800 0.000000
-12.688400 0.000000
-12.674900 0.000000
-12.661500 0.000000
-12.648000 0.000000
-12.634600 0.000000
-12.621100 0.000000
-12.607700 0.000000
-12.594200 0.000000
-12.580800 0.000000
-12.567300 0.000000
-12.553900 0.000000
-12.540400 0.000000
-12.527000 0.000000
-12.513500 0.000000
-12.500100 0.000000
-12.486600 0.000000
-12.473200 0.000000
-12.459700 0.000000
-12.446300 0.000000
-12.432800 0.000000
-12.419400 0.000000
-12.405900 22.489000
-12.392500 99.295800
-12.379000 172.738700
-12.365600 343.111300
-12.352100 63.204400
-12.338700 0.000000
-12.325200 0.000000
-12.311800 0.000000
-12.298300 0.000000
-12.284900 0.000000
-12.271400 0.000000
-12.258000 0.000000
-12.244500 0.000000
-12.231100 0.000000
-12.217700 0.000000
-12.204200 0.000000
-12.190800 0.000000
-12.177300 0.000000
-12.163900 0.000000
-12.150400 0.000000
-12.137000 0.000000
-12.123500 0.000000
-12.110100 0.000000
-12.096600 0.000000
-12.083200 0.000000
-12.069700 0.000000
-12.056300 0.000000
-12.042800 0.000000
-12.029400 0.000000
-12.015900 0.000000
-12.002500 0.000000
-11.989000 0.000000
-11.975600 0.000000
-11.962100 0.000000
-11.948700 0.000000
-11.935200 0.000000
-11.921800 0.000000
-11.908300 0.000000
-11.894900 0.000000
-11.881400 0.000000
-11.868000 0.000000
-11.854500 0.000000
-11.841100 0.000000
-11.827600 0.000000
-11.814200 0.000000
-11.800700 0.000000
-11.787300 0.000000
-11.773800 0.000000
-11.760400 0.000000
-11.746900 0.000000
-11.733500 0.000000
-11.720000 0.000000
-11.706600 0.000000
-11.693100 0.000000
-11.679700 0.000000
-11.666200 0.000000
-11.652800 0.000000
-11.639300 0.000000
-11.625900 0.000000
-11.612400 0.000000
-11.599000 0.000000
-11.585500 0.000000
-11.572100 0.000000
-11.558600 0.000000
-11.545200 0.000000
-11.531700 0.000000
-11.518300 0.000000
-11.504800 0.000000
-11.491400 0.000000
-11.477900 0.000000
-11.464500 0.000000
-11.451000 0.000000
-11.437600 0.000000
-11.424100 0.000000
-11.410700 0.000000
-11.397200 0.000000
-11.383800 0.000000
-11.370300 0.000000
-11.356900 0.000000
-11.343400 0.000000
-11.330000 0.000000
-11.316500 0.000000
-11.303100 0.000000
-11.289600 0.000000
-11.276200 0.000000
-11.262700 0.000000
-11.249300 0.000000
-11.235800 0.000000
-11.222400 0.000000
-11.208900 0.000000
-11.195500 0.000000
-11.182000 47.963000
-11.168600 68.571800
-11.155100 84.234100
-11.141700 116.087200
-11.128200 121.089200
-11.114800 134.435900
-11.101300 37.995900
-11.087900 0.000000
-11.074400 0.000000
-11.061000 0.000000
-11.047500 0.000000
-11.034100 0.000000
-11.020600 0.000000
-11.007200 0.000000
-10.993700 0.000000
-10.980300 0.000000
-10.966800 0.000000
-10.953400 0.000000
-10.939900 0.000000
-10.926500 0.000000
-10.913000 0.000000
-10.899600 0.000000
-10.886100 0.000000
-10.872700 0.000000
-10.859200 0.000000
-10.845800 0.000000
-10.832300 0.000000
-10.818900 0.000000
-10.805400 0.000000
-10.792000 0.000000
-10.778500 0.000000
-10.765100 0.000000
-10.751600 0.000000
-10.738200 0.000000
-10.724700 0.000000
-10.711300 0.000000
-10.697800 0.000000
-10.684400 0.000000
-10.670900 0.000000
-10.657500 0.000000
-10.644000 0.000000
-10.630600 0.000000
-10.617100 0.000000
-10.603700 0.000000
-10.590200 0.000000
-10.576800 0.000000
-10.563300 0.000000
-10.549900 0.000000
-10.536400 0.000000
-10.523000 0.000000
-10.509500 0.000000
-10.496100 0.000000
-10.482600 0.000000
-10.469200 0.000000
-10.455700 0.000000
-10.442300 0.000000
-10.428800 0.000000
-10.415400 0.000000
-10.401900 0.000000
-10.388500 0.000000
-10.375000 0.000000
-10.361600 0.000000
-10.348100 0.000000
-10.334700 0.000000
-10.321200 0.000000
-10.307800 0.000000
-10.294300 0.000000
-10.280900 0.000000
-10.267400 0.000000
-10.254000 0.000000
-10.240500 0.000000
-10.227100 0.000000
-10.213600 0.000000
-10.200200 0.000000
-10.186700 0.000000
-10.173300 0.000000
-10.159800 0.000000
-10.146400 0.000000
-10.132900 0.000000
-10.119500 0.000000
-10.106000 0.000000
-10.092600 0.000000
-10.079100 0.000000
-10.065700 0.000000
-10.052200 0.000000
-10.038800 0.000000
-10.025300 0.000000
-10.011900 0.000000
-9.998400 0.000000
-9.985000 0.000000
-9.971500 0.000000
-9.958100 0.000000
-9.944600 0.000000
-9.931200 0.000000
-9.917700 0.000000
-9.904300 44.101100
-9.890800 45.669400
-9.877400 54.087000
-9.863900 150.662600
-9.850500 14.098900
-9.837000 43.301100
-9.823600 158.943700
-9.810100 122.043000
-9.796700 0.000000
-9.783200 0.000000
-9.769800 0.000000
-9.756300 0.000000
-9.742900 0.000000
-9.729400 0.000000
-9.716000 0.000000
-9.702500 0.000000
-9.689100 0.000000
-9.675600 0.000000
-9.662200 0.000000
-9.648700 0.000000
-9.635300 0.000000
-9.621800 0.000000
-9.608400 0.000000
-9.594900 0.000000
-9.581500 0.000000
-9.568000 0.000000
-9.554600 0.000000
-9.541100 0.000000
-9.527700 0.000000
-9.514200 0.000000
-9.500800 0.000000
-9.487300 0.000000
-9.473900 0.000000
-9.460400 0.000000
-9.447000 0.000000
-9.433500 0.000000
-9.420100 0.000000
-9.406600 0.000000
-9.393200 0.000000
-9.379700 0.000000
-9.366300 0.000000
-9.352800 0.000000
-9.339400 0.000000
-9.325900 0.000000
-9.312500 0.000000
-9.299000 0.000000
-9.285600 0.000000
-9.272100 0.000000
-9.258700 0.000000
-9.245200 0.000000
-9.231800 0.000000
-9.218300 0.000000
-9.204900 0.000000
-9.191400 0.000000
-9.178000 0.000000
-9.164500 0.000000
-9.151100 0.000000
-9.137600 0.000000
-9.124200 0.000000
-9.110700 0.000000
-9.097300 0.000000
-9.083800 0.000000
-9.070400 0.000000
-9.056900 0.000000
-9.043500 0.000000
-9.030000 0.000000
-9.016600 0.000000
-9.003100 0.000000
-8.989700 0.000000
-8.976200 0.000000
-8.962800 0.000000
-8.949300 0.000000
-8.935900 0.000000
-8.922400 0.000000
-8.909000 0.000000
-8.895500 0.000000
-8.882100 0.000000
-8.868600 0.000000
-8.855200 0.000000
-8.841700 0.000000
-8.828300 0.000000
-8.814800 31.791900
-8.801400 48.976500
-8.787900 30.920800
-8.774500 44.139900
-8.761000 0.000000
-8.747600 0.000000
-8.734100 0.000000
-8.720700 0.000000
-8.707200 0.000000
-8.693800 0.000000
-8.680300 0.000000
-8.666900 37.038900
-8.653400 77.540600
-8.640000 80.157700
-8.626500 80.280700
-8.613100 22.242100
-8.599600 6.970300
-8.586200 0.000000
-8.572700 0.000000
-8.559300 0.000000
-8.545800 0.000000
-8.532400 0.000000
-8.518900 0.000000
-8.505500 0.000000
-8.492000 0.000000
-8.478600 0.000000
-8.465100 0.000000
-8.451700 0.000000
-8.438200 0.000000
-8.424800 0.000000
-8.411300 0.000000
-8.397900 0.000000
-8.384400 0.000000
-8.371000 0.000000
-8.357500 0.000000
-8.344100 0.000000
-8.330600 0.000000
-8.317200 0.000000
-8.303700 0.000000
-8.290300 0.000000
-8.276800 5.765900
-8.263400 16.421900
-8.249900 27.077900
-8.236500 38.006800
-8.223000 45.641000
-8.209600 45.854200
-8.196100 46.067400
-8.182700 37.914200
-8.169200 23.965700
-8.155800 9.918300
-8.142300 0.870000
-8.128900 0.000000
-8.115400 0.000000
-8.102000 0.000000
-8.088500 0.000000
-8.075100 0.000000
-8.061600 0.000000
-8.048200 0.000000
-8.034700 0.000000
-8.021300 0.000000
-8.007800 0.000000
-7.994400 0.000000
-7.980900 0.000000
-7.967500 0.000000
-7.954000 0.000000
-7.940600 0.000000
-7.927100 0.000000
-7.913700 0.000000
-7.900200 0.000000
-7.886800 0.000000
-7.873300 0.000000
-7.859900 0.000000
-7.846500 0.000000
-7.833000 0.000000
-7.819600 0.000000
-7.806100 0.000000
-7.792700 0.000000
-7.779200 0.000000
-7.765800 0.000000
-7.752300 0.000000
-7.738900 0.000000
-7.725400 0.000000
-7.712000 0.000000
-7.698500 0.000000
-7.685100 0.000000
-7.671600 0.000000
-7.658200 0.000000
-7.644700 0.000000
-7.631300 0.000000
-7.617800 0.000000
-7.604400 0.000000
-7.590900 0.000000
-7.577500 0.000000
-7.564000 0.000000
-7.550600 0.000000
-7.537100 0.000000
-7.523700 0.000000
-7.510200 0.000000
-7.496800 0.000000
-7.483300 0.000000
-7.469900 0.000000
-7.456400 0.000000
-7.443000 0.000000
-7.429500 0.000000
-7.416100 0.000000
-7.402600 0.000000
-7.389200 0.000000
-7.375700 0.000000
-7.362300 0.000000
-7.348800 0.000000
-7.335400 0.000000
-7.321900 0.000000
-7.308500 0.000000
-7.295000 0.000000
-7.281600 0.000000
-7.268100 0.000000
-7.254700 0.000000
-7.241200 0.000000
-7.227800 0.000000
-7.214300 0.000000
-7.200900 0.000000
-7.187400 0.000000
-7.174000 0.000000
-7.160500 0.000000
-7.147100 0.000000
-7.133600 0.000000
-7.120200 0.000000
-7.106700 0.000000
-7.093300 0.000000
-7.079800 0.000000
-7.066400 0.000000
-7.052900 0.000000
-7.039500 0.000000
-7.026000 0.000000
-7.012600 0.000000
-6.999100 0.000000
-6.985700 0.000000
-6.972200 0.000000
-6.958800 0.000000
-6.945300 0.000000
-6.931900 0.000000
-6.918400 0.000000
-6.905000 0.000000
-6.891500 0.000000
-6.878100 0.000000
-6.864600 0.000000
-6.851200 0.000000
-6.837700 0.000000
-6.824300 0.000000
-6.810800 0.000000
-6.797400 0.000000
-6.783900 0.000000
-6.770500 0.000000
-6.757000 0.000000
-6.743600 0.000000
-6.730100 0.000000
-6.716700 0.000000
-6.703200 0.000000
-6.689800 0.000000
-6.676300 0.000000
-6.662900 0.000000
-6.649400 0.000000
-6.636000 0.000000
-6.622500 0.000000
-6.609100 0.000000
-6.595600 0.000000
-6.582200 0.000000
-6.568700 0.000000
-6.555300 0.000000
-6.541800 0.000000
-6.528400 0.000000
-6.514900 0.000000
-6.501500 0.000000
-6.488000 0.000000
-6.474600 0.000000
-6.461100 0.000000
-6.447700 0.000000
-6.434200 0.000000
-6.420800 0.000000
-6.407300 0.000000
-6.393900 0.000000
-6.380400 0.000000
-6.367000 0.000000
-6.353500 0.000000
-6.340100 0.000000
-6.326600 0.000000
-6.313200 0.000000
-6.299700 0.000000
-6.286300 0.000000
-6.272800 0.000000
-6.259400 0.000000
-6.245900 0.000000
-6.232500 0.000000
-6.219000 0.000000
-6.205600 0.000000
-6.192100 0.000000
-6.178700 0.000000
-6.165200 0.000000
-6.151800 0.000000
-6.138300 0.000000
-6.124900 0.000000
-6.111400 0.000000
-6.098000 0.000000
-6.084500 0.000000
-6.071100 0.000000
-6.057600 0.000000
-6.044200 0.000000
-6.030700 0.000000
-6.017300 0.000000
-6.003800 0.000000
-5.990400 113.274500
-5.976900 24.314000
-5.963500 23.721300
-5.950000 35.508100
-5.936600 26.826400
-5.923100 13.298400
-5.909700 0.000000
-5.896200 0.000000
-5.882800 0.000000
-5.869300 0.000000
-5.855900 0.000000
-5.842400 1.838000
-5.829000 13.305700
-5.815500 24.668500
-5.802100 35.913800
-5.788600 47.159100
-5.775200 117.333400
-5.761700 59.927300
-5.748300 0.000000
-5.734800 0.000000
-5.721400 0.000000
-5.707900 0.000000
-5.694500 0.000000
-5.681000 0.000000
-5.667600 0.000000
-5.654100 0.000000
-5.640700 0.000000
-5.627200 0.000000
-5.613800 0.000000
-5.600300 0.000000
-5.586900 0.000000
-5.573400 18.306800
-5.560000 29.422700
-5.546500 39.567600
-5.533100 48.778100
-5.519600 57.988600
-5.506200 36.558600
-5.492700 39.955700
-5.479300 26.041300
-5.465800 8.239500
-5.452400 0.000000
-5.438900 0.000000
-5.425500 0.000000
-5.412000 0.000000
-5.398600 0.000000
-5.385100 0.000000
-5.371700 0.000000
-5.358200 0.000000
-5.344800 0.000000
-5.331300 0.000000
-5.317900 0.000000
-5.304400 0.000000
-5.291000 0.000000
-5.277500 0.000000
-5.264100 0.000000
-5.250600 0.000000
-5.237200 0.000000
-5.223700 0.000000
-5.210300 0.000000
-5.196800 0.000000
-5.183400 6.057100
-5.169900 17.156900
-5.156500 24.890400
-5.143000 31.261700
-5.129600 31.751800
-5.116100 34.294500
-5.102700 30.083300
-5.089200 26.844600
-5.075800 23.692600
-5.062300 20.540700
-5.048900 17.453800
-5.035400 63.620500
-5.022000 82.366200
-5.008500 76.216200
-4.995100 40.339700
-4.981600 33.724600
-4.968200 27.109500
-4.954700 12.252300
-4.941300 0.000000
-4.927800 1.497200
-4.914400 3.956200
-4.900900 6.415300
-4.887500 9.066800
-4.874000 13.526400
-4.860600 21.155200
-4.847100 35.704500
-4.833700 39.654000
-4.820200 39.744100
-4.806800 39.834200
-4.793300 38.786200
-4.779900 28.980200
-4.766400 18.713100
-4.753000 0.000000
-4.739500 0.000000
-4.726100 0.000000
-4.712600 0.000000
-4.699200 0.000000
-4.685700 0.000000
-4.672300 0.000000
-4.658800 0.000000
-4.645400 0.000000
-4.631900 0.000000
-4.618500 0.000000
-4.605000 0.000000
-4.591600 0.000000
-4.578100 0.000000
-4.564700 0.000000
-4.551200 0.000000
-4.537800 0.000000
-4.524300 0.000000
-4.510900 0.000000
-4.497400 0.000000
-4.484000 0.000000
-4.470500 0.000000
-4.457100 70.947700
-4.443600 54.510000
-4.430200 34.231000
-4.416700 23.203400
-4.403300 11.768600
-4.389800 11.318100
-4.376400 15.070900
-4.362900 32.434400
-4.349500 89.962100
-4.336000 79.179800
-4.322600 53.144300
-4.309100 47.684100
-4.295700 37.157200
-4.282200 23.492300
-4.268800 9.827400
-4.255300 0.675000
-4.241900 4.566900
-4.228400 21.351100
-4.215000 38.135300
-4.201500 40.982200
-4.188100 27.781000
-4.174600 88.483400
-4.161200 63.645500
-4.147700 30.368300
-4.134300 8.840700
-4.120800 28.270900
-4.107400 33.114200
-4.093900 30.372500
-4.080500 24.421800
-4.067000 18.471200
-4.053600 18.048100
-4.040100 19.098600
-4.026700 47.175800
-4.013200 73.504900
-3.999800 0.000000
-3.986300 20.730300
-3.972900 22.014500
-3.959400 23.298800
-3.946000 27.219400
-3.932500 32.615700
-3.919100 42.644800
-3.905600 83.172700
-3.892200 53.688700
-3.878700 0.000000
-3.865300 0.000000
-3.851800 1.808600
-3.838400 7.900900
-3.824900 13.993200
-3.811500 43.039300
-3.798000 100.027800
-3.784600 87.340800
-3.771100 36.799500
-3.757700 0.000000
-3.744200 0.000000
-3.730800 0.000000
-3.717300 0.000000
-3.703900 0.000000
-3.690400 57.633600
-3.677000 38.801700
-3.663500 45.724000
-3.650100 56.343500
-3.636600 64.209200
-3.623200 33.705500
-3.609700 6.199400
-3.596300 21.026100
-3.582800 34.655900
-3.569400 47.976600
-3.555900 34.358500
-3.542500 62.976400
-3.529000 38.065100
-3.515600 22.127500
-3.502100 12.761700
-3.488700 6.927800
-3.475200 64.634400
-3.461800 128.794800
-3.448400 48.760200
-3.434900 55.056600
-3.421500 7.252500
-3.408000 72.724000
-3.394600 74.683600
-3.381100 29.256700
-3.367700 30.733300
-3.354200 59.817800
-3.340800 21.271900
-3.327300 7.729600
-3.313900 0.000000
-3.300400 0.000000
-3.287000 0.000000
-3.273500 0.000000
-3.260100 59.099900
-3.246600 45.146800
-3.233200 106.597400
-3.219700 65.436000
-3.206300 0.000000
-3.192800 0.000000
-3.179400 0.000000
-3.165900 0.000000
-3.152500 0.000000
-3.139000 0.000000
-3.125600 0.000000
-3.112100 0.000000
-3.098700 0.000000
-3.085200 0.000000
-3.071800 0.000000
-3.058300 0.000000
-3.044900 14.530300
-3.031400 23.237300
-3.018000 28.516800
-3.004500 43.918700
-2.991100 44.176300
-2.977600 45.455500
-2.964200 37.832300
-2.950700 30.209100
-2.937300 22.585800
-2.923800 7.512300
-2.910400 0.000000
-2.896900 0.000000
-2.883500 0.000000
-2.870000 0.000000
-2.856600 0.000000
-2.843100 0.000000
-2.829700 0.000000
-2.816200 0.000000
-2.802800 0.000000
-2.789300 0.000000
-2.775900 0.000000
-2.762400 0.000000
-2.749000 0.000000
-2.735500 0.000000
-2.722100 0.000000
-2.708600 0.000000
-2.695200 0.000000
-2.681700 0.000000
-2.668300 0.000000
-2.654800 0.000000
-2.641400 0.000000
-2.627900 0.000000
-2.614500 0.000000
-2.601000 0.000000
-2.587600 0.000000
-2.574100 0.000000
-2.560700 0.000000
-2.547200 0.000000
-2.533800 0.000000
-2.520300 0.000000
-2.506900 0.000000
-2.493400 0.000000
-2.480000 0.000000
-2.466500 0.000000
-2.453100 0.000000
-2.439600 0.000000
-2.426200 0.000000
-2.412700 0.000000
-2.399300 0.000000
-2.385800 0.000000
-2.372400 0.000000
-2.358900 0.000000
-2.345500 0.000000
-2.332000 0.000000
-2.318600 0.000000
-2.305100 0.000000
-2.291700 0.000000
-2.278200 0.000000
-2.264800 0.000000
-2.251300 0.000000
-2.237900 0.000000
-2.224400 0.000000
-2.211000 0.000000
-2.197500 0.000000
-2.184100 0.000000
-2.170600 0.000000
-2.157200 0.000000
-2.143700 0.000000
-2.130300 0.000000
-2.116800 0.000000
-2.103400 0.000000
-2.089900 0.000000
-2.076500 0.000000
-2.063000 0.000000
-2.049600 4.710700
-2.036100 14.175100
-2.022700 23.639500
-2.009200 36.440000
-1.995800 22.241800
-1.982300 21.232900
-1.968900 23.071200
-1.955400 56.831000
-1.942000 42.359800
-1.928500 31.170500
-1.915100 19.981200
-1.901600 16.821600
-1.888200 30.140300
-1.874700 42.440700
-1.861300 56.084300
-1.847800 44.347100
-1.834400 89.077800
-1.820900 0.000000
-1.807500 38.802500
-1.794000 36.051500
-1.780600 27.256200
-1.767100 26.795400
-1.753700 31.588500
-1.740200 54.459600
-1.726800 92.334800
-1.713300 11.344500
-1.699900 0.091600
-1.686400 2.427100
-1.673000 4.762500
-1.659500 6.985400
-1.646100 8.172000
-1.632600 9.358600
-1.619200 10.545200
-1.605700 11.731900
-1.592300 12.918500
-1.578800 14.105100
-1.565400 15.291700
-1.551900 16.478400
-1.538500 20.119100
-1.525000 21.118800
-1.511600 20.058100
-1.498100 24.484900
-1.484700 40.230100
-1.471200 25.489900
-1.457800 23.815300
-1.444300 34.295600
-1.430900 34.853100
-1.417400 30.508900
-1.404000 53.899700
-1.390500 46.488200
-1.377100 65.948000
-1.363600 91.319300
-1.350200 104.962400
-1.336700 100.364900
-1.323300 54.762600
-1.309800 36.398100
-1.296400 36.862600
-1.282900 49.952900
-1.269500 40.197300
-1.256000 25.413000
-1.242600 14.658700
-1.229100 19.948000
-1.215700 33.764800
-1.202200 37.863700
-1.188800 0.000000
-1.175300 0.000000
-1.161900 0.000000
-1.148400 0.000000
-1.135000 0.000000
-1.121500 0.000000
-1.108100 0.000000
-1.094600 0.000000
-1.081200 0.000000
-1.067700 35.172900
-1.054300 39.146400
-1.040800 41.422400
-1.027400 40.631300
-1.013900 44.543400
-1.000500 43.083500
-0.987000 46.044500
-0.973600 46.857500
-0.960100 46.407300
-0.946700 37.956000
-0.933200 36.362600
-0.919800 79.501200
-0.906300 92.942100
-0.892900 84.603300
-0.879400 79.219000
-0.866000 46.914700
-0.852500 35.946700
-0.839100 68.178900
-0.825600 74.301300
-0.812200 79.613700
-0.798700 55.596300
-0.785300 34.468400
-0.771800 0.000000
-0.758400 0.000000
-0.744900 0.000000
-0.731500 0.000000
-0.718000 0.000000
-0.704600 0.000000
-0.691100 0.000000
-0.677700 0.000000
-0.664200 52.276500
-0.650800 65.751300
-0.637300 47.067600
-0.623900 39.475300
-0.610400 31.882900
-0.597000 24.290500
-0.583500 16.818200
-0.570100 0.000000
-0.556600 0.000000
-0.543200 28.504900
-0.529700 50.413700
-0.516300 65.261600
-0.502800 64.136500
-0.489400 42.631500
-0.475900 40.993900
-0.462500 30.231000
-0.449000 23.292500
-0.435600 50.930400
-0.422100 50.445800
-0.408700 36.348000
-0.395200 44.352600
-0.381800 52.357300
-0.368300 67.033300
-0.354900 73.422800
-0.341400 88.422400
-0.328000 28.400500
-0.314500 22.201900
-0.301100 16.003300
-0.287600 7.803100
-0.274200 0.000000
-0.260700 0.000000
-0.247300 0.000000
-0.233800 4.534900
-0.220400 19.843100
-0.206900 30.647900
-0.193500 31.572500
-0.180000 31.858600
-0.166600 35.265700
-0.153100 29.993700
-0.139700 53.121600
-0.126200 88.838300
-0.112800 98.247500
-0.099300 55.940300
-0.085900 116.089600
-0.072400 31.250600
-0.059000 50.216800
-0.045500 67.757800
-0.032100 61.482400
-0.018600 25.183200
-0.005200 20.147800
0.008300 17.284600
0.021700 17.164400
0.035200 17.044200
0.048600 9.926400
0.062100 0.000000
0.075500 0.000000
0.089000 0.000000
0.102400 0.000000
0.115900 0.000000
0.129300 0.000000
0.142800 0.000000
0.156200 0.000000
0.169700 0.000000
0.183100 0.000000
0.196600 0.000000
0.210000 0.000000
0.223500 0.000000
0.236900 0.000000
0.250400 0.000000
0.263800 0.000000
0.277300 0.000000
0.290700 0.000000
0.304200 0.000000
0.317600 0.000000
0.331100 0.000000
0.344500 0.000000
0.358000 0.000000
0.371400 0.000000
0.384900 0.000000
0.398300 0.000000
0.411800 0.000000
0.425200 0.000000
0.438700 0.000000
0.452100 0.000000
0.465600 0.000000
0.479000 0.000000
0.492500 0.000000
0.505900 0.000000
0.519400 0.000000
0.532800 0.000000
0.546300 0.000000
0.559700 0.000000
0.573200 0.000000
0.586600 0.000000
0.600100 0.000000
0.613500 0.000000
0.627000 0.000000
0.640400 0.000000
0.653900 0.000000
0.667300 0.000000
0.680800 0.000000
0.694200 0.000000
0.707700 0.000000
0.721100 0.000000
0.734600 0.000000
0.748000 0.000000
0.761500 0.000000
0.774900 0.000000
0.788400 0.000000
0.801800 0.000000
0.815300 0.000000
0.828700 0.000000
0.842200 0.000000
0.855600 0.000000
0.869100 0.000000
0.882500 0.000000
0.896000 0.000000
0.909400 0.000000
0.922800 0.000000
0.936300 0.000000
0.949700 0.000000
0.963200 0.000000
0.976600 0.000000
0.990100 0.000000
1.003500 0.000000
1.017000 0.000000
1.030400 0.000000
1.043900 0.000000
1.057300 0.000000
1.070800 0.000000
1.084200 0.000000
1.097700 0.000000
1.111100 0.000000
1.124600 0.000000
1.138000 0.000000
1.151500 0.000000
1.164900 0.000000
1.178400 0.000000
1.191800 0.000000
1.205300 0.000000
1.218700 0.000000
1.232200 0.000000
1.245600 0.000000
1.259100 0.000000
1.272500 0.000000
1.286000 0.000000
1.299400 0.000000
1.312900 0.000000
1.326300 0.000000
1.339800 0.000000
1.353200 0.000000
1.366700 0.000000
1.380100 0.000000
1.393600 0.000000
1.407000 0.000000
1.420500 0.000000
1.433900 0.000000
1.447400 0.000000
1.460800 0.000000
1.474300 0.000000
1.487700 0.000000
1.501200 0.000000
1.514600 0.000000
1.528100 0.000000
1.541500 0.000000
1.555000 0.000000
1.568400 0.000000
1.581900 0.000000
1.595300 0.000000
1.608800 0.000000
1.622200 0.000000
1.635700 0.000000
1.649100 0.000000
1.662600 0.000000
1.676000 0.000000
1.689500 0.000000
1.702900 0.000000
1.716400 0.000000
1.729800 0.000000
1.743300 0.000000
1.756700 0.000000
1.770200 0.000000
1.783600 0.000000
1.797100 0.000000
1.810500 0.000000
1.824000 0.000000
1.837400 0.000000
1.850900 0.000000
1.864300 0.000000
1.877800 0.000000
1.891200 0.000000
1.904700 0.000000
1.918100 0.000000
1.931600 0.000000
1.945000 0.000000
1.958500 0.000000
1.971900 0.000000
1.985400 0.000000
1.998800 0.000000
2.012300 0.000000
2.025700 0.000000
2.039200 0.000000
2.052600 0.000000
2.066100 0.000000
2.079500 0.000000
2.093000 0.000000
2.106400 0.000000
2.119900 0.000000
2.133300 0.000000
2.146800 0.000000
2.160200 0.000000
2.173700 0.000000
2.187100 0.000000
2.200600 0.000000
2.214000 0.000000
2.227500 0.000000
2.240900 0.000000
2.254400 0.000000
2.267800 0.000000
2.281300 0.000000
2.294700 0.000000
2.308200 0.000000
2.321600 0.000000
2.335100 0.000000
2.348500 0.000000
2.362000 0.000000
2.375400 0.000000
2.388900 0.000000
2.402300 0.000000
2.415800 0.000000
2.429200 0.000000
2.442700 0.000000
2.456100 0.000000
2.469600 0.000000
2.483000 0.000000
2.496500 0.000000
2.509900 0.915900
2.523400 5.058300
2.536800 9.200800
2.550300 13.343200
2.563700 20.205100
2.577200 27.443400
2.590600 34.681800
2.604100 40.897600
2.617500 75.003000
2.631000 47.231900
2.644400 41.089600
2.657900 16.427100
2.671300 9.814100
2.684800 11.776900
2.698200 13.739800
2.711700 15.702600
2.725100 17.688700
2.738600 17.979700
2.752000 18.024200
2.765500 18.068800
2.778900 18.120500
2.792400 19.588400
2.805800 27.467300
2.819300 34.731100
2.832700 36.961100
2.846200 38.867100
2.859600 36.401200
2.873100 31.802200
2.886500 14.986900
2.900000 10.424800
2.913400 20.101800
2.926900 31.293300
2.940300 35.200100
2.953800 34.009800
2.967200 30.654300
2.980700 51.067800
2.994100 0.000000
3.007600 2.263200
3.021000 5.858000
3.034500 9.617800
3.047900 16.034200
3.061400 22.450600
3.074800 58.529100
3.088300 40.024200
3.101700 40.678300
3.115200 61.209300
3.128600 20.225200
3.142100 25.482100
3.155500 50.395900
3.169000 57.997300
3.182400 35.192500
3.195900 31.057800
3.209300 26.923000
3.222800 22.788300
3.236200 18.653600
3.249700 64.619700
3.263100 56.695800
3.276600 30.301100
3.290000 30.015700
3.303500 30.905100
3.316900 31.873000
3.330400 28.990900
3.343800 23.456300
3.357300 14.295600
3.370700 11.356700
3.384200 16.382900
3.397600 20.641400
3.411100 24.391800
3.424500 26.102000
3.438000 27.503700
3.451400 51.636000
3.464900 51.143200
3.478300 47.948200
3.491800 45.236400
3.505200 42.509600
3.518700 39.762500
3.532100 42.401200
3.545600 42.803500
3.559000 44.320400
3.572500 59.614700
3.585900 11.280800
3.599400 29.703200
3.612800 27.417800
3.626300 27.487700
3.639700 34.213300
3.653200 60.338700
3.666600 51.114200
3.680100 31.548300
3.693500 9.640700
3.707000 6.969600
3.720400 4.298400
3.733900 1.627200
3.747300 0.000000
3.760800 0.000000
3.774200 4.770600
3.787700 19.717800
3.801100 19.680500
3.814600 26.639600
3.828000 48.266200
3.841500 43.230600
3.854900 60.375700
3.868400 56.170600
3.881800 54.073600
3.895300 64.629300
3.908700 33.010700
3.922200 32.154100
3.935600 31.822100
3.949100 31.490200
3.962500 31.158300
3.976000 30.973500
3.989400 30.512500
4.002900 26.877500
4.016300 23.107100
4.029800 23.971700
4.043200 48.611000
4.056700 18.357700
4.070100 30.004200
4.083600 46.334300
4.097000 22.537800
4.110500 0.000000
4.123900 0.000000
4.137400 32.485200
4.150800 41.924400
4.164300 45.217000
4.177700 78.281100
4.191200 83.182100
4.204600 52.662600
4.218100 46.384300
4.231500 33.845300
4.245000 13.299000
4.258400 13.431800
4.271900 13.564700
4.285300 13.697500
4.298800 13.830400
4.312200 22.400900
4.325700 83.063700
4.339100 36.682800
4.352600 19.151900
4.366000 27.262300
4.379500 35.743700
4.392900 40.881500
4.406400 37.380700
4.419800 27.131200
4.433300 14.614400
4.446700 14.120900
4.460200 18.736300
4.473600 38.763000
4.487100 51.093700
4.500500 47.020300
4.514000 39.632800
4.527400 41.322100
4.540900 45.729300
4.554300 48.729200
4.567800 26.861100
4.581200 0.000000
4.594700 13.704200
4.608100 25.750800
4.621600 32.958600
4.635000 35.999200
4.648500 37.201800
4.661900 39.237200
4.675400 61.587500
4.688800 29.124900
4.702300 15.151300
4.715700 1.177700
4.729200 0.000000
4.742600 0.000000
4.756100 1.720100
4.769500 4.763100
4.783000 8.096500
4.796400 20.238200
4.809900 31.902000
4.823300 42.930100
4.836800 42.791700
4.850200 42.653200
4.863700 42.514700
4.877100 32.201100
4.890600 15.862000
4.904000 6.285200
4.917500 2.221900
4.930900 0.000000
4.944400 0.000000
4.957800 0.000000
4.971300 0.000000
4.984700 0.000000
4.998200 0.000000
5.011600 0.000000
5.025100 0.000000
5.038500 0.000000
5.052000 0.000000
5.065400 0.000000
5.078900 0.000000
5.092300 0.000000
5.105800 0.000000
5.119200 0.000000
5.132700 0.000000
5.146100 0.000000
5.159600 0.000000
5.173000 0.000000
5.186500 0.000000
5.199900 0.000000
5.213400 0.000000
5.226800 0.000000
5.240300 0.000000
5.253700 0.000000
5.267200 0.000000
5.280600 0.000000
5.294000 0.000000
5.307500 0.000000
5.320900 0.000000
5.334400 0.000000
5.347800 0.000000
5.361300 0.000000
5.374700 0.000000
5.388200 0.000000
5.401600 0.000000
5.415100 0.000000
5.428500 0.000000
5.442000 0.000000
5.455400 0.000000
5.468900 0.000000
5.482300 0.000000
5.495800 0.000000
5.509200 0.000000
5.522700 0.000000
5.536100 0.000000
5.549600 0.000000
5.563000 0.000000
5.576500 0.000000
5.589900 0.000000
5.603400 0.000000
5.616800 0.000000
5.630300 0.000000
5.643700 0.000000
5.657200 0.000000
5.670600 0.000000
5.684100 0.000000
5.697500 0.096000
5.711000 0.219700
5.724400 0.343300
5.737900 0.467000
5.751300 0.590700
5.764800 0.714300
5.778200 0.838000
5.791700 0.961600
5.805100 1.085300
5.818600 1.208900
5.832000 1.332600
5.845500 1.456200
5.858900 1.579900
5.872400 1.703500
5.885800 1.827200
5.899300 1.950800
5.912700 2.074500
5.926200 2.198100
5.939600 2.321800
5.953100 2.445400
5.966500 2.585600
5.980000 2.729000
5.993400 2.872300
6.006900 3.015700
6.020300 3.159000
6.033800 3.302400
6.047200 3.445700
6.060700 3.589100
6.074100 3.732400
6.087600 3.875800
6.101000 4.019100
6.114500 4.162500
6.127900 4.305800
6.141400 4.449100
6.154800 4.592500
6.168300 4.315600
6.181700 4.022900
6.195200 3.730200
6.208600 4.687200
6.222100 6.308400
6.235500 7.929500
6.249000 9.550700
6.262400 11.491900
6.275900 13.453600
6.289300 12.209500
6.302800 11.958400
6.316200 11.707200
6.329700 11.456000
6.343100 11.204900
6.356600 10.953700
6.370000 10.702600
6.383500 10.919100
6.396900 11.856800
6.410400 13.421600
6.423800 14.986500
6.437300 15.583700
6.450700 14.423000
6.464200 13.326200
6.477600 12.414300
6.491100 12.033600
6.504500 13.308700
6.518000 15.461200
6.531400 16.527000
6.544900 16.665600
6.558300 17.710600
6.571800 20.959300
6.585200 20.289600
6.598700 18.373500
6.612100 16.459600
6.625600 14.545700
6.639000 12.631800
6.652500 10.717900
6.665900 9.334800
6.679400 8.862400
6.692800 8.099200
6.706300 7.170900
6.719700 6.242600
6.733200 5.314300
6.746600 4.386100
6.760100 10.850800
6.773500 24.437200
6.787000 31.545800
6.800400 34.827400
6.813900 35.803800
6.827300 31.804900
6.840800 21.828800
6.854200 11.852600
6.867700 17.083900
6.881100 34.649000
6.894600 33.530100
6.908000 33.201100
6.921500 32.142800
6.934900 30.419600
6.948400 26.771200
6.961800 27.777000
6.975300 24.607900
6.988700 35.736800
7.002200 27.086100
7.015600 30.794100
7.029100 32.572100
7.042500 30.153900
7.056000 26.773200
7.069400 23.392500
7.082900 22.435900
7.096300 24.931300
7.109800 29.987100
7.123200 41.936200
7.136700 41.450700
7.150100 36.953600
7.163600 32.571800
7.177000 29.453600
7.190500 26.335400
7.203900 23.217200
7.217400 22.576000
7.230800 29.110000
7.244300 88.880500
7.257700 46.148400
7.271200 31.082100
7.284600 6.114300
7.298100 4.215500
7.311500 13.355600
7.325000 25.105400
7.338400 37.877200
7.351900 48.805500
7.365300 45.979100
7.378800 40.604000
7.392200 24.853000
7.405700 30.743300
7.419100 38.311800
7.432600 24.245600
7.446000 27.978200
7.459500 84.931100
7.472900 51.807500
7.486400 23.592700
7.499800 25.507600
7.513300 27.234800
7.526700 28.962100
7.540200 38.085300
7.553600 31.486300
7.567100 34.185500
7.580500 38.863800
7.594000 34.297300
7.607400 31.788900
7.620900 27.275500
7.634300 21.044900
7.647800 14.814300
7.661200 10.132400
7.674700 37.789200
7.688100 39.365300
7.701600 36.087800
7.715000 50.345700
7.728500 65.783900
7.741900 71.907900
7.755400 23.538100
7.768800 39.479700
7.782300 51.397400
7.795700 62.965300
7.809200 33.094900
7.822600 35.178600
7.836100 32.564900
7.849500 29.435600
7.863000 22.604100
7.876400 15.644900
7.889900 14.355100
7.903300 14.655700
7.916800 15.952500
7.930200 30.017600
7.943700 38.250500
7.957100 36.282700
7.970600 37.777200
7.984000 39.804000
7.997500 43.059200
8.010900 20.665500
8.024400 25.385500
8.037800 30.721300
8.051300 52.041300
8.064700 43.822500
8.078200 30.674800
8.091600 18.197600
8.105100 8.426100
8.118500 24.658800
8.132000 30.393400
8.145400 40.833200
8.158900 45.275700
8.172300 43.988900
8.185800 38.309100
8.199200 31.751800
8.212700 26.405000
8.226100 23.006100
8.239600 20.200600
8.253000 22.890400
8.266500 22.950900
8.279900 20.521400
8.293400 24.679900
8.306800 32.003400
8.320300 34.666600
8.333700 36.793700
8.347200 41.563800
8.360600 47.684600
8.374100 39.703900
8.387500 32.554000
8.401000 29.138800
8.414400 27.077400
8.427900 29.858400
8.441300 30.112400
8.454800 18.270000
8.468200 8.816300
8.481700 8.836000
8.495100 32.423000
8.508600 33.304500
8.522000 30.030700
8.535500 3.447700
8.548900 0.000000
8.562400 0.000000
8.575800 0.000000
8.589300 0.000000
8.602700 0.000000
8.616200 0.000000
8.629600 0.000000
8.643100 0.000000
8.656500 0.000000
8.670000 0.000000
8.683400 0.000000
8.696900 0.000000
8.710300 0.000000
8.723800 0.000000
8.737200 0.000000
8.750700 0.000000
8.764100 0.000000
8.777600 0.000000
8.791000 0.000000
8.804500 0.000000
8.817900 0.000000
8.831400 0.000000
8.844800 0.000000
8.858300 0.000000
8.871700 0.000000
8.885200 0.000000
8.898600 0.000000
8.912100 0.000000
8.925500 0.000000
8.939000 0.000000
8.952400 0.000000
8.965900 0.000000
8.979300 0.000000
8.992800 0.000000
9.006200 0.000000
9.019700 0.000000
9.033100 0.000000
9.046600 0.000000
9.060000 0.000000
9.073500 0.000000
9.086900 0.000000
9.100400 0.000000
9.113800 0.000000
9.127300 0.000000
9.140700 0.000000
9.154200 0.000000
9.167600 0.000000
9.181100 0.000000
9.194500 0.000000
9.208000 0.000000
9.221400 0.000000
9.234900 0.000000
9.248300 0.000000
9.261800 0.000000
9.275200 0.000000
9.288700 0.000000
9.302100 0.000000
9.315600 0.000000
9.329000 0.000000
9.342500 0.000000
9.355900 0.000000
9.369400 0.000000
9.382800 0.000000
9.396300 0.000000
9.409700 0.000000
9.423200 0.000000
9.436600 0.000000
9.450100 0.000000
9.463500 0.000000
9.477000 0.000000
9.490400 0.000000
9.503900 0.000000
9.517300 0.000000
9.530800 0.000000
9.544200 0.000000
9.557700 0.000000
9.571100 0.000000
9.584600 0.000000
9.598000 0.000000
9.611500 0.000000
9.624900 0.000000
9.638400 0.000000
9.651800 0.000000
9.665300 0.000000
9.678700 0.000000
9.692100 0.000000
9.705600 0.000000
9.719000 0.000000
9.732500 0.000000
9.745900 0.000000
9.759400 0.000000
e
