set title 'mp-570671 - Density of States'
set xlabel 'Energy (eV)'
set ylabel 'DOS (states/eV)'
set grid
set xrange [-10:10]
set yrange [0:895.045]
set xzeroaxis lt -1
set terminal png size 800,600
set output 'mp-570671_dos_gnuplot.png'
plot '-' using 1:2 with lines title 'DOS'
-12.123200 0.000000
-12.109900 0.000000
-12.096600 0.000000
-12.083200 0.000000
-12.069900 0.000000
-12.056600 0.000000
-12.043300 0.000000
-12.030000 0.000000
-12.016700 0.000000
-12.003400 0.000000
-11.990000 0.000000
-11.976700 0.000000
-11.963400 0.000000
-11.950100 0.000000
-11.936800 0.000000
-11.923500 0.000000
-11.910100 0.000000
-11.896800 0.000000
-11.883500 0.000000
-11.870200 0.000000
-11.856900 0.000000
-11.843600 0.000000
-11.830200 0.000000
-11.816900 0.000000
-11.803600 0.000000
-11.790300 0.000000
-11.777000 0.000000
-11.763700 0.000000
-11.750300 0.000000
-11.737000 0.000000
-11.723700 0.000000
-11.710400 0.000000
-11.697100 0.000000
-11.683800 0.000000
-11.670400 0.000000
-11.657100 0.000000
-11.643800 0.000000
-11.630500 0.000000
-11.617200 0.000000
-11.603900 0.000000
-11.590500 0.000000
-11.577200 0.000000
-11.563900 0.000000
-11.550600 0.000000
-11.537300 0.000000
-11.524000 0.000000
-11.510600 0.000000
-11.497300 0.000000
-11.484000 0.000000
-11.470700 0.000000
-11.457400 0.000000
-11.444100 0.000000
-11.430800 0.000000
-11.417400 0.000000
-11.404100 0.000000
-11.390800 0.000000
-11.377500 0.000000
-11.364200 0.000000
-11.350900 0.000000
-11.337500 0.000000
-11.324200 0.000000
-11.310900 0.000000
-11.297600 0.000000
-11.284300 0.000000
-11.271000 0.000000
-11.257600 0.000000
-11.244300 0.000000
-11.231000 0.000000
-11.217700 0.000000
-11.204400 0.000000
-11.191100 0.000000
-11.177700 0.000000
-11.164400 0.000000
-11.151100 0.000000
-11.137800 0.000000
-11.124500 0.000000
-11.111200 0.000000
-11.097800 0.000000
-11.084500 0.000000
-11.071200 0.000000
-11.057900 0.000000
-11.044600 0.000000
-11.031300 0.000000
-11.017900 0.000000
-11.004600 0.000000
-10.991300 0.000000
-10.978000 0.000000
-10.964700 0.000000
-10.951400 0.000000
-10.938000 0.000000
-10.924700 0.000000
-10.911400 0.042700
-10.898100 0.665400
-10.884800 2.090800
-10.871500 3.757000
-10.858200 6.255700
-10.844800 9.176800
-10.831500 12.097900
-10.818200 12.178300
-10.804900 12.684600
-10.791600 11.732400
-10.778300 11.256400
-10.764900 11.668700
-10.751600 12.081000
-10.738300 12.493400
-10.725000 12.905700
-10.711700 13.318000
-10.698400 13.730300
-10.685000 14.143200
-10.671700 14.597600
-10.658400 15.096200
-10.645100 15.652000
-10.631800 16.269100
-10.618500 16.895800
-10.605100 17.519000
-10.591800 18.136700
-10.578500 18.743000
-10.565200 19.346100
-10.551900 19.949200
-10.538600 20.552300
-10.525200 21.155400
-10.511900 21.758500
-10.498600 22.361600
-10.485300 23.745700
-10.472000 27.309500
-10.458700 34.914700
-10.445300 48.257300
-10.432000 70.871200
-10.418700 84.756300
-10.405400 101.232900
-10.392100 108.814600
-10.378800 119.171100
-10.365400 160.809900
-10.352100 204.549600
-10.338800 927.552500
-10.325500 24.570900
-10.312200 0.000000
-10.298900 0.000000
-10.285600 0.000000
-10.272200 0.000000
-10.258900 0.000000
-10.245600 0.000000
-10.232300 0.000000
-10.219000 0.000000
-10.205700 0.000000
-10.192300 0.000000
-10.179000 0.000000
-10.165700 0.000000
-10.152400 0.000000
-10.139100 0.000000
-10.125800 0.000000
-10.112400 0.000000
-10.099100 0.000000
-10.085800 0.000000
-10.072500 0.000000
-10.059200 0.000000
-10.045900 0.000000
-10.032500 0.000000
-10.019200 0.000000
-10.005900 0.000000
-9.992600 0.000000
-9.979300 0.000000
-9.966000 0.000000
-9.952600 0.000000
-9.939300 0.000000
-9.926000 0.000000
-9.912700 0.000000
-9.899400 0.000000
-9.886100 0.000000
-9.872700 0.000000
-9.859400 0.000000
-9.846100 0.000000
-9.832800 0.000000
-9.819500 0.000000
-9.806200 0.000000
-9.792800 0.000000
-9.779500 0.000000
-9.766200 0.000000
-9.752900 0.000000
-9.739600 0.000000
-9.726300 0.000000
-9.713000 0.000000
-9.699600 0.000000
-9.686300 0.000000
-9.673000 0.000000
-9.659700 0.000000
-9.646400 0.000000
-9.633100 0.000000
-9.619700 0.000000
-9.606400 0.000000
-9.593100 0.000000
-9.579800 0.000000
-9.566500 0.000000
-9.553200 0.000000
-9.539800 0.000000
-9.526500 0.000000
-9.513200 0.000000
-9.499900 0.000000
-9.486600 0.000000
-9.473300 0.000000
-9.459900 0.000000
-9.446600 0.000000
-9.433300 0.000000
-9.420000 0.000000
-9.406700 0.000000
-9.393400 0.000000
-9.380000 0.000000
-9.366700 0.000000
-9.353400 0.000000
-9.340100 0.000000
-9.326800 0.000000
-9.313500 0.000000
-9.300100 0.000000
-9.286800 0.000000
-9.273500 0.000000
-9.260200 0.000000
-9.246900 0.000000
-9.233600 0.000000
-9.220200 0.000000
-9.206900 0.000000
-9.193600 0.000000
-9.180300 0.000000
-9.167000 0.000000
-9.153700 0.000000
-9.140400 0.000000
-9.127000 0.000000
-9.113700 0.000000
-9.100400 0.000000
-9.087100 0.000000
-9.073800 0.000000
-9.060500 0.000000
-9.047100 0.000000
-9.033800 0.000000
-9.020500 0.000000
-9.007200 0.000000
-8.993900 0.000000
-8.980600 0.000000
-8.967200 0.000000
-8.953900 0.000000
-8.940600 0.000000
-8.927300 0.000000
-8.914000 0.000000
-8.900700 0.000000
-8.887300 0.000000
-8.874000 0.000000
-8.860700 0.000000
-8.847400 0.000000
-8.834100 0.000000
-8.820800 0.000000
-8.807400 0.000000
-8.794100 0.000000
-8.780800 0.000000
-8.767500 0.000000
-8.754200 0.000000
-8.740900 0.000000
-8.727500 0.000000
-8.714200 0.000000
-8.700900 0.000000
-8.687600 0.000000
-8.674300 0.000000
-8.661000 0.000000
-8.647700 0.000000
-8.634300 0.000000
-8.621000 0.000000
-8.607700 0.000000
-8.594400 0.000000
-8.581100 0.000000
-8.567800 0.000000
-8.554400 0.000000
-8.541100 0.000000
-8.527800 0.000000
-8.514500 0.000000
-8.501200 0.000000
-8.487900 0.000000
-8.474500 0.000000
-8.461200 0.000000
-8.447900 0.000000
-8.434600 0.000000
-8.421300 0.000000
-8.408000 0.000000
-8.394600 0.000000
-8.381300 0.000000
-8.368000 0.000000
-8.354700 0.000000
-8.341400 0.000000
-8.328100 0.000000
-8.314700 0.000000
-8.301400 0.000000
-8.288100 0.000000
-8.274800 0.000000
-8.261500 0.000000
-8.248200 0.000000
-8.234800 0.000000
-8.221500 0.000000
-8.208200 0.000000
-8.194900 0.000000
-8.181600 0.000000
-8.168300 0.000000
-8.154900 0.000000
-8.141600 0.000000
-8.128300 0.000000
-8.115000 0.000000
-8.101700 0.000000
-8.088400 0.000000
-8.075100 0.000000
-8.061700 0.000000
-8.048400 0.000000
-8.035100 0.000000
-8.021800 0.000000
-8.008500 0.000000
-7.995200 0.000000
-7.981800 0.000000
-7.968500 0.000000
-7.955200 0.000000
-7.941900 0.000000
-7.928600 0.000000
-7.915300 0.000000
-7.901900 0.000000
-7.888600 0.000000
-7.875300 0.000000
-7.862000 0.000000
-7.848700 0.000000
-7.835400 0.000000
-7.822000 0.000000
-7.808700 0.000000
-7.795400 0.000000
-7.782100 0.000000
-7.768800 0.000000
-7.755500 0.000000
-7.742100 0.000000
-7.728800 0.000000
-7.715500 0.000000
-7.702200 0.000000
-7.688900 0.000000
-7.675600 0.000000
-7.662200 0.000000
-7.648900 0.000000
-7.635600 0.000000
-7.622300 0.000000
-7.609000 0.000000
-7.595700 0.000000
-7.582300 0.000000
-7.569000 0.000000
-7.555700 0.000000
-7.542400 0.000000
-7.529100 0.000000
-7.515800 0.000000
-7.502500 0.000000
-7.489100 0.000000
-7.475800 0.000000
-7.462500 0.000000
-7.449200 0.000000
-7.435900 0.000000
-7.422600 0.000000
-7.409200 0.000000
-7.395900 0.000000
-7.382600 0.000000
-7.369300 0.000000
-7.356000 0.000000
-7.342700 0.000000
-7.329300 0.000000
-7.316000 0.000000
-7.302700 0.000000
-7.289400 0.000000
-7.276100 0.000000
-7.262800 0.000000
-7.249400 0.000000
-7.236100 0.000000
-7.222800 0.000000
-7.209500 0.000000
-7.196200 0.000000
-7.182900 0.000000
-7.169500 0.000000
-7.156200 0.000000
-7.142900 0.000000
-7.129600 0.000000
-7.116300 0.000000
-7.103000 0.000000
-7.089600 0.000000
-7.076300 0.000000
-7.063000 0.000000
-7.049700 0.000000
-7.036400 0.000000
-7.023100 0.000000
-7.009700 0.000000
-6.996400 0.000000
-6.983100 0.000000
-6.969800 0.000000
-6.956500 0.000000
-6.943200 0.000000
-6.929900 0.000000
-6.916500 0.000000
-6.903200 0.000000
-6.889900 0.000000
-6.876600 0.000000
-6.863300 0.000000
-6.850000 0.000000
-6.836600 0.000000
-6.823300 0.000000
-6.810000 0.000000
-6.796700 0.000000
-6.783400 0.000000
-6.770100 0.000000
-6.756700 0.000000
-6.743400 0.000000
-6.730100 0.000000
-6.716800 0.000000
-6.703500 0.000000
-6.690200 0.000000
-6.676800 0.000000
-6.663500 0.000000
-6.650200 0.000000
-6.636900 0.000000
-6.623600 32.932800
-6.610300 116.719300
-6.596900 203.431400
-6.583600 255.262300
-6.570300 143.788900
-6.557000 96.253000
-6.543700 91.208200
-6.530400 86.163400
-6.517000 382.913400
-6.503700 260.704200
-6.490400 192.339500
-6.477100 81.688300
-6.463800 113.279900
-6.450500 362.007900
-6.437100 813.677700
-6.423800 185.497900
-6.410500 714.061700
-6.397200 59.806600
-6.383900 160.540000
-6.370600 92.326100
-6.357300 78.633200
-6.343900 64.940300
-6.330600 76.108200
-6.317300 0.000000
-6.304000 0.000000
-6.290700 0.000000
-6.277400 0.000000
-6.264000 0.000000
-6.250700 0.000000
-6.237400 0.000000
-6.224100 0.000000
-6.210800 0.000000
-6.197500 0.000000
-6.184100 0.000000
-6.170800 0.000000
-6.157500 0.000000
-6.144200 0.000000
-6.130900 0.000000
-6.117600 0.000000
-6.104200 0.000000
-6.090900 0.000000
-6.077600 0.000000
-6.064300 0.000000
-6.051000 0.000000
-6.037700 0.000000
-6.024300 0.000000
-6.011000 0.000000
-5.997700 0.000000
-5.984400 0.000000
-5.971100 0.000000
-5.957800 0.000000
-5.944400 0.000000
-5.931100 0.000000
-5.917800 0.000000
-5.904500 0.000000
-5.891200 0.000000
-5.877900 0.000000
-5.864500 0.000000
-5.851200 0.000000
-5.837900 0.000000
-5.824600 0.000000
-5.811300 0.000000
-5.798000 0.000000
-5.784700 0.000000
-5.771300 0.000000
-5.758000 0.000000
-5.744700 0.000000
-5.731400 0.000000
-5.718100 0.000000
-5.704800 0.000000
-5.691400 0.000000
-5.678100 0.000000
-5.664800 0.000000
-5.651500 0.000000
-5.638200 0.000000
-5.624900 0.000000
-5.611500 0.000000
-5.598200 0.000000
-5.584900 0.000000
-5.571600 0.000000
-5.558300 0.000000
-5.545000 0.000000
-5.531600 0.000000
-5.518300 0.000000
-5.505000 0.000000
-5.491700 0.000000
-5.478400 0.000000
-5.465100 0.000000
-5.451700 0.000000
-5.438400 0.000000
-5.425100 0.000000
-5.411800 0.000000
-5.398500 0.000000
-5.385200 0.000000
-5.371800 0.000000
-5.358500 0.000000
-5.345200 0.000000
-5.331900 0.000000
-5.318600 0.000000
-5.305300 0.000000
-5.291900 0.000000
-5.278600 0.000000
-5.265300 0.000000
-5.252000 0.000000
-5.238700 0.000000
-5.225400 0.000000
-5.212100 0.000000
-5.198700 0.000000
-5.185400 0.000000
-5.172100 0.000000
-5.158800 0.000000
-5.145500 0.000000
-5.132200 0.000000
-5.118800 0.000000
-5.105500 0.000000
-5.092200 0.000000
-5.078900 0.000000
-5.065600 0.000000
-5.052300 0.000000
-5.038900 0.000000
-5.025600 0.000000
-5.012300 0.000000
-4.999000 0.000000
-4.985700 0.000000
-4.972400 0.000000
-4.959000 0.000000
-4.945700 0.000000
-4.932400 0.000000
-4.919100 0.000000
-4.905800 0.000000
-4.892500 0.000000
-4.879100 0.000000
-4.865800 0.000000
-4.852500 0.000000
-4.839200 0.000000
-4.825900 0.000000
-4.812600 0.000000
-4.799200 0.000000
-4.785900 0.000000
-4.772600 0.000000
-4.759300 0.000000
-4.746000 0.000000
-4.732700 0.000000
-4.719400 0.000000
-4.706000 0.000000
-4.692700 0.000000
-4.679400 0.000000
-4.666100 0.000000
-4.652800 0.000000
-4.639500 0.000000
-4.626100 0.000000
-4.612800 0.000000
-4.599500 0.000000
-4.586200 0.000000
-4.572900 0.000000
-4.559600 0.000000
-4.546200 0.000000
-4.532900 0.000000
-4.519600 0.000000
-4.506300 0.000000
-4.493000 0.000000
-4.479700 0.000000
-4.466300 0.000000
-4.453000 0.000000
-4.439700 0.000000
-4.426400 0.000000
-4.413100 0.000000
-4.399800 0.000000
-4.386400 0.000000
-4.373100 0.000000
-4.359800 0.000000
-4.346500 0.000000
-4.333200 0.000000
-4.319900 0.000000
-4.306500 0.000000
-4.293200 0.000000
-4.279900 0.000000
-4.266600 0.000000
-4.253300 0.000000
-4.240000 0.000000
-4.226600 0.000000
-4.213300 0.000000
-4.200000 0.000000
-4.186700 0.000000
-4.173400 0.000000
-4.160100 0.000000
-4.146800 0.000000
-4.133400 0.000000
-4.120100 0.000000
-4.106800 0.000000
-4.093500 0.000000
-4.080200 0.000000
-4.066900 0.000000
-4.053500 0.000000
-4.040200 0.000000
-4.026900 0.000000
-4.013600 0.000000
-4.000300 0.000000
-3.987000 0.000000
-3.973600 0.000000
-3.960300 0.000000
-3.947000 0.000000
-3.933700 0.000000
-3.920400 0.000000
-3.907100 0.000000
-3.893700 0.000000
-3.880400 0.000000
-3.867100 0.000000
-3.853800 0.000000
-3.840500 0.000000
-3.827200 0.000000
-3.813800 0.000000
-3.800500 0.000000
-3.787200 0.000000
-3.773900 0.000000
-3.760600 0.000000
-3.747300 0.000000
-3.733900 0.000000
-3.720600 0.000000
-3.707300 0.000000
-3.694000 0.000000
-3.680700 0.000000
-3.667400 0.000000
-3.654000 0.000000
-3.640700 0.000000
-3.627400 0.000000
-3.614100 0.000000
-3.600800 0.000000
-3.587500 0.000000
-3.574200 0.000000
-3.560800 0.000000
-3.547500 0.000000
-3.534200 0.000000
-3.520900 0.000000
-3.507600 0.000000
-3.494300 0.000000
-3.480900 0.000000
-3.467600 0.000000
-3.454300 0.000000
-3.441000 0.000000
-3.427700 0.000000
-3.414400 0.000000
-3.401000 0.000000
-3.387700 0.000000
-3.374400 0.000000
-3.361100 0.000000
-3.347800 0.000000
-3.334500 0.000000
-3.321100 0.000000
-3.307800 0.000000
-3.294500 0.000000
-3.281200 0.000000
-3.267900 0.000000
-3.254600 0.000000
-3.241200 0.000000
-3.227900 0.000000
-3.214600 0.000000
-3.201300 0.000000
-3.188000 0.000000
-3.174700 0.000000
-3.161300 0.000000
-3.148000 0.000000
-3.134700 0.000000
-3.121400 0.000000
-3.108100 0.000000
-3.094800 0.000000
-3.081400 0.000000
-3.068100 0.000000
-3.054800 0.000000
-3.041500 0.000000
-3.028200 0.000000
-3.014900 0.000000
-3.001600 0.000000
-2.988200 0.000000
-2.974900 0.000000
-2.961600 0.000000
-2.948300 0.000000
-2.935000 0.000000
-2.921700 0.000000
-2.908300 0.000000
-2.895000 0.000000
-2.881700 0.000000
-2.868400 0.000000
-2.855100 0.000000
-2.841800 0.000000
-2.828400 0.000000
-2.815100 0.000000
-2.801800 0.000000
-2.788500 0.000000
-2.775200 0.000000
-2.761900 0.000000
-2.748500 0.000000
-2.735200 0.000000
-2.721900 0.000000
-2.708600 0.000000
-2.695300 0.000000
-2.682000 6.794400
-2.668600 21.356600
-2.655300 36.962200
-2.642000 42.236000
-2.628700 37.632000
-2.615400 42.939100
-2.602100 41.328300
-2.588700 34.309100
-2.575400 30.981900
-2.562100 30.235300
-2.548800 29.488600
-2.535500 26.565600
-2.522200 23.660800
-2.508800 19.451100
-2.495500 19.138800
-2.482200 15.912500
-2.468900 15.830800
-2.455600 15.749000
-2.442300 15.667200
-2.429000 15.585500
-2.415600 15.503700
-2.402300 15.421900
-2.389000 16.994400
-2.375700 20.391300
-2.362400 24.519100
-2.349100 31.061900
-2.335700 23.147300
-2.322400 22.707700
-2.309100 30.735500
-2.295800 36.161700
-2.282500 7.873000
-2.269200 7.989600
-2.255800 7.951000
-2.242500 7.877400
-2.229200 7.790700
-2.215900 7.704000
-2.202600 7.617300
-2.189300 7.530600
-2.175900 17.135200
-2.162600 1.963000
-2.149300 1.907000
-2.136000 1.863300
-2.122700 1.819500
-2.109400 5.561200
-2.096000 3.846200
-2.082700 2.131200
-2.069400 0.416200
-2.056100 0.000000
-2.042800 0.000000
-2.029500 0.000000
-2.016100 0.000000
-2.002800 0.000000
-1.989500 0.000000
-1.976200 0.000000
-1.962900 0.000000
-1.949600 0.000000
-1.936200 0.000000
-1.922900 0.000000
-1.909600 0.000000
-1.896300 0.000000
-1.883000 0.000000
-1.869700 0.000000
-1.856400 0.000000
-1.843000 0.000000
-1.829700 0.000000
-1.816400 0.000000
-1.803100 0.000000
-1.789800 0.000000
-1.776500 0.000000
-1.763100 4.991900
-1.749800 3.558600
-1.736500 2.125300
-1.723200 12.552300
-1.709900 9.893200
-1.696600 7.234000
-1.683200 10.579500
-1.669900 15.623700
-1.656600 11.977900
-1.643300 10.427200
-1.630000 15.892300
-1.616700 14.630100
-1.603300 13.603900
-1.590000 14.159700
-1.576700 14.715400
-1.563400 15.271100
-1.550100 15.826800
-1.536800 16.382500
-1.523400 16.938200
-1.510100 17.493900
-1.496800 18.049600
-1.483500 18.605300
-1.470200 16.611500
-1.456900 17.051900
-1.443500 14.798700
-1.430200 26.090600
-1.416900 12.642100
-1.403600 19.132600
-1.390300 16.409300
-1.377000 13.686000
-1.363600 8.743300
-1.350300 8.748400
-1.337000 16.090700
-1.323700 11.080200
-1.310400 6.501200
-1.297100 6.419500
-1.283800 6.337900
-1.270400 6.256200
-1.257100 6.737500
-1.243800 6.696000
-1.230500 6.654500
-1.217200 7.221000
-1.203900 7.836300
-1.190500 8.497400
-1.177200 9.210600
-1.163900 9.316900
-1.150600 10.068000
-1.137300 10.201800
-1.124000 10.336300
-1.110600 10.471500
-1.097300 10.606700
-1.084000 10.742000
-1.070700 10.877200
-1.057400 11.011100
-1.044100 11.139600
-1.030700 11.264500
-1.017400 11.384900
-1.004100 11.505200
-0.990800 11.625600
-0.977500 11.745900
-0.964200 11.866300
-0.950800 11.986600
-0.937500 12.106900
-0.924200 12.227300
-0.910900 12.347600
-0.897600 12.468000
-0.884300 12.588300
-0.870900 12.708600
-0.857600 12.829000
-0.844300 14.059400
-0.831000 14.772500
-0.817700 15.399000
-0.804400 18.327200
-0.791000 18.697500
-0.777700 20.598800
-0.764400 23.154800
-0.751100 23.523700
-0.737800 23.892600
-0.724500 27.217900
-0.711200 27.524600
-0.697800 28.444800
-0.684500 29.967200
-0.671200 28.967100
-0.657900 29.077100
-0.644600 29.179400
-0.631300 29.245600
-0.617900 29.311800
-0.604600 29.445500
-0.591300 28.353600
-0.578000 28.278800
-0.564700 26.921200
-0.551400 26.793000
-0.538000 26.982800
-0.524700 27.444900
-0.511400 27.944700
-0.498100 28.468600
-0.484800 29.178400
-0.471500 29.888500
-0.458100 29.735800
-0.444800 29.648100
-0.431500 30.341400
-0.418200 31.112800
-0.404900 31.873500
-0.391600 31.786900
-0.378200 31.110700
-0.364900 28.456600
-0.351600 28.162900
-0.338300 25.003700
-0.325000 22.845200
-0.311700 21.980600
-0.298300 21.437800
-0.285000 20.839600
-0.271700 25.141200
-0.258400 22.988900
-0.245100 21.450700
-0.231800 19.216800
-0.218500 18.234400
-0.205100 17.649000
-0.191800 18.048900
-0.178500 17.425200
-0.165200 16.792600
-0.151900 16.159900
-0.138600 15.527300
-0.125200 14.894600
-0.111900 14.375700
-0.098600 13.796700
-0.085300 13.262000
-0.072000 12.755700
-0.058700 12.333000
-0.045300 11.978300
-0.032000 11.704400
-0.018700 11.552700
-0.005400 11.458400
0.007900 11.314500
0.021200 11.170700
0.034600 11.970300
0.047900 12.093200
0.061200 12.216000
0.074500 12.338900
0.087800 12.626100
0.101100 12.744800
0.114500 14.259400
0.127800 16.018400
0.141100 17.113900
0.154400 17.953600
0.167700 20.594100
0.181000 23.742600
0.194400 24.142100
0.207700 24.599500
0.221000 25.136100
0.234300 25.637900
0.247600 27.101600
0.260900 34.277800
0.274300 44.446400
0.287600 46.502500
0.300900 47.817000
0.314200 48.541000
0.327500 49.475800
0.340800 52.030000
0.354100 40.706900
0.367500 55.297600
0.380800 54.467500
0.394100 63.002900
0.407400 48.365900
0.420700 38.096700
0.434000 34.217000
0.447400 32.165800
0.460700 41.217000
0.474000 49.348500
0.487300 40.129300
0.500600 45.384000
0.513900 53.691600
0.527300 44.365600
0.540600 41.549500
0.553900 49.634300
0.567200 93.204400
0.580500 59.347400
0.593800 44.727300
0.607200 42.476000
0.620500 43.636600
0.633800 49.858800
0.647100 44.594100
0.660400 40.351100
0.673700 38.734900
0.687100 37.309500
0.700400 31.915600
0.713700 29.486100
0.727000 25.086700
0.740300 22.506400
0.753600 19.942200
0.767000 17.396900
0.780300 15.022300
0.793600 19.245300
0.806900 18.938500
0.820200 19.949500
0.833500 8.830900
0.846900 12.583600
0.860200 0.000000
0.873500 0.000000
0.886800 0.000000
0.900100 0.000000
0.913400 0.000000
0.926700 0.000000
0.940100 0.000000
0.953400 0.000000
0.966700 0.000000
0.980000 0.000000
0.993300 0.000000
1.006600 0.000000
1.020000 0.000000
1.033300 0.000000
1.046600 0.000000
1.059900 0.000000
1.073200 0.000000
1.086500 0.000000
1.099900 0.000000
1.113200 0.000000
1.126500 0.000000
1.139800 0.000000
1.153100 0.000000
1.166400 0.000000
1.179800 0.000000
1.193100 0.000000
1.206400 0.000000
1.219700 0.000000
1.233000 0.000000
1.246300 0.000000
1.259700 0.000000
1.273000 0.000000
1.286300 0.000000
1.299600 0.000000
1.312900 0.000000
1.326200 0.000000
1.339600 0.000000
1.352900 0.000000
1.366200 0.000000
1.379500 0.000000
1.392800 0.000000
1.406100 0.000000
1.419500 0.000000
1.432800 0.000000
1.446100 0.000000
1.459400 0.000000
1.472700 0.000000
1.486000 0.000000
1.499300 0.000000
1.512700 0.000000
1.526000 0.000000
1.539300 0.000000
1.552600 0.000000
1.565900 0.000000
1.579200 0.000000
1.592600 0.000000
1.605900 0.000000
1.619200 0.000000
1.632500 0.000000
1.645800 0.000000
1.659100 0.000000
1.672500 0.000000
1.685800 0.000000
1.699100 0.000000
1.712400 0.000000
1.725700 0.000000
1.739000 0.000000
1.752400 0.000000
1.765700 0.000000
1.779000 0.000000
1.792300 0.000000
1.805600 0.000000
1.818900 0.000000
1.832300 0.000000
1.845600 0.000000
1.858900 0.000000
1.872200 0.000000
1.885500 0.000000
1.898800 0.000000
1.912200 0.000000
1.925500 0.000000
1.938800 0.000000
1.952100 0.000000
1.965400 0.000000
1.978700 0.000000
1.992100 0.000000
2.005400 0.000000
2.018700 0.000000
2.032000 0.000000
2.045300 0.000000
2.058600 0.000000
2.071900 0.000000
2.085300 0.000000
2.098600 0.000000
2.111900 0.000000
2.125200 0.000000
2.138500 0.000000
2.151800 0.000000
2.165200 0.000000
2.178500 0.000000
2.191800 0.000000
2.205100 0.000000
2.218400 0.000000
2.231700 0.000000
2.245100 0.000000
2.258400 0.000000
2.271700 0.000000
2.285000 0.000000
2.298300 0.000000
2.311600 0.000000
2.325000 0.000000
2.338300 0.000000
2.351600 0.000000
2.364900 0.000000
2.378200 0.000000
2.391500 0.000000
2.404900 0.000000
2.418200 0.000000
2.431500 0.000000
2.444800 0.000000
2.458100 0.000000
2.471400 0.000000
2.484800 0.000000
2.498100 0.000000
2.511400 0.000000
2.524700 0.000000
2.538000 0.000000
2.551300 0.000000
2.564700 0.000000
2.578000 0.000000
2.591300 0.000000
2.604600 0.000000
2.617900 0.000000
2.631200 0.000000
2.644500 0.000000
2.657900 0.000000
2.671200 0.000000
2.684500 0.000000
2.697800 0.000000
2.711100 0.000000
2.724400 0.000000
2.737800 0.000000
2.751100 0.000000
2.764400 0.000000
2.777700 0.000000
2.791000 0.000000
2.804300 0.000000
2.817700 0.000000
2.831000 0.000000
2.844300 0.000000
2.857600 0.000000
2.870900 0.000000
2.884200 0.000000
2.897600 0.000000
2.910900 0.000000
2.924200 0.000000
2.937500 0.000000
2.950800 0.000000
2.964100 0.000000
2.977500 0.000000
2.990800 0.000000
3.004100 0.000000
3.017400 0.000000
3.030700 0.000000
3.044000 0.000000
3.057400 0.000000
3.070700 0.000000
3.084000 0.000000
3.097300 0.000000
3.110600 0.000000
3.123900 0.000000
3.137300 0.000000
3.150600 0.000000
3.163900 0.000000
3.177200 0.000000
3.190500 0.000000
3.203800 0.000000
3.217100 0.000000
3.230500 0.000000
3.243800 0.000000
3.257100 0.000000
3.270400 0.000000
3.283700 0.000000
3.297000 0.002000
3.310400 0.893100
3.323700 0.939100
3.337000 1.877100
3.350300 1.960800
3.363600 2.044500
3.376900 3.067400
3.390300 3.183800
3.403600 3.300300
3.416900 3.416700
3.430200 4.671500
3.443500 4.821400
3.456800 6.120600
3.470200 6.295500
3.483500 7.658100
3.496800 7.868400
3.510100 8.100300
3.523400 8.332200
3.536700 8.564100
3.550100 8.796000
3.563400 9.027900
3.576700 9.259800
3.590000 9.512000
3.603300 9.870000
3.616600 10.258300
3.630000 10.689900
3.643300 11.164500
3.656600 11.754500
3.669900 12.365000
3.683200 13.049600
3.696500 13.770900
3.709800 14.512700
3.723200 15.254500
3.736500 15.996300
3.749800 16.738100
3.763100 17.479900
3.776400 18.453700
3.789700 19.554500
3.803100 28.511500
3.816400 23.756000
3.829700 21.607600
3.843000 21.782800
3.856300 27.399200
3.869600 30.270600
3.883000 27.847500
3.896300 25.144500
3.909600 21.402800
3.922900 29.441300
3.936200 24.162900
3.949500 21.954600
3.962900 21.282900
3.976200 21.051000
3.989500 19.674600
4.002800 18.298300
4.016100 16.304000
4.029400 15.469100
4.042800 14.678100
4.056100 13.962800
4.069400 13.247500
4.082700 12.532200
4.096000 11.816900
4.109300 11.101600
4.122700 13.277600
4.136000 9.380700
4.149300 6.562300
4.162600 3.408200
4.175900 4.702400
4.189200 5.996700
4.202600 7.290900
4.215900 0.000000
4.229200 0.000000
4.242500 0.000000
4.255800 0.000000
4.269100 0.000000
4.282400 0.000000
4.295800 0.000000
4.309100 0.000000
4.322400 0.000000
4.335700 0.000000
4.349000 0.000000
4.362300 0.000000
4.375700 0.000000
4.389000 0.000000
4.402300 0.000000
4.415600 0.000000
4.428900 0.000000
4.442200 0.000000
4.455600 0.000000
4.468900 0.000000
4.482200 0.000000
4.495500 0.000000
4.508800 0.000000
4.522100 0.000000
4.535500 0.000000
4.548800 0.000000
4.562100 0.000000
4.575400 0.000000
4.588700 0.000000
4.602000 0.000000
4.615400 0.000000
4.628700 0.000000
4.642000 0.000000
4.655300 0.000000
4.668600 0.000000
4.681900 0.000000
4.695300 0.000000
4.708600 0.000000
4.721900 0.000000
4.735200 0.000000
4.748500 0.000000
4.761800 0.000000
4.775200 0.000000
4.788500 0.000000
4.801800 0.000000
4.815100 0.000000
4.828400 0.000000
4.841700 0.000000
4.855000 0.000000
4.868400 0.000000
4.881700 0.000000
4.895000 0.000000
4.908300 0.000000
4.921600 0.000000
4.934900 0.000000
4.948300 0.000000
4.961600 0.000000
4.974900 0.000000
4.988200 0.000000
5.001500 0.000000
5.014800 0.000000
5.028200 0.000000
5.041500 0.000000
5.054800 0.000000
5.068100 0.000000
5.081400 0.000000
5.094700 0.000000
5.108100 0.000000
5.121400 0.000000
5.134700 0.000000
5.148000 0.000000
5.161300 0.000000
5.174600 0.000000
5.188000 0.000000
5.201300 0.000000
5.214600 0.000000
5.227900 0.000000
5.241200 0.000000
5.254500 0.000000
5.267900 0.000000
5.281200 0.000000
5.294500 0.000000
5.307800 0.000000
5.321100 0.000000
5.334400 0.000000
5.347800 0.000000
5.361100 0.003800
5.374400 0.024500
5.387700 0.079600
5.401000 0.137100
5.414300 0.194600
5.427600 0.252000
5.441000 0.309500
5.454300 0.367000
5.467600 0.424500
5.480900 0.482000
5.494200 0.539400
5.507500 0.596900
5.520900 0.654400
5.534200 0.711900
5.547500 0.769300
5.560800 0.826800
5.574100 0.884300
5.587400 0.941800
5.600800 0.999300
5.614100 1.056700
5.627400 1.114200
5.640700 1.171700
5.654000 1.229200
5.667300 1.286700
5.680700 1.344100
5.694000 1.401600
5.707300 1.459100
5.720600 1.516600
5.733900 1.574000
5.747200 1.631500
5.760600 1.689000
5.773900 1.746500
5.787200 1.804000
5.800500 1.861400
5.813800 1.918900
5.827100 1.976400
5.840500 2.033900
5.853800 2.091300
5.867100 3.272600
5.880400 4.400300
5.893700 4.731700
5.907000 7.277100
5.920400 7.671500
5.933700 7.647500
5.947000 7.623400
5.960300 7.802700
5.973600 8.571000
5.986900 8.958700
6.000200 9.938100
6.013600 10.495000
6.026900 11.019100
6.040200 11.407500
6.053500 11.528600
6.066800 11.649700
6.080100 11.770800
6.093500 12.459400
6.106800 12.641100
6.120100 12.822700
6.133400 12.988900
6.146700 13.562900
6.160000 13.630700
6.173400 13.698500
6.186700 13.766300
6.200000 13.834100
6.213300 13.901900
6.226600 13.969700
6.239900 14.037500
6.253300 14.105300
6.266600 14.173100
6.279900 14.240900
6.293200 19.152800
6.306500 18.336800
6.319800 17.520700
6.333200 16.704700
6.346500 20.587800
6.359800 18.739300
6.373100 17.556300
6.386400 16.373300
6.399700 15.190300
6.413100 14.536800
6.426400 15.457900
6.439700 16.754500
6.453000 18.272400
6.466300 15.028500
6.479600 14.543500
6.493000 12.387300
6.506300 12.051800
6.519600 11.716400
6.532900 11.094600
6.546200 10.998500
6.559500 10.667900
6.572800 10.357900
6.586200 12.068000
6.599500 11.694900
6.612800 11.345200
6.626100 9.828300
6.639400 8.488800
6.652700 10.837400
6.666100 12.999400
6.679400 12.749300
6.692700 12.499200
6.706000 11.815800
6.719300 11.428100
6.732600 11.040400
6.746000 10.134000
6.759300 9.744900
6.772600 9.355700
6.785900 9.080700
6.799200 8.929800
6.812500 8.827500
6.825900 12.327100
6.839200 11.940200
6.852500 11.553300
6.865800 14.691800
6.879100 13.759500
6.892400 12.827200
6.905800 11.894800
6.919100 10.988600
6.932400 10.524800
6.945700 10.426100
6.959000 10.327300
6.972300 15.828100
6.985700 19.770200
6.999000 22.658400
7.012300 21.163200
7.025600 19.668000
7.038900 24.458200
7.052200 24.470000
7.065600 24.507700
7.078900 34.643400
7.092200 28.238900
7.105500 22.297000
7.118800 18.036200
7.132100 13.833100
7.145400 19.200300
7.158800 20.157600
7.172100 21.210900
7.185400 22.532500
7.198700 24.871900
7.212000 45.534800
7.225300 15.971600
7.238700 15.980700
7.252000 16.160600
7.265300 22.327100
7.278600 24.963300
7.291900 22.348200
7.305200 24.415400
7.318600 27.768900
7.331900 18.440400
7.345200 18.901500
7.358500 20.047200
7.371800 23.092300
7.385100 22.914000
7.398500 23.338300
7.411800 24.047000
7.425100 24.867600
7.438400 27.696900
7.451700 25.479900
7.465000 25.108700
7.478400 20.488900
7.491700 19.082200
7.505000 19.524500
7.518300 20.705000
7.531600 24.133300
7.544900 24.587900
7.558300 29.323000
7.571600 34.058200
7.584900 38.956400
7.598200 32.095900
7.611500 32.680000
7.624800 33.415400
7.638100 32.180600
7.651500 36.869100
7.664800 26.629300
7.678100 29.838700
7.691400 28.051100
7.704700 29.513200
7.718000 29.379800
7.731400 27.521700
7.744700 26.037500
7.758000 24.553400
7.771300 23.437700
7.784600 22.674200
7.797900 19.272800
7.811300 17.251700
7.824600 15.441400
7.837900 19.133600
7.851200 21.871000
7.864500 22.036100
7.877800 21.447800
7.891200 21.452000
7.904500 25.435100
7.917800 24.920100
7.931100 24.308100
7.944400 28.576500
7.957700 27.291400
7.971100 26.180500
7.984400 26.918000
7.997700 27.372000
8.011000 26.386300
8.024300 27.187200
8.037600 26.238900
8.051000 25.336100
8.064300 24.434200
8.077600 23.532300
8.090900 22.630500
8.104200 21.391600
8.117500 24.650200
8.130900 22.932600
8.144200 21.544700
8.157500 19.977600
8.170800 43.428400
8.184100 19.586100
8.197400 17.664200
8.210700 16.213900
8.224100 14.697800
8.237400 14.079200
8.250700 13.833800
8.264000 9.518400
8.277300 9.096000
8.290600 8.673600
8.304000 8.251200
8.317300 7.828900
8.330600 7.425100
8.343900 7.029500
8.357200 6.633900
8.370500 6.238300
8.383900 5.506000
8.397200 5.263700
8.410500 5.138100
8.423800 5.083900
8.437100 5.270400
8.450400 5.569100
8.463800 5.930800
8.477100 5.964900
8.490400 6.486300
8.503700 7.007600
8.517000 7.528900
8.530300 8.050200
8.543700 8.571500
8.557000 9.092800
8.570300 9.242000
8.583600 9.784800
8.596900 8.027200
8.610200 5.837900
8.623600 6.181000
8.636900 6.524200
8.650200 6.867300
8.663500 7.396400
8.676800 7.926700
8.690100 8.456900
8.703500 8.987200
8.716800 7.575200
8.730100 6.067400
8.743400 6.087000
8.756700 6.117200
8.770000 6.323400
8.783300 7.045400
8.796700 8.037500
8.810000 9.029600
8.823300 10.021700
8.836600 11.013800
8.849900 11.492200
8.863200 12.237800
8.876600 11.630800
8.889900 11.023800
8.903200 13.866700
8.916500 16.535100
8.929800 15.973800
8.943100 15.412400
8.956500 15.717000
8.969800 22.552600
8.983100 16.863100
8.996400 17.589600
9.009700 18.607100
9.023000 18.917500
9.036400 19.739200
9.049700 18.880700
9.063000 19.325800
9.076300 22.435000
9.089600 25.907100
9.102900 19.380000
9.116300 22.473300
9.129600 24.567700
9.142900 18.002200
9.156200 15.667200
9.169500 16.476000
9.182800 17.354600
9.196200 19.055300
9.209500 21.723700
9.222800 24.854600
9.236100 27.588900
9.249400 26.189300
9.262700 23.221000
9.276100 22.707000
9.289400 19.042200
9.302700 18.839500
9.316000 19.222000
9.329300 19.266100
9.342600 18.222300
9.355900 17.843600
9.369300 17.464800
9.382600 24.997200
9.395900 23.618200
9.409200 22.554100
9.422500 21.534500
9.435800 20.576700
9.449200 19.706300
9.462500 20.171100
9.475800 20.334900
9.489100 20.517300
9.502400 23.014600
9.515700 24.507000
9.529100 18.609500
9.542400 18.904900
9.555700 17.497900
9.569000 17.717500
9.582300 16.771500
9.595600 17.097500
9.609000 20.125900
9.622300 21.589600
9.635600 21.176100
9.648900 27.494200
9.662200 22.354300
9.675500 17.435100
9.688900 17.600700
9.702200 16.540400
9.715500 16.697200
9.728800 16.865000
9.742100 17.238000
9.755400 15.713500
9.768800 16.374700
9.782100 15.805800
9.795400 16.776200
9.808700 15.219400
9.822000 16.333600
9.835300 17.503800
9.848700 18.816900
9.862000 20.130000
9.875300 17.969400
9.888600 18.827200
9.901900 16.704300
9.915200 17.261900
9.928500 17.819500
9.941900 15.167600
9.955200 20.104100
9.968500 19.553500
9.981800 18.249000
9.995100 18.608100
10.008400 18.394700
10.021800 18.559000
10.035100 18.497100
10.048400 18.796600
10.061700 12.584000
10.075000 15.468100
10.088300 15.035800
10.101700 14.603400
10.115000 14.171100
10.128300 14.763700
10.141600 14.504600
10.154900 14.695700
10.168200 12.271300
10.181600 12.305900
10.194900 13.184200
10.208200 13.602000
10.221500 13.718900
10.234800 13.835800
10.248100 14.341200
10.261500 14.557800
10.274800 14.801000
10.288100 13.011700
10.301400 13.129100
10.314700 13.246600
10.328000 13.364100
10.341400 14.495300
10.354700 14.646800
10.368000 14.808000
10.381300 14.969200
10.394600 15.130400
10.407900 15.291600
10.421300 15.452800
10.434600 15.614000
10.447900 14.434800
10.461200 14.565300
10.474500 13.135000
10.487800 13.125600
10.501100 13.116200
10.514500 11.573600
10.527800 11.417500
10.541100 11.279600
10.554400 11.162400
10.567700 11.064900
10.581000 9.902700
10.594400 9.841800
10.607700 9.786500
10.621000 9.731300
10.634300 9.738800
10.647600 9.819200
10.660900 9.928400
10.674300 10.051500
10.687600 10.180600
10.700900 10.108200
10.714200 14.112400
10.727500 13.619600
10.740800 13.125500
10.754200 12.631400
10.767500 12.137400
10.780800 12.259800
10.794100 12.181000
10.807400 13.701100
10.820700 13.721300
10.834100 13.703600
10.847400 13.579500
10.860700 13.455500
10.874000 15.787900
10.887300 15.813500
10.900600 15.839100
10.914000 15.864700
10.927300 16.091000
10.940600 15.965900
10.953900 15.812700
10.967200 15.428200
10.980500 15.025100
10.993900 14.622200
11.007200 15.911600
11.020500 15.485900
11.033800 17.035600
11.047100 16.616500
11.060400 17.551400
11.073700 17.147400
11.087100 18.019400
11.100400 17.624400
11.113700 17.233100
11.127000 16.841800
11.140300 16.450500
11.153600 16.059200
11.167000 15.676900
11.180300 15.847400
11.193600 15.510100
11.206900 15.188100
11.220200 15.503600
11.233500 18.112200
11.246900 16.534900
11.260200 15.302700
11.273500 14.055700
11.286800 14.217300
11.300100 13.938400
11.313400 13.662200
11.326800 13.444100
11.340100 13.255100
11.353400 13.077500
11.366700 12.899800
11.380000 12.414700
11.393300 13.311400
11.406700 20.496500
11.420000 18.522400
11.433300 28.650500
11.446600 22.741000
11.459900 32.467400
11.473200 21.806000
11.486600 17.004600
11.499900 17.414900
11.513200 17.768100
11.526500 18.121300
11.539800 18.533600
11.553100 18.893600
11.566500 16.534400
11.579800 16.426000
11.593100 15.947100
11.606400 25.005400
11.619700 17.274000
11.633000 16.805200
11.646300 17.242700
11.659700 17.680200
11.673000 17.384900
11.686300 18.032000
11.699600 18.805200
11.712900 16.617200
11.726200 16.995800
11.739600 17.666200
11.752900 17.827800
11.766200 18.274400
11.779500 18.744000
11.792800 19.235900
11.806100 18.298600
11.819500 18.857900
11.832800 19.956700
11.846100 19.139600
11.859400 18.106700
11.872700 18.756500
11.886000 18.436600
11.899400 16.341500
11.912700 16.180300
11.926000 16.631300
11.939300 17.082300
11.952600 18.280500
11.965900 17.162100
11.979300 19.250100
11.992600 12.653500
12.005900 12.939800
12.019200 13.843200
12.032500 14.180700
12.045800 16.444900
12.059200 16.259200
12.072500 16.376800
12.085800 16.248900
12.099100 16.577500
12.112400 16.852500
12.125700 16.688800
12.139000 16.525200
12.152400 17.584800
12.165700 17.732500
12.179000 16.468300
12.192300 16.815600
12.205600 17.162900
12.218900 18.188200
12.232300 17.728000
12.245600 17.581900
12.258900 18.401100
12.272200 18.471600
12.285500 17.986300
12.298800 17.616300
12.312200 17.246300
12.325500 16.876200
12.338800 16.649500
12.352100 16.509500
12.365400 16.399300
12.378700 14.509500
12.392100 13.346300
12.405400 12.341500
12.418700 11.498500
12.432000 11.776800
12.445300 13.205500
12.458600 14.172400
12.472000 13.347900
12.485300 13.327700
12.498600 13.307400
12.511900 13.287100
12.525200 13.266800
12.538500 13.246600
12.551900 12.027300
12.565200 11.369200
12.578500 10.711100
12.591800 10.166900
12.605100 11.940600
12.618400 11.777400
12.631800 12.990500
12.645100 13.903100
12.658400 14.029700
12.671700 14.406900
12.685000 14.784100
12.698300 16.655500
12.711600 17.037800
12.725000 11.259900
12.738300 11.431500
12.751600 11.603100
12.764900 11.774600
12.778200 14.081300
12.791500 14.144500
12.804900 14.167900
12.818200 11.650800
12.831500 11.493200
12.844800 14.061000
12.858100 13.412100
12.871400 12.473800
12.884800 11.454900
12.898100 10.401500
12.911400 9.348200
12.924700 8.326800
12.938000 7.086800
12.951300 6.757600
12.964700 6.428500
12.978000 11.921800
12.991300 9.759800
13.004600 15.314700
13.017900 8.108500
13.031200 7.643300
13.044600 7.178000
13.057900 6.712700
13.071200 5.394300
13.084500 5.122800
13.097800 4.851400
13.111100 4.579900
13.124500 4.308400
13.137800 4.036900
13.151100 3.765500
13.164400 3.494000
13.177700 2.255500
13.191000 2.125100
13.204400 1.994800
13.217700 1.864400
13.231000 1.734100
13.244300 1.603700
13.257600 1.473400
13.270900 1.343100
13.284200 1.212700
13.297600 1.082400
13.310900 0.000000
13.324200 0.000000
13.337500 0.000000
13.350800 0.000000
13.364100 0.000000
13.377500 0.000000
13.390800 0.000000
13.404100 0.000000
13.417400 0.000000
13.430700 0.000000
13.444000 0.000000
13.457400 0.000000
13.470700 0.000000
13.484000 0.000000
13.497300 0.000000
13.510600 0.000000
13.523900 0.000000
13.537300 0.000000
13.550600 0.000000
13.563900 0.000000
13.577200 0.000000
13.590500 0.000000
13.603800 0.000000
13.617200 0.000000
13.630500 0.000000
13.643800 0.000000
13.657100 0.000000
13.670400 0.000000
13.683700 0.000000
13.697100 0.000000
13.710400 0.000000
13.723700 0.000000
13.737000 0.000000
13.750300 0.000000
13.763600 0.000000
13.777000 0.000000
13.790300 0.000000
13.803600 0.000000
13.816900 0.000000
13.830200 0.000000
13.843500 0.000000
13.856800 0.000000
13.870200 0.000000
13.883500 0.000000
13.896800 0.000000
13.910100 0.000000
13.923400 0.000000
13.936700 0.000000
13.950100 0.000000
13.963400 0.000000
13.976700 0.000000
13.990000 0.000000
14.003300 0.000000
14.016600 0.000000
14.030000 0.000000
14.043300 0.000000
14.056600 0.000000
14.069900 0.000000
14.083200 0.000000
14.096500 0.000000
14.109900 0.000000
14.123200 0.000000
14.136500 0.000000
14.149800 0.000000
14.163100 0.000000
14.176400 0.000000
14.189800 0.000000
14.203100 0.000000
14.216400 0.000000
14.229700 0.000000
14.243000 0.000000
14.256300 0.000000
14.269700 0.000000
14.283000 0.000000
14.296300 0.000000
14.309600 0.000000
14.322900 0.000000
14.336200 0.000000
14.349600 0.000000
14.362900 0.000000
14.376200 0.000000
14.389500 0.000000
14.402800 0.000000
14.416100 0.000000
14.429400 0.000000
14.442800 0.000000
14.456100 0.000000
14.469400 0.000000
14.482700 0.000000
14.496000 0.000000
14.509300 0.000000
e
