set title 'mp-9252 - Density of States'
set xlabel 'Energy (eV)'
set ylabel 'DOS (states/eV)'
set grid
set xrange [-10:10]
set yrange [0:128.163]
set xzeroaxis lt -1
set terminal png size 800,600
set output 'mp-9252_dos_gnuplot.png'
plot '-' using 1:2 with lines title 'DOS'
-12.891200 0.000000
-12.878500 0.000000
-12.865700 0.000000
-12.853000 0.000000
-12.840200 0.000000
-12.827500 0.000000
-12.814700 0.000000
-12.802000 0.000000
-12.789200 0.000000
-12.776500 0.000000
-12.763700 0.000000
-12.750900 0.000000
-12.738200 0.000000
-12.725400 0.000000
-12.712700 0.000000
-12.699900 0.000000
-12.687200 0.000000
-12.674400 0.000000
-12.661700 0.000000
-12.648900 0.000000
-12.636100 0.000000
-12.623400 0.000000
-12.610600 0.000000
-12.597900 0.000000
-12.585100 0.000000
-12.572400 0.000000
-12.559600 0.000000
-12.546900 0.000000
-12.534100 0.000000
-12.521400 0.000000
-12.508600 0.000000
-12.495800 0.000000
-12.483100 0.000000
-12.470300 0.000000
-12.457600 0.000000
-12.444800 0.000000
-12.432100 0.000000
-12.419300 0.000000
-12.406600 0.000000
-12.393800 0.000000
-12.381100 0.000000
-12.368300 0.000000
-12.355500 0.000000
-12.342800 0.000000
-12.330000 0.000000
-12.317300 0.000000
-12.304500 0.000000
-12.291800 0.000000
-12.279000 0.000000
-12.266300 0.000000
-12.253500 0.000000
-12.240800 0.000000
-12.228000 0.000000
-12.215200 0.000000
-12.202500 0.000000
-12.189700 0.000000
-12.177000 0.000000
-12.164200 0.000000
-12.151500 0.000000
-12.138700 0.000000
-12.126000 0.000000
-12.113200 0.000000
-12.100500 0.000000
-12.087700 0.000000
-12.074900 0.000000
-12.062200 0.000000
-12.049400 0.000000
-12.036700 0.000000
-12.023900 0.000000
-12.011200 0.000000
-11.998400 0.000000
-11.985700 0.000000
-11.972900 0.000000
-11.960100 0.000000
-11.947400 0.000000
-11.934600 0.000000
-11.921900 0.000000
-11.909100 0.000000
-11.896400 0.000000
-11.883600 0.000000
-11.870900 0.000000
-11.858100 0.000000
-11.845400 0.000000
-11.832600 0.000000
-11.819800 0.000000
-11.807100 0.000000
-11.794300 0.000000
-11.781600 0.000000
-11.768800 0.000000
-11.756100 0.000000
-11.743300 0.000000
-11.730600 0.002100
-11.717800 0.298700
-11.705100 0.667100
-11.692300 0.915000
-11.679500 1.079500
-11.666800 1.230900
-11.654000 1.367500
-11.641300 1.546800
-11.628500 1.739900
-11.615800 1.913800
-11.603000 2.041500
-11.590300 2.195300
-11.577500 2.357400
-11.564800 2.530700
-11.552000 2.717100
-11.539200 2.917100
-11.526500 3.135700
-11.513700 3.365200
-11.501000 3.605600
-11.488200 3.893700
-11.475500 4.186600
-11.462700 4.505100
-11.450000 4.825900
-11.437200 5.181100
-11.424500 5.678400
-11.411700 6.381700
-11.398900 7.229400
-11.386200 8.414400
-11.373400 10.507500
-11.360700 10.091900
-11.347900 10.163900
-11.335200 10.261500
-11.322400 8.654400
-11.309700 7.893900
-11.296900 7.397800
-11.284200 6.760400
-11.271400 5.600000
-11.258600 4.509800
-11.245900 3.917300
-11.233100 3.549400
-11.220400 3.346200
-11.207600 3.339200
-11.194900 3.433000
-11.182100 4.070200
-11.169400 5.564700
-11.156600 6.157400
-11.143800 6.054800
-11.131100 5.929200
-11.118300 5.753700
-11.105600 5.518600
-11.092800 5.072100
-11.080100 4.713000
-11.067300 4.673400
-11.054600 4.682400
-11.041800 4.697900
-11.029100 4.723500
-11.016300 4.763000
-11.003500 4.830300
-10.990800 4.943700
-10.978000 5.183500
-10.965300 5.580100
-10.952500 5.675800
-10.939800 5.676600
-10.927000 5.678400
-10.914300 5.681400
-10.901500 5.685400
-10.888800 4.551500
-10.876000 1.704900
-10.863200 0.875000
-10.850500 0.672000
-10.837700 0.798500
-10.825000 1.185500
-10.812200 2.063800
-10.799500 3.877400
-10.786700 5.253400
-10.774000 6.556900
-10.761200 6.621300
-10.748500 6.626400
-10.735700 6.633600
-10.722900 6.680900
-10.710200 6.790200
-10.697400 6.969800
-10.684700 7.321900
-10.671900 7.315500
-10.659200 7.309900
-10.646400 7.932700
-10.633700 11.187400
-10.620900 13.674800
-10.608200 11.292700
-10.595400 7.461800
-10.582600 5.825600
-10.569900 4.710800
-10.557100 3.909200
-10.544400 3.236300
-10.531600 2.394200
-10.518900 1.570900
-10.506100 0.871900
-10.493400 0.258500
-10.480600 0.000000
-10.467900 0.000000
-10.455100 0.000000
-10.442300 0.000000
-10.429600 0.000000
-10.416800 0.000000
-10.404100 0.000000
-10.391300 0.000000
-10.378600 0.000000
-10.365800 0.000000
-10.353100 0.000000
-10.340300 0.000000
-10.327500 0.000000
-10.314800 0.000000
-10.302000 0.000000
-10.289300 0.000000
-10.276500 0.000000
-10.263800 0.000000
-10.251000 0.000000
-10.238300 0.000000
-10.225500 0.000000
-10.212800 0.000000
-10.200000 0.000000
-10.187200 0.000000
-10.174500 0.000000
-10.161700 0.000000
-10.149000 0.000000
-10.136200 0.000000
-10.123500 0.000000
-10.110700 0.000000
-10.098000 0.000000
-10.085200 0.000000
-10.072500 0.000000
-10.059700 0.000000
-10.046900 0.000000
-10.034200 0.000000
-10.021400 0.000000
-10.008700 0.000000
-9.995900 0.000000
-9.983200 0.000000
-9.970400 0.000000
-9.957700 0.000000
-9.944900 0.000000
-9.932200 0.000000
-9.919400 0.000000
-9.906600 0.000000
-9.893900 0.000000
-9.881100 0.000000
-9.868400 0.000000
-9.855600 0.000000
-9.842900 0.000000
-9.830100 0.000000
-9.817400 0.000000
-9.804600 0.000000
-9.791900 0.000000
-9.779100 0.000000
-9.766300 0.000000
-9.753600 0.000000
-9.740800 0.000000
-9.728100 0.000000
-9.715300 0.000000
-9.702600 0.000000
-9.689800 0.000000
-9.677100 0.000000
-9.664300 0.000000
-9.651600 0.000000
-9.638800 0.000000
-9.626000 0.000000
-9.613300 0.000000
-9.600500 0.000000
-9.587800 0.000000
-9.575000 0.000000
-9.562300 0.000000
-9.549500 0.000000
-9.536800 0.000000
-9.524000 0.000000
-9.511200 0.000000
-9.498500 0.000000
-9.485700 0.000000
-9.473000 0.000000
-9.460200 0.000000
-9.447500 0.000000
-9.434700 0.000000
-9.422000 0.000000
-9.409200 0.000000
-9.396500 0.000000
-9.383700 0.000000
-9.370900 0.000000
-9.358200 0.000000
-9.345400 0.000000
-9.332700 0.000000
-9.319900 0.000000
-9.307200 0.000000
-9.294400 0.000000
-9.281700 0.000000
-9.268900 0.000000
-9.256200 0.000000
-9.243400 0.000000
-9.230600 0.000000
-9.217900 0.000000
-9.205100 0.000000
-9.192400 0.000000
-9.179600 0.000000
-9.166900 0.000000
-9.154100 0.000000
-9.141400 0.000000
-9.128600 0.000000
-9.115900 0.000000
-9.103100 0.000000
-9.090300 0.000000
-9.077600 0.000000
-9.064800 0.000000
-9.052100 0.000000
-9.039300 0.000000
-9.026600 0.000000
-9.013800 0.000000
-9.001100 0.000000
-8.988300 0.000000
-8.975600 0.000000
-8.962800 0.000000
-8.950000 0.000000
-8.937300 0.000000
-8.924500 0.000000
-8.911800 0.000000
-8.899000 0.000000
-8.886300 0.000000
-8.873500 0.000000
-8.860800 0.000000
-8.848000 0.000000
-8.835300 0.000000
-8.822500 0.000000
-8.809700 0.000000
-8.797000 0.000000
-8.784200 0.000000
-8.771500 0.000000
-8.758700 0.000000
-8.746000 0.000000
-8.733200 0.000000
-8.720500 0.000000
-8.707700 0.000000
-8.694900 0.000000
-8.682200 0.000000
-8.669400 0.000000
-8.656700 0.000000
-8.643900 0.000000
-8.631200 0.000000
-8.618400 0.000000
-8.605700 0.000000
-8.592900 0.000000
-8.580200 0.000000
-8.567400 0.000000
-8.554600 0.000000
-8.541900 0.000000
-8.529100 0.000000
-8.516400 0.000000
-8.503600 0.000000
-8.490900 0.000000
-8.478100 0.000000
-8.465400 0.000000
-8.452600 0.000000
-8.439900 0.000000
-8.427100 0.000000
-8.414300 0.000000
-8.401600 0.000000
-8.388800 0.000000
-8.376100 0.000000
-8.363300 0.000000
-8.350600 0.000000
-8.337800 0.000000
-8.325100 0.000000
-8.312300 0.000000
-8.299600 0.000000
-8.286800 0.000000
-8.274000 0.000000
-8.261300 0.000000
-8.248500 0.000000
-8.235800 0.000000
-8.223000 0.000000
-8.210300 0.000000
-8.197500 0.000000
-8.184800 0.000000
-8.172000 0.000000
-8.159300 0.000000
-8.146500 0.000000
-8.133700 0.000000
-8.121000 0.000000
-8.108200 0.000000
-8.095500 0.000000
-8.082700 0.000000
-8.070000 0.000000
-8.057200 0.000000
-8.044500 0.000000
-8.031700 0.000000
-8.019000 0.000000
-8.006200 0.000000
-7.993400 0.000000
-7.980700 0.000000
-7.967900 0.000000
-7.955200 0.000000
-7.942400 0.000000
-7.929700 0.000000
-7.916900 0.000000
-7.904200 0.000000
-7.891400 0.000000
-7.878600 0.000000
-7.865900 0.000000
-7.853100 0.000000
-7.840400 0.000000
-7.827600 0.000000
-7.814900 0.000000
-7.802100 0.000000
-7.789400 0.000000
-7.776600 0.000000
-7.763900 0.000000
-7.751100 0.000000
-7.738300 0.000000
-7.725600 0.000000
-7.712800 0.000000
-7.700100 0.000000
-7.687300 0.000000
-7.674600 0.000000
-7.661800 0.000000
-7.649100 0.000000
-7.636300 0.000000
-7.623600 0.000000
-7.610800 0.000000
-7.598000 0.000000
-7.585300 0.000000
-7.572500 0.000000
-7.559800 0.000000
-7.547000 0.000000
-7.534300 0.000000
-7.521500 0.000000
-7.508800 0.000000
-7.496000 0.000000
-7.483300 0.000000
-7.470500 0.000000
-7.457700 0.000000
-7.445000 0.000000
-7.432200 0.000000
-7.419500 0.000000
-7.406700 0.000000
-7.394000 0.000000
-7.381200 0.000000
-7.368500 0.000000
-7.355700 0.000000
-7.343000 0.000000
-7.330200 0.000000
-7.317400 0.000000
-7.304700 0.000000
-7.291900 0.000000
-7.279200 0.000000
-7.266400 0.000000
-7.253700 0.000000
-7.240900 0.000000
-7.228200 0.000000
-7.215400 0.000000
-7.202600 0.000000
-7.189900 0.000000
-7.177100 0.000000
-7.164400 0.000000
-7.151600 0.000000
-7.138900 0.000000
-7.126100 0.000000
-7.113400 0.000000
-7.100600 0.000000
-7.087900 0.000000
-7.075100 0.000000
-7.062300 0.000000
-7.049600 0.000000
-7.036800 0.000000
-7.024100 0.000000
-7.011300 0.000000
-6.998600 0.000000
-6.985800 0.000000
-6.973100 0.000000
-6.960300 0.000000
-6.947600 0.000000
-6.934800 0.000000
-6.922000 0.000000
-6.909300 0.000000
-6.896500 0.000000
-6.883800 0.000000
-6.871000 0.000000
-6.858300 0.000000
-6.845500 0.000000
-6.832800 0.000000
-6.820000 0.000000
-6.807300 0.000000
-6.794500 0.000000
-6.781700 0.000000
-6.769000 0.000000
-6.756200 0.000000
-6.743500 0.000000
-6.730700 0.000000
-6.718000 0.000000
-6.705200 0.000000
-6.692500 0.000000
-6.679700 0.000000
-6.667000 0.000000
-6.654200 0.000000
-6.641400 0.000000
-6.628700 0.000000
-6.615900 0.000000
-6.603200 0.000000
-6.590400 0.000000
-6.577700 0.000000
-6.564900 0.000000
-6.552200 0.000000
-6.539400 0.000000
-6.526700 0.000000
-6.513900 0.000000
-6.501100 0.000000
-6.488400 0.000000
-6.475600 0.005400
-6.462900 0.384900
-6.450100 0.865700
-6.437400 1.441600
-6.424600 2.157600
-6.411900 3.069400
-6.399100 4.120700
-6.386300 5.462500
-6.373600 8.579900
-6.360800 10.786100
-6.348100 9.945100
-6.335300 8.704000
-6.322600 6.010400
-6.309800 4.464500
-6.297100 4.464900
-6.284300 4.465300
-6.271600 4.465700
-6.258800 4.466200
-6.246000 4.466700
-6.233300 4.467200
-6.220500 4.467700
-6.207800 4.281800
-6.195000 4.059900
-6.182300 3.665700
-6.169500 3.357200
-6.156800 3.357100
-6.144000 3.357100
-6.131300 3.357100
-6.118500 3.357100
-6.105700 3.357100
-6.093000 3.357100
-6.080200 3.357100
-6.067500 3.357200
-6.054700 3.357200
-6.042000 3.357300
-6.029200 3.357300
-6.016500 3.357400
-6.003700 3.327400
-5.991000 0.810400
-5.978200 0.082500
-5.965400 1.151900
-5.952700 2.394300
-5.939900 3.022200
-5.927200 3.105800
-5.914400 3.105800
-5.901700 3.105800
-5.888900 3.105800
-5.876200 3.105800
-5.863400 3.105900
-5.850700 3.105900
-5.837900 3.105900
-5.825100 3.105900
-5.812400 3.106000
-5.799600 3.106000
-5.786900 3.106000
-5.774100 3.106100
-5.761400 3.106100
-5.748600 3.730300
-5.735900 4.104000
-5.723100 4.316500
-5.710400 4.315300
-5.697600 4.314200
-5.684800 4.313400
-5.672100 4.312700
-5.659300 4.312200
-5.646600 4.521400
-5.633800 4.988400
-5.621100 5.666100
-5.608300 6.489100
-5.595600 7.179600
-5.582800 10.732800
-5.570000 11.972100
-5.557300 9.312100
-5.544500 6.980000
-5.531800 5.586000
-5.519000 4.930800
-5.506300 5.207100
-5.493500 6.413500
-5.480800 9.886100
-5.468000 44.544300
-5.455300 32.314300
-5.442500 21.801800
-5.429700 16.588000
-5.417000 13.319200
-5.404200 12.610700
-5.391500 14.439900
-5.378700 24.084000
-5.366000 36.358800
-5.353200 18.929900
-5.340500 18.665200
-5.327700 49.540500
-5.315000 22.486800
-5.302200 22.617900
-5.289400 22.599500
-5.276700 19.349900
-5.263900 11.929600
-5.251200 10.029100
-5.238400 14.621800
-5.225700 22.340700
-5.212900 22.396300
-5.200200 20.642600
-5.187400 19.441700
-5.174700 21.680000
-5.161900 20.562300
-5.149100 26.723700
-5.136400 17.570100
-5.123600 7.510600
-5.110900 6.621100
-5.098100 9.897000
-5.085400 12.344600
-5.072600 13.350600
-5.059900 17.982000
-5.047100 22.261900
-5.034400 24.623400
-5.021600 29.190100
-5.008800 31.436100
-4.996100 32.752400
-4.983300 42.564600
-4.970600 39.315300
-4.957800 46.817400
-4.945100 34.196700
-4.932300 26.491300
-4.919600 12.479700
-4.906800 12.538900
-4.894100 13.231200
-4.881300 8.012800
-4.868500 5.461800
-4.855800 4.704200
-4.843000 2.888900
-4.830300 4.869800
-4.817500 58.829100
-4.804800 55.394800
-4.792000 59.997800
-4.779300 41.699600
-4.766500 39.066200
-4.753700 49.717800
-4.741000 88.196100
-4.728200 63.695100
-4.715500 47.817200
-4.702700 116.512000
-4.690000 73.870600
-4.677200 70.058100
-4.664500 15.401300
-4.651700 7.899900
-4.639000 6.860200
-4.626200 7.121200
-4.613400 8.503200
-4.600700 9.193800
-4.587900 7.804200
-4.575200 6.341300
-4.562400 5.489200
-4.549700 5.018700
-4.536900 4.685900
-4.524200 4.382800
-4.511400 4.143400
-4.498700 4.003200
-4.485900 4.262900
-4.473100 4.308600
-4.460400 3.981100
-4.447600 3.196300
-4.434900 2.575800
-4.422100 1.977000
-4.409400 1.692500
-4.396600 1.317600
-4.383900 0.907100
-4.371100 0.485600
-4.358400 0.137600
-4.345600 0.005400
-4.332800 0.000000
-4.320100 0.000000
-4.307300 0.000000
-4.294600 0.000000
-4.281800 0.000000
-4.269100 0.000000
-4.256300 0.000000
-4.243600 0.000000
-4.230800 0.000000
-4.218100 0.000000
-4.205300 0.000000
-4.192500 0.000000
-4.179800 0.000000
-4.167000 0.000000
-4.154300 0.000000
-4.141500 0.000000
-4.128800 0.000000
-4.116000 0.000000
-4.103300 0.000000
-4.090500 0.000000
-4.077800 0.000000
-4.065000 0.000000
-4.052200 0.000000
-4.039500 0.000000
-4.026700 0.000000
-4.014000 0.000000
-4.001200 0.000000
-3.988500 0.000000
-3.975700 0.000000
-3.963000 0.000000
-3.950200 0.000000
-3.937400 0.000000
-3.924700 0.000000
-3.911900 0.000000
-3.899200 0.000000
-3.886400 0.000000
-3.873700 0.000000
-3.860900 0.000000
-3.848200 0.000000
-3.835400 0.000000
-3.822700 0.000000
-3.809900 0.000000
-3.797100 0.000000
-3.784400 0.000000
-3.771600 0.000000
-3.758900 0.000000
-3.746100 0.000000
-3.733400 0.000000
-3.720600 0.000000
-3.707900 0.000000
-3.695100 0.000000
-3.682400 0.000000
-3.669600 0.000000
-3.656800 0.000000
-3.644100 0.000000
-3.631300 0.000000
-3.618600 0.000000
-3.605800 0.000000
-3.593100 0.000000
-3.580300 0.000000
-3.567600 0.000000
-3.554800 0.000000
-3.542100 0.000000
-3.529300 0.000000
-3.516500 0.000000
-3.503800 0.000000
-3.491000 0.000000
-3.478300 0.000000
-3.465500 0.000000
-3.452800 0.000000
-3.440000 0.000000
-3.427300 0.000000
-3.414500 0.000000
-3.401800 0.000000
-3.389000 0.000000
-3.376200 0.000000
-3.363500 0.000000
-3.350700 0.000000
-3.338000 0.000000
-3.325200 0.000000
-3.312500 0.000000
-3.299700 0.000000
-3.287000 0.000000
-3.274200 0.000000
-3.261400 0.000000
-3.248700 0.000000
-3.235900 0.000000
-3.223200 0.000000
-3.210400 0.000000
-3.197700 0.000000
-3.184900 0.000000
-3.172200 0.000000
-3.159400 0.000000
-3.146700 0.000000
-3.133900 0.000000
-3.121100 0.000000
-3.108400 0.000000
-3.095600 0.000000
-3.082900 0.026800
-3.070100 0.367100
-3.057400 1.060700
-3.044600 1.407500
-3.031900 1.531500
-3.019100 1.782200
-3.006400 2.062300
-2.993600 2.411800
-2.980800 2.787900
-2.968100 3.130400
-2.955300 3.375300
-2.942600 3.430200
-2.929800 3.383400
-2.917100 3.495900
-2.904300 3.605600
-2.891600 3.715700
-2.878800 3.831500
-2.866100 3.961200
-2.853300 4.143900
-2.840500 4.398700
-2.827800 4.959600
-2.815000 5.442200
-2.802300 5.692500
-2.789500 5.738100
-2.776800 5.688300
-2.764000 7.042400
-2.751300 6.993200
-2.738500 6.970100
-2.725800 7.496600
-2.713000 7.537800
-2.700200 7.620500
-2.687500 8.687700
-2.674700 13.763200
-2.662000 9.447700
-2.649200 6.985300
-2.636500 6.975400
-2.623700 8.434800
-2.611000 11.230700
-2.598200 10.955000
-2.585500 12.650900
-2.572700 12.081300
-2.559900 12.998500
-2.547200 13.468900
-2.534400 13.183400
-2.521700 12.042500
-2.508900 8.469500
-2.496200 7.592100
-2.483400 5.817400
-2.470700 4.233200
-2.457900 1.937000
-2.445100 1.366900
-2.432400 1.400500
-2.419600 2.107000
-2.406900 2.099600
-2.394100 1.532600
-2.381400 1.592400
-2.368600 1.978600
-2.355900 2.973700
-2.343100 3.866200
-2.330400 4.974700
-2.317600 5.492600
-2.304800 5.757400
-2.292100 5.872000
-2.279300 5.341900
-2.266600 5.090400
-2.253800 4.912300
-2.241100 4.778400
-2.228300 4.757100
-2.215600 4.503100
-2.202800 4.304000
-2.190100 4.141600
-2.177300 4.007700
-2.164500 3.905100
-2.151800 3.821700
-2.139000 3.732900
-2.126300 3.599100
-2.113500 3.423500
-2.100800 3.318500
-2.088000 3.251500
-2.075300 3.205900
-2.062500 3.189600
-2.049800 3.247500
-2.037000 3.215000
-2.024200 3.426200
-2.011500 3.443600
-1.998700 3.229800
-1.986000 2.965700
-1.973200 2.622300
-1.960500 2.203400
-1.947700 1.705600
-1.935000 1.255000
-1.922200 1.111800
-1.909500 1.006400
-1.896700 0.932600
-1.883900 0.891800
-1.871200 0.875200
-1.858400 0.866700
-1.845700 0.866000
-1.832900 0.877200
-1.820200 0.903500
-1.807400 0.944700
-1.794700 1.000800
-1.781900 1.072800
-1.769200 1.182400
-1.756400 1.425000
-1.743600 1.645900
-1.730900 1.792400
-1.718100 1.899700
-1.705400 1.990500
-1.692600 2.069800
-1.679900 2.142200
-1.667100 2.215000
-1.654400 2.228700
-1.641600 2.178400
-1.628800 2.142100
-1.616100 2.154600
-1.603300 2.182500
-1.590600 2.208600
-1.577800 2.215400
-1.565100 2.237200
-1.552300 2.260200
-1.539600 2.288500
-1.526800 2.315600
-1.514100 2.342500
-1.501300 2.377000
-1.488500 2.429000
-1.475800 2.490200
-1.463000 2.566000
-1.450300 2.658600
-1.437500 2.767300
-1.424800 2.894900
-1.412000 3.087500
-1.399300 3.031400
-1.386500 3.011100
-1.373800 3.077000
-1.361000 3.081100
-1.348200 3.038500
-1.335500 2.955600
-1.322700 2.850500
-1.310000 3.352900
-1.297200 3.822200
-1.284500 4.023500
-1.271700 3.945700
-1.259000 3.797400
-1.246200 3.714300
-1.233500 3.701100
-1.220700 3.721400
-1.207900 3.757400
-1.195200 3.794500
-1.182400 3.975000
-1.169700 4.485000
-1.156900 5.131400
-1.144200 5.239500
-1.131400 4.931100
-1.118700 4.642000
-1.105900 4.381600
-1.093200 4.299800
-1.080400 4.213100
-1.067600 4.171300
-1.054900 4.165700
-1.042100 4.160200
-1.029400 4.166100
-1.016600 4.166900
-1.003900 4.187200
-0.991100 4.188000
-0.978400 4.175700
-0.965600 4.168500
-0.952900 4.168000
-0.940100 4.190700
-0.927300 4.264500
-0.914600 4.366300
-0.901800 4.497100
-0.889100 4.675700
-0.876300 4.748500
-0.863600 4.791900
-0.850800 4.808100
-0.838100 4.772800
-0.825300 4.911400
-0.812500 4.944400
-0.799800 4.792900
-0.787000 4.700100
-0.774300 4.692400
-0.761500 4.688500
-0.748800 4.703100
-0.736000 4.738500
-0.723300 4.783900
-0.710500 4.867000
-0.697800 4.945400
-0.685000 5.037900
-0.672200 5.171900
-0.659500 5.567500
-0.646700 6.715200
-0.634000 8.904600
-0.621200 10.296000
-0.608500 8.099600
-0.595700 7.340300
-0.583000 6.611200
-0.570200 5.985200
-0.557500 5.599900
-0.544700 5.301500
-0.531900 5.033000
-0.519200 4.843000
-0.506400 4.689500
-0.493700 4.556400
-0.480900 4.417400
-0.468200 4.309500
-0.455400 4.251700
-0.442700 4.219700
-0.429900 4.273400
-0.417200 4.367200
-0.404400 4.533600
-0.391600 4.620800
-0.378900 4.835700
-0.366100 5.063300
-0.353400 5.154700
-0.340600 5.286900
-0.327900 4.963400
-0.315100 4.311500
-0.302400 4.003200
-0.289600 3.744000
-0.276900 3.579300
-0.264100 3.516100
-0.251300 3.595700
-0.238600 3.818800
-0.225800 4.158500
-0.213100 4.440400
-0.200300 4.653700
-0.187600 4.828800
-0.174800 5.022900
-0.162100 4.912300
-0.149300 4.390200
-0.136600 3.648100
-0.123800 3.092100
-0.111000 2.801800
-0.098300 2.832300
-0.085500 2.904000
-0.072800 2.992800
-0.060000 3.114400
-0.047300 3.270500
-0.034500 3.444100
-0.021800 3.627800
-0.009000 3.805100
0.003800 4.012100
0.016500 4.265700
0.029300 4.520700
0.042000 4.702300
0.054800 4.844900
0.067500 5.084300
0.080300 5.384900
0.093000 5.401200
0.105800 5.198800
0.118500 5.216200
0.131300 4.948000
0.144100 5.297400
0.156800 5.233400
0.169600 5.416200
0.182300 5.730500
0.195100 6.360300
0.207800 6.317100
0.220600 5.842500
0.233300 5.459500
0.246100 5.239100
0.258800 5.147700
0.271600 5.204600
0.284400 5.299000
0.297100 5.396500
0.309900 5.527600
0.322600 5.925700
0.335400 6.670900
0.348100 8.133500
0.360900 9.681200
0.373600 10.166900
0.386400 10.146000
0.399100 10.174700
0.411900 11.123400
0.424700 13.071800
0.437400 11.733700
0.450200 12.145800
0.462900 10.500800
0.475700 9.527900
0.488400 8.569700
0.501200 7.348500
0.513900 6.878800
0.526700 6.495700
0.539400 6.138600
0.552200 5.778600
0.565000 5.371500
0.577700 5.128100
0.590500 4.983900
0.603200 4.826500
0.616000 4.651000
0.628700 4.460700
0.641500 4.298500
0.654200 4.188900
0.667000 4.079300
0.679700 3.962200
0.692500 3.826500
0.705300 3.758600
0.718000 3.692700
0.730800 3.615200
0.743500 3.511700
0.756300 3.373900
0.769000 3.254400
0.781800 3.186300
0.794500 3.157000
0.807300 3.001100
0.820100 2.791800
0.832800 2.733600
0.845600 3.265100
0.858300 2.970400
0.871100 2.018300
0.883800 0.367600
0.896600 0.000000
0.909300 0.000000
0.922100 0.000000
0.934800 0.000000
0.947600 0.000000
0.960400 0.000000
0.973100 0.000000
0.985900 0.000000
0.998600 0.000000
1.011400 0.000000
1.024100 0.000000
1.036900 0.000000
1.049600 0.000000
1.062400 0.000000
1.075100 0.000000
1.087900 0.000000
1.100700 0.000000
1.113400 0.000000
1.126200 0.000000
1.138900 0.000000
1.151700 0.000000
1.164400 0.000000
1.177200 0.000000
1.189900 0.000000
1.202700 0.000000
1.215400 0.000000
1.228200 0.000000
1.241000 0.000000
1.253700 0.000000
1.266500 0.000000
1.279200 0.000000
1.292000 0.000000
1.304700 0.000000
1.317500 0.000000
1.330200 0.000000
1.343000 0.000000
1.355700 0.000000
1.368500 0.000000
1.381300 0.000000
1.394000 0.000000
1.406800 0.000000
1.419500 0.000000
1.432300 0.000000
1.445000 0.000000
1.457800 0.000000
1.470500 0.000000
1.483300 0.000000
1.496100 0.000000
1.508800 0.000000
1.521600 0.000000
1.534300 0.000000
1.547100 0.000000
1.559800 0.000000
1.572600 0.000000
1.585300 0.000000
1.598100 0.000000
1.610800 0.000000
1.623600 0.000000
1.636400 0.000000
1.649100 0.000000
1.661900 0.000000
1.674600 0.000000
1.687400 0.000000
1.700100 0.000000
1.712900 0.000000
1.725600 0.000000
1.738400 0.000000
1.751100 0.000000
1.763900 0.000000
1.776700 0.000000
1.789400 0.000000
1.802200 0.000000
1.814900 0.000000
1.827700 0.000000
1.840400 0.000000
1.853200 0.000000
1.865900 0.000000
1.878700 0.000000
1.891400 0.000000
1.904200 0.000000
1.917000 0.000000
1.929700 0.000000
1.942500 0.000000
1.955200 0.000000
1.968000 0.000000
1.980700 0.000000
1.993500 0.000000
2.006200 0.000000
2.019000 0.000000
2.031700 0.000000
2.044500 0.000000
2.057300 0.000000
2.070000 0.000000
2.082800 0.000000
2.095500 0.000000
2.108300 0.000000
2.121000 0.000000
2.133800 0.000000
2.146500 0.000000
2.159300 0.000000
2.172000 0.000000
2.184800 0.000000
2.197600 0.000000
2.210300 0.000000
2.223100 0.000000
2.235800 0.000000
2.248600 0.000000
2.261300 0.000000
2.274100 0.000000
2.286800 0.000000
2.299600 0.000000
2.312400 0.000000
2.325100 0.000000
2.337900 0.000000
2.350600 0.000000
2.363400 0.000000
2.376100 0.000000
2.388900 0.000000
2.401600 0.000000
2.414400 0.000000
2.427100 0.000000
2.439900 0.000000
2.452700 0.000000
2.465400 0.000000
2.478200 0.000000
2.490900 0.000000
2.503700 0.000000
2.516400 0.000000
2.529200 0.000000
2.541900 0.000000
2.554700 0.000000
2.567400 0.000000
2.580200 0.000000
2.593000 0.001000
2.605700 0.011000
2.618500 0.031900
2.631200 0.063700
2.644000 0.101700
2.656700 0.120700
2.669500 0.140500
2.682200 0.161000
2.695000 0.181800
2.707700 0.198000
2.720500 0.207900
2.733300 0.211500
2.746000 0.209800
2.758800 0.221800
2.771500 0.234000
2.784300 0.245800
2.797000 0.256800
2.809800 0.266700
2.822500 0.275700
2.835300 0.283700
2.848000 0.290600
2.860800 0.296800
2.873600 0.302400
2.886300 0.308300
2.899100 0.315500
2.911800 0.324000
2.924600 0.333700
2.937300 0.344400
2.950100 0.355600
2.962800 0.367200
2.975600 0.379100
2.988300 0.390600
3.001100 0.401100
3.013900 0.410600
3.026600 0.419100
3.039400 0.429200
3.052100 0.439500
3.064900 0.449900
3.077600 0.459600
3.090400 0.469800
3.103100 0.480400
3.115900 0.491600
3.128700 0.505000
3.141400 0.521200
3.154200 0.538500
3.166900 0.556000
3.179700 0.577000
3.192400 0.611300
3.205200 0.659700
3.217900 0.722000
3.230700 0.798000
3.243400 0.887900
3.256200 0.988100
3.269000 1.120400
3.281700 1.355500
3.294500 1.697500
3.307200 2.107300
3.320000 2.627400
3.332700 3.075800
3.345500 3.394000
3.358200 3.626900
3.371000 3.656500
3.383700 3.478100
3.396500 3.394000
3.409300 3.364400
3.422000 3.357300
3.434800 3.358500
3.447500 3.391100
3.460300 3.434400
3.473000 3.471800
3.485800 3.516200
3.498500 3.566500
3.511300 3.583600
3.524000 3.633500
3.536800 3.724300
3.549600 3.822100
3.562300 3.900600
3.575100 3.864100
3.587800 3.847500
3.600600 3.783900
3.613300 3.786600
3.626100 3.857800
3.638800 4.031700
3.651600 4.361800
3.664300 4.852300
3.677100 4.998300
3.689900 5.198800
3.702600 5.291600
3.715400 4.914100
3.728100 4.288800
3.740900 3.938500
3.753600 3.624900
3.766400 3.344400
3.779100 3.015100
3.791900 3.044500
3.804600 3.150800
3.817400 3.370900
3.830200 3.794000
3.842900 4.147200
3.855700 4.560900
3.868400 5.057800
3.881200 5.654600
3.893900 6.415200
3.906700 6.179400
3.919400 6.268700
3.932200 6.480600
3.945000 6.442900
3.957700 6.212500
3.970500 6.157200
3.983200 6.186500
3.996000 5.935400
4.008700 5.560600
4.021500 5.207900
4.034200 4.612300
4.047000 4.267800
4.059700 4.051600
4.072500 3.989800
4.085300 3.924800
4.098000 3.569900
4.110800 2.875800
4.123500 2.379600
4.136300 1.979000
4.149000 1.648500
4.161800 1.453700
4.174500 1.371600
4.187300 1.320100
4.200000 1.252300
4.212800 1.192700
4.225600 1.174800
4.238300 1.213700
4.251100 1.329900
4.263800 1.484900
4.276600 1.702800
4.289300 1.938000
4.302100 2.165000
4.314800 2.478700
4.327600 2.996900
4.340300 3.406500
4.353100 3.835100
4.365900 4.384500
4.378600 5.006400
4.391400 5.756100
4.404100 6.591400
4.416900 6.611100
4.429600 6.097700
4.442400 5.690700
4.455100 5.402000
4.467900 5.152000
4.480600 5.096700
4.493400 4.831000
4.506200 4.766200
4.518900 4.785900
4.531700 4.760800
4.544400 4.806600
4.557200 4.802500
4.569900 4.880700
4.582700 4.633800
4.595400 4.363400
4.608200 4.133700
4.620900 3.898100
4.633700 3.813300
4.646500 3.764400
4.659200 3.764400
4.672000 3.885600
4.684700 4.106200
4.697500 4.296400
4.710200 4.467100
4.723000 4.500900
4.735700 4.530600
4.748500 4.376900
4.761300 4.152200
4.774000 3.446400
4.786800 3.373800
4.799500 3.416900
4.812300 3.528000
4.825000 3.506900
4.837800 3.373400
4.850500 3.116400
4.863300 2.791100
4.876000 2.445000
4.888800 2.149900
4.901600 1.988200
4.914300 1.889900
4.927100 1.846300
4.939800 1.777500
4.952600 1.745200
4.965300 1.772100
4.978100 1.832400
4.990800 1.914500
5.003600 2.020000
5.016300 2.146000
5.029100 2.285600
5.041900 2.448400
5.054600 2.499400
5.067400 2.516700
5.080100 2.529200
5.092900 2.564300
5.105600 2.623300
5.118400 2.682200
5.131100 2.731400
5.143900 2.766500
5.156600 2.769500
5.169400 2.945700
5.182200 2.846000
5.194900 2.733300
5.207700 2.742100
5.220400 2.786300
5.233200 2.857800
5.245900 3.003000
5.258700 3.078000
5.271400 3.106800
5.284200 3.104100
5.296900 3.112300
5.309700 3.123400
5.322500 3.341500
5.335200 3.354600
5.348000 3.004700
5.360700 2.390800
5.373500 1.882900
5.386200 1.608300
5.399000 1.406600
5.411700 1.229800
5.424500 1.047800
5.437300 0.863000
5.450000 0.720900
5.462800 0.673200
5.475500 0.629600
5.488300 0.589600
5.501000 0.551400
5.513800 0.515200
5.526500 0.497400
5.539300 0.509000
5.552000 0.545200
5.564800 0.597200
5.577600 0.647600
5.590300 0.717400
5.603100 0.720900
5.615800 0.738800
5.628600 0.773600
5.641300 0.824800
5.654100 0.887400
5.666800 0.974900
5.679600 1.038700
5.692300 1.062500
5.705100 1.084000
5.717900 1.115600
5.730600 1.150000
5.743400 1.180200
5.756100 1.206100
5.768900 1.229000
5.781600 1.256100
5.794400 1.288300
5.807100 1.314700
5.819900 1.334200
5.832600 1.351900
5.845400 1.387100
5.858200 1.392100
5.870900 1.395200
5.883700 1.396500
5.896400 1.407500
5.909200 1.442500
5.921900 1.438300
5.934700 1.662100
5.947400 2.581600
5.960200 3.640300
5.972900 4.313000
5.985700 4.840200
5.998500 4.955300
6.011200 5.146500
6.024000 5.596700
6.036700 5.837300
6.049500 6.257100
6.062200 6.846400
6.075000 7.567500
6.087700 7.713800
6.100500 7.551000
6.113200 7.192700
6.126000 6.712600
6.138800 6.507000
6.151500 5.990800
6.164300 5.503800
6.177000 5.252400
6.189800 5.083200
6.202500 3.880500
6.215300 2.586100
6.228000 1.973000
6.240800 1.600200
6.253600 1.321100
6.266300 1.165200
6.279100 1.103700
6.291800 1.103200
6.304600 1.124800
6.317300 1.483900
6.330100 2.173500
6.342800 2.767600
6.355600 3.366500
6.368300 3.961800
6.381100 4.500900
6.393900 4.925800
6.406600 5.143100
6.419400 5.404200
6.432100 5.537600
6.444900 5.718100
6.457600 6.750100
6.470400 6.424400
6.483100 6.095300
6.495900 6.119900
6.508600 6.169000
6.521400 6.243800
6.534200 6.289400
6.546900 6.263000
6.559700 5.817800
6.572400 5.056200
6.585200 4.202000
6.597900 3.757800
6.610700 3.357400
6.623400 3.029000
6.636200 2.803100
6.648900 2.608200
6.661700 2.286800
6.674500 2.228500
6.687200 2.231100
6.700000 2.119300
6.712700 1.895300
6.725500 1.853000
6.738200 2.098500
6.751000 2.476000
6.763700 3.380300
6.776500 4.209700
6.789200 4.681500
6.802000 5.151300
6.814800 5.241100
6.827500 4.886300
6.840300 4.834100
6.853000 4.749100
6.865800 4.627900
6.878500 4.459600
6.891300 4.373500
6.904000 4.375000
6.916800 4.566700
6.929500 4.818200
6.942300 4.909400
6.955100 4.676400
6.967800 4.334700
6.980600 4.125100
6.993300 4.125000
7.006100 3.892400
7.018800 3.645600
7.031600 3.655500
7.044300 3.701700
7.057100 3.752200
7.069900 3.787300
7.082600 3.800100
7.095400 3.776800
7.108100 3.861200
7.120900 3.767700
7.133600 3.611000
7.146400 3.443600
7.159100 3.140900
7.171900 2.787000
7.184600 2.467300
7.197400 2.170200
7.210200 1.895000
7.222900 1.669500
7.235700 1.495200
7.248400 1.344300
7.261200 1.292000
7.273900 1.246900
7.286700 1.203000
7.299400 1.141500
7.312200 1.099500
7.324900 1.198800
7.337700 1.379700
7.350500 1.618900
7.363200 2.116400
7.376000 2.642100
7.388700 3.102700
7.401500 4.003500
7.414200 4.960700
7.427000 6.042000
7.439700 7.004800
7.452500 7.793100
7.465200 8.311400
7.478000 8.757600
7.490800 9.324200
7.503500 9.761900
7.516300 9.705000
7.529000 8.955900
7.541800 7.560900
7.554500 6.623300
7.567300 6.191800
7.580000 5.670700
7.592800 5.161500
7.605500 4.631300
7.618300 4.537300
7.631100 4.510700
7.643800 4.610700
7.656600 4.805100
7.669300 5.702700
7.682100 6.210700
7.694800 7.129400
7.707600 7.633900
7.720300 6.705800
7.733100 6.561000
7.745800 6.548300
7.758600 6.137600
7.771400 5.061700
7.784100 4.735500
7.796900 4.828700
7.809600 5.097900
7.822400 5.323900
7.835100 5.497700
7.847900 5.637700
7.860600 5.742000
7.873400 6.209300
7.886200 6.343300
7.898900 6.528200
7.911700 6.660800
7.924400 6.592600
7.937200 6.165900
7.949900 5.538000
7.962700 5.055100
7.975400 4.232000
7.988200 3.770300
8.000900 3.495800
8.013700 3.268400
8.026500 3.047300
8.039200 2.833700
8.052000 2.654400
8.064700 2.476600
8.077500 2.022800
8.090200 1.726300
8.103000 1.367800
8.115700 0.985700
8.128500 0.633100
8.141200 0.198300
8.154000 0.184200
8.166800 0.174000
8.179500 0.138900
8.192300 0.079400
8.205000 0.036500
8.217800 0.010000
8.230500 0.000100
8.243300 0.000000
8.256000 0.000000
8.268800 0.000000
8.281500 0.000000
8.294300 0.000000
8.307100 0.000000
8.319800 0.000000
8.332600 0.000000
8.345300 0.000000
8.358100 0.000000
8.370800 0.000000
8.383600 0.000000
8.396300 0.000000
8.409100 0.000000
8.421800 0.000000
8.434600 0.000000
8.447400 0.000000
8.460100 0.000000
8.472900 0.000000
8.485600 0.000000
8.498400 0.000000
8.511100 0.000000
8.523900 0.000000
8.536600 0.000000
8.549400 0.000000
8.562100 0.000000
8.574900 0.000000
8.587700 0.000000
8.600400 0.000000
8.613200 0.000000
8.625900 0.000000
8.638700 0.000000
8.651400 0.000000
8.664200 0.000000
8.676900 0.000000
8.689700 0.000000
8.702500 0.000000
8.715200 0.000000
8.728000 0.000300
8.740700 0.005200
8.753500 0.016300
8.766200 0.033400
8.779000 0.076600
8.791700 0.127300
8.804500 0.173400
8.817200 0.216100
8.830000 0.259700
8.842800 0.304800
8.855500 0.351500
8.868300 0.399700
8.881000 0.449400
8.893800 0.500600
8.906500 0.549500
8.919300 0.579700
8.932000 0.642200
8.944800 0.679000
8.957500 0.662800
8.970300 0.696200
8.983100 0.736700
8.995800 0.783900
9.008600 0.838100
9.021300 0.899300
9.034100 0.961700
9.046800 1.013600
9.059600 1.054800
9.072300 1.091700
9.085100 1.135000
9.097800 1.186000
9.110600 1.282700
9.123400 1.534200
9.136100 2.026300
9.148900 3.036700
9.161600 3.394100
9.174400 3.444400
9.187100 3.504600
9.199900 3.552900
9.212600 3.622300
9.225400 3.712400
9.238100 3.791200
9.250900 3.918200
9.263700 4.086800
9.276400 4.257600
9.289200 4.385300
9.301900 4.377200
9.314700 4.281000
9.327400 4.237900
9.340200 4.106400
9.352900 3.869900
9.365700 3.740200
9.378400 3.621900
9.391200 3.506600
9.404000 3.412300
9.416700 3.346400
9.429500 3.303200
9.442200 3.262900
9.455000 3.224500
9.467700 3.150400
9.480500 3.008100
9.493200 2.998600
9.506000 3.021500
9.518800 3.068800
9.531500 3.124200
9.544300 3.212600
9.557000 4.107000
9.569800 3.637200
9.582500 3.315900
9.595300 3.078600
9.608000 2.897300
9.620800 2.795100
9.633500 2.741200
9.646300 2.690800
9.659100 2.632600
9.671800 2.613600
9.684600 2.616200
9.697300 2.664400
9.710100 2.747700
9.722800 2.949300
9.735600 3.246200
9.748300 3.610400
9.761100 4.330300
9.773800 6.341500
9.786600 7.253800
9.799400 6.427800
9.812100 6.199500
9.824900 5.918600
9.837600 5.550700
9.850400 5.125000
9.863100 4.760600
9.875900 4.540000
9.888600 4.307700
9.901400 4.126700
9.914100 4.044600
9.926900 4.016400
9.939700 3.991800
9.952400 3.951000
9.965200 3.869100
9.977900 3.737000
9.990700 3.610500
10.003400 3.552500
10.016200 3.477800
10.028900 3.647500
10.041700 3.521600
10.054400 3.446600
10.067200 3.354600
10.080000 3.265400
10.092700 3.027100
10.105500 2.878900
10.118200 2.787600
10.131000 2.753500
10.143700 2.754700
10.156500 2.733200
10.169200 2.684900
10.182000 2.649500
10.194800 2.645300
10.207500 2.628300
10.220300 2.848300
10.233000 3.020900
10.245800 3.159500
10.258500 3.271500
10.271300 3.392500
10.284000 3.550500
10.296800 4.067300
10.309500 4.339700
10.322300 4.468400
10.335100 4.367700
10.347800 3.715400
10.360600 3.299700
10.373300 3.042300
10.386100 2.951400
10.398800 2.961100
10.411600 2.992100
10.424300 3.040200
10.437100 3.105100
10.449800 3.195900
10.462600 3.330200
10.475400 3.434100
10.488100 3.533900
10.500900 3.640400
10.513600 3.738200
10.526400 3.797000
10.539100 3.853500
10.551900 3.793900
10.564600 3.703600
10.577400 3.566900
10.590100 3.463700
10.602900 3.352100
10.615700 3.300300
10.628400 3.263800
10.641200 3.359000
10.653900 3.386000
10.666700 3.380800
10.679400 3.342400
10.692200 3.278900
10.704900 3.210800
10.717700 3.141900
10.730400 3.081400
10.743200 3.034700
10.756000 3.010400
10.768700 2.994500
10.781500 3.030800
10.794200 3.073100
10.807000 3.130000
10.819700 3.379600
10.832500 3.649800
10.845200 3.673400
10.858000 3.805900
10.870700 3.944100
10.883500 4.037700
10.896300 4.125900
10.909000 4.135000
10.921800 4.110000
10.934500 4.110000
10.947300 4.129800
10.960000 3.788800
10.972800 3.634300
10.985500 3.337400
10.998300 2.995300
11.011100 2.671000
11.023800 2.384200
11.036600 2.221500
11.049300 2.184700
11.062100 2.204000
11.074800 2.235400
11.087600 2.201400
11.100300 2.231800
11.113100 2.278200
11.125800 2.340000
11.138600 2.427500
11.151400 2.509700
11.164100 2.494600
11.176900 2.492700
11.189600 2.547100
11.202400 2.645800
11.215100 2.847000
11.227900 3.095200
11.240600 3.401200
11.253400 3.687100
11.266100 3.817400
11.278900 4.216000
11.291700 5.457900
11.304400 5.468900
11.317200 4.670400
11.329900 3.044200
11.342700 1.766400
11.355400 0.985500
11.368200 0.585200
11.380900 0.433300
11.393700 0.316900
11.406400 0.233100
11.419200 0.168300
11.432000 0.108600
11.444700 0.053900
11.457500 0.004300
11.470200 0.000000
11.483000 0.000000
11.495700 0.000000
11.508500 0.000000
11.521200 0.000000
11.534000 0.000000
11.546700 0.000000
11.559500 0.000000
11.572300 0.000000
11.585000 0.000000
11.597800 0.000000
11.610500 0.000000
11.623300 0.000000
11.636000 0.000000
11.648800 0.000000
11.661500 0.000000
11.674300 0.000000
11.687000 0.000000
11.699800 0.000000
11.712600 0.000000
11.725300 0.000000
11.738100 0.000000
11.750800 0.000000
11.763600 0.000000
11.776300 0.000000
11.789100 0.000000
11.801800 0.000000
11.814600 0.000000
11.827400 0.000000
11.840100 0.000000
11.852900 0.000000
11.865600 0.000000
11.878400 0.000000
11.891100 0.000000
11.903900 0.000000
11.916600 0.000000
11.929400 0.000000
11.942100 0.000000
11.954900 0.000000
11.967700 0.000000
11.980400 0.000000
11.993200 0.000000
12.005900 0.000000
12.018700 0.000000
12.031400 0.000000
12.044200 0.000000
12.056900 0.000000
12.069700 0.000000
12.082400 0.000000
12.095200 0.000000
12.108000 0.000000
12.120700 0.000000
12.133500 0.000000
12.146200 0.000000
12.159000 0.000000
12.171700 0.000000
12.184500 0.000000
12.197200 0.000000
12.210000 0.000000
12.222700 0.000000
12.235500 0.000000
12.248300 0.000000
12.261000 0.000000
12.273800 0.000000
12.286500 0.000000
12.299300 0.000000
12.312000 0.000000
12.324800 0.000000
12.337500 0.000000
12.350300 0.000000
12.363000 0.000000
12.375800 0.000000
12.388600 0.000000
12.401300 0.000000
12.414100 0.000000
12.426800 0.000000
12.439600 0.000000
12.452300 0.000000
12.465100 0.000000
12.477800 0.000000
12.490600 0.000000
12.503300 0.000000
12.516100 0.000000
12.528900 0.000000
12.541600 0.000000
12.554400 0.000000
12.567100 0.000000
12.579900 0.000000
12.592600 0.000000
12.605400 0.000000
12.618100 0.000000
e
