set title 'mp-1008860 - Density of States'
set xlabel 'Energy (eV)'
set ylabel 'DOS (states/eV)'
set grid
set xrange [-10:10]
set yrange [0:6.502]
set xzeroaxis lt -1
set terminal png size 800,600
set output 'mp-1008860_dos_gnuplot.png'
plot '-' using 1:2 with lines title 'DOS'
-30.571800 0.000000
-30.542000 0.000000
-30.512200 0.000000
-30.482300 0.000000
-30.452500 0.000000
-30.422700 0.000000
-30.392800 0.000000
-30.363000 0.000000
-30.333100 0.000000
-30.303300 0.000000
-30.273500 0.000000
-30.243600 0.000000
-30.213800 0.000000
-30.183900 0.000000
-30.154100 0.000000
-30.124300 0.000000
-30.094400 0.000000
-30.064600 0.000000
-30.034700 0.000000
-30.004900 0.000000
-29.975100 0.000000
-29.945200 0.000000
-29.915400 0.000000
-29.885500 0.000000
-29.855700 0.000000
-29.825900 0.000000
-29.796000 0.000000
-29.766200 0.000000
-29.736400 0.000000
-29.706500 0.000000
-29.676700 0.000000
-29.646800 0.000000
-29.617000 0.000000
-29.587200 0.000000
-29.557300 0.000000
-29.527500 0.000000
-29.497600 0.000000
-29.467800 0.000000
-29.438000 0.000000
-29.408100 0.000000
-29.378300 0.000000
-29.348400 0.000000
-29.318600 0.000000
-29.288800 0.000000
-29.258900 0.000000
-29.229100 0.000000
-29.199200 0.000000
-29.169400 0.000000
-29.139600 0.000000
-29.109700 0.000000
-29.079900 0.000000
-29.050100 0.000000
-29.020200 0.000000
-28.990400 0.000000
-28.960500 0.000000
-28.930700 0.000000
-28.900900 0.000000
-28.871000 0.000000
-28.841200 0.000000
-28.811300 0.000000
-28.781500 0.000000
-28.751700 0.000000
-28.721800 0.000000
-28.692000 0.000000
-28.662100 0.000000
-28.632300 0.000000
-28.602500 0.000000
-28.572600 0.000000
-28.542800 0.000000
-28.512900 0.000000
-28.483100 0.000000
-28.453300 0.000000
-28.423400 0.000000
-28.393600 0.000000
-28.363800 0.000000
-28.333900 0.000000
-28.304100 0.000000
-28.274200 0.000000
-28.244400 0.000000
-28.214600 0.000000
-28.184700 0.000000
-28.154900 0.000000
-28.125000 0.000000
-28.095200 0.000000
-28.065400 0.000000
-28.035500 0.000000
-28.005700 0.000000
-27.975800 0.001000
-27.946000 0.016300
-27.916200 0.145900
-27.886300 0.747700
-27.856500 2.335100
-27.826700 4.771900
-27.796800 7.012800
-27.767000 8.789600
-27.737100 11.338700
-27.707300 15.042700
-27.677500 18.731900
-27.647600 20.608200
-27.617800 18.793100
-27.587900 14.251100
-27.558100 9.803700
-27.528300 6.742600
-27.498400 4.825600
-27.468600 4.324300
-27.438700 5.440000
-27.408900 6.525600
-27.379100 6.731900
-27.349200 7.416700
-27.319400 8.838900
-27.289500 8.627000
-27.259700 5.820300
-27.229900 2.560900
-27.200000 0.707100
-27.170200 0.116500
-27.140400 0.010800
-27.110500 0.000500
-27.080700 0.000000
-27.050800 0.000000
-27.021000 0.000000
-26.991200 0.000000
-26.961300 0.000000
-26.931500 0.000000
-26.901600 0.000000
-26.871800 0.000000
-26.842000 0.000000
-26.812100 0.000000
-26.782300 0.000000
-26.752400 0.000000
-26.722600 0.000000
-26.692800 0.000000
-26.662900 0.000000
-26.633100 0.000000
-26.603200 0.000000
-26.573400 0.000000
-26.543600 0.000000
-26.513700 0.000000
-26.483900 0.000000
-26.454100 0.000000
-26.424200 0.000000
-26.394400 0.000000
-26.364500 0.000000
-26.334700 0.000000
-26.304900 0.000000
-26.275000 0.000000
-26.245200 0.000000
-26.215300 0.000000
-26.185500 0.000000
-26.155700 0.000000
-26.125800 0.000000
-26.096000 0.000000
-26.066100 0.000000
-26.036300 0.000000
-26.006500 0.000000
-25.976600 0.000000
-25.946800 0.000000
-25.916900 0.000000
-25.887100 0.000000
-25.857300 0.000000
-25.827400 0.000000
-25.797600 0.000000
-25.767800 0.000000
-25.737900 0.000000
-25.708100 0.000000
-25.678200 0.000000
-25.648400 0.000000
-25.618600 0.000000
-25.588700 0.000000
-25.558900 0.000000
-25.529000 0.000000
-25.499200 0.000000
-25.469400 0.000000
-25.439500 0.000000
-25.409700 0.000000
-25.379800 0.000000
-25.350000 0.000000
-25.320200 0.000000
-25.290300 0.000000
-25.260500 0.000000
-25.230700 0.000000
-25.200800 0.000000
-25.171000 0.000000
-25.141100 0.000000
-25.111300 0.000000
-25.081500 0.000000
-25.051600 0.000000
-25.021800 0.000000
-24.991900 0.000000
-24.962100 0.000000
-24.932300 0.000000
-24.902400 0.000000
-24.872600 0.000000
-24.842700 0.000000
-24.812900 0.000000
-24.783100 0.000000
-24.753200 0.000000
-24.723400 0.000000
-24.693500 0.000000
-24.663700 0.000000
-24.633900 0.000000
-24.604000 0.000000
-24.574200 0.000000
-24.544400 0.000000
-24.514500 0.000000
-24.484700 0.000000
-24.454800 0.000000
-24.425000 0.000000
-24.395200 0.000000
-24.365300 0.000000
-24.335500 0.000000
-24.305600 0.000000
-24.275800 0.000000
-24.246000 0.000000
-24.216100 0.000000
-24.186300 0.000000
-24.156400 0.000000
-24.126600 0.000000
-24.096800 0.000000
-24.066900 0.000000
-24.037100 0.000000
-24.007200 0.000000
-23.977400 0.000000
-23.947600 0.000000
-23.917700 0.000000
-23.887900 0.000000
-23.858100 0.000000
-23.828200 0.000000
-23.798400 0.000000
-23.768500 0.000000
-23.738700 0.000000
-23.708900 0.000000
-23.679000 0.000000
-23.649200 0.000000
-23.619300 0.000000
-23.589500 0.000000
-23.559700 0.000000
-23.529800 0.000000
-23.500000 0.000000
-23.470100 0.000000
-23.440300 0.000000
-23.410500 0.000000
-23.380600 0.000000
-23.350800 0.000000
-23.320900 0.000000
-23.291100 0.000000
-23.261300 0.000000
-23.231400 0.000000
-23.201600 0.000000
-23.171800 0.000000
-23.141900 0.000000
-23.112100 0.000000
-23.082200 0.000000
-23.052400 0.000000
-23.022600 0.000000
-22.992700 0.000000
-22.962900 0.000000
-22.933000 0.000000
-22.903200 0.000000
-22.873400 0.000000
-22.843500 0.000000
-22.813700 0.000000
-22.783800 0.000000
-22.754000 0.000000
-22.724200 0.000000
-22.694300 0.000000
-22.664500 0.000000
-22.634700 0.000000
-22.604800 0.000000
-22.575000 0.000000
-22.545100 0.000000
-22.515300 0.000000
-22.485500 0.000000
-22.455600 0.000000
-22.425800 0.000000
-22.395900 0.000000
-22.366100 0.000000
-22.336300 0.000000
-22.306400 0.000000
-22.276600 0.000000
-22.246700 0.000000
-22.216900 0.000000
-22.187100 0.000000
-22.157200 0.000000
-22.127400 0.000000
-22.097500 0.000000
-22.067700 0.000000
-22.037900 0.000000
-22.008000 0.000000
-21.978200 0.000000
-21.948400 0.000000
-21.918500 0.000000
-21.888700 0.000000
-21.858800 0.000000
-21.829000 0.000000
-21.799200 0.000000
-21.769300 0.000000
-21.739500 0.000000
-21.709600 0.000000
-21.679800 0.000000
-21.650000 0.000000
-21.620100 0.000000
-21.590300 0.000000
-21.560400 0.000000
-21.530600 0.000000
-21.500800 0.000000
-21.470900 0.000000
-21.441100 0.000000
-21.411200 0.000000
-21.381400 0.000000
-21.351600 0.000000
-21.321700 0.000000
-21.291900 0.000000
-21.262100 0.000000
-21.232200 0.000000
-21.202400 0.000000
-21.172500 0.000000
-21.142700 0.000000
-21.112900 0.000000
-21.083000 0.000000
-21.053200 0.000000
-21.023300 0.000000
-20.993500 0.000000
-20.963700 0.000000
-20.933800 0.000000
-20.904000 0.000000
-20.874100 0.000000
-20.844300 0.000000
-20.814500 0.000000
-20.784600 0.000000
-20.754800 0.000000
-20.724900 0.000000
-20.695100 0.000000
-20.665300 0.000000
-20.635400 0.000000
-20.605600 0.000000
-20.575800 0.000000
-20.545900 0.000000
-20.516100 0.000000
-20.486200 0.000000
-20.456400 0.000000
-20.426600 0.000000
-20.396700 0.000000
-20.366900 0.000000
-20.337000 0.000000
-20.307200 0.000000
-20.277400 0.000000
-20.247500 0.000000
-20.217700 0.000000
-20.187800 0.000000
-20.158000 0.000000
-20.128200 0.000000
-20.098300 0.000000
-20.068500 0.000000
-20.038700 0.000000
-20.008800 0.000000
-19.979000 0.000000
-19.949100 0.000000
-19.919300 0.000000
-19.889500 0.000000
-19.859600 0.000000
-19.829800 0.000000
-19.799900 0.000000
-19.770100 0.000000
-19.740300 0.000000
-19.710400 0.000000
-19.680600 0.000000
-19.650700 0.000000
-19.620900 0.000000
-19.591100 0.000000
-19.561200 0.000000
-19.531400 0.000000
-19.501500 0.000000
-19.471700 0.000000
-19.441900 0.000000
-19.412000 0.000000
-19.382200 0.000000
-19.352400 0.000000
-19.322500 0.000000
-19.292700 0.000000
-19.262800 0.000000
-19.233000 0.000000
-19.203200 0.000000
-19.173300 0.000000
-19.143500 0.000000
-19.113600 0.000000
-19.083800 0.000000
-19.054000 0.000000
-19.024100 0.000000
-18.994300 0.000000
-18.964400 0.000000
-18.934600 0.000000
-18.904800 0.000000
-18.874900 0.000000
-18.845100 0.000000
-18.815200 0.000000
-18.785400 0.000000
-18.755600 0.000000
-18.725700 0.000000
-18.695900 0.000000
-18.666100 0.000000
-18.636200 0.000000
-18.606400 0.000000
-18.576500 0.000000
-18.546700 0.000000
-18.516900 0.000000
-18.487000 0.000000
-18.457200 0.000000
-18.427300 0.000000
-18.397500 0.000000
-18.367700 0.000000
-18.337800 0.000000
-18.308000 0.000000
-18.278100 0.000000
-18.248300 0.000000
-18.218500 0.000000
-18.188600 0.000000
-18.158800 0.000000
-18.128900 0.000000
-18.099100 0.000000
-18.069300 0.000000
-18.039400 0.000000
-18.009600 0.000000
-17.979800 0.000000
-17.949900 0.000000
-17.920100 0.000000
-17.890200 0.000000
-17.860400 0.000000
-17.830600 0.000000
-17.800700 0.000000
-17.770900 0.000000
-17.741000 0.000000
-17.711200 0.000000
-17.681400 0.000000
-17.651500 0.000000
-17.621700 0.000000
-17.591800 0.000000
-17.562000 0.000000
-17.532200 0.000000
-17.502300 0.000000
-17.472500 0.000000
-17.442700 0.000000
-17.412800 0.000000
-17.383000 0.000000
-17.353100 0.000000
-17.323300 0.000000
-17.293500 0.000000
-17.263600 0.000000
-17.233800 0.000000
-17.203900 0.000000
-17.174100 0.000000
-17.144300 0.000000
-17.114400 0.000000
-17.084600 0.000000
-17.054700 0.000000
-17.024900 0.000000
-16.995100 0.000000
-16.965200 0.000000
-16.935400 0.000000
-16.905500 0.000000
-16.875700 0.000000
-16.845900 0.000000
-16.816000 0.000000
-16.786200 0.000000
-16.756400 0.000000
-16.726500 0.000000
-16.696700 0.000000
-16.666800 0.000000
-16.637000 0.000000
-16.607200 0.000000
-16.577300 0.000000
-16.547500 0.000000
-16.517600 0.000000
-16.487800 0.000000
-16.458000 0.000000
-16.428100 0.000000
-16.398300 0.000000
-16.368400 0.000000
-16.338600 0.000000
-16.308800 0.000000
-16.278900 0.000000
-16.249100 0.000000
-16.219200 0.000000
-16.189400 0.000000
-16.159600 0.000000
-16.129700 0.000000
-16.099900 0.000000
-16.070100 0.000000
-16.040200 0.000000
-16.010400 0.000000
-15.980500 0.000000
-15.950700 0.000000
-15.920900 0.000000
-15.891000 0.000000
-15.861200 0.000000
-15.831300 0.000000
-15.801500 0.000000
-15.771700 0.000000
-15.741800 0.000000
-15.712000 0.000000
-15.682100 0.000000
-15.652300 0.000000
-15.622500 0.000000
-15.592600 0.000000
-15.562800 0.000000
-15.532900 0.000000
-15.503100 0.000000
-15.473300 0.000000
-15.443400 0.000000
-15.413600 0.000000
-15.383800 0.000000
-15.353900 0.000000
-15.324100 0.000000
-15.294200 0.000000
-15.264400 0.000000
-15.234600 0.000000
-15.204700 0.000000
-15.174900 0.000000
-15.145000 0.000000
-15.115200 0.000000
-15.085400 0.000000
-15.055500 0.000000
-15.025700 0.000000
-14.995800 0.000000
-14.966000 0.000000
-14.936200 0.000000
-14.906300 0.000000
-14.876500 0.000000
-14.846700 0.000000
-14.816800 0.000000
-14.787000 0.000000
-14.757100 0.000000
-14.727300 0.000000
-14.697500 0.000000
-14.667600 0.000000
-14.637800 0.000000
-14.607900 0.000000
-14.578100 0.000000
-14.548300 0.000000
-14.518400 0.000000
-14.488600 0.000000
-14.458700 0.000000
-14.428900 0.000000
-14.399100 0.000000
-14.369200 0.000000
-14.339400 0.000000
-14.309500 0.000000
-14.279700 0.000000
-14.249900 0.000000
-14.220000 0.000000
-14.190200 0.000000
-14.160400 0.000000
-14.130500 0.000000
-14.100700 0.000000
-14.070800 0.000000
-14.041000 0.000000
-14.011200 0.000000
-13.981300 0.000000
-13.951500 0.000000
-13.921600 0.000000
-13.891800 0.000000
-13.862000 0.000000
-13.832100 0.000000
-13.802300 0.000000
-13.772400 0.000000
-13.742600 0.000000
-13.712800 0.000000
-13.682900 0.000000
-13.653100 0.000000
-13.623200 0.000000
-13.593400 0.000000
-13.563600 0.000000
-13.533700 0.000000
-13.503900 0.000000
-13.474100 0.000000
-13.444200 0.000000
-13.414400 0.000000
-13.384500 0.000000
-13.354700 0.000000
-13.324900 0.000000
-13.295000 0.000000
-13.265200 0.000000
-13.235300 0.000000
-13.205500 0.000000
-13.175700 0.000000
-13.145800 0.000000
-13.116000 0.000000
-13.086100 0.000000
-13.056300 0.000000
-13.026500 0.000000
-12.996600 0.000000
-12.966800 0.000000
-12.936900 0.000000
-12.907100 0.000000
-12.877300 0.000000
-12.847400 0.000000
-12.817600 0.000000
-12.787800 0.000000
-12.757900 0.000000
-12.728100 0.000000
-12.698200 0.000000
-12.668400 0.000000
-12.638600 0.000000
-12.608700 0.000000
-12.578900 0.000000
-12.549000 0.000000
-12.519200 0.000000
-12.489400 0.000000
-12.459500 0.000000
-12.429700 0.000000
-12.399800 0.000000
-12.370000 0.000000
-12.340200 0.000000
-12.310300 0.000000
-12.280500 0.000000
-12.250700 0.000000
-12.220800 0.000000
-12.191000 0.000000
-12.161100 0.000000
-12.131300 0.000000
-12.101500 0.000000
-12.071600 0.000000
-12.041800 0.000000
-12.011900 0.000000
-11.982100 0.000000
-11.952300 0.000000
-11.922400 0.000000
-11.892600 0.000000
-11.862700 0.000000
-11.832900 0.000000
-11.803100 0.000000
-11.773200 0.000000
-11.743400 0.000000
-11.713500 0.000000
-11.683700 0.000000
-11.653900 0.000000
-11.624000 0.000000
-11.594200 0.000000
-11.564400 0.000000
-11.534500 0.000000
-11.504700 0.000000
-11.474800 0.000000
-11.445000 0.000000
-11.415200 0.000000
-11.385300 0.000000
-11.355500 0.000000
-11.325600 0.000000
-11.295800 0.000000
-11.266000 0.000000
-11.236100 0.000000
-11.206300 0.000000
-11.176400 0.000000
-11.146600 0.000000
-11.116800 0.000000
-11.086900 0.000000
-11.057100 0.000000
-11.027200 0.000000
-10.997400 0.000000
-10.967600 0.000000
-10.937700 0.000000
-10.907900 0.000000
-10.878100 0.000000
-10.848200 0.000000
-10.818400 0.000000
-10.788500 0.000000
-10.758700 0.000000
-10.728900 0.000000
-10.699000 0.000000
-10.669200 0.000000
-10.639300 0.000000
-10.609500 0.000000
-10.579700 0.000000
-10.549800 0.000000
-10.520000 0.000000
-10.490100 0.000200
-10.460300 0.002500
-10.430500 0.015600
-10.400600 0.055000
-10.370800 0.117100
-10.340900 0.186300
-10.311100 0.298800
-10.281300 0.472200
-10.251400 0.595400
-10.221600 0.612800
-10.191800 0.613300
-10.161900 0.577300
-10.132100 0.407700
-10.102200 0.194300
-10.072400 0.122000
-10.042600 0.256300
-10.012700 0.510500
-9.982900 0.760300
-9.953000 1.004600
-9.923200 1.167600
-9.893400 1.009300
-9.863500 0.566600
-9.833700 0.190000
-9.803800 0.043200
-9.774000 0.056700
-9.744200 0.200600
-9.714300 0.434900
-9.684500 0.593700
-9.654700 0.624100
-9.624800 0.703300
-9.595000 0.938100
-9.565100 1.213800
-9.535300 1.253700
-9.505500 0.899000
-9.475600 0.413800
-9.445800 0.185400
-9.415900 0.354500
-9.386100 0.805300
-9.356300 1.095700
-9.326400 0.871800
-9.296600 0.402100
-9.266700 0.110300
-9.236900 0.063500
-9.207100 0.231600
-9.177200 0.690400
-9.147400 1.404600
-9.117500 1.951800
-9.087700 1.788600
-9.057900 1.151700
-9.028000 0.897000
-8.998200 1.123500
-8.968400 1.140900
-8.938500 0.826400
-8.908700 0.709600
-8.878800 1.058500
-8.849000 1.828700
-8.819200 2.728900
-8.789300 3.371300
-8.759500 3.641500
-8.729600 3.533000
-8.699800 3.409700
-8.670000 3.623900
-8.640100 4.078800
-8.610300 4.568300
-8.580400 4.554500
-8.550600 4.184400
-8.520800 4.409600
-8.490900 5.090500
-8.461100 5.329200
-8.431200 4.545900
-8.401400 3.187900
-8.371600 2.400800
-8.341700 2.289500
-8.311900 2.257000
-8.282100 1.976400
-8.252200 1.442800
-8.222400 0.974900
-8.192500 0.989900
-8.162700 1.356500
-8.132900 1.477000
-8.103000 1.240800
-8.073200 1.053400
-8.043300 1.130000
-8.013500 1.115100
-7.983700 0.725300
-7.953800 0.284300
-7.924000 0.135200
-7.894100 0.367400
-7.864300 0.907100
-7.834500 1.279200
-7.804600 1.205500
-7.774800 1.089500
-7.744900 1.037300
-7.715100 0.819400
-7.685300 0.460500
-7.655400 0.164500
-7.625600 0.034100
-7.595800 0.005900
-7.565900 0.026600
-7.536100 0.175700
-7.506200 0.612300
-7.476400 1.123100
-7.446600 1.115200
-7.416700 0.734000
-7.386900 0.617800
-7.357000 0.625200
-7.327200 0.397200
-7.297400 0.132200
-7.267500 0.023400
-7.237700 0.014800
-7.207800 0.088500
-7.178000 0.312800
-7.148200 0.571100
-7.118300 0.541400
-7.088500 0.292700
-7.058700 0.227400
-7.028800 0.447300
-6.999000 0.609300
-6.969100 0.432100
-6.939300 0.161700
-6.909500 0.061300
-6.879600 0.100800
-6.849800 0.151300
-6.819900 0.119000
-6.790100 0.047900
-6.760300 0.009800
-6.730400 0.001000
-6.700600 0.000100
-6.670700 0.000000
-6.640900 0.000000
-6.611100 0.000000
-6.581200 0.000000
-6.551400 0.000000
-6.521500 0.000000
-6.491700 0.000000
-6.461900 0.000000
-6.432000 0.000000
-6.402200 0.000000
-6.372400 0.000000
-6.342500 0.000000
-6.312700 0.000000
-6.282800 0.000000
-6.253000 0.000000
-6.223200 0.000000
-6.193300 0.000000
-6.163500 0.000000
-6.133600 0.000000
-6.103800 0.000000
-6.074000 0.000000
-6.044100 0.000000
-6.014300 0.000000
-5.984400 0.000000
-5.954600 0.000000
-5.924800 0.000000
-5.894900 0.000000
-5.865100 0.000000
-5.835200 0.000000
-5.805400 0.000000
-5.775600 0.000000
-5.745700 0.000000
-5.715900 0.000000
-5.686100 0.000000
-5.656200 0.000000
-5.626400 0.000000
-5.596500 0.000000
-5.566700 0.000000
-5.536900 0.000000
-5.507000 0.000000
-5.477200 0.000000
-5.447300 0.000000
-5.417500 0.000000
-5.387700 0.000000
-5.357800 0.000000
-5.328000 0.000000
-5.298100 0.000000
-5.268300 0.000000
-5.238500 0.000000
-5.208600 0.000000
-5.178800 0.000000
-5.148900 0.000000
-5.119100 0.000000
-5.089300 0.000000
-5.059400 0.000000
-5.029600 0.000000
-4.999800 0.000000
-4.969900 0.000000
-4.940100 0.000000
-4.910200 0.000000
-4.880400 0.000000
-4.850600 0.000000
-4.820700 0.000000
-4.790900 0.000000
-4.761000 0.000000
-4.731200 0.000000
-4.701400 0.000000
-4.671500 0.000000
-4.641700 0.000000
-4.611800 0.000000
-4.582000 0.000000
-4.552200 0.000000
-4.522300 0.000000
-4.492500 0.000000
-4.462700 0.000000
-4.432800 0.000000
-4.403000 0.000000
-4.373100 0.000000
-4.343300 0.000000
-4.313500 0.000000
-4.283600 0.000000
-4.253800 0.000000
-4.223900 0.000000
-4.194100 0.000000
-4.164300 0.000000
-4.134400 0.000000
-4.104600 0.000000
-4.074700 0.000000
-4.044900 0.000000
-4.015100 0.000000
-3.985200 0.000000
-3.955400 0.000000
-3.925500 0.000000
-3.895700 0.000000
-3.865900 0.000000
-3.836000 0.000000
-3.806200 0.000000
-3.776400 0.000000
-3.746500 0.000000
-3.716700 0.000000
-3.686800 0.000000
-3.657000 0.000000
-3.627200 0.000000
-3.597300 0.000000
-3.567500 0.000000
-3.537600 0.000000
-3.507800 0.000000
-3.478000 0.000000
-3.448100 0.000000
-3.418300 0.000000
-3.388400 0.000000
-3.358600 0.000000
-3.328800 0.000000
-3.298900 0.000000
-3.269100 0.000000
-3.239200 0.000000
-3.209400 0.000000
-3.179600 0.000000
-3.149700 0.000000
-3.119900 0.000000
-3.090100 0.000000
-3.060200 0.000000
-3.030400 0.000000
-3.000500 0.000000
-2.970700 0.000000
-2.940900 0.000000
-2.911000 0.000000
-2.881200 0.000000
-2.851300 0.000000
-2.821500 0.000000
-2.791700 0.000000
-2.761800 0.000000
-2.732000 0.000000
-2.702100 0.000000
-2.672300 0.000000
-2.642500 0.000300
-2.612600 0.004900
-2.582800 0.036900
-2.552900 0.142200
-2.523100 0.279600
-2.493300 0.284500
-2.463400 0.182800
-2.433600 0.228200
-2.403800 0.480000
-2.373900 0.605200
-2.344100 0.395400
-2.314200 0.150700
-2.284400 0.136200
-2.254600 0.349300
-2.224700 0.571200
-2.194900 0.535800
-2.165000 0.446000
-2.135200 0.729600
-2.105400 1.170900
-2.075500 1.174900
-2.045700 0.908300
-2.015800 0.734200
-1.986000 0.476500
-1.956200 0.181200
-1.926300 0.046400
-1.896500 0.032800
-1.866700 0.067900
-1.836800 0.235100
-1.807000 0.728100
-1.777100 1.310300
-1.747300 1.268200
-1.717500 0.717500
-1.687600 0.393100
-1.657800 0.406100
-1.627900 0.535200
-1.598100 0.676500
-1.568300 0.872200
-1.538400 1.151100
-1.508600 1.475900
-1.478700 1.816200
-1.448900 1.931200
-1.419100 1.866300
-1.389200 2.292900
-1.359400 3.352500
-1.329500 3.809400
-1.299700 3.021600
-1.269900 2.067400
-1.240000 1.724800
-1.210200 1.489900
-1.180400 1.070800
-1.150500 1.109200
-1.120700 2.025500
-1.090800 3.154400
-1.061000 3.546400
-1.031200 3.219900
-1.001300 3.100900
-0.971500 3.625400
-0.941600 3.873600
-0.911800 3.142700
-0.882000 2.066100
-0.852100 1.450500
-0.822300 1.561800
-0.792400 1.937300
-0.762600 1.921000
-0.732800 1.759000
-0.702900 1.907900
-0.673100 2.250700
-0.643200 2.589600
-0.613400 2.905900
-0.583600 2.930700
-0.553700 2.498500
-0.523900 2.310900
-0.494100 2.740000
-0.464200 2.977100
-0.434400 2.827900
-0.404500 3.139600
-0.374700 4.168800
-0.344900 5.303700
-0.315000 5.910800
-0.285200 5.483400
-0.255300 4.043800
-0.225500 2.693000
-0.195700 2.285500
-0.165800 2.658800
-0.136000 3.306900
-0.106100 4.190700
-0.076300 4.903400
-0.046500 4.476700
-0.016600 3.036500
0.013200 1.654600
0.043100 0.870500
0.072900 0.540000
0.102700 0.572100
0.132600 0.833300
0.162400 1.049400
0.192200 1.299000
0.222100 1.686300
0.251900 1.818600
0.281800 1.678600
0.311600 1.613000
0.341400 1.813200
0.371300 2.460600
0.401100 3.229500
0.431000 3.365500
0.460800 2.737200
0.490600 1.920500
0.520500 1.404000
0.550300 1.350400
0.580200 1.523100
0.610000 1.530100
0.639800 1.411400
0.669700 1.717300
0.699500 2.412500
0.729300 2.471600
0.759200 1.770300
0.789000 1.317800
0.818900 1.505900
0.848700 1.852800
0.878500 1.712200
0.908400 1.203400
0.938200 1.167000
0.968100 1.640900
0.997900 1.917900
1.027700 1.901300
1.057600 1.865600
1.087400 1.956400
1.117300 2.261300
1.147100 2.844600
1.176900 3.350600
1.206800 2.991600
1.236600 1.782900
1.266500 0.718900
1.296300 0.244700
1.326100 0.146900
1.356000 0.393300
1.385800 0.982200
1.415600 1.467400
1.445500 1.601900
1.475300 1.640500
1.505200 1.579000
1.535000 1.491700
1.564800 1.457400
1.594700 1.372500
1.624500 1.490000
1.654400 2.080500
1.684200 2.845600
1.714000 3.507000
1.743900 3.932400
1.773700 3.887400
1.803600 3.422400
1.833400 3.131800
1.863200 3.054100
1.893100 2.606800
1.922900 2.150900
1.952800 2.393000
1.982600 3.303700
2.012400 4.151100
2.042300 4.531500
2.072100 4.391500
2.101900 3.636600
2.131800 2.675400
2.161600 2.106000
2.191500 1.985300
2.221300 1.795900
2.251100 1.441400
2.281000 1.260300
2.310800 1.192400
2.340700 1.108200
2.370500 1.346100
2.400300 2.087800
2.430200 2.775300
2.460000 2.604300
2.489900 1.840300
2.519700 1.521400
2.549500 1.905200
2.579400 2.445200
2.609200 2.493900
2.639100 1.981600
2.668900 1.385800
2.698700 1.144300
2.728600 1.365500
2.758400 1.632600
2.788200 1.791000
2.818100 2.165700
2.847900 2.682000
2.877800 3.208300
2.907600 3.646300
2.937400 3.741900
2.967300 3.384300
2.997100 2.724000
3.027000 2.354900
3.056800 2.544100
3.086600 3.009400
3.116500 3.440900
3.146300 3.523100
3.176200 3.153300
3.206000 2.696900
3.235800 2.621500
3.265700 2.823900
3.295500 2.947800
3.325300 2.765500
3.355200 2.394300
3.385000 2.423000
3.414900 2.701000
3.444700 2.513200
3.474500 1.957200
3.504400 1.530300
3.534200 1.416500
3.564100 1.582700
3.593900 1.735200
3.623700 1.637600
3.653600 1.562600
3.683400 1.819100
3.713300 2.147500
3.743100 1.968700
3.772900 1.464600
3.802800 1.462900
3.832600 2.093500
3.862500 2.705100
3.892300 2.823300
3.922100 2.629200
3.952000 2.306700
3.981800 1.857400
4.011600 1.443800
4.041500 1.235700
4.071300 1.191500
4.101200 1.183200
4.131000 1.054200
4.160800 0.788400
4.190700 0.552300
4.220500 0.540100
4.250400 0.977800
4.280200 1.936100
4.310000 3.007900
4.339900 3.197500
4.369700 2.273600
4.399600 1.188600
4.429400 0.605500
4.459200 0.519600
4.489100 0.558300
4.518900 0.435400
4.548800 0.239500
4.578600 0.175800
4.608400 0.275800
4.638300 0.467000
4.668100 0.579000
4.697900 0.451900
4.727800 0.261200
4.757600 0.256300
4.787500 0.390900
4.817300 0.518000
4.847100 0.595400
4.877000 0.656000
4.906800 0.717100
4.936700 0.747000
4.966500 0.789200
4.996300 0.968000
5.026200 1.259400
5.056000 1.624700
5.085900 2.162000
5.115700 2.401000
5.145500 1.780400
5.175400 0.847200
5.205200 0.334400
5.235100 0.279200
5.264900 0.532300
5.294700 0.817800
5.324600 0.820400
5.354400 0.699800
5.384200 0.678700
5.414100 0.695100
5.443900 0.748000
5.473800 1.022600
5.503600 1.596000
5.533400 2.038900
5.563300 1.835300
5.593100 1.285900
5.623000 1.094300
5.652800 1.416700
5.682600 1.693500
5.712500 1.372800
5.742300 0.842600
5.772200 0.775900
5.802000 1.075500
5.831800 1.268600
5.861700 1.118200
5.891500 0.837100
5.921300 0.906200
5.951200 1.349300
5.981000 1.508600
6.010900 1.121600
6.040700 0.785700
6.070500 1.049200
6.100400 2.079600
6.130200 3.111800
6.160100 2.945600
6.189900 2.164200
6.219700 2.063600
6.249600 2.235000
6.279400 2.003500
6.309300 1.763900
6.339100 1.844000
6.368900 2.018400
6.398800 2.003800
6.428600 1.936500
6.458500 2.107600
6.488300 2.565800
6.518100 3.053000
6.548000 3.122400
6.577800 2.757400
6.607600 2.397000
6.637500 2.273000
6.667300 2.328900
6.697200 2.518100
6.727000 2.791500
6.756800 2.952300
6.786700 2.525800
6.816500 1.528100
6.846400 0.761800
6.876200 0.798600
6.906000 1.768300
6.935900 3.307700
6.965700 4.342900
6.995600 4.245400
7.025400 3.426500
7.055200 2.651200
7.085100 2.362000
7.114900 2.416400
7.144800 2.470000
7.174600 2.305900
7.204400 1.963200
7.234300 1.948900
7.264100 2.562600
7.293900 3.225200
7.323800 3.442400
7.353600 3.613300
7.383500 4.054200
7.413300 4.273800
7.443100 3.901700
7.473000 3.170500
7.502800 2.748000
7.532700 3.034800
7.562500 3.749400
7.592300 4.081400
7.622200 3.828700
7.652000 3.501000
7.681900 3.282700
7.711700 3.204000
7.741500 3.553500
7.771400 4.143100
7.801200 4.103900
7.831100 3.356200
7.860900 2.798900
7.890700 2.801900
7.920600 3.093200
7.950400 3.349800
7.980200 3.568000
8.010100 3.921700
8.039900 4.018300
8.069800 3.380400
8.099600 2.521900
8.129400 2.121700
8.159300 2.059600
8.189100 2.104200
8.219000 2.293800
8.248800 2.406000
8.278600 2.265100
8.308500 2.056900
8.338300 1.777200
8.368200 1.484100
8.398000 1.266300
8.427800 1.017100
8.457700 0.850600
8.487500 0.694500
8.517300 0.399300
8.547200 0.135100
8.577000 0.025300
8.606900 0.002500
8.636700 0.000300
8.666500 0.001900
8.696400 0.011200
8.726200 0.035700
8.756100 0.065100
8.785900 0.078400
8.815700 0.072600
8.845600 0.061200
8.875400 0.058700
8.905300 0.049000
8.935100 0.024400
8.964900 0.006400
8.994800 0.001300
9.024600 0.003700
9.054500 0.017300
9.084300 0.042000
9.114100 0.056800
9.144000 0.057400
9.173800 0.065700
9.203600 0.076000
9.233500 0.071900
9.263300 0.048900
9.293200 0.020100
9.323000 0.004500
9.352800 0.000500
9.382700 0.000000
9.412500 0.000000
9.442400 0.000000
9.472200 0.000000
9.502000 0.000000
9.531900 0.000000
9.561700 0.000000
9.591600 0.000100
9.621400 0.001100
9.651200 0.011800
9.681100 0.071500
9.710900 0.248500
9.740800 0.495000
9.770600 0.568400
9.800400 0.378100
9.830300 0.154000
9.860100 0.053500
9.889900 0.025000
9.919800 0.017300
9.949600 0.042700
9.979500 0.132400
10.009300 0.295900
10.039100 0.452000
10.069000 0.509900
10.098800 0.575500
10.128700 0.813700
10.158500 1.213700
10.188300 1.607700
10.218200 1.687100
10.248000 1.441700
10.277900 1.268100
10.307700 1.139000
10.337500 0.852100
10.367400 0.712600
10.397200 0.966100
10.427100 1.316500
10.456900 1.425100
10.486700 1.478500
10.516600 1.818900
10.546400 2.239300
10.576200 2.444800
10.606100 2.235100
10.635900 1.647900
10.665800 1.305300
10.695600 1.579800
10.725400 2.278700
10.755300 2.871400
10.785100 2.916400
10.815000 2.441900
10.844800 1.808000
10.874600 1.320300
10.904500 1.038400
10.934300 1.020300
10.964200 1.425600
10.994000 1.930000
11.023800 1.937400
11.053700 1.785200
11.083500 1.935500
11.113300 1.950100
11.143200 1.589300
11.173000 1.304400
11.202900 1.274300
11.232700 1.142900
11.262500 0.902400
11.292400 0.840200
11.322200 0.935800
11.352100 1.134900
11.381900 1.506700
11.411700 1.776800
11.441600 1.729300
11.471400 1.614000
11.501300 1.569700
11.531100 1.488400
11.560900 1.336000
11.590800 1.381900
11.620600 1.680900
11.650500 1.833600
11.680300 1.682500
11.710100 1.593700
11.740000 1.962300
11.769800 2.570800
11.799600 2.930200
11.829500 3.073300
11.859300 3.292900
11.889200 3.649800
11.919000 4.069000
11.948800 4.188400
11.978700 3.901400
12.008500 3.610900
12.038400 3.502100
12.068200 3.352000
12.098000 3.144800
12.127900 2.892800
12.157700 2.476200
12.187600 2.205300
12.217400 2.457000
12.247200 3.019000
12.277100 3.342900
12.306900 3.165500
12.336800 2.763300
12.366600 2.443600
12.396400 2.043400
12.426300 1.453000
12.456100 1.049400
12.485900 1.007300
12.515800 1.153600
12.545600 1.383000
12.575500 1.646200
12.605300 1.799400
12.635100 1.787700
12.665000 1.788100
12.694800 1.821300
12.724700 1.786800
12.754500 1.809200
12.784300 1.875800
12.814200 1.880800
12.844000 1.945500
12.873900 2.071600
12.903700 1.936700
12.933500 1.496500
12.963400 1.251500
12.993200 1.593000
13.023100 2.147000
13.052900 2.199900
13.082700 1.788500
13.112600 1.508700
13.142400 1.492400
13.172200 1.397800
13.202100 1.206900
13.231900 1.163300
13.261800 1.365500
13.291600 1.677300
13.321400 1.885000
13.351300 2.076200
13.381100 2.222000
13.411000 2.133100
13.440800 1.974000
13.470600 1.783200
13.500500 1.381500
13.530300 1.134500
13.560200 1.468000
13.590000 2.169000
13.619800 2.597800
13.649700 2.487900
13.679500 2.424200
13.709300 2.437900
13.739200 2.068800
13.769000 1.712700
13.798900 1.860600
13.828700 2.217400
13.858500 2.436900
13.888400 2.677300
13.918200 2.952200
13.948100 3.136100
13.977900 3.145100
14.007700 2.888100
14.037600 2.715700
14.067400 2.806100
14.097300 2.876400
14.127100 2.713700
14.156900 2.158500
14.186800 1.581900
14.216600 1.665400
14.246500 2.418400
14.276300 3.268600
14.306100 3.640200
14.336000 3.496200
14.365800 3.147900
14.395600 2.618800
14.425500 1.979400
14.455300 1.580100
14.485200 1.466900
14.515000 1.430000
14.544800 1.535800
14.574700 1.849200
14.604500 2.038300
14.634400 2.054300
14.664200 2.262000
14.694000 2.526700
14.723900 2.476500
14.753700 2.242100
14.783600 2.178600
14.813400 2.222100
14.843200 2.121300
14.873100 2.160100
14.902900 2.464400
14.932800 2.614100
14.962600 2.354600
14.992400 1.906100
15.022300 1.605300
15.052100 1.447400
15.081900 1.400500
15.111800 1.641100
15.141600 2.116600
15.171500 2.413700
15.201300 2.304400
15.231100 2.001200
15.261000 1.757800
15.290800 1.713900
15.320700 1.801500
15.350500 1.719700
15.380300 1.403000
15.410200 1.173800
15.440000 1.428500
15.469900 2.179600
15.499700 2.757000
15.529500 2.735100
15.559400 2.424000
15.589200 2.055800
15.619000 1.697500
15.648900 1.478300
15.678700 1.498100
15.708600 1.901300
15.738400 2.524600
15.768200 2.923500
15.798100 2.846100
15.827900 2.473500
15.857800 2.124100
15.887600 1.978600
15.917400 2.068900
15.947300 2.186900
15.977100 2.116000
16.007000 1.827100
16.036800 1.653900
16.066600 1.755800
16.096500 1.832600
16.126300 1.937700
16.156200 2.391200
16.186000 3.195400
16.215800 3.978000
16.245700 4.025800
16.275500 3.298700
16.305300 2.766700
16.335200 2.901700
16.365000 3.376500
16.394900 4.023400
16.424700 4.573600
16.454500 4.558600
16.484400 4.076600
16.514200 3.421400
16.544100 2.737200
16.573900 2.414600
16.603700 2.688700
16.633600 3.201800
16.663400 3.239100
16.693300 2.755700
16.723100 2.460200
16.752900 2.373500
16.782800 2.295300
16.812600 2.463600
16.842500 2.684500
16.872300 2.711300
16.902100 2.816000
16.932000 3.017900
16.961800 3.132000
16.991600 3.141900
17.021500 2.939100
17.051300 2.638300
17.081200 2.362200
17.111000 1.971600
17.140800 1.616200
17.170700 1.607100
17.200500 1.644900
17.230400 1.392200
17.260200 1.266000
17.290000 1.486900
17.319900 1.668100
17.349700 1.758400
17.379600 2.064200
17.409400 2.355300
17.439200 2.278200
17.469100 2.138700
17.498900 2.342900
17.528800 2.503800
17.558600 2.137200
17.588400 1.662400
17.618300 1.731000
17.648100 2.152400
17.677900 2.302800
17.707800 2.198400
17.737600 2.063300
17.767500 1.990000
17.797300 2.037000
17.827100 2.130600
17.857000 2.308700
17.886800 2.628200
17.916700 2.865400
17.946500 2.938900
17.976300 2.912800
18.006200 2.689300
18.036000 2.352700
18.065900 2.154800
18.095700 1.948900
18.125500 1.635300
18.155400 1.396400
18.185200 1.357900
18.215000 1.540100
18.244900 1.730700
18.274700 1.872200
18.304600 2.076600
18.334400 2.108900
18.364200 1.842400
18.394100 1.639400
18.423900 1.730600
18.453800 2.051300
18.483600 2.420400
18.513400 2.440100
18.543300 2.122900
18.573100 2.079700
18.603000 2.351400
18.632800 2.373000
18.662600 2.156000
18.692500 2.034600
18.722300 1.881700
18.752200 1.606200
18.782000 1.571200
18.811800 2.007800
18.841700 2.524100
18.871500 2.676800
18.901300 2.610300
18.931200 2.496500
18.961000 2.331700
18.990900 2.215600
19.020700 2.121100
19.050500 1.918200
19.080400 1.720200
19.110200 1.806300
19.140100 2.123600
19.169900 2.191200
19.199700 1.949100
19.229600 1.859400
19.259400 2.037700
19.289300 2.164600
19.319100 1.966500
19.348900 1.628100
19.378800 1.356800
19.408600 1.149100
19.438500 1.103300
19.468300 1.394000
19.498100 2.102000
19.528000 2.709300
19.557800 2.671200
19.587600 2.577900
19.617500 3.090300
19.647300 3.665600
19.677200 3.503400
19.707000 2.769600
19.736800 2.351900
19.766700 2.471400
19.796500 2.374300
19.826400 1.835800
19.856200 1.610400
19.886000 2.181200
19.915900 2.963300
19.945700 3.080200
19.975600 2.619200
20.005400 2.254800
20.035200 2.135900
20.065100 2.093000
20.094900 2.208800
20.124800 2.412500
20.154600 2.306900
20.184400 1.944300
20.214300 1.760800
20.244100 1.857500
20.273900 1.925100
20.303800 1.862300
20.333600 1.793600
20.363500 1.645600
20.393300 1.412100
20.423100 1.249100
20.453000 1.231400
20.482800 1.287300
20.512700 1.322600
20.542500 1.377800
20.572300 1.533800
20.602200 1.607900
20.632000 1.556100
20.661900 1.767500
20.691700 2.380100
20.721500 2.983300
20.751400 3.243700
20.781200 3.202600
20.811000 2.838700
20.840900 2.123900
20.870700 1.575600
20.900600 1.676300
20.930400 2.114500
20.960200 2.366800
20.990100 2.335600
21.019900 2.204900
21.049800 2.103700
21.079600 2.055500
21.109400 2.098900
21.139300 2.112200
21.169100 2.125300
21.199000 2.365400
21.228800 2.564400
21.258600 2.283200
21.288500 1.873000
21.318300 1.941200
21.348200 2.255200
21.378000 2.265300
21.407800 2.262200
21.437700 2.395700
21.467500 2.143800
21.497300 1.603800
21.527200 1.336100
21.557000 1.458300
21.586900 1.645900
21.616700 1.594600
21.646500 1.361400
21.676400 1.285200
21.706200 1.583400
21.736100 1.882000
21.765900 1.826200
21.795700 1.649700
21.825600 1.642400
21.855400 1.765500
21.885300 1.774600
21.915100 1.655700
21.944900 1.583400
21.974800 1.523500
22.004600 1.400400
22.034500 1.335000
22.064300 1.401100
22.094100 1.533300
22.124000 1.637800
22.153800 1.675200
22.183600 1.662200
22.213500 1.550300
22.243300 1.500100
22.273200 1.729200
22.303000 2.192100
22.332800 2.433600
22.362700 2.124800
22.392500 1.522400
22.422400 1.000600
22.452200 0.796300
22.482000 0.862200
22.511900 1.032100
22.541700 1.261000
22.571600 1.536400
22.601400 1.898600
22.631200 2.167300
22.661100 2.082000
22.690900 1.858900
22.720800 1.785800
22.750600 1.656800
22.780400 1.302100
22.810300 1.142000
22.840100 1.355200
22.869900 1.623400
22.899800 2.024600
22.929600 2.669200
22.959500 3.084200
22.989300 3.169400
23.019100 3.137000
23.049000 2.765600
23.078800 2.241900
23.108700 2.059300
23.138500 2.233900
23.168300 2.450500
23.198200 2.376400
23.228000 1.984600
23.257900 1.451800
23.287700 1.096400
23.317500 1.151700
23.347400 1.420700
23.377200 1.643300
23.407000 1.798900
23.436900 2.002000
23.466700 2.195500
23.496600 2.097500
23.526400 1.897900
23.556200 1.999900
23.586100 1.983100
23.615900 1.562200
23.645800 1.228600
23.675600 1.201300
23.705400 1.270000
23.735300 1.298000
23.765100 1.275200
23.795000 1.331300
23.824800 1.712400
23.854600 2.186600
23.884500 2.321700
23.914300 2.370400
23.944200 2.687100
23.974000 2.936100
24.003800 2.822500
24.033700 2.590900
24.063500 2.396100
24.093300 2.192700
24.123200 2.040100
24.153000 1.916000
24.182900 1.669100
24.212700 1.405500
24.242500 1.386200
24.272400 1.705000
24.302200 2.039000
24.332100 1.918300
24.361900 1.492200
24.391700 1.366400
24.421600 1.707500
24.451400 2.075400
24.481300 2.158600
24.511100 2.134100
24.540900 2.228500
24.570800 2.308100
24.600600 2.112600
24.630500 1.878300
24.660300 2.057100
24.690100 2.292000
24.720000 1.964500
24.749800 1.386200
24.779600 1.143400
24.809500 1.283200
24.839300 1.574100
24.869200 1.930300
24.899000 2.250300
24.928800 2.303300
24.958700 2.256300
24.988500 2.263300
25.018400 2.088900
25.048200 1.818900
25.078000 1.798600
25.107900 2.008100
25.137700 2.176100
25.167600 2.267200
25.197400 2.271400
25.227200 2.047800
25.257100 1.628400
25.286900 1.102500
25.316800 0.696200
25.346600 0.774800
25.376400 1.204400
25.406300 1.371500
25.436100 1.125000
25.465900 0.856800
25.495800 0.749200
25.525600 0.594200
25.555500 0.360300
25.585300 0.291400
25.615100 0.531600
25.645000 0.915900
25.674800 1.156500
25.704700 1.178500
25.734500 1.029700
25.764300 0.796700
25.794200 0.540200
25.824000 0.330200
25.853900 0.276200
25.883700 0.418200
25.913500 0.586800
25.943400 0.545800
25.973200 0.389900
26.003000 0.369200
26.032900 0.483700
26.062700 0.578300
26.092600 0.561900
26.122400 0.427300
26.152200 0.242600
26.182100 0.100800
26.211900 0.058500
26.241800 0.087500
26.271600 0.099300
26.301400 0.060500
26.331300 0.028700
26.361100 0.046200
26.391000 0.090500
26.420800 0.095900
26.450600 0.052100
26.480500 0.014400
26.510300 0.002000
26.540200 0.000100
26.570000 0.000000
26.599800 0.000000
26.629700 0.000000
26.659500 0.000000
26.689300 0.000000
26.719200 0.000000
26.749000 0.000000
26.778900 0.000000
26.808700 0.000000
26.838500 0.000000
26.868400 0.000000
26.898200 0.000000
26.928100 0.000000
26.957900 0.000000
26.987700 0.000000
27.017600 0.000000
27.047400 0.000000
27.077300 0.000000
27.107100 0.000000
27.136900 0.000000
27.166800 0.000000
27.196600 0.000000
27.226500 0.000000
27.256300 0.000000
27.286100 0.000000
27.316000 0.000000
27.345800 0.000000
27.375600 0.000000
27.405500 0.000000
27.435300 0.000000
27.465200 0.000000
27.495000 0.000000
27.524800 0.000000
27.554700 0.000000
27.584500 0.000000
27.614400 0.000000
27.644200 0.000000
27.674000 0.000000
27.703900 0.000000
27.733700 0.000000
27.763600 0.000000
27.793400 0.000000
27.823200 0.000000
27.853100 0.000000
27.882900 0.000000
27.912800 0.000000
27.942600 0.000000
27.972400 0.000000
28.002300 0.000000
28.032100 0.000000
28.061900 0.000000
28.091800 0.000000
28.121600 0.000000
28.151500 0.000000
28.181300 0.000000
28.211100 0.000000
28.241000 0.000000
28.270800 0.000000
28.300700 0.000000
28.330500 0.000000
28.360300 0.000000
28.390200 0.000000
28.420000 0.000000
28.449900 0.000000
28.479700 0.000000
28.509500 0.000000
28.539400 0.000000
28.569200 0.000000
28.599000 0.000000
28.628900 0.000000
28.658700 0.000000
28.688600 0.000000
28.718400 0.000000
28.748200 0.000000
28.778100 0.000000
28.807900 0.000000
28.837800 0.000000
28.867600 0.000000
28.897400 0.000000
28.927300 0.000000
28.957100 0.000000
28.987000 0.000000
29.016800 0.000000
29.046600 0.000000
29.076500 0.000000
29.106300 0.000000
e
