set title 'mp-1097011 - Density of States'
set xlabel 'Energy (eV)'
set ylabel 'DOS (states/eV)'
set grid
set xrange [-10:10]
set yrange [0:34.129]
set xzeroaxis lt -1
set terminal png size 800,600
set output 'mp-1097011_dos_gnuplot.png'
plot '-' using 1:2 with lines title 'DOS'
-23.062800 0.000000
-23.040200 0.000000
-23.017500 0.000000
-22.994900 0.000000
-22.972200 0.000000
-22.949600 0.000000
-22.926900 0.000000
-22.904300 0.000000
-22.881600 0.000000
-22.858900 0.000000
-22.836300 0.000000
-22.813600 0.000000
-22.791000 0.000000
-22.768300 0.000000
-22.745700 0.000000
-22.723000 0.000000
-22.700400 0.000000
-22.677700 0.000000
-22.655100 0.000000
-22.632400 0.000000
-22.609800 0.000000
-22.587100 0.000000
-22.564400 0.000000
-22.541800 0.000000
-22.519100 0.000000
-22.496500 0.000000
-22.473800 0.000000
-22.451200 0.000000
-22.428500 0.000000
-22.405900 0.000000
-22.383200 0.000000
-22.360600 0.000000
-22.337900 0.000000
-22.315300 0.000000
-22.292600 0.000000
-22.269900 0.000000
-22.247300 0.000000
-22.224600 0.000000
-22.202000 0.000000
-22.179300 0.000000
-22.156700 0.000000
-22.134000 0.000000
-22.111400 0.000000
-22.088700 0.000000
-22.066100 0.000000
-22.043400 0.000000
-22.020800 0.000000
-21.998100 0.000000
-21.975400 0.000000
-21.952800 0.000000
-21.930100 0.000000
-21.907500 0.000000
-21.884800 0.000000
-21.862200 0.000000
-21.839500 0.000000
-21.816900 0.000000
-21.794200 0.000000
-21.771600 0.000000
-21.748900 0.000000
-21.726300 0.000000
-21.703600 0.000000
-21.680900 0.000000
-21.658300 0.000000
-21.635600 0.000000
-21.613000 0.000000
-21.590300 0.000000
-21.567700 0.000000
-21.545000 0.000000
-21.522400 0.000000
-21.499700 0.000000
-21.477100 0.000000
-21.454400 0.000000
-21.431700 0.000000
-21.409100 0.000000
-21.386400 0.000000
-21.363800 0.000000
-21.341100 0.000000
-21.318500 0.000000
-21.295800 0.000000
-21.273200 0.000000
-21.250500 0.000000
-21.227900 0.000000
-21.205200 0.000000
-21.182600 0.000000
-21.159900 0.000000
-21.137200 0.000000
-21.114600 0.000000
-21.091900 0.000000
-21.069300 0.000000
-21.046600 0.000000
-21.024000 0.000000
-21.001300 9.906300
-20.978700 21.027800
-20.956000 28.059400
-20.933400 28.813700
-20.910700 31.435000
-20.888100 22.866000
-20.865400 23.611300
-20.842700 0.000000
-20.820100 0.000000
-20.797400 0.000000
-20.774800 0.000000
-20.752100 0.000000
-20.729500 0.000000
-20.706800 0.000000
-20.684200 0.000000
-20.661500 0.000000
-20.638900 0.000000
-20.616200 0.000000
-20.593600 0.000000
-20.570900 0.000000
-20.548200 0.000000
-20.525600 0.000000
-20.502900 0.000000
-20.480300 0.000000
-20.457600 0.000000
-20.435000 0.000000
-20.412300 0.000000
-20.389700 0.000000
-20.367000 0.000000
-20.344400 0.000000
-20.321700 0.000000
-20.299100 0.000000
-20.276400 0.000000
-20.253700 0.000000
-20.231100 0.000000
-20.208400 0.000000
-20.185800 0.000000
-20.163100 0.000000
-20.140500 0.000000
-20.117800 0.000000
-20.095200 0.000000
-20.072500 0.000000
-20.049900 0.000000
-20.027200 0.000000
-20.004600 0.000000
-19.981900 0.000000
-19.959200 0.000000
-19.936600 0.000000
-19.913900 0.000000
-19.891300 0.000000
-19.868600 0.000000
-19.846000 0.000000
-19.823300 0.000000
-19.800700 0.000000
-19.778000 0.000000
-19.755400 0.000000
-19.732700 0.000000
-19.710000 0.000000
-19.687400 0.000000
-19.664700 0.000000
-19.642100 0.000000
-19.619400 0.000000
-19.596800 0.000000
-19.574100 0.000000
-19.551500 0.000000
-19.528800 0.000000
-19.506200 0.000000
-19.483500 0.000000
-19.460900 0.000000
-19.438200 0.000000
-19.415500 0.000000
-19.392900 0.000000
-19.370200 0.000000
-19.347600 0.000000
-19.324900 0.000000
-19.302300 0.000000
-19.279600 0.000000
-19.257000 0.000000
-19.234300 0.000000
-19.211700 0.000000
-19.189000 0.000000
-19.166400 0.000000
-19.143700 0.000000
-19.121000 0.000000
-19.098400 0.000000
-19.075700 0.000000
-19.053100 0.000000
-19.030400 0.000000
-19.007800 0.000000
-18.985100 0.000000
-18.962500 0.000000
-18.939800 0.000000
-18.917200 0.000000
-18.894500 0.000000
-18.871900 0.000000
-18.849200 0.000000
-18.826500 0.000000
-18.803900 0.000000
-18.781200 0.000000
-18.758600 0.000000
-18.735900 0.000000
-18.713300 0.000000
-18.690600 0.000000
-18.668000 0.000000
-18.645300 0.000000
-18.622700 0.000000
-18.600000 0.000000
-18.577400 0.000000
-18.554700 0.000000
-18.532000 0.000000
-18.509400 0.000000
-18.486700 0.000000
-18.464100 0.000000
-18.441400 0.000000
-18.418800 0.000000
-18.396100 0.000000
-18.373500 0.000000
-18.350800 0.000000
-18.328200 0.000000
-18.305500 0.000000
-18.282900 0.000000
-18.260200 0.000000
-18.237500 0.000000
-18.214900 0.000000
-18.192200 0.000000
-18.169600 0.000000
-18.146900 0.000000
-18.124300 0.000000
-18.101600 0.000000
-18.079000 0.000000
-18.056300 0.000000
-18.033700 0.000000
-18.011000 0.000000
-17.988300 0.000000
-17.965700 0.000000
-17.943000 0.000000
-17.920400 0.000000
-17.897700 0.000000
-17.875100 0.000000
-17.852400 0.000000
-17.829800 0.000000
-17.807100 0.000000
-17.784500 0.000000
-17.761800 0.000000
-17.739200 0.000000
-17.716500 0.000000
-17.693800 0.000000
-17.671200 0.000000
-17.648500 0.000000
-17.625900 0.000000
-17.603200 0.000000
-17.580600 0.000000
-17.557900 0.000000
-17.535300 0.000000
-17.512600 0.000000
-17.490000 0.000000
-17.467300 0.000000
-17.444700 0.000000
-17.422000 0.000000
-17.399300 0.000000
-17.376700 0.000000
-17.354000 0.000000
-17.331400 0.000000
-17.308700 0.000000
-17.286100 0.000000
-17.263400 0.000000
-17.240800 0.000000
-17.218100 0.000000
-17.195500 0.000000
-17.172800 0.000000
-17.150200 0.000000
-17.127500 0.000000
-17.104800 0.000000
-17.082200 0.000000
-17.059500 0.000000
-17.036900 0.000000
-17.014200 0.000000
-16.991600 0.000000
-16.968900 0.000000
-16.946300 0.000000
-16.923600 0.000000
-16.901000 0.000000
-16.878300 0.000000
-16.855700 0.000000
-16.833000 0.000000
-16.810300 0.000000
-16.787700 0.000000
-16.765000 0.000000
-16.742400 0.000000
-16.719700 0.000000
-16.697100 0.000000
-16.674400 0.000000
-16.651800 0.000000
-16.629100 0.000000
-16.606500 0.000000
-16.583800 0.000000
-16.561200 0.000000
-16.538500 0.000000
-16.515800 0.000000
-16.493200 0.000000
-16.470500 0.000000
-16.447900 0.000000
-16.425200 0.000000
-16.402600 0.000000
-16.379900 0.000000
-16.357300 0.000000
-16.334600 0.000000
-16.312000 0.000000
-16.289300 0.000000
-16.266700 0.000000
-16.244000 0.000000
-16.221300 0.000000
-16.198700 0.000000
-16.176000 0.000000
-16.153400 0.000000
-16.130700 0.000000
-16.108100 0.000000
-16.085400 0.000000
-16.062800 0.000000
-16.040100 0.000000
-16.017500 0.000000
-15.994800 0.000000
-15.972100 0.000000
-15.949500 0.000000
-15.926800 0.000000
-15.904200 0.000000
-15.881500 0.000000
-15.858900 0.000000
-15.836200 0.000000
-15.813600 0.000000
-15.790900 0.000000
-15.768300 0.000000
-15.745600 0.000000
-15.723000 0.000000
-15.700300 0.000000
-15.677600 0.000000
-15.655000 0.000000
-15.632300 0.000000
-15.609700 0.000000
-15.587000 0.000000
-15.564400 0.000000
-15.541700 0.000000
-15.519100 0.000000
-15.496400 0.000000
-15.473800 0.000000
-15.451100 0.000000
-15.428500 0.000000
-15.405800 0.000000
-15.383100 0.000000
-15.360500 0.000000
-15.337800 0.000000
-15.315200 0.000000
-15.292500 0.000000
-15.269900 0.000000
-15.247200 0.000000
-15.224600 0.000000
-15.201900 0.000000
-15.179300 0.000000
-15.156600 0.000000
-15.134000 0.000000
-15.111300 0.000000
-15.088600 0.000000
-15.066000 0.000000
-15.043300 0.000000
-15.020700 0.000000
-14.998000 0.000000
-14.975400 0.000000
-14.952700 0.000000
-14.930100 0.000000
-14.907400 0.000000
-14.884800 0.000000
-14.862100 0.000000
-14.839500 0.000000
-14.816800 0.000000
-14.794100 0.000000
-14.771500 0.000000
-14.748800 0.000000
-14.726200 0.000000
-14.703500 0.000000
-14.680900 0.000000
-14.658200 0.000000
-14.635600 0.000000
-14.612900 0.000000
-14.590300 0.000000
-14.567600 0.000000
-14.545000 0.000000
-14.522300 0.000000
-14.499600 0.000000
-14.477000 0.000000
-14.454300 0.000000
-14.431700 0.000000
-14.409000 0.000000
-14.386400 0.000000
-14.363700 0.000000
-14.341100 0.000000
-14.318400 0.000000
-14.295800 0.000000
-14.273100 0.000000
-14.250400 0.000000
-14.227800 0.000000
-14.205100 0.000000
-14.182500 0.000000
-14.159800 0.000000
-14.137200 0.000000
-14.114500 0.000000
-14.091900 0.000000
-14.069200 0.000000
-14.046600 0.000000
-14.023900 0.000000
-14.001300 0.000000
-13.978600 0.000000
-13.955900 0.000000
-13.933300 0.000000
-13.910600 0.000000
-13.888000 0.000000
-13.865300 0.000000
-13.842700 0.000000
-13.820000 0.000000
-13.797400 0.000000
-13.774700 0.000000
-13.752100 0.000000
-13.729400 0.000000
-13.706800 0.000000
-13.684100 0.000000
-13.661400 0.000000
-13.638800 0.000000
-13.616100 0.000000
-13.593500 0.000000
-13.570800 0.000000
-13.548200 0.000000
-13.525500 0.000000
-13.502900 0.000000
-13.480200 0.000000
-13.457600 0.000000
-13.434900 0.000000
-13.412300 0.000000
-13.389600 0.000000
-13.366900 0.000000
-13.344300 0.000000
-13.321600 0.000000
-13.299000 0.000000
-13.276300 0.000000
-13.253700 0.000000
-13.231000 0.000000
-13.208400 0.000000
-13.185700 0.000000
-13.163100 0.000000
-13.140400 0.000000
-13.117800 0.000000
-13.095100 0.000000
-13.072400 0.000000
-13.049800 0.000000
-13.027100 0.000000
-13.004500 0.000000
-12.981800 0.000000
-12.959200 0.000000
-12.936500 0.000000
-12.913900 0.000000
-12.891200 0.000000
-12.868600 0.000000
-12.845900 0.000000
-12.823300 0.000000
-12.800600 0.000000
-12.777900 0.000000
-12.755300 0.000000
-12.732600 0.000000
-12.710000 0.000000
-12.687300 0.000000
-12.664700 0.000000
-12.642000 0.000000
-12.619400 0.000000
-12.596700 0.000000
-12.574100 0.000000
-12.551400 0.000000
-12.528700 0.000000
-12.506100 0.000000
-12.483400 0.000000
-12.460800 0.000000
-12.438100 0.000000
-12.415500 0.000000
-12.392800 0.000000
-12.370200 0.000000
-12.347500 0.000000
-12.324900 0.000000
-12.302200 0.000000
-12.279600 0.000000
-12.256900 0.000000
-12.234200 0.000000
-12.211600 0.000000
-12.188900 0.000000
-12.166300 0.000000
-12.143600 0.000000
-12.121000 0.000000
-12.098300 0.000000
-12.075700 0.000000
-12.053000 0.000000
-12.030400 0.000000
-12.007700 0.000000
-11.985100 0.000000
-11.962400 0.000000
-11.939700 0.000000
-11.917100 0.000000
-11.894400 0.000000
-11.871800 0.000000
-11.849100 0.000000
-11.826500 0.000000
-11.803800 0.491800
-11.781200 1.746600
-11.758500 2.164600
-11.735900 1.735100
-11.713200 1.726800
-11.690600 1.890500
-11.667900 2.054200
-11.645200 2.197200
-11.622600 1.990800
-11.599900 1.933500
-11.577300 1.974100
-11.554600 2.014800
-11.532000 2.055400
-11.509300 2.096000
-11.486700 2.179700
-11.464000 2.281200
-11.441400 2.324200
-11.418700 2.247900
-11.396100 2.259700
-11.373400 2.271500
-11.350700 2.283200
-11.328100 2.410700
-11.305400 2.473100
-11.282800 2.535500
-11.260100 2.597900
-11.237500 2.660300
-11.214800 2.722800
-11.192200 8.438100
-11.169500 4.160500
-11.146900 3.894500
-11.124200 3.062100
-11.101600 2.775700
-11.078900 2.489600
-11.056200 2.552000
-11.033600 2.149400
-11.010900 1.747400
-10.988300 0.000000
-10.965600 0.000000
-10.943000 6.899000
-10.920300 5.006900
-10.897700 3.650500
-10.875000 3.445400
-10.852400 3.240200
-10.829700 3.035100
-10.807000 2.829900
-10.784400 2.630400
-10.761700 2.567300
-10.739100 2.515100
-10.716400 2.462900
-10.693800 2.410700
-10.671100 2.162500
-10.648500 2.164600
-10.625800 2.180900
-10.603200 2.147900
-10.580500 2.047100
-10.557900 1.946200
-10.535200 1.845300
-10.512500 1.751400
-10.489900 1.723200
-10.467200 1.695500
-10.444600 1.667800
-10.421900 1.640100
-10.399300 1.506200
-10.376600 1.638700
-10.354000 1.680200
-10.331300 1.576900
-10.308700 1.473600
-10.286000 1.370300
-10.263400 1.267000
-10.240700 1.219500
-10.218000 1.441200
-10.195400 1.662800
-10.172700 1.206900
-10.150100 0.611900
-10.127400 0.018500
-10.104800 0.000000
-10.082100 0.000000
-10.059500 0.000000
-10.036800 0.000000
-10.014200 0.000000
-9.991500 0.000000
-9.968900 0.000000
-9.946200 0.000000
-9.923500 0.000000
-9.900900 0.000000
-9.878200 0.000000
-9.855600 0.000000
-9.832900 0.000000
-9.810300 0.000000
-9.787600 0.000000
-9.765000 0.000000
-9.742300 0.000000
-9.719700 0.000000
-9.697000 0.000000
-9.674400 0.000000
-9.651700 0.000000
-9.629000 0.000000
-9.606400 0.000000
-9.583700 0.000000
-9.561100 0.000000
-9.538400 0.000000
-9.515800 0.000000
-9.493100 0.000000
-9.470500 0.000000
-9.447800 0.000000
-9.425200 0.000000
-9.402500 0.000000
-9.379900 0.000000
-9.357200 0.000000
-9.334500 0.000000
-9.311900 0.000000
-9.289200 0.000000
-9.266600 0.000000
-9.243900 0.000000
-9.221300 0.000000
-9.198600 0.000000
-9.176000 0.000000
-9.153300 0.000000
-9.130700 0.000000
-9.108000 0.000000
-9.085400 0.000000
-9.062700 0.000000
-9.040000 0.000000
-9.017400 0.000000
-8.994700 0.000000
-8.972100 0.000000
-8.949400 0.000000
-8.926800 0.000000
-8.904100 0.000000
-8.881500 0.000000
-8.858800 0.000000
-8.836200 0.000000
-8.813500 0.000000
-8.790800 0.000000
-8.768200 0.000000
-8.745500 0.000000
-8.722900 0.000000
-8.700200 0.000000
-8.677600 0.000000
-8.654900 0.000000
-8.632300 0.000000
-8.609600 0.000000
-8.587000 0.000000
-8.564300 0.000000
-8.541700 0.000000
-8.519000 0.000000
-8.496300 0.000000
-8.473700 0.000000
-8.451000 0.000000
-8.428400 0.000000
-8.405700 0.000000
-8.383100 0.000000
-8.360400 0.000000
-8.337800 0.000000
-8.315100 0.000000
-8.292500 0.000000
-8.269800 0.000000
-8.247200 0.000000
-8.224500 0.000000
-8.201800 0.000000
-8.179200 0.000000
-8.156500 0.000000
-8.133900 0.000000
-8.111200 0.000000
-8.088600 0.000000
-8.065900 0.000000
-8.043300 0.000000
-8.020600 0.000000
-7.998000 0.000000
-7.975300 0.000000
-7.952700 0.000000
-7.930000 0.000000
-7.907300 0.000000
-7.884700 0.000000
-7.862000 0.000000
-7.839400 0.000000
-7.816700 0.000000
-7.794100 0.000000
-7.771400 0.000000
-7.748800 0.000000
-7.726100 0.000000
-7.703500 0.000000
-7.680800 0.000000
-7.658200 0.000000
-7.635500 0.000000
-7.612800 0.000000
-7.590200 0.000000
-7.567500 0.000000
-7.544900 0.000000
-7.522200 0.000000
-7.499600 0.000000
-7.476900 0.000000
-7.454300 0.000000
-7.431600 0.000000
-7.409000 0.000000
-7.386300 0.000000
-7.363700 0.000000
-7.341000 0.000000
-7.318300 0.000000
-7.295700 0.000000
-7.273000 0.000000
-7.250400 0.000000
-7.227700 0.000000
-7.205100 0.000000
-7.182400 0.000000
-7.159800 0.000000
-7.137100 0.000000
-7.114500 0.000000
-7.091800 0.000000
-7.069100 0.000000
-7.046500 0.000000
-7.023800 0.000000
-7.001200 0.000000
-6.978500 0.000000
-6.955900 0.000000
-6.933200 0.000000
-6.910600 0.000000
-6.887900 0.000000
-6.865300 0.000000
-6.842600 0.000000
-6.820000 0.000000
-6.797300 0.000000
-6.774600 0.000000
-6.752000 0.000000
-6.729300 0.000000
-6.706700 0.000000
-6.684000 0.000000
-6.661400 2.748800
-6.638700 4.736100
-6.616100 7.994400
-6.593400 9.130400
-6.570800 10.449500
-6.548100 11.864800
-6.525500 12.964300
-6.502800 16.883600
-6.480100 24.200500
-6.457500 22.724000
-6.434800 31.026000
-6.412200 19.418100
-6.389500 0.000000
-6.366900 0.000000
-6.344200 0.000000
-6.321600 0.000000
-6.298900 0.000000
-6.276300 0.000000
-6.253600 0.000000
-6.231000 0.000000
-6.208300 0.000000
-6.185600 0.000000
-6.163000 0.000000
-6.140300 0.000000
-6.117700 0.000000
-6.095000 0.000000
-6.072400 0.000000
-6.049700 0.000000
-6.027100 0.000000
-6.004400 0.000000
-5.981800 0.000000
-5.959100 0.000000
-5.936500 0.000000
-5.913800 0.000000
-5.891100 0.000000
-5.868500 0.000000
-5.845800 0.000000
-5.823200 0.000000
-5.800500 0.000000
-5.777900 0.000000
-5.755200 0.000000
-5.732600 0.000000
-5.709900 0.000000
-5.687300 0.000000
-5.664600 0.000000
-5.642000 0.000000
-5.619300 0.000000
-5.596600 0.000000
-5.574000 0.000000
-5.551300 0.000000
-5.528700 0.000000
-5.506000 0.000000
-5.483400 0.000000
-5.460700 0.000000
-5.438100 0.000000
-5.415400 0.000000
-5.392800 0.000000
-5.370100 0.000000
-5.347400 0.000000
-5.324800 0.000000
-5.302100 0.000000
-5.279500 0.000000
-5.256800 0.000000
-5.234200 0.000000
-5.211500 0.000000
-5.188900 0.000000
-5.166200 0.000000
-5.143600 0.000000
-5.120900 0.000000
-5.098300 0.000000
-5.075600 0.000000
-5.052900 0.000000
-5.030300 0.000000
-5.007600 0.000000
-4.985000 0.000000
-4.962300 0.000000
-4.939700 0.000000
-4.917000 0.000000
-4.894400 0.000000
-4.871700 0.000000
-4.849100 0.000000
-4.826400 0.000000
-4.803800 0.000000
-4.781100 0.000000
-4.758400 0.000000
-4.735800 0.525500
-4.713100 1.254100
-4.690500 5.895400
-4.667800 15.821500
-4.645200 19.311300
-4.622500 8.488200
-4.599900 5.608100
-4.577200 10.405300
-4.554600 12.311000
-4.531900 12.900100
-4.509300 22.172800
-4.486600 26.900700
-4.463900 17.997400
-4.441300 17.051500
-4.418600 12.232200
-4.396000 10.795200
-4.373300 14.246700
-4.350700 15.866900
-4.328000 17.139900
-4.305400 11.995700
-4.282700 11.023500
-4.260100 11.104500
-4.237400 10.174600
-4.214800 9.443800
-4.192100 7.458400
-4.169400 8.669200
-4.146800 11.032100
-4.124100 11.763700
-4.101500 5.896900
-4.078800 3.599500
-4.056200 2.109800
-4.033500 0.942900
-4.010900 0.000000
-3.988200 0.000000
-3.965600 0.003000
-3.942900 0.011000
-3.920300 0.022400
-3.897600 0.037300
-3.874900 0.055300
-3.852300 0.076600
-3.829600 0.101900
-3.807000 0.132300
-3.784300 0.168800
-3.761700 0.217000
-3.739000 0.267000
-3.716400 0.317300
-3.693700 0.424500
-3.671100 0.517100
-3.648400 0.579500
-3.625800 0.625800
-3.603100 0.667100
-3.580400 0.732700
-3.557800 0.782800
-3.535100 0.782200
-3.512500 0.794500
-3.489800 0.827400
-3.467200 0.883400
-3.444500 0.939500
-3.421900 0.995700
-3.399200 1.052000
-3.376600 1.108300
-3.353900 1.261800
-3.331200 1.421400
-3.308600 1.499200
-3.285900 2.042400
-3.263300 2.299700
-3.240600 2.356200
-3.218000 2.677700
-3.195300 3.034700
-3.172700 3.380900
-3.150000 3.955500
-3.127400 5.344300
-3.104700 5.341200
-3.082100 4.313000
-3.059400 3.802800
-3.036700 3.731200
-3.014100 4.031700
-2.991400 4.280800
-2.968800 4.200800
-2.946100 3.741800
-2.923500 3.570200
-2.900800 3.520400
-2.878200 3.607900
-2.855500 3.509500
-2.832900 3.419300
-2.810200 3.336500
-2.787600 3.269500
-2.764900 4.656200
-2.742200 4.426600
-2.719600 2.643100
-2.696900 2.875800
-2.674300 3.097000
-2.651600 3.378500
-2.629000 3.648000
-2.606300 4.495000
-2.583700 5.768500
-2.561000 7.046500
-2.538400 8.175100
-2.515700 5.831000
-2.493100 5.912200
-2.470400 6.294300
-2.447700 6.921900
-2.425100 7.817400
-2.402400 8.005700
-2.379800 9.616600
-2.357100 2.600000
-2.334500 2.717300
-2.311800 2.861100
-2.289200 3.003800
-2.266500 2.949500
-2.243900 2.864200
-2.221200 3.268800
-2.198600 3.375700
-2.175900 3.545300
-2.153200 3.857300
-2.130600 3.462800
-2.107900 3.632100
-2.085300 3.830200
-2.062600 4.059500
-2.040000 3.610200
-2.017300 3.247400
-1.994700 2.761300
-1.972000 2.686700
-1.949400 2.586200
-1.926700 2.479500
-1.904100 2.415800
-1.881400 2.352100
-1.858700 2.288500
-1.836100 2.238900
-1.813400 2.184700
-1.790800 2.118100
-1.768100 2.049600
-1.745500 1.933700
-1.722800 1.885000
-1.700200 1.855400
-1.677500 1.840000
-1.654900 1.824500
-1.632200 1.809100
-1.609500 1.793600
-1.586900 1.778200
-1.564200 1.762700
-1.541600 1.747300
-1.518900 1.731900
-1.496300 1.721400
-1.473600 1.733400
-1.451000 1.755800
-1.428300 1.802100
-1.405700 1.870000
-1.383000 1.937900
-1.360400 2.005800
-1.337700 2.073600
-1.315000 2.132900
-1.292400 2.372900
-1.269700 2.311600
-1.247100 2.252600
-1.224400 2.193500
-1.201800 2.134500
-1.179100 2.075400
-1.156500 2.016400
-1.133800 1.957300
-1.111200 1.898300
-1.088500 1.839200
-1.065900 1.744900
-1.043200 1.541300
-1.020500 1.150200
-0.997900 1.063300
-0.975200 0.981500
-0.952600 0.899800
-0.929900 0.818000
-0.907300 0.736200
-0.884600 0.654400
-0.862000 0.572600
-0.839300 0.490800
-0.816700 3.178200
-0.794000 3.014200
-0.771400 2.708300
-0.748700 3.220600
-0.726000 4.558200
-0.703400 7.037300
-0.680700 4.619800
-0.658100 3.413200
-0.635400 3.186800
-0.612800 3.002800
-0.590100 2.971400
-0.567500 3.129200
-0.544800 3.431900
-0.522200 4.152300
-0.499500 4.896700
-0.476900 5.473900
-0.454200 5.710800
-0.431500 6.385200
-0.408900 7.376300
-0.386200 8.548500
-0.363600 8.122600
-0.340900 7.171200
-0.318300 3.527200
-0.295600 3.017100
-0.273000 4.364000
-0.250300 8.357500
-0.227700 8.841500
-0.205000 7.443800
-0.182400 6.098200
-0.159700 5.267100
-0.137000 4.734100
-0.114400 4.391200
-0.091700 3.896600
-0.069100 3.513500
-0.046400 2.378500
-0.023800 2.715500
-0.001100 3.365700
0.021500 4.039700
0.044200 4.275200
0.066800 4.224600
0.089500 4.132400
0.112200 3.975600
0.134800 3.779400
0.157500 3.558900
0.180100 3.336300
0.202800 2.891500
0.225400 2.665600
0.248100 2.692700
0.270700 2.748700
0.293400 2.851400
0.316000 3.217700
0.338700 3.091500
0.361300 2.633500
0.384000 2.506900
0.406700 2.357900
0.429300 2.204900
0.452000 1.941300
0.474600 1.736600
0.497300 1.601500
0.519900 1.563700
0.542600 1.545000
0.565200 1.526200
0.587900 1.509200
0.610500 1.498700
0.633200 1.484100
0.655800 1.468500
0.678500 1.451000
0.701200 1.436200
0.723800 1.432700
0.746500 1.436900
0.769100 1.447300
0.791800 1.458000
0.814400 1.468600
0.837100 1.479200
0.859700 1.489800
0.882400 1.500500
0.905000 1.511100
0.927700 1.523300
0.950300 1.537000
0.973000 1.550600
0.995700 1.564300
1.018300 1.577900
1.041000 1.591500
1.063600 1.605200
1.086300 1.618800
1.108900 1.632400
1.131600 1.646100
1.154200 1.659700
1.176900 1.715000
1.199500 1.751700
1.222200 2.189800
1.244800 2.326200
1.267500 2.320000
1.290200 2.313800
1.312800 2.307600
1.335500 2.372000
1.358100 2.804900
1.380800 2.647200
1.403400 2.479700
1.426100 2.244600
1.448700 1.987100
1.471400 1.747800
1.494000 1.663900
1.516700 1.622500
1.539300 1.581100
1.562000 1.874600
1.584700 2.001800
1.607300 1.766500
1.630000 1.531200
1.652600 1.306800
1.675300 1.245700
1.697900 1.206100
1.720600 1.166400
1.743200 1.126800
1.765900 1.087200
1.788500 1.820400
1.811200 1.621300
1.833800 1.422300
1.856500 1.223200
1.879200 0.865300
1.901800 0.792900
1.924500 0.720400
1.947100 0.647900
1.969800 0.575500
1.992400 0.503000
2.015100 0.430600
2.037700 0.000000
2.060400 0.000000
2.083000 0.000000
2.105700 0.000000
2.128400 0.000000
2.151000 0.000000
2.173700 0.000000
2.196300 0.000000
2.219000 0.000000
2.241600 0.000000
2.264300 0.000000
2.286900 0.000000
2.309600 0.000000
2.332200 0.000000
2.354900 0.000000
2.377500 0.000000
2.400200 0.000000
2.422900 0.000000
2.445500 0.000000
2.468200 0.000000
2.490800 0.000000
2.513500 0.000000
2.536100 0.000000
2.558800 0.000000
2.581400 0.000000
2.604100 0.000000
2.626700 0.000000
2.649400 0.000000
2.672000 0.000000
2.694700 0.000000
2.717400 0.000000
2.740000 0.000000
2.762700 0.000000
2.785300 0.000000
2.808000 0.000000
2.830600 0.000000
2.853300 0.000000
2.875900 0.000000
2.898600 0.000000
2.921200 0.000000
2.943900 0.000000
2.966500 0.000000
2.989200 0.000000
3.011900 0.000000
3.034500 0.000000
3.057200 0.000000
3.079800 0.000000
3.102500 0.000000
3.125100 0.000000
3.147800 0.000000
3.170400 0.000000
3.193100 0.000000
3.215700 0.000000
3.238400 0.000000
3.261000 0.000000
3.283700 0.000000
3.306400 0.000000
3.329000 0.000000
3.351700 0.000000
3.374300 0.000000
3.397000 0.000000
3.419600 0.000000
3.442300 0.000000
3.464900 0.000000
3.487600 0.000000
3.510200 0.000000
3.532900 0.000000
3.555500 0.000000
3.578200 0.000000
3.600900 0.000000
3.623500 0.000000
3.646200 0.000000
3.668800 0.000000
3.691500 0.000100
3.714100 0.050400
3.736800 0.115600
3.759400 0.195500
3.782100 0.293500
3.804700 0.359100
3.827400 0.387700
3.850100 0.414300
3.872700 0.449500
3.895400 0.492300
3.918000 0.547100
3.940700 0.605000
3.963300 0.665500
3.986000 0.729600
4.008600 0.797200
4.031300 0.876200
4.053900 0.985800
4.076600 1.089700
4.099200 1.201500
4.121900 1.241500
4.144600 1.210700
4.167200 1.191200
4.189900 1.206200
4.212500 1.227200
4.235200 1.246100
4.257800 1.262600
4.280500 1.264200
4.303100 1.255200
4.325800 1.250500
4.348400 1.258100
4.371100 1.282700
4.393700 1.307300
4.416400 1.325500
4.439100 1.340400
4.461700 1.354900
4.484400 1.372600
4.507000 1.391900
4.529700 1.411900
4.552300 1.430900
4.575000 1.446800
4.597600 1.462500
4.620300 1.485200
4.642900 1.548700
4.665600 1.613200
4.688200 1.682000
4.710900 1.758200
4.733600 1.843300
4.756200 1.953700
4.778900 2.065600
4.801500 2.179300
4.824200 3.186400
4.846800 6.029800
4.869500 18.679900
4.892100 14.130200
4.914800 9.364500
4.937400 8.534000
4.960100 8.659900
4.982700 10.993400
5.005400 13.877100
5.028100 21.032500
5.050700 12.241600
5.073400 12.349200
5.096000 13.095900
5.118700 13.834500
5.141300 12.570400
5.164000 11.859300
5.186600 10.764800
5.209300 4.324800
5.231900 1.748000
5.254600 1.546100
5.277200 1.344200
5.299900 1.308800
5.322600 3.644800
5.345200 4.230300
5.367900 3.146300
5.390500 4.088400
5.413200 11.430300
5.435800 2.856700
5.458500 2.728700
5.481100 2.600700
5.503800 2.472700
5.526400 2.344800
5.549100 2.216800
5.571800 2.089800
5.594400 2.036000
5.617100 2.052800
5.639700 2.069800
5.662400 2.060100
5.685000 1.871200
5.707700 2.074600
5.730300 2.004900
5.753000 1.936100
5.775600 1.874000
5.798300 1.816600
5.820900 1.763700
5.843600 1.715200
5.866300 1.690600
5.888900 1.738900
5.911600 1.796700
5.934200 1.897500
5.956900 2.434000
5.979500 2.877900
6.002200 2.635400
6.024800 2.351700
6.047500 2.045300
6.070100 1.685700
6.092800 1.299000
6.115400 0.596600
6.138100 0.084900
6.160800 0.631200
6.183400 1.706400
6.206100 1.308100
6.228700 0.778200
6.251400 0.577300
6.274000 0.495400
6.296700 0.442300
6.319300 0.418600
6.342000 0.421400
6.364600 0.427200
6.387300 0.433000
6.409900 0.438800
6.432600 0.444600
6.455300 0.450400
6.477900 0.456200
6.500600 0.462000
6.523200 0.467900
6.545900 0.471200
6.568500 0.471200
6.591200 0.469000
6.613800 0.465400
6.636500 0.460500
6.659100 0.454100
6.681800 0.446500
6.704400 0.437500
6.727100 0.429600
6.749800 0.422400
6.772400 0.416500
6.795100 0.412000
6.817700 0.408400
6.840400 0.405900
6.863000 0.404500
6.885700 0.404500
6.908300 0.406700
6.931000 0.409500
6.953600 0.412300
6.976300 0.415100
6.998900 0.417800
7.021600 0.420600
7.044300 0.423400
7.066900 0.426200
7.089600 0.429000
7.112200 0.431800
7.134900 0.434600
7.157500 0.437300
7.180200 0.440100
7.202800 0.442900
7.225500 0.445700
7.248100 0.448500
7.270800 0.452000
7.293500 0.456200
7.316100 0.508200
7.338800 0.658300
7.361400 0.804300
7.384100 0.851400
7.406700 0.929300
7.429400 1.011100
7.452000 1.101300
7.474700 1.185000
7.497300 1.246600
7.520000 1.367200
7.542600 1.385800
7.565300 1.410800
7.588000 1.414100
7.610600 1.628200
7.633300 1.685600
7.655900 1.742600
7.678600 1.798800
7.701200 1.940200
7.723900 2.075200
7.746500 2.078400
7.769200 2.056000
7.791800 2.080800
7.814500 2.155300
7.837100 2.275500
7.859800 2.251400
7.882500 2.195100
7.905100 2.125700
7.927800 2.057200
7.950400 2.019400
7.973100 2.004600
7.995700 1.991300
8.018400 1.981200
8.041000 1.986200
8.063700 2.009800
8.086300 2.218500
8.109000 2.106500
8.131600 2.162600
8.154300 2.240300
8.177000 2.323700
8.199600 2.443000
8.222300 2.670600
8.244900 3.033700
8.267600 3.463600
8.290200 3.519900
8.312900 3.236000
8.335500 3.245300
8.358200 3.266900
8.380800 3.126800
8.403500 2.982700
8.426100 2.883100
8.448800 2.814300
8.471500 2.747300
8.494100 2.680100
8.516800 3.102900
8.539400 3.120700
8.562100 3.233600
8.584700 3.461000
8.607400 3.838800
8.630000 4.324600
8.652700 3.924700
8.675300 3.419000
8.698000 3.227700
8.720600 3.243800
8.743300 3.543500
8.766000 3.334900
8.788600 3.212800
8.811300 3.117000
8.833900 3.138500
8.856600 3.267100
8.879200 3.370000
8.901900 3.403700
8.924500 3.554200
8.947200 3.610100
8.969800 3.699300
8.992500 3.797700
9.015100 3.920200
9.037800 4.254200
9.060500 4.445600
9.083100 4.789600
9.105800 5.216900
9.128400 5.668300
9.151100 5.317000
9.173700 5.608600
9.196400 5.455600
9.219000 5.234400
9.241700 5.183500
9.264300 4.876400
9.287000 4.632500
9.309700 4.358800
9.332300 4.114100
9.355000 4.095300
9.377600 4.072600
9.400300 4.185200
9.422900 4.289000
9.445600 4.240200
9.468200 4.250300
9.490900 4.236200
9.513500 4.130600
9.536200 4.142700
9.558800 4.257700
9.581500 4.398200
9.604200 4.821500
9.626800 5.104800
9.649500 5.412800
9.672100 5.798500
9.694800 6.025300
9.717400 6.168300
9.740100 6.698900
9.762700 8.137200
9.785400 6.612400
9.808000 5.614500
9.830700 5.015800
9.853300 4.287300
9.876000 3.888500
9.898700 3.631100
9.921300 3.462500
9.944000 3.417500
9.966600 3.403300
9.989300 3.667000
10.011900 4.287100
10.034600 5.933200
10.057200 7.655000
10.079900 7.475100
10.102500 6.025400
10.125200 5.395500
10.147800 3.540600
10.170500 2.234600
10.193200 2.379000
10.215800 2.539400
10.238500 2.785900
10.261100 3.218100
10.283800 3.707500
10.306400 4.412200
10.329100 4.446100
10.351700 4.558700
10.374400 3.953200
10.397000 3.532000
10.419700 3.384500
10.442300 3.281700
10.465000 3.157500
10.487700 3.057500
10.510300 2.997600
10.533000 2.990100
10.555600 2.968500
10.578300 3.050100
10.600900 3.116200
10.623600 3.220800
10.646200 3.460800
10.668900 2.961500
10.691500 2.803200
10.714200 2.787300
10.736800 2.733300
10.759500 2.734800
10.782200 2.732800
10.804800 2.776100
10.827500 2.857900
10.850100 2.966800
10.872800 3.354200
10.895400 3.632100
10.918100 3.733100
10.940700 3.703700
10.963400 3.639500
10.986000 3.484200
11.008700 3.213200
11.031400 3.169500
11.054000 3.143000
11.076700 3.135700
11.099300 3.147100
11.122000 3.178900
11.144600 3.254400
11.167300 3.337800
11.189900 3.338600
11.212600 3.202200
11.235200 2.828100
11.257900 2.464600
11.280500 2.267600
11.303200 2.389500
11.325900 2.752700
11.348500 3.297300
11.371200 4.262000
11.393800 3.431800
11.416500 3.206000
11.439100 3.169800
11.461800 3.191500
11.484400 3.253800
11.507100 3.349100
11.529700 3.438500
11.552400 3.454100
11.575000 3.471100
11.597700 3.526900
11.620400 3.845400
11.643000 3.976600
11.665700 4.124300
11.688300 4.209600
11.711000 4.212800
11.733600 4.020600
11.756300 3.646400
11.778900 3.643000
11.801600 3.672100
11.824200 3.614900
11.846900 3.503800
11.869500 3.385700
11.892200 3.286800
11.914900 3.266300
11.937500 3.406000
11.960200 3.299200
11.982800 3.374200
12.005500 3.247500
12.028100 3.082100
12.050800 2.919100
12.073400 2.814000
12.096100 2.414200
12.118700 2.328800
12.141400 2.450700
12.164000 2.521900
12.186700 2.638300
12.209400 2.810200
12.232000 2.955500
12.254700 3.069100
12.277300 3.379400
12.300000 2.817500
12.322600 2.850500
12.345300 2.884200
12.367900 2.934200
12.390600 3.038200
12.413200 3.146100
12.435900 3.210500
12.458500 3.257600
12.481200 3.208800
12.503900 3.188900
12.526500 3.443500
12.549200 3.670600
12.571800 3.701600
12.594500 3.651700
12.617100 3.661300
12.639800 3.674800
12.662400 3.703900
12.685100 3.802800
12.707700 3.862100
12.730400 3.876900
12.753100 3.913700
12.775700 4.118800
12.798400 4.521200
12.821000 5.287900
12.843700 5.673500
12.866300 5.702600
12.889000 5.168100
12.911600 5.241800
12.934300 4.980400
12.956900 5.216400
12.979600 5.144600
13.002200 5.158400
13.024900 5.687300
13.047600 4.951400
13.070200 4.876200
13.092900 4.892800
13.115500 4.932500
13.138200 5.008200
13.160800 5.160600
13.183500 5.373300
13.206100 5.377500
13.228800 4.955000
13.251400 5.088200
13.274100 5.057900
13.296700 5.018100
13.319400 4.948900
13.342100 5.023000
13.364700 4.979400
13.387400 5.054700
13.410000 5.376100
13.432700 6.100900
13.455300 6.197300
13.478000 6.078300
13.500600 4.740500
13.523300 4.090100
13.545900 3.816700
13.568600 3.907400
13.591200 4.170500
13.613900 4.351200
13.636600 4.430900
13.659200 4.489300
13.681900 4.527800
13.704500 4.843200
13.727200 4.950800
13.749800 5.114000
13.772500 5.157600
13.795100 5.201900
13.817800 5.038700
13.840400 4.926700
13.863100 4.787400
13.885700 4.611200
13.908400 4.230100
13.931100 3.979400
13.953700 3.754500
13.976400 3.597600
13.999000 3.826600
14.021700 3.687300
14.044300 3.487400
14.067000 3.620400
14.089600 3.893100
14.112300 3.948800
14.134900 4.185400
14.157600 4.282400
14.180200 4.507400
14.202900 4.731000
14.225600 4.862100
14.248200 5.019400
14.270900 5.254500
14.293500 5.479200
14.316200 5.376500
14.338800 5.273100
14.361500 5.017700
14.384100 4.548100
14.406800 4.339100
14.429400 4.227500
14.452100 4.136700
14.474700 4.389000
14.497400 4.498600
14.520100 4.499400
14.542700 4.412000
14.565400 4.515900
14.588000 4.575600
14.610700 4.703900
14.633300 4.783800
14.656000 4.850300
14.678600 4.552500
14.701300 4.130500
14.723900 4.050900
14.746600 3.972800
14.769300 4.142700
14.791900 4.210900
14.814600 4.407900
14.837200 4.588200
14.859900 4.797600
14.882500 4.248000
14.905200 3.666000
14.927800 3.500800
14.950500 3.245600
14.973100 3.191900
14.995800 3.240800
15.018400 3.360400
15.041100 3.496400
15.063800 3.808600
15.086400 3.911500
15.109100 3.986500
15.131700 3.953100
15.154400 4.077300
15.177000 4.335500
15.199700 3.596100
15.222300 3.472300
15.245000 3.442400
15.267600 3.470000
15.290300 3.465300
15.312900 3.492600
15.335600 3.683500
15.358300 3.859400
15.380900 4.006900
15.403600 4.121400
15.426200 4.066800
15.448900 4.582700
15.471500 4.723500
15.494200 4.864400
15.516800 5.098700
15.539500 5.317600
15.562100 5.266500
15.584800 5.257000
15.607400 5.289300
15.630100 4.975900
15.652800 4.775000
15.675400 4.537000
15.698100 4.344100
15.720700 4.336100
15.743400 4.496500
15.766000 4.276100
15.788700 4.569300
15.811300 4.530800
15.834000 4.768600
15.856600 5.435400
15.879300 5.790900
15.901900 6.138300
15.924600 6.033300
15.947300 5.841500
15.969900 5.584500
15.992600 5.440200
16.015200 4.936600
16.037900 4.611500
16.060500 4.369300
16.083200 4.681800
16.105800 4.649700
16.128500 4.474300
16.151100 4.307000
16.173800 4.324700
16.196400 4.314500
16.219100 4.537500
16.241800 4.500400
16.264400 4.893100
16.287100 4.721100
16.309700 4.693200
16.332400 4.644300
16.355000 4.634200
16.377700 4.527800
16.400300 4.456100
16.423000 4.555100
16.445600 4.766800
16.468300 4.785500
16.491000 4.848500
16.513600 4.947900
16.536300 4.950900
16.558900 5.469600
16.581600 4.570100
16.604200 4.760900
16.626900 4.680700
16.649500 4.843600
16.672200 4.808300
16.694800 4.780600
16.717500 4.782700
16.740100 5.051800
16.762800 5.443400
16.785500 5.119300
16.808100 4.950400
16.830800 4.614000
16.853400 4.359700
16.876100 4.376500
16.898700 4.395100
16.921400 4.228100
16.944000 4.257300
16.966700 4.277000
16.989300 4.302600
17.012000 4.374700
17.034600 4.467400
17.057300 4.566800
17.080000 4.720500
17.102600 4.783700
17.125300 4.893700
17.147900 5.057100
17.170600 5.255200
17.193200 5.478200
17.215900 6.113300
17.238500 5.700600
17.261200 4.977900
17.283800 4.568400
17.306500 4.795300
17.329100 4.566100
17.351800 4.521300
17.374500 4.449900
17.397100 4.126000
17.419800 4.068700
17.442400 3.875300
17.465100 3.857500
17.487700 4.186700
17.510400 4.984800
17.533000 5.113900
17.555700 4.860800
17.578300 5.005000
17.601000 5.238300
17.623600 5.819600
17.646300 5.733800
17.669000 5.146500
17.691600 5.132200
17.714300 4.509400
17.736900 4.145700
17.759600 3.800500
17.782200 3.541900
17.804900 3.423400
17.827500 3.204600
17.850200 3.098300
17.872800 3.591100
17.895500 4.520900
17.918100 5.474300
17.940800 6.483800
17.963500 7.450300
17.986100 7.937900
18.008800 7.573000
18.031400 6.485100
18.054100 5.521600
18.076700 5.149400
18.099400 4.279700
18.122000 4.085700
18.144700 3.992900
18.167300 3.783100
18.190000 3.749100
18.212700 3.862700
18.235300 4.295300
18.258000 4.701100
18.280600 4.972200
18.303300 5.072500
18.325900 5.112900
18.348600 5.104400
18.371200 5.109300
18.393900 5.134300
18.416500 5.154400
18.439200 5.224200
18.461800 5.239200
18.484500 5.575200
18.507200 5.035300
18.529800 4.711900
18.552500 4.489900
18.575100 4.394300
18.597800 4.420400
18.620400 4.539900
18.643100 4.731900
18.665700 5.222100
18.688400 5.537000
18.711000 5.749600
18.733700 5.807200
18.756300 6.011000
18.779000 5.692100
18.801700 5.628400
18.824300 5.402400
18.847000 5.089700
18.869600 4.879800
18.892300 5.030300
18.914900 5.351000
18.937600 5.601700
18.960200 5.952100
18.982900 5.519400
19.005500 5.349500
19.028200 5.118700
19.050800 4.894600
19.073500 4.775400
19.096200 4.815900
19.118800 4.501400
19.141500 4.599200
19.164100 4.687400
19.186800 4.532400
19.209400 4.432400
19.232100 4.345000
19.254700 4.402300
19.277400 4.482900
19.300000 4.714300
19.322700 5.040000
19.345300 5.090400
19.368000 5.402000
19.390700 5.681100
19.413300 5.440400
19.436000 5.522600
19.458600 5.503700
19.481300 5.466800
19.503900 5.578100
19.526600 4.998200
19.549200 5.118500
19.571900 4.243500
19.594500 3.629200
19.617200 3.219100
19.639800 2.851600
19.662500 2.559400
19.685200 2.312900
19.707800 2.093700
19.730500 1.891200
19.753100 1.707200
19.775800 1.539500
19.798400 1.471100
19.821100 1.323800
19.843700 1.218200
19.866400 1.222600
19.889000 0.939400
19.911700 0.738100
19.934400 0.596500
19.957000 0.445300
19.979700 0.296200
20.002300 0.231100
20.025000 0.177500
20.047600 0.131000
20.070300 0.091500
20.092900 0.059100
20.115600 0.033700
20.138200 0.015400
20.160900 0.004200
20.183500 0.000000
20.206200 0.000000
20.228900 0.000000
20.251500 0.000000
20.274200 0.000000
20.296800 0.000000
20.319500 0.000000
20.342100 0.000000
20.364800 0.000000
20.387400 0.000000
20.410100 0.000000
20.432700 0.000000
20.455400 0.000000
20.478000 0.000000
20.500700 0.000000
20.523400 0.000000
20.546000 0.000000
20.568700 0.000000
20.591300 0.000000
20.614000 0.000000
20.636600 0.000000
20.659300 0.000000
20.681900 0.000000
20.704600 0.000000
20.727200 0.000000
20.749900 0.000000
20.772500 0.000000
20.795200 0.000000
20.817900 0.000000
20.840500 0.000000
20.863200 0.000000
20.885800 0.000000
20.908500 0.000000
20.931100 0.000000
20.953800 0.000000
20.976400 0.000000
20.999100 0.000000
21.021700 0.000000
21.044400 0.000000
21.067000 0.000000
21.089700 0.000000
21.112400 0.000000
21.135000 0.000000
21.157700 0.000000
21.180300 0.000000
21.203000 0.000000
21.225600 0.000000
21.248300 0.000000
21.270900 0.000000
21.293600 0.000000
21.316200 0.000000
21.338900 0.000000
21.361500 0.000000
21.384200 0.000000
21.406900 0.000000
21.429500 0.000000
21.452200 0.000000
21.474800 0.000000
21.497500 0.000000
21.520100 0.000000
21.542800 0.000000
21.565400 0.000000
21.588100 0.000000
21.610700 0.000000
21.633400 0.000000
21.656000 0.000000
21.678700 0.000000
21.701400 0.000000
21.724000 0.000000
21.746700 0.000000
21.769300 0.000000
21.792000 0.000000
21.814600 0.000000
21.837300 0.000000
21.859900 0.000000
21.882600 0.000000
21.905200 0.000000
21.927900 0.000000
21.950600 0.000000
21.973200 0.000000
21.995900 0.000000
22.018500 0.000000
22.041200 0.000000
22.063800 0.000000
22.086500 0.000000
22.109100 0.000000
22.131800 0.000000
22.154400 0.000000
22.177100 0.000000
22.199700 0.000000
22.222400 0.000000
22.245100 0.000000
e
