set title 'mp-1077033 - Density of States'
set xlabel 'Energy (eV)'
set ylabel 'DOS (states/eV)'
set grid
set xrange [-10:10]
set yrange [0:26.023]
set xzeroaxis lt -1
set terminal png size 800,600
set output 'mp-1077033_dos_gnuplot.png'
plot '-' using 1:2 with lines title 'DOS'
-19.537000 0.000000
-19.520800 0.000000
-19.504600 0.000000
-19.488500 0.000000
-19.472300 0.000000
-19.456100 0.000000
-19.440000 0.000000
-19.423800 0.000000
-19.407600 0.000000
-19.391500 0.000000
-19.375300 0.000000
-19.359100 0.000000
-19.343000 0.000000
-19.326800 0.000000
-19.310600 0.000000
-19.294500 0.000000
-19.278300 0.000000
-19.262100 0.000000
-19.246000 0.000000
-19.229800 0.000000
-19.213600 0.000000
-19.197500 0.000000
-19.181300 0.000000
-19.165100 0.000000
-19.149000 0.000000
-19.132800 0.000000
-19.116600 0.000000
-19.100500 0.000000
-19.084300 0.000000
-19.068100 0.000000
-19.052000 0.000000
-19.035800 0.000000
-19.019600 0.000000
-19.003400 0.000000
-18.987300 0.000000
-18.971100 0.000000
-18.954900 0.000000
-18.938800 0.000000
-18.922600 0.000000
-18.906400 0.000000
-18.890300 0.000000
-18.874100 0.000000
-18.857900 0.000000
-18.841800 0.000000
-18.825600 0.000000
-18.809400 0.000000
-18.793300 0.000000
-18.777100 0.000000
-18.760900 0.000000
-18.744800 0.000000
-18.728600 0.000000
-18.712400 0.000000
-18.696300 0.000000
-18.680100 0.000000
-18.663900 0.000000
-18.647800 0.000000
-18.631600 0.000000
-18.615400 0.000000
-18.599300 0.000000
-18.583100 0.000000
-18.566900 0.000000
-18.550700 0.000000
-18.534600 0.000000
-18.518400 0.000000
-18.502200 0.000000
-18.486100 0.000000
-18.469900 0.000000
-18.453700 0.000000
-18.437600 0.000000
-18.421400 0.000000
-18.405200 0.000000
-18.389100 0.000000
-18.372900 0.000000
-18.356700 0.000000
-18.340600 0.000000
-18.324400 0.000000
-18.308200 0.000000
-18.292100 0.000000
-18.275900 0.000000
-18.259700 0.000000
-18.243600 0.000000
-18.227400 0.000000
-18.211200 0.000000
-18.195100 0.000000
-18.178900 0.000000
-18.162700 0.000000
-18.146600 0.000000
-18.130400 0.000000
-18.114200 0.000000
-18.098100 0.000000
-18.081900 0.000000
-18.065700 1.867900
-18.049500 64.310900
-18.033400 59.835600
-18.017200 90.644700
-18.001000 136.390400
-17.984900 59.104300
-17.968700 42.122500
-17.952500 37.483900
-17.936400 39.668400
-17.920200 42.775400
-17.904000 55.776800
-17.887900 62.246200
-17.871700 0.000000
-17.855500 0.000000
-17.839400 0.000000
-17.823200 0.000000
-17.807000 0.000000
-17.790900 0.000000
-17.774700 0.000000
-17.758500 0.000000
-17.742400 0.000000
-17.726200 0.000000
-17.710000 0.000000
-17.693900 0.000000
-17.677700 0.000000
-17.661500 0.000000
-17.645400 0.000000
-17.629200 0.000000
-17.613000 0.000000
-17.596900 0.000000
-17.580700 0.000000
-17.564500 0.000000
-17.548300 0.000000
-17.532200 0.000000
-17.516000 0.000000
-17.499800 0.000000
-17.483700 0.000000
-17.467500 0.000000
-17.451300 0.000000
-17.435200 0.000000
-17.419000 0.000000
-17.402800 0.000000
-17.386700 0.000000
-17.370500 0.000000
-17.354300 0.000000
-17.338200 0.000000
-17.322000 0.000000
-17.305800 0.000000
-17.289700 0.000000
-17.273500 0.000000
-17.257300 0.000000
-17.241200 0.000000
-17.225000 0.000000
-17.208800 0.000000
-17.192700 0.000000
-17.176500 0.000000
-17.160300 0.000000
-17.144200 0.000000
-17.128000 0.000000
-17.111800 0.000000
-17.095700 0.000000
-17.079500 0.000000
-17.063300 0.000000
-17.047100 0.000000
-17.031000 0.000000
-17.014800 0.000000
-16.998600 0.000000
-16.982500 0.000000
-16.966300 0.000000
-16.950100 0.000000
-16.934000 0.000000
-16.917800 0.000000
-16.901600 0.000000
-16.885500 0.000000
-16.869300 0.000000
-16.853100 0.000000
-16.837000 0.000000
-16.820800 0.000000
-16.804600 0.000000
-16.788500 0.000000
-16.772300 0.000000
-16.756100 0.000000
-16.740000 0.000000
-16.723800 0.000000
-16.707600 0.000000
-16.691500 0.000000
-16.675300 0.000000
-16.659100 0.000000
-16.643000 0.000000
-16.626800 0.000000
-16.610600 0.000000
-16.594500 0.000000
-16.578300 0.000000
-16.562100 0.000000
-16.545900 0.000000
-16.529800 0.000000
-16.513600 0.000000
-16.497400 0.000000
-16.481300 0.000000
-16.465100 0.000000
-16.448900 0.000000
-16.432800 0.000000
-16.416600 0.000000
-16.400400 0.000000
-16.384300 0.000000
-16.368100 0.000000
-16.351900 0.000000
-16.335800 0.000000
-16.319600 0.000000
-16.303400 0.000000
-16.287300 0.000000
-16.271100 0.000000
-16.254900 0.000000
-16.238800 0.000000
-16.222600 0.000000
-16.206400 0.000000
-16.190300 0.000000
-16.174100 0.000000
-16.157900 0.000000
-16.141800 0.000000
-16.125600 0.000000
-16.109400 0.000000
-16.093300 0.000000
-16.077100 0.000000
-16.060900 0.000000
-16.044700 0.000000
-16.028600 0.000000
-16.012400 0.000000
-15.996200 0.000000
-15.980100 0.000000
-15.963900 0.000000
-15.947700 0.000000
-15.931600 0.000000
-15.915400 0.000000
-15.899200 0.000000
-15.883100 0.000000
-15.866900 0.000000
-15.850700 0.000000
-15.834600 0.000000
-15.818400 0.000000
-15.802200 0.000000
-15.786100 0.000000
-15.769900 0.000000
-15.753700 0.000000
-15.737600 0.000000
-15.721400 0.000000
-15.705200 0.000000
-15.689100 0.000000
-15.672900 0.000000
-15.656700 0.000000
-15.640600 0.000000
-15.624400 0.000000
-15.608200 0.000000
-15.592000 0.000000
-15.575900 0.000000
-15.559700 0.000000
-15.543500 0.000000
-15.527400 0.000000
-15.511200 0.000000
-15.495000 0.000000
-15.478900 0.000000
-15.462700 0.000000
-15.446500 0.000000
-15.430400 0.000000
-15.414200 0.000000
-15.398000 0.000000
-15.381900 0.000000
-15.365700 0.000000
-15.349500 0.000000
-15.333400 0.000000
-15.317200 0.000000
-15.301000 0.000000
-15.284900 0.000000
-15.268700 0.000000
-15.252500 0.000000
-15.236400 0.000000
-15.220200 0.000000
-15.204000 0.000000
-15.187900 0.000000
-15.171700 0.000000
-15.155500 0.000000
-15.139400 0.000000
-15.123200 0.000000
-15.107000 0.000000
-15.090800 0.000000
-15.074700 0.000000
-15.058500 0.000000
-15.042300 0.000000
-15.026200 0.000000
-15.010000 0.000000
-14.993800 0.000000
-14.977700 0.000000
-14.961500 0.000000
-14.945300 0.000000
-14.929200 0.000000
-14.913000 0.000000
-14.896800 0.000000
-14.880700 0.000000
-14.864500 0.000000
-14.848300 0.000000
-14.832200 0.000000
-14.816000 0.000000
-14.799800 0.000000
-14.783700 0.000000
-14.767500 0.000000
-14.751300 0.000000
-14.735200 0.000000
-14.719000 0.000000
-14.702800 0.000000
-14.686700 0.000000
-14.670500 0.000000
-14.654300 0.000000
-14.638200 0.000000
-14.622000 0.000000
-14.605800 0.000000
-14.589600 0.000000
-14.573500 0.000000
-14.557300 0.000000
-14.541100 0.000000
-14.525000 0.000000
-14.508800 0.000000
-14.492600 0.000000
-14.476500 0.000000
-14.460300 0.000000
-14.444100 0.000000
-14.428000 0.000000
-14.411800 0.000000
-14.395600 0.000000
-14.379500 0.000000
-14.363300 0.000000
-14.347100 0.000000
-14.331000 0.000000
-14.314800 0.000000
-14.298600 0.000000
-14.282500 0.000000
-14.266300 0.000000
-14.250100 0.000000
-14.234000 0.000000
-14.217800 0.000000
-14.201600 0.000000
-14.185500 0.000000
-14.169300 0.000000
-14.153100 0.000000
-14.137000 0.000000
-14.120800 0.000000
-14.104600 0.000000
-14.088400 0.000000
-14.072300 0.000000
-14.056100 0.000000
-14.039900 0.000000
-14.023800 0.000000
-14.007600 0.000000
-13.991400 0.000000
-13.975300 0.000000
-13.959100 0.000000
-13.942900 0.000000
-13.926800 0.000000
-13.910600 0.000000
-13.894400 0.000000
-13.878300 0.000000
-13.862100 0.000000
-13.845900 0.000000
-13.829800 0.000000
-13.813600 0.000000
-13.797400 0.000000
-13.781300 0.000000
-13.765100 0.000000
-13.748900 0.000000
-13.732800 0.000000
-13.716600 0.000000
-13.700400 0.000000
-13.684300 0.000000
-13.668100 0.000000
-13.651900 0.000000
-13.635800 0.000000
-13.619600 0.000000
-13.603400 0.000000
-13.587200 0.000000
-13.571100 0.000000
-13.554900 0.000000
-13.538700 0.000000
-13.522600 0.000000
-13.506400 0.000000
-13.490200 0.000000
-13.474100 0.000000
-13.457900 0.000000
-13.441700 0.000000
-13.425600 0.000000
-13.409400 0.000000
-13.393200 0.000000
-13.377100 0.000000
-13.360900 0.000000
-13.344700 0.000000
-13.328600 0.000000
-13.312400 0.000000
-13.296200 0.000000
-13.280100 0.000000
-13.263900 0.000000
-13.247700 0.000000
-13.231600 0.000000
-13.215400 0.000000
-13.199200 0.000000
-13.183100 0.000000
-13.166900 0.000000
-13.150700 0.000000
-13.134500 0.000000
-13.118400 0.000000
-13.102200 0.000000
-13.086000 0.000000
-13.069900 0.000000
-13.053700 0.000000
-13.037500 0.000000
-13.021400 0.000000
-13.005200 0.000000
-12.989000 0.000000
-12.972900 0.000000
-12.956700 0.000000
-12.940500 0.000000
-12.924400 0.000000
-12.908200 0.000000
-12.892000 0.000000
-12.875900 0.000000
-12.859700 0.000000
-12.843500 0.000000
-12.827400 0.000000
-12.811200 0.000000
-12.795000 0.000000
-12.778900 0.000000
-12.762700 0.000000
-12.746500 0.000000
-12.730400 0.000000
-12.714200 0.000000
-12.698000 0.000000
-12.681900 0.000000
-12.665700 0.000000
-12.649500 0.000000
-12.633300 0.000000
-12.617200 0.000000
-12.601000 0.000000
-12.584800 0.000000
-12.568700 0.000000
-12.552500 0.000000
-12.536300 0.000000
-12.520200 0.000000
-12.504000 0.000000
-12.487800 0.000000
-12.471700 0.000000
-12.455500 0.000000
-12.439300 0.000000
-12.423200 0.000000
-12.407000 0.000000
-12.390800 0.000000
-12.374700 0.000000
-12.358500 0.000000
-12.342300 0.000000
-12.326200 0.000000
-12.310000 0.000000
-12.293800 0.000000
-12.277700 0.000000
-12.261500 0.000000
-12.245300 0.000000
-12.229200 0.000000
-12.213000 0.000000
-12.196800 0.000000
-12.180700 0.000000
-12.164500 0.000000
-12.148300 0.000000
-12.132100 0.000000
-12.116000 0.000000
-12.099800 0.000000
-12.083600 0.000000
-12.067500 0.000000
-12.051300 0.000000
-12.035100 0.000000
-12.019000 0.000000
-12.002800 0.000000
-11.986600 0.000000
-11.970500 0.000000
-11.954300 0.000000
-11.938100 0.000000
-11.922000 0.000000
-11.905800 0.263200
-11.889600 0.807600
-11.873500 1.012400
-11.857300 0.830200
-11.841100 0.763600
-11.825000 0.826000
-11.808800 0.888300
-11.792600 0.950700
-11.776500 0.943700
-11.760300 0.857700
-11.744100 0.825300
-11.728000 0.838300
-11.711800 0.851300
-11.695600 0.864300
-11.679500 0.877200
-11.663300 0.890200
-11.647100 0.910900
-11.630900 0.935600
-11.614800 0.924400
-11.598600 0.884300
-11.582400 0.871600
-11.566300 0.873100
-11.550100 0.874500
-11.533900 0.876000
-11.517800 0.877500
-11.501600 0.882100
-11.485400 0.894400
-11.469300 0.905500
-11.453100 0.916600
-11.436900 0.927800
-11.420800 0.938900
-11.404600 0.948700
-11.388400 0.928600
-11.372300 0.905600
-11.356100 0.902400
-11.339900 0.903300
-11.323800 0.905600
-11.307600 0.907900
-11.291400 0.910200
-11.275300 0.914800
-11.259100 0.920300
-11.242900 0.925900
-11.226800 0.931400
-11.210600 0.937000
-11.194400 0.942500
-11.178300 0.948100
-11.162100 0.953600
-11.145900 0.961700
-11.129700 0.973900
-11.113600 0.967400
-11.097400 0.952700
-11.081200 0.951700
-11.065100 0.952100
-11.048900 0.952500
-11.032700 0.952900
-11.016600 0.953500
-11.000400 0.956300
-10.984200 0.959300
-10.968100 0.962200
-10.951900 0.965400
-10.935700 0.972200
-10.919600 0.979400
-10.903400 0.986500
-10.887200 0.993600
-10.871100 0.999900
-10.854900 1.006100
-10.838700 1.012300
-10.822600 1.018500
-10.806400 1.024700
-10.790200 1.029000
-10.774100 1.017300
-10.757900 1.012500
-10.741700 1.012300
-10.725600 1.012100
-10.709400 1.021900
-10.693200 1.025500
-10.677000 1.030400
-10.660900 1.035400
-10.644700 1.040400
-10.628500 1.045300
-10.612400 1.050300
-10.596200 1.055300
-10.580000 1.060200
-10.563900 1.065100
-10.547700 1.070000
-10.531500 1.074900
-10.515400 1.079800
-10.499200 1.085200
-10.483000 1.097100
-10.466900 1.109000
-10.450700 1.121000
-10.434500 1.132500
-10.418400 1.140800
-10.402200 2.873500
-10.386000 1.570900
-10.369900 1.524200
-10.353700 1.477500
-10.337500 1.422400
-10.321400 1.173600
-10.305200 1.144500
-10.289000 1.115400
-10.272900 1.086300
-10.256700 1.079800
-10.240500 0.975500
-10.224400 0.956600
-10.208200 0.937700
-10.192000 0.918800
-10.175800 0.899900
-10.159700 0.881000
-10.143500 0.862100
-10.127300 0.814300
-10.111200 0.790700
-10.095000 0.767100
-10.078800 0.743500
-10.062700 0.735200
-10.046500 0.731800
-10.030300 0.728300
-10.014200 0.724900
-9.998000 0.716300
-9.981800 3.438600
-9.965700 1.802800
-9.949500 1.844000
-9.933300 1.580800
-9.917200 1.603600
-9.901000 1.626500
-9.884800 1.776800
-9.868700 1.735700
-9.852500 1.733600
-9.836300 1.731500
-9.820200 1.800700
-9.804000 1.839700
-9.787800 1.524700
-9.771700 1.603900
-9.755500 2.332600
-9.739300 7.614100
-9.723200 1.805000
-9.707000 1.743500
-9.690800 1.681900
-9.674600 1.620400
-9.658500 1.558900
-9.642300 1.497400
-9.626100 1.435900
-9.610000 1.402400
-9.593800 1.398300
-9.577600 1.394300
-9.561500 1.390300
-9.545300 1.238100
-9.529100 1.245700
-9.513000 1.268300
-9.496800 1.241900
-9.480600 1.215400
-9.464500 1.188900
-9.448300 1.162500
-9.432100 1.136000
-9.416000 1.109500
-9.399800 1.083000
-9.383600 1.056600
-9.367500 1.030900
-9.351300 1.022800
-9.335100 1.014700
-9.319000 1.006600
-9.302800 0.998500
-9.286600 0.990400
-9.270500 0.982300
-9.254300 0.974300
-9.238100 0.905600
-9.222000 0.903600
-9.205800 0.986300
-9.189600 1.265500
-9.173400 1.461300
-9.157300 1.575200
-9.141100 1.788200
-9.124900 2.070200
-9.108800 2.106600
-9.092600 2.136500
-9.076400 2.233900
-9.060300 2.252000
-9.044100 2.234400
-9.027900 2.213200
-9.011800 2.237100
-8.995600 2.288000
-8.979400 2.319500
-8.963300 2.346200
-8.947100 2.373000
-8.930900 2.376400
-8.914800 2.405400
-8.898600 2.474700
-8.882400 2.576700
-8.866300 2.751300
-8.850100 2.957500
-8.833900 3.190400
-8.817800 2.252400
-8.801600 1.408200
-8.785400 0.611600
-8.769300 0.203500
-8.753100 0.002300
-8.736900 0.000000
-8.720800 0.913800
-8.704600 1.913200
-8.688400 2.638500
-8.672200 4.380000
-8.656100 7.031100
-8.639900 3.786700
-8.623700 3.504800
-8.607600 3.506000
-8.591400 3.510700
-8.575200 3.507800
-8.559100 3.716300
-8.542900 3.925600
-8.526700 4.094900
-8.510600 4.469700
-8.494400 5.047900
-8.478200 5.923400
-8.462100 7.348600
-8.445900 8.956600
-8.429700 14.109500
-8.413600 12.198600
-8.397400 13.015700
-8.381200 10.668400
-8.365100 7.421600
-8.348900 6.630300
-8.332700 7.229600
-8.316600 9.513200
-8.300400 20.790900
-8.284200 23.656900
-8.268100 17.954600
-8.251900 7.478700
-8.235700 0.913900
-8.219600 0.636400
-8.203400 0.611000
-8.187200 0.585500
-8.171000 0.560100
-8.154900 0.534600
-8.138700 0.509200
-8.122500 0.483700
-8.106400 0.471300
-8.090200 0.465800
-8.074000 0.460300
-8.057900 0.454800
-8.041700 0.449200
-8.025500 0.443700
-8.009400 0.438200
-7.993200 0.432700
-7.977000 0.427200
-7.960900 0.421600
-7.944700 0.402000
-7.928500 0.420400
-7.912400 0.438800
-7.896200 0.457100
-7.880000 0.451500
-7.863900 0.437000
-7.847700 0.422500
-7.831500 0.407900
-7.815400 0.393400
-7.799200 0.378900
-7.783000 0.364300
-7.766900 0.349800
-7.750700 0.335300
-7.734500 0.339200
-7.718300 0.373000
-7.702200 0.406700
-7.686000 0.440400
-7.669800 0.474200
-7.653700 0.376800
-7.637500 0.282800
-7.621300 0.188700
-7.605200 0.094600
-7.589000 0.000600
-7.572800 0.000000
-7.556700 0.000000
-7.540500 0.000000
-7.524300 0.000000
-7.508200 0.000000
-7.492000 0.000000
-7.475800 0.000000
-7.459700 0.000000
-7.443500 0.000000
-7.427300 0.000000
-7.411200 0.000000
-7.395000 0.000000
-7.378800 0.000000
-7.362700 0.000000
-7.346500 0.000000
-7.330300 0.000000
-7.314200 0.000000
-7.298000 0.000000
-7.281800 0.000000
-7.265700 0.000000
-7.249500 0.000000
-7.233300 0.000000
-7.217100 0.000000
-7.201000 0.000000
-7.184800 0.000000
-7.168600 0.000000
-7.152500 0.000000
-7.136300 0.000000
-7.120100 0.000000
-7.104000 0.000000
-7.087800 0.000000
-7.071600 0.000000
-7.055500 0.000000
-7.039300 0.000000
-7.023100 0.000000
-7.007000 0.000000
-6.990800 0.000000
-6.974600 0.000000
-6.958500 0.000000
-6.942300 0.000000
-6.926100 0.000000
-6.910000 0.000000
-6.893800 0.000000
-6.877600 0.000000
-6.861500 0.000000
-6.845300 0.000000
-6.829100 0.000000
-6.813000 0.000000
-6.796800 0.000000
-6.780600 0.000000
-6.764500 0.000000
-6.748300 0.000000
-6.732100 0.000000
-6.715900 0.000000
-6.699800 0.000000
-6.683600 0.000000
-6.667400 0.000000
-6.651300 0.000000
-6.635100 0.000000
-6.618900 0.000000
-6.602800 0.000000
-6.586600 0.000000
-6.570400 0.000000
-6.554300 0.000000
-6.538100 0.000000
-6.521900 0.000000
-6.505800 0.000000
-6.489600 0.000000
-6.473400 0.000000
-6.457300 0.000000
-6.441100 0.000000
-6.424900 0.000000
-6.408800 0.000000
-6.392600 0.000000
-6.376400 0.000000
-6.360300 0.000000
-6.344100 0.000000
-6.327900 0.000000
-6.311800 0.000000
-6.295600 0.000000
-6.279400 0.000000
-6.263300 0.000000
-6.247100 0.000000
-6.230900 0.000000
-6.214700 0.000000
-6.198600 0.000000
-6.182400 0.000000
-6.166200 0.000000
-6.150100 0.000000
-6.133900 0.000000
-6.117700 0.000000
-6.101600 0.000000
-6.085400 0.000000
-6.069200 0.000000
-6.053100 0.000000
-6.036900 0.000000
-6.020700 0.000000
-6.004600 0.000000
-5.988400 0.000000
-5.972200 0.000000
-5.956100 0.000000
-5.939900 0.000000
-5.923700 0.000000
-5.907600 0.000000
-5.891400 0.000000
-5.875200 0.000000
-5.859100 0.000000
-5.842900 0.000000
-5.826700 0.000000
-5.810600 0.000000
-5.794400 0.000000
-5.778200 0.000000
-5.762100 0.000000
-5.745900 0.000000
-5.729700 0.000000
-5.713500 0.000000
-5.697400 0.000000
-5.681200 0.000000
-5.665000 0.000000
-5.648900 0.000000
-5.632700 0.000000
-5.616500 0.000000
-5.600400 0.000000
-5.584200 0.000000
-5.568000 0.000000
-5.551900 0.000000
-5.535700 0.000000
-5.519500 0.000000
-5.503400 0.000000
-5.487200 0.000000
-5.471000 0.000000
-5.454900 0.000000
-5.438700 0.000000
-5.422500 0.000000
-5.406400 0.000000
-5.390200 0.000000
-5.374000 0.000000
-5.357900 0.000000
-5.341700 0.000000
-5.325500 0.000000
-5.309400 0.000000
-5.293200 0.000000
-5.277000 0.000000
-5.260800 0.000000
-5.244700 0.000000
-5.228500 0.000000
-5.212300 0.000000
-5.196200 0.000000
-5.180000 0.000000
-5.163800 0.000000
-5.147700 0.000000
-5.131500 0.000000
-5.115300 0.000000
-5.099200 0.000000
-5.083000 0.000000
-5.066800 0.000000
-5.050700 0.000000
-5.034500 0.000000
-5.018300 0.000000
-5.002200 0.000000
-4.986000 0.000000
-4.969800 0.000000
-4.953700 0.000000
-4.937500 0.000000
-4.921300 0.000000
-4.905200 0.000000
-4.889000 0.000000
-4.872800 0.000000
-4.856700 0.000000
-4.840500 0.000000
-4.824300 0.000000
-4.808200 0.000000
-4.792000 0.000000
-4.775800 0.000000
-4.759600 0.000000
-4.743500 0.000000
-4.727300 0.000000
-4.711100 0.000000
-4.695000 0.000000
-4.678800 0.000000
-4.662600 0.000000
-4.646500 0.000000
-4.630300 0.000000
-4.614100 0.000000
-4.598000 0.000000
-4.581800 0.000000
-4.565600 0.000000
-4.549500 0.000000
-4.533300 0.000000
-4.517100 0.000000
-4.501000 0.000000
-4.484800 0.000000
-4.468600 0.000000
-4.452500 0.000000
-4.436300 0.000000
-4.420100 0.000000
-4.404000 0.000000
-4.387800 0.000000
-4.371600 0.000000
-4.355500 0.000000
-4.339300 0.000000
-4.323100 0.000000
-4.307000 0.000000
-4.290800 0.000000
-4.274600 0.000000
-4.258400 0.000000
-4.242300 0.000000
-4.226100 0.000000
-4.209900 0.000000
-4.193800 0.000000
-4.177600 0.000000
-4.161400 0.000000
-4.145300 0.000000
-4.129100 0.000000
-4.112900 0.000000
-4.096800 0.000000
-4.080600 0.000000
-4.064400 0.000000
-4.048300 0.000000
-4.032100 0.000000
-4.015900 0.000000
-3.999800 0.000000
-3.983600 0.000000
-3.967400 0.000000
-3.951300 0.000000
-3.935100 0.000000
-3.918900 0.000000
-3.902800 0.000000
-3.886600 0.000000
-3.870400 0.000000
-3.854300 0.000000
-3.838100 0.000000
-3.821900 0.000000
-3.805800 0.000000
-3.789600 0.000000
-3.773400 0.000000
-3.757200 0.000000
-3.741100 0.000000
-3.724900 0.000000
-3.708700 0.000000
-3.692600 0.000000
-3.676400 0.000000
-3.660200 0.000000
-3.644100 0.000000
-3.627900 0.000000
-3.611700 0.000000
-3.595600 0.000000
-3.579400 0.000000
-3.563200 0.000000
-3.547100 0.000000
-3.530900 0.000000
-3.514700 0.000000
-3.498600 0.000000
-3.482400 0.000000
-3.466200 0.000000
-3.450100 0.000000
-3.433900 0.000000
-3.417700 0.000000
-3.401600 0.000000
-3.385400 0.000000
-3.369200 0.000000
-3.353100 0.000000
-3.336900 0.000000
-3.320700 0.000000
-3.304600 0.000000
-3.288400 0.000000
-3.272200 0.000000
-3.256000 0.000000
-3.239900 0.000000
-3.223700 0.250100
-3.207500 0.325200
-3.191400 0.624100
-3.175200 0.439700
-3.159000 0.722000
-3.142900 0.795900
-3.126700 1.088800
-3.110500 0.970600
-3.094400 0.907900
-3.078200 0.983400
-3.062000 0.701400
-3.045900 0.731900
-3.029700 0.762500
-3.013500 0.793100
-2.997400 0.823700
-2.981200 0.854300
-2.965000 0.884800
-2.948900 0.955800
-2.932700 1.021800
-2.916500 1.002800
-2.900400 1.003100
-2.884200 0.911200
-2.868000 0.862900
-2.851900 0.841900
-2.835700 0.844600
-2.819500 0.839200
-2.803300 0.834500
-2.787200 0.834900
-2.771000 0.834900
-2.754800 0.850100
-2.738700 0.865200
-2.722500 0.880300
-2.706300 0.895500
-2.690200 0.910600
-2.674000 0.946500
-2.657800 0.972200
-2.641700 0.983100
-2.625500 0.996500
-2.609300 0.965000
-2.593200 0.936500
-2.577000 0.913000
-2.560800 0.898800
-2.544700 0.893400
-2.528500 0.889400
-2.512300 0.890000
-2.496200 0.889400
-2.480000 0.896000
-2.463800 0.904400
-2.447700 0.912800
-2.431500 0.921300
-2.415300 0.929700
-2.399200 0.938100
-2.383000 0.946500
-2.366800 0.949900
-2.350700 0.955100
-2.334500 0.961200
-2.318300 0.966600
-2.302100 0.994400
-2.286000 0.996400
-2.269800 1.003700
-2.253600 0.982900
-2.237500 0.969200
-2.221300 0.962300
-2.205100 0.955600
-2.189000 0.949000
-2.172800 0.946600
-2.156600 0.948400
-2.140500 0.955200
-2.124300 0.962600
-2.108100 0.968800
-2.092000 0.975000
-2.075800 0.981200
-2.059600 0.988700
-2.043500 0.997100
-2.027300 1.005600
-2.011100 1.014100
-1.995000 1.018600
-1.978800 1.024800
-1.962600 1.030100
-1.946500 1.037800
-1.930300 1.046800
-1.914100 1.055800
-1.898000 1.082300
-1.881800 1.091400
-1.865600 1.096500
-1.849500 1.085300
-1.833300 1.080400
-1.817100 1.075600
-1.800900 1.070700
-1.784800 1.063200
-1.768600 1.062400
-1.752400 1.070800
-1.736300 1.082000
-1.720100 1.096700
-1.703900 1.112400
-1.687800 1.129300
-1.671600 1.146300
-1.655400 1.163400
-1.639300 1.180400
-1.623100 1.197400
-1.606900 1.214400
-1.590800 1.231400
-1.574600 1.248400
-1.558400 1.265200
-1.542300 2.705800
-1.526100 4.735400
-1.509900 2.993700
-1.493800 2.509600
-1.477600 2.550200
-1.461400 2.528700
-1.445300 2.753600
-1.429100 2.828300
-1.412900 2.955600
-1.396800 2.955000
-1.380600 3.000500
-1.364400 3.039800
-1.348300 3.099500
-1.332100 3.175700
-1.315900 3.342600
-1.299700 3.629000
-1.283600 3.394800
-1.267400 3.030100
-1.251200 2.999500
-1.235100 2.974100
-1.218900 2.943800
-1.202700 2.915200
-1.186600 2.893800
-1.170400 2.879600
-1.154200 2.892700
-1.138100 2.915100
-1.121900 2.936000
-1.105700 2.960900
-1.089600 3.003600
-1.073400 3.095500
-1.057200 3.153100
-1.041100 3.340400
-1.024900 3.104900
-1.008700 2.906900
-0.992600 2.749400
-0.976400 2.746200
-0.960200 2.756100
-0.944100 2.766300
-0.927900 2.820200
-0.911700 2.955500
-0.895600 2.746700
-0.879400 2.527500
-0.863200 2.378900
-0.847100 2.202200
-0.830900 2.164000
-0.814700 2.164300
-0.798500 2.205600
-0.782400 2.207200
-0.766200 2.151000
-0.750000 2.114100
-0.733900 2.105700
-0.717700 2.170600
-0.701500 2.287600
-0.685400 2.237400
-0.669200 2.171400
-0.653000 2.075300
-0.636900 2.199900
-0.620700 1.872100
-0.604500 1.891900
-0.588400 1.911600
-0.572200 1.931300
-0.556000 1.951900
-0.539900 2.858800
-0.523700 2.175000
-0.507500 2.257300
-0.491400 2.316300
-0.475200 2.370500
-0.459000 2.425600
-0.442900 2.495200
-0.426700 2.639400
-0.410500 2.686900
-0.394400 2.734000
-0.378200 2.774100
-0.362000 2.796000
-0.345800 2.888600
-0.329700 3.040500
-0.313500 3.128800
-0.297300 3.263600
-0.281200 3.280700
-0.265000 3.247600
-0.248800 3.247000
-0.232700 3.198800
-0.216500 3.078300
-0.200300 3.095800
-0.184200 3.140500
-0.168000 3.201700
-0.151800 3.258000
-0.135700 3.311500
-0.119500 3.376000
-0.103300 3.443500
-0.087200 3.514000
-0.071000 3.587300
-0.054800 3.730700
-0.038700 3.923200
-0.022500 4.021400
-0.006300 4.112300
0.009800 4.152200
0.026000 4.282700
0.042200 4.297500
0.058300 4.298500
0.074500 4.217200
0.090700 4.082000
0.106800 4.889700
0.123000 4.617500
0.139200 4.045700
0.155400 3.826400
0.171500 3.064600
0.187700 2.749400
0.203900 3.148900
0.220000 3.396800
0.236200 3.531400
0.252400 3.707500
0.268500 3.885700
0.284700 4.183400
0.300900 4.487700
0.317000 4.758300
0.333200 4.983900
0.349400 5.207400
0.365500 5.275400
0.381700 5.315700
0.397900 5.567300
0.414000 5.177100
0.430200 4.939800
0.446400 5.250700
0.462500 5.137500
0.478700 5.420300
0.494900 5.757200
0.511000 6.179300
0.527200 6.624600
0.543400 6.678800
0.559500 6.567900
0.575700 6.761000
0.591900 7.030700
0.608000 6.875700
0.624200 6.519700
0.640400 6.413200
0.656600 6.051300
0.672700 5.651800
0.688900 5.976000
0.705100 5.075400
0.721200 4.893300
0.737400 4.739300
0.753600 4.563300
0.769700 4.428200
0.785900 4.304100
0.802100 4.136800
0.818200 3.997200
0.834400 3.936100
0.850600 3.873700
0.866700 4.135000
0.882900 4.637300
0.899100 3.333800
0.915200 3.203700
0.931400 3.140800
0.947600 3.142200
0.963700 3.140000
0.979900 3.072300
0.996100 2.919400
1.012200 2.773600
1.028400 2.723400
1.044600 2.757600
1.060700 2.682900
1.076900 2.417900
1.093100 2.372900
1.109200 2.377100
1.125400 2.396500
1.141600 2.419500
1.157800 2.516800
1.173900 2.605600
1.190100 2.691500
1.206300 2.759800
1.222400 2.878400
1.238600 3.012200
1.254800 3.188000
1.270900 3.371600
1.287100 3.676800
1.303300 4.120600
1.319400 4.477700
1.335600 4.870200
1.351800 5.201800
1.367900 5.561800
1.384100 5.857400
1.400300 5.599200
1.416400 5.222700
1.432600 5.056300
1.448800 4.952400
1.464900 4.910700
1.481100 4.958700
1.497300 5.090100
1.513400 5.331700
1.529600 5.884500
1.545800 6.144800
1.561900 6.236400
1.578100 6.465900
1.594300 6.727600
1.610400 7.147100
1.626600 8.137500
1.642800 7.944200
1.659000 6.920900
1.675100 7.036800
1.691300 7.452500
1.707500 7.637800
1.723600 7.605900
1.739800 7.697700
1.756000 7.902300
1.772100 8.924600
1.788300 8.676500
1.804500 9.190600
1.820600 7.941900
1.836800 7.484800
1.853000 7.406600
1.869100 7.164800
1.885300 6.031900
1.901500 5.983200
1.917600 4.931400
1.933800 6.805600
1.950000 6.687300
1.966100 7.680500
1.982300 7.284700
1.998500 7.295900
2.014600 7.241000
2.030800 7.376900
2.047000 7.336800
2.063100 7.458900
2.079300 7.116100
2.095500 7.479200
2.111600 8.148500
2.127800 8.444900
2.144000 8.469900
2.160200 8.167900
2.176300 7.608400
2.192500 7.065200
2.208700 6.595000
2.224800 6.444700
2.241000 6.276900
2.257200 6.007300
2.273300 5.705600
2.289500 5.474200
2.305700 5.433200
2.321800 5.486300
2.338000 5.574100
2.354200 5.799700
2.370300 6.072400
2.386500 5.706700
2.402700 5.477200
2.418800 5.252300
2.435000 4.491900
2.451200 3.855300
2.467300 3.396400
2.483500 3.049700
2.499700 2.823900
2.515800 2.818300
2.532000 2.844100
2.548200 2.926300
2.564300 3.040400
2.580500 3.741800
2.596700 3.635900
2.612900 3.826200
2.629000 3.919000
2.645200 3.965100
2.661400 3.943400
2.677500 3.776700
2.693700 3.811800
2.709900 3.825100
2.726000 3.804800
2.742200 3.777500
2.758400 3.753400
2.774500 3.722200
2.790700 3.689300
2.806900 3.821200
2.823000 3.750700
2.839200 3.522600
2.855400 3.463200
2.871500 3.461800
2.887700 3.500500
2.903900 3.360000
2.920000 3.275700
2.936200 3.235800
2.952400 3.166500
2.968500 3.088500
2.984700 2.996800
3.000900 2.924000
3.017000 2.798300
3.033200 3.194900
3.049400 3.360700
3.065500 2.920000
3.081700 2.480300
3.097900 1.797200
3.114100 1.324300
3.130200 1.223600
3.146400 1.164500
3.162600 1.103500
3.178700 1.041000
3.194900 0.943500
3.211100 0.905400
3.227200 0.901500
3.243400 0.897500
3.259600 0.893500
3.275700 0.887500
3.291900 0.881300
3.308100 0.873400
3.324200 0.871300
3.340400 0.869100
3.356600 0.866800
3.372700 0.864300
3.388900 0.861500
3.405100 0.858300
3.421200 0.854900
3.437400 0.851100
3.453600 0.847000
3.469700 0.842400
3.485900 0.836200
3.502100 0.827900
3.518200 0.819500
3.534400 0.811700
3.550600 0.804500
3.566700 0.798200
3.582900 0.793000
3.599100 0.790800
3.615300 0.788500
3.631400 0.786300
3.647600 0.784100
3.663800 0.781800
3.679900 0.779600
3.696100 0.777400
3.712300 0.775100
3.728400 0.772900
3.744600 0.770600
3.760800 0.768400
3.776900 0.766200
3.793100 0.764300
3.809300 0.763200
3.825400 0.761600
3.841600 0.760100
3.857800 0.759700
3.873900 0.759500
3.890100 0.759300
3.906300 0.759100
3.922400 0.759000
3.938600 0.759300
3.954800 0.759800
3.970900 0.760300
3.987100 0.760900
4.003300 0.761500
4.019400 0.762000
4.035600 0.762500
4.051800 0.763100
4.067900 0.763600
4.084100 0.764100
4.100300 0.764600
4.116500 0.765300
4.132600 0.766300
4.148800 0.768300
4.165000 0.770100
4.181100 0.771800
4.197300 0.773200
4.213500 0.774600
4.229600 0.776100
4.245800 0.777500
4.262000 0.778900
4.278100 0.780400
4.294300 0.781800
4.310500 0.783200
4.326600 0.784600
4.342800 0.786100
4.359000 0.787500
4.375100 0.788900
4.391300 0.790400
4.407500 0.792000
4.423600 0.793800
4.439800 0.801300
4.456000 0.818500
4.472100 0.823300
4.488300 0.824500
4.504500 0.825700
4.520600 0.828300
4.536800 0.833000
4.553000 0.839400
4.569100 0.845700
4.585300 0.852100
4.601500 0.858400
4.617700 0.864800
4.633800 0.871100
4.650000 0.877400
4.666200 0.883900
4.682300 0.890400
4.698500 0.896900
4.714700 0.903400
4.730800 0.910100
4.747000 0.916800
4.763200 0.923600
4.779300 0.930300
4.795500 0.937100
4.811700 0.943800
4.827800 0.950600
4.844000 0.957300
4.860200 0.964100
4.876300 0.970800
4.892500 0.977600
4.908700 0.985300
4.924800 1.052800
4.941000 1.175900
4.957200 1.245700
4.973300 1.247400
4.989500 1.249100
5.005700 1.250800
5.021800 1.252500
5.038000 1.378700
5.054200 1.428600
5.070400 1.377300
5.086500 1.326100
5.102700 1.262500
5.118900 1.169900
5.135000 1.077200
5.151200 0.985800
5.167400 0.969400
5.183500 0.957900
5.199700 0.946900
5.215900 0.936800
5.232000 0.926600
5.248200 1.167200
5.264400 1.071800
5.280500 0.977400
5.296700 0.891100
5.312900 0.834000
5.329000 0.827300
5.345200 0.820600
5.361400 0.813900
5.377500 0.807200
5.393700 0.799900
5.409900 0.793000
5.426000 0.788100
5.442200 0.785300
5.458400 0.784500
5.474500 0.785700
5.490700 0.787800
5.506900 1.290000
5.523000 1.035500
5.539200 0.785100
5.555400 0.783100
5.571600 0.786800
5.587700 0.788400
5.603900 0.787900
5.620100 0.786000
5.636200 0.784000
5.652400 0.781900
5.668600 0.779500
5.684700 0.777000
5.700900 0.775000
5.717100 0.773600
5.733200 0.772600
5.749400 0.771900
5.765600 0.771100
5.781700 0.770000
5.797900 0.790400
5.814100 1.411600
5.830200 0.785000
5.846400 0.784700
5.862600 0.784600
5.878700 0.784800
5.894900 0.785300
5.911100 0.786100
5.927200 0.786900
5.943400 0.791100
5.959600 0.832000
5.975700 0.833300
5.991900 0.833600
6.008100 0.833000
6.024200 0.831600
6.040400 0.829800
6.056600 0.826000
6.072800 0.817800
6.088900 0.810100
6.105100 1.326700
6.121300 0.871200
6.137400 0.790800
6.153600 0.779900
6.169800 0.769200
6.185900 0.759600
6.202100 0.750800
6.218300 0.742700
6.234400 0.736700
6.250600 0.733000
6.266800 0.731600
6.282900 0.732500
6.299100 0.734600
6.315300 1.183200
6.331400 1.102000
6.347600 1.032500
6.363800 0.964900
6.379900 0.901200
6.396100 9.459300
6.412300 0.830700
6.428400 0.817400
6.444600 0.809900
6.460800 0.801800
6.476900 0.793700
6.493100 0.783800
6.509300 0.773400
6.525400 0.762500
6.541600 0.603800
6.557800 0.613900
6.574000 0.622500
6.590100 0.629300
6.606300 0.634000
6.622500 0.639400
6.638600 0.645400
6.654800 0.652100
6.671000 0.672900
6.687100 0.709800
6.703300 0.749500
6.719500 0.791300
6.735600 0.866000
6.751800 0.935500
6.768000 0.969700
6.784100 1.000200
6.800300 1.022700
6.816500 1.048100
6.832600 1.078900
6.848800 1.113600
6.865000 1.151800
6.881100 1.191900
6.897300 1.239000
6.913500 1.326200
6.929600 1.411100
6.945800 1.514900
6.962000 1.577100
6.978100 1.667400
6.994300 1.759600
7.010500 1.858900
7.026600 1.980500
7.042800 2.105700
7.059000 2.214500
7.075200 2.306100
7.091300 2.397100
7.107500 2.486000
7.123700 2.564600
7.139800 2.650500
7.156000 2.769100
7.172200 2.748900
7.188300 2.759300
7.204500 2.859900
7.220700 2.922100
7.236800 3.036700
7.253000 3.129300
7.269200 3.269200
7.285300 3.394300
7.301500 3.552700
7.317700 3.696600
7.333800 3.839900
7.350000 4.006800
7.366200 4.207400
7.382300 4.443300
7.398500 4.680300
7.414700 4.893900
7.430800 5.161500
7.447000 5.441900
7.463200 5.390700
7.479300 5.662100
7.495500 5.873200
7.511700 6.021700
7.527900 6.164800
7.544000 6.220600
7.560200 6.272200
7.576400 6.313100
7.592500 6.044200
7.608700 5.809200
7.624900 5.607400
7.641000 5.457000
7.657200 5.129400
7.673400 5.181700
7.689500 5.095900
7.705700 5.079500
7.721900 5.159300
7.738000 5.181100
7.754200 5.113100
7.770400 5.189500
7.786500 5.324100
7.802700 5.489700
7.818900 5.528900
7.835000 5.606600
7.851200 5.572100
7.867400 5.725600
7.883500 5.906100
7.899700 6.010300
7.915900 5.847100
7.932000 5.839700
7.948200 5.960200
7.964400 6.130700
7.980500 6.295100
7.996700 6.394900
8.012900 6.503100
8.029100 7.172900
8.045200 6.764300
8.061400 6.539000
8.077600 6.247100
8.093700 6.038400
8.109900 5.912900
8.126100 5.871200
8.142200 5.611400
8.158400 5.523500
8.174600 5.694900
8.190700 5.286700
8.206900 5.177800
8.223100 5.097000
8.239200 5.122800
8.255400 5.100600
8.271600 4.941200
8.287700 4.776300
8.303900 4.621500
8.320100 4.608500
8.336200 4.585200
8.352400 4.666400
8.368600 4.876000
8.384700 4.323100
8.400900 4.054800
8.417100 4.126500
8.433200 4.183000
8.449400 4.204800
8.465600 4.236100
8.481700 4.275500
8.497900 4.335000
8.514100 4.403200
8.530300 4.535300
8.546400 5.025600
8.562600 5.357700
8.578800 5.362000
8.594900 5.401500
8.611100 5.669700
8.627300 5.345800
8.643400 4.978300
8.659600 4.887100
8.675800 4.868800
8.691900 5.014500
8.708100 5.028700
8.724300 4.859100
8.740400 4.599000
8.756600 4.505400
8.772800 4.637600
8.788900 4.787400
8.805100 5.235000
8.821300 5.557200
8.837400 5.654400
8.853600 5.770100
8.869800 5.697700
8.885900 5.608900
8.902100 5.466900
8.918300 5.619700
8.934400 5.596000
8.950600 5.586900
8.966800 5.598900
8.982900 5.608000
8.999100 5.548600
9.015300 5.501100
9.031500 5.398700
9.047600 5.280800
9.063800 5.307400
9.080000 5.442400
9.096100 5.652100
9.112300 5.899700
9.128500 6.076100
9.144600 6.237800
9.160800 6.322500
9.177000 6.331400
9.193100 6.283700
9.209300 6.032000
9.225500 5.774600
9.241600 5.826900
9.257800 6.006400
9.274000 6.201900
9.290100 6.248300
9.306300 6.274600
9.322500 6.291700
9.338600 6.387000
9.354800 6.467400
9.371000 6.660300
9.387100 6.950300
9.403300 7.065000
9.419500 6.973900
9.435600 6.892100
9.451800 6.713600
9.468000 6.641100
9.484100 6.566000
9.500300 6.685100
9.516500 6.726600
9.532700 6.640200
9.548800 6.674000
9.565000 6.653700
9.581200 6.659500
9.597300 6.658200
9.613500 6.567300
9.629700 6.404400
9.645800 5.801800
9.662000 5.636300
9.678200 5.592400
9.694300 5.584100
9.710500 5.658900
9.726700 5.878800
9.742800 6.145500
9.759000 6.570200
9.775200 6.682200
9.791300 6.525000
9.807500 6.246000
9.823700 5.875900
9.839800 5.334800
9.856000 5.060500
9.872200 5.052800
9.888300 4.929900
9.904500 4.704300
9.920700 4.664700
9.936800 4.473100
9.953000 4.383900
9.969200 4.321700
9.985400 4.252300
10.001500 4.183300
10.017700 4.142300
10.033900 4.103800
10.050000 4.063600
10.066200 3.940300
10.082400 3.881500
10.098500 3.877900
10.114700 3.907600
10.130900 3.964200
10.147000 4.029600
10.163200 3.989500
10.179400 4.025400
10.195500 4.120800
10.211700 4.679900
10.227900 4.921100
10.244000 4.748300
10.260200 4.820200
10.276400 4.874100
10.292500 5.182300
10.308700 5.206100
10.324900 5.127600
10.341000 4.890600
10.357200 4.908200
10.373400 4.857200
10.389500 4.612000
10.405700 4.458500
10.421900 4.379500
10.438000 4.322000
10.454200 3.794600
10.470400 3.322000
10.486600 3.130000
10.502700 3.039200
10.518900 3.007600
10.535100 3.962000
10.551200 4.014600
10.567400 3.867600
10.583600 3.668900
10.599700 3.868400
10.615900 3.785800
10.632100 3.655500
10.648200 3.726600
10.664400 3.588400
10.680600 3.404700
10.696700 3.233300
10.712900 3.028600
10.729100 2.773700
10.745200 2.471200
10.761400 2.239000
10.777600 2.085500
10.793700 1.912600
10.809900 1.733100
10.826100 1.585400
10.842200 1.437400
10.858400 1.329400
10.874600 1.247000
10.890700 1.054900
10.906900 0.972300
10.923100 0.893400
10.939200 0.776000
10.955400 0.751600
10.971600 0.728800
10.987800 0.706700
11.003900 0.682700
11.020100 0.661200
11.036300 0.640600
11.052400 0.712200
11.068600 0.660700
11.084800 0.613500
11.100900 0.501400
11.117100 0.477000
11.133300 0.453000
11.149400 0.429400
11.165600 0.406200
11.181800 0.383400
11.197900 0.361900
11.214100 0.342600
11.230300 0.403400
11.246400 0.356300
11.262600 0.311500
11.278800 0.169900
11.294900 0.159500
11.311100 0.248400
11.327300 0.168100
11.343400 0.000000
11.359600 0.000000
11.375800 0.000000
11.391900 0.000000
11.408100 0.000000
11.424300 0.000000
11.440400 0.000000
11.456600 0.000000
11.472800 0.000000
11.489000 0.000000
11.505100 0.000000
11.521300 0.000000
11.537500 0.000000
11.553600 0.000000
11.569800 0.000000
11.586000 0.000000
11.602100 0.000000
11.618300 0.000000
11.634500 0.000000
11.650600 0.000000
11.666800 0.000000
11.683000 0.000000
11.699100 0.000000
11.715300 0.000000
11.731500 0.000000
11.747600 0.000000
11.763800 0.000000
11.780000 0.000000
11.796100 0.000000
11.812300 0.000000
11.828500 0.000000
11.844600 0.000000
11.860800 0.000000
11.877000 0.000000
11.893100 0.000000
11.909300 0.000000
11.925500 0.000000
11.941600 0.000000
11.957800 0.000000
11.974000 0.000000
11.990200 0.000000
12.006300 0.000000
12.022500 0.000000
12.038700 0.000000
12.054800 0.000000
12.071000 0.000000
12.087200 0.000000
12.103300 0.000000
12.119500 0.000000
12.135700 0.000000
12.151800 0.000000
12.168000 0.000000
12.184200 0.000000
12.200300 0.000000
12.216500 0.000000
12.232700 0.000000
12.248800 0.000000
12.265000 0.000000
12.281200 0.000000
12.297300 0.000000
12.313500 0.000000
12.329700 0.000000
12.345800 0.000000
12.362000 0.000000
12.378200 0.000000
12.394300 0.000000
12.410500 0.000000
12.426700 0.000000
12.442800 0.000000
12.459000 0.000000
12.475200 0.000000
12.491400 0.000000
12.507500 0.000000
12.523700 0.000000
12.539900 0.000000
12.556000 0.000000
12.572200 0.000000
12.588400 0.000000
12.604500 0.000000
12.620700 0.000000
12.636900 0.000000
12.653000 0.000000
12.669200 0.000000
12.685400 0.000000
12.701500 0.000000
12.717700 0.000000
12.733900 0.000000
12.750000 0.000000
12.766200 0.000000
12.782400 0.000000
12.798500 0.000000
e
