set title 'mp-1184938 - Density of States'
set xlabel 'Energy (eV)'
set ylabel 'DOS (states/eV)'
set grid
set xrange [-10:10]
set yrange [0:3.917]
set xzeroaxis lt -1
set terminal png size 800,600
set output 'mp-1184938_dos_gnuplot.png'
plot '-' using 1:2 with lines title 'DOS'
-33.743800 0.000000
-33.702600 0.000000
-33.661300 0.000000
-33.620100 0.000000
-33.578900 0.000000
-33.537700 0.000000
-33.496500 0.000000
-33.455300 0.000000
-33.414100 0.000000
-33.372800 0.000000
-33.331600 0.000000
-33.290400 0.000000
-33.249200 0.000000
-33.208000 0.000000
-33.166800 0.000000
-33.125500 0.000000
-33.084300 0.000000
-33.043100 0.000000
-33.001900 0.000000
-32.960700 0.000000
-32.919500 0.000000
-32.878300 0.000000
-32.837000 0.000000
-32.795800 0.000000
-32.754600 0.000000
-32.713400 0.000000
-32.672200 0.000000
-32.631000 0.000000
-32.589700 0.000000
-32.548500 0.000000
-32.507300 0.000000
-32.466100 0.000000
-32.424900 0.000000
-32.383700 0.000000
-32.342400 0.000000
-32.301200 0.000000
-32.260000 0.000000
-32.218800 0.000000
-32.177600 0.000000
-32.136400 0.000000
-32.095200 0.000000
-32.053900 0.000000
-32.012700 0.000000
-31.971500 0.000000
-31.930300 0.000000
-31.889100 0.000000
-31.847900 0.000000
-31.806600 0.000000
-31.765400 0.000000
-31.724200 0.000000
-31.683000 0.000000
-31.641800 0.000000
-31.600600 0.000000
-31.559400 0.000000
-31.518100 0.000000
-31.476900 0.000000
-31.435700 0.000000
-31.394500 0.000000
-31.353300 0.000000
-31.312100 0.000000
-31.270800 0.000000
-31.229600 0.000000
-31.188400 0.000000
-31.147200 0.000000
-31.106000 0.000000
-31.064800 0.000000
-31.023500 0.000000
-30.982300 0.000000
-30.941100 0.000000
-30.899900 0.000000
-30.858700 0.000000
-30.817500 0.000000
-30.776300 0.000000
-30.735000 0.000000
-30.693800 0.000000
-30.652600 0.000000
-30.611400 0.000000
-30.570200 0.000000
-30.529000 0.000000
-30.487700 0.000000
-30.446500 0.000000
-30.405300 0.000000
-30.364100 0.000000
-30.322900 0.000000
-30.281700 0.000000
-30.240500 0.000000
-30.199200 0.000000
-30.158000 0.000000
-30.116800 0.000000
-30.075600 0.000000
-30.034400 0.000000
-29.993200 6.319300
-29.951900 0.000000
-29.910700 0.000000
-29.869500 0.000000
-29.828300 0.000000
-29.787100 0.000000
-29.745900 0.000000
-29.704600 0.000000
-29.663400 0.000000
-29.622200 0.000000
-29.581000 0.000000
-29.539800 0.000000
-29.498600 0.000000
-29.457400 0.000000
-29.416100 0.000000
-29.374900 0.000000
-29.333700 0.000000
-29.292500 0.000000
-29.251300 0.000000
-29.210100 0.000000
-29.168800 0.000000
-29.127600 0.000000
-29.086400 0.000000
-29.045200 0.000000
-29.004000 0.000000
-28.962800 0.000000
-28.921600 0.000000
-28.880300 0.000000
-28.839100 0.000000
-28.797900 0.000000
-28.756700 0.000000
-28.715500 0.000000
-28.674300 0.000000
-28.633000 0.000000
-28.591800 0.000000
-28.550600 0.000000
-28.509400 0.000000
-28.468200 0.000000
-28.427000 0.000000
-28.385700 0.000000
-28.344500 0.000000
-28.303300 0.000000
-28.262100 0.000000
-28.220900 0.000000
-28.179700 0.000000
-28.138500 0.000000
-28.097200 0.000000
-28.056000 0.000000
-28.014800 0.000000
-27.973600 0.000000
-27.932400 0.000000
-27.891200 0.000000
-27.849900 0.000000
-27.808700 0.000000
-27.767500 0.000000
-27.726300 0.000000
-27.685100 0.000000
-27.643900 0.000000
-27.602700 0.000000
-27.561400 0.000000
-27.520200 0.000000
-27.479000 0.000000
-27.437800 0.000000
-27.396600 0.000000
-27.355400 0.000000
-27.314100 0.000000
-27.272900 0.000000
-27.231700 0.000000
-27.190500 0.000000
-27.149300 0.000000
-27.108100 0.000000
-27.066800 0.000000
-27.025600 0.000000
-26.984400 0.000000
-26.943200 0.000000
-26.902000 0.000000
-26.860800 0.000000
-26.819600 0.000000
-26.778300 0.000000
-26.737100 0.000000
-26.695900 0.000000
-26.654700 0.000000
-26.613500 0.000000
-26.572300 0.000000
-26.531000 0.000000
-26.489800 0.000000
-26.448600 0.000000
-26.407400 0.000000
-26.366200 0.000000
-26.325000 0.000000
-26.283800 0.000000
-26.242500 0.000000
-26.201300 0.000000
-26.160100 0.000000
-26.118900 0.000000
-26.077700 0.000000
-26.036500 0.000000
-25.995200 0.000000
-25.954000 0.000000
-25.912800 0.000000
-25.871600 0.000000
-25.830400 0.000000
-25.789200 0.000000
-25.747900 0.000000
-25.706700 0.000000
-25.665500 0.000000
-25.624300 0.000000
-25.583100 0.000000
-25.541900 0.000000
-25.500700 0.000000
-25.459400 0.000000
-25.418200 0.000000
-25.377000 0.000000
-25.335800 0.000000
-25.294600 0.000000
-25.253400 0.000000
-25.212100 0.000000
-25.170900 0.000000
-25.129700 0.000000
-25.088500 0.000000
-25.047300 0.000000
-25.006100 0.000000
-24.964900 0.000000
-24.923600 0.000000
-24.882400 0.000000
-24.841200 0.000000
-24.800000 0.000000
-24.758800 0.000000
-24.717600 0.000000
-24.676300 0.000000
-24.635100 0.000000
-24.593900 0.000000
-24.552700 0.000000
-24.511500 0.000000
-24.470300 0.000000
-24.429000 0.000000
-24.387800 0.000000
-24.346600 0.000000
-24.305400 0.000000
-24.264200 0.000000
-24.223000 0.000000
-24.181800 0.000000
-24.140500 0.000000
-24.099300 0.000000
-24.058100 0.000000
-24.016900 0.000000
-23.975700 0.000000
-23.934500 0.000000
-23.893200 0.000000
-23.852000 0.000000
-23.810800 0.000000
-23.769600 0.000000
-23.728400 0.000000
-23.687200 0.000000
-23.646000 0.000000
-23.604700 0.000000
-23.563500 0.000000
-23.522300 0.000000
-23.481100 0.000000
-23.439900 0.000000
-23.398700 0.000000
-23.357400 0.000000
-23.316200 0.000000
-23.275000 0.000000
-23.233800 0.000000
-23.192600 0.000000
-23.151400 0.000000
-23.110100 0.000000
-23.068900 0.000000
-23.027700 0.000000
-22.986500 0.000000
-22.945300 0.000000
-22.904100 0.000000
-22.862900 0.000000
-22.821600 0.000000
-22.780400 0.000000
-22.739200 0.000000
-22.698000 0.000000
-22.656800 0.000000
-22.615600 0.000000
-22.574300 0.000000
-22.533100 0.000000
-22.491900 0.000000
-22.450700 0.000000
-22.409500 0.000000
-22.368300 0.000000
-22.327000 0.000000
-22.285800 0.000000
-22.244600 0.000000
-22.203400 0.000000
-22.162200 0.000000
-22.121000 0.000000
-22.079800 0.000000
-22.038500 0.000000
-21.997300 0.000000
-21.956100 0.000000
-21.914900 0.000000
-21.873700 0.000000
-21.832500 0.000000
-21.791200 0.000000
-21.750000 0.000000
-21.708800 0.000000
-21.667600 0.000000
-21.626400 0.000000
-21.585200 0.000000
-21.544000 0.000000
-21.502700 0.000000
-21.461500 0.000000
-21.420300 0.000000
-21.379100 0.000000
-21.337900 0.000000
-21.296700 0.000000
-21.255400 0.000000
-21.214200 0.000000
-21.173000 0.000000
-21.131800 0.000000
-21.090600 0.000000
-21.049400 0.000000
-21.008100 0.000000
-20.966900 0.000000
-20.925700 0.000000
-20.884500 0.000000
-20.843300 0.000000
-20.802100 0.000000
-20.760900 0.000000
-20.719600 0.000000
-20.678400 0.000000
-20.637200 0.000000
-20.596000 0.000000
-20.554800 0.000000
-20.513600 0.000000
-20.472300 0.000000
-20.431100 0.000000
-20.389900 0.000000
-20.348700 0.000000
-20.307500 0.000000
-20.266300 0.000000
-20.225100 0.000000
-20.183800 0.000000
-20.142600 0.000000
-20.101400 0.000000
-20.060200 0.000000
-20.019000 0.000000
-19.977800 0.000000
-19.936500 0.000000
-19.895300 0.000000
-19.854100 0.000000
-19.812900 0.000000
-19.771700 0.000000
-19.730500 0.000000
-19.689200 0.000000
-19.648000 0.000000
-19.606800 0.000000
-19.565600 0.000000
-19.524400 0.000000
-19.483200 0.000000
-19.442000 0.000000
-19.400700 0.000000
-19.359500 0.000000
-19.318300 0.000000
-19.277100 0.000000
-19.235900 0.000000
-19.194700 0.000000
-19.153400 0.000000
-19.112200 0.000000
-19.071000 0.000000
-19.029800 0.000000
-18.988600 0.000000
-18.947400 0.000000
-18.906200 0.000000
-18.864900 0.000000
-18.823700 0.000000
-18.782500 0.000000
-18.741300 0.000000
-18.700100 0.000000
-18.658900 0.000000
-18.617600 0.000000
-18.576400 0.000000
-18.535200 0.000000
-18.494000 0.000000
-18.452800 0.000000
-18.411600 0.000000
-18.370300 0.000000
-18.329100 0.000000
-18.287900 0.000000
-18.246700 0.000000
-18.205500 0.000000
-18.164300 0.000000
-18.123100 0.000000
-18.081800 0.000000
-18.040600 0.000000
-17.999400 0.000000
-17.958200 0.000000
-17.917000 0.000000
-17.875800 0.000000
-17.834500 0.000000
-17.793300 0.000000
-17.752100 0.000000
-17.710900 0.000000
-17.669700 0.000000
-17.628500 0.000000
-17.587300 0.000000
-17.546000 0.000000
-17.504800 0.000000
-17.463600 0.000000
-17.422400 0.000000
-17.381200 0.000000
-17.340000 0.000000
-17.298700 0.000000
-17.257500 0.000000
-17.216300 0.000000
-17.175100 0.000000
-17.133900 0.000000
-17.092700 0.000000
-17.051400 0.000000
-17.010200 0.000000
-16.969000 0.000000
-16.927800 0.000000
-16.886600 0.000000
-16.845400 0.000000
-16.804200 0.000000
-16.762900 0.000000
-16.721700 0.000000
-16.680500 0.000000
-16.639300 0.000000
-16.598100 0.000000
-16.556900 0.000000
-16.515600 0.000000
-16.474400 0.000000
-16.433200 0.000000
-16.392000 0.000000
-16.350800 0.000000
-16.309600 0.000000
-16.268400 0.000000
-16.227100 0.000000
-16.185900 0.000000
-16.144700 0.000000
-16.103500 0.000000
-16.062300 0.000000
-16.021100 0.000000
-15.979800 0.000000
-15.938600 0.000000
-15.897400 0.000000
-15.856200 0.000000
-15.815000 0.000000
-15.773800 0.000000
-15.732500 0.000000
-15.691300 0.000000
-15.650100 0.000000
-15.608900 0.000000
-15.567700 0.000000
-15.526500 0.000000
-15.485300 0.000000
-15.444000 0.000000
-15.402800 0.000000
-15.361600 0.000000
-15.320400 0.000000
-15.279200 0.000000
-15.238000 0.000000
-15.196700 0.000000
-15.155500 0.000000
-15.114300 0.000000
-15.073100 0.000000
-15.031900 0.000000
-14.990700 0.000000
-14.949500 0.000000
-14.908200 0.000000
-14.867000 0.000000
-14.825800 0.000000
-14.784600 0.000000
-14.743400 0.000000
-14.702200 0.000000
-14.660900 0.000000
-14.619700 0.000000
-14.578500 0.000000
-14.537300 0.000000
-14.496100 0.000000
-14.454900 0.000000
-14.413600 0.000000
-14.372400 0.000000
-14.331200 0.000000
-14.290000 0.000000
-14.248800 0.000000
-14.207600 0.000000
-14.166400 0.000000
-14.125100 0.000000
-14.083900 0.000000
-14.042700 0.000000
-14.001500 0.000000
-13.960300 0.000000
-13.919100 0.000000
-13.877800 0.000000
-13.836600 0.000000
-13.795400 0.000000
-13.754200 4.614000
-13.713000 10.719600
-13.671800 4.518000
-13.630600 6.754300
-13.589300 8.041100
-13.548100 14.483800
-13.506900 23.842500
-13.465700 1.554700
-13.424500 0.000000
-13.383300 0.000000
-13.342000 0.000000
-13.300800 0.000000
-13.259600 0.000000
-13.218400 0.000000
-13.177200 0.000000
-13.136000 0.000000
-13.094700 0.000000
-13.053500 0.000000
-13.012300 0.000000
-12.971100 0.000000
-12.929900 0.000000
-12.888700 0.000000
-12.847500 0.000000
-12.806200 0.000000
-12.765000 0.000000
-12.723800 0.000000
-12.682600 0.000000
-12.641400 0.000000
-12.600200 0.000000
-12.558900 0.000000
-12.517700 0.000000
-12.476500 0.000000
-12.435300 0.000000
-12.394100 0.000000
-12.352900 0.000000
-12.311700 0.000000
-12.270400 0.000000
-12.229200 0.000000
-12.188000 0.000000
-12.146800 0.000000
-12.105600 0.000000
-12.064400 0.000000
-12.023100 0.000000
-11.981900 0.000000
-11.940700 0.000000
-11.899500 0.000000
-11.858300 0.000000
-11.817100 0.000000
-11.775800 0.000000
-11.734600 0.000000
-11.693400 0.000000
-11.652200 0.000000
-11.611000 0.000000
-11.569800 0.000000
-11.528600 0.000000
-11.487300 0.000000
-11.446100 0.000000
-11.404900 0.000000
-11.363700 0.000000
-11.322500 0.000000
-11.281300 0.000000
-11.240000 0.000000
-11.198800 0.000000
-11.157600 0.000000
-11.116400 0.000000
-11.075200 0.000000
-11.034000 0.000000
-10.992800 0.000000
-10.951500 0.000000
-10.910300 0.000000
-10.869100 0.000000
-10.827900 0.000000
-10.786700 0.000000
-10.745500 0.000000
-10.704200 0.000000
-10.663000 0.000000
-10.621800 0.000000
-10.580600 0.000000
-10.539400 0.000000
-10.498200 0.000000
-10.456900 0.000000
-10.415700 0.000000
-10.374500 0.000000
-10.333300 0.000000
-10.292100 0.000000
-10.250900 0.000000
-10.209700 0.000000
-10.168400 0.000000
-10.127200 0.000000
-10.086000 0.000000
-10.044800 0.000000
-10.003600 0.000000
-9.962400 0.000000
-9.921100 0.000000
-9.879900 0.000000
-9.838700 0.000000
-9.797500 0.000000
-9.756300 0.000000
-9.715100 0.000000
-9.673900 0.000000
-9.632600 0.000000
-9.591400 0.000000
-9.550200 0.000000
-9.509000 0.000000
-9.467800 0.000000
-9.426600 0.000000
-9.385300 0.000000
-9.344100 0.000000
-9.302900 0.000000
-9.261700 0.000000
-9.220500 0.000000
-9.179300 0.000000
-9.138000 0.000000
-9.096800 0.000000
-9.055600 0.000000
-9.014400 0.000000
-8.973200 0.000000
-8.932000 0.000000
-8.890800 0.000000
-8.849500 0.000000
-8.808300 0.000000
-8.767100 0.000000
-8.725900 0.000000
-8.684700 0.000000
-8.643500 0.000000
-8.602200 0.000000
-8.561000 0.000000
-8.519800 0.000000
-8.478600 0.000000
-8.437400 0.000000
-8.396200 0.000000
-8.354900 0.000000
-8.313700 0.000000
-8.272500 0.000000
-8.231300 0.000000
-8.190100 0.000000
-8.148900 0.000000
-8.107700 0.000000
-8.066400 0.000000
-8.025200 0.000000
-7.984000 0.000000
-7.942800 0.000000
-7.901600 0.000000
-7.860400 0.000000
-7.819100 0.000000
-7.777900 0.000000
-7.736700 0.000000
-7.695500 0.000000
-7.654300 0.000000
-7.613100 0.000000
-7.571900 0.000000
-7.530600 0.000000
-7.489400 0.000000
-7.448200 0.000000
-7.407000 0.000000
-7.365800 0.000000
-7.324600 0.000000
-7.283300 0.000000
-7.242100 0.000000
-7.200900 0.000000
-7.159700 0.000000
-7.118500 0.000000
-7.077300 0.000000
-7.036000 0.000000
-6.994800 0.000000
-6.953600 0.000000
-6.912400 0.000000
-6.871200 0.000000
-6.830000 0.000000
-6.788800 0.000000
-6.747500 0.000000
-6.706300 0.000000
-6.665100 0.000000
-6.623900 0.000000
-6.582700 0.000000
-6.541500 0.000000
-6.500200 0.000000
-6.459000 0.000000
-6.417800 0.000000
-6.376600 0.000000
-6.335400 0.000000
-6.294200 0.000000
-6.253000 0.000000
-6.211700 0.000000
-6.170500 0.000000
-6.129300 0.000000
-6.088100 0.000000
-6.046900 0.000000
-6.005700 0.000000
-5.964400 0.000000
-5.923200 0.000000
-5.882000 0.000000
-5.840800 0.000000
-5.799600 0.000000
-5.758400 0.000000
-5.717100 0.000000
-5.675900 0.000000
-5.634700 0.000000
-5.593500 0.000000
-5.552300 0.000900
-5.511100 0.019200
-5.469900 0.048300
-5.428600 0.053000
-5.387400 0.065400
-5.346200 0.080800
-5.305000 0.089900
-5.263800 0.094300
-5.222600 0.102600
-5.181300 0.111400
-5.140100 0.120600
-5.098900 0.130100
-5.057700 0.137800
-5.016500 0.145200
-4.975300 0.152300
-4.934100 0.159200
-4.892800 0.166800
-4.851600 0.175900
-4.810400 0.185100
-4.769200 0.194000
-4.728000 0.202800
-4.686800 0.210300
-4.645500 0.218400
-4.604300 0.227200
-4.563100 0.236600
-4.521900 0.246200
-4.480700 0.255900
-4.439500 0.266100
-4.398200 0.277200
-4.357000 0.288400
-4.315800 0.299900
-4.274600 0.311600
-4.233400 0.324000
-4.192200 0.336700
-4.151000 0.349600
-4.109700 0.362900
-4.068500 0.377900
-4.027300 0.395300
-3.986100 0.414300
-3.944900 0.434000
-3.903700 0.454900
-3.862400 0.477400
-3.821200 0.502900
-3.780000 0.531300
-3.738800 0.563600
-3.697600 0.624500
-3.656400 0.684000
-3.615200 0.731100
-3.573900 0.762700
-3.532700 0.780300
-3.491500 0.758400
-3.450300 0.765400
-3.409100 0.810800
-3.367900 0.859600
-3.326600 0.912300
-3.285400 0.912500
-3.244200 0.853500
-3.203000 0.893000
-3.161800 0.762000
-3.120600 0.604300
-3.079300 0.584200
-3.038100 0.495200
-2.996900 1.036200
-2.955700 1.988300
-2.914500 3.561300
-2.873300 1.867600
-2.832100 1.543900
-2.790800 1.338000
-2.749600 1.197900
-2.708400 1.141900
-2.667200 1.052500
-2.626000 0.986300
-2.584800 0.969000
-2.543500 0.870700
-2.502300 0.730900
-2.461100 0.648400
-2.419900 0.574900
-2.378700 0.521900
-2.337500 0.476500
-2.296300 0.438400
-2.255000 0.402100
-2.213800 0.364700
-2.172600 0.335500
-2.131400 0.310600
-2.090200 0.287500
-2.049000 0.264400
-2.007700 0.242300
-1.966500 0.219500
-1.925300 0.204700
-1.884100 0.190300
-1.842900 0.175400
-1.801700 0.160200
-1.760400 0.144600
-1.719200 0.131300
-1.678000 0.119400
-1.636800 0.108300
-1.595600 0.095900
-1.554400 0.088800
-1.513200 0.077400
-1.471900 0.064000
-1.430700 0.052400
-1.389500 0.043700
-1.348300 0.033200
-1.307100 0.009500
-1.265900 0.000200
-1.224600 0.000000
-1.183400 0.000000
-1.142200 0.000000
-1.101000 0.000000
-1.059800 0.000000
-1.018600 0.000000
-0.977400 0.000000
-0.936100 0.000000
-0.894900 0.000000
-0.853700 0.000000
-0.812500 0.000000
-0.771300 0.000000
-0.730100 0.000000
-0.688800 0.000000
-0.647600 0.000000
-0.606400 0.000000
-0.565200 0.000000
-0.524000 0.000000
-0.482800 0.000000
-0.441500 0.000000
-0.400300 0.000000
-0.359100 0.000000
-0.317900 0.000000
-0.276700 0.000000
-0.235500 0.000000
-0.194300 0.000000
-0.153000 0.000000
-0.111800 0.000000
-0.070600 0.000000
-0.029400 0.000000
0.011800 0.000000
0.053000 0.000000
0.094300 0.018300
0.135500 0.024800
0.176700 0.033000
0.217900 0.046200
0.259100 0.058500
0.300300 0.086700
0.341500 0.125600
0.382800 0.158000
0.424000 0.202500
0.465200 0.239300
0.506400 0.268600
0.547600 0.301300
0.588800 0.356400
0.630100 0.444700
0.671300 0.485400
0.712500 0.505300
0.753700 0.516700
0.794900 0.495100
0.836100 0.478500
0.877400 0.473800
0.918600 0.473000
0.959800 0.471500
1.001000 0.468700
1.042200 0.462500
1.083400 0.450100
1.124600 0.437700
1.165900 0.431600
1.207100 0.427700
1.248300 0.424300
1.289500 0.421500
1.330700 0.417900
1.371900 0.412300
1.413200 0.405800
1.454400 0.398200
1.495600 0.390700
1.536800 0.383200
1.578000 0.377100
1.619200 0.372200
1.660400 0.368100
1.701700 0.364300
1.742900 0.360200
1.784100 0.355500
1.825300 0.349100
1.866500 0.345000
1.907700 0.339600
1.949000 0.334200
1.990200 0.327400
2.031400 0.323100
2.072600 0.317600
2.113800 0.312000
2.155000 0.306700
2.196300 0.301100
2.237500 0.294700
2.278700 0.289300
2.319900 0.286200
2.361100 0.295800
2.402300 0.284600
2.443500 0.276300
2.484800 0.264100
2.526000 0.248300
2.567200 0.232100
2.608400 0.215000
2.649600 0.200300
2.690800 0.190000
2.732100 0.181200
2.773300 0.171900
2.814500 0.162800
2.855700 0.156000
2.896900 0.149400
2.938100 0.142800
2.979300 0.136200
3.020600 0.129500
3.061800 0.123000
3.103000 0.119100
3.144200 0.114500
3.185400 0.110300
3.226600 0.106300
3.267900 0.102500
3.309100 0.098400
3.350300 0.094100
3.391500 0.090300
3.432700 0.086600
3.473900 0.082900
3.515200 0.079200
3.556400 0.075800
3.597600 0.073900
3.638800 0.070700
3.680000 0.067600
3.721200 0.064800
3.762400 0.062300
3.803700 0.060000
3.844900 0.057200
3.886100 0.054400
3.927300 0.051600
3.968500 0.049000
4.009700 0.046500
4.051000 0.044300
4.092200 0.043300
4.133400 0.059300
4.174600 0.065400
4.215800 0.091900
4.257000 0.122200
4.298200 0.146500
4.339500 0.164000
4.380700 0.181500
4.421900 0.202300
4.463100 0.218100
4.504300 0.229100
4.545500 0.239300
4.586800 0.255800
4.628000 0.277000
4.669200 0.302000
4.710400 0.332000
4.751600 0.387300
4.792800 0.461800
4.834100 0.585200
4.875300 0.698000
4.916500 0.847700
4.957700 1.107100
4.998900 1.285100
5.040100 1.477600
5.081300 1.663100
5.122600 1.657200
5.163800 1.638300
5.205000 1.539600
5.246200 1.529300
5.287400 1.338100
5.328600 1.275400
5.369900 1.206000
5.411100 1.201700
5.452300 1.221100
5.493500 1.304900
5.534700 1.156600
5.575900 1.066400
5.617200 1.027400
5.658400 1.020700
5.699600 1.026000
5.740800 1.059000
5.782000 1.088700
5.823200 1.143300
5.864400 1.184200
5.905700 1.276000
5.946900 1.406800
5.988100 1.427100
6.029300 1.372300
6.070500 1.135000
6.111700 0.944200
6.153000 0.810800
6.194200 0.772000
6.235400 0.775700
6.276600 0.770100
6.317800 0.757600
6.359000 0.800200
6.400200 0.874600
6.441500 0.905000
6.482700 0.933900
6.523900 0.929900
6.565100 0.966200
6.606300 1.006300
6.647500 1.033400
6.688800 1.087800
6.730000 1.158200
6.771200 1.098300
6.812400 1.029300
6.853600 0.978400
6.894800 0.918100
6.936100 0.864000
6.977300 0.826700
7.018500 0.766300
7.059700 0.727300
7.100900 0.705200
7.142100 0.704400
7.183300 0.729100
7.224600 0.756200
7.265800 0.782500
7.307000 0.813700
7.348200 0.829000
7.389400 0.828200
7.430600 0.840000
7.471900 0.862700
7.513100 0.892400
7.554300 0.935100
7.595500 1.016700
7.636700 1.063800
7.677900 1.114900
7.719100 1.156200
7.760400 1.191400
7.801600 1.240500
7.842800 1.492100
7.884000 1.432000
7.925200 1.500000
7.966400 1.776500
8.007700 1.799600
8.048900 1.708400
8.090100 1.463200
8.131300 1.228700
8.172500 1.099300
8.213700 1.059000
8.255000 1.058000
8.296200 1.154400
8.337400 1.333500
8.378600 1.378000
8.419800 1.473900
8.461000 1.656300
8.502200 1.800500
8.543500 1.927300
8.584700 1.882900
8.625900 1.968900
8.667100 1.570500
8.708300 1.381900
8.749500 1.308400
8.790800 1.311700
8.832000 1.400000
8.873200 1.707400
8.914400 1.715600
8.955600 1.443000
8.996800 1.494000
9.038000 1.367700
9.079300 1.330200
9.120500 1.279800
9.161700 1.385400
9.202900 1.435600
9.244100 1.385700
9.285300 1.299200
9.326600 1.210600
9.367800 1.254200
9.409000 1.527500
9.450200 1.477400
9.491400 1.510000
9.532600 1.541000
9.573900 1.553500
9.615100 1.590500
9.656300 1.695200
9.697500 1.633000
9.738700 1.562800
9.779900 1.432000
9.821100 1.453600
9.862400 1.488000
9.903600 1.674500
9.944800 1.620700
9.986000 1.432100
10.027200 1.325900
10.068400 1.205700
10.109700 1.030500
10.150900 0.924100
10.192100 0.879100
10.233300 0.939100
10.274500 1.024600
10.315700 1.078800
10.356900 1.154600
10.398200 1.162000
10.439400 1.121500
10.480600 1.122400
10.521800 1.050300
10.563000 0.979300
10.604200 0.938400
10.645500 0.919400
10.686700 0.891700
10.727900 0.886900
10.769100 0.890800
10.810300 0.921800
10.851500 0.933800
10.892800 0.975000
10.934000 0.982400
10.975200 0.945000
11.016400 0.804600
11.057600 0.760500
11.098800 0.702600
11.140000 0.674200
11.181300 0.655400
11.222500 0.635100
11.263700 0.608400
11.304900 0.594800
11.346100 0.580900
11.387300 0.574800
11.428600 0.580800
11.469800 0.597100
11.511000 0.552700
11.552200 0.546100
11.593400 0.520300
11.634600 0.510900
11.675800 0.501200
11.717100 0.493000
11.758300 0.489200
11.799500 0.487000
11.840700 0.486600
11.881900 0.485700
11.923100 0.483900
11.964400 0.481400
12.005600 0.481800
12.046800 0.482100
12.088000 0.485800
12.129200 0.484500
12.170400 0.482600
12.211700 0.481200
12.252900 0.484900
12.294100 0.511800
12.335300 0.515900
12.376500 0.515800
12.417700 0.529900
12.458900 0.505500
12.500200 0.490800
12.541400 0.498100
12.582600 0.531600
12.623800 0.563000
12.665000 0.638500
12.706200 0.623300
12.747500 0.628100
12.788700 0.638900
12.829900 0.655900
12.871100 0.682200
12.912300 0.708500
12.953500 0.723700
12.994700 0.728100
13.036000 0.747400
13.077200 0.790200
13.118400 0.810200
13.159600 0.776700
13.200800 0.707100
13.242000 0.652200
13.283300 0.621800
13.324500 0.557600
13.365700 0.466900
13.406900 0.388600
13.448100 0.353200
13.489300 0.359900
13.530600 0.341800
13.571800 0.334600
13.613000 0.313200
13.654200 0.317700
13.695400 0.366400
13.736600 0.397100
13.777800 0.454900
13.819100 0.605400
13.860300 0.653300
13.901500 0.606300
13.942700 0.555400
13.983900 0.492000
14.025100 0.449900
14.066400 0.436700
14.107600 0.460200
14.148800 0.502200
14.190000 0.548500
14.231200 0.564000
14.272400 0.570500
14.313600 0.577300
14.354900 0.582400
14.396100 0.603800
14.437300 0.673700
14.478500 0.724500
14.519700 0.808800
14.560900 1.003400
14.602200 1.131600
14.643400 1.147400
14.684600 1.099700
14.725800 1.101500
14.767000 1.110100
14.808200 1.088700
14.849500 1.024200
14.890700 1.010600
14.931900 1.079900
14.973100 1.115200
15.014300 1.185400
15.055500 1.432600
15.096700 1.479800
15.138000 1.357800
15.179200 1.327900
15.220400 1.335200
15.261600 1.373500
15.302800 1.351000
15.344000 1.269300
15.385300 1.161600
15.426500 1.087900
15.467700 1.028400
15.508900 0.963700
15.550100 0.928800
15.591300 0.937900
15.632500 0.894700
15.673800 0.863100
15.715000 0.840200
15.756200 0.841900
15.797400 0.828100
15.838600 0.852800
15.879800 0.882400
15.921100 0.932600
15.962300 1.021800
16.003500 1.080300
16.044700 1.101300
16.085900 1.150300
16.127100 1.123900
16.168400 1.116100
16.209600 1.106000
16.250800 1.098200
16.292000 1.082600
16.333200 1.069600
16.374400 1.065600
16.415600 0.995900
16.456900 0.954300
16.498100 0.921900
16.539300 0.896000
16.580500 0.870800
16.621700 0.864600
16.662900 0.860900
16.704200 0.865800
16.745400 0.899700
16.786600 1.017800
16.827800 1.062400
16.869000 1.041900
16.910200 0.992100
16.951400 0.984400
16.992700 0.981100
17.033900 0.963800
17.075100 0.876000
17.116300 0.762100
17.157500 0.702600
17.198700 0.685000
17.240000 0.681100
17.281200 0.685300
17.322400 0.684900
17.363600 0.723300
17.404800 0.705100
17.446000 0.709900
17.487300 0.719000
17.528500 0.693000
17.569700 0.675700
17.610900 0.674200
17.652100 0.675400
17.693300 0.669900
17.734500 0.695400
17.775800 0.712100
17.817000 0.746200
17.858200 0.837500
17.899400 0.838700
17.940600 0.835200
17.981800 0.815100
18.023100 0.811500
18.064300 0.822700
18.105500 0.832300
18.146700 0.845500
18.187900 0.849200
18.229100 0.842700
18.270300 0.851500
18.311600 0.874500
18.352800 0.868500
18.394000 0.909700
18.435200 0.914700
18.476400 0.946300
18.517600 1.036000
18.558900 1.108600
18.600100 1.052900
18.641300 1.097600
18.682500 1.085300
18.723700 0.993400
18.764900 0.947200
18.806200 0.924400
18.847400 0.900400
18.888600 0.885300
18.929800 0.873200
18.971000 0.851000
19.012200 0.824500
19.053400 0.843300
19.094700 0.761100
19.135900 0.729500
19.177100 0.700700
19.218300 0.680400
19.259500 0.672600
19.300700 0.665600
19.342000 0.678400
19.383200 0.693300
19.424400 0.720700
19.465600 0.765100
19.506800 0.759300
19.548000 0.783700
19.589300 0.866700
19.630500 0.836400
19.671700 0.858700
19.712900 0.886300
19.754100 0.925300
19.795300 0.959200
19.836500 0.965500
19.877800 0.996700
19.919000 1.043300
19.960200 1.072800
20.001400 1.085000
20.042600 1.078700
20.083800 1.115100
20.125100 1.141100
20.166300 1.156600
20.207500 1.175200
20.248700 1.125800
20.289900 1.101100
20.331100 1.078800
20.372300 1.050300
20.413600 1.021300
20.454800 0.981800
20.496000 0.921200
20.537200 0.889300
20.578400 0.839900
20.619600 0.835900
20.660900 0.793900
20.702100 0.786800
20.743300 0.739200
20.784500 0.772100
20.825700 0.782000
20.866900 0.818600
20.908200 0.872400
20.949400 1.000300
20.990600 1.106300
21.031800 1.178700
21.073000 1.224100
21.114200 1.243300
21.155400 1.184200
21.196700 1.104900
21.237900 1.052400
21.279100 1.014500
21.320300 0.980000
21.361500 0.971800
21.402700 0.987100
21.444000 1.007200
21.485200 0.999700
21.526400 0.958400
21.567600 0.913700
21.608800 0.829600
21.650000 0.805000
21.691200 0.810600
21.732500 0.876700
21.773700 0.995600
21.814900 1.096800
21.856100 1.110700
21.897300 1.049600
21.938500 0.990300
21.979800 0.886600
22.021000 0.820100
22.062200 0.744400
22.103400 0.713400
22.144600 0.729100
22.185800 0.773600
22.227100 0.879900
22.268300 0.999000
22.309500 0.955600
22.350700 0.995800
22.391900 1.041200
22.433100 1.096200
22.474300 1.150900
22.515600 1.245700
22.556800 1.327000
22.598000 1.382600
22.639200 1.368600
22.680400 1.368800
22.721600 1.317600
22.762900 1.265200
22.804100 1.214200
22.845300 1.182100
22.886500 1.150700
22.927700 1.107200
22.968900 1.095700
23.010100 1.024100
23.051400 0.975300
23.092600 0.950900
23.133800 0.967300
23.175000 0.954300
23.216200 0.935700
23.257400 0.895300
23.298700 0.865700
23.339900 0.827400
23.381100 0.795400
23.422300 0.787900
23.463500 0.785000
23.504700 0.794200
23.546000 0.841100
23.587200 0.804800
23.628400 0.805300
23.669600 0.828300
23.710800 0.844000
23.752000 0.844500
23.793200 0.829000
23.834500 0.813000
23.875700 0.814100
23.916900 0.837100
23.958100 0.884500
23.999300 0.928400
24.040500 0.940800
24.081800 0.916500
24.123000 0.909100
24.164200 0.913200
24.205400 0.946600
24.246600 1.040700
24.287800 1.110700
24.329000 1.151500
24.370300 1.253400
24.411500 1.265000
24.452700 1.316200
24.493900 1.378800
24.535100 1.363700
24.576300 1.344800
24.617600 1.351800
24.658800 1.333600
24.700000 1.276700
24.741200 1.257600
24.782400 1.242700
24.823600 1.206300
24.864900 1.144100
24.906100 1.111000
24.947300 1.077400
24.988500 1.058100
25.029700 1.072800
25.070900 1.067100
25.112100 1.044300
25.153400 1.015400
25.194600 1.017300
25.235800 0.994100
25.277000 1.031100
25.318200 1.103300
25.359400 1.209700
25.400700 1.323300
25.441900 1.410100
25.483100 1.386600
25.524300 1.359800
25.565500 1.263300
25.606700 1.198400
25.647900 1.049200
25.689200 1.010300
25.730400 0.982700
25.771600 0.935100
25.812800 0.910500
25.854000 0.920400
25.895200 0.926500
25.936500 0.908000
25.977700 0.855600
26.018900 0.825600
26.060100 0.803400
26.101300 0.756400
26.142500 0.744900
26.183800 0.744500
26.225000 0.745000
26.266200 0.738600
26.307400 0.778500
26.348600 0.923000
26.389800 1.034500
26.431000 1.079700
26.472300 1.061600
26.513500 1.082300
26.554700 1.141800
26.595900 1.140400
26.637100 1.149900
26.678300 1.156800
26.719600 1.155800
26.760800 1.137600
26.802000 1.112200
26.843200 1.114100
26.884400 1.136400
26.925600 1.115200
26.966800 1.058300
27.008100 1.027900
27.049300 0.956400
27.090500 0.933500
27.131700 0.922000
27.172900 0.930500
27.214100 0.933200
27.255400 0.931700
27.296600 0.942300
27.337800 0.939700
27.379000 0.965200
27.420200 0.969800
27.461400 0.970900
27.502700 0.998400
27.543900 1.020800
27.585100 1.041100
27.626300 1.067000
27.667500 1.098600
27.708700 1.119200
27.749900 1.148400
27.791200 1.182500
27.832400 1.195800
27.873600 1.176500
27.914800 1.144300
27.956000 1.124800
27.997200 1.104800
28.038500 1.057400
28.079700 1.044300
28.120900 1.051300
28.162100 1.047000
28.203300 1.028100
28.244500 1.033400
28.285700 1.069600
28.327000 1.111000
28.368200 1.150600
28.409400 1.175800
28.450600 1.203500
28.491800 1.179600
28.533000 1.196500
28.574300 1.206700
28.615500 1.289600
28.656700 1.300500
28.697900 1.273000
28.739100 1.244300
28.780300 1.179400
28.821600 1.133400
28.862800 1.125800
28.904000 1.104500
28.945200 1.075100
28.986400 1.043100
29.027600 1.009700
29.068800 1.020600
29.110100 0.999900
29.151300 1.012500
29.192500 1.036500
29.233700 1.133700
29.274900 1.143100
29.316100 1.177700
29.357400 1.159800
29.398600 1.171600
29.439800 1.145600
29.481000 1.157300
29.522200 1.262100
29.563400 1.237100
29.604600 1.232700
29.645900 1.234500
29.687100 1.201300
29.728300 1.191300
29.769500 1.179700
29.810700 1.184700
29.851900 1.172600
29.893200 1.159200
29.934400 1.145300
29.975600 1.114400
30.016800 1.087100
30.058000 1.074000
30.099200 1.078700
30.140500 1.056100
30.181700 1.027300
30.222900 1.006400
30.264100 0.981500
30.305300 0.966200
30.346500 0.951800
30.387700 0.950200
30.429000 0.978100
30.470200 0.992800
30.511400 1.040800
30.552600 1.042000
30.593800 1.038200
30.635000 1.022700
30.676300 1.027400
30.717500 1.043200
30.758700 1.055200
30.799900 1.070300
30.841100 1.008200
30.882300 1.010200
30.923500 0.987600
30.964800 1.077800
31.006000 1.055200
31.047200 1.066700
31.088400 1.129200
31.129600 1.210500
31.170800 1.248300
31.212100 1.239500
31.253300 1.183200
31.294500 1.169600
31.335700 1.168100
31.376900 1.171300
31.418100 1.178900
31.459400 1.196800
31.500600 1.203800
31.541800 1.190700
31.583000 1.175800
31.624200 1.180100
31.665400 1.197000
31.706600 1.181400
31.747900 1.166200
31.789100 1.134600
31.830300 1.118300
31.871500 1.117000
31.912700 1.118900
31.953900 1.135900
31.995200 1.182600
32.036400 1.170600
32.077600 1.086000
32.118800 0.998100
32.160000 0.962400
32.201200 0.935300
32.242400 0.908200
32.283700 0.885100
32.324900 0.917000
32.366100 0.938000
32.407300 0.940200
32.448500 0.920900
32.489700 0.909500
32.531000 0.930800
32.572200 1.010200
32.613400 1.008700
32.654600 1.045200
32.695800 1.084500
32.737000 1.122300
32.778300 1.161700
32.819500 1.165500
32.860700 1.203300
32.901900 1.190100
32.943100 1.197900
32.984300 1.207100
33.025500 1.201600
33.066800 1.195100
33.108000 1.197400
33.149200 1.206100
33.190400 1.194800
33.231600 1.195600
33.272800 1.197600
33.314100 1.212200
33.355300 1.181400
33.396500 1.130600
33.437700 1.074000
33.478900 1.031700
33.520100 1.022600
33.561300 1.033900
33.602600 1.075300
33.643800 1.059100
33.685000 0.989700
33.726200 0.977100
33.767400 1.018600
33.808600 1.084900
33.849900 1.181800
33.891100 1.299700
33.932300 1.420500
33.973500 1.348000
34.014700 1.382000
34.055900 1.369100
34.097200 1.315900
34.138400 1.264700
34.179600 1.189400
34.220800 1.123700
34.262000 1.071900
34.303200 1.007700
34.344400 0.937900
34.385700 0.887400
34.426900 0.912100
34.468100 0.981100
34.509300 1.071200
34.550500 1.185400
34.591700 1.200600
34.633000 1.193400
34.674200 1.228600
34.715400 1.279300
34.756600 1.338100
34.797800 1.448100
34.839000 1.538000
34.880300 1.508400
34.921500 1.495000
34.962700 1.492200
35.003900 1.430200
35.045100 1.401300
35.086300 1.345900
35.127500 1.215900
35.168800 1.039200
35.210000 0.941300
35.251200 0.910800
35.292400 0.929300
35.333600 0.966500
35.374800 1.002200
35.416100 1.016200
35.457300 1.039500
35.498500 1.037600
35.539700 1.042400
35.580900 1.055900
35.622100 1.080700
35.663300 1.175400
35.704600 1.159000
35.745800 1.135600
35.787000 1.146300
35.828200 1.250200
35.869400 1.337200
35.910600 1.365600
35.951900 1.327200
35.993100 1.317200
36.034300 1.351800
36.075500 1.383500
36.116700 1.311600
36.157900 1.225900
36.199200 1.162600
36.240400 1.145400
36.281600 1.136600
36.322800 1.136100
36.364000 1.124900
36.405200 1.159200
36.446400 1.179400
36.487700 1.208300
36.528900 1.235000
36.570100 1.231600
36.611300 1.212400
36.652500 1.193500
36.693700 1.182600
36.735000 1.193700
36.776200 1.205300
36.817400 1.224400
36.858600 1.230100
36.899800 1.261400
36.941000 1.262900
36.982200 1.299900
37.023500 1.313800
37.064700 1.268600
37.105900 1.180700
37.147100 1.123400
37.188300 1.082000
37.229500 1.057300
37.270800 1.035900
37.312000 1.010800
37.353200 0.965500
37.394400 0.935500
37.435600 0.917400
37.476800 0.930600
37.518100 0.951000
37.559300 0.975400
37.600500 1.028700
37.641700 1.090200
37.682900 1.143900
37.724100 1.173000
37.765300 1.232100
37.806600 1.255200
37.847800 1.287800
37.889000 1.331000
37.930200 1.336500
37.971400 1.335600
38.012600 1.322600
38.053900 1.297600
38.095100 1.288000
38.136300 1.255600
38.177500 1.244100
38.218700 1.272300
38.259900 1.265800
38.301100 1.249800
38.342400 1.245400
38.383600 1.204400
38.424800 1.145600
38.466000 1.172800
38.507200 1.161200
38.548400 1.152300
38.589700 1.159700
38.630900 1.180300
38.672100 1.171800
38.713300 1.216200
38.754500 1.263400
38.795700 1.308900
38.837000 1.355200
38.878200 1.443600
38.919400 1.490300
38.960600 1.486300
39.001800 1.469400
39.043000 1.442600
39.084200 1.436600
39.125500 1.321700
39.166700 1.178200
39.207900 1.111900
39.249100 1.106600
39.290300 1.119900
39.331500 1.137700
39.372800 1.145500
39.414000 1.173000
39.455200 1.191600
39.496400 1.171000
39.537600 1.142200
39.578800 1.129400
39.620000 1.144300
39.661300 1.157400
39.702500 1.169300
39.743700 1.189300
39.784900 1.204900
39.826100 1.209700
39.867300 1.189200
39.908600 1.188900
39.949800 1.203100
39.991000 1.232700
40.032200 1.265900
40.073400 1.271900
40.114600 1.255700
40.155900 1.217600
40.197100 1.199900
40.238300 1.234400
40.279500 1.135800
40.320700 1.121300
40.361900 1.135500
40.403100 1.154200
40.444400 1.174700
40.485600 1.208300
40.526800 1.191300
40.568000 1.211400
40.609200 1.188800
40.650400 1.192700
40.691700 1.209900
40.732900 1.266500
40.774100 1.404600
40.815300 1.406900
40.856500 1.352100
40.897700 1.356600
40.938900 1.348400
40.980200 1.360300
41.021400 1.385000
41.062600 1.450600
41.103800 1.383400
41.145000 1.359700
41.186200 1.378000
41.227500 1.366100
41.268700 1.346200
41.309900 1.311000
41.351100 1.269800
41.392300 1.244500
41.433500 1.226400
41.474800 1.208200
41.516000 1.189500
41.557200 1.126600
41.598400 1.129600
41.639600 1.115700
41.680800 1.116400
41.722000 1.124200
41.763300 1.126800
41.804500 1.134300
41.845700 1.152900
41.886900 1.176300
41.928100 1.211700
41.969300 1.304400
42.010600 1.300800
42.051800 1.312400
42.093000 1.345400
42.134200 1.387100
42.175400 1.454700
42.216600 1.526000
42.257800 1.490700
42.299100 1.339800
42.340300 1.201300
42.381500 1.156700
42.422700 1.120100
42.463900 1.089700
42.505100 1.064300
42.546400 1.063900
42.587600 1.029000
42.628800 1.015600
42.670000 1.000500
42.711200 0.980100
42.752400 1.013400
42.793700 0.882100
42.834900 0.865100
42.876100 0.886200
42.917300 0.909500
42.958500 0.941800
42.999700 0.979500
43.040900 1.029600
43.082200 1.080700
43.123400 1.062100
43.164600 1.040100
43.205800 1.035000
43.247000 1.036600
43.288200 1.027300
43.329500 1.003800
43.370700 0.971100
43.411900 0.888100
43.453100 0.749200
43.494300 0.642100
43.535500 0.576800
43.576700 0.522500
43.618000 0.457300
43.659200 0.404100
43.700400 0.371800
43.741600 0.364800
43.782800 0.355300
43.824000 0.346900
43.865300 0.340200
43.906500 0.324000
43.947700 0.312700
43.988900 0.299500
44.030100 0.287000
44.071300 0.278500
44.112600 0.224500
44.153800 0.182200
44.195000 0.139800
44.236200 0.104500
44.277400 0.078900
44.318600 0.062900
44.359800 0.050100
44.401100 0.039500
44.442300 0.030600
44.483500 0.023300
44.524700 0.017800
44.565900 0.014900
44.607100 0.012200
44.648400 0.009800
44.689600 0.007700
44.730800 0.005800
44.772000 0.004200
44.813200 0.002800
44.854400 0.001600
44.895600 0.000700
44.936900 0.000000
44.978100 0.000000
45.019300 0.000000
45.060500 0.000000
45.101700 0.000000
45.142900 0.000000
45.184200 0.000000
45.225400 0.000000
45.266600 0.000000
45.307800 0.000000
45.349000 0.000000
45.390200 0.000000
45.431500 0.000000
45.472700 0.000000
45.513900 0.000000
45.555100 0.000000
45.596300 0.000000
45.637500 0.000000
45.678700 0.000000
45.720000 0.000000
45.761200 0.000000
45.802400 0.000000
45.843600 0.000000
45.884800 0.000000
45.926000 0.000000
45.967300 0.000000
46.008500 0.000000
46.049700 0.000000
46.090900 0.000000
46.132100 0.000000
46.173300 0.000000
46.214500 0.000000
46.255800 0.000000
46.297000 0.000000
46.338200 0.000000
46.379400 0.000000
46.420600 0.000000
46.461800 0.000000
46.503100 0.000000
46.544300 0.000000
46.585500 0.000000
46.626700 0.000000
46.667900 0.000000
46.709100 0.000000
46.750400 0.000000
46.791600 0.000000
46.832800 0.000000
46.874000 0.000000
46.915200 0.000000
46.956400 0.000000
46.997600 0.000000
47.038900 0.000000
47.080100 0.000000
47.121300 0.000000
47.162500 0.000000
47.203700 0.000000
47.244900 0.000000
47.286200 0.000000
47.327400 0.000000
47.368600 0.000000
47.409800 0.000000
47.451000 0.000000
47.492200 0.000000
47.533400 0.000000
47.574700 0.000000
47.615900 0.000000
47.657100 0.000000
47.698300 0.000000
47.739500 0.000000
47.780700 0.000000
47.822000 0.000000
47.863200 0.000000
47.904400 0.000000
47.945600 0.000000
47.986800 0.000000
48.028000 0.000000
48.069300 0.000000
48.110500 0.000000
48.151700 0.000000
48.192900 0.000000
48.234100 0.000000
48.275300 0.000000
48.316500 0.000000
48.357800 0.000000
48.399000 0.000000
48.440200 0.000000
48.481400 0.000000
48.522600 0.000000
48.563800 0.000000
48.605100 0.000000
48.646300 0.000000
48.687500 0.000000
e
