set title 'mp-672234 - Band Structure'
set xlabel 'k-path'
set ylabel 'Energy (eV)'
set grid y
set yrange [-5:5]
set terminal png size 800,600
set output 'mp-672234_bands_gnuplot.png'
plot '-' using 1:2 with lines notitle, '-' using 1:2 with lines notitle, '-' using 1:2 with lines notitle, '-' using 1:2 with lines notitle, '-' using 1:2 with lines notitle, '-' using 1:2 with lines notitle, '-' using 1:2 with lines notitle, '-' using 1:2 with lines notitle, '-' using 1:2 with lines notitle, '-' using 1:2 with lines notitle, '-' using 1:2 with lines notitle, '-' using 1:2 with lines notitle, '-' using 1:2 with lines notitle, '-' using 1:2 with lines notitle, '-' using 1:2 with lines notitle, '-' using 1:2 with lines notitle, '-' using 1:2 with lines notitle, '-' using 1:2 with lines notitle, '-' using 1:2 with lines notitle, '-' using 1:2 with lines notitle, '-' using 1:2 with lines notitle, '-' using 1:2 with lines notitle, '-' using 1:2 with lines notitle, '-' using 1:2 with lines notitle, '-' using 1:2 with lines notitle, '-' using 1:2 with lines notitle, '-' using 1:2 with lines notitle, '-' using 1:2 with lines notitle
0.000000 -12.082900
0.046937 -12.082100
0.093874 -12.079800
0.140810 -12.075900
0.187747 -12.070600
0.234684 -12.064000
0.281621 -12.056100
0.328558 -12.047100
0.375495 -12.037000
0.422431 -12.026200
0.469368 -12.014800
0.516305 -12.002900
0.563242 -11.990800
0.563242 -11.990800
0.610179 -11.990400
0.657115 -11.989200
0.704052 -11.987300
0.750989 -11.984700
0.797926 -11.981500
0.844863 -11.977800
0.891800 -11.973800
0.938736 -11.969600
0.985673 -11.965600
1.032610 -11.962200
1.079547 -11.959800
1.126484 -11.959000
1.126484 -11.959000
1.176268 -11.961400
1.226052 -11.967900
1.275836 -11.976900
1.325620 -11.987400
1.375404 -11.998600
1.425188 -12.010200
1.474972 -12.021800
1.524756 -12.033000
1.574540 -12.043600
1.624324 -12.053300
1.674108 -12.061900
1.723892 -12.069200
1.773676 -12.075100
1.823460 -12.079400
1.873244 -12.082000
1.923028 -12.082900
1.923028 -12.082900
1.971806 -12.082100
2.020584 -12.079500
2.069362 -12.075400
2.118140 -12.069800
2.166919 -12.062700
2.215697 -12.054500
2.264475 -12.045200
2.313253 -12.035100
2.362031 -12.024400
2.410809 -12.013400
2.459588 -12.002300
2.508366 -11.991300
2.557144 -11.980900
2.605922 -11.971000
2.654700 -11.962100
2.703479 -11.954200
2.752257 -11.947400
2.801035 -11.941800
2.849813 -11.937200
2.898591 -11.933500
2.898591 -11.933500
2.948375 -11.936900
2.998159 -11.940500
3.047943 -11.944400
3.097727 -11.948500
3.147511 -11.952900
3.197295 -11.957500
3.247079 -11.962300
3.296863 -11.967200
3.346647 -11.971900
3.396431 -11.976400
3.446215 -11.980400
3.495999 -11.984000
3.545783 -11.986800
3.595567 -11.989000
3.645351 -11.990300
3.695135 -11.990800
3.695135 -11.959000
3.742072 -11.958700
3.789009 -11.958000
3.835946 -11.956900
3.882883 -11.955400
3.929819 -11.953500
3.976756 -11.951200
4.023693 -11.948700
4.070630 -11.945900
4.117567 -11.943000
4.164504 -11.939900
4.211440 -11.936700
4.258377 -11.933500
e
0.000000 -11.886200
0.046937 -11.889900
0.093874 -11.894500
0.140810 -11.900200
0.187747 -11.906900
0.234684 -11.914600
0.281621 -11.923400
0.328558 -11.933100
0.375495 -11.943600
0.422431 -11.954800
0.469368 -11.966500
0.516305 -11.978600
0.563242 -11.990800
0.563242 -11.990800
0.610179 -11.990400
0.657115 -11.989200
0.704052 -11.987300
0.750989 -11.984700
0.797926 -11.981500
0.844863 -11.977800
0.891800 -11.973800
0.938736 -11.969600
0.985673 -11.965600
1.032610 -11.962200
1.079547 -11.959800
1.126484 -11.959000
1.126484 -11.959000
1.176268 -11.958400
1.226052 -11.956800
1.275836 -11.954200
1.325620 -11.950700
1.375404 -11.946400
1.425188 -11.941300
1.474972 -11.935700
1.524756 -11.929700
1.574540 -11.923500
1.624324 -11.917200
1.674108 -11.911000
1.723892 -11.905000
1.773676 -11.899500
1.823460 -11.894400
1.873244 -11.890000
1.923028 -11.886200
1.923028 -11.886200
1.971806 -11.889900
2.020584 -11.894000
2.069362 -11.898600
2.118140 -11.903400
2.166919 -11.908300
2.215697 -11.913300
2.264475 -11.918200
2.313253 -11.922900
2.362031 -11.927300
2.410809 -11.931300
2.459588 -11.934700
2.508366 -11.937400
2.557144 -11.939600
2.605922 -11.941000
2.654700 -11.941600
2.703479 -11.941400
2.752257 -11.940600
2.801035 -11.938900
2.849813 -11.936500
2.898591 -11.933500
2.898591 -11.933500
2.948375 -11.936900
2.998159 -11.940500
3.047943 -11.944400
3.097727 -11.948500
3.147511 -11.952900
3.197295 -11.957500
3.247079 -11.962300
3.296863 -11.967200
3.346647 -11.971900
3.396431 -11.976400
3.446215 -11.980400
3.495999 -11.984000
3.545783 -11.986800
3.595567 -11.989000
3.645351 -11.990300
3.695135 -11.990800
3.695135 -11.959000
3.742072 -11.958700
3.789009 -11.958000
3.835946 -11.956900
3.882883 -11.955400
3.929819 -11.953500
3.976756 -11.951200
4.023693 -11.948700
4.070630 -11.945900
4.117567 -11.943000
4.164504 -11.939900
4.211440 -11.936700
4.258377 -11.933500
e
0.000000 -11.886200
0.046937 -11.886200
0.093874 -11.886000
0.140810 -11.885700
0.187747 -11.885200
0.234684 -11.884700
0.281621 -11.884000
0.328558 -11.883400
0.375495 -11.882600
0.422431 -11.881800
0.469368 -11.881100
0.516305 -11.880300
0.563242 -11.879600
0.563242 -11.879600
0.610179 -11.880000
0.657115 -11.881100
0.704052 -11.882900
0.750989 -11.885400
0.797926 -11.888500
0.844863 -11.892000
0.891800 -11.895800
0.938736 -11.899800
0.985673 -11.903700
1.032610 -11.907000
1.079547 -11.909400
1.126484 -11.910200
1.126484 -11.910200
1.176268 -11.909900
1.226052 -11.909100
1.275836 -11.907800
1.325620 -11.906100
1.375404 -11.904100
1.425188 -11.901800
1.474972 -11.899400
1.524756 -11.896900
1.574540 -11.894600
1.624324 -11.892400
1.674108 -11.890600
1.723892 -11.889000
1.773676 -11.887800
1.823460 -11.886900
1.873244 -11.886400
1.923028 -11.886200
1.923028 -11.886200
1.971806 -11.886500
2.020584 -11.887200
2.069362 -11.888400
2.118140 -11.889900
2.166919 -11.891900
2.215697 -11.894200
2.264475 -11.896900
2.313253 -11.899700
2.362031 -11.902700
2.410809 -11.905800
2.459588 -11.908900
2.508366 -11.911900
2.557144 -11.914900
2.605922 -11.917700
2.654700 -11.920400
2.703479 -11.922900
2.752257 -11.925400
2.801035 -11.927800
2.849813 -11.930500
2.898591 -11.933500
2.898591 -11.933500
2.948375 -11.930100
2.998159 -11.926600
3.047943 -11.923000
3.097727 -11.919100
3.147511 -11.915000
3.197295 -11.910700
3.247079 -11.906200
3.296863 -11.901800
3.346647 -11.897300
3.396431 -11.893200
3.446215 -11.889400
3.495999 -11.886000
3.545783 -11.883300
3.595567 -11.881300
3.645351 -11.880100
3.695135 -11.879600
3.695135 -11.910200
3.742072 -11.910400
3.789009 -11.911000
3.835946 -11.911900
3.882883 -11.913200
3.929819 -11.914800
3.976756 -11.916800
4.023693 -11.919000
4.070630 -11.921600
4.117567 -11.924300
4.164504 -11.927300
4.211440 -11.930300
4.258377 -11.933500
e
0.000000 -11.886200
0.046937 -11.883400
0.093874 -11.881200
0.140810 -11.879700
0.187747 -11.878700
0.234684 -11.878000
0.281621 -11.877700
0.328558 -11.877600
0.375495 -11.877700
0.422431 -11.878000
0.469368 -11.878400
0.516305 -11.879000
0.563242 -11.879600
0.563242 -11.879600
0.610179 -11.880000
0.657115 -11.881100
0.704052 -11.882900
0.750989 -11.885400
0.797926 -11.888500
0.844863 -11.892000
0.891800 -11.895800
0.938736 -11.899800
0.985673 -11.903700
1.032610 -11.907000
1.079547 -11.909400
1.126484 -11.910200
1.126484 -11.910200
1.176268 -11.908600
1.226052 -11.904700
1.275836 -11.899700
1.325620 -11.894800
1.375404 -11.890200
1.425188 -11.886300
1.474972 -11.883200
1.524756 -11.880700
1.574540 -11.879000
1.624324 -11.878000
1.674108 -11.877700
1.723892 -11.878100
1.773676 -11.879100
1.823460 -11.880700
1.873244 -11.883100
1.923028 -11.886200
1.923028 -11.886200
1.971806 -11.883200
2.020584 -11.880800
2.069362 -11.879100
2.118140 -11.878200
2.166919 -11.878100
2.215697 -11.878700
2.264475 -11.880200
2.313253 -11.882400
2.362031 -11.885200
2.410809 -11.888700
2.459588 -11.892700
2.508366 -11.897100
2.557144 -11.901800
2.605922 -11.906700
2.654700 -11.911700
2.703479 -11.916600
2.752257 -11.921400
2.801035 -11.925800
2.849813 -11.929900
2.898591 -11.933500
2.898591 -11.933500
2.948375 -11.930100
2.998159 -11.926600
3.047943 -11.923000
3.097727 -11.919100
3.147511 -11.915000
3.197295 -11.910700
3.247079 -11.906200
3.296863 -11.901800
3.346647 -11.897300
3.396431 -11.893200
3.446215 -11.889400
3.495999 -11.886000
3.545783 -11.883300
3.595567 -11.881300
3.645351 -11.880100
3.695135 -11.879600
3.695135 -11.910200
3.742072 -11.910400
3.789009 -11.911000
3.835946 -11.911900
3.882883 -11.913200
3.929819 -11.914800
3.976756 -11.916800
4.023693 -11.919000
4.070630 -11.921600
4.117567 -11.924300
4.164504 -11.927300
4.211440 -11.930300
4.258377 -11.933500
e
0.000000 -0.724600
0.046937 -0.726500
0.093874 -0.724600
0.140810 -0.718900
0.187747 -0.709500
0.234684 -0.696600
0.281621 -0.680300
0.328558 -0.663900
0.375495 -0.646800
0.422431 -0.628300
0.469368 -0.608600
0.516305 -0.588200
0.563242 -0.568400
0.563242 -0.568400
0.610179 -0.570300
0.657115 -0.575900
0.704052 -0.584000
0.750989 -0.593700
0.797926 -0.603800
0.844863 -0.613300
0.891800 -0.621700
0.938736 -0.628400
0.985673 -0.633200
1.032610 -0.636300
1.079547 -0.637800
1.126484 -0.638300
1.126484 -0.638300
1.176268 -0.638400
1.226052 -0.638800
1.275836 -0.639600
1.325620 -0.641000
1.375404 -0.643500
1.425188 -0.647500
1.474972 -0.653400
1.524756 -0.661200
1.574540 -0.671000
1.624324 -0.682400
1.674108 -0.695100
1.723892 -0.707700
1.773676 -0.717900
1.823460 -0.724300
1.873244 -0.726600
1.923028 -0.724600
1.923028 -0.724600
1.971806 -0.726600
2.020584 -0.724600
2.069362 -0.718500
2.118140 -0.709000
2.166919 -0.696900
2.215697 -0.684100
2.264475 -0.673600
2.313253 -0.669600
2.362031 -0.674100
2.410809 -0.687400
2.459588 -0.706000
2.508366 -0.726700
2.557144 -0.747100
2.605922 -0.765800
2.654700 -0.781700
2.703479 -0.794300
2.752257 -0.803000
2.801035 -0.807600
2.849813 -0.808100
2.898591 -0.804400
2.898591 -0.804400
2.948375 -0.807600
2.998159 -0.805800
3.047943 -0.799400
3.097727 -0.788700
3.147511 -0.774100
3.197295 -0.756300
3.247079 -0.735600
3.296863 -0.712700
3.346647 -0.688300
3.396431 -0.663200
3.446215 -0.638400
3.495999 -0.615000
3.545783 -0.594700
3.595567 -0.579400
3.645351 -0.570800
3.695135 -0.568400
3.695135 -0.638300
3.742072 -0.644800
3.789009 -0.661800
3.835946 -0.684500
3.882883 -0.709100
3.929819 -0.733100
3.976756 -0.755000
4.023693 -0.773800
4.070630 -0.788800
4.117567 -0.799600
4.164504 -0.805900
4.211440 -0.807500
4.258377 -0.804400
e
0.000000 -0.724600
0.046937 -0.723300
0.093874 -0.719300
0.140810 -0.712800
0.187747 -0.703900
0.234684 -0.692600
0.281621 -0.679200
0.328558 -0.660900
0.375495 -0.638900
0.422431 -0.614800
0.469368 -0.589300
0.516305 -0.565300
0.563242 -0.568400
0.563242 -0.568400
0.610179 -0.570300
0.657115 -0.575900
0.704052 -0.584000
0.750989 -0.593700
0.797926 -0.603800
0.844863 -0.613300
0.891800 -0.621700
0.938736 -0.628400
0.985673 -0.633200
1.032610 -0.636300
1.079547 -0.637800
1.126484 -0.638300
1.126484 -0.638300
1.176268 -0.637100
1.226052 -0.632800
1.275836 -0.624200
1.325620 -0.610900
1.375404 -0.593700
1.425188 -0.597200
1.474972 -0.606600
1.524756 -0.624100
1.574540 -0.648000
1.624324 -0.669200
1.674108 -0.686400
1.723892 -0.699700
1.773676 -0.710100
1.823460 -0.718000
1.873244 -0.722900
1.923028 -0.724600
1.923028 -0.724600
1.971806 -0.722900
2.020584 -0.718100
2.069362 -0.710400
2.118140 -0.700700
2.166919 -0.690100
2.215697 -0.680100
2.264475 -0.672600
2.313253 -0.669300
2.362031 -0.672300
2.410809 -0.681200
2.459588 -0.695200
2.508366 -0.712800
2.557144 -0.731900
2.605922 -0.751200
2.654700 -0.769100
2.703479 -0.784500
2.752257 -0.796500
2.801035 -0.804300
2.849813 -0.807100
2.898591 -0.804400
2.898591 -0.804400
2.948375 -0.807600
2.998159 -0.805800
3.047943 -0.799400
3.097727 -0.788700
3.147511 -0.774100
3.197295 -0.756300
3.247079 -0.735600
3.296863 -0.712700
3.346647 -0.688300
3.396431 -0.663200
3.446215 -0.638400
3.495999 -0.615000
3.545783 -0.594700
3.595567 -0.579400
3.645351 -0.570800
3.695135 -0.568400
3.695135 -0.638300
3.742072 -0.644800
3.789009 -0.661800
3.835946 -0.684500
3.882883 -0.709100
3.929819 -0.733100
3.976756 -0.755000
4.023693 -0.773800
4.070630 -0.788800
4.117567 -0.799600
4.164504 -0.805900
4.211440 -0.807500
4.258377 -0.804400
e
0.000000 -0.724600
0.046937 -0.718800
0.093874 -0.709300
0.140810 -0.696000
0.187747 -0.679100
0.234684 -0.658700
0.281621 -0.635000
0.328558 -0.608200
0.375495 -0.578600
0.422431 -0.547400
0.469368 -0.526000
0.516305 -0.538300
0.563242 -0.528600
0.563242 -0.528600
0.610179 -0.527400
0.657115 -0.523900
0.704052 -0.518400
0.750989 -0.511800
0.797926 -0.507600
0.844863 -0.514600
0.891800 -0.529200
0.938736 -0.544500
0.985673 -0.558200
1.032610 -0.569000
1.079547 -0.576100
1.126484 -0.578600
1.126484 -0.578600
1.176268 -0.578900
1.226052 -0.580000
1.275836 -0.582000
1.325620 -0.585200
1.375404 -0.589500
1.425188 -0.577000
1.474972 -0.596700
1.524756 -0.617200
1.574540 -0.631600
1.624324 -0.647400
1.674108 -0.664000
1.723892 -0.680500
1.773676 -0.695700
1.823460 -0.708700
1.873244 -0.718500
1.923028 -0.724600
1.923028 -0.724600
1.971806 -0.718700
2.020584 -0.709400
2.069362 -0.697400
2.118140 -0.683800
2.166919 -0.669800
2.215697 -0.657100
2.264475 -0.647300
2.313253 -0.642100
2.362031 -0.642600
2.410809 -0.649000
2.459588 -0.660700
2.508366 -0.676600
2.557144 -0.695100
2.605922 -0.714900
2.654700 -0.734900
2.703479 -0.753900
2.752257 -0.770900
2.801035 -0.785400
2.849813 -0.796700
2.898591 -0.804400
2.898591 -0.804400
2.948375 -0.795900
2.998159 -0.782100
3.047943 -0.763100
3.097727 -0.739300
3.147511 -0.711300
3.197295 -0.679800
3.247079 -0.645900
3.296863 -0.610800
3.346647 -0.575900
3.396431 -0.542600
3.446215 -0.512900
3.495999 -0.495000
3.545783 -0.507400
3.595567 -0.520300
3.645351 -0.526900
3.695135 -0.528600
3.695135 -0.578600
3.742072 -0.583800
3.789009 -0.598500
3.835946 -0.619900
3.882883 -0.645200
3.929819 -0.672100
3.976756 -0.699100
4.023693 -0.724600
4.070630 -0.747800
4.117567 -0.767900
4.164504 -0.784300
4.211440 -0.796600
4.258377 -0.804400
e
0.000000 -0.307900
0.046937 -0.323300
0.093874 -0.340600
0.140810 -0.359600
0.187747 -0.379900
0.234684 -0.401300
0.281621 -0.423500
0.328558 -0.446200
0.375495 -0.468900
0.422431 -0.490600
0.469368 -0.499500
0.516305 -0.502000
0.563242 -0.528600
0.563242 -0.528600
0.610179 -0.527400
0.657115 -0.523900
0.704052 -0.518400
0.750989 -0.511800
0.797926 -0.507600
0.844863 -0.514600
0.891800 -0.529200
0.938736 -0.544500
0.985673 -0.558200
1.032610 -0.569000
1.079547 -0.576100
1.126484 -0.578600
1.126484 -0.578600
1.176268 -0.572700
1.226052 -0.556400
1.275836 -0.532200
1.325620 -0.514200
1.375404 -0.536100
1.425188 -0.558400
1.474972 -0.541000
1.524756 -0.513100
1.574540 -0.483300
1.624324 -0.453000
1.674108 -0.423300
1.723892 -0.395000
1.773676 -0.369000
1.823460 -0.345500
1.873244 -0.325100
1.923028 -0.307900
1.923028 -0.307900
1.971806 -0.324900
2.020584 -0.345200
2.069362 -0.367900
2.118140 -0.392100
2.166919 -0.416200
2.215697 -0.438100
2.264475 -0.454400
2.313253 -0.461000
2.362031 -0.454700
2.410809 -0.452900
2.459588 -0.506600
2.508366 -0.559100
2.557144 -0.608800
2.605922 -0.654400
2.654700 -0.695000
2.703479 -0.729800
2.752257 -0.758300
2.801035 -0.780200
2.849813 -0.795500
2.898591 -0.804400
2.898591 -0.804400
2.948375 -0.795900
2.998159 -0.782100
3.047943 -0.763100
3.097727 -0.739300
3.147511 -0.711300
3.197295 -0.679800
3.247079 -0.645900
3.296863 -0.610800
3.346647 -0.575900
3.396431 -0.542600
3.446215 -0.512900
3.495999 -0.495000
3.545783 -0.507400
3.595567 -0.520300
3.645351 -0.526900
3.695135 -0.528600
3.695135 -0.578600
3.742072 -0.583800
3.789009 -0.598500
3.835946 -0.619900
3.882883 -0.645200
3.929819 -0.672100
3.976756 -0.699100
4.023693 -0.724600
4.070630 -0.747800
4.117567 -0.767900
4.164504 -0.784300
4.211440 -0.796600
4.258377 -0.804400
e
0.000000 -0.307900
0.046937 -0.310500
0.093874 -0.317500
0.140810 -0.327900
0.187747 -0.341300
0.234684 -0.357500
0.281621 -0.376500
0.328558 -0.398000
0.375495 -0.421800
0.422431 -0.447400
0.469368 -0.474400
0.516305 -0.469500
0.563242 -0.431900
0.563242 -0.431900
0.610179 -0.434600
0.657115 -0.442300
0.704052 -0.454000
0.750989 -0.467600
0.797926 -0.478700
0.844863 -0.477600
0.891800 -0.467400
0.938736 -0.454700
0.985673 -0.441700
1.032610 -0.430000
1.079547 -0.421600
1.126484 -0.418500
1.126484 -0.418500
1.176268 -0.426300
1.226052 -0.446100
1.275836 -0.471200
1.325620 -0.485900
1.375404 -0.455700
1.425188 -0.415400
1.474972 -0.382000
1.524756 -0.368100
1.574540 -0.356800
1.624324 -0.345900
1.674108 -0.335800
1.723892 -0.326800
1.773676 -0.319100
1.823460 -0.313200
1.873244 -0.309300
1.923028 -0.307900
1.923028 -0.307900
1.971806 -0.308700
2.020584 -0.311400
2.069362 -0.316300
2.118140 -0.323600
2.166919 -0.332600
2.215697 -0.342200
2.264475 -0.351500
2.313253 -0.365100
2.362031 -0.401700
2.410809 -0.436200
2.459588 -0.408800
2.508366 -0.375900
2.557144 -0.340100
2.605922 -0.303400
2.654700 -0.267400
2.703479 -0.233200
2.752257 -0.202000
2.801035 -0.174800
2.849813 -0.152900
2.898591 -0.139200
2.898591 -0.139200
2.948375 -0.151300
2.998159 -0.170200
3.047943 -0.194100
3.097727 -0.222300
3.147511 -0.253900
3.197295 -0.288100
3.247079 -0.323700
3.296863 -0.359700
3.346647 -0.394800
3.396431 -0.427700
3.446215 -0.456600
3.495999 -0.473400
3.545783 -0.459600
3.595567 -0.444600
3.645351 -0.435100
3.695135 -0.431900
3.695135 -0.418500
3.742072 -0.411000
3.789009 -0.391100
3.835946 -0.363600
3.882883 -0.332500
3.929819 -0.300300
3.976756 -0.268500
4.023693 -0.238600
4.070630 -0.211100
4.117567 -0.186800
4.164504 -0.166300
4.211440 -0.150100
4.258377 -0.139200
e
0.000000 -0.307900
0.046937 -0.294500
0.093874 -0.283300
0.140810 -0.274300
0.187747 -0.269500
0.234684 -0.269800
0.281621 -0.271100
0.328558 -0.274700
0.375495 -0.288800
0.422431 -0.318200
0.469368 -0.354300
0.516305 -0.392900
0.563242 -0.431900
0.563242 -0.431900
0.610179 -0.434600
0.657115 -0.442300
0.704052 -0.454000
0.750989 -0.467600
0.797926 -0.478700
0.844863 -0.477600
0.891800 -0.467400
0.938736 -0.454700
0.985673 -0.441700
1.032610 -0.430000
1.079547 -0.421600
1.126484 -0.418500
1.126484 -0.418500
1.176268 -0.417500
1.226052 -0.414600
1.275836 -0.409900
1.325620 -0.403400
1.375404 -0.395300
1.425188 -0.385100
1.474972 -0.364100
1.524756 -0.323300
1.574540 -0.286500
1.624324 -0.277200
1.674108 -0.277800
1.723892 -0.279400
1.773676 -0.282100
1.823460 -0.286500
1.873244 -0.294800
1.923028 -0.307900
1.923028 -0.307900
1.971806 -0.295300
2.020584 -0.288400
2.069362 -0.286000
2.118140 -0.285600
2.166919 -0.285800
2.215697 -0.285600
2.264475 -0.283800
2.313253 -0.318900
2.362031 -0.331500
2.410809 -0.324800
2.459588 -0.309500
2.508366 -0.289300
2.557144 -0.266300
2.605922 -0.242400
2.654700 -0.219000
2.703479 -0.197200
2.752257 -0.177900
2.801035 -0.161600
2.849813 -0.148700
2.898591 -0.139200
2.898591 -0.139200
2.948375 -0.151300
2.998159 -0.170200
3.047943 -0.194100
3.097727 -0.222300
3.147511 -0.253900
3.197295 -0.288100
3.247079 -0.323700
3.296863 -0.359700
3.346647 -0.394800
3.396431 -0.427700
3.446215 -0.456600
3.495999 -0.473400
3.545783 -0.459600
3.595567 -0.444600
3.645351 -0.435100
3.695135 -0.431900
3.695135 -0.418500
3.742072 -0.411000
3.789009 -0.391100
3.835946 -0.363600
3.882883 -0.332500
3.929819 -0.300300
3.976756 -0.268500
4.023693 -0.238600
4.070630 -0.211100
4.117567 -0.186800
4.164504 -0.166300
4.211440 -0.150100
4.258377 -0.139200
e
0.000000 -0.272500
0.046937 -0.272200
0.093874 -0.271300
0.140810 -0.270200
0.187747 -0.267500
0.234684 -0.262800
0.281621 -0.260000
0.328558 -0.258800
0.375495 -0.265900
0.422431 -0.268200
0.469368 -0.268300
0.516305 -0.267400
0.563242 -0.265800
0.563242 -0.265800
0.610179 -0.263500
0.657115 -0.257100
0.704052 -0.247900
0.750989 -0.238000
0.797926 -0.230900
0.844863 -0.230100
0.891800 -0.236400
0.938736 -0.246900
0.985673 -0.258800
1.032610 -0.269900
1.079547 -0.278100
1.126484 -0.281200
1.126484 -0.281200
1.176268 -0.281000
1.226052 -0.280500
1.275836 -0.279800
1.325620 -0.278900
1.375404 -0.277900
1.425188 -0.276900
1.474972 -0.276100
1.524756 -0.275500
1.574540 -0.274400
1.624324 -0.261600
1.674108 -0.256800
1.723892 -0.259700
1.773676 -0.265000
1.823460 -0.269100
1.873244 -0.271700
1.923028 -0.272500
1.923028 -0.272500
1.971806 -0.271400
2.020584 -0.268400
2.069362 -0.263700
2.118140 -0.257500
2.166919 -0.249900
2.215697 -0.254900
2.264475 -0.283400
2.313253 -0.279100
2.362031 -0.270700
2.410809 -0.258500
2.459588 -0.243400
2.508366 -0.226400
2.557144 -0.209000
2.605922 -0.192200
2.654700 -0.176900
2.703479 -0.163400
2.752257 -0.152100
2.801035 -0.143200
2.849813 -0.137600
2.898591 -0.139200
2.898591 -0.139200
2.948375 -0.135300
2.998159 -0.136500
3.047943 -0.140300
3.097727 -0.145800
3.147511 -0.152600
3.197295 -0.160700
3.247079 -0.169800
3.296863 -0.180100
3.346647 -0.191500
3.396431 -0.204000
3.446215 -0.217500
3.495999 -0.231200
3.545783 -0.244300
3.595567 -0.255400
3.645351 -0.263100
3.695135 -0.265800
3.695135 -0.281200
3.742072 -0.276800
3.789009 -0.264900
3.835946 -0.248000
3.882883 -0.228800
3.929819 -0.209200
3.976756 -0.190900
4.023693 -0.174500
4.070630 -0.160600
4.117567 -0.149200
4.164504 -0.140600
4.211440 -0.136100
4.258377 -0.139200
e
0.000000 -0.272500
0.046937 -0.270600
0.093874 -0.265700
0.140810 -0.259100
0.187747 -0.252100
0.234684 -0.248600
0.281621 -0.250200
0.328558 -0.257600
0.375495 -0.259000
0.422431 -0.260100
0.469368 -0.261900
0.516305 -0.263900
0.563242 -0.265800
0.563242 -0.265800
0.610179 -0.263500
0.657115 -0.257100
0.704052 -0.247900
0.750989 -0.238000
0.797926 -0.230900
0.844863 -0.230100
0.891800 -0.236400
0.938736 -0.246900
0.985673 -0.258800
1.032610 -0.269900
1.079547 -0.278100
1.126484 -0.281200
1.126484 -0.281200
1.176268 -0.274500
1.226052 -0.258500
1.275836 -0.239300
1.325620 -0.222000
1.375404 -0.211600
1.425188 -0.211400
1.474972 -0.218000
1.524756 -0.225800
1.574540 -0.231700
1.624324 -0.238700
1.674108 -0.248100
1.723892 -0.253500
1.773676 -0.258200
1.823460 -0.265100
1.873244 -0.270700
1.923028 -0.272500
1.923028 -0.272500
1.971806 -0.271000
2.020584 -0.265500
2.069362 -0.257100
2.118140 -0.247700
2.166919 -0.245700
2.215697 -0.241100
2.264475 -0.231200
2.313253 -0.220500
2.362031 -0.209100
2.410809 -0.197500
2.459588 -0.185700
2.508366 -0.174200
2.557144 -0.163200
2.605922 -0.152800
2.654700 -0.143400
2.703479 -0.135000
2.752257 -0.130400
2.801035 -0.130300
2.849813 -0.133200
2.898591 -0.139200
2.898591 -0.139200
2.948375 -0.135300
2.998159 -0.136500
3.047943 -0.140300
3.097727 -0.145800
3.147511 -0.152600
3.197295 -0.160700
3.247079 -0.169800
3.296863 -0.180100
3.346647 -0.191500
3.396431 -0.204000
3.446215 -0.217500
3.495999 -0.231200
3.545783 -0.244300
3.595567 -0.255400
3.645351 -0.263100
3.695135 -0.265800
3.695135 -0.281200
3.742072 -0.276800
3.789009 -0.264900
3.835946 -0.248000
3.882883 -0.228800
3.929819 -0.209200
3.976756 -0.190900
4.023693 -0.174500
4.070630 -0.160600
4.117567 -0.149200
4.164504 -0.140600
4.211440 -0.136100
4.258377 -0.139200
e
0.000000 -0.243000
0.046937 -0.243300
0.093874 -0.244000
0.140810 -0.244600
0.187747 -0.243900
0.234684 -0.238500
0.281621 -0.229100
0.328558 -0.218000
0.375495 -0.206000
0.422431 -0.193300
0.469368 -0.180000
0.516305 -0.166300
0.563242 -0.152500
0.563242 -0.152500
0.610179 -0.154100
0.657115 -0.157900
0.704052 -0.162800
0.750989 -0.167600
0.797926 -0.170200
0.844863 -0.167500
0.891800 -0.159500
0.938736 -0.149000
0.985673 -0.138700
1.032610 -0.130100
1.079547 -0.124300
1.126484 -0.122300
1.126484 -0.122300
1.176268 -0.125200
1.226052 -0.132700
1.275836 -0.142900
1.325620 -0.154500
1.375404 -0.166900
1.425188 -0.180200
1.474972 -0.194700
1.524756 -0.210000
1.574540 -0.224200
1.624324 -0.231800
1.674108 -0.235100
1.723892 -0.240400
1.773676 -0.243700
1.823460 -0.244000
1.873244 -0.243300
1.923028 -0.243000
1.923028 -0.243000
1.971806 -0.243300
2.020584 -0.244000
2.069362 -0.244500
2.118140 -0.244600
2.166919 -0.237600
2.215697 -0.226900
2.264475 -0.215400
2.313253 -0.203200
2.362031 -0.190400
2.410809 -0.180700
2.459588 -0.171100
2.508366 -0.161600
2.557144 -0.152500
2.605922 -0.144500
2.654700 -0.137900
2.703479 -0.133000
2.752257 -0.127900
2.801035 -0.122000
2.849813 -0.117400
2.898591 -0.113900
2.898591 -0.113900
2.948375 -0.115800
2.998159 -0.117700
3.047943 -0.120500
3.097727 -0.124300
3.147511 -0.128900
3.197295 -0.134400
3.247079 -0.140300
3.296863 -0.146300
3.346647 -0.151700
3.396431 -0.156200
3.446215 -0.159300
3.495999 -0.160500
3.545783 -0.159900
3.595567 -0.157700
3.645351 -0.154500
3.695135 -0.152500
3.695135 -0.122300
3.742072 -0.122000
3.789009 -0.121100
3.835946 -0.119800
3.882883 -0.117900
3.929819 -0.115800
3.976756 -0.113600
4.023693 -0.111800
4.070630 -0.110700
4.117567 -0.110900
4.164504 -0.112600
4.211440 -0.114700
4.258377 -0.113900
e
0.000000 -0.048400
0.046937 -0.051700
0.093874 -0.061500
0.140810 -0.077300
0.187747 -0.097900
0.234684 -0.121600
0.281621 -0.145100
0.328558 -0.163000
0.375495 -0.170500
0.422431 -0.168900
0.469368 -0.162100
0.516305 -0.152600
0.563242 -0.152500
0.563242 -0.152500
0.610179 -0.154100
0.657115 -0.157900
0.704052 -0.162800
0.750989 -0.167600
0.797926 -0.170200
0.844863 -0.167500
0.891800 -0.159500
0.938736 -0.149000
0.985673 -0.138700
1.032610 -0.130100
1.079547 -0.124300
1.126484 -0.122300
1.126484 -0.122300
1.176268 -0.123900
1.226052 -0.128600
1.275836 -0.135100
1.325620 -0.141200
1.375404 -0.142800
1.425188 -0.152900
1.474972 -0.167800
1.524756 -0.178900
1.574540 -0.184100
1.624324 -0.175600
1.674108 -0.149700
1.723892 -0.118100
1.773676 -0.089400
1.823460 -0.067100
1.873244 -0.053200
1.923028 -0.048400
1.923028 -0.048400
1.971806 -0.053300
2.020584 -0.067800
2.069362 -0.091000
2.118140 -0.121500
2.166919 -0.156100
2.215697 -0.186200
2.264475 -0.198400
2.313253 -0.196500
2.362031 -0.189600
2.410809 -0.177300
2.459588 -0.164000
2.508366 -0.151200
2.557144 -0.139300
2.605922 -0.128900
2.654700 -0.120600
2.703479 -0.114900
2.752257 -0.111700
2.801035 -0.110900
2.849813 -0.113600
2.898591 -0.113900
2.898591 -0.113900
2.948375 -0.115800
2.998159 -0.117700
3.047943 -0.120500
3.097727 -0.124300
3.147511 -0.128900
3.197295 -0.134400
3.247079 -0.140300
3.296863 -0.146300
3.346647 -0.151700
3.396431 -0.156200
3.446215 -0.159300
3.495999 -0.160500
3.545783 -0.159900
3.595567 -0.157700
3.645351 -0.154500
3.695135 -0.152500
3.695135 -0.122300
3.742072 -0.122000
3.789009 -0.121100
3.835946 -0.119800
3.882883 -0.117900
3.929819 -0.115800
3.976756 -0.113600
4.023693 -0.111800
4.070630 -0.110700
4.117567 -0.110900
4.164504 -0.112600
4.211440 -0.114700
4.258377 -0.113900
e
0.000000 -0.048400
0.046937 -0.049300
0.093874 -0.051900
0.140810 -0.056200
0.187747 -0.062200
0.234684 -0.069700
0.281621 -0.078600
0.328558 -0.088800
0.375495 -0.100100
0.422431 -0.112300
0.469368 -0.125300
0.516305 -0.138700
0.563242 -0.141700
0.563242 -0.141700
0.610179 -0.139400
0.657115 -0.133900
0.704052 -0.126500
0.750989 -0.118000
0.797926 -0.109500
0.844863 -0.101400
0.891800 -0.094500
0.938736 -0.089100
0.985673 -0.085300
1.032610 -0.083000
1.079547 -0.081900
1.126484 -0.081700
1.126484 -0.081700
1.176268 -0.084300
1.226052 -0.091900
1.275836 -0.103800
1.325620 -0.119000
1.375404 -0.136000
1.425188 -0.136200
1.474972 -0.123600
1.524756 -0.109300
1.574540 -0.095500
1.624324 -0.083200
1.674108 -0.072500
1.723892 -0.063800
1.773676 -0.057000
1.823460 -0.052200
1.873244 -0.049400
1.923028 -0.048400
1.923028 -0.048400
1.971806 -0.048700
2.020584 -0.049500
2.069362 -0.050900
2.118140 -0.052900
2.166919 -0.055500
2.215697 -0.058600
2.264475 -0.062100
2.313253 -0.066100
2.362031 -0.070400
2.410809 -0.074900
2.459588 -0.079500
2.508366 -0.084100
2.557144 -0.088800
2.605922 -0.093300
2.654700 -0.097800
2.703479 -0.102100
2.752257 -0.106300
2.801035 -0.110300
2.849813 -0.111700
2.898591 -0.113900
2.898591 -0.113900
2.948375 -0.109200
2.998159 -0.103100
3.047943 -0.098300
3.097727 -0.095500
3.147511 -0.094700
3.197295 -0.095700
3.247079 -0.098000
3.296863 -0.101600
3.346647 -0.106000
3.396431 -0.111000
3.446215 -0.116400
3.495999 -0.122200
3.545783 -0.128100
3.595567 -0.133900
3.645351 -0.139100
3.695135 -0.141700
3.695135 -0.081700
3.742072 -0.081900
3.789009 -0.082700
3.835946 -0.083900
3.882883 -0.085600
3.929819 -0.087800
3.976756 -0.090500
4.023693 -0.093700
4.070630 -0.097300
4.117567 -0.101300
4.164504 -0.105700
4.211440 -0.110200
4.258377 -0.113900
e
0.000000 -0.048400
0.046937 -0.049200
0.093874 -0.051700
0.140810 -0.055700
0.187747 -0.061200
0.234684 -0.068200
0.281621 -0.076300
0.328558 -0.085700
0.375495 -0.096000
0.422431 -0.107000
0.469368 -0.118400
0.516305 -0.130100
0.563242 -0.141700
0.563242 -0.141700
0.610179 -0.139400
0.657115 -0.133900
0.704052 -0.126500
0.750989 -0.118000
0.797926 -0.109500
0.844863 -0.101400
0.891800 -0.094500
0.938736 -0.089100
0.985673 -0.085300
1.032610 -0.083000
1.079547 -0.081900
1.126484 -0.081700
1.126484 -0.081700
1.176268 -0.079700
1.226052 -0.075100
1.275836 -0.069700
1.325620 -0.064500
1.375404 -0.059800
1.425188 -0.056000
1.474972 -0.052900
1.524756 -0.050700
1.574540 -0.049200
1.624324 -0.048300
1.674108 -0.047900
1.723892 -0.047800
1.773676 -0.048000
1.823460 -0.048200
1.873244 -0.048300
1.923028 -0.048400
1.923028 -0.048400
1.971806 -0.048700
2.020584 -0.049400
2.069362 -0.050600
2.118140 -0.052300
2.166919 -0.054300
2.215697 -0.056700
2.264475 -0.059500
2.313253 -0.062600
2.362031 -0.066000
2.410809 -0.069500
2.459588 -0.073000
2.508366 -0.076600
2.557144 -0.080000
2.605922 -0.083300
2.654700 -0.086400
2.703479 -0.089800
2.752257 -0.094100
2.801035 -0.100100
2.849813 -0.107900
2.898591 -0.113900
2.898591 -0.113900
2.948375 -0.109200
2.998159 -0.103100
3.047943 -0.098300
3.097727 -0.095500
3.147511 -0.094700
3.197295 -0.095700
3.247079 -0.098000
3.296863 -0.101600
3.346647 -0.106000
3.396431 -0.111000
3.446215 -0.116400
3.495999 -0.122200
3.545783 -0.128100
3.595567 -0.133900
3.645351 -0.139100
3.695135 -0.141700
3.695135 -0.081700
3.742072 -0.081900
3.789009 -0.082700
3.835946 -0.083900
3.882883 -0.085600
3.929819 -0.087800
3.976756 -0.090500
4.023693 -0.093700
4.070630 -0.097300
4.117567 -0.101300
4.164504 -0.105700
4.211440 -0.110200
4.258377 -0.113900
e
0.000000 6.963100
0.046937 6.974400
0.093874 7.008100
0.140810 7.063800
0.187747 7.140800
0.234684 7.237900
0.281621 7.354100
0.328558 7.487900
0.375495 7.637900
0.422431 7.802500
0.469368 7.980200
0.516305 8.169300
0.563242 8.368100
0.563242 8.368100
0.610179 8.376900
0.657115 8.403200
0.704052 8.446800
0.750989 8.507300
0.797926 8.584100
0.844863 8.676700
0.891800 8.784300
0.938736 8.905800
0.985673 9.040200
1.032610 9.185700
1.079547 9.337800
1.126484 9.448600
1.126484 9.448600
1.176268 9.254500
1.226052 9.008300
1.275836 8.766500
1.325620 8.533000
1.375404 8.309800
1.425188 8.098400
1.474972 7.900200
1.524756 7.716900
1.574540 7.549900
1.624324 7.400700
1.674108 7.271100
1.723892 7.162500
1.773676 7.076300
1.823460 7.013700
1.873244 6.975800
1.923028 6.963100
1.923028 6.963100
1.971806 6.975300
2.020584 7.011700
2.069362 7.071800
2.118140 7.154600
2.166919 7.259000
2.215697 7.383600
2.264475 7.526900
2.313253 7.687400
2.362031 7.863400
2.410809 8.053400
2.459588 8.255900
2.508366 8.469500
2.557144 8.692800
2.605922 8.924500
2.654700 9.163100
2.703479 9.406800
2.752257 9.652500
2.801035 9.893500
2.849813 10.110800
2.898591 10.252400
2.898591 10.252400
2.948375 10.137900
2.998159 9.976200
3.047943 9.796100
3.097727 9.613900
3.147511 9.436500
3.197295 9.267600
3.247079 9.109300
3.296863 8.963000
3.346647 8.830200
3.396431 8.712100
3.446215 8.609700
3.495999 8.524300
3.545783 8.456600
3.595567 8.407700
3.645351 8.378100
3.695135 8.368100
3.695135 9.448600
3.742072 9.454900
3.789009 9.473700
3.835946 9.504800
3.882883 9.548300
3.929819 9.603900
3.976756 9.671300
4.023693 9.750200
4.070630 9.840000
4.117567 9.939500
4.164504 10.046600
4.211440 10.155900
4.258377 10.252400
e
0.000000 10.703600
0.046937 10.610800
0.093874 10.473100
0.140810 10.299300
0.187747 10.102400
0.234684 9.891900
0.281621 9.673800
0.328558 9.451800
0.375495 9.229000
0.422431 9.007400
0.469368 8.788900
0.516305 8.575200
0.563242 8.368100
0.563242 8.368100
0.610179 8.376900
0.657115 8.403200
0.704052 8.446800
0.750989 8.507300
0.797926 8.584100
0.844863 8.676700
0.891800 8.784300
0.938736 8.905800
0.985673 9.040200
1.032610 9.185700
1.079547 9.337800
1.126484 9.448600
1.126484 9.448600
1.176268 9.455400
1.226052 9.475500
1.275836 9.508600
1.325620 9.554300
1.375404 9.611900
1.425188 9.680700
1.474972 9.759800
1.524756 9.848600
1.574540 9.946000
1.624324 10.051000
1.674108 10.162400
1.723892 10.278200
1.773676 10.395800
1.823460 10.510700
1.873244 10.616100
1.923028 10.703600
1.923028 10.703600
1.971806 10.622200
2.020584 10.533700
2.069362 10.445000
2.118140 10.360300
2.166919 10.281900
2.215697 10.211400
2.264475 10.149500
2.313253 10.096500
2.362031 10.052800
2.410809 10.018600
2.459588 9.993900
2.508366 9.979100
2.557144 9.974200
2.605922 9.979700
2.654700 9.996000
2.703479 10.023300
2.752257 10.062200
2.801035 10.113100
2.849813 10.176500
2.898591 10.252400
2.898591 10.252400
2.948375 10.137900
2.998159 9.976200
3.047943 9.796100
3.097727 9.613900
3.147511 9.436500
3.197295 9.267600
3.247079 9.109300
3.296863 8.963000
3.346647 8.830200
3.396431 8.712100
3.446215 8.609700
3.495999 8.524300
3.545783 8.456600
3.595567 8.407700
3.645351 8.378100
3.695135 8.368100
3.695135 9.448600
3.742072 9.454900
3.789009 9.473700
3.835946 9.504800
3.882883 9.548300
3.929819 9.603900
3.976756 9.671300
4.023693 9.750200
4.070630 9.840000
4.117567 9.939500
4.164504 10.046600
4.211440 10.155900
4.258377 10.252400
e
0.000000 10.703600
0.046937 10.711400
0.093874 10.734400
0.140810 10.771700
0.187747 10.821900
0.234684 10.882900
0.281621 10.951900
0.328558 11.025500
0.375495 11.099700
0.422431 11.169800
0.469368 11.230900
0.516305 11.277500
0.563242 11.304600
0.563242 11.304600
0.610179 11.284200
0.657115 11.222800
0.704052 11.121900
0.750989 10.987200
0.797926 10.826900
0.844863 10.649600
0.891800 10.462400
0.938736 10.270900
0.985673 10.079600
1.032610 9.892200
1.079547 9.714400
1.126484 9.595000
1.126484 9.595000
1.176268 9.603200
1.226052 9.627800
1.275836 9.668100
1.325620 9.723300
1.375404 9.792400
1.425188 9.873900
1.474972 9.966200
1.524756 10.067500
1.574540 10.175400
1.624324 10.287200
1.674108 10.398900
1.723892 10.504400
1.773676 10.595100
1.823460 10.660300
1.873244 10.694400
1.923028 10.703600
1.923028 10.703600
1.971806 10.690200
2.020584 10.653100
2.069362 10.599500
2.118140 10.537100
2.166919 10.471900
2.215697 10.408400
2.264475 10.349400
2.313253 10.296700
2.362031 10.251800
2.410809 10.215500
2.459588 10.188400
2.508366 10.171100
2.557144 10.163700
2.605922 10.166400
2.654700 10.179000
2.703479 10.201100
2.752257 10.230600
2.801035 10.262700
2.849813 10.283800
2.898591 10.252400
2.898591 10.252400
2.948375 10.313900
2.998159 10.357900
3.047943 10.406700
3.097727 10.463900
3.147511 10.527200
3.197295 10.593400
3.247079 10.661200
3.296863 10.731300
3.346647 10.805100
3.396431 10.883500
3.446215 10.966900
3.495999 11.053800
3.545783 11.141100
3.595567 11.221300
3.645351 11.281600
3.695135 11.304600
3.695135 9.595000
3.742072 9.602600
3.789009 9.625300
3.835946 9.662900
3.882883 9.715100
3.929819 9.781200
3.976756 9.860300
4.023693 9.951100
4.070630 10.051100
4.117567 10.155100
4.164504 10.249100
4.211440 10.294900
4.258377 10.252400
e
0.000000 10.703600
0.046937 10.761400
0.093874 10.806500
0.140810 10.854300
0.187747 10.910300
0.234684 10.974800
0.281621 11.045300
0.328558 11.117900
0.375495 11.186900
0.422431 11.245900
0.469368 11.288300
0.516305 11.308600
0.563242 11.304600
0.563242 11.304600
0.610179 11.284200
0.657115 11.222800
0.704052 11.121900
0.750989 10.987200
0.797926 10.826900
0.844863 10.649600
0.891800 10.462400
0.938736 10.270900
0.985673 10.079600
1.032610 9.892200
1.079547 9.714400
1.126484 9.595000
1.126484 9.595000
1.176268 9.793100
1.226052 10.050700
1.275836 10.308800
1.325620 10.559200
1.375404 10.790700
1.425188 10.985200
1.474972 11.115300
1.524756 11.161000
1.574540 11.136400
1.624324 11.075000
1.674108 11.002500
1.723892 10.932400
1.773676 10.871300
1.823460 10.819500
1.873244 10.768700
1.923028 10.703600
1.923028 10.703600
1.971806 10.767600
2.020584 10.802600
2.069362 10.802700
2.118140 10.772700
2.166919 10.723800
2.215697 10.666700
2.264475 10.608900
2.313253 10.555200
2.362031 10.508600
2.410809 10.471100
2.459588 10.443900
2.508366 10.428000
2.557144 10.424000
2.605922 10.432300
2.654700 10.452700
2.703479 10.483700
2.752257 10.506300
2.801035 10.437400
2.849813 10.340500
2.898591 10.252400
2.898591 10.252400
2.948375 10.313900
2.998159 10.357900
3.047943 10.406700
3.097727 10.463900
3.147511 10.527200
3.197295 10.593400
3.247079 10.661200
3.296863 10.731300
3.346647 10.805100
3.396431 10.883500
3.446215 10.966900
3.495999 11.053800
3.545783 11.141100
3.595567 11.221300
3.645351 11.281600
3.695135 11.304600
3.695135 9.595000
3.742072 9.602600
3.789009 9.625300
3.835946 9.662900
3.882883 9.715100
3.929819 9.781200
3.976756 9.860300
4.023693 9.951100
4.070630 10.051100
4.117567 10.155100
4.164504 10.249100
4.211440 10.294900
4.258377 10.252400
e
0.000000 11.901500
0.046937 11.848400
0.093874 11.829200
0.140810 11.829900
0.187747 11.842700
0.234684 11.864400
0.281621 11.893700
0.328558 11.930100
0.375495 11.973500
0.422431 12.024100
0.469368 12.082000
0.516305 12.147200
0.563242 12.219700
0.563242 12.219700
0.610179 12.211300
0.657115 12.200400
0.704052 12.203400
0.750989 12.225800
0.797926 12.265700
0.844863 12.318300
0.891800 12.378000
0.938736 12.440400
0.985673 12.501900
1.032610 12.557900
1.079547 12.600000
1.126484 12.616300
1.126484 12.616300
1.176268 12.578200
1.226052 12.492500
1.275836 12.394200
1.325620 12.297900
1.375404 12.208900
1.425188 12.128900
1.474972 12.058500
1.524756 11.998000
1.574540 11.946700
1.624324 11.903800
1.674108 11.869000
1.723892 11.842200
1.773676 11.824700
1.823460 11.821100
1.873244 11.842300
1.923028 11.901500
1.923028 11.901500
1.971806 11.842700
2.020584 11.831700
2.069362 11.873000
2.118140 11.957700
2.166919 12.061700
2.215697 12.139000
2.264475 12.126600
2.313253 12.021300
2.362031 11.868400
2.410809 11.696100
2.459588 11.517600
2.508366 11.339800
2.557144 11.167200
2.605922 11.002900
2.654700 10.849800
2.703479 10.711300
2.752257 10.607800
2.801035 10.623100
2.849813 10.694500
2.898591 10.785000
2.898591 10.785000
2.948375 10.723000
2.998159 10.716000
3.047943 10.739500
3.097727 10.785800
3.147511 10.855100
3.197295 10.948400
3.247079 11.065200
3.296863 11.202200
3.346647 11.355000
3.396431 11.518600
3.446215 11.686900
3.495999 11.852700
3.545783 12.005600
3.595567 12.130900
3.645351 12.205900
3.695135 12.219700
3.695135 12.616300
3.742072 12.539300
3.789009 12.361600
3.835946 12.147700
3.882883 11.925500
3.929819 11.705800
3.976756 11.493600
4.023693 11.292200
4.070630 11.104800
4.117567 10.936600
4.164504 10.801700
4.211440 10.737900
4.258377 10.785000
e
0.000000 11.901500
0.046937 11.904800
0.093874 11.914700
0.140810 11.931300
0.187747 11.954700
0.234684 11.984800
0.281621 12.021600
0.328558 12.064400
0.375495 12.112500
0.422431 12.164100
0.469368 12.217200
0.516305 12.269400
0.563242 12.219700
0.563242 12.219700
0.610179 12.211300
0.657115 12.200400
0.704052 12.203400
0.750989 12.225800
0.797926 12.265700
0.844863 12.318300
0.891800 12.378000
0.938736 12.440400
0.985673 12.501900
1.032610 12.557900
1.079547 12.600000
1.126484 12.616300
1.126484 12.616300
1.176268 12.620000
1.226052 12.631000
1.275836 12.649200
1.325620 12.542200
1.375404 12.377500
1.425188 12.263000
1.474972 12.222800
1.524756 12.273000
1.574540 12.395500
1.624324 12.544300
1.674108 12.398200
1.723892 12.228300
1.773676 12.085200
1.823460 11.980400
1.873244 11.920300
1.923028 11.901500
1.923028 11.901500
1.971806 11.923500
2.020584 11.985900
2.069362 12.079600
2.118140 12.192200
2.166919 12.305500
2.215697 12.385500
2.264475 12.384400
2.313253 12.297200
2.362031 12.159600
2.410809 11.998200
2.459588 11.826800
2.508366 11.653400
2.557144 11.483100
2.605922 11.320100
2.654700 11.167300
2.703479 11.028100
2.752257 10.906200
2.801035 10.808600
2.849813 10.752700
2.898591 10.785000
2.898591 10.785000
2.948375 10.723000
2.998159 10.716000
3.047943 10.739500
3.097727 10.785800
3.147511 10.855100
3.197295 10.948400
3.247079 11.065200
3.296863 11.202200
3.346647 11.355000
3.396431 11.518600
3.446215 11.686900
3.495999 11.852700
3.545783 12.005600
3.595567 12.130900
3.645351 12.205900
3.695135 12.219700
3.695135 12.616300
3.742072 12.539300
3.789009 12.361600
3.835946 12.147700
3.882883 11.925500
3.929819 11.705800
3.976756 11.493600
4.023693 11.292200
4.070630 11.104800
4.117567 10.936600
4.164504 10.801700
4.211440 10.737900
4.258377 10.785000
e
0.000000 11.901500
0.046937 12.004000
0.093874 12.158200
0.140810 12.353900
0.187747 12.579100
0.234684 12.808100
0.281621 12.757900
0.328558 12.667300
0.375495 12.579900
0.422431 12.480600
0.469368 12.387100
0.516305 12.301000
0.563242 12.323600
0.563242 12.323600
0.610179 12.338200
0.657115 12.371500
0.704052 12.414500
0.750989 12.467100
0.797926 12.532100
0.844863 12.613000
0.891800 12.712400
0.938736 12.830800
0.985673 12.966600
1.032610 13.112300
1.079547 13.158200
1.126484 13.138600
1.126484 13.138600
1.176268 13.135700
1.226052 12.961500
1.275836 12.740300
1.325620 12.674500
1.375404 12.706500
1.425188 12.745100
1.474972 12.789400
1.524756 12.837100
1.574540 12.773000
1.624324 12.590600
1.674108 12.618600
1.723892 12.459600
1.773676 12.291800
1.823460 12.135800
1.873244 12.002000
1.923028 11.901500
1.923028 11.901500
1.971806 11.996400
2.020584 12.116000
2.069362 12.251800
2.118140 12.396300
2.166919 12.539000
2.215697 12.654300
2.264475 12.686700
2.313253 12.614100
2.362031 12.481500
2.410809 12.321100
2.459588 12.147600
2.508366 11.969100
2.557144 11.790800
2.605922 11.616600
2.654700 11.449500
2.703479 11.291900
2.752257 11.145400
2.801035 11.011400
2.849813 10.891000
2.898591 10.785000
2.898591 10.785000
2.948375 10.925000
2.998159 11.124000
3.047943 11.355300
3.097727 11.605500
3.147511 11.868100
3.197295 12.139600
3.247079 12.416900
3.296863 12.695700
3.346647 12.966300
3.396431 13.148100
3.446215 12.998500
3.495999 12.785100
3.545783 12.593000
3.595567 12.439000
3.645351 12.344700
3.695135 12.323600
3.695135 13.138600
3.742072 12.988000
3.789009 12.756300
3.835946 12.520400
3.882883 12.288500
3.929819 12.062700
3.976756 11.844200
4.023693 11.634000
4.070630 11.433000
4.117567 11.242800
4.164504 11.066000
4.211440 10.908200
4.258377 10.785000
e
0.000000 13.225800
0.046937 13.178700
0.093874 13.117300
0.140810 13.041100
0.187747 12.954300
0.234684 12.880200
0.281621 12.790100
0.328558 12.683700
0.375495 12.582000
0.422431 12.505100
0.469368 12.437500
0.516305 12.378000
0.563242 12.323600
0.563242 12.323600
0.610179 12.338200
0.657115 12.371500
0.704052 12.414500
0.750989 12.467100
0.797926 12.532100
0.844863 12.613000
0.891800 12.712400
0.938736 12.830800
0.985673 12.966600
1.032610 13.112300
1.079547 13.158200
1.126484 13.138600
1.126484 13.138600
1.176268 13.179300
1.226052 13.149400
1.275836 13.156200
1.325620 13.166700
1.375404 13.179900
1.425188 13.194300
1.474972 13.124800
1.524756 12.962500
1.574540 12.893900
1.624324 12.817400
1.674108 12.744100
1.723892 12.877500
1.773676 13.000700
1.823460 13.098700
1.873244 13.172500
1.923028 13.225800
1.923028 13.225800
1.971806 13.173200
2.020584 13.102600
2.069362 13.015900
2.118140 12.918400
2.166919 12.824800
2.215697 12.773600
2.264475 12.824400
2.313253 12.980200
2.362031 13.197200
2.410809 13.449500
2.459588 13.313200
2.508366 13.010000
2.557144 12.690900
2.605922 12.373200
2.654700 12.061500
2.703479 11.758100
2.752257 11.465800
2.801035 11.190200
2.849813 10.947600
2.898591 10.785000
2.898591 10.785000
2.948375 10.925000
2.998159 11.124000
3.047943 11.355300
3.097727 11.605500
3.147511 11.868100
3.197295 12.139600
3.247079 12.416900
3.296863 12.695700
3.346647 12.966300
3.396431 13.148100
3.446215 12.998500
3.495999 12.785100
3.545783 12.593000
3.595567 12.439000
3.645351 12.344700
3.695135 12.323600
3.695135 13.138600
3.742072 12.988000
3.789009 12.756300
3.835946 12.520400
3.882883 12.288500
3.929819 12.062700
3.976756 11.844200
4.023693 11.634000
4.070630 11.433000
4.117567 11.242800
4.164504 11.066000
4.211440 10.908200
4.258377 10.785000
e
0.000000 13.225800
0.046937 13.209100
0.093874 13.161100
0.140810 13.088000
0.187747 12.997300
0.234684 12.896100
0.281621 13.102400
0.328558 13.383500
0.375495 13.677000
0.422431 13.887000
0.469368 14.024000
0.516305 14.173100
0.563242 14.327000
0.563242 14.327000
0.610179 14.303100
0.657115 14.228300
0.704052 14.116600
0.750989 13.984800
0.797926 13.844700
0.844863 13.704200
0.891800 13.568800
0.938736 13.442900
0.985673 13.331100
1.032610 13.243700
1.079547 13.294300
1.126484 13.415900
1.126484 13.415900
1.176268 13.224600
1.226052 13.313300
1.275836 13.401200
1.325620 13.395000
1.375404 13.364000
1.425188 13.264400
1.474972 13.214800
1.524756 13.119500
1.574540 12.984900
1.624324 12.962000
1.674108 13.019800
1.723892 13.079500
1.773676 13.135600
1.823460 13.182800
1.873244 13.214600
1.923028 13.225800
1.923028 13.225800
1.971806 13.217300
2.020584 13.191700
2.069362 13.149200
2.118140 13.093000
2.166919 13.034800
2.215697 13.005800
2.264475 13.053500
2.313253 13.183700
2.362031 13.355200
2.410809 13.478000
2.459588 13.726300
2.508366 14.022200
2.557144 14.334100
2.605922 14.658800
2.654700 14.992500
2.703479 15.328800
2.752257 15.646500
2.801035 15.934500
2.849813 16.175500
2.898591 16.266300
2.898591 16.266100
2.948375 16.164400
2.998159 15.905700
3.047943 15.576500
3.097727 15.223300
3.147511 14.867800
3.197295 14.521000
3.247079 14.188900
3.296863 13.876300
3.346647 13.592400
3.396431 13.415300
3.446215 13.583300
3.495999 13.822300
3.545783 14.037400
3.595567 14.202700
3.645351 14.300200
3.695135 14.327000
3.695135 13.415900
3.742072 13.572200
3.789009 13.820700
3.835946 14.084600
3.882883 14.355600
3.929819 14.631400
3.976756 14.910200
4.023693 15.190000
4.070630 15.467100
4.117567 15.735600
4.164504 15.985700
4.211440 16.181000
4.258377 16.268700
e
0.000000 13.225800
0.046937 13.264800
0.093874 13.304000
0.140810 13.349800
0.187747 13.406200
0.234684 13.475200
0.281621 13.557500
0.328558 13.653500
0.375495 13.763400
0.422431 13.971500
0.469368 14.226000
0.516305 14.350400
0.563242 14.327100
0.563242 14.327500
0.610179 14.303100
0.657115 14.229200
0.704052 14.116900
0.750989 13.984800
0.797926 13.844700
0.844863 13.704200
0.891800 13.568800
0.938736 13.442900
0.985673 13.331100
1.032610 13.243700
1.079547 13.294300
1.126484 13.415900
1.126484 13.415900
1.176268 13.416600
1.226052 13.418700
1.275836 13.438500
1.325620 13.427000
1.375404 13.367000
1.425188 13.314100
1.474972 13.232200
1.524756 13.232600
1.574540 13.250800
1.624324 13.267800
1.674108 13.281800
1.723892 13.290700
1.773676 13.292100
1.823460 13.283300
1.873244 13.262000
1.923028 13.225800
1.923028 13.225800
1.971806 13.259600
2.020584 13.273100
2.069362 13.265000
2.118140 13.235800
2.166919 13.192000
2.215697 13.158300
2.264475 13.192800
2.313253 13.322200
2.362031 13.507400
2.410809 13.722000
2.459588 13.957000
2.508366 14.198700
2.557144 14.476100
2.605922 14.756800
2.654700 15.048700
2.703479 15.349300
2.752257 15.656100
2.801035 15.964200
2.849813 16.193200
2.898591 16.268400
2.898591 16.267000
2.948375 16.173600
2.998159 15.909000
3.047943 15.576800
3.097727 15.223400
3.147511 14.867900
3.197295 14.521000
3.247079 14.188900
3.296863 13.876300
3.346647 13.592400
3.396431 13.415300
3.446215 13.583300
3.495999 13.822300
3.545783 14.037400
3.595567 14.202900
3.645351 14.300300
3.695135 14.327300
3.695135 13.415900
3.742072 13.572200
3.789009 13.820700
3.835946 14.084800
3.882883 14.355700
3.929819 14.631400
3.976756 14.910200
4.023693 15.190100
4.070630 15.467300
4.117567 15.737600
4.164504 15.994300
4.211440 16.184300
4.258377 16.267700
e
0.000000 15.879400
0.046937 15.835800
0.093874 15.777500
0.140810 15.634900
0.187747 15.488400
0.234684 15.330300
0.281621 15.205000
0.328558 14.994900
0.375495 14.823400
0.422431 14.670500
0.469368 14.532400
0.516305 14.434900
0.563242 14.400500
0.563242 14.400500
0.610179 14.424000
0.657115 14.497700
0.704052 14.597300
0.750989 14.663000
0.797926 14.631100
0.844863 14.522500
0.891800 14.375600
0.938736 14.208500
0.985673 14.030200
1.032610 13.847200
1.079547 13.666300
1.126484 13.533700
1.126484 13.533700
1.176268 13.532500
1.226052 13.531300
1.275836 13.570500
1.325620 13.734000
1.375404 13.947000
1.425188 14.180700
1.474972 14.427600
1.524756 14.681500
1.574540 14.933600
1.624324 15.170600
1.674108 15.372600
1.723892 15.564200
1.773676 15.669900
1.823460 15.790000
1.873244 15.844300
1.923028 15.874700
1.923028 15.871700
1.971806 15.855500
2.020584 15.803800
2.069362 15.755200
2.118140 15.593000
2.166919 15.373600
2.215697 15.093000
2.264475 14.777300
2.313253 14.448000
2.362031 14.126200
2.410809 13.886200
2.459588 13.960800
2.508366 14.208900
2.557144 14.476100
2.605922 14.774300
2.654700 15.086900
2.703479 15.410900
2.752257 15.726900
2.801035 16.020900
2.849813 16.252100
2.898591 16.289700
2.898591 16.286700
2.948375 16.252700
2.998159 16.154100
3.047943 16.017300
3.097727 15.876800
3.147511 15.731400
3.197295 15.586000
3.247079 15.446800
3.296863 15.313300
3.346647 15.187000
3.396431 15.064100
3.446215 14.935100
3.495999 14.795300
3.545783 14.648900
3.595567 14.517600
3.645351 14.428100
3.695135 14.400500
3.695135 13.533700
3.742072 13.620400
3.789009 13.826800
3.835946 14.087900
3.882883 14.375100
3.929819 14.676100
3.976756 14.983500
4.023693 15.290900
4.070630 15.589200
4.117567 15.864700
4.164504 16.092800
4.211440 16.233800
4.258377 16.275600
e
0.000000 15.921900
0.046937 15.912500
0.093874 15.828900
0.140810 15.750100
0.187747 15.595100
0.234684 15.420800
0.281621 15.266800
0.328558 15.028700
0.375495 14.859100
0.422431 14.739900
0.469368 14.704700
0.516305 14.525900
0.563242 14.400800
0.563242 14.401000
0.610179 14.424500
0.657115 14.503900
0.704052 14.601100
0.750989 14.666600
0.797926 14.631500
0.844863 14.522500
0.891800 14.375600
0.938736 14.208500
0.985673 14.030200
1.032610 13.847200
1.079547 13.666300
1.126484 13.533700
1.126484 13.533700
1.176268 13.753900
1.226052 14.035000
1.275836 14.326400
1.325620 14.621800
1.375404 14.914500
1.425188 15.192800
1.474972 15.468400
1.524756 15.422400
1.574540 15.484000
1.624324 15.583800
1.674108 15.696600
1.723892 15.796300
1.773676 15.827500
1.823460 15.892300
1.873244 15.892100
1.923028 15.894500
1.923028 15.892100
1.971806 15.889800
2.020584 15.859900
2.069362 15.798900
2.118140 15.821000
2.166919 15.793800
2.215697 15.960200
2.264475 15.854700
2.313253 15.887400
2.362031 15.925800
2.410809 15.957400
2.459588 15.979900
2.508366 16.033800
2.557144 16.038800
2.605922 16.075100
2.654700 16.095400
2.703479 16.162600
2.752257 16.169800
2.801035 16.198600
2.849813 16.278200
2.898591 16.311400
2.898591 16.385100
2.948375 16.276200
2.998159 16.163700
3.047943 16.037600
3.097727 15.880400
3.147511 15.744500
3.197295 15.587600
3.247079 15.448000
3.296863 15.320900
3.346647 15.189000
3.396431 15.069400
3.446215 14.937400
3.495999 14.795800
3.545783 14.649600
3.595567 14.518100
3.645351 14.428200
3.695135 14.401400
3.695135 13.533700
3.742072 13.620400
3.789009 13.826800
3.835946 14.087800
3.882883 14.375100
3.929819 14.676100
3.976756 14.983500
4.023693 15.291800
4.070630 15.589800
4.117567 15.871200
4.164504 16.093900
4.211440 16.254200
4.258377 16.283600
e
