set title 'mp-1187177 - Density of States'
set xlabel 'Energy (eV)'
set ylabel 'DOS (states/eV)'
set grid
set xrange [-10:10]
set yrange [0:9.817]
set xzeroaxis lt -1
set terminal png size 800,600
set output 'mp-1187177_dos_gnuplot.png'
plot '-' using 1:2 with lines title 'DOS'
-35.458500 0.000000
-35.418900 0.000000
-35.379300 0.000000
-35.339700 0.000000
-35.300100 0.000000
-35.260500 0.000000
-35.220900 0.000000
-35.181300 0.000000
-35.141700 0.000000
-35.102100 0.000000
-35.062500 0.000000
-35.022900 0.000000
-34.983300 0.000000
-34.943700 0.000000
-34.904100 0.000000
-34.864500 0.000000
-34.824900 0.000000
-34.785300 0.000000
-34.745700 0.000000
-34.706100 0.000000
-34.666500 0.000000
-34.626900 0.000000
-34.587300 0.000000
-34.547700 0.000000
-34.508100 0.000000
-34.468500 0.000000
-34.428900 0.000000
-34.389300 0.000000
-34.349700 0.000000
-34.310100 0.000000
-34.270600 0.000000
-34.231000 0.000000
-34.191400 0.000000
-34.151800 0.000000
-34.112200 0.000000
-34.072600 0.000000
-34.033000 0.000000
-33.993400 0.000000
-33.953800 0.000000
-33.914200 0.000000
-33.874600 0.000000
-33.835000 0.000000
-33.795400 0.000000
-33.755800 0.000000
-33.716200 0.000000
-33.676600 0.000000
-33.637000 0.000000
-33.597400 0.000000
-33.557800 0.000000
-33.518200 0.000000
-33.478600 0.000000
-33.439000 0.000000
-33.399400 0.000000
-33.359800 0.000000
-33.320200 0.000000
-33.280600 0.000000
-33.241000 0.000000
-33.201400 0.000000
-33.161800 0.000000
-33.122200 0.000000
-33.082600 0.000000
-33.043000 0.000000
-33.003400 0.000000
-32.963800 0.000000
-32.924200 0.000000
-32.884600 0.000000
-32.845000 0.000000
-32.805400 0.000000
-32.765800 0.000000
-32.726200 0.000000
-32.686600 0.000000
-32.647000 0.000000
-32.607400 0.000000
-32.567800 0.000000
-32.528200 0.000000
-32.488700 0.000000
-32.449100 0.000000
-32.409500 0.000000
-32.369900 0.000000
-32.330300 0.000000
-32.290700 0.000000
-32.251100 0.000000
-32.211500 0.000000
-32.171900 0.000000
-32.132300 0.000000
-32.092700 0.000000
-32.053100 0.000000
-32.013500 0.000000
-31.973900 0.000000
-31.934300 0.000000
-31.894700 0.000000
-31.855100 1.977200
-31.815500 49.168700
-31.775900 0.000000
-31.736300 0.000000
-31.696700 0.000000
-31.657100 0.000000
-31.617500 0.000000
-31.577900 0.000000
-31.538300 0.000000
-31.498700 0.000000
-31.459100 0.000000
-31.419500 0.000000
-31.379900 0.000000
-31.340300 0.000000
-31.300700 0.000000
-31.261100 0.000000
-31.221500 0.000000
-31.181900 0.000000
-31.142300 0.000000
-31.102700 0.000000
-31.063100 0.000000
-31.023500 0.000000
-30.983900 0.000000
-30.944300 0.000000
-30.904700 0.000000
-30.865100 0.000000
-30.825500 0.000000
-30.785900 0.000000
-30.746300 0.000000
-30.706700 0.000000
-30.667200 0.000000
-30.627600 0.000000
-30.588000 0.000000
-30.548400 0.000000
-30.508800 0.000000
-30.469200 0.000000
-30.429600 0.000000
-30.390000 0.000000
-30.350400 0.000000
-30.310800 0.000000
-30.271200 0.000000
-30.231600 0.000000
-30.192000 0.000000
-30.152400 0.000000
-30.112800 0.000000
-30.073200 0.000000
-30.033600 0.000000
-29.994000 0.000000
-29.954400 0.000000
-29.914800 0.000000
-29.875200 0.000000
-29.835600 0.000000
-29.796000 0.000000
-29.756400 0.000000
-29.716800 0.000000
-29.677200 0.000000
-29.637600 0.000000
-29.598000 0.000000
-29.558400 0.000000
-29.518800 0.000000
-29.479200 0.000000
-29.439600 0.000000
-29.400000 0.000000
-29.360400 0.000000
-29.320800 0.000000
-29.281200 0.000000
-29.241600 0.000000
-29.202000 0.000000
-29.162400 0.000000
-29.122800 0.000000
-29.083200 0.000000
-29.043600 0.000000
-29.004000 0.000000
-28.964400 0.000000
-28.924800 0.000000
-28.885300 0.000000
-28.845700 0.000000
-28.806100 0.000000
-28.766500 0.000000
-28.726900 0.000000
-28.687300 0.000000
-28.647700 0.000000
-28.608100 0.000000
-28.568500 0.000000
-28.528900 0.000000
-28.489300 0.000000
-28.449700 0.000000
-28.410100 0.000000
-28.370500 0.000000
-28.330900 0.000000
-28.291300 0.000000
-28.251700 0.000000
-28.212100 0.000000
-28.172500 0.000000
-28.132900 0.000000
-28.093300 0.000000
-28.053700 0.000000
-28.014100 0.000000
-27.974500 0.000000
-27.934900 0.000000
-27.895300 0.000000
-27.855700 0.000000
-27.816100 0.000000
-27.776500 0.000000
-27.736900 0.000000
-27.697300 0.000000
-27.657700 0.000000
-27.618100 0.000000
-27.578500 0.000000
-27.538900 0.000000
-27.499300 0.000000
-27.459700 0.000000
-27.420100 0.000000
-27.380500 0.000000
-27.340900 0.000000
-27.301300 0.000000
-27.261700 0.000000
-27.222100 0.000000
-27.182500 0.000000
-27.142900 0.000000
-27.103300 0.000000
-27.063800 0.000000
-27.024200 0.000000
-26.984600 0.000000
-26.945000 0.000000
-26.905400 0.000000
-26.865800 0.000000
-26.826200 0.000000
-26.786600 0.000000
-26.747000 0.000000
-26.707400 0.000000
-26.667800 0.000000
-26.628200 0.000000
-26.588600 0.000000
-26.549000 0.000000
-26.509400 0.000000
-26.469800 0.000000
-26.430200 0.000000
-26.390600 0.000000
-26.351000 0.000000
-26.311400 0.000000
-26.271800 0.000000
-26.232200 0.000000
-26.192600 0.000000
-26.153000 0.000000
-26.113400 0.000000
-26.073800 0.000000
-26.034200 0.000000
-25.994600 0.000000
-25.955000 0.000000
-25.915400 0.000000
-25.875800 0.000000
-25.836200 0.000000
-25.796600 0.000000
-25.757000 0.000000
-25.717400 0.000000
-25.677800 0.000000
-25.638200 0.000000
-25.598600 0.000000
-25.559000 0.000000
-25.519400 0.000000
-25.479800 0.000000
-25.440200 0.000000
-25.400600 0.000000
-25.361000 0.000000
-25.321400 0.000000
-25.281800 0.000000
-25.242300 0.000000
-25.202700 0.000000
-25.163100 0.000000
-25.123500 0.000000
-25.083900 0.000000
-25.044300 0.000000
-25.004700 0.000000
-24.965100 0.000000
-24.925500 0.000000
-24.885900 0.000000
-24.846300 0.000000
-24.806700 0.000000
-24.767100 0.000000
-24.727500 0.000000
-24.687900 0.000000
-24.648300 0.000000
-24.608700 0.000000
-24.569100 0.000000
-24.529500 0.000000
-24.489900 0.000000
-24.450300 0.000000
-24.410700 0.000000
-24.371100 0.000000
-24.331500 0.000000
-24.291900 0.000000
-24.252300 0.000000
-24.212700 0.000000
-24.173100 0.000000
-24.133500 0.000000
-24.093900 0.000000
-24.054300 0.000000
-24.014700 0.000000
-23.975100 0.000000
-23.935500 0.000000
-23.895900 0.000000
-23.856300 0.000000
-23.816700 0.000000
-23.777100 0.000000
-23.737500 0.000000
-23.697900 0.000000
-23.658300 0.000000
-23.618700 0.000000
-23.579100 0.000000
-23.539500 0.000000
-23.499900 0.000000
-23.460400 0.000000
-23.420800 0.000000
-23.381200 0.000000
-23.341600 0.000000
-23.302000 0.000000
-23.262400 0.000000
-23.222800 0.000000
-23.183200 0.000000
-23.143600 0.000000
-23.104000 0.000000
-23.064400 0.000000
-23.024800 0.000000
-22.985200 0.000000
-22.945600 0.000000
-22.906000 0.000000
-22.866400 0.000000
-22.826800 0.000000
-22.787200 0.000000
-22.747600 0.000000
-22.708000 0.000000
-22.668400 0.000000
-22.628800 0.000000
-22.589200 0.000000
-22.549600 0.000000
-22.510000 0.000000
-22.470400 0.000000
-22.430800 0.000000
-22.391200 0.000000
-22.351600 0.000000
-22.312000 0.000000
-22.272400 0.000000
-22.232800 0.000000
-22.193200 0.000000
-22.153600 0.000000
-22.114000 1.473800
-22.074400 2.508000
-22.034800 3.675200
-21.995200 5.711600
-21.955600 5.429900
-21.916000 5.692700
-21.876400 0.000000
-21.836800 0.000000
-21.797200 0.000000
-21.757600 0.000000
-21.718000 0.000000
-21.678400 0.000000
-21.638900 0.000000
-21.599300 0.000000
-21.559700 0.000000
-21.520100 0.000000
-21.480500 0.000000
-21.440900 0.000000
-21.401300 0.276400
-21.361700 0.499700
-21.322100 0.732600
-21.282500 1.044700
-21.242900 1.441200
-21.203300 3.692100
-21.163700 6.958600
-21.124100 9.508200
-21.084500 8.975400
-21.044900 6.819400
-21.005300 4.449300
-20.965700 2.837500
-20.926100 1.578900
-20.886500 0.000800
-20.846900 0.000000
-20.807300 0.000000
-20.767700 0.000000
-20.728100 0.000000
-20.688500 0.000000
-20.648900 0.000000
-20.609300 0.000000
-20.569700 0.000000
-20.530100 0.000000
-20.490500 0.000000
-20.450900 0.000000
-20.411300 0.000000
-20.371700 0.000000
-20.332100 0.000000
-20.292500 0.000000
-20.252900 0.000000
-20.213300 0.000000
-20.173700 0.000000
-20.134100 0.000000
-20.094500 0.000000
-20.054900 0.000000
-20.015300 0.000000
-19.975700 0.000000
-19.936100 0.000000
-19.896500 0.000000
-19.857000 0.000000
-19.817400 0.000000
-19.777800 0.000000
-19.738200 0.000000
-19.698600 0.000000
-19.659000 0.000000
-19.619400 0.000000
-19.579800 0.000000
-19.540200 0.000000
-19.500600 0.000000
-19.461000 0.000000
-19.421400 0.000000
-19.381800 0.000000
-19.342200 0.000000
-19.302600 0.000000
-19.263000 0.000000
-19.223400 0.000000
-19.183800 0.000000
-19.144200 0.000000
-19.104600 0.000000
-19.065000 0.000000
-19.025400 0.000000
-18.985800 0.000000
-18.946200 0.000000
-18.906600 0.000000
-18.867000 0.000000
-18.827400 0.000000
-18.787800 0.000000
-18.748200 0.000000
-18.708600 0.000000
-18.669000 0.000000
-18.629400 0.000000
-18.589800 0.000000
-18.550200 0.000000
-18.510600 0.000000
-18.471000 0.000000
-18.431400 0.000000
-18.391800 0.000000
-18.352200 0.000000
-18.312600 0.000000
-18.273000 0.000000
-18.233400 0.000000
-18.193800 0.000000
-18.154200 0.000000
-18.114600 0.000000
-18.075000 0.000000
-18.035500 0.000000
-17.995900 0.000000
-17.956300 0.000000
-17.916700 0.000000
-17.877100 0.000000
-17.837500 0.000000
-17.797900 0.000000
-17.758300 0.000000
-17.718700 0.000000
-17.679100 0.000000
-17.639500 0.000000
-17.599900 0.000000
-17.560300 0.000000
-17.520700 0.000000
-17.481100 0.000000
-17.441500 0.000000
-17.401900 0.000000
-17.362300 0.000000
-17.322700 0.000000
-17.283100 0.000000
-17.243500 0.000000
-17.203900 0.000000
-17.164300 0.000000
-17.124700 0.000000
-17.085100 0.000000
-17.045500 0.000000
-17.005900 0.000000
-16.966300 0.000000
-16.926700 0.000000
-16.887100 0.000000
-16.847500 0.000000
-16.807900 0.000000
-16.768300 0.000000
-16.728700 0.000000
-16.689100 0.000000
-16.649500 0.000000
-16.609900 0.000000
-16.570300 0.000000
-16.530700 0.000000
-16.491100 0.000000
-16.451500 0.000000
-16.411900 0.000000
-16.372300 0.000000
-16.332700 0.000000
-16.293100 0.000000
-16.253600 0.000000
-16.214000 0.000000
-16.174400 0.000000
-16.134800 0.000000
-16.095200 0.000000
-16.055600 0.000000
-16.016000 0.000000
-15.976400 0.000000
-15.936800 0.000000
-15.897200 0.000000
-15.857600 0.000000
-15.818000 0.000000
-15.778400 0.000000
-15.738800 0.000000
-15.699200 0.000000
-15.659600 0.000000
-15.620000 0.000000
-15.580400 0.000000
-15.540800 0.000000
-15.501200 0.000000
-15.461600 0.000000
-15.422000 0.000000
-15.382400 0.000000
-15.342800 0.000000
-15.303200 0.000000
-15.263600 0.000000
-15.224000 0.000000
-15.184400 0.000000
-15.144800 0.000000
-15.105200 0.000000
-15.065600 0.000000
-15.026000 0.000000
-14.986400 0.000000
-14.946800 0.000000
-14.907200 0.000000
-14.867600 0.000000
-14.828000 0.000000
-14.788400 0.000000
-14.748800 0.000000
-14.709200 0.000000
-14.669600 0.000000
-14.630000 0.000000
-14.590400 0.000000
-14.550800 0.000000
-14.511200 0.000000
-14.471600 0.000000
-14.432100 0.000000
-14.392500 0.000000
-14.352900 0.000000
-14.313300 0.000000
-14.273700 0.000000
-14.234100 0.000000
-14.194500 0.000000
-14.154900 0.000000
-14.115300 0.000000
-14.075700 0.000000
-14.036100 0.835700
-13.996500 1.884100
-13.956900 4.488500
-13.917300 14.760400
-13.877700 18.234600
-13.838100 12.314200
-13.798500 5.565600
-13.758900 13.660700
-13.719300 2.043200
-13.679700 1.127500
-13.640100 0.674700
-13.600500 0.307200
-13.560900 0.000000
-13.521300 0.000000
-13.481700 0.000000
-13.442100 0.000000
-13.402500 0.000000
-13.362900 0.000000
-13.323300 0.000000
-13.283700 0.000000
-13.244100 0.000000
-13.204500 0.000000
-13.164900 0.000000
-13.125300 0.000000
-13.085700 0.000000
-13.046100 0.000000
-13.006500 0.000000
-12.966900 0.000000
-12.927300 0.000000
-12.887700 0.000000
-12.848100 0.000000
-12.808500 0.000000
-12.768900 0.000000
-12.729300 0.000000
-12.689700 0.000000
-12.650100 0.000000
-12.610600 0.000000
-12.571000 0.000000
-12.531400 0.000000
-12.491800 0.000000
-12.452200 0.000000
-12.412600 0.000000
-12.373000 0.000000
-12.333400 0.000000
-12.293800 0.000000
-12.254200 0.000000
-12.214600 0.000000
-12.175000 0.000000
-12.135400 0.000000
-12.095800 0.000000
-12.056200 0.000000
-12.016600 0.000000
-11.977000 0.000000
-11.937400 0.000000
-11.897800 0.000000
-11.858200 0.000000
-11.818600 0.000000
-11.779000 0.000000
-11.739400 0.000000
-11.699800 0.000000
-11.660200 0.000000
-11.620600 0.000000
-11.581000 0.000000
-11.541400 0.000000
-11.501800 0.000000
-11.462200 0.000000
-11.422600 0.000000
-11.383000 0.000000
-11.343400 0.000000
-11.303800 0.000000
-11.264200 0.000000
-11.224600 0.000000
-11.185000 0.000000
-11.145400 0.000000
-11.105800 0.000000
-11.066200 0.000000
-11.026600 0.000000
-10.987000 0.000000
-10.947400 0.000000
-10.907800 0.000000
-10.868200 0.000000
-10.828700 0.000000
-10.789100 0.000000
-10.749500 0.000000
-10.709900 0.000000
-10.670300 0.000000
-10.630700 0.000000
-10.591100 0.000000
-10.551500 0.000000
-10.511900 0.000000
-10.472300 0.000000
-10.432700 0.000000
-10.393100 0.000000
-10.353500 0.000000
-10.313900 0.000000
-10.274300 0.000000
-10.234700 0.000000
-10.195100 0.000000
-10.155500 0.000000
-10.115900 0.000000
-10.076300 0.000000
-10.036700 0.000000
-9.997100 0.000000
-9.957500 0.000000
-9.917900 0.000000
-9.878300 0.000000
-9.838700 0.000000
-9.799100 0.000000
-9.759500 0.000000
-9.719900 0.000000
-9.680300 0.000000
-9.640700 0.000000
-9.601100 0.000000
-9.561500 0.000000
-9.521900 0.000000
-9.482300 0.000000
-9.442700 0.000000
-9.403100 0.000000
-9.363500 0.000000
-9.323900 0.000000
-9.284300 0.000000
-9.244700 0.000000
-9.205100 0.000000
-9.165500 0.000000
-9.125900 0.000000
-9.086300 0.000000
-9.046700 0.000000
-9.007200 0.000000
-8.967600 0.000000
-8.928000 0.000000
-8.888400 0.000000
-8.848800 0.000000
-8.809200 0.000000
-8.769600 0.000000
-8.730000 0.000000
-8.690400 0.000000
-8.650800 0.000000
-8.611200 0.000000
-8.571600 0.000000
-8.532000 0.000000
-8.492400 0.000000
-8.452800 0.000000
-8.413200 0.000000
-8.373600 0.000000
-8.334000 0.000000
-8.294400 0.000000
-8.254800 0.000000
-8.215200 0.000000
-8.175600 0.000000
-8.136000 0.000000
-8.096400 0.000000
-8.056800 0.000000
-8.017200 0.000000
-7.977600 0.000000
-7.938000 0.000000
-7.898400 0.000000
-7.858800 0.000000
-7.819200 0.000000
-7.779600 0.000000
-7.740000 0.000000
-7.700400 0.000000
-7.660800 0.000000
-7.621200 0.000000
-7.581600 0.000000
-7.542000 0.000000
-7.502400 0.000000
-7.462800 0.000000
-7.423200 0.000000
-7.383600 0.000000
-7.344000 0.000000
-7.304400 0.000000
-7.264800 0.000000
-7.225300 0.000000
-7.185700 0.000000
-7.146100 0.000000
-7.106500 0.000000
-7.066900 0.000000
-7.027300 0.000000
-6.987700 0.000000
-6.948100 0.000000
-6.908500 0.000000
-6.868900 0.000000
-6.829300 0.000000
-6.789700 0.000000
-6.750100 0.000000
-6.710500 0.000000
-6.670900 0.000000
-6.631300 0.000000
-6.591700 0.000000
-6.552100 0.000000
-6.512500 0.000000
-6.472900 0.000000
-6.433300 0.000000
-6.393700 0.000000
-6.354100 0.000000
-6.314500 0.000000
-6.274900 0.000000
-6.235300 0.000000
-6.195700 0.000000
-6.156100 0.000000
-6.116500 0.000000
-6.076900 0.000000
-6.037300 0.000000
-5.997700 0.000000
-5.958100 0.000000
-5.918500 0.000000
-5.878900 0.000000
-5.839300 0.000000
-5.799700 0.000000
-5.760100 0.000000
-5.720500 0.000000
-5.680900 0.000000
-5.641300 0.000000
-5.601700 0.000000
-5.562100 0.000000
-5.522500 0.000000
-5.482900 0.000000
-5.443300 0.000000
-5.403800 0.000000
-5.364200 0.000000
-5.324600 0.000000
-5.285000 0.000000
-5.245400 0.000000
-5.205800 0.000000
-5.166200 0.000000
-5.126600 0.000000
-5.087000 0.000000
-5.047400 0.000000
-5.007800 0.000000
-4.968200 0.000000
-4.928600 0.000000
-4.889000 0.000000
-4.849400 0.000000
-4.809800 0.000000
-4.770200 0.000000
-4.730600 0.244700
-4.691000 0.393600
-4.651400 0.567900
-4.611800 0.803600
-4.572200 1.235000
-4.532600 2.253800
-4.493000 2.059700
-4.453400 2.483500
-4.413800 3.939900
-4.374200 2.156500
-4.334600 1.710900
-4.295000 1.447800
-4.255400 1.306700
-4.215800 1.132600
-4.176200 1.065000
-4.136600 1.176900
-4.097000 1.356300
-4.057400 1.479500
-4.017800 1.690300
-3.978200 1.734300
-3.938600 1.766200
-3.899000 1.854700
-3.859400 2.077900
-3.819800 2.130900
-3.780200 2.024800
-3.740600 2.165800
-3.701000 3.723300
-3.661400 4.242500
-3.621900 4.037600
-3.582300 3.457400
-3.542700 3.130200
-3.503100 3.068200
-3.463500 2.537700
-3.423900 2.396300
-3.384300 2.585600
-3.344700 1.879900
-3.305100 1.097700
-3.265500 0.933500
-3.225900 0.613600
-3.186300 0.639200
-3.146700 0.693100
-3.107100 1.062700
-3.067500 1.325300
-3.027900 1.629500
-2.988300 2.219100
-2.948700 2.545100
-2.909100 3.155200
-2.869500 3.528400
-2.829900 3.816100
-2.790300 3.016600
-2.750700 2.179300
-2.711100 2.201200
-2.671500 2.504800
-2.631900 3.119300
-2.592300 2.882100
-2.552700 2.835900
-2.513100 4.326400
-2.473500 5.358500
-2.433900 6.689200
-2.394300 5.767300
-2.354700 5.742500
-2.315100 3.507300
-2.275500 3.302700
-2.235900 2.731700
-2.196300 3.009100
-2.156700 3.782900
-2.117100 3.348900
-2.077500 3.790700
-2.037900 4.481300
-1.998300 5.690200
-1.958700 7.199400
-1.919100 8.364300
-1.879500 8.924600
-1.839900 6.925300
-1.800400 5.118500
-1.760800 5.247900
-1.721200 4.970500
-1.681600 2.131600
-1.642000 1.016500
-1.602400 0.322700
-1.562800 0.000000
-1.523200 0.000000
-1.483600 0.000000
-1.444000 0.000000
-1.404400 0.000000
-1.364800 0.000000
-1.325200 0.000000
-1.285600 0.000000
-1.246000 0.000000
-1.206400 0.000000
-1.166800 0.000000
-1.127200 0.000000
-1.087600 0.000000
-1.048000 0.000000
-1.008400 0.000000
-0.968800 0.000000
-0.929200 0.000000
-0.889600 0.000000
-0.850000 0.000000
-0.810400 0.000000
-0.770800 0.000000
-0.731200 0.000000
-0.691600 0.000000
-0.652000 0.000000
-0.612400 0.000000
-0.572800 0.000000
-0.533200 0.000000
-0.493600 0.000000
-0.454000 0.000000
-0.414400 0.000000
-0.374800 0.000000
-0.335200 0.000000
-0.295600 0.000000
-0.256000 0.000000
-0.216400 0.000000
-0.176800 0.000000
-0.137200 0.000000
-0.097600 0.000000
-0.058000 0.000000
-0.018500 0.000000
0.021100 0.000000
0.060700 0.000000
0.100300 0.000000
0.139900 0.000000
0.179500 0.000000
0.219100 0.000000
0.258700 0.000000
0.298300 0.000000
0.337900 0.000000
0.377500 0.000000
0.417100 0.000000
0.456700 0.000000
0.496300 0.000000
0.535900 0.000000
0.575500 0.000000
0.615100 0.000000
0.654700 0.000000
0.694300 0.000000
0.733900 0.000000
0.773500 0.000000
0.813100 0.000000
0.852700 0.000000
0.892300 0.000000
0.931900 0.000000
0.971500 0.000000
1.011100 0.000000
1.050700 0.000000
1.090300 0.000000
1.129900 0.000000
1.169500 0.000000
1.209100 0.000000
1.248700 0.000000
1.288300 0.000000
1.327900 0.000000
1.367500 0.000000
1.407100 0.000000
1.446700 0.000000
1.486300 0.000000
1.525900 0.000000
1.565500 0.000000
1.605100 0.000000
1.644700 0.000000
1.684300 0.000000
1.723900 0.000000
1.763500 0.000000
1.803000 0.000000
1.842600 0.000000
1.882200 0.000000
1.921800 0.000000
1.961400 0.000000
2.001000 0.000000
2.040600 0.000000
2.080200 0.000000
2.119800 0.000000
2.159400 0.000000
2.199000 0.000000
2.238600 0.000000
2.278200 0.000000
2.317800 0.000000
2.357400 0.000000
2.397000 0.000000
2.436600 0.000000
2.476200 0.000000
2.515800 0.000000
2.555400 0.000000
2.595000 0.000000
2.634600 0.000000
2.674200 0.000000
2.713800 0.000000
2.753400 0.000000
2.793000 0.000000
2.832600 0.000000
2.872200 0.000000
2.911800 0.000000
2.951400 0.000000
2.991000 0.000000
3.030600 0.000000
3.070200 0.000000
3.109800 0.000000
3.149400 0.000000
3.189000 0.000000
3.228600 0.000000
3.268200 0.000000
3.307800 0.000000
3.347400 0.000000
3.387000 0.000000
3.426600 0.000000
3.466200 0.000000
3.505800 0.000000
3.545400 0.000000
3.585000 0.000000
3.624500 0.000000
3.664100 0.000000
3.703700 0.000000
3.743300 0.000000
3.782900 0.000000
3.822500 0.000000
3.862100 0.000000
3.901700 0.000000
3.941300 0.000000
3.980900 0.000000
4.020500 0.000000
4.060100 0.000000
4.099700 0.000000
4.139300 0.000000
4.178900 0.000000
4.218500 0.000000
4.258100 0.000000
4.297700 0.000000
4.337300 0.000000
4.376900 0.000000
4.416500 0.000000
4.456100 0.000000
4.495700 0.000000
4.535300 0.000000
4.574900 0.000000
4.614500 0.000000
4.654100 0.000000
4.693700 0.000000
4.733300 0.000000
4.772900 0.000000
4.812500 0.000000
4.852100 0.000000
4.891700 0.000000
4.931300 0.000000
4.970900 0.000000
5.010500 0.000000
5.050100 0.000000
5.089700 0.000000
5.129300 0.000000
5.168900 0.000000
5.208500 0.000000
5.248100 0.000000
5.287700 0.000000
5.327300 0.000000
5.366900 0.000000
5.406400 0.000000
5.446000 0.000000
5.485600 0.000000
5.525200 0.000000
5.564800 0.000000
5.604400 0.000000
5.644000 0.000000
5.683600 0.000000
5.723200 0.000000
5.762800 0.000000
5.802400 0.000000
5.842000 0.000000
5.881600 0.000000
5.921200 0.000000
5.960800 0.000000
6.000400 0.000000
6.040000 0.000000
6.079600 0.000000
6.119200 0.000000
6.158800 0.000000
6.198400 0.000000
6.238000 0.000000
6.277600 0.000000
6.317200 0.000000
6.356800 0.000000
6.396400 0.000000
6.436000 0.000000
6.475600 0.000000
6.515200 0.000000
6.554800 0.000000
6.594400 0.000000
6.634000 0.000000
6.673600 0.000000
6.713200 0.000000
6.752800 0.000000
6.792400 0.000000
6.832000 0.000000
6.871600 0.000000
6.911200 0.000000
6.950800 0.000000
6.990400 0.000000
7.030000 0.000000
7.069600 0.000400
7.109200 0.004200
7.148800 0.011900
7.188400 0.023500
7.227900 0.028600
7.267500 0.030400
7.307100 0.034000
7.346700 0.038200
7.386300 0.043100
7.425900 0.055000
7.465500 0.077800
7.505100 0.099300
7.544700 0.114000
7.584300 0.122700
7.623900 0.137900
7.663500 0.154000
7.703100 0.168000
7.742700 0.188500
7.782300 0.224400
7.821900 0.325400
7.861500 0.470800
7.901100 0.501300
7.940700 0.525500
7.980300 0.571600
8.019900 0.606900
8.059500 0.640600
8.099100 0.678200
8.138700 0.713200
8.178300 0.749700
8.217900 0.792000
8.257500 0.839500
8.297100 0.892700
8.336700 1.141600
8.376300 1.463100
8.415900 1.555500
8.455500 1.697900
8.495100 1.893500
8.534700 2.363400
8.574300 2.369600
8.613900 2.553800
8.653500 2.693800
8.693100 2.800600
8.732700 2.323300
8.772300 2.151600
8.811900 2.262900
8.851500 2.211200
8.891100 1.844800
8.930700 2.074000
8.970300 2.802800
9.009800 2.881700
9.049400 2.118300
9.089000 1.460900
9.128600 1.334900
9.168200 2.188500
9.207800 2.648700
9.247400 3.214100
9.287000 2.692900
9.326600 2.260300
9.366200 2.210800
9.405800 2.025700
9.445400 2.131500
9.485000 2.169900
9.524600 2.698600
9.564200 4.011100
9.603800 3.529800
9.643400 2.916700
9.683000 2.434400
9.722600 1.758000
9.762200 1.667900
9.801800 1.255700
9.841400 1.014500
9.881000 0.850600
9.920600 0.745400
9.960200 0.710500
9.999800 0.748200
10.039400 0.864700
10.079000 0.979000
10.118600 1.102000
10.158200 1.789800
10.197800 2.593700
10.237400 4.281900
10.277000 3.102600
10.316600 2.709100
10.356200 2.915700
10.395800 2.995700
10.435400 2.308600
10.475000 1.895000
10.514600 1.621200
10.554200 1.345100
10.593800 0.995000
10.633400 0.736600
10.673000 0.633900
10.712600 0.586700
10.752200 0.325300
10.791800 0.315300
10.831300 0.306400
10.870900 0.297900
10.910500 0.290500
10.950100 0.286700
10.989700 0.284900
11.029300 0.283800
11.068900 0.283700
11.108500 0.284500
11.148100 0.286200
11.187700 0.288600
11.227300 0.291700
11.266900 0.295200
11.306500 0.300800
11.346100 0.307100
11.385700 0.313800
11.425300 0.321000
11.464900 0.329600
11.504500 0.345400
11.544100 0.355500
11.583700 0.363500
11.623300 0.368000
11.662900 0.370800
11.702500 0.374100
11.742100 0.377900
11.781700 0.382000
11.821300 0.405400
11.860900 0.413000
11.900500 0.415900
11.940100 0.420100
11.979700 0.427600
12.019300 0.436700
12.058900 0.443500
12.098500 0.454400
12.138100 0.471000
12.177700 0.496200
12.217300 0.642300
12.256900 0.719100
12.296500 0.684100
12.336100 0.601400
12.375700 0.559900
12.415300 0.467600
12.454900 0.427300
12.494500 0.381100
12.534100 0.369500
12.573700 0.371600
12.613200 0.349100
12.652800 0.270400
12.692400 0.243600
12.732000 0.218300
12.771600 0.222000
12.811200 0.128300
12.850800 0.135800
12.890400 0.143700
12.930000 0.152000
12.969600 0.153900
13.009200 0.162400
13.048800 0.171700
13.088400 0.183400
13.128000 0.195900
13.167600 0.214400
13.207200 0.234300
13.246800 0.256200
13.286400 0.279800
13.326000 0.305000
13.365600 0.332600
13.405200 0.363500
13.444800 0.393600
13.484400 0.423900
13.524000 0.455500
13.563600 0.509400
13.603200 0.549400
13.642800 0.549200
13.682400 0.566200
13.722000 0.592000
13.761600 0.615100
13.801200 0.650500
13.840800 0.689900
13.880400 0.693900
13.920000 0.693300
13.959600 0.684300
13.999200 0.675100
14.038800 0.672100
14.078400 0.653100
14.118000 0.639600
14.157600 0.612500
14.197200 0.588100
14.236800 0.605900
14.276400 0.551300
14.316000 0.506000
14.355600 0.463000
14.395200 0.423800
14.434700 0.379400
14.474300 0.339500
14.513900 0.313300
14.553500 0.292300
14.593100 0.281700
14.632700 0.270500
14.672300 0.264700
14.711900 0.263200
14.751500 0.265800
14.791100 0.283900
14.830700 0.294800
14.870300 0.308300
14.909900 0.336700
14.949500 0.374400
14.989100 0.414600
15.028700 0.466100
15.068300 0.533900
15.107900 0.605300
15.147500 0.612400
15.187100 0.645800
15.226700 0.718600
15.266300 0.876200
15.305900 0.911400
15.345500 0.922500
15.385100 0.944200
15.424700 0.975100
15.464300 1.019500
15.503900 1.001700
15.543500 0.941300
15.583100 1.028800
15.622700 1.055100
15.662300 1.120300
15.701900 0.988800
15.741500 0.934900
15.781100 0.901100
15.820700 0.827300
15.860300 0.773800
15.899900 0.641800
15.939500 0.610400
15.979100 0.600500
16.018700 0.602900
16.058300 0.586400
16.097900 0.568800
16.137500 0.544500
16.177100 0.530900
16.216700 0.523300
16.256200 0.523600
16.295800 0.515400
16.335400 0.516300
16.375000 0.513200
16.414600 0.512000
16.454200 0.512400
16.493800 0.513000
16.533400 0.514100
16.573000 0.516100
16.612600 0.536200
16.652200 0.540000
16.691800 0.553300
16.731400 0.577500
16.771000 0.593100
16.810600 0.597500
16.850200 0.621300
16.889800 0.626900
16.929400 0.640100
16.969000 0.654600
17.008600 0.660900
17.048200 0.723000
17.087800 0.771000
17.127400 0.797900
17.167000 0.869100
17.206600 1.001500
17.246200 1.280200
17.285800 1.259200
17.325400 1.207400
17.365000 1.078100
17.404600 0.910400
17.444200 0.807600
17.483800 0.729900
17.523400 0.701700
17.563000 0.663100
17.602600 0.642700
17.642200 0.621100
17.681800 0.608400
17.721400 0.617300
17.761000 0.560700
17.800600 0.544900
17.840200 0.554900
17.879800 0.616600
17.919400 0.673700
17.959000 0.530500
17.998600 0.495700
18.038100 0.491600
18.077700 0.717200
18.117300 1.102800
18.156900 1.128800
18.196500 1.121300
18.236100 1.091700
18.275700 1.094100
18.315300 1.171700
18.354900 1.209500
18.394500 1.285000
18.434100 1.346600
18.473700 1.275500
18.513300 1.253400
18.552900 1.152500
18.592500 1.095000
18.632100 1.075300
18.671700 1.064700
18.711300 1.054600
18.750900 1.055700
18.790500 1.015400
18.830100 0.987500
18.869700 0.973200
18.909300 0.943100
18.948900 0.952900
18.988500 0.959600
19.028100 0.922900
19.067700 0.910600
19.107300 0.909300
19.146900 0.933800
19.186500 0.959200
19.226100 1.006300
19.265700 1.042700
19.305300 1.033000
19.344900 1.041400
19.384500 1.097100
19.424100 1.174400
19.463700 1.301400
19.503300 1.472700
19.542900 1.547800
19.582500 1.612600
19.622100 1.715400
19.661700 1.762200
19.701300 1.832500
19.740900 1.901600
19.780500 1.816100
19.820100 1.793300
19.859600 1.501400
19.899200 1.280100
19.938800 1.113500
19.978400 1.046600
20.018000 0.992500
20.057600 0.949900
20.097200 0.918000
20.136800 0.817600
20.176400 0.748600
20.216000 0.683900
20.255600 0.653400
20.295200 0.642900
20.334800 0.667700
20.374400 0.656600
20.414000 0.640400
20.453600 0.607900
20.493200 0.568400
20.532800 0.556500
20.572400 0.535800
20.612000 0.550100
20.651600 0.584900
20.691200 0.616400
20.730800 0.660000
20.770400 0.698300
20.810000 0.835600
20.849600 0.926200
20.889200 0.877100
20.928800 0.856400
20.968400 0.857900
21.008000 0.867600
21.047600 0.894200
21.087200 0.931700
21.126800 0.959100
21.166400 0.992800
21.206000 1.105100
21.245600 1.103400
21.285200 1.071100
21.324800 1.052300
21.364400 1.034800
21.404000 1.044600
21.443600 1.085700
21.483200 1.027900
21.522800 0.935300
21.562400 0.844100
21.602000 0.815800
21.641500 0.801900
21.681100 0.787100
21.720700 0.777500
21.760300 0.771000
21.799900 0.821700
21.839500 0.829200
21.879100 0.735000
21.918700 0.708300
21.958300 0.734800
21.997900 0.769700
22.037500 0.866500
22.077100 1.042800
22.116700 1.063600
22.156300 1.150700
22.195900 1.150300
22.235500 1.220500
22.275100 1.263500
22.314700 1.422600
22.354300 1.343100
22.393900 1.373000
22.433500 1.452200
22.473100 1.402500
22.512700 1.347000
22.552300 1.326800
22.591900 1.248200
22.631500 1.205400
22.671100 1.180400
22.710700 1.080300
22.750300 1.005500
22.789900 0.982300
22.829500 0.990000
22.869100 0.994400
22.908700 0.885500
22.948300 0.863500
22.987900 0.848100
23.027500 0.862100
23.067100 0.881300
23.106700 0.920600
23.146300 1.036000
23.185900 1.088900
23.225500 1.098700
23.265100 1.100100
23.304700 1.081200
23.344300 1.048900
23.383900 0.978300
23.423500 0.899500
23.463000 0.865400
23.502600 0.827000
23.542200 0.759800
23.581800 0.722600
23.621400 0.663200
23.661000 0.569200
23.700600 0.526600
23.740200 0.498200
23.779800 0.480200
23.819400 0.467800
23.859000 0.461400
23.898600 0.496900
23.938200 0.492300
23.977800 0.536700
24.017400 0.591900
24.057000 0.632900
24.096600 0.655900
24.136200 0.670100
24.175800 0.702200
24.215400 0.728600
24.255000 0.746800
24.294600 0.766800
24.334200 0.759200
24.373800 0.738200
24.413400 0.735000
24.453000 0.724400
24.492600 0.709300
24.532200 0.698300
24.571800 0.718600
24.611400 0.778100
24.651000 0.851700
24.690600 0.864300
24.730200 0.861400
24.769800 0.847900
24.809400 0.839200
24.849000 0.843100
24.888600 0.865400
24.928200 0.913000
24.967800 0.936300
25.007400 0.982200
25.047000 1.067900
25.086600 1.102200
25.126200 1.041900
25.165800 0.963100
25.205400 0.977300
25.244900 0.993200
25.284500 0.940000
25.324100 0.907300
25.363700 0.882900
25.403300 0.888000
25.442900 0.916900
25.482500 0.966600
25.522100 1.032200
25.561700 1.133200
25.601300 1.215500
25.640900 1.329600
25.680500 1.453500
25.720100 1.543400
25.759700 1.612200
25.799300 1.505800
25.838900 1.418600
25.878500 1.283200
25.918100 1.180100
25.957700 1.082400
25.997300 1.032500
26.036900 0.990900
26.076500 0.919500
26.116100 0.865800
26.155700 0.851200
26.195300 0.833800
26.234900 0.841100
26.274500 0.853600
26.314100 0.869700
26.353700 0.892800
26.393300 0.919400
26.432900 0.930500
26.472500 0.948700
26.512100 0.944200
26.551700 0.954600
26.591300 0.984100
26.630900 1.011800
26.670500 1.071900
26.710100 1.194600
26.749700 1.331300
26.789300 1.295200
26.828900 1.298000
26.868500 1.278100
26.908100 1.177400
26.947700 1.073600
26.987300 0.985900
27.026900 0.897700
27.066400 0.829300
27.106000 0.770200
27.145600 0.709900
27.185200 0.725800
27.224800 0.818700
27.264400 0.914800
27.304000 0.956900
27.343600 0.997200
27.383200 1.055400
27.422800 1.122100
27.462400 1.209500
27.502000 1.358700
27.541600 1.559400
27.581200 1.723500
27.620800 1.704500
27.660400 1.532000
27.700000 1.481500
27.739600 1.414200
27.779200 1.262400
27.818800 1.167900
27.858400 1.060700
27.898000 0.989800
27.937600 0.975200
27.977200 1.029600
28.016800 1.053800
28.056400 1.131000
28.096000 1.125600
28.135600 1.147500
28.175200 1.153300
28.214800 1.167900
28.254400 1.236600
28.294000 1.373600
28.333600 1.250000
28.373200 1.174200
28.412800 1.135300
28.452400 1.079000
28.492000 0.982800
28.531600 0.877900
28.571200 0.815500
28.610800 0.753800
28.650400 0.698900
28.690000 0.644700
28.729600 0.622500
28.769200 0.615400
28.808800 0.612600
28.848300 0.589700
28.887900 0.585100
28.927500 0.603000
28.967100 0.615500
29.006700 0.636500
29.046300 0.645700
29.085900 0.665000
29.125500 0.738500
29.165100 0.855900
29.204700 0.976500
29.244300 1.052600
29.283900 1.092000
29.323500 1.085200
29.363100 0.957100
29.402700 0.913600
29.442300 0.951300
29.481900 1.060500
29.521500 1.125200
29.561100 1.125500
29.600700 1.121200
29.640300 1.109900
29.679900 1.094900
29.719500 1.085200
29.759100 1.089100
29.798700 1.100000
29.838300 1.117500
29.877900 1.177200
29.917500 1.215800
29.957100 1.229700
29.996700 1.277300
30.036300 1.287300
30.075900 1.204700
30.115500 1.210400
30.155100 1.234000
30.194700 1.217800
30.234300 1.197200
30.273900 1.175600
30.313500 1.088800
30.353100 1.075400
30.392700 1.046000
30.432300 1.040000
30.471900 1.064400
30.511500 1.112300
30.551100 1.223300
30.590700 1.220200
30.630300 1.189200
30.669800 1.096400
30.709400 1.008600
30.749000 0.925400
30.788600 0.841500
30.828200 0.784800
30.867800 0.752100
30.907400 0.705800
30.947000 0.653400
30.986600 0.616700
31.026200 0.573600
31.065800 0.616400
31.105400 0.679000
31.145000 0.722100
31.184600 0.734700
31.224200 0.725500
31.263800 0.729600
31.303400 0.740400
31.343000 0.747600
31.382600 0.884100
31.422200 0.983500
31.461800 1.092800
31.501400 1.173800
31.541000 1.261600
31.580600 1.199400
31.620200 1.163500
31.659800 1.130000
31.699400 1.096800
31.739000 1.086100
31.778600 1.091400
31.818200 1.075100
31.857800 1.060700
31.897400 1.087200
31.937000 1.116100
31.976600 1.114500
32.016200 1.131900
32.055800 1.195100
32.095400 1.204600
32.135000 1.242600
32.174600 1.263900
32.214200 1.327500
32.253800 1.426900
32.293400 1.504900
32.333000 1.550600
32.372600 1.562600
32.412200 1.570800
32.451800 1.529900
32.491300 1.468600
32.530900 1.399900
32.570500 1.326400
32.610100 1.272100
32.649700 1.217900
32.689300 1.143300
32.728900 1.055300
32.768500 0.965000
32.808100 0.929000
32.847700 0.860500
32.887300 0.882300
32.926900 0.869500
32.966500 0.913000
33.006100 0.952600
33.045700 1.002300
33.085300 1.089000
33.124900 1.199300
33.164500 1.311900
33.204100 1.431500
33.243700 1.442900
33.283300 1.486900
33.322900 1.565000
33.362500 1.607000
33.402100 1.586600
33.441700 1.497300
33.481300 1.346800
33.520900 1.336600
33.560500 1.401900
33.600100 1.326900
33.639700 1.284700
33.679300 1.286600
33.718900 1.298900
33.758500 1.180100
33.798100 1.114000
33.837700 1.083500
33.877300 1.078900
33.916900 1.088300
33.956500 1.112900
33.996100 1.171400
34.035700 1.248500
34.075300 1.362300
34.114900 1.451000
34.154500 1.442600
34.194100 1.351600
34.233700 1.334100
34.273200 1.462200
34.312800 1.550800
34.352400 1.645000
34.392000 1.368400
34.431600 1.373000
34.471200 1.638500
34.510800 1.616300
34.550400 1.539000
34.590000 1.485300
34.629600 1.480500
34.669200 1.459900
34.708800 1.451100
34.748400 1.340100
34.788000 1.285000
34.827600 1.177100
34.867200 1.142800
34.906800 1.109700
34.946400 1.081400
34.986000 1.092400
35.025600 1.110900
35.065200 1.110200
35.104800 1.090400
35.144400 1.082300
35.184000 1.054000
35.223600 1.059000
35.263200 1.072000
35.302800 1.083200
35.342400 1.072300
35.382000 1.069700
35.421600 1.038600
35.461200 1.013100
35.500800 1.009600
35.540400 0.997500
35.580000 1.107000
35.619600 1.298800
35.659200 1.399400
35.698800 1.456300
35.738400 1.459700
35.778000 1.382700
35.817600 1.229800
35.857200 1.114900
35.896800 1.017400
35.936400 0.932000
35.976000 0.720200
36.015600 0.863800
36.055200 0.957700
36.094700 0.981300
36.134300 1.109400
36.173900 1.347200
36.213500 1.594200
36.253100 1.868500
36.292700 1.879300
36.332300 1.739900
36.371900 1.687900
36.411500 1.493800
36.451100 1.310500
36.490700 1.224200
36.530300 1.235400
36.569900 1.823000
36.609500 1.423600
36.649100 1.317500
36.688700 1.303300
36.728300 1.312900
36.767900 1.464500
36.807500 1.351600
36.847100 1.263100
36.886700 1.266700
36.926300 1.297200
36.965900 1.347900
37.005500 1.378800
37.045100 1.438400
37.084700 1.453900
37.124300 1.516000
37.163900 1.506200
37.203500 1.495400
37.243100 1.437400
37.282700 1.357500
37.322300 1.252000
37.361900 1.165600
37.401500 1.115200
37.441100 1.064000
37.480700 1.062400
37.520300 1.070200
37.559900 1.087100
37.599500 1.050400
37.639100 1.042200
37.678700 1.113900
37.718300 1.201500
37.757900 1.282300
37.797500 1.410600
37.837100 1.828900
37.876600 1.814800
37.916200 2.096900
37.955800 1.621800
37.995400 1.530700
38.035000 1.451800
38.074600 1.361200
38.114200 1.282500
38.153800 1.205300
38.193400 1.159000
38.233000 1.141100
38.272600 1.087300
38.312200 1.099500
38.351800 1.136100
38.391400 1.236700
38.431000 1.232700
38.470600 1.159100
38.510200 1.060900
38.549800 0.947800
38.589400 0.872900
38.629000 0.827500
38.668600 0.804600
38.708200 0.777100
38.747800 0.792400
38.787400 0.882700
38.827000 1.088300
38.866600 1.082500
38.906200 1.024200
38.945800 0.915900
38.985400 0.772600
39.025000 0.634000
39.064600 0.478500
39.104200 0.405600
39.143800 0.354500
39.183400 0.321000
39.223000 0.300700
39.262600 0.279800
39.302200 0.265400
39.341800 0.274900
39.381400 0.253800
39.421000 0.249100
39.460600 0.242400
39.500200 0.239400
39.539800 0.233200
39.579400 0.221800
39.619000 0.354500
39.658600 0.179000
39.698100 0.132700
39.737700 0.080300
39.777300 0.045100
39.816900 0.025300
39.856500 0.017300
39.896100 0.014800
39.935700 0.011100
39.975300 0.007800
40.014900 0.004800
40.054500 0.002100
40.094100 0.000000
40.133700 0.000000
40.173300 0.000000
40.212900 0.000000
40.252500 0.000000
40.292100 0.000000
40.331700 0.000000
40.371300 0.000000
40.410900 0.000000
40.450500 0.000000
40.490100 0.000000
40.529700 0.000000
40.569300 0.000000
40.608900 0.000000
40.648500 0.000000
40.688100 0.000000
40.727700 0.000000
40.767300 0.000000
40.806900 0.000000
40.846500 0.000000
40.886100 0.000000
40.925700 0.000000
40.965300 0.000000
41.004900 0.000000
41.044500 0.000000
41.084100 0.000000
41.123700 0.000000
41.163300 0.000000
41.202900 0.000000
41.242500 0.000000
41.282100 0.000000
41.321700 0.000000
41.361300 0.000000
41.400900 0.000000
41.440500 0.000000
41.480000 0.000000
41.519600 0.000000
41.559200 0.000000
41.598800 0.000000
41.638400 0.000000
41.678000 0.000000
41.717600 0.000000
41.757200 0.000000
41.796800 0.000000
41.836400 0.000000
41.876000 0.000000
41.915600 0.000000
41.955200 0.000000
41.994800 0.000000
42.034400 0.000000
42.074000 0.000000
42.113600 0.000000
42.153200 0.000000
42.192800 0.000000
42.232400 0.000000
42.272000 0.000000
42.311600 0.000000
42.351200 0.000000
42.390800 0.000000
42.430400 0.000000
42.470000 0.000000
42.509600 0.000000
42.549200 0.000000
42.588800 0.000000
42.628400 0.000000
42.668000 0.000000
42.707600 0.000000
42.747200 0.000000
42.786800 0.000000
42.826400 0.000000
42.866000 0.000000
42.905600 0.000000
42.945200 0.000000
42.984800 0.000000
43.024400 0.000000
43.064000 0.000000
43.103600 0.000000
43.143200 0.000000
43.182800 0.000000
43.222400 0.000000
43.262000 0.000000
43.301500 0.000000
43.341100 0.000000
43.380700 0.000000
43.420300 0.000000
43.459900 0.000000
43.499500 0.000000
43.539100 0.000000
43.578700 0.000000
43.618300 0.000000
43.657900 0.000000
43.697500 0.000000
43.737100 0.000000
e
