set title 'mp-601820 - Density of States'
set xlabel 'Energy (eV)'
set ylabel 'DOS (states/eV)'
set grid
set xrange [-10:10]
set yrange [0:11.813]
set xzeroaxis lt -1
set terminal png size 800,600
set output 'mp-601820_dos_gnuplot.png'
plot '-' using 1:2 with lines title 'DOS'
-54.735800 0.000000
-54.675900 0.000000
-54.616100 0.000000
-54.556300 0.000000
-54.496400 0.000000
-54.436600 0.000000
-54.376800 0.000000
-54.316900 0.000000
-54.257100 0.000000
-54.197300 0.000000
-54.137400 0.000000
-54.077600 0.000000
-54.017800 0.000000
-53.957900 0.000000
-53.898100 0.000000
-53.838300 0.000000
-53.778400 0.000000
-53.718600 0.000000
-53.658800 0.000000
-53.598900 0.000000
-53.539100 0.000000
-53.479300 0.000000
-53.419400 0.000000
-53.359600 0.000000
-53.299800 0.000000
-53.239900 0.000000
-53.180100 0.000000
-53.120300 0.000000
-53.060400 0.000000
-53.000600 0.000000
-52.940800 0.000000
-52.880900 0.000000
-52.821100 0.000000
-52.761300 0.000000
-52.701400 0.000000
-52.641600 0.000000
-52.581800 0.000000
-52.521900 0.000000
-52.462100 0.000000
-52.402300 0.000000
-52.342400 0.000000
-52.282600 0.000000
-52.222800 0.000000
-52.162900 0.000000
-52.103100 0.000000
-52.043300 0.000000
-51.983400 0.000000
-51.923600 0.000000
-51.863800 0.000000
-51.803900 0.000000
-51.744100 0.000000
-51.684200 0.000000
-51.624400 0.000000
-51.564600 0.000000
-51.504700 0.000000
-51.444900 0.000000
-51.385100 0.000000
-51.325200 0.000000
-51.265400 0.000000
-51.205600 0.000000
-51.145700 0.000000
-51.085900 0.000000
-51.026100 0.000000
-50.966200 0.000000
-50.906400 0.000000
-50.846600 0.000000
-50.786700 0.000000
-50.726900 0.000000
-50.667100 0.000000
-50.607200 0.000000
-50.547400 0.000000
-50.487600 0.000000
-50.427700 0.000000
-50.367900 0.000000
-50.308100 0.000000
-50.248200 0.000000
-50.188400 0.000000
-50.128600 0.000000
-50.068700 0.000000
-50.008900 0.000000
-49.949100 0.000000
-49.889200 0.000000
-49.829400 0.000000
-49.769600 0.000000
-49.709700 0.000000
-49.649900 0.000000
-49.590100 0.000000
-49.530200 0.000000
-49.470400 0.000000
-49.410600 0.000000
-49.350700 0.000000
-49.290900 14.036600
-49.231100 14.515500
-49.171200 24.208800
-49.111400 21.434800
-49.051600 0.000000
-48.991700 0.000000
-48.931900 0.000000
-48.872100 0.000000
-48.812200 0.000000
-48.752400 0.000000
-48.692600 42.592200
-48.632700 0.000000
-48.572900 0.000000
-48.513100 0.000000
-48.453200 0.000000
-48.393400 0.000000
-48.333600 0.000000
-48.273700 0.000000
-48.213900 0.000000
-48.154000 0.000000
-48.094200 0.000000
-48.034400 0.000000
-47.974500 0.000000
-47.914700 0.000000
-47.854900 0.000000
-47.795000 0.000000
-47.735200 0.000000
-47.675400 0.000000
-47.615500 0.000000
-47.555700 0.000000
-47.495900 0.000000
-47.436000 0.000000
-47.376200 0.000000
-47.316400 0.000000
-47.256500 0.000000
-47.196700 0.000000
-47.136900 0.000000
-47.077000 0.000000
-47.017200 0.000000
-46.957400 0.000000
-46.897500 0.000000
-46.837700 0.000000
-46.777900 0.000000
-46.718000 0.000000
-46.658200 0.000000
-46.598400 0.000000
-46.538500 0.000000
-46.478700 0.000000
-46.418900 0.000000
-46.359000 0.000000
-46.299200 0.000000
-46.239400 0.000000
-46.179500 0.000000
-46.119700 0.000000
-46.059900 0.000000
-46.000000 0.000000
-45.940200 0.000000
-45.880400 0.000000
-45.820500 0.000000
-45.760700 0.000000
-45.700900 0.000000
-45.641000 0.000000
-45.581200 0.000000
-45.521400 0.000000
-45.461500 0.000000
-45.401700 0.000000
-45.341900 0.000000
-45.282000 0.000000
-45.222200 0.000000
-45.162400 0.000000
-45.102500 0.000000
-45.042700 0.000000
-44.982900 0.000000
-44.923000 0.000000
-44.863200 0.000000
-44.803300 0.000000
-44.743500 0.000000
-44.683700 0.000000
-44.623800 0.000000
-44.564000 0.000000
-44.504200 0.000000
-44.444300 0.000000
-44.384500 0.000000
-44.324700 0.000000
-44.264800 0.000000
-44.205000 0.000000
-44.145200 0.000000
-44.085300 0.000000
-44.025500 0.000000
-43.965700 0.000000
-43.905800 0.000000
-43.846000 0.000000
-43.786200 0.000000
-43.726300 0.000000
-43.666500 0.000000
-43.606700 0.000000
-43.546800 0.000000
-43.487000 0.000000
-43.427200 0.000000
-43.367300 0.000000
-43.307500 0.000000
-43.247700 0.000000
-43.187800 0.000000
-43.128000 0.000000
-43.068200 0.000000
-43.008300 0.000000
-42.948500 0.000000
-42.888700 0.000000
-42.828800 0.000000
-42.769000 0.000000
-42.709200 0.000000
-42.649300 0.000000
-42.589500 0.000000
-42.529700 0.000000
-42.469800 0.000000
-42.410000 0.000000
-42.350200 0.000000
-42.290300 0.000000
-42.230500 0.000000
-42.170700 0.000000
-42.110800 0.000000
-42.051000 0.000000
-41.991200 0.000000
-41.931300 0.000000
-41.871500 0.000000
-41.811700 0.000000
-41.751800 0.000000
-41.692000 0.000000
-41.632200 0.000000
-41.572300 0.000000
-41.512500 0.000000
-41.452600 0.000000
-41.392800 0.000000
-41.333000 0.000000
-41.273100 0.000000
-41.213300 0.000000
-41.153500 0.000000
-41.093600 0.000000
-41.033800 0.000000
-40.974000 0.000000
-40.914100 0.000000
-40.854300 0.000000
-40.794500 0.000000
-40.734600 0.000000
-40.674800 0.000000
-40.615000 0.000000
-40.555100 0.000000
-40.495300 0.000000
-40.435500 0.000000
-40.375600 0.000000
-40.315800 0.000000
-40.256000 0.000000
-40.196100 0.000000
-40.136300 0.000000
-40.076500 0.000000
-40.016600 0.000000
-39.956800 0.000000
-39.897000 0.000000
-39.837100 0.000000
-39.777300 0.000000
-39.717500 0.000000
-39.657600 0.000000
-39.597800 0.000000
-39.538000 0.000000
-39.478100 0.000000
-39.418300 0.000000
-39.358500 0.000000
-39.298600 0.000000
-39.238800 0.000000
-39.179000 0.000000
-39.119100 0.000000
-39.059300 0.000000
-38.999500 0.000000
-38.939600 0.000000
-38.879800 0.000000
-38.820000 0.000000
-38.760100 0.000000
-38.700300 0.000000
-38.640500 0.000000
-38.580600 0.000000
-38.520800 0.000000
-38.461000 0.000000
-38.401100 0.000000
-38.341300 0.000000
-38.281500 0.000000
-38.221600 0.000000
-38.161800 0.000000
-38.101900 0.000000
-38.042100 0.000000
-37.982300 0.000000
-37.922400 0.000000
-37.862600 0.000000
-37.802800 0.000000
-37.742900 0.000000
-37.683100 0.000000
-37.623300 0.000000
-37.563400 0.000000
-37.503600 0.000000
-37.443800 0.000000
-37.383900 0.000000
-37.324100 0.000000
-37.264300 0.000000
-37.204400 0.000000
-37.144600 0.000000
-37.084800 0.000000
-37.024900 0.000000
-36.965100 0.000000
-36.905300 0.000000
-36.845400 0.000000
-36.785600 0.000000
-36.725800 0.000000
-36.665900 0.000000
-36.606100 0.000000
-36.546300 0.000000
-36.486400 0.000000
-36.426600 0.000000
-36.366800 0.000000
-36.306900 0.000000
-36.247100 0.000000
-36.187300 0.000000
-36.127400 0.000000
-36.067600 0.000000
-36.007800 0.000000
-35.947900 0.000000
-35.888100 0.000000
-35.828300 0.000000
-35.768400 0.000000
-35.708600 0.000000
-35.648800 0.000000
-35.588900 0.000000
-35.529100 0.000000
-35.469300 0.000000
-35.409400 0.000000
-35.349600 0.000000
-35.289800 0.000000
-35.229900 0.000000
-35.170100 0.000000
-35.110300 0.000000
-35.050400 0.000000
-34.990600 0.000000
-34.930800 0.000000
-34.870900 0.000000
-34.811100 0.000000
-34.751200 0.000000
-34.691400 0.000000
-34.631600 0.000000
-34.571700 0.000000
-34.511900 0.000000
-34.452100 0.000000
-34.392200 0.000000
-34.332400 0.000000
-34.272600 0.000000
-34.212700 0.000000
-34.152900 0.000000
-34.093100 0.000000
-34.033200 0.000000
-33.973400 0.000000
-33.913600 0.000000
-33.853700 0.000000
-33.793900 0.000000
-33.734100 0.000000
-33.674200 0.000000
-33.614400 0.000000
-33.554600 0.000000
-33.494700 0.000000
-33.434900 0.000000
-33.375100 0.000000
-33.315200 0.000000
-33.255400 0.000000
-33.195600 0.000000
-33.135700 0.000000
-33.075900 0.000000
-33.016100 0.000000
-32.956200 0.000000
-32.896400 0.000000
-32.836600 0.000000
-32.776700 0.000000
-32.716900 0.000000
-32.657100 0.000000
-32.597200 0.000000
-32.537400 0.000000
-32.477600 0.000000
-32.417700 0.000000
-32.357900 0.000000
-32.298100 0.000000
-32.238200 0.000000
-32.178400 0.000000
-32.118600 0.000000
-32.058700 0.000000
-31.998900 0.000000
-31.939100 0.000000
-31.879200 0.000000
-31.819400 0.000000
-31.759600 0.000000
-31.699700 0.000000
-31.639900 0.000000
-31.580100 0.000000
-31.520200 0.000000
-31.460400 0.000000
-31.400500 0.000000
-31.340700 0.000000
-31.280900 0.000000
-31.221000 0.000000
-31.161200 0.000000
-31.101400 0.000000
-31.041500 0.000000
-30.981700 0.000000
-30.921900 0.000000
-30.862000 0.000000
-30.802200 0.000000
-30.742400 0.000000
-30.682500 0.000000
-30.622700 0.000000
-30.562900 0.000000
-30.503000 0.000000
-30.443200 0.000000
-30.383400 0.000000
-30.323500 0.000000
-30.263700 0.000000
-30.203900 0.000000
-30.144000 0.000000
-30.084200 0.000000
-30.024400 0.000000
-29.964500 0.000000
-29.904700 0.000000
-29.844900 0.000000
-29.785000 0.000000
-29.725200 0.000000
-29.665400 0.000000
-29.605500 0.000000
-29.545700 0.000000
-29.485900 0.000000
-29.426000 0.000000
-29.366200 0.000000
-29.306400 0.000000
-29.246500 0.000000
-29.186700 0.000000
-29.126900 0.000000
-29.067000 0.000000
-29.007200 0.000000
-28.947400 0.000000
-28.887500 0.000000
-28.827700 0.000000
-28.767900 0.000000
-28.708000 0.000000
-28.648200 0.000000
-28.588400 0.000000
-28.528500 0.000000
-28.468700 0.000000
-28.408900 0.000000
-28.349000 0.000000
-28.289200 0.000000
-28.229400 0.000000
-28.169500 0.000000
-28.109700 0.000000
-28.049800 0.000000
-27.990000 0.000000
-27.930200 0.000000
-27.870300 0.000000
-27.810500 0.000000
-27.750700 0.000000
-27.690800 0.000000
-27.631000 0.000000
-27.571200 0.000000
-27.511300 0.000000
-27.451500 0.000000
-27.391700 0.000000
-27.331800 0.000000
-27.272000 0.000000
-27.212200 0.000000
-27.152300 0.000000
-27.092500 0.000000
-27.032700 0.000000
-26.972800 0.000000
-26.913000 0.000000
-26.853200 0.000000
-26.793300 0.000000
-26.733500 0.000000
-26.673700 0.000000
-26.613800 0.000000
-26.554000 0.000000
-26.494200 0.000000
-26.434300 0.000000
-26.374500 0.000000
-26.314700 0.000000
-26.254800 0.000000
-26.195000 0.000000
-26.135200 0.000000
-26.075300 0.000000
-26.015500 0.000000
-25.955700 0.000000
-25.895800 0.000000
-25.836000 0.000000
-25.776200 0.000000
-25.716300 0.000000
-25.656500 0.000000
-25.596700 0.000000
-25.536800 0.000000
-25.477000 0.000000
-25.417200 0.000000
-25.357300 0.000000
-25.297500 0.000000
-25.237700 0.000000
-25.177800 0.000000
-25.118000 0.000000
-25.058200 0.000000
-24.998300 0.000000
-24.938500 0.000000
-24.878700 0.000000
-24.818800 0.000000
-24.759000 0.000000
-24.699100 0.000000
-24.639300 0.000000
-24.579500 0.000000
-24.519600 0.000000
-24.459800 0.000000
-24.400000 0.000000
-24.340100 0.000000
-24.280300 0.000000
-24.220500 0.000000
-24.160600 0.000000
-24.100800 0.000000
-24.041000 0.000000
-23.981100 0.000000
-23.921300 0.000000
-23.861500 0.000000
-23.801600 0.000000
-23.741800 0.000000
-23.682000 0.000000
-23.622100 0.000000
-23.562300 0.000000
-23.502500 0.000000
-23.442600 0.000000
-23.382800 0.000000
-23.323000 0.000000
-23.263100 0.000000
-23.203300 0.000000
-23.143500 0.000000
-23.083600 0.000000
-23.023800 0.000000
-22.964000 0.000000
-22.904100 0.000000
-22.844300 0.000000
-22.784500 0.000000
-22.724600 0.000000
-22.664800 0.000000
-22.605000 0.000000
-22.545100 0.000000
-22.485300 0.000000
-22.425500 0.000000
-22.365600 0.000000
-22.305800 0.000000
-22.246000 0.000000
-22.186100 0.000000
-22.126300 0.000000
-22.066500 0.000000
-22.006600 0.000000
-21.946800 0.000000
-21.887000 0.000000
-21.827100 0.000000
-21.767300 0.000000
-21.707500 0.000000
-21.647600 0.000000
-21.587800 0.000000
-21.528000 0.000000
-21.468100 0.000000
-21.408300 0.000000
-21.348400 0.000000
-21.288600 0.000000
-21.228800 0.000000
-21.168900 0.000000
-21.109100 0.000000
-21.049300 0.000000
-20.989400 0.000000
-20.929600 0.000000
-20.869800 0.000000
-20.809900 0.000000
-20.750100 0.000000
-20.690300 0.000000
-20.630400 0.000000
-20.570600 0.000000
-20.510800 0.000000
-20.450900 0.000000
-20.391100 0.000000
-20.331300 0.000000
-20.271400 0.000000
-20.211600 0.000000
-20.151800 0.000000
-20.091900 0.000000
-20.032100 0.000000
-19.972300 0.000000
-19.912400 0.000000
-19.852600 0.000000
-19.792800 0.000000
-19.732900 0.000000
-19.673100 0.000000
-19.613300 0.000000
-19.553400 0.000000
-19.493600 0.000000
-19.433800 0.000000
-19.373900 0.000000
-19.314100 0.000000
-19.254300 0.000000
-19.194400 0.000000
-19.134600 0.000000
-19.074800 0.000000
-19.014900 0.000000
-18.955100 0.000000
-18.895300 0.000000
-18.835400 0.000000
-18.775600 0.000000
-18.715800 0.000000
-18.655900 0.000000
-18.596100 0.000000
-18.536300 0.000000
-18.476400 0.000000
-18.416600 0.000000
-18.356800 0.000000
-18.296900 0.000000
-18.237100 0.000000
-18.177300 0.000000
-18.117400 0.000000
-18.057600 0.000000
-17.997800 0.000000
-17.937900 0.000000
-17.878100 0.000000
-17.818200 0.000000
-17.758400 0.000000
-17.698600 0.000000
-17.638700 0.000000
-17.578900 0.000000
-17.519100 0.000000
-17.459200 0.000000
-17.399400 0.000000
-17.339600 0.000000
-17.279700 0.000000
-17.219900 0.000000
-17.160100 0.000000
-17.100200 0.000000
-17.040400 0.000000
-16.980600 0.000000
-16.920700 0.000000
-16.860900 0.000000
-16.801100 0.000000
-16.741200 0.000000
-16.681400 0.000000
-16.621600 0.000000
-16.561700 0.000000
-16.501900 0.000000
-16.442100 0.000000
-16.382200 0.000000
-16.322400 0.000000
-16.262600 0.000000
-16.202700 0.000000
-16.142900 0.000000
-16.083100 0.000000
-16.023200 0.000000
-15.963400 0.000000
-15.903600 0.000000
-15.843700 0.000000
-15.783900 0.000000
-15.724100 0.000000
-15.664200 0.000000
-15.604400 0.000000
-15.544600 0.000000
-15.484700 0.000000
-15.424900 0.000000
-15.365100 0.000000
-15.305200 0.000000
-15.245400 0.000000
-15.185600 0.000000
-15.125700 0.000000
-15.065900 0.000000
-15.006100 0.000000
-14.946200 0.000000
-14.886400 0.000000
-14.826600 0.000000
-14.766700 0.000000
-14.706900 0.000000
-14.647100 0.000000
-14.587200 0.000000
-14.527400 0.000000
-14.467500 0.000000
-14.407700 0.000000
-14.347900 0.000000
-14.288000 0.000000
-14.228200 0.000000
-14.168400 0.000000
-14.108500 0.000000
-14.048700 0.000000
-13.988900 0.000000
-13.929000 0.000000
-13.869200 0.000000
-13.809400 0.000000
-13.749500 0.000000
-13.689700 0.000000
-13.629900 0.000000
-13.570000 0.000000
-13.510200 0.000000
-13.450400 0.000000
-13.390500 0.000000
-13.330700 0.000000
-13.270900 0.000000
-13.211000 0.000000
-13.151200 0.000000
-13.091400 0.000000
-13.031500 0.000000
-12.971700 0.000000
-12.911900 0.000000
-12.852000 0.000000
-12.792200 0.000000
-12.732400 0.000000
-12.672500 0.000000
-12.612700 0.000000
-12.552900 0.000000
-12.493000 0.000000
-12.433200 0.000000
-12.373400 0.000000
-12.313500 0.000000
-12.253700 0.000000
-12.193900 0.000000
-12.134000 0.000000
-12.074200 0.000000
-12.014400 0.000000
-11.954500 0.000000
-11.894700 0.000000
-11.834900 0.000000
-11.775000 0.000000
-11.715200 0.000000
-11.655400 0.000000
-11.595500 0.000000
-11.535700 0.000000
-11.475900 0.000000
-11.416000 0.000000
-11.356200 0.000000
-11.296400 0.000000
-11.236500 0.000000
-11.176700 0.000000
-11.116800 0.000000
-11.057000 0.000000
-10.997200 0.000000
-10.937300 0.000000
-10.877500 0.000000
-10.817700 0.000000
-10.757800 0.000000
-10.698000 0.000000
-10.638200 0.000000
-10.578300 0.000000
-10.518500 0.000000
-10.458700 0.000000
-10.398800 0.000000
-10.339000 0.000000
-10.279200 0.000000
-10.219300 0.000000
-10.159500 0.000000
-10.099700 0.000000
-10.039800 0.000000
-9.980000 0.000000
-9.920200 0.000000
-9.860300 0.000000
-9.800500 0.000000
-9.740700 0.000000
-9.680800 0.000000
-9.621000 0.000000
-9.561200 0.000000
-9.501300 0.000000
-9.441500 0.000000
-9.381700 0.000000
-9.321800 0.000000
-9.262000 0.000000
-9.202200 0.000000
-9.142300 0.000000
-9.082500 0.000000
-9.022700 0.000000
-8.962800 0.000000
-8.903000 0.000000
-8.843200 0.000000
-8.783300 0.000000
-8.723500 0.000000
-8.663700 0.000000
-8.603800 0.000000
-8.544000 0.000000
-8.484200 0.000000
-8.424300 0.000000
-8.364500 0.000000
-8.304700 0.000000
-8.244800 0.000000
-8.185000 0.000000
-8.125200 0.000000
-8.065300 0.000000
-8.005500 0.000000
-7.945700 0.000000
-7.885800 0.000000
-7.826000 0.000000
-7.766100 0.000000
-7.706300 0.000000
-7.646500 0.000000
-7.586600 0.000000
-7.526800 0.000000
-7.467000 0.000000
-7.407100 0.000000
-7.347300 0.000000
-7.287500 0.000000
-7.227600 0.000000
-7.167800 0.000000
-7.108000 0.000000
-7.048100 0.000000
-6.988300 0.000000
-6.928500 0.000000
-6.868600 0.000000
-6.808800 0.000000
-6.749000 0.000000
-6.689100 0.000000
-6.629300 0.000000
-6.569500 0.000000
-6.509600 0.000000
-6.449800 0.000000
-6.390000 0.000000
-6.330100 0.000000
-6.270300 0.000000
-6.210500 0.000000
-6.150600 0.000000
-6.090800 0.000000
-6.031000 0.000000
-5.971100 0.000000
-5.911300 0.000000
-5.851500 0.000000
-5.791600 0.000000
-5.731800 0.000000
-5.672000 0.000000
-5.612100 0.000000
-5.552300 0.000000
-5.492500 0.000000
-5.432600 0.000000
-5.372800 0.000000
-5.313000 0.000000
-5.253100 0.000000
-5.193300 0.000000
-5.133500 0.000000
-5.073600 0.000000
-5.013800 0.000000
-4.954000 0.000000
-4.894100 0.000000
-4.834300 0.000000
-4.774500 0.000000
-4.714600 0.000000
-4.654800 0.000000
-4.595000 0.000000
-4.535100 0.000000
-4.475300 0.000000
-4.415400 0.000000
-4.355600 0.000000
-4.295800 0.000000
-4.235900 0.000000
-4.176100 0.000000
-4.116300 0.000000
-4.056400 0.000000
-3.996600 0.000000
-3.936800 0.000000
-3.876900 0.000000
-3.817100 0.000000
-3.757300 0.000000
-3.697400 0.000000
-3.637600 0.000000
-3.577800 0.000000
-3.517900 0.000000
-3.458100 0.000000
-3.398300 0.000000
-3.338400 0.000000
-3.278600 0.015200
-3.218800 0.043800
-3.158900 0.048800
-3.099100 0.060700
-3.039300 0.075000
-2.979400 0.080900
-2.919600 0.085700
-2.859800 0.093400
-2.799900 0.100800
-2.740100 0.108500
-2.680300 0.117000
-2.620400 0.121500
-2.560600 0.126700
-2.500800 0.132300
-2.440900 0.137600
-2.381100 0.143900
-2.321300 0.150700
-2.261400 0.157800
-2.201600 0.164200
-2.141800 0.168700
-2.081900 0.173900
-2.022100 0.179600
-1.962300 0.185400
-1.902400 0.191700
-1.842600 0.198100
-1.782800 0.204700
-1.722900 0.211300
-1.663100 0.218300
-1.603300 0.225700
-1.543400 0.233200
-1.483600 0.241000
-1.423800 0.249000
-1.363900 0.257100
-1.304100 0.265300
-1.244300 0.273900
-1.184400 0.283600
-1.124600 0.291800
-1.064700 0.291700
-1.004900 0.299100
-0.945100 0.311100
-0.885200 0.321200
-0.825400 0.334200
-0.765600 0.347500
-0.705700 0.361900
-0.645900 0.377000
-0.586100 0.393100
-0.526200 0.411100
-0.466400 0.432200
-0.406600 0.453600
-0.346700 0.476500
-0.286900 0.505800
-0.227100 0.538400
-0.167200 0.574400
-0.107400 0.620500
-0.047600 0.683200
0.012300 0.751200
0.072100 0.859400
0.131900 1.490800
0.191800 1.439800
0.251600 1.778300
0.311400 2.014900
0.371300 2.055000
0.431100 2.131500
0.490900 2.263800
0.550800 2.357200
0.610600 2.586400
0.670400 2.958400
0.730300 3.178500
0.790100 3.403800
0.849900 3.898600
0.909800 4.439400
0.969600 4.531700
1.029400 3.557800
1.089300 3.076800
1.149100 2.803700
1.208900 2.667500
1.268800 2.165000
1.328600 1.931000
1.388400 1.594100
1.448300 1.278400
1.508100 3.495800
1.567900 5.893700
1.627800 6.804800
1.687600 6.318900
1.747400 6.302000
1.807300 5.722000
1.867100 4.948800
1.926900 4.070200
1.986800 4.412500
2.046600 4.404400
2.106400 4.156400
2.166300 4.288200
2.226100 5.078200
2.286000 5.853300
2.345800 5.949300
2.405600 5.669500
2.465500 5.650100
2.525300 6.353300
2.585100 4.799100
2.645000 3.372600
2.704800 2.864200
2.764600 2.435500
2.824500 2.051700
2.884300 1.818200
2.944100 1.796700
3.004000 1.627200
3.063800 1.857100
3.123600 2.180000
3.183500 2.723000
3.243300 2.476000
3.303100 2.226900
3.363000 2.843400
3.422800 4.004600
3.482600 4.970600
3.542500 6.180900
3.602300 6.878900
3.662100 8.021000
3.722000 8.035900
3.781800 5.886100
3.841600 5.970400
3.901500 6.256800
3.961300 5.996100
4.021100 6.780400
4.081000 10.738900
4.140800 10.569400
4.200600 7.485500
4.260500 4.686300
4.320300 5.144400
4.380100 5.456000
4.440000 4.622800
4.499800 3.700900
4.559600 4.025800
4.619500 3.467800
4.679300 3.357700
4.739100 2.979000
4.799000 2.785700
4.858800 2.842800
4.918600 2.210600
4.978500 1.789100
5.038300 1.380400
5.098100 1.150500
5.158000 1.094600
5.217800 0.773500
5.277600 0.667500
5.337500 0.635600
5.397300 0.612000
5.457100 0.582400
5.517000 0.554400
5.576800 0.585100
5.636700 0.590600
5.696500 0.582200
5.756300 0.583500
5.816200 0.589300
5.876000 0.598100
5.935800 0.591100
5.995700 0.604000
6.055500 0.617600
6.115300 0.630600
6.175200 0.637700
6.235000 0.639400
6.294800 0.619300
6.354700 0.609200
6.414500 0.607200
6.474300 0.608000
6.534200 0.600500
6.594000 0.595300
6.653800 0.593300
6.713700 0.602000
6.773500 0.598200
6.833300 0.524300
6.893200 0.514300
6.953000 0.526100
7.012800 0.555800
7.072700 0.541200
7.132500 0.504300
7.192300 0.487200
7.252200 0.479000
7.312000 0.482600
7.371800 0.490800
7.431700 0.498600
7.491500 0.555700
7.551300 0.506500
7.611200 0.516500
7.671000 0.524200
7.730800 0.526600
7.790700 0.524900
7.850500 0.520400
7.910300 0.511600
7.970200 0.498300
8.030000 0.491600
8.089800 0.485300
8.149700 0.483900
8.209500 0.483000
8.269300 0.484000
8.329200 0.479800
8.389000 0.471400
8.448800 0.464100
8.508700 0.453400
8.568500 0.435900
8.628300 0.426300
8.688200 0.422200
8.748000 0.417000
8.807800 0.405000
8.867700 0.398800
8.927500 0.398500
8.987400 0.415600
9.047200 0.427700
9.107000 0.394600
9.166900 0.384700
9.226700 0.381500
9.286500 0.377000
9.346400 0.371600
9.406200 0.361600
9.466000 0.354300
9.525900 0.349700
9.585700 0.348300
9.645500 0.344700
9.705400 0.340500
9.765200 0.336000
9.825000 0.331400
9.884900 0.327000
9.944700 0.322000
10.004500 0.316600
10.064400 0.311500
10.124200 0.306800
10.184000 0.300900
10.243900 0.294700
10.303700 0.288800
10.363500 0.281700
10.423400 0.273800
10.483200 0.262700
10.543000 0.254500
10.602900 0.246800
10.662700 0.239900
10.722500 0.232700
10.782400 0.225300
10.842200 0.218000
10.902000 0.213800
10.961900 0.205400
11.021700 0.197800
11.081500 0.191400
11.141400 0.181700
11.201200 0.172800
11.261000 0.164700
11.320900 0.156700
11.380700 0.151200
11.440500 0.145300
11.500400 0.139100
11.560200 0.132700
11.620000 0.126100
11.679900 0.123400
11.739700 0.124200
11.799500 0.118600
11.859400 0.144600
11.919200 0.168300
11.979000 0.270300
12.038900 0.418800
12.098700 0.468900
12.158500 0.558200
12.218400 0.594900
12.278200 0.685300
12.338100 0.773800
12.397900 0.867200
12.457700 0.915400
12.517600 0.872200
12.577400 0.851800
12.637200 0.862500
12.697100 0.871300
12.756900 0.896000
12.816700 0.907500
12.876600 0.925300
12.936400 0.924700
12.996200 0.878400
13.056100 0.825700
13.115900 0.791200
13.175700 0.755700
13.235600 0.712700
13.295400 0.682400
13.355200 0.656700
13.415100 0.637800
13.474900 0.620300
13.534700 0.617600
13.594600 0.652600
13.654400 0.685500
13.714200 0.690400
13.774100 0.685500
13.833900 0.661200
13.893700 0.637800
13.953600 0.638700
14.013400 0.631000
14.073200 0.621200
14.133100 0.622700
14.192900 0.639500
14.252700 0.669700
14.312600 0.697100
14.372400 0.726000
14.432200 0.725200
14.492100 0.705600
14.551900 0.701600
14.611700 0.692300
14.671600 0.699900
14.731400 0.696300
14.791200 0.697800
14.851100 0.724300
14.910900 0.764900
14.970700 0.801600
15.030600 0.834100
15.090400 0.815000
15.150200 0.805900
15.210100 0.811100
15.269900 0.818800
15.329700 0.813600
15.389600 0.806200
15.449400 0.793200
15.509200 0.783400
15.569100 0.772900
15.628900 0.769400
15.688700 0.761400
15.748600 0.759200
15.808400 0.774300
15.868300 0.803500
15.928100 0.834300
15.987900 0.834200
16.047800 0.841800
16.107600 0.850800
16.167400 0.818700
16.227300 0.763000
16.287100 0.711100
16.346900 0.685000
16.406800 0.657400
16.466600 0.640400
16.526400 0.634300
16.586300 0.635200
16.646100 0.640400
16.705900 0.650000
16.765800 0.667000
16.825600 0.690900
16.885400 0.713600
16.945300 0.735600
17.005100 0.772800
17.064900 0.821100
17.124800 0.762900
17.184600 0.714200
17.244400 0.700200
17.304300 0.692800
17.364100 0.686800
17.423900 0.676600
17.483800 0.668500
17.543600 0.655400
17.603400 0.642200
17.663300 0.628100
17.723100 0.637400
17.782900 0.664700
17.842800 0.702500
17.902600 0.699100
17.962400 0.699200
18.022300 0.706100
18.082100 0.706400
18.141900 0.709000
18.201800 0.700900
18.261600 0.705800
18.321400 0.705400
18.381300 0.709200
18.441100 0.718300
18.500900 0.734300
18.560800 0.745800
18.620600 0.756100
18.680400 0.761000
18.740300 0.745200
18.800100 0.715900
18.859900 0.689600
18.919800 0.672100
18.979600 0.659500
19.039400 0.648200
19.099300 0.637500
19.159100 0.634800
19.219000 0.638600
19.278800 0.646500
19.338600 0.655900
19.398500 0.654900
19.458300 0.654300
19.518100 0.655600
19.578000 0.657300
19.637800 0.660600
19.697600 0.664600
19.757500 0.667800
19.817300 0.670000
19.877100 0.673100
19.937000 0.679500
19.996800 0.684400
20.056600 0.677800
20.116500 0.674300
20.176300 0.673100
20.236100 0.669700
20.296000 0.669500
20.355800 0.671600
20.415600 0.677300
20.475500 0.690100
20.535300 0.696300
20.595100 0.706600
20.655000 0.715900
20.714800 0.728800
20.774600 0.746300
20.834500 0.759600
20.894300 0.775100
20.954100 0.781200
21.014000 0.771200
21.073800 0.748900
21.133600 0.727300
21.193500 0.709800
21.253300 0.705300
21.313100 0.709800
21.373000 0.722100
21.432800 0.748900
21.492600 0.778100
21.552500 0.812000
21.612300 0.837800
21.672100 0.872400
21.732000 0.905600
21.791800 0.916000
21.851600 0.883500
21.911500 0.872200
21.971300 0.869200
22.031100 0.867700
22.091000 0.871900
22.150800 0.872800
22.210600 0.868100
22.270500 0.878600
22.330300 0.894700
22.390100 0.905400
22.450000 0.922700
22.509800 0.951300
22.569700 0.987100
22.629500 1.030000
22.689300 1.058100
22.749200 1.071000
22.809000 1.062400
22.868800 1.033300
22.928700 1.014700
22.988500 1.010800
23.048300 1.013200
23.108200 1.051900
23.168000 1.037500
23.227800 1.024800
23.287700 0.979100
23.347500 0.945600
23.407300 0.879900
23.467200 0.819600
23.527000 0.792500
23.586800 0.789400
23.646700 0.813800
23.706500 0.853300
23.766300 0.902500
23.826200 0.935800
23.886000 0.951600
23.945800 0.985700
24.005700 1.027500
24.065500 1.036000
24.125300 1.016000
24.185200 1.037700
24.245000 1.056900
24.304800 1.086500
24.364700 1.083400
24.424500 1.114400
24.484300 1.141200
24.544200 1.078000
24.604000 1.042100
24.663800 1.028100
24.723700 1.023700
24.783500 1.008000
24.843300 1.011100
24.903200 1.060300
24.963000 1.097100
25.022800 1.058400
25.082700 1.032300
25.142500 1.023800
25.202300 1.013400
25.262200 1.035800
25.322000 1.040700
25.381800 1.024300
25.441700 1.010300
25.501500 0.997300
25.561300 0.926800
25.621200 0.907200
25.681000 0.898800
25.740800 0.896400
25.800700 0.891300
25.860500 0.877900
25.920400 0.864600
25.980200 0.857400
26.040000 0.855300
26.099900 0.852200
26.159700 0.858100
26.219500 0.867100
26.279400 0.876400
26.339200 0.878800
26.399000 0.875700
26.458900 0.832900
26.518700 0.815200
26.578500 0.814400
26.638400 0.792300
26.698200 0.790100
26.758000 0.780400
26.817900 0.759700
26.877700 0.721700
26.937500 0.680500
26.997400 0.660300
27.057200 0.651000
27.117000 0.629900
27.176900 0.609600
27.236700 0.588000
27.296500 0.567200
27.356400 0.549000
27.416200 0.536600
27.476000 0.536200
27.535900 0.533100
27.595700 0.537100
27.655500 0.537300
27.715400 0.536100
27.775200 0.541000
27.835000 0.544300
27.894900 0.534700
27.954700 0.528600
28.014500 0.534600
28.074400 0.547800
28.134200 0.559400
28.194000 0.572200
28.253900 0.591400
28.313700 0.621300
28.373500 0.660700
28.433400 0.675800
28.493200 0.693700
28.553000 0.713800
28.612900 0.736200
28.672700 0.758300
28.732500 0.772800
28.792400 0.775200
28.852200 0.818900
28.912000 0.808600
28.971900 0.785400
29.031700 0.808700
29.091500 0.892800
29.151400 0.910800
29.211200 0.927900
29.271100 0.955800
29.330900 0.977200
29.390700 1.052200
29.450600 1.138100
29.510400 1.199700
29.570200 1.227000
29.630100 1.311200
29.689900 1.281600
29.749700 1.248200
29.809600 1.208400
29.869400 1.177600
29.929200 1.157600
29.989100 1.160700
30.048900 1.192500
30.108700 1.164600
30.168600 1.071800
30.228400 1.006500
30.288200 0.968000
30.348100 0.942700
30.407900 0.931000
30.467700 0.917600
30.527600 0.895100
30.587400 0.861100
30.647200 0.834700
30.707100 0.818300
30.766900 0.812500
30.826700 0.794500
30.886600 0.766700
30.946400 0.731800
31.006200 0.691300
31.066100 0.652900
31.125900 0.625100
31.185700 0.599200
31.245600 0.576400
31.305400 0.559900
31.365200 0.547900
31.425100 0.533500
31.484900 0.529700
31.544700 0.538800
31.604600 0.551700
31.664400 0.574800
31.724200 0.602200
31.784100 0.637200
31.843900 0.692700
31.903700 0.763500
31.963600 0.834000
32.023400 0.914400
32.083200 0.996700
32.143100 1.128000
32.202900 1.264700
32.262700 1.354600
32.322600 1.379500
32.382400 1.374200
32.442200 1.338000
32.502100 1.220800
32.561900 1.162500
32.621800 1.134500
32.681600 1.108600
32.741400 1.110100
32.801300 1.118300
32.861100 1.102300
32.920900 1.071100
32.980800 1.071400
33.040600 1.039100
33.100400 1.001200
33.160300 0.967500
33.220100 0.964900
33.279900 0.974500
33.339800 0.989000
33.399600 1.000900
33.459400 1.018300
33.519300 1.026100
33.579100 1.025200
33.638900 1.018600
33.698800 1.015600
33.758600 1.002300
33.818400 0.982900
33.878300 0.960200
33.938100 0.939700
33.997900 0.928800
34.057800 0.921500
34.117600 0.918700
34.177400 0.947600
34.237300 0.925200
34.297100 0.933600
34.356900 0.948400
34.416800 0.950500
34.476600 0.937500
34.536400 0.948000
34.596300 0.961700
34.656100 0.971900
34.715900 0.951900
34.775800 0.956900
34.835600 0.971900
34.895400 0.987300
34.955300 0.997500
35.015100 1.015000
35.074900 1.031900
35.134800 1.043800
35.194600 1.038700
35.254400 1.048000
35.314300 1.059200
35.374100 1.056000
35.433900 1.060900
35.493800 1.066300
35.553600 1.107000
35.613400 1.072100
35.673300 1.072100
35.733100 1.084300
35.792900 1.092800
35.852800 1.118200
35.912600 1.163600
35.972500 1.167400
36.032300 1.174000
36.092100 1.122900
36.152000 1.111600
36.211800 1.107400
36.271600 1.107800
36.331500 1.105100
36.391300 1.084000
36.451100 1.067000
36.511000 1.065200
36.570800 1.068600
36.630600 1.065800
36.690500 1.057700
36.750300 1.062000
36.810100 1.067000
36.870000 1.072700
36.929800 1.070200
36.989600 1.065400
37.049500 1.057600
37.109300 1.058800
37.169100 1.046900
37.229000 1.050300
37.288800 1.038800
37.348600 1.022600
37.408500 1.014100
37.468300 0.989600
37.528100 0.970900
37.588000 0.960700
37.647800 0.950600
37.707600 0.958000
37.767500 0.969900
37.827300 0.970200
37.887100 0.970200
37.947000 0.962700
38.006800 0.968200
38.066600 0.979500
38.126500 0.977600
38.186300 0.978800
38.246100 0.987500
38.306000 0.991500
38.365800 0.990300
38.425600 0.994400
38.485500 0.999400
38.545300 1.003600
38.605100 1.011000
38.665000 1.004000
38.724800 1.005300
38.784600 0.995100
38.844500 0.985500
38.904300 0.971100
38.964100 0.973600
39.024000 0.992000
39.083800 0.992400
39.143600 0.989700
39.203500 1.014200
39.263300 1.035400
39.323200 1.044900
39.383000 1.069600
39.442800 1.100400
39.502700 1.096900
39.562500 1.074500
39.622300 1.076500
39.682200 1.069100
39.742000 1.079800
39.801800 1.097400
39.861700 1.089200
39.921500 1.098600
39.981300 1.115600
40.041200 1.136000
40.101000 1.143600
40.160800 1.150500
40.220700 1.172000
40.280500 1.178100
40.340300 1.143300
40.400200 1.138600
40.460000 1.135500
40.519800 1.127600
40.579700 1.129200
40.639500 1.127200
40.699300 1.122300
40.759200 1.120900
40.819000 1.123800
40.878800 1.149100
40.938700 1.164900
40.998500 1.173100
41.058300 1.202100
41.118200 1.200400
41.178000 1.186200
41.237800 1.123200
41.297700 1.064600
41.357500 1.065300
41.417300 1.075400
41.477200 1.060500
41.537000 1.063500
41.596800 1.070900
41.656700 1.074100
41.716500 1.050000
41.776300 1.049800
41.836200 1.066200
41.896000 1.046500
41.955800 1.037000
42.015700 1.041500
42.075500 1.048700
42.135300 1.058700
42.195200 1.104500
42.255000 1.124200
42.314800 1.117100
42.374700 1.107300
42.434500 1.120100
42.494300 1.116200
42.554200 1.148100
42.614000 1.217000
42.673900 1.260000
42.733700 1.306600
42.793500 1.453700
42.853400 1.301800
42.913200 1.309700
42.973000 1.321300
43.032900 1.311200
43.092700 1.331500
43.152500 1.398000
43.212400 1.427300
43.272200 1.459000
43.332000 1.480800
43.391900 1.494300
43.451700 1.492400
43.511500 1.408200
43.571400 1.325400
43.631200 1.299400
43.691000 1.198200
43.750900 1.137300
43.810700 1.115900
43.870500 1.079200
43.930400 1.077500
43.990200 1.083400
44.050000 1.098500
44.109900 1.076000
44.169700 1.050700
44.229500 1.018300
44.289400 1.002400
44.349200 0.999900
44.409000 0.998700
44.468900 0.988100
44.528700 0.972300
44.588500 0.950700
44.648400 0.908100
44.708200 0.931500
44.768000 0.977700
44.827900 1.021200
44.887700 1.027900
44.947500 1.044100
45.007400 1.017700
45.067200 0.962700
45.127000 0.926600
45.186900 0.909100
45.246700 0.905800
45.306500 0.878300
45.366400 0.867100
45.426200 0.846300
45.486000 0.839100
45.545900 0.837700
45.605700 0.835500
45.665500 0.839800
45.725400 0.853800
45.785200 0.871900
45.845000 0.877500
45.904900 0.893700
45.964700 0.930500
46.024500 0.950900
46.084400 0.984900
46.144200 1.023900
46.204100 1.063000
46.263900 1.112200
46.323700 1.165000
46.383600 1.215600
46.443400 1.267300
46.503200 1.317200
46.563100 1.333800
46.622900 1.383300
46.682700 1.453300
46.742600 1.494200
46.802400 1.535400
46.862200 1.590400
46.922100 1.631000
46.981900 1.545200
47.041700 1.502500
47.101600 1.538500
47.161400 1.516000
47.221200 1.499600
47.281100 1.399700
47.340900 1.395700
47.400700 1.337500
47.460600 1.304200
47.520400 1.285100
47.580200 1.286700
47.640100 1.258100
47.699900 1.247700
47.759700 1.222300
47.819600 1.183100
47.879400 1.167700
47.939200 1.160900
47.999100 1.142000
48.058900 1.121800
48.118700 1.120700
48.178600 1.076100
48.238400 1.052300
48.298200 1.032100
48.358100 1.009000
48.417900 0.996500
48.477700 0.981100
48.537600 0.964700
48.597400 0.965200
48.657200 0.966600
48.717100 0.970700
48.776900 0.989800
48.836700 1.000200
48.896600 0.994400
48.956400 0.989100
49.016200 0.975200
49.076100 0.967400
49.135900 0.966000
49.195700 0.973300
49.255600 0.973300
49.315400 0.987400
49.375200 1.006200
49.435100 1.045100
49.494900 1.063100
49.554800 1.074800
49.614600 1.093700
49.674400 1.107900
49.734300 1.146300
49.794100 1.201800
49.853900 1.260500
49.913800 1.309300
49.973600 1.361800
50.033400 1.426300
50.093300 1.440900
50.153100 1.384700
50.212900 1.370600
50.272800 1.409000
50.332600 1.417700
50.392400 1.445400
50.452300 1.495100
50.512100 1.514000
50.571900 1.540500
50.631800 1.550400
50.691600 1.565700
50.751400 1.621600
50.811300 1.693600
50.871100 1.743000
50.930900 1.795100
50.990800 1.855100
51.050600 1.924700
51.110400 1.943000
51.170300 2.014300
51.230100 2.131700
51.289900 2.228300
51.349800 2.534100
51.409600 2.783700
51.469400 2.931200
51.529300 3.372500
51.589100 4.158100
51.648900 4.154200
51.708800 3.740800
51.768600 3.174900
51.828400 2.969200
51.888300 2.646800
51.948100 2.754100
52.007900 2.885800
52.067800 2.924700
52.127600 2.832400
52.187400 2.413900
52.247300 2.473000
52.307100 2.509300
52.366900 2.290700
52.426800 2.213600
52.486600 2.105200
52.546400 1.973200
52.606300 1.822200
52.666100 1.733500
52.725900 1.655100
52.785800 1.644100
52.845600 1.603500
52.905500 1.576000
52.965300 1.584300
53.025100 1.544900
53.085000 1.524200
53.144800 1.490600
53.204600 1.469900
53.264500 1.432400
53.324300 1.409200
53.384100 1.397000
53.444000 1.406900
53.503800 1.398400
53.563600 1.390600
53.623500 1.353000
53.683300 1.332200
53.743100 1.338500
53.803000 1.342700
53.862800 1.349000
53.922600 1.347400
53.982500 1.363800
54.042300 1.359700
54.102100 1.367200
54.162000 1.362500
54.221800 1.336000
54.281600 1.299300
54.341500 1.268900
54.401300 1.241000
54.461100 1.213400
54.521000 1.190500
54.580800 1.172000
54.640600 1.177500
54.700500 1.206600
54.760300 1.225500
54.820100 1.226600
54.880000 1.222500
54.939800 1.208400
54.999600 1.214000
55.059500 1.223000
55.119300 1.216300
55.179100 1.233700
55.239000 1.265600
55.298800 1.287500
55.358600 1.280400
55.418500 1.305000
55.478300 1.354900
55.538100 1.341200
55.598000 1.307100
55.657800 1.308000
55.717600 1.346000
55.777500 1.365600
55.837300 1.306100
55.897100 1.247800
55.957000 1.208700
56.016800 1.173400
56.076600 1.148000
56.136500 1.121700
56.196300 1.118800
56.256200 1.093000
56.316000 1.042900
56.375800 0.975800
56.435700 0.922100
56.495500 0.876900
56.555300 0.839000
56.615200 0.800500
56.675000 0.761800
56.734800 0.719500
56.794700 0.675200
56.854500 0.623500
56.914300 0.564800
56.974200 0.511300
57.034000 0.475300
57.093800 0.395100
57.153700 0.361000
57.213500 0.330700
57.273300 0.293800
57.333200 0.263700
57.393000 0.232100
57.452800 0.204000
57.512700 0.182300
57.572500 0.163400
57.632300 0.146800
57.692200 0.135100
57.752000 0.129700
57.811800 0.114300
57.871700 0.101000
57.931500 0.089400
57.991300 0.077800
58.051200 0.066400
58.111000 0.054800
58.170800 0.044800
58.230700 0.036500
58.290500 0.029000
58.350300 0.022500
58.410200 0.018100
58.470000 0.014200
58.529800 0.010700
58.589700 0.007000
58.649500 0.003200
58.709300 0.000900
58.769200 0.000600
58.829000 0.000400
58.888800 0.000300
58.948700 0.000100
59.008500 0.000000
59.068300 0.000000
59.128200 0.000000
59.188000 0.000000
59.247800 0.000000
59.307700 0.000000
59.367500 0.000000
59.427300 0.000000
59.487200 0.000000
59.547000 0.000000
59.606900 0.000000
59.666700 0.000000
59.726500 0.000000
59.786400 0.000000
59.846200 0.000000
59.906000 0.000000
59.965900 0.000000
60.025700 0.000000
60.085500 0.000000
60.145400 0.000000
60.205200 0.000000
60.265000 0.000000
60.324900 0.000000
60.384700 0.000000
60.444500 0.000000
60.504400 0.000000
60.564200 0.000000
60.624000 0.000000
60.683900 0.000000
60.743700 0.000000
60.803500 0.000000
60.863400 0.000000
60.923200 0.000000
60.983000 0.000000
61.042900 0.000000
61.102700 0.000000
61.162500 0.000000
61.222400 0.000000
61.282200 0.000000
61.342000 0.000000
61.401900 0.000000
61.461700 0.000000
61.521500 0.000000
61.581400 0.000000
61.641200 0.000000
61.701000 0.000000
61.760900 0.000000
61.820700 0.000000
61.880500 0.000000
61.940400 0.000000
62.000200 0.000000
62.060000 0.000000
62.119900 0.000000
62.179700 0.000000
62.239500 0.000000
62.299400 0.000000
62.359200 0.000000
62.419000 0.000000
62.478900 0.000000
62.538700 0.000000
62.598500 0.000000
62.658400 0.000000
62.718200 0.000000
62.778000 0.000000
62.837900 0.000000
62.897700 0.000000
62.957600 0.000000
63.017400 0.000000
63.077200 0.000000
63.137100 0.000000
63.196900 0.000000
63.256700 0.000000
63.316600 0.000000
63.376400 0.000000
63.436200 0.000000
63.496100 0.000000
63.555900 0.000000
63.615700 0.000000
63.675600 0.000000
63.735400 0.000000
63.795200 0.000000
63.855100 0.000000
63.914900 0.000000
63.974700 0.000000
64.034600 0.000000
64.094400 0.000000
64.154200 0.000000
64.214100 0.000000
64.273900 0.000000
64.333700 0.000000
64.393600 0.000000
64.453400 0.000000
64.513200 0.000000
64.573100 0.000000
64.632900 0.000000
64.692700 0.000000
64.752600 0.000000
64.812400 0.000000
64.872200 0.000000
64.932100 0.000000
e
