set title 'mp-542605 - Density of States'
set xlabel 'Energy (eV)'
set ylabel 'DOS (states/eV)'
set grid
set xrange [-10:10]
set yrange [0:195.678]
set xzeroaxis lt -1
set terminal png size 800,600
set output 'mp-542605_dos_gnuplot.png'
plot '-' using 1:2 with lines title 'DOS'
-16.005400 0.000000
-15.992600 0.000000
-15.979800 0.000000
-15.967000 0.000000
-15.954200 0.000000
-15.941400 0.000000
-15.928600 0.000000
-15.915700 0.000000
-15.902900 0.000000
-15.890100 0.000000
-15.877300 0.000000
-15.864500 0.000000
-15.851700 0.000000
-15.838900 0.000000
-15.826100 0.000000
-15.813300 0.000000
-15.800500 0.000000
-15.787600 0.000000
-15.774800 0.000000
-15.762000 0.000000
-15.749200 0.000000
-15.736400 0.000000
-15.723600 0.000000
-15.710800 0.000000
-15.698000 0.000000
-15.685200 0.000000
-15.672400 0.000000
-15.659500 0.000000
-15.646700 0.000000
-15.633900 0.000000
-15.621100 0.000000
-15.608300 0.000000
-15.595500 0.000000
-15.582700 0.000000
-15.569900 0.000000
-15.557100 0.000000
-15.544300 0.000000
-15.531400 0.000000
-15.518600 0.000000
-15.505800 0.000000
-15.493000 0.000000
-15.480200 0.000000
-15.467400 0.000000
-15.454600 0.000000
-15.441800 0.000000
-15.429000 0.000000
-15.416200 0.000000
-15.403300 0.000000
-15.390500 0.000000
-15.377700 0.000000
-15.364900 0.000000
-15.352100 0.000000
-15.339300 0.000000
-15.326500 0.000000
-15.313700 0.000000
-15.300900 0.000000
-15.288100 0.000000
-15.275200 0.000000
-15.262400 0.000000
-15.249600 0.000000
-15.236800 0.000000
-15.224000 0.000000
-15.211200 0.000000
-15.198400 0.000000
-15.185600 0.000000
-15.172800 0.000000
-15.159900 0.000000
-15.147100 0.000000
-15.134300 0.000000
-15.121500 0.000000
-15.108700 0.000000
-15.095900 0.000000
-15.083100 0.000000
-15.070300 0.000000
-15.057500 0.000000
-15.044700 0.000000
-15.031800 0.000000
-15.019000 0.000000
-15.006200 0.000000
-14.993400 0.000000
-14.980600 0.000000
-14.967800 0.000000
-14.955000 0.000000
-14.942200 0.000000
-14.929400 0.000000
-14.916600 0.000000
-14.903700 0.000000
-14.890900 0.000000
-14.878100 0.000000
-14.865300 0.000000
-14.852500 0.000000
-14.839700 0.013100
-14.826900 1.890300
-14.814100 6.944200
-14.801300 15.174900
-14.788500 39.152700
-14.775600 68.179900
-14.762800 81.870800
-14.750000 80.982800
-14.737200 24.556800
-14.724400 78.738700
-14.711600 133.482200
-14.698800 67.157600
-14.686000 3.812100
-14.673200 0.000000
-14.660400 0.000000
-14.647500 0.000000
-14.634700 0.000000
-14.621900 0.000000
-14.609100 0.000000
-14.596300 0.000000
-14.583500 0.000000
-14.570700 0.000000
-14.557900 0.000000
-14.545100 0.000000
-14.532300 0.000000
-14.519400 0.000000
-14.506600 0.000000
-14.493800 0.000000
-14.481000 0.000000
-14.468200 0.000000
-14.455400 0.000000
-14.442600 0.000000
-14.429800 0.000000
-14.417000 0.000000
-14.404200 0.000000
-14.391300 0.000000
-14.378500 0.000000
-14.365700 0.000000
-14.352900 0.000000
-14.340100 0.000000
-14.327300 0.000000
-14.314500 0.000000
-14.301700 0.000000
-14.288900 0.000000
-14.276000 0.000000
-14.263200 0.000000
-14.250400 0.000000
-14.237600 0.000000
-14.224800 3.534300
-14.212000 45.755900
-14.199200 157.464000
-14.186400 70.616900
-14.173600 155.612300
-14.160800 75.862000
-14.147900 122.318300
-14.135100 191.049800
-14.122300 89.660600
-14.109500 319.381700
-14.096700 109.017600
-14.083900 2.110700
-14.071100 0.000000
-14.058300 0.000000
-14.045500 0.000000
-14.032700 0.000000
-14.019800 0.000000
-14.007000 0.000000
-13.994200 0.000000
-13.981400 0.000000
-13.968600 0.000000
-13.955800 0.000000
-13.943000 0.000000
-13.930200 0.000000
-13.917400 0.000000
-13.904600 0.000000
-13.891700 0.000000
-13.878900 0.000000
-13.866100 0.000000
-13.853300 0.000000
-13.840500 0.000000
-13.827700 0.000000
-13.814900 0.000000
-13.802100 0.000000
-13.789300 0.000000
-13.776500 0.000000
-13.763600 0.000000
-13.750800 0.000000
-13.738000 0.000000
-13.725200 0.000000
-13.712400 0.000000
-13.699600 0.000000
-13.686800 0.000000
-13.674000 0.000000
-13.661200 0.000000
-13.648400 0.000000
-13.635500 0.000000
-13.622700 0.000000
-13.609900 0.000000
-13.597100 0.000000
-13.584300 0.000000
-13.571500 0.000000
-13.558700 0.000000
-13.545900 0.000000
-13.533100 0.000000
-13.520300 0.000000
-13.507400 0.000000
-13.494600 0.000000
-13.481800 0.000000
-13.469000 0.000000
-13.456200 0.000000
-13.443400 0.000000
-13.430600 0.000000
-13.417800 0.000000
-13.405000 0.000000
-13.392100 0.000000
-13.379300 0.000000
-13.366500 0.000000
-13.353700 0.000000
-13.340900 0.000000
-13.328100 0.000000
-13.315300 0.000000
-13.302500 0.000000
-13.289700 0.000000
-13.276900 0.000000
-13.264000 0.000000
-13.251200 0.000000
-13.238400 0.000000
-13.225600 0.000000
-13.212800 0.000000
-13.200000 0.000000
-13.187200 0.000000
-13.174400 0.000000
-13.161600 0.000000
-13.148800 0.000000
-13.135900 0.000000
-13.123100 0.000000
-13.110300 0.000000
-13.097500 0.000000
-13.084700 0.000000
-13.071900 0.000000
-13.059100 0.000000
-13.046300 0.000000
-13.033500 0.000000
-13.020700 0.000000
-13.007800 0.000000
-12.995000 0.000000
-12.982200 0.000000
-12.969400 0.000000
-12.956600 0.000000
-12.943800 0.000000
-12.931000 0.000000
-12.918200 0.000000
-12.905400 0.000000
-12.892600 0.000000
-12.879700 0.000000
-12.866900 0.000000
-12.854100 0.000000
-12.841300 0.000000
-12.828500 0.000000
-12.815700 0.000000
-12.802900 0.000000
-12.790100 0.000000
-12.777300 0.000000
-12.764500 0.000000
-12.751600 0.000000
-12.738800 0.000000
-12.726000 0.000000
-12.713200 0.000000
-12.700400 0.000000
-12.687600 0.000000
-12.674800 0.000000
-12.662000 0.000000
-12.649200 9.094400
-12.636400 36.991600
-12.623500 157.488100
-12.610700 88.381400
-12.597900 118.186400
-12.585100 162.028900
-12.572300 131.152800
-12.559500 138.266900
-12.546700 163.911900
-12.533900 100.306600
-12.521100 313.862200
-12.508200 0.000000
-12.495400 0.000000
-12.482600 0.000000
-12.469800 0.000000
-12.457000 0.000000
-12.444200 0.000000
-12.431400 0.000000
-12.418600 0.000000
-12.405800 0.000000
-12.393000 0.000000
-12.380100 0.000000
-12.367300 0.000000
-12.354500 0.000000
-12.341700 0.000000
-12.328900 0.000000
-12.316100 0.000000
-12.303300 0.000000
-12.290500 0.000000
-12.277700 0.000000
-12.264900 0.000000
-12.252000 0.000000
-12.239200 0.000000
-12.226400 0.000000
-12.213600 0.000000
-12.200800 0.000000
-12.188000 0.000000
-12.175200 0.000000
-12.162400 0.000000
-12.149600 0.000000
-12.136800 0.000000
-12.123900 0.000000
-12.111100 0.000000
-12.098300 0.000000
-12.085500 0.000000
-12.072700 0.000000
-12.059900 0.000000
-12.047100 0.000000
-12.034300 0.000000
-12.021500 0.000000
-12.008700 0.000000
-11.995800 0.000000
-11.983000 0.000000
-11.970200 0.000000
-11.957400 0.000000
-11.944600 0.000000
-11.931800 0.000000
-11.919000 0.000000
-11.906200 0.000000
-11.893400 0.000000
-11.880600 0.000000
-11.867700 0.000000
-11.854900 0.000000
-11.842100 0.000000
-11.829300 0.000000
-11.816500 0.000000
-11.803700 0.000000
-11.790900 0.000000
-11.778100 0.000000
-11.765300 0.000000
-11.752500 0.000000
-11.739600 0.000000
-11.726800 0.000000
-11.714000 0.000000
-11.701200 0.000000
-11.688400 0.000000
-11.675600 0.000000
-11.662800 0.000000
-11.650000 0.000000
-11.637200 0.000000
-11.624300 0.000000
-11.611500 0.000000
-11.598700 0.000000
-11.585900 0.000000
-11.573100 0.000000
-11.560300 0.000000
-11.547500 0.000000
-11.534700 0.000000
-11.521900 0.000000
-11.509100 0.000000
-11.496200 0.000000
-11.483400 0.000000
-11.470600 0.000000
-11.457800 0.000000
-11.445000 0.000000
-11.432200 0.000000
-11.419400 0.000000
-11.406600 0.000000
-11.393800 0.000000
-11.381000 0.000000
-11.368100 0.000000
-11.355300 0.000000
-11.342500 0.000000
-11.329700 0.000000
-11.316900 0.000000
-11.304100 0.000000
-11.291300 0.000000
-11.278500 0.000000
-11.265700 0.000000
-11.252900 0.000000
-11.240000 0.000000
-11.227200 0.000000
-11.214400 0.000000
-11.201600 0.000000
-11.188800 0.000000
-11.176000 0.000000
-11.163200 0.000000
-11.150400 0.000000
-11.137600 0.000000
-11.124800 0.000000
-11.111900 0.000000
-11.099100 0.000000
-11.086300 0.000000
-11.073500 0.000000
-11.060700 0.000000
-11.047900 0.000000
-11.035100 0.000000
-11.022300 0.000000
-11.009500 0.000000
-10.996700 0.000000
-10.983800 0.000000
-10.971000 0.000000
-10.958200 0.000000
-10.945400 0.000000
-10.932600 0.000000
-10.919800 0.000000
-10.907000 0.000000
-10.894200 0.000000
-10.881400 0.000000
-10.868600 0.000000
-10.855700 0.000000
-10.842900 0.000000
-10.830100 0.000000
-10.817300 0.000000
-10.804500 0.000000
-10.791700 0.000000
-10.778900 0.000000
-10.766100 0.000000
-10.753300 0.000000
-10.740400 0.000000
-10.727600 0.000000
-10.714800 0.000000
-10.702000 0.000000
-10.689200 0.000000
-10.676400 0.000000
-10.663600 0.000000
-10.650800 1.193400
-10.638000 7.213900
-10.625200 16.378000
-10.612300 31.660600
-10.599500 90.153200
-10.586700 281.304400
-10.573900 43.089100
-10.561100 176.257000
-10.548300 81.997500
-10.535500 156.199900
-10.522700 84.186900
-10.509900 10.648300
-10.497100 152.652700
-10.484200 133.053000
-10.471400 54.060300
-10.458600 9.482900
-10.445800 0.000000
-10.433000 0.000000
-10.420200 0.000000
-10.407400 0.000000
-10.394600 0.000000
-10.381800 0.000000
-10.369000 0.000000
-10.356100 0.000000
-10.343300 0.000000
-10.330500 0.000000
-10.317700 0.000000
-10.304900 0.000000
-10.292100 0.000000
-10.279300 0.000000
-10.266500 0.000000
-10.253700 0.000000
-10.240900 0.000000
-10.228000 0.000000
-10.215200 0.000000
-10.202400 0.000000
-10.189600 0.000000
-10.176800 0.000000
-10.164000 0.000000
-10.151200 0.000000
-10.138400 0.000000
-10.125600 0.000000
-10.112800 0.000000
-10.099900 0.000000
-10.087100 0.000000
-10.074300 0.000000
-10.061500 0.000000
-10.048700 0.000000
-10.035900 0.000000
-10.023100 0.000000
-10.010300 0.000000
-9.997500 0.000000
-9.984700 0.000000
-9.971800 0.000000
-9.959000 0.000000
-9.946200 0.000000
-9.933400 0.000000
-9.920600 0.000000
-9.907800 0.000000
-9.895000 0.000000
-9.882200 0.000000
-9.869400 0.000000
-9.856500 0.000000
-9.843700 0.000000
-9.830900 0.000000
-9.818100 0.000000
-9.805300 0.000000
-9.792500 0.000000
-9.779700 0.000000
-9.766900 0.000000
-9.754100 0.000000
-9.741300 0.000000
-9.728400 0.000000
-9.715600 0.000000
-9.702800 0.000000
-9.690000 0.000000
-9.677200 0.000000
-9.664400 0.000000
-9.651600 0.000000
-9.638800 0.000000
-9.626000 0.000000
-9.613200 0.000000
-9.600300 0.000000
-9.587500 0.000000
-9.574700 0.000000
-9.561900 0.000000
-9.549100 0.000000
-9.536300 0.000000
-9.523500 0.000000
-9.510700 11.569000
-9.497900 31.692300
-9.485100 44.488100
-9.472200 52.312500
-9.459400 57.103300
-9.446600 58.475000
-9.433800 42.066900
-9.421000 18.407100
-9.408200 23.663600
-9.395400 44.716300
-9.382600 58.630800
-9.369800 59.465900
-9.357000 60.091800
-9.344100 50.936400
-9.331300 13.019800
-9.318500 0.260300
-9.305700 0.000000
-9.292900 0.000000
-9.280100 0.000000
-9.267300 0.000000
-9.254500 0.000000
-9.241700 0.000000
-9.228900 0.000000
-9.216000 0.000000
-9.203200 0.000000
-9.190400 0.000000
-9.177600 0.000000
-9.164800 0.000000
-9.152000 0.000000
-9.139200 0.000000
-9.126400 0.000000
-9.113600 0.000000
-9.100800 0.000000
-9.087900 0.000000
-9.075100 0.000000
-9.062300 0.000000
-9.049500 0.000000
-9.036700 0.000000
-9.023900 0.000000
-9.011100 0.000000
-8.998300 0.000000
-8.985500 0.000000
-8.972600 0.000000
-8.959800 0.000000
-8.947000 0.000000
-8.934200 0.000000
-8.921400 0.000000
-8.908600 0.000000
-8.895800 0.000000
-8.883000 0.000000
-8.870200 0.000000
-8.857400 0.000000
-8.844500 0.000000
-8.831700 0.000000
-8.818900 0.000000
-8.806100 0.000000
-8.793300 0.000000
-8.780500 0.000000
-8.767700 0.000000
-8.754900 0.000000
-8.742100 0.000000
-8.729300 0.000000
-8.716400 0.000000
-8.703600 0.000000
-8.690800 0.000000
-8.678000 0.000000
-8.665200 0.000000
-8.652400 0.000000
-8.639600 0.000000
-8.626800 0.000000
-8.614000 0.000000
-8.601200 0.000000
-8.588300 0.000000
-8.575500 0.000000
-8.562700 0.000000
-8.549900 0.000000
-8.537100 0.000000
-8.524300 0.000000
-8.511500 0.000000
-8.498700 0.000000
-8.485900 0.000000
-8.473100 0.000000
-8.460200 0.000000
-8.447400 0.000000
-8.434600 0.000000
-8.421800 0.000000
-8.409000 0.000000
-8.396200 0.000000
-8.383400 0.000000
-8.370600 0.000000
-8.357800 0.000000
-8.345000 0.000000
-8.332100 0.000000
-8.319300 0.000000
-8.306500 0.000000
-8.293700 0.000000
-8.280900 0.000000
-8.268100 0.000000
-8.255300 0.000000
-8.242500 0.000000
-8.229700 0.000000
-8.216900 0.000000
-8.204000 0.000000
-8.191200 0.000000
-8.178400 0.000000
-8.165600 0.000000
-8.152800 0.000000
-8.140000 0.000000
-8.127200 0.000000
-8.114400 0.000000
-8.101600 0.000000
-8.088700 0.000000
-8.075900 0.000000
-8.063100 0.000000
-8.050300 0.000000
-8.037500 0.000000
-8.024700 0.000000
-8.011900 0.000000
-7.999100 0.000000
-7.986300 0.000000
-7.973500 0.000000
-7.960600 0.000000
-7.947800 0.000000
-7.935000 0.000000
-7.922200 0.000000
-7.909400 0.000000
-7.896600 0.000000
-7.883800 0.000000
-7.871000 0.000000
-7.858200 0.000000
-7.845400 0.000000
-7.832500 0.000000
-7.819700 0.000000
-7.806900 0.000000
-7.794100 0.000000
-7.781300 0.000000
-7.768500 0.000000
-7.755700 0.000000
-7.742900 0.000000
-7.730100 0.000000
-7.717300 0.000000
-7.704400 0.000000
-7.691600 0.000000
-7.678800 0.000000
-7.666000 0.000000
-7.653200 0.000000
-7.640400 0.000000
-7.627600 0.000000
-7.614800 0.000000
-7.602000 0.000000
-7.589200 0.000000
-7.576300 0.000000
-7.563500 0.000000
-7.550700 0.000000
-7.537900 0.000000
-7.525100 0.000000
-7.512300 0.000000
-7.499500 0.000000
-7.486700 0.000000
-7.473900 0.000000
-7.461100 0.000000
-7.448200 0.000000
-7.435400 0.000000
-7.422600 0.000000
-7.409800 0.000000
-7.397000 0.000000
-7.384200 0.000000
-7.371400 0.000000
-7.358600 0.000000
-7.345800 0.000000
-7.333000 0.000000
-7.320100 0.000000
-7.307300 0.000000
-7.294500 0.000000
-7.281700 0.000000
-7.268900 0.000000
-7.256100 0.000000
-7.243300 0.000000
-7.230500 0.000000
-7.217700 0.000000
-7.204900 0.000000
-7.192000 0.000000
-7.179200 0.000000
-7.166400 0.000000
-7.153600 0.000000
-7.140800 0.000000
-7.128000 0.000000
-7.115200 0.000000
-7.102400 0.000000
-7.089600 0.000000
-7.076700 0.000000
-7.063900 0.000000
-7.051100 0.000000
-7.038300 0.000000
-7.025500 0.000000
-7.012700 0.000000
-6.999900 0.000000
-6.987100 0.000000
-6.974300 0.000000
-6.961500 0.000000
-6.948600 0.000000
-6.935800 0.000000
-6.923000 0.000000
-6.910200 0.000000
-6.897400 0.000000
-6.884600 0.000000
-6.871800 0.000000
-6.859000 0.000000
-6.846200 0.000000
-6.833400 0.000000
-6.820500 0.000000
-6.807700 0.000000
-6.794900 0.000000
-6.782100 0.000000
-6.769300 0.000000
-6.756500 0.000000
-6.743700 0.000000
-6.730900 0.000000
-6.718100 0.000000
-6.705300 0.000000
-6.692400 0.000000
-6.679600 0.000000
-6.666800 0.000000
-6.654000 0.000000
-6.641200 0.000000
-6.628400 0.000000
-6.615600 0.000000
-6.602800 0.000000
-6.590000 0.000000
-6.577200 0.000000
-6.564300 0.000000
-6.551500 0.000000
-6.538700 0.000000
-6.525900 0.000000
-6.513100 0.000000
-6.500300 0.000000
-6.487500 0.000000
-6.474700 0.000000
-6.461900 0.000000
-6.449100 0.000000
-6.436200 0.000000
-6.423400 0.000000
-6.410600 0.000000
-6.397800 0.000000
-6.385000 0.000000
-6.372200 0.000000
-6.359400 0.000000
-6.346600 0.000000
-6.333800 0.000000
-6.321000 0.000000
-6.308100 0.000000
-6.295300 0.000000
-6.282500 0.000000
-6.269700 0.000000
-6.256900 0.000000
-6.244100 0.000000
-6.231300 0.000000
-6.218500 0.000000
-6.205700 0.000000
-6.192800 0.000000
-6.180000 0.000000
-6.167200 0.000000
-6.154400 0.000000
-6.141600 0.000000
-6.128800 0.000000
-6.116000 0.000000
-6.103200 0.000000
-6.090400 0.000000
-6.077600 0.000000
-6.064700 0.000000
-6.051900 0.000000
-6.039100 0.000000
-6.026300 0.000000
-6.013500 0.000000
-6.000700 0.000000
-5.987900 0.000000
-5.975100 0.000000
-5.962300 0.000000
-5.949500 0.000000
-5.936600 0.000000
-5.923800 0.000000
-5.911000 0.000000
-5.898200 0.000000
-5.885400 0.000000
-5.872600 0.000000
-5.859800 0.000000
-5.847000 0.000000
-5.834200 0.000000
-5.821400 0.000000
-5.808500 0.000000
-5.795700 0.000000
-5.782900 0.000000
-5.770100 0.000000
-5.757300 0.000000
-5.744500 0.000000
-5.731700 0.000000
-5.718900 0.000000
-5.706100 0.000000
-5.693300 0.000000
-5.680400 0.000000
-5.667600 0.000000
-5.654800 0.000000
-5.642000 0.000000
-5.629200 0.000000
-5.616400 0.000000
-5.603600 0.000000
-5.590800 0.000000
-5.578000 0.000000
-5.565200 0.000000
-5.552300 0.000000
-5.539500 0.000000
-5.526700 0.000000
-5.513900 0.000000
-5.501100 0.000000
-5.488300 0.000000
-5.475500 0.000000
-5.462700 0.000000
-5.449900 0.000000
-5.437100 0.000000
-5.424200 0.000000
-5.411400 0.000000
-5.398600 0.000000
-5.385800 0.000000
-5.373000 0.000000
-5.360200 0.000000
-5.347400 0.000000
-5.334600 0.000000
-5.321800 0.000000
-5.308900 0.000000
-5.296100 0.000000
-5.283300 0.000000
-5.270500 0.000000
-5.257700 0.000000
-5.244900 0.000000
-5.232100 0.000000
-5.219300 0.000000
-5.206500 0.000000
-5.193700 0.000000
-5.180800 0.000000
-5.168000 0.000000
-5.155200 0.000000
-5.142400 0.000000
-5.129600 0.000000
-5.116800 0.000000
-5.104000 0.000000
-5.091200 0.000000
-5.078400 0.000000
-5.065600 0.000000
-5.052700 0.000000
-5.039900 0.000000
-5.027100 0.000000
-5.014300 0.000000
-5.001500 0.000000
-4.988700 0.000000
-4.975900 0.000000
-4.963100 0.000000
-4.950300 0.000000
-4.937500 0.000000
-4.924600 0.000000
-4.911800 0.000000
-4.899000 0.000000
-4.886200 0.000000
-4.873400 0.000000
-4.860600 0.000000
-4.847800 0.000000
-4.835000 0.000000
-4.822200 0.000000
-4.809400 0.000000
-4.796500 0.000000
-4.783700 0.000000
-4.770900 0.000000
-4.758100 0.000000
-4.745300 0.000000
-4.732500 0.000000
-4.719700 7.549300
-4.706900 25.823300
-4.694100 51.190800
-4.681300 177.889400
-4.668400 49.958100
-4.655600 3.940500
-4.642800 28.977300
-4.630000 159.484000
-4.617200 110.642700
-4.604400 48.504600
-4.591600 40.538800
-4.578800 56.792800
-4.566000 61.436500
-4.553200 66.963400
-4.540300 51.257000
-4.527500 25.976000
-4.514700 15.354400
-4.501900 21.525500
-4.489100 40.949000
-4.476300 44.544000
-4.463500 54.303200
-4.450700 54.752600
-4.437900 48.852400
-4.425000 36.815200
-4.412200 26.400900
-4.399400 23.485700
-4.386600 35.358400
-4.373800 67.621500
-4.361000 60.553600
-4.348200 40.737500
-4.335400 24.540800
-4.322600 16.116100
-4.309800 14.892500
-4.296900 32.518000
-4.284100 33.787400
-4.271300 41.232000
-4.258500 49.882300
-4.245700 59.260400
-4.232900 51.849900
-4.220100 38.984700
-4.207300 6.816400
-4.194500 0.000000
-4.181700 0.000000
-4.168800 0.000000
-4.156000 0.000000
-4.143200 0.000000
-4.130400 0.000000
-4.117600 0.000000
-4.104800 0.000000
-4.092000 0.000000
-4.079200 0.000000
-4.066400 0.000000
-4.053600 0.000000
-4.040700 0.000000
-4.027900 0.000000
-4.015100 0.000000
-4.002300 0.000000
-3.989500 0.000000
-3.976700 0.000000
-3.963900 0.000000
-3.951100 0.000000
-3.938300 0.000000
-3.925500 0.000000
-3.912600 0.000000
-3.899800 0.000000
-3.887000 0.014300
-3.874200 0.193100
-3.861400 0.576300
-3.848600 1.164000
-3.835800 1.956100
-3.823000 2.952700
-3.810200 4.153800
-3.797400 5.559300
-3.784500 9.255600
-3.771700 13.209200
-3.758900 14.542600
-3.746100 15.728300
-3.733300 16.766200
-3.720500 19.563500
-3.707700 21.988300
-3.694900 23.893300
-3.682100 25.278600
-3.669300 26.325200
-3.656400 27.284400
-3.643600 62.489600
-3.630800 19.361300
-3.618000 13.580900
-3.605200 10.468600
-3.592400 10.199100
-3.579600 12.237500
-3.566800 21.544200
-3.554000 29.888600
-3.541100 36.492900
-3.528300 41.562900
-3.515500 42.306900
-3.502700 30.264400
-3.489900 23.905400
-3.477100 20.332700
-3.464300 16.624300
-3.451500 12.780400
-3.438700 8.803500
-3.425900 19.697000
-3.413000 58.105600
-3.400200 76.588100
-3.387400 80.805300
-3.374600 52.819400
-3.361800 23.093600
-3.349000 16.094800
-3.336200 16.706800
-3.323400 26.407400
-3.310600 85.018700
-3.297800 75.512400
-3.284900 65.106000
-3.272100 42.948000
-3.259300 11.829200
-3.246500 33.100600
-3.233700 65.295200
-3.220900 78.572400
-3.208100 70.881800
-3.195300 55.228800
-3.182500 7.485600
-3.169700 17.293200
-3.156800 91.302400
-3.144000 104.639300
-3.131200 62.862500
-3.118400 19.391900
-3.105600 9.581000
-3.092800 5.527100
-3.080000 8.233600
-3.067200 35.885200
-3.054400 62.105900
-3.041600 66.664300
-3.028700 25.147900
-3.015900 21.415800
-3.003100 19.064500
-2.990300 17.434300
-2.977500 15.023200
-2.964700 11.838900
-2.951900 9.029100
-2.939100 11.894400
-2.926300 16.256600
-2.913500 23.617600
-2.900600 29.583400
-2.887800 35.717500
-2.875000 41.532300
-2.862200 21.173800
-2.849400 18.767000
-2.836600 19.796500
-2.823800 20.963000
-2.811000 22.266400
-2.798200 23.706700
-2.785400 39.306600
-2.772500 54.839100
-2.759700 49.009500
-2.746900 37.422900
-2.734100 32.616700
-2.721300 38.360900
-2.708500 36.530400
-2.695700 34.794200
-2.682900 37.930900
-2.670100 46.377800
-2.657200 56.379000
-2.644400 41.449300
-2.631600 25.190900
-2.618800 21.613700
-2.606000 20.613000
-2.593200 20.646500
-2.580400 20.705200
-2.567600 18.978400
-2.554800 14.672100
-2.542000 9.099700
-2.529100 4.526600
-2.516300 0.999800
-2.503500 0.000000
-2.490700 0.000000
-2.477900 0.000000
-2.465100 0.000000
-2.452300 0.000000
-2.439500 0.000000
-2.426700 0.000000
-2.413900 0.000000
-2.401000 0.000000
-2.388200 0.000000
-2.375400 0.000000
-2.362600 0.000000
-2.349800 0.000000
-2.337000 0.000000
-2.324200 0.000000
-2.311400 0.000000
-2.298600 0.000000
-2.285800 0.108500
-2.272900 0.620100
-2.260100 1.335900
-2.247300 2.255900
-2.234500 3.365400
-2.221700 4.518600
-2.208900 5.678200
-2.196100 6.844100
-2.183300 8.016300
-2.170500 9.195000
-2.157700 10.379900
-2.144800 25.128200
-2.132000 26.113400
-2.119200 25.991500
-2.106400 25.853000
-2.093600 25.648900
-2.080800 24.636900
-2.068000 22.816900
-2.055200 20.361200
-2.042400 17.761300
-2.029600 15.058600
-2.016700 12.252900
-2.003900 9.253000
-1.991100 5.963400
-1.978300 2.383900
-1.965500 0.000000
-1.952700 0.000000
-1.939900 0.000000
-1.927100 0.300100
-1.914300 3.849200
-1.901500 7.502500
-1.888600 11.130000
-1.875800 13.959500
-1.863000 14.199800
-1.850200 14.202800
-1.837400 14.205800
-1.824600 14.208900
-1.811800 14.212000
-1.799000 14.215200
-1.786200 14.218500
-1.773300 14.221800
-1.760500 14.225100
-1.747700 14.228600
-1.734900 14.232000
-1.722100 14.235600
-1.709300 14.239100
-1.696500 14.242800
-1.683700 14.246500
-1.670900 14.072800
-1.658100 13.494000
-1.645200 12.509000
-1.632400 10.668800
-1.619600 7.724500
-1.606800 3.906900
-1.594000 0.000000
-1.581200 0.000000
-1.568400 0.000000
-1.555600 0.000000
-1.542800 0.000000
-1.530000 0.000000
-1.517100 0.000000
-1.504300 0.000000
-1.491500 0.000000
-1.478700 0.000000
-1.465900 0.000000
-1.453100 0.000000
-1.440300 0.000000
-1.427500 0.000000
-1.414700 0.000000
-1.401900 0.000000
-1.389000 0.000000
-1.376200 0.000000
-1.363400 0.000000
-1.350600 0.000000
-1.337800 0.000000
-1.325000 0.000000
-1.312200 0.000000
-1.299400 0.000000
-1.286600 0.000000
-1.273800 0.000000
-1.260900 0.000000
-1.248100 0.000000
-1.235300 0.000000
-1.222500 0.000000
-1.209700 75.915800
-1.196900 151.816900
-1.184100 54.648000
-1.171300 7.608400
-1.158500 7.079100
-1.145700 12.304600
-1.132800 23.107700
-1.120000 38.680500
-1.107200 53.674500
-1.094400 75.876400
-1.081600 82.847000
-1.068800 25.274400
-1.056000 13.008900
-1.043200 19.995800
-1.030400 32.935400
-1.017600 50.580500
-1.004700 65.871700
-0.991900 64.077900
-0.979100 49.697800
-0.966300 43.700400
-0.953500 30.875100
-0.940700 94.542000
-0.927900 65.842500
-0.915100 53.995500
-0.902300 37.106400
-0.889400 48.677300
-0.876600 35.097800
-0.863800 31.986700
-0.851000 31.135800
-0.838200 31.359600
-0.825400 31.039600
-0.812600 30.266300
-0.799800 30.651600
-0.787000 32.473500
-0.774200 41.676000
-0.761300 39.204200
-0.748500 64.703100
-0.735700 85.093800
-0.722900 65.585900
-0.710100 53.100300
-0.697300 40.830200
-0.684500 44.250300
-0.671700 55.993200
-0.658900 68.147900
-0.646100 71.402800
-0.633200 74.479300
-0.620400 92.368900
-0.607600 83.497300
-0.594800 70.704400
-0.582000 46.064600
-0.569200 38.746100
-0.556400 62.547200
-0.543600 110.255900
-0.530800 68.016900
-0.518000 32.915600
-0.505100 45.486500
-0.492300 56.114400
-0.479500 67.072900
-0.466700 88.704400
-0.453900 73.872000
-0.441100 86.922700
-0.428300 80.604500
-0.415500 49.474200
-0.402700 34.785000
-0.389900 21.954000
-0.377000 21.767900
-0.364200 50.286700
-0.351400 79.349000
-0.338600 94.968900
-0.325800 65.379800
-0.313000 55.940800
-0.300200 101.342300
-0.287400 79.270400
-0.274600 43.143700
-0.261800 11.585600
-0.248900 7.138000
-0.236100 12.433000
-0.223300 18.042400
-0.210500 20.794400
-0.197700 21.622800
-0.184900 21.629100
-0.172100 21.542600
-0.159300 21.472800
-0.146500 21.419700
-0.133700 21.383400
-0.120800 21.259400
-0.108000 20.633300
-0.095200 19.462300
-0.082400 16.805900
-0.069600 14.205000
-0.056800 11.510100
-0.044000 7.580700
-0.031200 4.738100
-0.018400 3.154200
-0.005500 2.004100
0.007300 1.132800
0.020100 0.508400
0.032900 0.130800
0.045700 0.000100
0.058500 0.000000
0.071300 0.000000
0.084100 0.000000
0.096900 0.000000
0.109700 0.000000
0.122600 0.000000
0.135400 0.000000
0.148200 0.000000
0.161000 0.000000
0.173800 0.000000
0.186600 0.000000
0.199400 0.000000
0.212200 0.000000
0.225000 0.000000
0.237800 0.000000
0.250700 0.000000
0.263500 0.000000
0.276300 0.000000
0.289100 0.000000
0.301900 0.000000
0.314700 0.000000
0.327500 0.000000
0.340300 0.000000
0.353100 0.000000
0.365900 0.000000
0.378800 0.000000
0.391600 0.000000
0.404400 0.000000
0.417200 0.000000
0.430000 0.000000
0.442800 0.000000
0.455600 0.000000
0.468400 0.000000
0.481200 0.000000
0.494000 0.000000
0.506900 0.000000
0.519700 0.000000
0.532500 0.000000
0.545300 0.000000
0.558100 0.000000
0.570900 0.000000
0.583700 0.000000
0.596500 0.000000
0.609300 0.000000
0.622100 0.000000
0.635000 0.000000
0.647800 0.000000
0.660600 0.000000
0.673400 0.000000
0.686200 0.000000
0.699000 0.000000
0.711800 0.000000
0.724600 0.000000
0.737400 0.000000
0.750200 0.000000
0.763100 0.000000
0.775900 0.000000
0.788700 0.000000
0.801500 0.000000
0.814300 0.000000
0.827100 0.000000
0.839900 0.000000
0.852700 0.000000
0.865500 0.000000
0.878400 0.000000
0.891200 0.000000
0.904000 0.000000
0.916800 0.000000
0.929600 0.000000
0.942400 0.000000
0.955200 0.000000
0.968000 0.000000
0.980800 0.000000
0.993600 0.000000
1.006500 0.000000
1.019300 0.000000
1.032100 0.000000
1.044900 0.000000
1.057700 0.000000
1.070500 0.000000
1.083300 0.000000
1.096100 0.000000
1.108900 0.000000
1.121700 0.000000
1.134600 0.000000
1.147400 0.000000
1.160200 0.000000
1.173000 0.000000
1.185800 0.000000
1.198600 0.000000
1.211400 0.000000
1.224200 0.000000
1.237000 0.000000
1.249800 0.000000
1.262700 0.000000
1.275500 0.000000
1.288300 0.000000
1.301100 0.000000
1.313900 0.000000
1.326700 0.000000
1.339500 0.000000
1.352300 0.000000
1.365100 0.000000
1.377900 0.000000
1.390800 0.000000
1.403600 0.000000
1.416400 0.000000
1.429200 0.000000
1.442000 0.000000
1.454800 0.004400
1.467600 0.049000
1.480400 0.141600
1.493200 0.282200
1.506000 0.470700
1.518900 0.707200
1.531700 0.991700
1.544500 1.324100
1.557300 1.704600
1.570100 2.133000
1.582900 2.609400
1.595700 3.131700
1.608500 3.777900
1.621300 4.653500
1.634100 5.870700
1.647000 7.884000
1.659800 10.065300
1.672600 12.414700
1.685400 14.889700
1.698200 17.192900
1.711000 19.267000
1.723800 21.112000
1.736600 22.460900
1.749400 23.592400
1.762300 42.545800
1.775100 43.815600
1.787900 31.321500
1.800700 22.548700
1.813500 16.959700
1.826300 14.596900
1.839100 17.380200
1.851900 18.350300
1.864700 19.363100
1.877500 22.592000
1.890400 38.449300
1.903200 34.450000
1.916000 30.386900
1.928800 26.414200
1.941600 23.482300
1.954400 21.893100
1.967200 20.132400
1.980000 15.682700
1.992800 11.224900
2.005600 13.112400
2.018500 15.889300
2.031300 18.781100
2.044100 21.787700
2.056900 35.124300
2.069700 51.308600
2.082500 48.528100
2.095300 33.142700
2.108100 13.467600
2.120900 10.012600
2.133700 8.068000
2.146600 6.279800
2.159400 4.647800
2.172200 3.172200
2.185000 1.920200
2.197800 61.932900
2.210600 49.411800
2.223400 50.495400
2.236200 49.596800
2.249000 45.445100
2.261800 36.337800
2.274700 25.241300
2.287500 12.970300
2.300300 8.276300
2.313100 25.778600
2.325900 61.868900
2.338700 30.243300
2.351500 30.284200
2.364300 30.469300
2.377100 30.777500
2.389900 28.944500
2.402800 26.925000
2.415600 23.824400
2.428400 19.076200
2.441200 17.609400
2.454000 18.942400
2.466800 22.635300
2.479600 30.042000
2.492400 30.244400
2.505200 27.851400
2.518000 28.396800
2.530900 27.153600
2.543700 24.556400
2.556500 21.600800
2.569300 18.287000
2.582100 14.614800
2.594900 11.598100
2.607700 9.872900
2.620500 7.649600
2.633300 5.459100
2.646200 3.533000
2.659000 1.587000
2.671800 0.286000
2.684600 0.000000
2.697400 0.000000
2.710200 0.000000
2.723000 0.000000
2.735800 0.000000
2.748600 0.132300
2.761400 0.856500
2.774300 2.007800
2.787100 3.586000
2.799900 5.408100
2.812700 7.308900
2.825500 9.288200
2.838300 11.414500
2.851100 13.813200
2.863900 16.486700
2.876700 19.432300
2.889500 26.042900
2.902400 35.223300
2.915200 45.826700
2.928000 65.331000
2.940800 39.413900
2.953600 24.361200
2.966400 21.526400
2.979200 29.067300
2.992000 34.232000
3.004800 37.867600
3.017600 40.384600
3.030500 55.409600
3.043300 45.554000
3.056100 33.284900
3.068900 34.670600
3.081700 35.131000
3.094500 35.991400
3.107300 45.618800
3.120100 54.084000
3.132900 48.901000
3.145700 41.564200
3.158600 29.642500
3.171400 28.287400
3.184200 29.810400
3.197000 35.192600
3.209800 93.700300
3.222600 84.738200
3.235400 15.372900
3.248200 12.816300
3.261000 19.744600
3.273800 41.156100
3.286700 87.207600
3.299500 116.776900
3.312300 34.128000
3.325100 9.192100
3.337900 58.202200
3.350700 91.261600
3.363500 75.059900
3.376300 45.902400
3.389100 26.434500
3.401900 14.621500
3.414800 4.746600
3.427600 4.626000
3.440400 49.925600
3.453200 77.508800
3.466000 81.245900
3.478800 30.704200
3.491600 24.716500
3.504400 16.681200
3.517200 9.827000
3.530100 19.450100
3.542900 53.396800
3.555700 94.325700
3.568500 119.393900
3.581300 32.878400
3.594100 0.818500
3.606900 4.989700
3.619700 10.687300
3.632500 17.911300
3.645300 25.896600
3.658200 32.439900
3.671000 40.820500
3.683800 50.610000
3.696600 41.080900
3.709400 35.421300
3.722200 27.006500
3.735000 17.740700
3.747800 8.128900
3.760600 0.752300
3.773400 0.000000
3.786300 0.000000
3.799100 0.000000
3.811900 15.448900
3.824700 28.655300
3.837500 43.310000
3.850300 57.344200
3.863100 61.617000
3.875900 41.768400
3.888700 27.059800
3.901500 16.568800
3.914400 10.237900
3.927200 6.477300
3.940000 4.069800
3.952800 2.219200
3.965600 0.925400
3.978400 0.188600
3.991200 0.000000
4.004000 0.000000
4.016800 0.000000
4.029600 0.000000
4.042500 0.000000
4.055300 0.000000
4.068100 0.000000
4.080900 0.000000
4.093700 0.000000
4.106500 0.000000
4.119300 0.000000
4.132100 0.000000
4.144900 0.000000
4.157700 0.000000
4.170600 0.000000
4.183400 0.000000
4.196200 0.000000
4.209000 0.000000
4.221800 0.000000
4.234600 0.000000
4.247400 0.000000
4.260200 0.000000
4.273000 0.000000
4.285800 0.000000
4.298700 0.000000
4.311500 0.000000
4.324300 0.000000
4.337100 0.000000
4.349900 0.000000
4.362700 0.000000
4.375500 0.000000
4.388300 0.000000
4.401100 0.000000
4.414000 0.000000
4.426800 0.000000
4.439600 0.000000
4.452400 0.000000
4.465200 0.000000
4.478000 0.000000
4.490800 0.000000
4.503600 0.000000
4.516400 0.000000
4.529200 0.000000
4.542100 0.000000
4.554900 0.000000
4.567700 0.000000
4.580500 0.000000
4.593300 0.000000
4.606100 0.000000
4.618900 0.000000
4.631700 0.000000
4.644500 0.000000
4.657300 0.000000
4.670200 0.000000
4.683000 0.000000
4.695800 0.000000
4.708600 0.000000
4.721400 0.000000
4.734200 0.000000
4.747000 0.000000
4.759800 0.000000
4.772600 0.000000
4.785400 0.000000
4.798300 0.000000
4.811100 0.000000
4.823900 0.000000
4.836700 0.000000
4.849500 0.000000
4.862300 0.000000
4.875100 0.000000
4.887900 0.000000
4.900700 0.000000
4.913500 0.000000
4.926400 0.000000
4.939200 0.000000
4.952000 0.000000
4.964800 0.000000
4.977600 0.000000
4.990400 0.000000
5.003200 0.000000
5.016000 0.000000
5.028800 0.000000
5.041600 0.000000
5.054500 0.000000
5.067300 0.000000
5.080100 0.000000
5.092900 0.000000
5.105700 0.000000
5.118500 0.000000
5.131300 0.000000
5.144100 0.000000
5.156900 0.000000
5.169700 0.000000
5.182600 0.000000
5.195400 0.000000
5.208200 0.000000
5.221000 0.000000
5.233800 0.000000
5.246600 0.000000
5.259400 0.000000
5.272200 0.000000
5.285000 0.000000
5.297900 0.000000
5.310700 0.001200
5.323500 0.007200
5.336300 0.018100
5.349100 0.033900
5.361900 0.054700
5.374700 0.080500
5.387500 0.111200
5.400300 0.146900
5.413100 0.187500
5.426000 0.233000
5.438800 0.283600
5.451600 0.339000
5.464400 0.399400
5.477200 0.464800
5.490000 0.535100
5.502800 0.610400
5.515600 0.690600
5.528400 0.775800
5.541200 0.865900
5.554100 0.961000
5.566900 1.061000
5.579700 1.166000
5.592500 1.275900
5.605300 1.390800
5.618100 1.510600
5.630900 1.635400
5.643700 1.765200
5.656500 1.899800
5.669300 2.039500
5.682200 2.184100
5.695000 2.333600
5.707800 2.546300
5.720600 3.428200
5.733400 4.369600
5.746200 5.287100
5.759000 6.180500
5.771800 6.819600
5.784600 7.299900
5.797400 7.742400
5.810300 8.147000
5.823100 8.513700
5.835900 8.842600
5.848700 10.224700
5.861500 13.111100
5.874300 15.665200
5.887100 15.272100
5.899900 13.057200
5.912700 12.687600
5.925500 12.509500
5.938400 12.331000
5.951200 12.152200
5.964000 11.973000
5.976800 11.793400
5.989600 11.613500
6.002400 11.433200
6.015200 11.252600
6.028000 11.071600
6.040800 12.322700
6.053600 12.517300
6.066500 5.666200
6.079300 0.162600
6.092100 0.000000
6.104900 0.000000
6.117700 0.000000
6.130500 0.000000
6.143300 0.000000
6.156100 2.673300
6.168900 6.191900
6.181800 10.023000
6.194600 13.620000
6.207400 15.918300
6.220200 17.055800
6.233000 18.046700
6.245800 18.891100
6.258600 19.589000
6.271400 20.140300
6.284200 20.545200
6.297000 20.803500
6.309900 19.881400
6.322700 17.244300
6.335500 13.711400
6.348300 11.826200
6.361100 10.454400
6.373900 9.291500
6.386700 8.090800
6.399500 7.005500
6.412300 6.047500
6.425100 5.216900
6.438000 4.503300
6.450800 3.808500
6.463600 3.258200
6.476400 3.072500
6.489200 3.496200
6.502000 4.107800
6.514800 4.907500
6.527600 5.895100
6.540400 7.820300
6.553200 10.540300
6.566100 13.876900
6.578900 17.352100
6.591700 20.840700
6.604500 24.342700
6.617300 27.858000
6.630100 31.386600
6.642900 34.586300
6.655700 36.493200
6.668500 66.299100
6.681300 9.793100
6.694200 3.502500
6.707000 0.428300
6.719800 0.891000
6.732600 2.756700
6.745400 5.648800
6.758200 9.838400
6.771000 18.416600
6.783800 27.265700
6.796600 32.884900
6.809400 32.469900
6.822300 33.643500
6.835100 33.730400
6.847900 32.730700
6.860700 30.831700
6.873500 24.219500
6.886300 16.918800
6.899100 13.888200
6.911900 12.496500
6.924700 11.874000
6.937500 14.857400
6.950400 21.688900
6.963200 28.476100
6.976000 32.721800
6.988800 43.926100
7.001600 44.767300
7.014400 38.837400
7.027200 29.768200
7.040000 25.270100
7.052800 24.099500
7.065700 20.577700
7.078500 39.110500
7.091300 45.038200
7.104100 44.546900
7.116900 42.174700
7.129700 32.346200
7.142500 23.553900
7.155300 18.849600
7.168100 14.349700
7.180900 12.364000
7.193800 16.168700
7.206600 24.208900
7.219400 34.467100
7.232200 44.408500
7.245000 52.001400
7.257800 56.487500
7.270600 82.672700
7.283400 22.598800
7.296200 17.304600
7.309000 17.786800
7.321900 23.791500
7.334700 34.748200
7.347500 58.888300
7.360300 44.642600
7.373100 38.589500
7.385900 37.785400
7.398700 44.767400
7.411500 52.457000
7.424300 43.200400
7.437100 47.303700
7.450000 63.810900
7.462800 67.974400
7.475600 29.927700
7.488400 5.894800
7.501200 21.094400
7.514000 35.954600
7.526800 43.376000
7.539600 47.564600
7.552400 48.493900
7.565200 42.809700
7.578100 37.174900
7.590900 18.615600
7.603700 14.180100
7.616500 19.115000
7.629300 24.185800
7.642100 29.392500
7.654900 34.735200
7.667700 39.599900
7.680500 42.478100
7.693300 42.568600
7.706200 35.832700
7.719000 32.569900
7.731800 21.201600
7.744600 16.877300
7.757400 20.417700
7.770200 21.570300
7.783000 20.447300
7.795800 34.709500
7.808600 64.901900
7.821400 37.071400
7.834300 30.823600
7.847100 30.547100
7.859900 31.132700
7.872700 39.761000
7.885500 39.612200
7.898300 39.572100
7.911100 40.339700
7.923900 36.540500
7.936700 31.866700
7.949600 26.877700
7.962400 24.287300
7.975200 21.599700
7.988000 20.111600
8.000800 24.321100
8.013600 29.169700
8.026400 34.062600
8.039200 39.014300
8.052000 37.400300
8.064800 54.143300
8.077700 19.306600
8.090500 27.840000
8.103300 39.116900
8.116100 42.408500
8.128900 57.338900
8.141700 51.654000
8.154500 38.258700
8.167300 33.784500
8.180100 28.052500
8.192900 14.741600
8.205800 10.662900
8.218600 7.492100
8.231400 4.915500
8.244200 2.344300
8.257000 6.867300
8.269800 17.804400
8.282600 31.280500
8.295400 68.656800
8.308200 21.103800
8.321000 22.184800
8.333900 23.630600
8.346700 24.610800
8.359500 21.921000
8.372300 21.792100
8.385100 22.938100
8.397900 21.488300
8.410700 19.091400
8.423500 12.484600
8.436300 3.155800
8.449100 0.021900
8.462000 0.000000
8.474800 0.000000
8.487600 0.000000
8.500400 0.000000
8.513200 0.000000
8.526000 0.000000
8.538800 0.000000
8.551600 0.000000
8.564400 0.000000
8.577200 0.000000
8.590100 0.000000
8.602900 0.000000
8.615700 0.000000
8.628500 0.000000
8.641300 0.000000
8.654100 0.000000
8.666900 0.000000
8.679700 0.000000
8.692500 0.000000
8.705300 0.000000
8.718200 0.000000
8.731000 0.000000
8.743800 0.000000
8.756600 0.000000
8.769400 0.000000
8.782200 0.000000
8.795000 0.000000
8.807800 0.000000
8.820600 0.000000
8.833500 0.000000
8.846300 0.000000
8.859100 0.000000
8.871900 0.000000
8.884700 0.000000
8.897500 0.000000
8.910300 0.000000
8.923100 0.000000
8.935900 0.000000
8.948700 0.000000
8.961600 0.000000
8.974400 0.000000
8.987200 0.000000
9.000000 0.000000
9.012800 0.000000
9.025600 0.000000
9.038400 0.000000
9.051200 0.000000
9.064000 0.000000
9.076800 0.000000
9.089700 0.000000
9.102500 0.000000
9.115300 0.000000
9.128100 0.000000
9.140900 0.000000
9.153700 0.000000
9.166500 0.000000
9.179300 0.000000
9.192100 0.000000
9.204900 0.000000
9.217800 0.000000
9.230600 0.000000
9.243400 0.000000
9.256200 0.000000
9.269000 0.000000
9.281800 0.000000
9.294600 0.000000
9.307400 0.000000
9.320200 0.000000
9.333000 0.000000
9.345900 0.000000
9.358700 0.000000
9.371500 0.000000
9.384300 0.000000
9.397100 0.000000
9.409900 0.000000
9.422700 0.000000
9.435500 0.000000
9.448300 0.000000
9.461100 0.000000
9.474000 0.000000
9.486800 0.000000
9.499600 0.000000
9.512400 0.000000
9.525200 0.000000
9.538000 0.000000
9.550800 0.000000
9.563600 0.000000
9.576400 0.000000
9.589200 0.000000
9.602100 0.000000
9.614900 0.000000
e
