set title 'mp-1079923 - Density of States'
set xlabel 'Energy (eV)'
set ylabel 'DOS (states/eV)'
set grid
set xrange [-10:10]
set yrange [0:6.757]
set xzeroaxis lt -1
set terminal png size 800,600
set output 'mp-1079923_dos_gnuplot.png'
plot '-' using 1:2 with lines title 'DOS'
-39.721900 0.000000
-39.683800 0.000000
-39.645800 0.000000
-39.607700 0.000000
-39.569600 0.000000
-39.531500 0.000000
-39.493400 0.000000
-39.455300 0.000000
-39.417200 0.000000
-39.379100 0.000000
-39.341000 0.000000
-39.302900 0.000000
-39.264800 0.000000
-39.226700 0.000000
-39.188600 0.000000
-39.150500 0.000000
-39.112400 0.000000
-39.074300 0.000000
-39.036200 0.000000
-38.998200 0.000000
-38.960100 0.000000
-38.922000 0.000000
-38.883900 0.000000
-38.845800 0.000000
-38.807700 0.000000
-38.769600 0.000000
-38.731500 0.000000
-38.693400 0.000000
-38.655300 0.000000
-38.617200 0.000000
-38.579100 0.000000
-38.541000 0.000000
-38.502900 0.000000
-38.464800 0.000000
-38.426700 0.000000
-38.388600 0.000000
-38.350600 0.000000
-38.312500 0.000000
-38.274400 0.000000
-38.236300 0.000000
-38.198200 0.000000
-38.160100 0.000000
-38.122000 0.000000
-38.083900 0.000000
-38.045800 0.000000
-38.007700 0.000000
-37.969600 0.000000
-37.931500 0.000000
-37.893400 0.000000
-37.855300 0.000000
-37.817200 0.000000
-37.779100 0.000000
-37.741100 0.000000
-37.703000 0.000000
-37.664900 0.000000
-37.626800 0.000000
-37.588700 0.000000
-37.550600 0.000000
-37.512500 0.000000
-37.474400 0.000000
-37.436300 0.000000
-37.398200 0.000000
-37.360100 0.000000
-37.322000 0.000000
-37.283900 0.000000
-37.245800 0.000000
-37.207700 0.000000
-37.169600 0.000000
-37.131500 0.000000
-37.093500 0.000000
-37.055400 0.000000
-37.017300 0.000000
-36.979200 0.000000
-36.941100 0.000000
-36.903000 0.000000
-36.864900 0.000000
-36.826800 0.000000
-36.788700 0.000000
-36.750600 0.000000
-36.712500 0.000000
-36.674400 0.000000
-36.636300 0.000000
-36.598200 0.000000
-36.560100 0.000000
-36.522000 0.000000
-36.484000 0.000000
-36.445900 0.000000
-36.407800 0.000000
-36.369700 0.000000
-36.331600 0.000000
-36.293500 0.000000
-36.255400 3.051300
-36.217300 12.153600
-36.179200 32.840200
-36.141100 31.626900
-36.103000 6.746400
-36.064900 4.712500
-36.026800 3.550700
-35.988700 3.507200
-35.950600 7.108300
-35.912500 9.299800
-35.874400 13.343900
-35.836400 13.824300
-35.798300 14.353500
-35.760200 12.233500
-35.722100 12.706900
-35.684000 18.492800
-35.645900 27.719900
-35.607800 27.550300
-35.569700 14.344300
-35.531600 27.211800
-35.493500 16.785800
-35.455400 0.000000
-35.417300 0.000000
-35.379200 0.000000
-35.341100 0.000000
-35.303000 0.000000
-35.264900 0.000000
-35.226900 0.000000
-35.188800 0.000000
-35.150700 0.000000
-35.112600 0.000000
-35.074500 0.000000
-35.036400 0.000000
-34.998300 0.000000
-34.960200 0.000000
-34.922100 0.000000
-34.884000 0.000000
-34.845900 0.000000
-34.807800 0.000000
-34.769700 0.000000
-34.731600 0.000000
-34.693500 0.000000
-34.655400 0.000000
-34.617300 0.000000
-34.579300 0.000000
-34.541200 0.000000
-34.503100 0.000000
-34.465000 0.000000
-34.426900 0.000000
-34.388800 0.000000
-34.350700 0.000000
-34.312600 0.000000
-34.274500 0.000000
-34.236400 0.000000
-34.198300 0.000000
-34.160200 0.000000
-34.122100 0.000000
-34.084000 0.000000
-34.045900 0.000000
-34.007800 0.000000
-33.969700 0.000000
-33.931700 0.000000
-33.893600 0.000000
-33.855500 0.000000
-33.817400 0.000000
-33.779300 0.000000
-33.741200 0.000000
-33.703100 0.000000
-33.665000 0.000000
-33.626900 0.000000
-33.588800 0.000000
-33.550700 0.000000
-33.512600 0.000000
-33.474500 0.000000
-33.436400 0.000000
-33.398300 0.000000
-33.360200 0.000000
-33.322200 0.000000
-33.284100 0.000000
-33.246000 0.000000
-33.207900 0.000000
-33.169800 0.000000
-33.131700 0.000000
-33.093600 0.000000
-33.055500 0.000000
-33.017400 0.000000
-32.979300 0.000000
-32.941200 0.000000
-32.903100 0.000000
-32.865000 0.000000
-32.826900 0.000000
-32.788800 0.000000
-32.750700 0.000000
-32.712600 0.000000
-32.674600 0.000000
-32.636500 0.000000
-32.598400 0.000000
-32.560300 0.000000
-32.522200 0.000000
-32.484100 0.000000
-32.446000 0.000000
-32.407900 0.000000
-32.369800 0.000000
-32.331700 0.000000
-32.293600 0.000000
-32.255500 0.000000
-32.217400 0.000000
-32.179300 0.000000
-32.141200 0.000000
-32.103100 0.000000
-32.065100 0.000000
-32.027000 0.000000
-31.988900 0.000000
-31.950800 0.000000
-31.912700 0.000000
-31.874600 0.000000
-31.836500 0.000000
-31.798400 0.000000
-31.760300 0.000000
-31.722200 0.000000
-31.684100 0.000000
-31.646000 0.000000
-31.607900 0.000000
-31.569800 0.000000
-31.531700 0.000000
-31.493600 0.000000
-31.455500 0.000000
-31.417500 0.000000
-31.379400 0.000000
-31.341300 0.000000
-31.303200 0.000000
-31.265100 0.000000
-31.227000 0.000000
-31.188900 0.000000
-31.150800 0.000000
-31.112700 0.000000
-31.074600 0.000000
-31.036500 0.000000
-30.998400 0.000000
-30.960300 0.000000
-30.922200 0.000000
-30.884100 0.000000
-30.846000 0.000000
-30.807900 0.000000
-30.769900 0.000000
-30.731800 0.000000
-30.693700 0.000000
-30.655600 0.000000
-30.617500 0.000000
-30.579400 0.000000
-30.541300 0.000000
-30.503200 0.000000
-30.465100 0.000000
-30.427000 0.000000
-30.388900 0.000000
-30.350800 0.000000
-30.312700 0.000000
-30.274600 0.000000
-30.236500 0.000000
-30.198400 0.000000
-30.160400 0.000000
-30.122300 0.000000
-30.084200 0.000000
-30.046100 0.000000
-30.008000 0.000000
-29.969900 0.000000
-29.931800 0.000000
-29.893700 0.000000
-29.855600 0.000000
-29.817500 0.000000
-29.779400 0.000000
-29.741300 0.000000
-29.703200 0.000000
-29.665100 0.000000
-29.627000 0.000000
-29.588900 0.000000
-29.550800 0.000000
-29.512800 0.000000
-29.474700 0.000000
-29.436600 0.000000
-29.398500 0.000000
-29.360400 0.000000
-29.322300 0.000000
-29.284200 0.000000
-29.246100 0.000000
-29.208000 0.000000
-29.169900 0.000000
-29.131800 0.000000
-29.093700 0.000000
-29.055600 0.000000
-29.017500 0.000000
-28.979400 0.000000
-28.941300 0.000000
-28.903300 0.000000
-28.865200 0.000000
-28.827100 0.000000
-28.789000 0.000000
-28.750900 0.000000
-28.712800 0.000000
-28.674700 0.000000
-28.636600 0.000000
-28.598500 0.000000
-28.560400 0.000000
-28.522300 0.000000
-28.484200 0.000000
-28.446100 0.000000
-28.408000 0.000000
-28.369900 0.000000
-28.331800 0.000000
-28.293700 0.000000
-28.255700 0.000000
-28.217600 0.000000
-28.179500 0.000000
-28.141400 0.000000
-28.103300 0.000000
-28.065200 0.000000
-28.027100 0.000000
-27.989000 0.000000
-27.950900 0.000000
-27.912800 0.000000
-27.874700 0.000000
-27.836600 0.000000
-27.798500 0.000000
-27.760400 0.000000
-27.722300 0.000000
-27.684200 0.000000
-27.646200 0.000000
-27.608100 0.000000
-27.570000 0.000000
-27.531900 0.000000
-27.493800 0.000000
-27.455700 0.000000
-27.417600 0.000000
-27.379500 0.000000
-27.341400 0.000000
-27.303300 0.000000
-27.265200 0.000000
-27.227100 0.000000
-27.189000 0.000000
-27.150900 0.000000
-27.112800 0.000000
-27.074700 0.000000
-27.036600 0.000000
-26.998600 0.000000
-26.960500 0.000000
-26.922400 0.000000
-26.884300 0.000000
-26.846200 0.000000
-26.808100 0.000000
-26.770000 0.000000
-26.731900 0.000000
-26.693800 0.000000
-26.655700 0.000000
-26.617600 0.000000
-26.579500 0.000000
-26.541400 0.000000
-26.503300 0.000000
-26.465200 0.000000
-26.427100 0.000000
-26.389000 0.000000
-26.351000 0.000000
-26.312900 0.000000
-26.274800 0.000000
-26.236700 0.000000
-26.198600 0.000000
-26.160500 0.000000
-26.122400 0.000000
-26.084300 0.000000
-26.046200 0.000000
-26.008100 0.000000
-25.970000 0.000000
-25.931900 0.000000
-25.893800 0.000000
-25.855700 0.000000
-25.817600 0.000000
-25.779500 0.000000
-25.741500 0.000000
-25.703400 0.000000
-25.665300 0.000000
-25.627200 0.000000
-25.589100 0.000000
-25.551000 0.000000
-25.512900 0.000000
-25.474800 0.000000
-25.436700 0.000000
-25.398600 0.000000
-25.360500 0.000000
-25.322400 0.000000
-25.284300 0.000000
-25.246200 0.000000
-25.208100 0.000000
-25.170000 0.000000
-25.131900 0.000000
-25.093900 0.000000
-25.055800 0.000000
-25.017700 0.000000
-24.979600 0.000000
-24.941500 0.000000
-24.903400 0.000000
-24.865300 0.000000
-24.827200 0.000000
-24.789100 0.000000
-24.751000 0.000000
-24.712900 0.000000
-24.674800 0.000000
-24.636700 0.000000
-24.598600 0.000000
-24.560500 0.000000
-24.522400 0.000000
-24.484400 0.000000
-24.446300 0.000000
-24.408200 0.000000
-24.370100 0.000000
-24.332000 0.000000
-24.293900 0.000000
-24.255800 0.000000
-24.217700 0.000000
-24.179600 0.000000
-24.141500 0.000000
-24.103400 0.000000
-24.065300 0.000000
-24.027200 0.000000
-23.989100 0.000000
-23.951000 0.000000
-23.912900 0.000000
-23.874800 0.000000
-23.836800 0.000000
-23.798700 0.000000
-23.760600 0.000000
-23.722500 0.000000
-23.684400 0.000000
-23.646300 0.000000
-23.608200 0.000000
-23.570100 0.000000
-23.532000 0.000000
-23.493900 0.000000
-23.455800 0.000000
-23.417700 0.000000
-23.379600 0.000000
-23.341500 0.000000
-23.303400 0.000000
-23.265300 0.000000
-23.227200 0.000000
-23.189200 0.000000
-23.151100 0.000000
-23.113000 0.000000
-23.074900 0.000000
-23.036800 0.000000
-22.998700 0.000000
-22.960600 0.000000
-22.922500 0.000000
-22.884400 0.000000
-22.846300 0.000000
-22.808200 0.000000
-22.770100 0.000000
-22.732000 0.000000
-22.693900 0.000000
-22.655800 0.000000
-22.617700 0.000000
-22.579700 0.000000
-22.541600 0.000000
-22.503500 0.000000
-22.465400 0.000000
-22.427300 0.000000
-22.389200 0.000000
-22.351100 0.000000
-22.313000 0.000000
-22.274900 0.000000
-22.236800 0.000000
-22.198700 0.000000
-22.160600 0.000000
-22.122500 0.000000
-22.084400 0.000000
-22.046300 0.000000
-22.008200 0.000000
-21.970100 0.000000
-21.932100 0.000000
-21.894000 0.000000
-21.855900 0.000000
-21.817800 0.000000
-21.779700 0.000000
-21.741600 0.000000
-21.703500 0.000000
-21.665400 0.000000
-21.627300 0.000000
-21.589200 0.000000
-21.551100 0.000000
-21.513000 0.000000
-21.474900 0.000000
-21.436800 0.000000
-21.398700 0.000000
-21.360600 0.000000
-21.322600 0.000000
-21.284500 0.000000
-21.246400 0.000000
-21.208300 0.000000
-21.170200 0.000000
-21.132100 0.000000
-21.094000 0.000000
-21.055900 0.000000
-21.017800 0.000000
-20.979700 0.000000
-20.941600 0.000000
-20.903500 0.000000
-20.865400 0.000000
-20.827300 0.000000
-20.789200 0.000000
-20.751100 0.000000
-20.713000 0.000000
-20.675000 0.000000
-20.636900 0.000000
-20.598800 0.000000
-20.560700 0.000000
-20.522600 0.000000
-20.484500 0.000000
-20.446400 0.000000
-20.408300 0.000000
-20.370200 0.000000
-20.332100 0.000000
-20.294000 0.000000
-20.255900 0.000000
-20.217800 0.000000
-20.179700 0.000000
-20.141600 0.000000
-20.103500 0.000000
-20.065500 0.000000
-20.027400 0.000000
-19.989300 0.000000
-19.951200 0.000000
-19.913100 0.000000
-19.875000 0.000000
-19.836900 0.000000
-19.798800 0.000000
-19.760700 0.000000
-19.722600 0.000000
-19.684500 0.000000
-19.646400 0.000000
-19.608300 0.000000
-19.570200 0.000000
-19.532100 0.000000
-19.494000 0.000000
-19.455900 0.000000
-19.417900 0.000000
-19.379800 0.000000
-19.341700 0.000000
-19.303600 0.000000
-19.265500 0.000000
-19.227400 0.000000
-19.189300 0.000000
-19.151200 0.000000
-19.113100 0.000000
-19.075000 0.000000
-19.036900 0.000000
-18.998800 0.000000
-18.960700 0.000000
-18.922600 0.000000
-18.884500 0.000000
-18.846400 0.000000
-18.808300 0.000000
-18.770300 0.000000
-18.732200 0.000000
-18.694100 0.000000
-18.656000 0.000000
-18.617900 0.000000
-18.579800 0.000000
-18.541700 0.000000
-18.503600 0.000000
-18.465500 0.000000
-18.427400 0.000000
-18.389300 0.000000
-18.351200 0.000000
-18.313100 0.000000
-18.275000 0.000000
-18.236900 0.000000
-18.198800 0.000000
-18.160800 0.000000
-18.122700 0.000000
-18.084600 0.000000
-18.046500 0.000000
-18.008400 0.000000
-17.970300 0.000000
-17.932200 0.000000
-17.894100 0.000000
-17.856000 0.000000
-17.817900 0.000000
-17.779800 0.000000
-17.741700 0.000000
-17.703600 0.000000
-17.665500 0.000000
-17.627400 0.000000
-17.589300 0.000000
-17.551200 0.000000
-17.513200 0.000000
-17.475100 0.000000
-17.437000 0.000000
-17.398900 0.000000
-17.360800 0.000000
-17.322700 0.000000
-17.284600 0.000000
-17.246500 0.000000
-17.208400 0.000000
-17.170300 0.000000
-17.132200 0.000000
-17.094100 0.000000
-17.056000 0.000000
-17.017900 0.000000
-16.979800 0.000000
-16.941700 0.000000
-16.903700 0.000000
-16.865600 0.000000
-16.827500 0.000000
-16.789400 0.000000
-16.751300 0.000000
-16.713200 0.000000
-16.675100 0.000000
-16.637000 0.000000
-16.598900 0.000000
-16.560800 0.000000
-16.522700 0.000000
-16.484600 0.000000
-16.446500 0.000000
-16.408400 0.000000
-16.370300 0.000000
-16.332200 0.000000
-16.294100 0.000000
-16.256100 0.000000
-16.218000 0.000000
-16.179900 0.000000
-16.141800 0.000000
-16.103700 0.000000
-16.065600 0.000000
-16.027500 0.000000
-15.989400 0.000000
-15.951300 0.000000
-15.913200 0.000000
-15.875100 0.000000
-15.837000 0.000000
-15.798900 0.000000
-15.760800 0.000000
-15.722700 0.000000
-15.684600 0.000000
-15.646500 0.000000
-15.608500 0.000000
-15.570400 0.000000
-15.532300 0.000000
-15.494200 0.000000
-15.456100 0.000000
-15.418000 0.000000
-15.379900 0.000000
-15.341800 0.000000
-15.303700 0.000000
-15.265600 0.000000
-15.227500 0.000000
-15.189400 0.000000
-15.151300 0.000000
-15.113200 0.000000
-15.075100 0.000000
-15.037000 0.000000
-14.999000 0.000000
-14.960900 0.000000
-14.922800 0.000000
-14.884700 0.000000
-14.846600 0.000000
-14.808500 0.000000
-14.770400 0.000000
-14.732300 0.000000
-14.694200 0.000000
-14.656100 0.000000
-14.618000 0.000000
-14.579900 0.000000
-14.541800 0.000000
-14.503700 0.000000
-14.465600 0.000000
-14.427500 0.000000
-14.389400 0.000000
-14.351400 0.000000
-14.313300 0.000000
-14.275200 0.000000
-14.237100 0.000000
-14.199000 0.000000
-14.160900 0.000000
-14.122800 0.000000
-14.084700 0.000000
-14.046600 0.000000
-14.008500 0.000000
-13.970400 0.000000
-13.932300 0.000000
-13.894200 0.000000
-13.856100 0.000000
-13.818000 0.000000
-13.779900 0.000000
-13.741900 0.000000
-13.703800 0.000000
-13.665700 0.000000
-13.627600 0.000000
-13.589500 0.000000
-13.551400 0.000000
-13.513300 0.000000
-13.475200 0.000000
-13.437100 0.000000
-13.399000 0.000000
-13.360900 0.000000
-13.322800 0.000000
-13.284700 0.000000
-13.246600 0.000000
-13.208500 0.000000
-13.170400 0.000000
-13.132300 0.000000
-13.094300 0.000000
-13.056200 0.000000
-13.018100 0.000000
-12.980000 0.000000
-12.941900 0.000000
-12.903800 0.000000
-12.865700 0.000000
-12.827600 0.000000
-12.789500 0.000000
-12.751400 0.000000
-12.713300 0.000000
-12.675200 0.000000
-12.637100 0.000000
-12.599000 0.000000
-12.560900 0.000000
-12.522800 0.000000
-12.484800 0.000000
-12.446700 0.000000
-12.408600 0.000000
-12.370500 0.000000
-12.332400 0.000000
-12.294300 0.000000
-12.256200 0.000000
-12.218100 0.000000
-12.180000 0.000000
-12.141900 0.000000
-12.103800 0.000000
-12.065700 0.000000
-12.027600 0.000000
-11.989500 0.000000
-11.951400 0.000000
-11.913300 0.000000
-11.875200 0.000000
-11.837200 0.000000
-11.799100 0.000000
-11.761000 0.000000
-11.722900 0.000000
-11.684800 0.000000
-11.646700 0.000000
-11.608600 0.000000
-11.570500 0.000000
-11.532400 0.000000
-11.494300 0.000000
-11.456200 0.000000
-11.418100 0.000000
-11.380000 0.000000
-11.341900 0.000000
-11.303800 0.000000
-11.265700 0.000000
-11.227600 0.000000
-11.189600 0.000000
-11.151500 0.000000
-11.113400 0.000000
-11.075300 0.000000
-11.037200 0.000000
-10.999100 0.000000
-10.961000 0.000000
-10.922900 0.000000
-10.884800 0.000000
-10.846700 0.000000
-10.808600 0.000000
-10.770500 0.000000
-10.732400 0.000000
-10.694300 0.000000
-10.656200 0.000000
-10.618100 0.000000
-10.580100 0.000000
-10.542000 0.000000
-10.503900 0.000000
-10.465800 0.000000
-10.427700 0.000000
-10.389600 0.000000
-10.351500 0.000000
-10.313400 0.000000
-10.275300 0.000000
-10.237200 0.000000
-10.199100 0.000000
-10.161000 0.000000
-10.122900 0.000000
-10.084800 0.000000
-10.046700 0.000000
-10.008600 0.000000
-9.970500 0.000000
-9.932500 0.000000
-9.894400 0.000000
-9.856300 0.000000
-9.818200 0.000000
-9.780100 0.000000
-9.742000 0.000000
-9.703900 0.000000
-9.665800 0.000000
-9.627700 0.000000
-9.589600 0.000000
-9.551500 0.000000
-9.513400 0.000000
-9.475300 0.000000
-9.437200 0.000000
-9.399100 0.000000
-9.361000 0.000000
-9.323000 0.000000
-9.284900 0.000000
-9.246800 0.000000
-9.208700 0.000000
-9.170600 0.000000
-9.132500 0.000000
-9.094400 0.000000
-9.056300 0.000000
-9.018200 0.000000
-8.980100 0.000000
-8.942000 0.000000
-8.903900 0.206000
-8.865800 0.247800
-8.827700 0.289700
-8.789600 0.331500
-8.751500 0.318500
-8.713400 0.284400
-8.675400 0.285400
-8.637300 0.286400
-8.599200 0.287700
-8.561100 0.296500
-8.523000 0.308600
-8.484900 0.320800
-8.446800 0.328900
-8.408700 0.314500
-8.370600 0.307700
-8.332500 0.305400
-8.294400 0.303000
-8.256300 0.305500
-8.218200 0.310800
-8.180100 0.315800
-8.142000 0.320800
-8.103900 0.325700
-8.065800 0.330700
-8.027800 0.335700
-7.989700 0.338800
-7.951600 0.335900
-7.913500 0.333100
-7.875400 0.333800
-7.837300 0.334500
-7.799200 0.336100
-7.761100 0.338700
-7.723000 0.341500
-7.684900 0.344200
-7.646800 0.347000
-7.608700 0.349800
-7.570600 0.352500
-7.532500 0.359200
-7.494400 0.365600
-7.456300 0.370700
-7.418300 0.374400
-7.380200 0.376300
-7.342100 0.377000
-7.304000 0.377000
-7.265900 0.378300
-7.227800 0.380000
-7.189700 0.382200
-7.151600 0.385900
-7.113500 0.392200
-7.075400 0.611400
-7.037300 0.704000
-6.999200 0.781100
-6.961100 0.841400
-6.923000 0.817400
-6.884900 0.800500
-6.846800 0.808100
-6.808700 0.819800
-6.770700 0.841900
-6.732600 0.867000
-6.694500 0.883300
-6.656400 0.879600
-6.618300 0.879600
-6.580200 0.886100
-6.542100 0.899400
-6.504000 0.915700
-6.465900 0.931500
-6.427800 0.947200
-6.389700 0.959000
-6.351600 0.975200
-6.313500 0.995700
-6.275400 1.014400
-6.237300 1.033100
-6.199200 1.050500
-6.161200 1.068100
-6.123100 1.096300
-6.085000 1.120900
-6.046900 1.175600
-6.008800 1.235400
-5.970700 1.277200
-5.932600 1.317400
-5.894500 1.358300
-5.856400 1.456900
-5.818300 1.589400
-5.780200 1.727300
-5.742100 4.472400
-5.704000 3.267900
-5.665900 2.680800
-5.627800 2.735500
-5.589700 2.378900
-5.551600 2.348500
-5.513600 2.329700
-5.475500 1.613400
-5.437400 1.621100
-5.399300 1.652700
-5.361200 1.690000
-5.323100 1.785500
-5.285000 1.889400
-5.246900 2.985200
-5.208800 1.962800
-5.170700 2.348500
-5.132600 2.507400
-5.094500 1.615200
-5.056400 1.485900
-5.018300 1.458700
-4.980200 1.370000
-4.942100 1.197900
-4.904100 1.073300
-4.866000 1.255800
-4.827900 1.080500
-4.789800 1.305000
-4.751700 0.424100
-4.713600 0.388800
-4.675500 0.355500
-4.637400 0.346600
-4.599300 0.000000
-4.561200 0.000000
-4.523100 0.000000
-4.485000 0.000000
-4.446900 0.000000
-4.408800 0.000000
-4.370700 0.000000
-4.332600 0.000000
-4.294500 0.000000
-4.256500 0.000000
-4.218400 0.131200
-4.180300 0.202500
-4.142200 0.182100
-4.104100 0.209000
-4.066000 0.236000
-4.027900 0.465900
-3.989800 0.526900
-3.951700 0.617600
-3.913600 0.660300
-3.875500 0.658000
-3.837400 0.695500
-3.799300 0.691600
-3.761200 0.894100
-3.723100 0.959300
-3.685000 0.999400
-3.646900 0.982700
-3.608900 1.114000
-3.570800 1.282800
-3.532700 1.315500
-3.494600 1.356600
-3.456500 1.426000
-3.418400 1.579900
-3.380300 1.671400
-3.342200 1.762400
-3.304100 1.823200
-3.266000 1.919200
-3.227900 2.129000
-3.189800 2.559600
-3.151700 2.616500
-3.113600 2.728900
-3.075500 3.119000
-3.037400 3.093300
-2.999400 3.413700
-2.961300 3.494000
-2.923200 2.641600
-2.885100 2.326400
-2.847000 2.261600
-2.808900 2.000600
-2.770800 1.828400
-2.732700 1.708000
-2.694600 1.678600
-2.656500 1.838500
-2.618400 2.141000
-2.580300 1.926900
-2.542200 3.439300
-2.504100 3.956200
-2.466000 2.997900
-2.427900 2.814600
-2.389800 2.382800
-2.351800 2.446500
-2.313700 2.429900
-2.275600 2.458800
-2.237500 2.740900
-2.199400 2.704600
-2.161300 2.834300
-2.123200 3.188500
-2.085100 2.776800
-2.047000 2.416300
-2.008900 2.497300
-1.970800 2.788800
-1.932700 3.610400
-1.894600 4.535900
-1.856500 4.704000
-1.818400 6.142600
-1.780300 5.471200
-1.742300 5.044300
-1.704200 5.273200
-1.666100 5.657800
-1.628000 5.431700
-1.589900 4.611900
-1.551800 3.779300
-1.513700 3.090900
-1.475600 2.750100
-1.437500 2.236900
-1.399400 2.057500
-1.361300 2.066800
-1.323200 2.078300
-1.285100 1.971300
-1.247000 1.983000
-1.208900 2.424800
-1.170800 2.689000
-1.132700 3.660200
-1.094700 3.480400
-1.056600 2.833900
-1.018500 2.086000
-0.980400 1.746200
-0.942300 1.494300
-0.904200 1.296300
-0.866100 1.115400
-0.828000 0.981300
-0.789900 0.996400
-0.751800 0.975200
-0.713700 0.946200
-0.675600 0.931200
-0.637500 0.817600
-0.599400 0.744000
-0.561300 0.760000
-0.523200 0.812600
-0.485100 0.867700
-0.447100 0.922700
-0.409000 0.977800
-0.370900 1.029500
-0.332800 1.098500
-0.294700 1.531900
-0.256600 1.928800
-0.218500 2.095300
-0.180400 2.260600
-0.142300 2.679400
-0.104200 3.082200
-0.066100 2.948900
-0.028000 3.743500
0.010100 3.081100
0.048200 2.915800
0.086300 2.520600
0.124400 2.431800
0.162400 2.390300
0.200500 2.362800
0.238600 2.277400
0.276700 2.220600
0.314800 2.175200
0.352900 2.152100
0.391000 2.130600
0.429100 2.173400
0.467200 2.397000
0.505300 2.385000
0.543400 2.493400
0.581500 2.307000
0.619600 2.326700
0.657700 2.179200
0.695800 2.212100
0.733900 1.810800
0.772000 1.527300
0.810000 1.676700
0.848100 1.334100
0.886200 1.236900
0.924300 1.086300
0.962400 1.015500
1.000500 0.989000
1.038600 0.951100
1.076700 1.235800
1.114800 1.615200
1.152900 1.694200
1.191000 1.657900
1.229100 1.644500
1.267200 1.651100
1.305300 1.722400
1.343400 1.688700
1.381500 1.782600
1.419500 1.866700
1.457600 1.993300
1.495700 1.999700
1.533800 2.256800
1.571900 2.538400
1.610000 3.294400
1.648100 3.318400
1.686200 2.969300
1.724300 2.497600
1.762400 2.444600
1.800500 2.508100
1.838600 2.228800
1.876700 1.879800
1.914800 1.660300
1.952900 1.520300
1.991000 1.458200
2.029100 1.426200
2.067100 1.399000
2.105200 1.391500
2.143300 1.380400
2.181400 1.364400
2.219500 1.345600
2.257600 1.336200
2.295700 1.329300
2.333800 1.321500
2.371900 1.319400
2.410000 1.331100
2.448100 1.353500
2.486200 1.368300
2.524300 1.386300
2.562400 1.403500
2.600500 1.419000
2.638600 1.435400
2.676600 1.466400
2.714700 1.508300
2.752800 1.552900
2.790900 1.597900
2.829000 1.653100
2.867100 1.722600
2.905200 1.835400
2.943300 2.000100
2.981400 2.136000
3.019500 2.147500
3.057600 2.121000
3.095700 2.089100
3.133800 1.953500
3.171900 1.676500
3.210000 1.487400
3.248100 1.440000
3.286200 1.401900
3.324200 1.346500
3.362300 1.292700
3.400400 1.267300
3.438500 1.192600
3.476600 1.184400
3.514700 1.154800
3.552800 1.207600
3.590900 1.282200
3.629000 1.309700
3.667100 1.082400
3.705200 1.351300
3.743300 1.354600
3.781400 0.042500
3.819500 0.000000
3.857600 0.000000
3.895700 0.000000
3.933800 0.000000
3.971800 0.000000
4.009900 0.000000
4.048000 0.000000
4.086100 0.000000
4.124200 0.000000
4.162300 0.000000
4.200400 0.000000
4.238500 0.497200
4.276600 1.078200
4.314700 4.260600
4.352800 5.558000
4.390900 2.916500
4.429000 2.634000
4.467100 2.554500
4.505200 1.224100
4.543300 1.697900
4.581300 2.546800
4.619400 3.305600
4.657500 3.604200
4.695600 3.229200
4.733700 3.662200
4.771800 2.987000
4.809900 2.818100
4.848000 2.361800
4.886100 1.722700
4.924200 1.689500
4.962300 1.667100
5.000400 1.718000
5.038500 2.052200
5.076600 2.654700
5.114700 3.260600
5.152800 3.197000
5.190900 3.371600
5.228900 3.035100
5.267000 3.239700
5.305100 3.509600
5.343200 4.237100
5.381300 3.272400
5.419400 2.794700
5.457500 2.400000
5.495600 2.287200
5.533700 2.262300
5.571800 2.206600
5.609900 2.161300
5.648000 2.113100
5.686100 2.088400
5.724200 2.079100
5.762300 2.046000
5.800400 2.114200
5.838400 2.493300
5.876500 2.559000
5.914600 2.685500
5.952700 2.961200
5.990800 2.606600
6.028900 2.193400
6.067000 2.343800
6.105100 3.250800
6.143200 3.674700
6.181300 4.019100
6.219400 4.797600
6.257500 4.349200
6.295600 4.137700
6.333700 3.517200
6.371800 3.078200
6.409900 2.599000
6.448000 2.485900
6.486000 2.412500
6.524100 2.370400
6.562200 2.328500
6.600300 2.042900
6.638400 1.720800
6.676500 1.593500
6.714600 1.535500
6.752700 1.537600
6.790800 1.502200
6.828900 1.483700
6.867000 1.653600
6.905100 1.560500
6.943200 1.529300
6.981300 1.552700
7.019400 1.664200
7.057500 1.547000
7.095600 1.881900
7.133600 1.784100
7.171700 1.695200
7.209800 1.607700
7.247900 1.575200
7.286000 1.556900
7.324100 1.537400
7.362200 1.591300
7.400300 1.699000
7.438400 1.768900
7.476500 1.763700
7.514600 1.766300
7.552700 1.776400
7.590800 1.774900
7.628900 1.765300
7.667000 1.773600
7.705100 1.795500
7.743100 1.918000
7.781200 1.954300
7.819300 2.038600
7.857400 2.149500
7.895500 2.340400
7.933600 2.354000
7.971700 2.400200
8.009800 2.392000
8.047900 2.457600
8.086000 2.449300
8.124100 2.641000
8.162200 2.713100
8.200300 2.805900
8.238400 3.018400
8.276500 2.747300
8.314600 2.522500
8.352700 2.626000
8.390700 2.247700
8.428800 2.359700
8.466900 2.624200
8.505000 2.578000
8.543100 2.651300
8.581200 2.917800
8.619300 2.788400
8.657400 2.945600
8.695500 2.720300
8.733600 2.533500
8.771700 2.505500
8.809800 2.641800
8.847900 2.767400
8.886000 2.728800
8.924100 2.864400
8.962200 2.375500
9.000200 2.220600
9.038300 2.186300
9.076400 2.144300
9.114500 2.187600
9.152600 2.218000
9.190700 2.260500
9.228800 2.547400
9.266900 2.707600
9.305000 2.604400
9.343100 2.667200
9.381200 2.980700
9.419300 2.734800
9.457400 2.572100
9.495500 2.688900
9.533600 2.755400
9.571700 2.739700
9.609800 2.511200
9.647800 2.257900
9.685900 1.914800
9.724000 1.682700
9.762100 1.515300
9.800200 1.341100
9.838300 1.238400
9.876400 1.286900
9.914500 1.420500
9.952600 1.656500
9.990700 1.839300
10.028800 2.019400
10.066900 2.053600
10.105000 2.203100
10.143100 2.340800
10.181200 2.256800
10.219300 2.217300
10.257300 2.211600
10.295400 2.564400
10.333500 2.392500
10.371600 1.947900
10.409700 1.776000
10.447800 1.709100
10.485900 1.681800
10.524000 1.674400
10.562100 1.743900
10.600200 1.911800
10.638300 1.824400
10.676400 1.680100
10.714500 1.667600
10.752600 1.626400
10.790700 1.601800
10.828800 1.545300
10.866900 1.536200
10.904900 1.458300
10.943000 1.414400
10.981100 1.376200
11.019200 1.356800
11.057300 1.373800
11.095400 1.369500
11.133500 1.350000
11.171600 1.346700
11.209700 1.422900
11.247800 1.333200
11.285900 1.293800
11.324000 1.241700
11.362100 1.202700
11.400200 1.116400
11.438300 1.105200
11.476400 1.098500
11.514500 1.099600
11.552500 1.108900
11.590600 1.123300
11.628700 1.143900
11.666800 1.177900
11.704900 1.320200
11.743000 1.382000
11.781100 1.413700
11.819200 1.463100
11.857300 1.524200
11.895400 1.600600
11.933500 1.700900
11.971600 2.042100
12.009700 1.975800
12.047800 2.139100
12.085900 2.317700
12.124000 2.605200
12.162000 2.680000
12.200100 3.143400
12.238200 2.745900
12.276300 2.747700
12.314400 2.759000
12.352500 2.773400
12.390600 3.164400
12.428700 2.418300
12.466800 2.364400
12.504900 2.414100
12.543000 2.245200
12.581100 2.084100
12.619200 2.035700
12.657300 1.996500
12.695400 1.941300
12.733500 1.937400
12.771600 1.907900
12.809600 1.890900
12.847700 1.830100
12.885800 1.827900
12.923900 1.892200
12.962000 2.076400
13.000100 2.054500
13.038200 2.050100
13.076300 2.047500
13.114400 2.056200
13.152500 2.044100
13.190600 2.140200
13.228700 2.140100
13.266800 2.031000
13.304900 2.014500
13.343000 1.968200
13.381100 1.953400
13.419100 1.897900
13.457200 1.811300
13.495300 1.653300
13.533400 1.613000
13.571500 1.583900
13.609600 1.567300
13.647700 1.541600
13.685800 1.522500
13.723900 1.510900
13.762000 1.505800
13.800100 1.518000
13.838200 1.533800
13.876300 1.542900
13.914400 1.546800
13.952500 1.552600
13.990600 1.568300
14.028700 1.616900
14.066700 1.623000
14.104800 1.609600
14.142900 1.618800
14.181000 1.635800
14.219100 1.636000
14.257200 1.671400
14.295300 1.730800
14.333400 1.749900
14.371500 1.759200
14.409600 1.776700
14.447700 1.792400
14.485800 1.843400
14.523900 1.988800
14.562000 2.056300
14.600100 2.088200
14.638200 2.176400
14.676300 2.171300
14.714300 2.117800
14.752400 2.077100
14.790500 2.055000
14.828600 2.014300
14.866700 1.985300
14.904800 2.125700
14.942900 2.145100
14.981000 2.074000
15.019100 2.060600
15.057200 2.043700
15.095300 2.031400
15.133400 1.917000
15.171500 1.813900
15.209600 1.768000
15.247700 1.750800
15.285800 1.734300
15.323800 1.594000
15.361900 1.578800
15.400000 1.580700
15.438100 1.580900
15.476200 1.577500
15.514300 1.579300
15.552400 1.584800
15.590500 1.588000
15.628600 1.578600
15.666700 1.670900
15.704800 1.701500
15.742900 1.826800
15.781000 1.898500
15.819100 1.966200
15.857200 2.008100
15.895300 1.986900
15.933400 1.930000
15.971400 1.917200
16.009500 1.904500
16.047600 1.901800
16.085700 1.885000
16.123800 1.891700
16.161900 1.901300
16.200000 1.913200
16.238100 1.935800
16.276200 1.965500
16.314300 2.023200
16.352400 2.060400
16.390500 2.092300
16.428600 2.087500
16.466700 2.081300
16.504800 2.071800
16.542900 2.153800
16.580900 2.205200
16.619000 2.203500
16.657100 2.178000
16.695200 2.188300
16.733300 2.246600
16.771400 2.291200
16.809500 2.653200
16.847600 2.618700
16.885700 2.697000
16.923800 2.717700
16.961900 2.635300
17.000000 2.616500
17.038100 2.639100
17.076200 2.657600
17.114300 2.644300
17.152400 2.553600
17.190500 2.496700
17.228500 2.452300
17.266600 2.358100
17.304700 2.325700
17.342800 2.349400
17.380900 2.385200
17.419000 2.527700
17.457100 2.661500
17.495200 2.712800
17.533300 2.699500
17.571400 2.677400
17.609500 2.666900
17.647600 2.776600
17.685700 2.802000
17.723800 2.843900
17.761900 2.726100
17.800000 2.688400
17.838000 2.584100
17.876100 2.619100
17.914200 2.597500
17.952300 2.519100
17.990400 2.405600
18.028500 2.291400
18.066600 2.185000
18.104700 2.062700
18.142800 1.970800
18.180900 1.871100
18.219000 1.794400
18.257100 1.652100
18.295200 1.610700
18.333300 1.565800
18.371400 1.589500
18.409500 1.659900
18.447600 1.757900
18.485600 1.737500
18.523700 1.751300
18.561800 1.771200
18.599900 1.886400
18.638000 2.372900
18.676100 1.920100
18.714200 1.906600
18.752300 1.955800
18.790400 1.864200
18.828500 1.856800
18.866600 1.824300
18.904700 1.786700
18.942800 1.813800
18.980900 1.914300
19.019000 2.005500
19.057100 2.108200
19.095200 2.070400
19.133200 2.071100
19.171300 1.969600
19.209400 1.796300
19.247500 1.755300
19.285600 1.717300
19.323700 1.742400
19.361800 1.634500
19.399900 1.708500
19.438000 1.710400
19.476100 1.752700
19.514200 1.822500
19.552300 1.863800
19.590400 1.865000
19.628500 1.900500
19.666600 1.964600
19.704700 2.055300
19.742700 2.197900
19.780800 2.251900
19.818900 2.237400
19.857000 2.206200
19.895100 2.161800
19.933200 2.152200
19.971300 2.287400
20.009400 2.194200
20.047500 2.042100
20.085600 1.981500
20.123700 1.932200
20.161800 1.911500
20.199900 1.883900
20.238000 1.923800
20.276100 2.050700
20.314200 2.125500
20.352300 2.101800
20.390300 2.131000
20.428400 2.131800
20.466500 2.089400
20.504600 2.174200
20.542700 2.302600
20.580800 2.360300
20.618900 2.384300
20.657000 2.440300
20.695100 2.533800
20.733200 2.510100
20.771300 2.603700
20.809400 2.583300
20.847500 2.644400
20.885600 2.735700
20.923700 3.038700
20.961800 3.003900
20.999800 2.778800
21.037900 2.535900
21.076000 2.410400
21.114100 2.269500
21.152200 2.222100
21.190300 2.238000
21.228400 2.245600
21.266500 2.304700
21.304600 2.359700
21.342700 2.504400
21.380800 2.546000
21.418900 2.516600
21.457000 2.671900
21.495100 2.923800
21.533200 2.955400
21.571300 2.922500
21.609400 2.950200
21.647400 2.861100
21.685500 2.898400
21.723600 2.768300
21.761700 2.554100
21.799800 2.466500
21.837900 2.329800
21.876000 2.217600
21.914100 2.166300
21.952200 2.080700
21.990300 1.951400
22.028400 1.840400
22.066500 1.798600
22.104600 1.860800
22.142700 1.987500
22.180800 2.106000
22.218900 2.236600
22.256900 2.374200
22.295000 2.547800
22.333100 2.611900
22.371200 2.657500
22.409300 2.735500
22.447400 2.769500
22.485500 2.801300
22.523600 2.868900
22.561700 2.856600
22.599800 2.618100
22.637900 2.330000
22.676000 2.135100
22.714100 1.938800
22.752200 1.888600
22.790300 1.934000
22.828400 2.113900
22.866500 2.282100
22.904500 2.408300
22.942600 2.473400
22.980700 2.591200
23.018800 2.600800
23.056900 2.588500
23.095000 2.532700
23.133100 2.515900
23.171200 2.526500
23.209300 2.505300
23.247400 2.449600
23.285500 2.475400
23.323600 2.340800
23.361700 2.231000
23.399800 2.238500
23.437900 2.261000
23.476000 2.207200
23.514100 2.216500
23.552100 2.142800
23.590200 2.058000
23.628300 1.997200
23.666400 2.085300
23.704500 2.171400
23.742600 2.278300
23.780700 2.343100
23.818800 2.441000
23.856900 2.601700
23.895000 2.737900
23.933100 2.885400
23.971200 3.035300
24.009300 3.064200
24.047400 3.031600
24.085500 3.011000
24.123600 3.007400
24.161600 2.776300
24.199700 2.671500
24.237800 2.557500
24.275900 2.468000
24.314000 2.427200
24.352100 2.424000
24.390200 2.383900
24.428300 2.350900
24.466400 2.360600
24.504500 2.377400
24.542600 2.401300
24.580700 2.402100
24.618800 2.415400
24.656900 2.392500
24.695000 2.377100
24.733100 2.443400
24.771200 2.539700
24.809200 2.623800
24.847300 2.688000
24.885400 2.796900
24.923500 2.852900
24.961600 2.930300
24.999700 3.106400
25.037800 3.061900
25.075900 2.868100
25.114000 2.803800
25.152100 2.755400
25.190200 2.561900
25.228300 2.470500
25.266400 2.427500
25.304500 2.480200
25.342600 2.459000
25.380700 2.398400
25.418700 2.329300
25.456800 2.228500
25.494900 2.126000
25.533000 2.107900
25.571100 2.254800
25.609200 2.220400
25.647300 2.194600
25.685400 2.215700
25.723500 2.271900
25.761600 2.357900
25.799700 2.358300
25.837800 2.353200
25.875900 2.364300
25.914000 2.398500
25.952100 2.394900
25.990200 2.403100
26.028300 2.423400
26.066300 2.421400
26.104400 2.404300
26.142500 2.447100
26.180600 2.516800
26.218700 2.603100
26.256800 2.639300
26.294900 2.623600
26.333000 2.573100
26.371100 2.610600
26.409200 2.702600
26.447300 2.776300
26.485400 2.822600
26.523500 2.807100
26.561600 2.765500
26.599700 2.721600
26.637800 2.801800
26.675900 2.824500
26.713900 2.800400
26.752000 2.719600
26.790100 2.716100
26.828200 2.667300
26.866300 2.662900
26.904400 2.678900
26.942500 2.682100
26.980600 2.668000
27.018700 2.632900
27.056800 2.582400
27.094900 2.464700
27.133000 2.445000
27.171100 2.442100
27.209200 2.499600
27.247300 2.533000
27.285400 2.607500
27.323400 2.709500
27.361500 2.847400
27.399600 2.942100
27.437700 3.011900
27.475800 3.147000
27.513900 3.263000
27.552000 3.261500
27.590100 3.311000
27.628200 3.249900
27.666300 3.298700
27.704400 3.216200
27.742500 3.128500
27.780600 3.059200
27.818700 3.041300
27.856800 2.966000
27.894900 2.906300
27.933000 2.892300
27.971000 2.820000
28.009100 2.758000
28.047200 2.694500
28.085300 2.727500
28.123400 2.777700
28.161500 2.759000
28.199600 2.770100
28.237700 2.800600
28.275800 2.817500
28.313900 2.807700
28.352000 2.848700
28.390100 2.980700
28.428200 2.779900
28.466300 2.683700
28.504400 2.696300
28.542500 2.717000
28.580500 2.700500
28.618600 2.643300
28.656700 2.543200
28.694800 2.577800
28.732900 2.540300
28.771000 2.669700
28.809100 2.494100
28.847200 2.414800
28.885300 2.424900
28.923400 2.492600
28.961500 2.662700
28.999600 2.778700
29.037700 2.880700
29.075800 3.059800
29.113900 3.194300
29.152000 3.239800
29.190100 3.264000
29.228100 3.166900
29.266200 3.091900
29.304300 3.003000
29.342400 2.981700
29.380500 2.859100
29.418600 2.793900
29.456700 2.786700
29.494800 2.805100
29.532900 2.762300
29.571000 2.835600
29.609100 2.742100
29.647200 2.664700
29.685300 2.650700
29.723400 2.642500
29.761500 2.726200
29.799600 2.812400
29.837600 2.769900
29.875700 2.830600
29.913800 2.923200
29.951900 2.751900
29.990000 2.781300
30.028100 2.854900
30.066200 2.830700
30.104300 2.783700
30.142400 2.710500
30.180500 2.643200
30.218600 2.602900
30.256700 2.588400
30.294800 2.598400
30.332900 2.613200
30.371000 2.668100
30.409100 2.753600
30.447200 2.712700
30.485200 2.674400
30.523300 2.650700
30.561400 2.616900
30.599500 2.589500
30.637600 2.629900
30.675700 2.653200
30.713800 2.667400
30.751900 2.684700
30.790000 2.733900
30.828100 2.769800
30.866200 2.912100
30.904300 2.877700
30.942400 2.994400
30.980500 2.826100
31.018600 2.636700
31.056700 2.403000
31.094800 2.180600
31.132800 2.062900
31.170900 1.912700
31.209000 1.836300
31.247100 1.804300
31.285200 1.755400
31.323300 1.732300
31.361400 1.632400
31.399500 1.526100
31.437600 1.483800
31.475700 1.468400
31.513800 1.456500
31.551900 1.478200
31.590000 1.439700
31.628100 1.381400
31.666200 1.352400
31.704300 1.325900
31.742300 1.266900
31.780400 1.216200
31.818500 1.231500
31.856600 1.194900
31.894700 1.150300
31.932800 1.143800
31.970900 1.070000
32.009000 1.015600
32.047100 0.938400
32.085200 0.852300
32.123300 0.790800
32.161400 0.731000
32.199500 0.664300
32.237600 0.615600
32.275700 0.573800
32.313800 0.546700
32.351900 0.524600
32.389900 0.506600
32.428000 0.488500
32.466100 0.466800
32.504200 0.449100
32.542300 0.416700
32.580400 0.357700
32.618500 0.315200
32.656600 0.286900
32.694700 0.273900
32.732800 0.266100
32.770900 0.276600
32.809000 0.345700
32.847100 0.472700
32.885200 0.858000
32.923300 0.595500
32.961400 0.160200
32.999400 0.031100
33.037500 0.000000
33.075600 0.000000
33.113700 0.000000
33.151800 0.000000
33.189900 0.000000
33.228000 0.000000
33.266100 0.000000
33.304200 0.000000
33.342300 0.000000
33.380400 0.000000
33.418500 0.000000
33.456600 0.000000
33.494700 0.000000
33.532800 0.000000
33.570900 0.000000
33.609000 0.000000
33.647000 0.000000
33.685100 0.000000
33.723200 0.000000
33.761300 0.000000
33.799400 0.000000
33.837500 0.000000
33.875600 0.000000
33.913700 0.000000
33.951800 0.000000
33.989900 0.000000
34.028000 0.000000
34.066100 0.000000
34.104200 0.000000
34.142300 0.000000
34.180400 0.000000
34.218500 0.000000
34.256600 0.000000
34.294600 0.000000
34.332700 0.000000
34.370800 0.000000
34.408900 0.000000
34.447000 0.000000
34.485100 0.000000
34.523200 0.000000
34.561300 0.000000
34.599400 0.000000
34.637500 0.000000
34.675600 0.000000
34.713700 0.000000
34.751800 0.000000
34.789900 0.000000
34.828000 0.000000
34.866100 0.000000
34.904100 0.000000
34.942200 0.000000
34.980300 0.000000
35.018400 0.000000
35.056500 0.000000
35.094600 0.000000
35.132700 0.000000
35.170800 0.000000
35.208900 0.000000
35.247000 0.000000
35.285100 0.000000
35.323200 0.000000
35.361300 0.000000
35.399400 0.000000
35.437500 0.000000
35.475600 0.000000
35.513700 0.000000
35.551700 0.000000
35.589800 0.000000
35.627900 0.000000
35.666000 0.000000
35.704100 0.000000
35.742200 0.000000
35.780300 0.000000
35.818400 0.000000
35.856500 0.000000
35.894600 0.000000
35.932700 0.000000
35.970800 0.000000
36.008900 0.000000
36.047000 0.000000
36.085100 0.000000
36.123200 0.000000
36.161200 0.000000
36.199300 0.000000
36.237400 0.000000
36.275500 0.000000
36.313600 0.000000
36.351700 0.000000
36.389800 0.000000
36.427900 0.000000
36.466000 0.000000
e
