set title 'mp-624400 - Density of States'
set xlabel 'Energy (eV)'
set ylabel 'DOS (states/eV)'
set grid
set xrange [-10:10]
set yrange [0:1232.875]
set xzeroaxis lt -1
set terminal png size 800,600
set output 'mp-624400_dos_gnuplot.png'
plot '-' using 1:2 with lines title 'DOS'
-11.944100 0.000000
-11.931200 0.000000
-11.918400 0.000000
-11.905500 0.000000
-11.892600 0.000000
-11.879800 0.000000
-11.866900 0.000000
-11.854000 0.000000
-11.841200 0.000000
-11.828300 0.000000
-11.815400 0.000000
-11.802600 0.000000
-11.789700 0.000000
-11.776800 0.000000
-11.764000 0.000000
-11.751100 0.000000
-11.738200 0.000000
-11.725400 0.000000
-11.712500 0.000000
-11.699600 0.000000
-11.686800 0.000000
-11.673900 0.000000
-11.661000 0.000000
-11.648200 0.000000
-11.635300 0.000000
-11.622400 0.000000
-11.609600 0.000000
-11.596700 0.000000
-11.583800 0.000000
-11.571000 0.000000
-11.558100 0.000000
-11.545200 0.000000
-11.532400 0.000000
-11.519500 0.000000
-11.506600 0.000000
-11.493800 0.000000
-11.480900 0.000000
-11.468000 0.000000
-11.455200 0.000000
-11.442300 0.000000
-11.429400 0.000000
-11.416600 0.000000
-11.403700 0.000000
-11.390800 0.000000
-11.378000 0.000000
-11.365100 0.000000
-11.352200 0.000000
-11.339400 0.000000
-11.326500 0.000000
-11.313600 0.000000
-11.300800 0.000000
-11.287900 0.000000
-11.275000 0.000000
-11.262200 0.000000
-11.249300 0.000000
-11.236400 0.000000
-11.223600 0.000000
-11.210700 0.000000
-11.197800 0.000000
-11.185000 0.000000
-11.172100 0.000000
-11.159200 0.000000
-11.146400 0.000000
-11.133500 0.000000
-11.120600 0.000000
-11.107800 0.000000
-11.094900 0.000000
-11.082000 0.000000
-11.069100 0.000000
-11.056300 0.000000
-11.043400 0.000000
-11.030500 0.000000
-11.017700 0.000000
-11.004800 0.000000
-10.991900 0.000000
-10.979100 0.000000
-10.966200 0.000000
-10.953300 0.000000
-10.940500 0.000000
-10.927600 0.000000
-10.914700 0.000000
-10.901900 0.000000
-10.889000 0.000000
-10.876100 0.000000
-10.863300 0.000000
-10.850400 0.000000
-10.837500 0.000000
-10.824700 0.000000
-10.811800 0.000000
-10.798900 0.000000
-10.786100 0.000000
-10.773200 0.042400
-10.760300 1.075900
-10.747500 2.829200
-10.734600 5.203400
-10.721700 8.238400
-10.708900 11.721800
-10.696000 16.347300
-10.683100 17.001800
-10.670300 18.095300
-10.657400 20.966400
-10.644500 20.853800
-10.631700 21.523500
-10.618800 19.942200
-10.605900 20.638500
-10.593100 21.334800
-10.580200 22.031100
-10.567300 22.727300
-10.554500 23.423600
-10.541600 24.149500
-10.528700 24.938600
-10.515900 25.774200
-10.503000 26.683900
-10.490100 27.664700
-10.477300 28.739100
-10.464400 29.810500
-10.451500 30.874400
-10.438700 31.925700
-10.425800 32.954300
-10.412900 33.980800
-10.400100 35.007300
-10.387200 36.033800
-10.374300 37.060300
-10.361500 38.086800
-10.348600 40.868600
-10.335700 49.939100
-10.322900 72.142700
-10.310000 88.926400
-10.297100 121.583800
-10.284300 135.602600
-10.271400 166.699600
-10.258500 170.076400
-10.245700 201.070900
-10.232800 258.731500
-10.219900 312.664900
-10.207100 271.728700
-10.194200 281.026200
-10.181300 0.000000
-10.168500 0.000000
-10.155600 0.000000
-10.142700 0.000000
-10.129900 0.000000
-10.117000 0.000000
-10.104100 0.000000
-10.091300 0.000000
-10.078400 0.000000
-10.065500 0.000000
-10.052700 0.000000
-10.039800 0.000000
-10.026900 0.000000
-10.014100 0.000000
-10.001200 0.000000
-9.988300 0.000000
-9.975500 0.000000
-9.962600 0.000000
-9.949700 0.000000
-9.936900 0.000000
-9.924000 0.000000
-9.911100 0.000000
-9.898300 0.000000
-9.885400 0.000000
-9.872500 0.000000
-9.859700 0.000000
-9.846800 0.000000
-9.833900 0.000000
-9.821100 0.000000
-9.808200 0.000000
-9.795300 0.000000
-9.782400 0.000000
-9.769600 0.000000
-9.756700 0.000000
-9.743800 0.000000
-9.731000 0.000000
-9.718100 0.000000
-9.705200 0.000000
-9.692400 0.000000
-9.679500 0.000000
-9.666600 0.000000
-9.653800 0.000000
-9.640900 0.000000
-9.628000 0.000000
-9.615200 0.000000
-9.602300 0.000000
-9.589400 0.000000
-9.576600 0.000000
-9.563700 0.000000
-9.550800 0.000000
-9.538000 0.000000
-9.525100 0.000000
-9.512200 0.000000
-9.499400 0.000000
-9.486500 0.000000
-9.473600 0.000000
-9.460800 0.000000
-9.447900 0.000000
-9.435000 0.000000
-9.422200 0.000000
-9.409300 0.000000
-9.396400 0.000000
-9.383600 0.000000
-9.370700 0.000000
-9.357800 0.000000
-9.345000 0.000000
-9.332100 0.000000
-9.319200 0.000000
-9.306400 0.000000
-9.293500 0.000000
-9.280600 0.000000
-9.267800 0.000000
-9.254900 0.000000
-9.242000 0.000000
-9.229200 0.000000
-9.216300 0.000000
-9.203400 0.000000
-9.190600 0.000000
-9.177700 0.000000
-9.164800 0.000000
-9.152000 0.000000
-9.139100 0.000000
-9.126200 0.000000
-9.113400 0.000000
-9.100500 0.000000
-9.087600 0.000000
-9.074800 0.000000
-9.061900 0.000000
-9.049000 0.000000
-9.036200 0.000000
-9.023300 0.000000
-9.010400 0.000000
-8.997600 0.000000
-8.984700 0.000000
-8.971800 0.000000
-8.959000 0.000000
-8.946100 0.000000
-8.933200 0.000000
-8.920400 0.000000
-8.907500 0.000000
-8.894600 0.000000
-8.881800 0.000000
-8.868900 0.000000
-8.856000 0.000000
-8.843200 0.000000
-8.830300 0.000000
-8.817400 0.000000
-8.804600 0.000000
-8.791700 0.000000
-8.778800 0.000000
-8.766000 0.000000
-8.753100 0.000000
-8.740200 0.000000
-8.727400 0.000000
-8.714500 0.000000
-8.701600 0.000000
-8.688800 0.000000
-8.675900 0.000000
-8.663000 0.000000
-8.650200 0.000000
-8.637300 0.000000
-8.624400 0.000000
-8.611600 0.000000
-8.598700 0.000000
-8.585800 0.000000
-8.573000 0.000000
-8.560100 0.000000
-8.547200 0.000000
-8.534400 0.000000
-8.521500 0.000000
-8.508600 0.000000
-8.495800 0.000000
-8.482900 0.000000
-8.470000 0.000000
-8.457100 0.000000
-8.444300 0.000000
-8.431400 0.000000
-8.418500 0.000000
-8.405700 0.000000
-8.392800 0.000000
-8.379900 0.000000
-8.367100 0.000000
-8.354200 0.000000
-8.341300 0.000000
-8.328500 0.000000
-8.315600 0.000000
-8.302700 0.000000
-8.289900 0.000000
-8.277000 0.000000
-8.264100 0.000000
-8.251300 0.000000
-8.238400 0.000000
-8.225500 0.000000
-8.212700 0.000000
-8.199800 0.000000
-8.186900 0.000000
-8.174100 0.000000
-8.161200 0.000000
-8.148300 0.000000
-8.135500 0.000000
-8.122600 0.000000
-8.109700 0.000000
-8.096900 0.000000
-8.084000 0.000000
-8.071100 0.000000
-8.058300 0.000000
-8.045400 0.000000
-8.032500 0.000000
-8.019700 0.000000
-8.006800 0.000000
-7.993900 0.000000
-7.981100 0.000000
-7.968200 0.000000
-7.955300 0.000000
-7.942500 0.000000
-7.929600 0.000000
-7.916700 0.000000
-7.903900 0.000000
-7.891000 0.000000
-7.878100 0.000000
-7.865300 0.000000
-7.852400 0.000000
-7.839500 0.000000
-7.826700 0.000000
-7.813800 0.000000
-7.800900 0.000000
-7.788100 0.000000
-7.775200 0.000000
-7.762300 0.000000
-7.749500 0.000000
-7.736600 0.000000
-7.723700 0.000000
-7.710900 0.000000
-7.698000 0.000000
-7.685100 0.000000
-7.672300 0.000000
-7.659400 0.000000
-7.646500 0.000000
-7.633700 0.000000
-7.620800 0.000000
-7.607900 0.000000
-7.595100 0.000000
-7.582200 0.000000
-7.569300 0.000000
-7.556500 0.000000
-7.543600 0.000000
-7.530700 0.000000
-7.517900 0.000000
-7.505000 0.000000
-7.492100 0.000000
-7.479300 0.000000
-7.466400 0.000000
-7.453500 0.000000
-7.440700 0.000000
-7.427800 0.000000
-7.414900 0.000000
-7.402100 0.000000
-7.389200 0.000000
-7.376300 0.000000
-7.363500 0.000000
-7.350600 0.000000
-7.337700 0.000000
-7.324900 0.000000
-7.312000 0.000000
-7.299100 0.000000
-7.286300 0.000000
-7.273400 0.000000
-7.260500 0.000000
-7.247700 0.000000
-7.234800 0.000000
-7.221900 0.000000
-7.209100 0.000000
-7.196200 0.000000
-7.183300 0.000000
-7.170500 0.000000
-7.157600 0.000000
-7.144700 0.000000
-7.131800 0.000000
-7.119000 0.000000
-7.106100 0.000000
-7.093200 0.000000
-7.080400 0.000000
-7.067500 0.000000
-7.054600 0.000000
-7.041800 0.000000
-7.028900 0.000000
-7.016000 0.000000
-7.003200 0.000000
-6.990300 0.000000
-6.977400 0.000000
-6.964600 0.000000
-6.951700 0.000000
-6.938800 0.000000
-6.926000 0.000000
-6.913100 0.000000
-6.900200 0.000000
-6.887400 0.000000
-6.874500 0.000000
-6.861600 0.000000
-6.848800 0.000000
-6.835900 0.000000
-6.823000 0.000000
-6.810200 0.000000
-6.797300 0.000000
-6.784400 0.000000
-6.771600 0.000000
-6.758700 0.000000
-6.745800 0.000000
-6.733000 0.000000
-6.720100 0.000000
-6.707200 0.000000
-6.694400 0.000000
-6.681500 0.000000
-6.668600 0.000000
-6.655800 0.000000
-6.642900 0.000000
-6.630000 0.000000
-6.617200 0.000000
-6.604300 0.000000
-6.591400 0.000000
-6.578600 0.000000
-6.565700 0.000000
-6.552800 0.000000
-6.540000 0.000000
-6.527100 0.000000
-6.514200 0.000000
-6.501400 0.000000
-6.488500 152.051100
-6.475600 268.777700
-6.462800 499.421400
-6.449900 372.427100
-6.437000 194.128800
-6.424200 161.935400
-6.411300 153.298600
-6.398400 271.740200
-6.385600 544.502500
-6.372700 404.272100
-6.359800 272.274600
-6.347000 148.868100
-6.334100 353.887500
-6.321200 1120.795100
-6.308400 430.796800
-6.295500 486.309500
-6.282600 457.345500
-6.269800 229.955500
-6.256900 170.943200
-6.244000 147.372400
-6.231200 123.801600
-6.218300 156.241700
-6.205400 32.245600
-6.192600 0.000000
-6.179700 0.000000
-6.166800 0.000000
-6.154000 0.000000
-6.141100 0.000000
-6.128200 0.000000
-6.115400 0.000000
-6.102500 0.000000
-6.089600 0.000000
-6.076800 0.000000
-6.063900 0.000000
-6.051000 0.000000
-6.038200 0.000000
-6.025300 0.000000
-6.012400 0.000000
-5.999600 0.000000
-5.986700 0.000000
-5.973800 0.000000
-5.961000 0.000000
-5.948100 0.000000
-5.935200 0.000000
-5.922400 0.000000
-5.909500 0.000000
-5.896600 0.000000
-5.883800 0.000000
-5.870900 0.000000
-5.858000 0.000000
-5.845200 0.000000
-5.832300 0.000000
-5.819400 0.000000
-5.806500 0.000000
-5.793700 0.000000
-5.780800 0.000000
-5.767900 0.000000
-5.755100 0.000000
-5.742200 0.000000
-5.729300 0.000000
-5.716500 0.000000
-5.703600 0.000000
-5.690700 0.000000
-5.677900 0.000000
-5.665000 0.000000
-5.652100 0.000000
-5.639300 0.000000
-5.626400 0.000000
-5.613500 0.000000
-5.600700 0.000000
-5.587800 0.000000
-5.574900 0.000000
-5.562100 0.000000
-5.549200 0.000000
-5.536300 0.000000
-5.523500 0.000000
-5.510600 0.000000
-5.497700 0.000000
-5.484900 0.000000
-5.472000 0.000000
-5.459100 0.000000
-5.446300 0.000000
-5.433400 0.000000
-5.420500 0.000000
-5.407700 0.000000
-5.394800 0.000000
-5.381900 0.000000
-5.369100 0.000000
-5.356200 0.000000
-5.343300 0.000000
-5.330500 0.000000
-5.317600 0.000000
-5.304700 0.000000
-5.291900 0.000000
-5.279000 0.000000
-5.266100 0.000000
-5.253300 0.000000
-5.240400 0.000000
-5.227500 0.000000
-5.214700 0.000000
-5.201800 0.000000
-5.188900 0.000000
-5.176100 0.000000
-5.163200 0.000000
-5.150300 0.000000
-5.137500 0.000000
-5.124600 0.000000
-5.111700 0.000000
-5.098900 0.000000
-5.086000 0.000000
-5.073100 0.000000
-5.060300 0.000000
-5.047400 0.000000
-5.034500 0.000000
-5.021700 0.000000
-5.008800 0.000000
-4.995900 0.000000
-4.983100 0.000000
-4.970200 0.000000
-4.957300 0.000000
-4.944500 0.000000
-4.931600 0.000000
-4.918700 0.000000
-4.905900 0.000000
-4.893000 0.000000
-4.880100 0.000000
-4.867300 0.000000
-4.854400 0.000000
-4.841500 0.000000
-4.828700 0.000000
-4.815800 0.000000
-4.802900 0.000000
-4.790100 0.000000
-4.777200 0.000000
-4.764300 0.000000
-4.751500 0.000000
-4.738600 0.000000
-4.725700 0.000000
-4.712900 0.000000
-4.700000 0.000000
-4.687100 0.000000
-4.674300 0.000000
-4.661400 0.000000
-4.648500 0.000000
-4.635700 0.000000
-4.622800 0.000000
-4.609900 0.000000
-4.597100 0.000000
-4.584200 0.000000
-4.571300 0.000000
-4.558500 0.000000
-4.545600 0.000000
-4.532700 0.000000
-4.519800 0.000000
-4.507000 0.000000
-4.494100 0.000000
-4.481200 0.000000
-4.468400 0.000000
-4.455500 0.000000
-4.442600 0.000000
-4.429800 0.000000
-4.416900 0.000000
-4.404000 0.000000
-4.391200 0.000000
-4.378300 0.000000
-4.365400 0.000000
-4.352600 0.000000
-4.339700 0.000000
-4.326800 0.000000
-4.314000 0.000000
-4.301100 0.000000
-4.288200 0.000000
-4.275400 0.000000
-4.262500 0.000000
-4.249600 0.000000
-4.236800 0.000000
-4.223900 0.000000
-4.211000 0.000000
-4.198200 0.000000
-4.185300 0.000000
-4.172400 0.000000
-4.159600 0.000000
-4.146700 0.000000
-4.133800 0.000000
-4.121000 0.000000
-4.108100 0.000000
-4.095200 0.000000
-4.082400 0.000000
-4.069500 0.000000
-4.056600 0.000000
-4.043800 0.000000
-4.030900 0.000000
-4.018000 0.000000
-4.005200 0.000000
-3.992300 0.000000
-3.979400 0.000000
-3.966600 0.000000
-3.953700 0.000000
-3.940800 0.000000
-3.928000 0.000000
-3.915100 0.000000
-3.902200 0.000000
-3.889400 0.000000
-3.876500 0.000000
-3.863600 0.000000
-3.850800 0.000000
-3.837900 0.000000
-3.825000 0.000000
-3.812200 0.000000
-3.799300 0.000000
-3.786400 0.000000
-3.773600 0.000000
-3.760700 0.000000
-3.747800 0.000000
-3.735000 0.000000
-3.722100 0.000000
-3.709200 0.000000
-3.696400 0.000000
-3.683500 0.000000
-3.670600 0.000000
-3.657800 0.000000
-3.644900 0.000000
-3.632000 0.000000
-3.619200 0.000000
-3.606300 0.000000
-3.593400 0.000000
-3.580600 0.000000
-3.567700 0.000000
-3.554800 0.000000
-3.542000 0.000000
-3.529100 0.000000
-3.516200 0.000000
-3.503400 0.000000
-3.490500 0.000000
-3.477600 0.000000
-3.464800 0.000000
-3.451900 0.000000
-3.439000 0.000000
-3.426200 0.000000
-3.413300 0.000000
-3.400400 0.000000
-3.387600 0.000000
-3.374700 0.000000
-3.361800 0.000000
-3.349000 0.000000
-3.336100 0.000000
-3.323200 0.000000
-3.310400 0.000000
-3.297500 0.000000
-3.284600 0.000000
-3.271800 0.000000
-3.258900 0.000000
-3.246000 0.000000
-3.233200 0.000000
-3.220300 0.000000
-3.207400 0.000000
-3.194500 0.000000
-3.181700 0.000000
-3.168800 0.000000
-3.155900 0.000000
-3.143100 0.000000
-3.130200 0.000000
-3.117300 0.000000
-3.104500 0.000000
-3.091600 0.000000
-3.078700 0.000000
-3.065900 0.000000
-3.053000 0.000000
-3.040100 0.000000
-3.027300 0.000000
-3.014400 0.000000
-3.001500 0.000000
-2.988700 0.000000
-2.975800 0.000000
-2.962900 0.000000
-2.950100 0.000000
-2.937200 0.000000
-2.924300 0.000000
-2.911500 0.000000
-2.898600 0.000000
-2.885700 0.000000
-2.872900 0.000000
-2.860000 0.000000
-2.847100 0.000000
-2.834300 0.000000
-2.821400 0.000000
-2.808500 0.000000
-2.795700 0.000000
-2.782800 0.000000
-2.769900 0.000000
-2.757100 0.000000
-2.744200 0.000000
-2.731300 0.000000
-2.718500 0.000000
-2.705600 0.000000
-2.692700 0.000000
-2.679900 0.000000
-2.667000 0.000000
-2.654100 0.000000
-2.641300 0.000000
-2.628400 0.000000
-2.615500 0.000000
-2.602700 0.000000
-2.589800 0.000000
-2.576900 0.000000
-2.564100 0.000000
-2.551200 0.000000
-2.538300 33.545400
-2.525500 18.674300
-2.512600 45.185400
-2.499700 57.711100
-2.486900 62.719700
-2.474000 63.906400
-2.461100 72.313200
-2.448300 70.060800
-2.435400 61.615300
-2.422500 53.658300
-2.409700 52.750600
-2.396800 48.968700
-2.383900 42.741200
-2.371100 37.466700
-2.358200 36.846800
-2.345300 32.691700
-2.332500 29.200000
-2.319600 27.558000
-2.306700 27.437500
-2.293900 27.985200
-2.281000 28.751300
-2.268100 30.312000
-2.255300 33.348400
-2.242400 46.654200
-2.229500 51.730800
-2.216700 58.262400
-2.203800 42.223700
-2.190900 27.755500
-2.178100 28.824700
-2.165200 36.691100
-2.152300 13.776500
-2.139500 13.902800
-2.126600 13.823700
-2.113700 13.689800
-2.100900 13.546000
-2.088000 13.419000
-2.075100 13.292000
-2.062300 6.326200
-2.049400 6.189300
-2.036500 6.052500
-2.023700 5.915600
-2.010800 5.778800
-1.997900 5.642000
-1.985100 9.840300
-1.972200 10.195000
-1.959300 5.723600
-1.946500 4.008000
-1.933600 2.944200
-1.920700 1.916400
-1.907900 0.888600
-1.895000 0.000000
-1.882100 0.000000
-1.869200 0.000000
-1.856400 0.000000
-1.843500 0.000000
-1.830600 0.000000
-1.817800 0.000000
-1.804900 0.000000
-1.792000 0.000000
-1.779200 0.000000
-1.766300 0.000000
-1.753400 0.000000
-1.740600 0.000000
-1.727700 0.000000
-1.714800 0.000000
-1.702000 0.000000
-1.689100 0.000000
-1.676200 0.000000
-1.663400 0.000000
-1.650500 0.000000
-1.637600 0.000000
-1.624800 11.863700
-1.611900 9.220800
-1.599000 12.028700
-1.586200 8.214800
-1.573300 16.883500
-1.560400 13.248700
-1.547600 17.044700
-1.534700 20.303500
-1.521800 24.897500
-1.509000 20.553800
-1.496100 25.575800
-1.483200 29.625600
-1.470400 26.386200
-1.457500 23.804300
-1.444600 24.657500
-1.431800 25.603000
-1.418900 26.548500
-1.406000 27.493900
-1.393200 28.439400
-1.380300 29.384900
-1.367400 30.330400
-1.354600 31.275800
-1.341700 29.388800
-1.328800 45.605400
-1.316000 25.045000
-1.303100 25.583700
-1.290200 20.626700
-1.277400 20.921200
-1.264500 21.215800
-1.251600 44.228200
-1.238800 16.946300
-1.225900 17.045700
-1.213000 21.815200
-1.200200 29.502300
-1.187300 26.328100
-1.174400 16.478800
-1.161600 14.253000
-1.148700 12.027100
-1.135800 10.687300
-1.123000 10.553800
-1.110100 11.586600
-1.097200 12.103100
-1.084400 12.107200
-1.071500 12.122100
-1.058600 13.392100
-1.045800 14.110100
-1.032900 15.518300
-1.020000 15.698300
-1.007200 17.195700
-0.994300 17.430900
-0.981400 17.666100
-0.968600 17.901300
-0.955700 18.133200
-0.942800 18.360800
-0.930000 18.588500
-0.917100 18.816100
-0.904200 19.035200
-0.891400 19.249700
-0.878500 19.451100
-0.865600 19.643000
-0.852800 19.834800
-0.839900 20.026600
-0.827000 20.218500
-0.814200 20.410300
-0.801300 20.602100
-0.788400 20.793900
-0.775600 20.985800
-0.762700 21.177600
-0.749800 21.369400
-0.737000 22.164800
-0.724100 22.732100
-0.711200 24.108400
-0.698400 26.153700
-0.685500 27.763800
-0.672600 29.828500
-0.659800 31.529900
-0.646900 35.863100
-0.634000 39.310500
-0.621200 39.938000
-0.608300 40.593200
-0.595400 43.869100
-0.582600 45.712400
-0.569700 46.293700
-0.556800 47.595600
-0.543900 49.806800
-0.531100 48.831800
-0.518200 49.406500
-0.505300 47.772200
-0.492500 47.787600
-0.479600 47.709600
-0.466700 47.665000
-0.453900 47.704300
-0.441000 45.404100
-0.428100 45.208000
-0.415300 45.154600
-0.402400 45.422600
-0.389500 45.969600
-0.376700 46.516700
-0.363800 47.196800
-0.350900 47.568500
-0.338100 47.664700
-0.325200 48.435200
-0.312300 49.522400
-0.299500 50.754300
-0.286600 51.986200
-0.273700 52.407700
-0.260900 52.741800
-0.248000 50.889000
-0.235100 47.562800
-0.222300 46.186400
-0.209400 44.804100
-0.196500 42.900600
-0.183700 49.337900
-0.170800 37.953200
-0.157900 40.057900
-0.145100 38.100300
-0.132200 36.142800
-0.119300 34.125000
-0.106500 33.378300
-0.093600 31.607300
-0.080700 29.868800
-0.067900 28.970800
-0.055000 28.188500
-0.042100 27.394700
-0.029300 26.569600
-0.016400 25.744600
-0.003500 24.919600
0.009300 24.047200
0.022200 23.290000
0.035100 22.570000
0.047900 21.930600
0.060800 21.330400
0.073700 20.799900
0.086500 20.317400
0.099400 19.947700
0.112300 19.603400
0.125100 20.181900
0.138000 20.030100
0.150900 20.968300
0.163700 22.199200
0.176600 22.741200
0.189500 23.179700
0.202300 23.629000
0.215200 24.078400
0.228100 24.527700
0.240900 26.257300
0.253800 29.684800
0.266700 32.496300
0.279500 35.301400
0.292400 37.841800
0.305300 39.401100
0.318100 41.960400
0.331000 45.781900
0.343900 51.492300
0.356700 53.531100
0.369600 59.657800
0.382500 63.268100
0.395300 66.431700
0.408200 69.779900
0.421100 71.853400
0.433900 77.225800
0.446800 71.397900
0.459700 67.848500
0.472500 72.950500
0.485400 104.437500
0.498300 83.407800
0.511100 80.401400
0.524000 68.049500
0.536900 68.628100
0.549700 48.862400
0.562600 53.191700
0.575500 54.785200
0.588300 63.226000
0.601200 69.322900
0.614100 76.755100
0.626900 77.041500
0.639800 79.618600
0.652700 75.765500
0.665500 122.143500
0.678400 88.381200
0.691300 84.843000
0.704100 83.514100
0.717000 80.660800
0.729900 101.586100
0.742800 73.931900
0.755600 80.198300
0.768500 73.552300
0.781400 72.236100
0.794200 69.017700
0.807100 62.610700
0.820000 59.116400
0.832800 55.743900
0.845700 48.362400
0.858600 42.458900
0.871400 38.125300
0.884300 33.961900
0.897200 34.054900
0.910000 37.652100
0.922900 27.832700
0.935800 25.232800
0.948600 12.961200
0.961500 22.006600
0.974400 11.040100
0.987200 0.000000
1.000100 0.000000
1.013000 0.000000
1.025800 0.000000
1.038700 0.000000
1.051600 0.000000
1.064400 0.000000
1.077300 0.000000
1.090200 0.000000
1.103000 0.000000
1.115900 0.000000
1.128800 0.000000
1.141600 0.000000
1.154500 0.000000
1.167400 0.000000
1.180200 0.000000
1.193100 0.000000
1.206000 0.000000
1.218800 0.000000
1.231700 0.000000
1.244600 0.000000
1.257400 0.000000
1.270300 0.000000
1.283200 0.000000
1.296000 0.000000
1.308900 0.000000
1.321800 0.000000
1.334600 0.000000
1.347500 0.000000
1.360400 0.000000
1.373200 0.000000
1.386100 0.000000
1.399000 0.000000
1.411800 0.000000
1.424700 0.000000
1.437600 0.000000
1.450400 0.000000
1.463300 0.000000
1.476200 0.000000
1.489000 0.000000
1.501900 0.000000
1.514800 0.000000
1.527600 0.000000
1.540500 0.000000
1.553400 0.000000
1.566200 0.000000
1.579100 0.000000
1.592000 0.000000
1.604800 0.000000
1.617700 0.000000
1.630600 0.000000
1.643400 0.000000
1.656300 0.000000
1.669200 0.000000
1.682000 0.000000
1.694900 0.000000
1.707800 0.000000
1.720600 0.000000
1.733500 0.000000
1.746400 0.000000
1.759200 0.000000
1.772100 0.000000
1.785000 0.000000
1.797800 0.000000
1.810700 0.000000
1.823600 0.000000
1.836400 0.000000
1.849300 0.000000
1.862200 0.000000
1.875000 0.000000
1.887900 0.000000
1.900800 0.000000
1.913600 0.000000
1.926500 0.000000
1.939400 0.000000
1.952200 0.000000
1.965100 0.000000
1.978000 0.000000
1.990800 0.000000
2.003700 0.000000
2.016600 0.000000
2.029400 0.000000
2.042300 0.000000
2.055200 0.000000
2.068100 0.000000
2.080900 0.000000
2.093800 0.000000
2.106700 0.000000
2.119500 0.000000
2.132400 0.000000
2.145300 0.000000
2.158100 0.000000
2.171000 0.000000
2.183900 0.000000
2.196700 0.000000
2.209600 0.000000
2.222500 0.000000
2.235300 0.000000
2.248200 0.000000
2.261100 0.000000
2.273900 0.000000
2.286800 0.000000
2.299700 0.000000
2.312500 0.000000
2.325400 0.000000
2.338300 0.000000
2.351100 0.000000
2.364000 0.000000
2.376900 0.000000
2.389700 0.000000
2.402600 0.000000
2.415500 0.000000
2.428300 0.000000
2.441200 0.000000
2.454100 0.000000
2.466900 0.000000
2.479800 0.000000
2.492700 0.000000
2.505500 0.000000
2.518400 0.000000
2.531300 0.000000
2.544100 0.000000
2.557000 0.000000
2.569900 0.000000
2.582700 0.000000
2.595600 0.000000
2.608500 0.000000
2.621300 0.000000
2.634200 0.000000
2.647100 0.000000
2.659900 0.000000
2.672800 0.000000
2.685700 0.000000
2.698500 0.000000
2.711400 0.000000
2.724300 0.000000
2.737100 0.000000
2.750000 0.000000
2.762900 0.000000
2.775700 0.000000
2.788600 0.000000
2.801500 0.000000
2.814300 0.000000
2.827200 0.000000
2.840100 0.000000
2.852900 0.000000
2.865800 0.000000
2.878700 0.000000
2.891500 0.000000
2.904400 0.000000
2.917300 0.000000
2.930100 0.000000
2.943000 0.000000
2.955900 0.000000
2.968700 0.000000
2.981600 0.000000
2.994500 0.000000
3.007300 0.000000
3.020200 0.000000
3.033100 0.000000
3.045900 0.000000
3.058800 0.000000
3.071700 0.000000
3.084500 0.000000
3.097400 0.000000
3.110300 0.000000
3.123100 0.000000
3.136000 0.000000
3.148900 0.000000
3.161700 0.000000
3.174600 0.000000
3.187500 0.000000
3.200300 0.000000
3.213200 0.000000
3.226100 0.000000
3.238900 0.000000
3.251800 0.000000
3.264700 0.000000
3.277500 0.000000
3.290400 0.000000
3.303300 0.000000
3.316100 0.000000
3.329000 0.000000
3.341900 0.000000
3.354700 0.000000
3.367600 0.007900
3.380500 0.879200
3.393400 0.925100
3.406200 1.880800
3.419100 2.868400
3.432000 2.988200
3.444800 3.108200
3.457700 3.249100
3.470600 5.375100
3.483400 5.590200
3.496300 5.805300
3.509200 6.020400
3.522000 6.235500
3.534900 7.594300
3.547800 8.985100
3.560600 9.263300
3.573500 9.541500
3.586400 12.318300
3.599200 13.929000
3.612100 14.277000
3.625000 14.625000
3.637800 14.973100
3.650700 15.321100
3.663600 15.670800
3.676400 16.162100
3.689300 16.763900
3.702200 17.435700
3.715000 18.111700
3.727900 18.922900
3.740800 19.761700
3.753600 20.634700
3.766500 21.643400
3.779400 22.711400
3.792200 23.902300
3.805100 25.158800
3.818000 26.415200
3.830800 27.671700
3.843700 28.928200
3.856600 34.745800
3.869400 40.828000
3.882300 42.382200
3.895200 40.348900
3.908000 38.315500
3.920900 43.134300
3.933800 42.977700
3.946600 41.504200
3.959500 40.030600
3.972400 51.214300
3.985200 45.394800
3.998100 39.306700
4.011000 44.464300
4.023800 39.857700
4.036700 38.401900
4.049600 36.255000
4.062400 33.973700
4.075300 33.543400
4.088200 28.997700
4.101000 27.415700
4.113900 25.929300
4.126800 24.580800
4.139600 23.232200
4.152500 21.883700
4.165400 20.535100
4.178200 19.186600
4.191100 25.824700
4.204000 19.914000
4.216800 14.597900
4.229700 10.181100
4.242600 10.331900
4.255400 15.599500
4.268300 22.095100
4.281200 5.101500
4.294000 5.851000
4.306900 0.000000
4.319800 0.000000
4.332600 0.000000
4.345500 0.000000
4.358400 0.000000
4.371200 0.000000
4.384100 0.000000
4.397000 0.000000
4.409800 0.000000
4.422700 0.000000
4.435600 0.000000
4.448400 0.000000
4.461300 0.000000
4.474200 0.000000
4.487000 0.000000
4.499900 0.000000
4.512800 0.000000
4.525600 0.000000
4.538500 0.000000
4.551400 0.000000
4.564200 0.000000
4.577100 0.000000
4.590000 0.000000
4.602800 0.000000
4.615700 0.000000
4.628600 0.000000
4.641400 0.000000
4.654300 0.000000
4.667200 0.000000
4.680000 0.000000
4.692900 0.000000
4.705800 0.000000
4.718700 0.000000
4.731500 0.000000
4.744400 0.000000
4.757300 0.000000
4.770100 0.000000
4.783000 0.000000
4.795900 0.000000
4.808700 0.000000
4.821600 0.000000
4.834500 0.000000
4.847300 0.000000
4.860200 0.000000
4.873100 0.000000
4.885900 0.000000
4.898800 0.000000
4.911700 0.000000
4.924500 0.000000
4.937400 0.000000
4.950300 0.000000
4.963100 0.000000
4.976000 0.000000
4.988900 0.000000
5.001700 0.000000
5.014600 0.000000
5.027500 0.000000
5.040300 0.000000
5.053200 0.000000
5.066100 0.000000
5.078900 0.000000
5.091800 0.000000
5.104700 0.000000
5.117500 0.000000
5.130400 0.000000
5.143300 0.000000
5.156100 0.000000
5.169000 0.000000
5.181900 0.000000
5.194700 0.000000
5.207600 0.000000
5.220500 0.000000
5.233300 0.000000
5.246200 0.000000
5.259100 0.000000
5.271900 0.000000
5.284800 0.000000
5.297700 0.000000
5.310500 0.000000
5.323400 0.000000
5.336300 0.000000
5.349100 0.000000
5.362000 0.000000
5.374900 0.000000
5.387700 0.000000
5.400600 0.000000
5.413500 0.000000
5.426300 0.000000
5.439200 0.000000
5.452100 0.000000
5.464900 0.000000
5.477800 0.000000
5.490700 0.011400
5.503500 0.083800
5.516400 0.177100
5.529300 0.270300
5.542100 0.363500
5.555000 0.456700
5.567900 0.550000
5.580700 0.643200
5.593600 0.736400
5.606500 0.829700
5.619300 0.922900
5.632200 1.016100
5.645100 1.109300
5.657900 1.202600
5.670800 1.295800
5.683700 1.389000
5.696500 1.482200
5.709400 1.575500
5.722300 1.668700
5.735100 1.761900
5.748000 1.855100
5.760900 1.948400
5.773700 2.041600
5.786600 2.134800
5.799500 2.228000
5.812300 2.321300
5.825200 2.414500
5.838100 2.507700
5.850900 2.600900
5.863800 2.694200
5.876700 2.787400
5.889500 2.880600
5.902400 2.973900
5.915300 3.067100
5.928100 3.160300
5.941000 3.253500
5.953900 3.346800
5.966700 5.211600
5.979600 5.475000
5.992500 6.974800
6.005400 9.442600
6.018200 10.414400
6.031100 11.427600
6.044000 11.970400
6.056800 13.164400
6.069700 13.841500
6.082600 14.526200
6.095400 15.337700
6.108300 16.130000
6.121200 16.944000
6.134000 17.855300
6.146900 18.499700
6.159800 18.708500
6.172600 18.917300
6.185500 19.126100
6.198400 19.335000
6.211200 19.543800
6.224100 20.329500
6.237000 20.597600
6.249800 21.437300
6.262700 21.771900
6.275600 22.684300
6.288400 23.070700
6.301300 23.196600
6.314200 23.273500
6.327000 23.350400
6.339900 23.427300
6.352800 23.504200
6.365600 23.581100
6.378500 23.658000
6.391400 23.734900
6.404200 23.811800
6.417100 28.103200
6.430000 32.221900
6.442800 31.676800
6.455700 36.001800
6.468600 33.864800
6.481400 31.526100
6.494300 28.677600
6.507200 26.410000
6.520000 25.478100
6.532900 32.631600
6.545800 34.012400
6.558600 24.767600
6.571500 24.000200
6.584400 23.232700
6.597200 20.924400
6.610100 20.344900
6.623000 19.926600
6.635800 21.465300
6.648700 23.697000
6.661600 20.224400
6.674400 15.332700
6.687300 15.101000
6.700200 14.942700
6.713000 14.888200
6.725900 17.311000
6.738800 17.192800
6.751600 22.013000
6.764500 21.630200
6.777400 21.247300
6.790200 18.939000
6.803100 17.846900
6.816000 20.370100
6.828800 21.410800
6.841700 20.279700
6.854600 19.221900
6.867400 18.365100
6.880300 17.663400
6.893200 17.091200
6.906000 16.518900
6.918900 16.124400
6.931800 15.496900
6.944600 22.249300
6.957500 20.337200
6.970400 19.208600
6.983200 18.080000
6.996100 16.319600
7.009000 14.549300
7.021800 13.956300
7.034700 13.092400
7.047600 13.016100
7.060400 12.306400
7.073300 22.995900
7.086200 24.792300
7.099000 26.588800
7.111900 28.659300
7.124800 32.020100
7.137600 37.458000
7.150500 49.220100
7.163400 48.357400
7.176200 57.288000
7.189100 67.427500
7.202000 42.577600
7.214800 25.777600
7.227700 26.073000
7.240600 26.496000
7.253400 43.294800
7.266300 42.020700
7.279200 58.066100
7.292000 62.156700
7.304900 28.597100
7.317800 26.570000
7.330700 27.069700
7.343500 28.968000
7.356400 30.954100
7.369300 33.141800
7.382100 37.409800
7.395000 53.387500
7.407900 35.889200
7.420700 45.427200
7.433600 43.903600
7.446500 32.753300
7.459300 34.839100
7.472200 37.328400
7.485100 36.540700
7.497900 36.676600
7.510800 34.571100
7.523700 34.878000
7.536500 43.310600
7.549400 38.995900
7.562300 45.030500
7.575100 39.742100
7.588000 37.974700
7.600900 37.614500
7.613700 38.551700
7.626600 39.083700
7.639500 41.241200
7.652300 45.678400
7.665200 53.668700
7.678100 56.053700
7.690900 47.433700
7.703800 50.164700
7.716700 53.440000
7.729500 53.510500
7.742400 51.487100
7.755300 51.450800
7.768100 53.443800
7.781000 49.835100
7.793900 44.595700
7.806700 42.652800
7.819600 40.927200
7.832500 47.808100
7.845300 42.625000
7.858200 39.819000
7.871100 41.546700
7.883900 39.282200
7.896800 38.471200
7.909700 42.760100
7.922500 39.034900
7.935400 36.009800
7.948300 35.333600
7.961100 35.508200
7.974000 33.805900
7.986900 34.715900
7.999700 34.543100
8.012600 33.968600
8.025500 37.136100
8.038300 36.663400
8.051200 36.238900
8.064100 35.719100
8.076900 37.635900
8.089800 37.371700
8.102700 37.107500
8.115500 36.719100
8.128400 36.209000
8.141300 35.674500
8.154100 35.126200
8.167000 34.572500
8.179900 33.922900
8.192700 35.674300
8.205600 37.820500
8.218500 36.489100
8.231300 33.980500
8.244200 31.766500
8.257100 30.161300
8.269900 29.543800
8.282800 30.580300
8.295700 36.284400
8.308500 38.017800
8.321400 36.521800
8.334300 38.157500
8.347100 26.648700
8.360000 21.487200
8.372900 17.358400
8.385700 16.764800
8.398600 15.538600
8.411500 15.274600
8.424300 15.010600
8.437200 14.746600
8.450100 14.482600
8.462900 14.218500
8.475800 13.954500
8.488700 13.690500
8.501500 13.426500
8.514400 13.162500
8.527300 12.898400
8.540100 12.528700
8.553000 12.076700
8.565900 11.666700
8.578700 10.874100
8.591600 10.481800
8.604500 10.151000
8.617300 9.976900
8.630200 9.450000
8.643100 9.295800
8.656000 9.141700
8.668800 8.624400
8.681700 8.714200
8.694600 8.569900
8.707400 9.053500
8.720300 15.706700
8.733200 14.366900
8.746000 12.655300
8.758900 15.529400
8.771800 11.362800
8.784600 9.967800
8.797500 14.424500
8.810400 20.424700
8.823200 9.398300
8.836100 9.739300
8.849000 10.073500
8.861800 10.229600
8.874700 11.332900
8.887600 13.039100
8.900400 14.745300
8.913300 16.451600
8.926200 18.486700
8.939000 20.177600
8.951900 19.463800
8.964800 18.750000
8.977600 18.309100
8.990500 17.981500
9.003400 17.653900
9.016200 20.204100
9.029100 20.705600
9.042000 20.793800
9.054800 28.798000
9.067700 23.455800
9.080600 20.646400
9.093400 32.071600
9.106300 27.317700
9.119200 23.935500
9.132000 27.664500
9.144900 26.442600
9.157800 27.202700
9.170600 27.962700
9.183500 27.054000
9.196400 27.022900
9.209200 44.309500
9.222100 29.964300
9.235000 29.186600
9.247800 35.015100
9.260700 38.694600
9.273600 31.593800
9.286400 30.295300
9.299300 30.750800
9.312200 32.006700
9.325000 32.060200
9.337900 32.074300
9.350800 32.398900
9.363600 31.351100
9.376500 27.525400
9.389400 37.527700
9.402200 38.067900
9.415100 30.864800
9.428000 37.512100
9.440800 33.514200
9.453700 33.740600
9.466600 33.966900
9.479400 34.208000
9.492300 30.890400
9.505200 32.253100
9.518000 31.162900
9.530900 32.318300
9.543800 31.299600
9.556600 47.764000
9.569500 46.825400
9.582400 36.707700
9.595200 35.306100
9.608100 33.972200
9.621000 32.739500
9.633800 31.802700
9.646700 31.143500
9.659600 30.370000
9.672400 28.491800
9.685300 29.472100
9.698200 32.066800
9.711000 35.843200
9.723900 37.529200
9.736800 38.100900
9.749600 35.456600
9.762500 37.316300
9.775400 30.690400
9.788200 32.458700
9.801100 39.367000
9.814000 29.481900
9.826800 29.879500
9.839700 30.440300
9.852600 31.388700
9.865400 28.247700
9.878300 29.824600
9.891200 31.562900
9.904000 33.419500
9.916900 35.248400
9.929800 35.940000
9.942600 34.588800
9.955500 36.742800
9.968400 31.657600
9.981300 26.768300
9.994100 25.223300
10.007000 27.366400
10.019900 29.509500
10.032700 31.652600
10.045600 23.194400
10.058500 23.666400
10.071300 24.226900
10.084200 42.076100
10.097100 29.074800
10.109900 32.390400
10.122800 40.204700
10.135700 28.522000
10.148500 23.198000
10.161400 23.235700
10.174300 25.405200
10.187100 23.779500
10.200000 25.514100
10.212900 26.316600
10.225700 23.942300
10.238600 25.576500
10.251500 27.524100
10.264300 29.340300
10.277200 30.576200
10.290100 28.359400
10.302900 25.702400
10.315800 26.208700
10.328700 26.817700
10.341500 24.060900
10.354400 21.789700
10.367300 21.723800
10.380100 21.681600
10.393000 21.663600
10.405900 22.150000
10.418700 22.238700
10.431600 22.327400
10.444500 22.416100
10.457300 22.504800
10.470200 22.601500
10.483100 23.059900
10.495900 23.219100
10.508800 23.378300
10.521700 24.514200
10.534500 25.683700
10.547400 25.885000
10.560300 24.873800
10.573100 23.728700
10.586000 23.882700
10.598900 22.387500
10.611700 20.723800
10.624600 20.557000
10.637500 20.405400
10.650300 20.262000
10.663200 20.165000
10.676100 20.073800
10.688900 19.982600
10.701800 19.891400
10.714700 19.809900
10.727500 19.746800
10.740400 19.782300
10.753300 18.930100
10.766100 19.404800
10.779000 20.573100
10.791900 20.572700
10.804700 20.334500
10.817600 21.226800
10.830500 22.090200
10.843300 24.720900
10.856200 21.560200
10.869100 21.900900
10.881900 22.210400
10.894800 22.442900
10.907700 20.210200
10.920500 21.805300
10.933400 22.081400
10.946300 22.327300
10.959100 22.490300
10.972000 22.453200
10.984900 25.385800
10.997700 25.615000
11.010600 25.858100
11.023500 26.104000
11.036300 26.300900
11.049200 26.319600
11.062100 26.129500
11.074900 26.191200
11.087800 25.571400
11.100700 26.466800
11.113500 25.922600
11.126400 26.928900
11.139300 27.242100
11.152100 26.781600
11.165000 26.123700
11.177900 26.823600
11.190700 26.185500
11.203600 26.814100
11.216500 26.164400
11.229300 25.514600
11.242200 24.938400
11.255100 24.377400
11.268000 23.818700
11.280800 23.302100
11.293700 22.866600
11.306600 23.191300
11.319400 23.902500
11.332300 23.552100
11.345200 23.214100
11.358000 22.883800
11.370900 22.186500
11.383800 21.494700
11.396600 21.218100
11.409500 20.941600
11.422400 20.665100
11.435200 21.024100
11.448100 23.867900
11.461000 24.085700
11.473800 23.508300
11.486700 22.930800
11.499600 22.373400
11.512400 21.828800
11.525300 20.945300
11.538200 20.647900
11.551000 19.025000
11.563900 19.353000
11.576800 19.109900
11.589600 18.866900
11.602500 18.623800
11.615400 18.380500
11.628200 18.110100
11.641100 17.840500
11.654000 17.574100
11.666800 17.307700
11.679700 17.041300
11.692600 18.343100
11.705400 18.028300
11.718300 17.121900
11.731200 15.770000
11.744000 16.705300
11.756900 19.765900
11.769800 23.268000
11.782600 26.770000
11.795500 16.168600
11.808400 16.506000
11.821200 16.854100
11.834100 14.185200
11.847000 14.136500
11.859800 14.087800
11.872700 14.198500
11.885600 22.546800
11.898400 16.890900
11.911300 17.162700
11.924200 19.364700
11.937000 19.329600
11.949900 21.596100
11.962800 16.897900
11.975600 14.447500
11.988500 15.814100
12.001400 17.153300
12.014200 18.492600
12.027100 19.855900
12.040000 14.232400
12.052800 14.333600
12.065700 14.434700
12.078600 11.894300
12.091400 12.655500
12.104300 13.416700
12.117200 14.177900
12.130000 14.939100
12.142900 14.138600
12.155800 11.112500
12.168600 11.171600
12.181500 9.250600
12.194400 9.511800
12.207200 9.773100
12.220100 10.034300
12.233000 10.295600
12.245800 10.556800
12.258700 7.917200
12.271600 7.969200
12.284400 8.021200
12.297300 10.065900
12.310200 9.765900
12.323000 10.737500
12.335900 10.223700
12.348800 9.710000
12.361600 8.963800
12.374500 8.429400
12.387400 7.895000
12.400200 8.240600
12.413100 7.187300
12.426000 6.485700
12.438800 5.811100
12.451700 5.136500
12.464600 4.461900
12.477400 3.787300
12.490300 3.316800
12.503200 2.879800
12.516000 2.442900
12.528900 2.005900
12.541800 1.568900
12.554600 1.172500
12.567500 0.942200
12.580400 0.711900
12.593300 0.481600
12.606100 0.251200
12.619000 0.020900
12.631900 0.000000
12.644700 0.000000
12.657600 0.000000
12.670500 0.000000
12.683300 0.000000
12.696200 0.000000
12.709100 0.000000
12.721900 0.000000
12.734800 0.000000
12.747700 0.000000
12.760500 0.000000
12.773400 0.000000
12.786300 0.000000
12.799100 0.000000
12.812000 0.000000
12.824900 0.000000
12.837700 0.000000
12.850600 0.000000
12.863500 0.000000
12.876300 0.000000
12.889200 0.000000
12.902100 0.000000
12.914900 0.000000
12.927800 0.000000
12.940700 0.000000
12.953500 0.000000
12.966400 0.000000
12.979300 0.000000
12.992100 0.000000
13.005000 0.000000
13.017900 0.000000
13.030700 0.000000
13.043600 0.000000
13.056500 0.000000
13.069300 0.000000
13.082200 0.000000
13.095100 0.000000
13.107900 0.000000
13.120800 0.000000
13.133700 0.000000
13.146500 0.000000
13.159400 0.000000
13.172300 0.000000
13.185100 0.000000
13.198000 0.000000
13.210900 0.000000
13.223700 0.000000
13.236600 0.000000
13.249500 0.000000
13.262300 0.000000
13.275200 0.000000
13.288100 0.000000
13.300900 0.000000
13.313800 0.000000
13.326700 0.000000
13.339500 0.000000
13.352400 0.000000
13.365300 0.000000
13.378100 0.000000
13.391000 0.000000
13.403900 0.000000
13.416700 0.000000
13.429600 0.000000
13.442500 0.000000
13.455300 0.000000
13.468200 0.000000
13.481100 0.000000
13.493900 0.000000
13.506800 0.000000
13.519700 0.000000
13.532500 0.000000
13.545400 0.000000
13.558300 0.000000
13.571100 0.000000
13.584000 0.000000
13.596900 0.000000
13.609700 0.000000
13.622600 0.000000
13.635500 0.000000
13.648300 0.000000
13.661200 0.000000
13.674100 0.000000
13.686900 0.000000
13.699800 0.000000
13.712700 0.000000
13.725500 0.000000
13.738400 0.000000
13.751300 0.000000
13.764100 0.000000
13.777000 0.000000
13.789900 0.000000
e
