set title 'mp-32686 - Density of States'
set xlabel 'Energy (eV)'
set ylabel 'DOS (states/eV)'
set grid
set xrange [-10:10]
set yrange [0:5.866]
set xzeroaxis lt -1
set terminal png size 800,600
set output 'mp-32686_dos_gnuplot.png'
plot '-' using 1:2 with lines title 'DOS'
-20.768000 0.000000
-20.744300 0.000000
-20.720500 0.000000
-20.696700 0.000000
-20.672900 0.000000
-20.649200 0.000000
-20.625400 0.000000
-20.601600 0.000000
-20.577800 0.000000
-20.554100 0.000000
-20.530300 0.000000
-20.506500 0.000000
-20.482700 0.000000
-20.458900 0.000000
-20.435200 0.000000
-20.411400 0.000000
-20.387600 0.000000
-20.363800 0.000000
-20.340100 0.000000
-20.316300 0.000000
-20.292500 0.000000
-20.268700 0.000000
-20.245000 0.000000
-20.221200 0.000000
-20.197400 0.000000
-20.173600 0.000000
-20.149900 0.000000
-20.126100 0.000000
-20.102300 0.000000
-20.078500 0.000000
-20.054700 0.000000
-20.031000 0.000000
-20.007200 0.000000
-19.983400 0.000000
-19.959600 0.000000
-19.935900 0.000000
-19.912100 0.000000
-19.888300 0.000000
-19.864500 0.000000
-19.840800 0.000000
-19.817000 0.000000
-19.793200 0.000000
-19.769400 0.000000
-19.745700 0.000000
-19.721900 0.000000
-19.698100 0.000000
-19.674300 0.000000
-19.650600 0.000000
-19.626800 0.000000
-19.603000 0.000000
-19.579200 0.000000
-19.555400 0.000000
-19.531700 0.000000
-19.507900 0.000000
-19.484100 0.000000
-19.460300 0.000000
-19.436600 0.000000
-19.412800 0.000000
-19.389000 0.000000
-19.365200 0.000000
-19.341500 0.000000
-19.317700 0.000000
-19.293900 0.000000
-19.270100 0.000000
-19.246400 0.000000
-19.222600 0.000000
-19.198800 0.000000
-19.175000 0.000000
-19.151300 0.000000
-19.127500 0.000000
-19.103700 0.000000
-19.079900 0.000000
-19.056100 0.000000
-19.032400 0.000000
-19.008600 0.000000
-18.984800 0.000000
-18.961000 0.000000
-18.937300 0.000000
-18.913500 0.000000
-18.889700 0.000000
-18.865900 0.000000
-18.842200 0.000000
-18.818400 0.000000
-18.794600 0.000000
-18.770800 0.000000
-18.747100 0.000000
-18.723300 0.000000
-18.699500 0.000000
-18.675700 0.000000
-18.652000 0.000000
-18.628200 0.000000
-18.604400 0.002100
-18.580600 0.121200
-18.556800 0.180100
-18.533100 0.296300
-18.509300 0.290900
-18.485500 0.302000
-18.461700 0.300600
-18.438000 0.305800
-18.414200 0.309400
-18.390400 0.309600
-18.366600 0.309000
-18.342900 0.314900
-18.319100 0.320600
-18.295300 0.322100
-18.271500 0.322300
-18.247800 0.322900
-18.224000 0.327600
-18.200200 0.333000
-18.176400 0.337300
-18.152600 0.339800
-18.128900 0.340900
-18.105100 0.343300
-18.081300 0.347200
-18.057500 0.351900
-18.033800 0.356800
-18.010000 0.361000
-17.986200 0.364600
-17.962400 0.367700
-17.938700 0.371500
-17.914900 0.376000
-17.891100 0.380700
-17.867300 0.385700
-17.843600 0.390700
-17.819800 0.395900
-17.796000 0.401500
-17.772200 0.407100
-17.748500 0.412700
-17.724700 0.418300
-17.700900 0.423900
-17.677100 0.429500
-17.653300 0.435900
-17.629600 0.443600
-17.605800 0.452600
-17.582000 0.461100
-17.558200 0.468900
-17.534500 0.476300
-17.510700 0.483600
-17.486900 0.490800
-17.463100 0.500100
-17.439400 0.512500
-17.415600 0.526600
-17.391800 0.539500
-17.368000 0.550900
-17.344300 0.561500
-17.320500 0.571900
-17.296700 0.582900
-17.272900 0.600300
-17.249200 0.623400
-17.225400 0.645000
-17.201600 0.663700
-17.177800 0.680900
-17.154000 0.697200
-17.130300 0.716600
-17.106500 0.749500
-17.082700 0.787800
-17.058900 0.824900
-17.035200 0.856900
-17.011400 0.887600
-16.987600 0.927000
-16.963800 1.002100
-16.940100 1.087100
-16.916300 1.222400
-16.892500 1.378900
-16.868700 1.365700
-16.845000 1.580600
-16.821200 1.159400
-16.797400 0.926800
-16.773600 1.089400
-16.749900 1.688900
-16.726100 1.263100
-16.702300 2.278400
-16.678500 2.923700
-16.654700 2.689100
-16.631000 2.614100
-16.607200 2.624800
-16.583400 2.652300
-16.559600 2.696800
-16.535900 2.757300
-16.512100 2.828000
-16.488300 2.915000
-16.464500 3.031100
-16.440800 3.206100
-16.417000 2.153100
-16.393200 1.597900
-16.369400 1.162700
-16.345700 0.738300
-16.321900 0.000000
-16.298100 0.000000
-16.274300 0.000000
-16.250500 0.000000
-16.226800 0.000000
-16.203000 0.000000
-16.179200 0.000000
-16.155400 0.000000
-16.131700 0.000000
-16.107900 0.000000
-16.084100 0.000000
-16.060300 0.000000
-16.036600 0.000000
-16.012800 0.000000
-15.989000 0.000000
-15.965200 0.000000
-15.941500 0.000000
-15.917700 0.000000
-15.893900 0.000000
-15.870100 0.000000
-15.846400 0.000000
-15.822600 0.000000
-15.798800 0.000000
-15.775000 0.000000
-15.751200 0.000000
-15.727500 0.000000
-15.703700 0.000000
-15.679900 0.000000
-15.656100 0.000000
-15.632400 0.000000
-15.608600 0.000000
-15.584800 0.000000
-15.561000 0.000000
-15.537300 0.000000
-15.513500 0.000000
-15.489700 0.000000
-15.465900 0.000000
-15.442200 0.000000
-15.418400 0.000000
-15.394600 0.000000
-15.370800 0.000000
-15.347100 0.000000
-15.323300 0.000000
-15.299500 0.000000
-15.275700 0.000000
-15.251900 0.000000
-15.228200 0.000000
-15.204400 0.000000
-15.180600 0.000000
-15.156800 0.000000
-15.133100 0.000000
-15.109300 0.000000
-15.085500 0.000000
-15.061700 0.000000
-15.038000 0.000000
-15.014200 0.000000
-14.990400 0.000000
-14.966600 0.000000
-14.942900 0.000000
-14.919100 0.000000
-14.895300 0.000000
-14.871500 0.000000
-14.847800 0.000000
-14.824000 0.000000
-14.800200 0.000000
-14.776400 0.000000
-14.752600 0.000000
-14.728900 0.000000
-14.705100 0.000000
-14.681300 0.000000
-14.657500 0.000000
-14.633800 0.000000
-14.610000 0.000000
-14.586200 0.000000
-14.562400 0.000000
-14.538700 0.000000
-14.514900 0.000000
-14.491100 0.000000
-14.467300 0.000000
-14.443600 0.000000
-14.419800 0.000000
-14.396000 0.000000
-14.372200 0.000000
-14.348400 0.000000
-14.324700 0.000000
-14.300900 0.000000
-14.277100 0.000000
-14.253300 0.000000
-14.229600 0.000000
-14.205800 0.000000
-14.182000 0.000000
-14.158200 0.000000
-14.134500 0.000000
-14.110700 0.000000
-14.086900 0.000000
-14.063100 0.000000
-14.039400 0.000000
-14.015600 0.000000
-13.991800 0.000000
-13.968000 0.000000
-13.944300 0.000000
-13.920500 0.000000
-13.896700 0.000000
-13.872900 0.000000
-13.849100 0.000000
-13.825400 0.000000
-13.801600 0.000000
-13.777800 0.000000
-13.754000 0.000000
-13.730300 0.000000
-13.706500 0.000000
-13.682700 0.000000
-13.658900 0.000000
-13.635200 0.000000
-13.611400 0.000000
-13.587600 0.000000
-13.563800 0.000000
-13.540100 0.000000
-13.516300 0.000000
-13.492500 0.000000
-13.468700 0.000000
-13.445000 0.000000
-13.421200 0.000000
-13.397400 0.000000
-13.373600 0.000000
-13.349800 0.000000
-13.326100 0.000000
-13.302300 0.000000
-13.278500 0.000000
-13.254700 0.000000
-13.231000 0.000000
-13.207200 0.000000
-13.183400 0.000000
-13.159600 0.000000
-13.135900 0.000000
-13.112100 0.000000
-13.088300 0.000000
-13.064500 0.000000
-13.040800 0.000000
-13.017000 0.000000
-12.993200 0.000000
-12.969400 0.000000
-12.945700 0.000000
-12.921900 0.000000
-12.898100 0.000000
-12.874300 0.000000
-12.850500 0.000000
-12.826800 0.000000
-12.803000 0.000000
-12.779200 0.000000
-12.755400 0.000000
-12.731700 0.000000
-12.707900 0.000000
-12.684100 0.000000
-12.660300 0.000000
-12.636600 0.000000
-12.612800 0.000000
-12.589000 0.000000
-12.565200 0.000000
-12.541500 0.000000
-12.517700 0.000000
-12.493900 0.000000
-12.470100 0.000000
-12.446300 0.000000
-12.422600 0.000000
-12.398800 0.000000
-12.375000 0.000000
-12.351200 0.000000
-12.327500 0.000000
-12.303700 0.000000
-12.279900 0.000000
-12.256100 0.000000
-12.232400 0.000000
-12.208600 0.000000
-12.184800 0.000000
-12.161000 0.000000
-12.137300 0.000000
-12.113500 0.000000
-12.089700 0.000000
-12.065900 0.000000
-12.042200 0.000000
-12.018400 0.000000
-11.994600 0.000000
-11.970800 0.000000
-11.947000 0.000000
-11.923300 0.000000
-11.899500 0.000000
-11.875700 0.000000
-11.851900 0.000000
-11.828200 0.000000
-11.804400 0.000000
-11.780600 0.000000
-11.756800 0.000000
-11.733100 0.000000
-11.709300 0.000000
-11.685500 0.000000
-11.661700 0.000000
-11.638000 0.000000
-11.614200 0.000000
-11.590400 0.000000
-11.566600 0.000000
-11.542900 0.000000
-11.519100 0.000000
-11.495300 0.000000
-11.471500 0.000000
-11.447700 0.000000
-11.424000 0.000000
-11.400200 0.000000
-11.376400 0.000000
-11.352600 0.000000
-11.328900 0.000000
-11.305100 0.000000
-11.281300 0.000000
-11.257500 0.000000
-11.233800 0.000000
-11.210000 0.000000
-11.186200 0.000000
-11.162400 0.000000
-11.138700 0.000000
-11.114900 0.000000
-11.091100 0.000000
-11.067300 0.000000
-11.043600 0.000000
-11.019800 0.000000
-10.996000 0.000000
-10.972200 0.000000
-10.948400 0.000000
-10.924700 0.000000
-10.900900 0.000000
-10.877100 0.000000
-10.853300 0.000000
-10.829600 0.000000
-10.805800 0.000000
-10.782000 0.000000
-10.758200 0.000000
-10.734500 0.000000
-10.710700 0.000000
-10.686900 0.000000
-10.663100 0.000000
-10.639400 0.000000
-10.615600 0.000000
-10.591800 0.000000
-10.568000 0.000000
-10.544200 0.000000
-10.520500 0.000000
-10.496700 0.000000
-10.472900 0.000000
-10.449100 0.000000
-10.425400 0.000000
-10.401600 0.000000
-10.377800 0.000000
-10.354000 0.000000
-10.330300 0.000000
-10.306500 0.000000
-10.282700 0.000000
-10.258900 0.000000
-10.235200 0.000000
-10.211400 0.000000
-10.187600 0.000000
-10.163800 0.000000
-10.140100 0.000000
-10.116300 0.000000
-10.092500 0.000000
-10.068700 0.000000
-10.044900 0.000000
-10.021200 0.000000
-9.997400 0.000000
-9.973600 0.000000
-9.949800 0.000000
-9.926100 0.000000
-9.902300 0.000000
-9.878500 0.000000
-9.854700 0.000000
-9.831000 0.000000
-9.807200 0.000000
-9.783400 0.000000
-9.759600 0.000000
-9.735900 0.000000
-9.712100 0.000000
-9.688300 0.000000
-9.664500 0.000000
-9.640800 0.000000
-9.617000 0.000000
-9.593200 0.000000
-9.569400 0.000000
-9.545600 0.000000
-9.521900 0.000000
-9.498100 0.000000
-9.474300 0.000000
-9.450500 0.000000
-9.426800 0.000000
-9.403000 0.000000
-9.379200 0.000000
-9.355400 0.000000
-9.331700 0.000000
-9.307900 0.000000
-9.284100 0.000000
-9.260300 0.000000
-9.236600 0.000000
-9.212800 0.000000
-9.189000 0.000000
-9.165200 0.000000
-9.141500 0.000000
-9.117700 0.000000
-9.093900 0.000000
-9.070100 0.000000
-9.046300 0.000000
-9.022600 0.000000
-8.998800 0.000000
-8.975000 0.000000
-8.951200 0.000000
-8.927500 0.000000
-8.903700 0.000000
-8.879900 0.000000
-8.856100 0.000000
-8.832400 0.000000
-8.808600 0.000000
-8.784800 0.000000
-8.761000 0.000000
-8.737300 0.000000
-8.713500 0.000000
-8.689700 0.000000
-8.665900 0.000000
-8.642100 0.000000
-8.618400 0.000000
-8.594600 0.000000
-8.570800 0.000000
-8.547000 0.000000
-8.523300 0.000000
-8.499500 0.000000
-8.475700 0.000000
-8.451900 0.000000
-8.428200 0.000000
-8.404400 0.000000
-8.380600 0.000000
-8.356800 0.000000
-8.333100 0.000000
-8.309300 0.000000
-8.285500 0.000000
-8.261700 0.000000
-8.238000 0.000000
-8.214200 0.000000
-8.190400 0.000000
-8.166600 0.000000
-8.142800 0.000000
-8.119100 0.000000
-8.095300 0.000000
-8.071500 0.000000
-8.047700 0.000000
-8.024000 0.000000
-8.000200 0.000000
-7.976400 0.000000
-7.952600 0.000000
-7.928900 0.000000
-7.905100 0.000000
-7.881300 0.000000
-7.857500 0.000000
-7.833800 0.000000
-7.810000 0.000000
-7.786200 0.000000
-7.762400 0.000000
-7.738700 0.000000
-7.714900 0.000000
-7.691100 0.000000
-7.667300 0.000000
-7.643500 0.000000
-7.619800 0.000000
-7.596000 0.000000
-7.572200 0.000000
-7.548400 0.000000
-7.524700 0.000000
-7.500900 0.000000
-7.477100 0.000000
-7.453300 0.000000
-7.429600 0.000000
-7.405800 0.000000
-7.382000 0.000000
-7.358200 0.000000
-7.334500 0.000000
-7.310700 0.000000
-7.286900 0.000000
-7.263100 0.000000
-7.239400 0.000000
-7.215600 0.000000
-7.191800 0.000000
-7.168000 0.000000
-7.144200 0.000000
-7.120500 0.000000
-7.096700 0.000000
-7.072900 0.000000
-7.049100 0.000000
-7.025400 0.000000
-7.001600 0.000000
-6.977800 0.000000
-6.954000 0.000000
-6.930300 0.000000
-6.906500 0.000000
-6.882700 0.000000
-6.858900 0.000000
-6.835200 0.000000
-6.811400 0.000000
-6.787600 0.000000
-6.763800 0.000000
-6.740000 0.000000
-6.716300 0.000000
-6.692500 0.000000
-6.668700 0.000000
-6.644900 0.000000
-6.621200 0.000000
-6.597400 0.000000
-6.573600 0.000000
-6.549800 0.000000
-6.526100 0.000000
-6.502300 0.000000
-6.478500 0.000000
-6.454700 0.000000
-6.431000 0.000000
-6.407200 0.000000
-6.383400 0.000000
-6.359600 0.000000
-6.335900 0.000000
-6.312100 0.000000
-6.288300 0.000000
-6.264500 0.000000
-6.240700 0.000000
-6.217000 0.000000
-6.193200 0.000000
-6.169400 0.000000
-6.145600 0.000000
-6.121900 0.000000
-6.098100 0.000000
-6.074300 0.000000
-6.050500 0.000000
-6.026800 0.000000
-6.003000 0.000000
-5.979200 0.000000
-5.955400 0.000000
-5.931700 0.000000
-5.907900 0.121700
-5.884100 0.268400
-5.860300 0.461700
-5.836600 0.496300
-5.812800 0.504900
-5.789000 0.500900
-5.765200 0.491300
-5.741400 0.502600
-5.717700 0.523400
-5.693900 0.532200
-5.670100 0.533500
-5.646300 0.529700
-5.622600 0.528700
-5.598800 0.536400
-5.575000 0.547100
-5.551200 0.558500
-5.527500 0.570000
-5.503700 0.577800
-5.479900 0.584900
-5.456100 0.589600
-5.432400 0.595400
-5.408600 0.603700
-5.384800 0.613400
-5.361000 0.625600
-5.337300 0.639600
-5.313500 0.654600
-5.289700 0.670900
-5.265900 0.687300
-5.242100 0.703400
-5.218400 0.719300
-5.194600 0.737800
-5.170800 0.763000
-5.147000 0.796000
-5.123300 0.853600
-5.099500 0.928500
-5.075700 0.961400
-5.051900 1.103600
-5.028200 1.049800
-5.004400 0.908100
-4.980600 0.902500
-4.956800 1.012400
-4.933100 1.128700
-4.909300 1.244800
-4.885500 1.310300
-4.861700 1.236900
-4.837900 1.178100
-4.814200 1.192000
-4.790400 1.240600
-4.766600 1.222500
-4.742800 1.241100
-4.719100 1.243700
-4.695300 1.212000
-4.671500 1.197900
-4.647700 1.203800
-4.624000 1.196300
-4.600200 1.174800
-4.576400 1.165300
-4.552600 1.145100
-4.528900 1.133000
-4.505100 1.118600
-4.481300 1.102500
-4.457500 1.087500
-4.433800 1.070000
-4.410000 1.049200
-4.386200 1.032100
-4.362400 1.014300
-4.338600 1.002500
-4.314900 1.002900
-4.291100 0.994900
-4.267300 0.983400
-4.243500 0.918100
-4.219800 0.748800
-4.196000 1.128800
-4.172200 1.228600
-4.148400 1.237900
-4.124700 1.295500
-4.100900 1.342900
-4.077100 1.397400
-4.053300 1.493100
-4.029600 1.641400
-4.005800 1.868700
-3.982000 1.970100
-3.958200 2.395800
-3.934500 2.198200
-3.910700 1.979300
-3.886900 1.659200
-3.863100 1.356300
-3.839300 0.989800
-3.815600 0.596100
-3.791800 0.575500
-3.768000 0.790400
-3.744200 1.386100
-3.720500 1.708800
-3.696700 1.680200
-3.672900 1.720000
-3.649100 1.789400
-3.625400 1.867100
-3.601600 1.970000
-3.577800 2.000900
-3.554000 1.981000
-3.530300 2.016100
-3.506500 2.048200
-3.482700 2.067700
-3.458900 1.836400
-3.435200 1.964300
-3.411400 2.011800
-3.387600 1.815400
-3.363800 1.237700
-3.340000 0.995100
-3.316300 0.813000
-3.292500 0.713200
-3.268700 0.647200
-3.244900 0.569600
-3.221200 0.505500
-3.197400 0.454800
-3.173600 0.429300
-3.149800 0.404500
-3.126100 0.390800
-3.102300 0.274000
-3.078500 0.148000
-3.054700 0.128500
-3.031000 0.107600
-3.007200 0.247600
-2.983400 0.431000
-2.959600 0.660500
-2.935800 0.775200
-2.912100 1.211100
-2.888300 1.303700
-2.864500 1.523100
-2.840700 1.597500
-2.817000 1.757000
-2.793200 1.961000
-2.769400 2.199100
-2.745600 2.341400
-2.721900 2.297700
-2.698100 2.251300
-2.674300 2.160500
-2.650500 2.127900
-2.626800 2.056700
-2.603000 2.234400
-2.579200 2.328300
-2.555400 2.505500
-2.531700 2.531400
-2.507900 2.359500
-2.484100 2.270100
-2.460300 2.263100
-2.436500 2.205800
-2.412800 2.279600
-2.389000 2.181800
-2.365200 2.086500
-2.341400 2.113300
-2.317700 2.074500
-2.293900 2.037100
-2.270100 1.993900
-2.246300 1.990100
-2.222600 2.012000
-2.198800 2.145600
-2.175000 2.349500
-2.151200 2.534000
-2.127500 2.565600
-2.103700 2.638100
-2.079900 2.146900
-2.056100 1.622000
-2.032400 1.327900
-2.008600 0.987300
-1.984800 0.534800
-1.961000 0.227800
-1.937200 0.151800
-1.913500 0.086600
-1.889700 0.083300
-1.865900 0.072900
-1.842100 0.081100
-1.818400 0.077400
-1.794600 0.123900
-1.770800 0.128200
-1.747000 0.147600
-1.723300 0.167000
-1.699500 0.185200
-1.675700 0.202700
-1.651900 0.228000
-1.628200 0.245500
-1.604400 0.261200
-1.580600 0.279700
-1.556800 0.306500
-1.533100 0.337300
-1.509300 0.357000
-1.485500 0.372500
-1.461700 0.393000
-1.437900 0.412000
-1.414200 0.430800
-1.390400 0.455300
-1.366600 0.482100
-1.342800 0.501900
-1.319100 0.520500
-1.295300 0.538900
-1.271500 0.559800
-1.247700 0.592000
-1.224000 0.676600
-1.200200 0.706900
-1.176400 0.771400
-1.152600 0.907800
-1.128900 0.923900
-1.105100 0.981700
-1.081300 1.082200
-1.057500 1.283200
-1.033700 1.636000
-1.010000 4.137300
-0.986200 5.332900
-0.962400 2.957800
-0.938600 1.994200
-0.914900 1.697600
-0.891100 1.380700
-0.867300 2.075900
-0.843500 3.077700
-0.819800 3.145400
-0.796000 2.550400
-0.772200 2.051500
-0.748400 1.884700
-0.724700 1.814900
-0.700900 1.768900
-0.677100 1.798900
-0.653300 1.678100
-0.629600 1.602900
-0.605800 1.578800
-0.582000 1.598800
-0.558200 1.584300
-0.534400 1.669100
-0.510700 1.683900
-0.486900 1.684000
-0.463100 1.669000
-0.439300 1.667700
-0.415600 1.715100
-0.391800 1.717000
-0.368000 1.760500
-0.344200 1.603900
-0.320500 1.524200
-0.296700 1.909000
-0.272900 2.039000
-0.249100 2.320600
-0.225400 2.599000
-0.201600 2.808500
-0.177800 2.948000
-0.154000 2.898400
-0.130300 3.116000
-0.106500 2.718700
-0.082700 1.886600
-0.058900 1.747100
-0.035100 1.685200
-0.011400 1.635600
0.012400 1.587200
0.036200 1.563200
0.060000 1.551100
0.083700 1.550200
0.107500 1.523200
0.131300 1.431700
0.155100 1.264800
0.178800 1.148800
0.202600 1.076600
0.226400 0.996800
0.250200 0.898600
0.273900 0.698200
0.297700 0.543400
0.321500 0.399400
0.345300 0.165900
0.369000 0.051100
0.392800 0.000000
0.416600 0.000000
0.440400 0.000000
0.464200 0.000000
0.487900 0.000000
0.511700 0.000000
0.535500 0.000000
0.559300 0.000000
0.583000 0.000000
0.606800 0.000000
0.630600 0.000000
0.654400 0.000000
0.678100 0.000000
0.701900 0.000000
0.725700 0.000000
0.749500 0.000000
0.773200 0.000000
0.797000 0.000000
0.820800 0.000000
0.844600 0.000000
0.868400 0.000000
0.892100 0.000000
0.915900 0.000000
0.939700 0.000000
0.963500 0.000000
0.987200 0.000000
1.011000 0.000000
1.034800 0.000000
1.058600 0.000000
1.082300 0.000000
1.106100 0.000000
1.129900 0.000000
1.153700 0.000000
1.177400 0.000000
1.201200 0.000000
1.225000 0.000000
1.248800 0.000000
1.272500 0.000000
1.296300 0.000000
1.320100 0.000000
1.343900 0.000000
1.367700 0.000000
1.391400 0.000000
1.415200 0.000000
1.439000 0.000000
1.462800 0.000000
1.486500 0.000000
1.510300 0.000000
1.534100 0.000000
1.557900 0.000000
1.581600 0.000000
1.605400 0.000000
1.629200 0.269000
1.653000 0.605700
1.676700 2.520900
1.700500 4.228300
1.724300 2.272800
1.748100 1.754500
1.771800 1.451100
1.795600 1.237900
1.819400 1.152200
1.843200 1.074400
1.867000 0.981800
1.890700 0.901100
1.914500 0.871800
1.938300 0.842600
1.962100 0.811200
1.985800 0.774800
2.009600 0.731300
2.033400 0.715200
2.057200 0.700100
2.080900 0.685100
2.104700 0.667700
2.128500 0.648000
2.152300 0.623500
2.176000 0.612100
2.199800 0.600000
2.223600 0.587900
2.247400 0.576300
2.271100 0.562500
2.294900 0.548300
2.318700 0.538200
2.342500 0.529700
2.366300 0.521800
2.390000 0.514500
2.413800 0.510200
2.437600 0.506200
2.461400 0.502400
2.485100 0.502100
2.508900 0.508300
2.532700 0.516300
2.556500 0.527200
2.580200 0.543600
2.604000 0.572000
2.627800 0.614600
2.651600 0.688500
2.675300 0.848600
2.699100 0.810000
2.722900 0.670800
2.746700 0.618000
2.770500 0.600000
2.794200 0.575200
2.818000 0.000000
2.841800 0.055800
2.865600 1.069100
2.889300 1.383900
2.913100 1.623500
2.936900 1.913100
2.960700 2.249100
2.984400 2.547900
3.008200 2.940100
3.032000 3.304100
3.055800 3.456000
3.079500 3.484300
3.103300 3.522000
3.127100 3.953900
3.150900 3.875300
3.174600 3.507000
3.198400 3.235300
3.222200 3.070300
3.246000 2.948400
3.269800 2.897200
3.293500 2.613800
3.317300 2.002200
3.341100 1.667700
3.364900 1.705600
3.388600 1.753300
3.412400 2.259000
3.436200 2.276700
3.460000 1.965800
3.483700 2.230400
3.507500 2.463700
3.531300 1.960900
3.555100 1.142800
3.578800 0.985200
3.602600 0.887900
3.626400 0.810300
3.650200 0.773200
3.673900 0.727300
3.697700 0.685700
3.721500 0.660100
3.745300 0.618600
3.769100 0.586900
3.792800 0.584600
3.816600 0.460700
3.840400 0.335600
3.864200 0.303500
3.887900 0.142100
3.911700 0.000000
3.935500 0.000000
3.959300 0.000000
3.983000 0.000000
4.006800 0.000000
4.030600 0.000000
4.054400 0.000000
4.078100 0.000000
4.101900 0.000000
4.125700 0.000000
4.149500 0.000000
4.173200 0.000000
4.197000 0.000000
4.220800 0.000000
4.244600 0.000000
4.268400 0.000000
4.292100 0.000000
4.315900 0.000000
4.339700 0.000000
4.363500 0.000000
4.387200 0.000000
4.411000 0.000000
4.434800 0.000000
4.458600 0.000000
4.482300 0.000000
4.506100 0.000000
4.529900 0.000000
4.553700 0.000000
4.577400 0.000000
4.601200 0.000000
4.625000 0.000000
4.648800 0.000000
4.672600 0.000000
4.696300 0.000000
4.720100 0.000000
4.743900 0.000000
4.767700 0.000000
4.791400 0.000000
4.815200 0.000000
4.839000 0.000000
4.862800 0.000000
4.886500 0.000000
4.910300 0.000000
4.934100 0.000000
4.957900 0.000000
4.981600 0.000000
5.005400 0.000000
5.029200 0.000000
5.053000 0.000000
5.076700 0.000000
5.100500 0.000000
5.124300 0.000000
5.148100 0.000000
5.171900 0.000000
5.195600 0.000000
5.219400 0.000000
5.243200 0.000000
5.267000 0.000000
5.290700 0.000000
5.314500 0.000000
5.338300 0.000000
5.362100 0.000000
5.385800 0.000000
5.409600 0.000000
5.433400 0.000000
5.457200 0.000000
5.480900 0.000000
5.504700 0.000000
5.528500 0.000000
5.552300 0.000000
5.576000 0.000000
5.599800 0.000000
5.623600 0.000000
5.647400 0.000000
5.671200 0.000000
5.694900 0.000000
5.718700 0.000000
5.742500 0.000000
5.766300 0.000000
5.790000 0.000000
5.813800 0.000000
5.837600 0.000000
5.861400 0.000000
5.885100 0.000000
5.908900 0.000000
5.932700 0.000000
5.956500 0.000000
5.980200 0.000000
6.004000 0.000000
6.027800 0.000000
6.051600 0.000000
6.075300 0.000000
6.099100 0.000000
6.122900 0.000000
6.146700 0.000000
6.170500 0.000000
6.194200 0.000000
6.218000 0.000000
6.241800 0.000000
6.265600 0.000000
6.289300 0.000000
6.313100 0.000000
6.336900 0.000000
6.360700 0.000000
6.384400 0.000000
6.408200 0.000000
6.432000 0.000000
6.455800 0.000000
6.479500 0.000000
6.503300 0.000000
6.527100 0.000000
6.550900 0.000000
6.574700 0.000000
6.598400 0.000000
6.622200 0.000000
6.646000 0.000000
6.669800 0.000000
6.693500 0.000000
6.717300 0.000000
6.741100 0.000000
6.764900 0.000000
6.788600 0.000000
6.812400 0.000000
6.836200 0.000000
6.860000 0.000000
6.883700 0.000000
6.907500 0.000000
6.931300 0.000000
6.955100 0.000000
6.978800 0.000000
7.002600 0.000000
7.026400 0.000000
7.050200 0.000000
7.074000 0.000000
7.097700 0.000000
7.121500 0.000000
7.145300 0.000000
7.169100 0.000000
7.192800 0.000000
7.216600 0.000000
7.240400 0.000000
7.264200 0.000000
7.287900 0.000000
7.311700 0.000000
7.335500 0.000000
7.359300 0.000000
7.383000 0.000000
7.406800 0.000000
7.430600 0.000000
7.454400 0.000000
7.478100 0.000000
7.501900 0.000000
7.525700 0.000000
7.549500 0.000000
7.573300 0.000000
7.597000 0.000000
7.620800 0.000000
7.644600 0.000000
7.668400 0.000000
7.692100 0.000000
7.715900 0.000000
7.739700 0.000000
7.763500 0.000000
7.787200 0.000000
7.811000 0.000000
7.834800 0.000000
7.858600 0.000000
7.882300 0.000000
7.906100 0.000000
7.929900 0.000000
7.953700 0.000000
7.977400 0.000000
8.001200 0.000000
8.025000 0.000000
8.048800 0.000000
8.072600 0.000000
8.096300 0.000000
8.120100 0.000000
8.143900 0.000000
8.167700 0.000000
8.191400 0.000000
8.215200 0.000000
8.239000 0.000000
8.262800 0.000000
8.286500 0.000000
8.310300 0.000000
8.334100 0.001400
8.357900 0.004800
8.381600 0.010300
8.405400 0.014300
8.429200 0.015800
8.453000 0.016100
8.476800 0.017600
8.500500 0.019600
8.524300 0.021700
8.548100 0.023800
8.571900 0.025900
8.595600 0.027500
8.619400 0.028600
8.643200 0.029200
8.667000 0.030200
8.690700 0.031400
8.714500 0.032700
8.738300 0.034100
8.762100 0.035500
8.785800 0.036800
8.809600 0.038200
8.833400 0.039600
8.857200 0.041100
8.880900 0.042400
8.904700 0.043600
8.928500 0.044600
8.952300 0.045700
8.976100 0.046800
8.999800 0.047900
9.023600 0.049000
9.047400 0.050200
9.071200 0.051400
9.094900 0.052500
9.118700 0.053800
9.142500 0.055200
9.166300 0.056500
9.190000 0.057900
9.213800 0.059300
9.237600 0.060600
9.261400 0.061900
9.285100 0.063100
9.308900 0.064300
9.332700 0.065500
9.356500 0.066700
9.380200 0.067900
9.404000 0.069300
9.427800 0.070600
9.451600 0.071900
9.475400 0.073300
9.499100 0.074700
9.522900 0.076100
9.546700 0.077500
9.570500 0.078900
9.594200 0.080400
9.618000 0.081800
9.641800 0.083300
9.665600 0.084700
9.689300 0.086200
9.713100 0.087700
9.736900 0.089300
9.760700 0.091000
9.784400 0.092600
9.808200 0.094300
9.832000 0.095900
9.855800 0.097600
9.879500 0.099400
9.903300 0.101100
9.927100 0.102800
9.950900 0.104600
9.974700 0.106300
9.998400 0.108100
10.022200 0.109900
10.046000 0.111900
10.069800 0.114000
10.093500 0.116000
10.117300 0.118100
10.141100 0.121400
10.164900 0.129200
10.188600 0.136400
10.212400 0.132400
10.236200 0.134300
10.260000 0.136100
10.283700 0.137900
10.307500 0.139500
10.331300 0.140100
10.355100 0.140900
10.378900 0.142600
10.402600 0.144400
10.426400 0.146200
10.450200 0.148000
10.474000 0.149800
10.497700 0.151200
10.521500 0.152400
10.545300 0.153900
10.569100 0.155300
10.592800 0.156800
10.616600 0.158300
10.640400 0.159900
10.664200 0.161500
10.687900 0.163700
10.711700 0.165700
10.735500 0.170000
10.759300 0.175900
10.783000 0.182400
10.806800 0.181800
10.830600 0.184700
10.854400 0.187700
10.878200 0.190700
10.901900 0.193700
10.925700 0.196600
10.949500 0.199800
10.973300 0.202400
10.997000 0.205200
11.020800 0.207900
11.044600 0.211000
11.068400 0.213900
11.092100 0.216900
11.115900 0.219900
11.139700 0.222900
11.163500 0.226000
11.187200 0.229000
11.211000 0.232000
11.234800 0.235100
11.258600 0.238400
11.282300 0.241700
11.306100 0.244900
11.329900 0.248200
11.353700 0.251300
11.377500 0.254400
11.401200 0.257400
11.425000 0.260400
11.448800 0.263100
11.472600 0.266100
11.496300 0.269500
11.520100 0.272800
11.543900 0.276100
11.567700 0.279600
11.591400 0.283000
11.615200 0.286400
11.639000 0.289800
11.662800 0.293200
11.686500 0.296900
11.710300 0.300700
11.734100 0.304200
11.757900 0.307700
11.781600 0.311400
11.805400 0.315600
11.829200 0.320700
11.853000 0.326500
11.876800 0.333400
11.900500 0.341700
11.924300 0.349000
11.948100 0.354800
11.971900 0.353600
11.995600 0.354200
12.019400 0.356500
12.043200 0.358400
12.067000 0.360500
12.090700 0.362900
12.114500 0.365200
12.138300 0.367500
12.162100 0.369400
12.185800 0.371300
12.209600 0.373400
12.233400 0.375900
12.257200 0.378900
12.281000 0.382000
12.304700 0.385000
12.328500 0.387900
12.352300 0.390600
12.376100 0.392900
12.399800 0.396000
12.423600 0.400200
12.447400 0.405500
12.471200 0.412500
12.494900 0.419900
12.518700 0.427500
12.542500 0.433500
12.566300 0.433700
12.590000 0.430900
12.613800 0.430700
12.637600 0.431500
12.661400 0.432000
12.685100 0.431600
12.708900 0.430200
12.732700 0.427000
12.756500 0.425000
12.780300 0.424200
12.804000 0.423300
12.827800 0.422600
12.851600 0.422000
12.875400 0.421800
12.899100 0.422100
12.922900 0.422700
12.946700 0.423600
12.970500 0.424300
12.994200 0.424000
13.018000 0.423700
13.041800 0.424900
13.065600 0.427500
13.089300 0.431500
13.113100 0.437100
13.136900 0.441200
13.160700 0.439800
13.184400 0.427800
13.208200 0.423400
13.232000 0.420000
13.255800 0.419800
13.279600 0.410900
13.303300 0.396300
13.327100 0.390600
13.350900 0.383700
13.374700 0.380100
13.398400 0.378100
13.422200 0.380700
13.446000 0.387100
13.469800 0.395400
13.493500 0.407400
13.517300 0.424100
13.541100 0.441900
13.564900 0.452200
13.588600 0.452300
13.612400 0.456000
13.636200 0.464700
13.660000 0.464400
13.683700 0.464700
13.707500 0.468200
13.731300 0.473800
13.755100 0.480100
13.778900 0.486600
13.802600 0.496700
13.826400 0.508100
13.850200 0.514200
13.874000 0.514500
13.897700 0.521300
13.921500 0.528300
13.945300 0.528500
13.969100 0.527800
13.992800 0.529900
14.016600 0.533600
14.040400 0.539900
14.064200 0.548300
14.087900 0.542400
14.111700 0.546900
14.135500 0.540500
14.159300 0.534900
14.183100 0.530000
14.206800 0.523600
14.230600 0.525000
14.254400 0.519700
14.278200 0.519000
14.301900 0.506200
14.325700 0.508800
14.349500 0.518100
14.373300 0.523000
14.397000 0.523300
14.420800 0.517300
14.444600 0.514900
14.468400 0.517200
14.492100 0.520100
14.515900 0.522400
14.539700 0.517700
14.563500 0.513000
14.587200 0.511100
14.611000 0.515700
14.634800 0.514900
14.658600 0.507800
14.682400 0.512500
14.706100 0.518300
14.729900 0.499800
14.753700 0.491500
14.777500 0.484700
14.801200 0.481100
14.825000 0.478800
14.848800 0.479900
14.872600 0.507800
14.896300 0.527300
14.920100 0.536500
14.943900 0.548000
14.967700 0.589800
14.991400 0.645300
15.015200 0.688300
15.039000 0.701400
15.062800 0.710400
15.086500 0.725100
15.110300 0.739600
15.134100 0.755400
15.157900 0.781600
15.181700 0.811000
15.205400 0.829800
15.229200 0.846700
15.253000 0.868200
15.276800 0.901500
15.300500 0.948700
15.324300 0.970800
15.348100 0.976000
15.371900 0.983500
15.395600 0.983900
15.419400 1.006400
15.443200 1.004000
15.467000 0.982400
15.490700 0.966100
15.514500 0.944000
15.538300 0.918200
15.562100 0.899000
15.585800 0.884900
15.609600 0.877900
15.633400 0.869100
15.657200 0.865500
15.681000 0.863700
15.704700 0.867400
15.728500 0.889300
15.752300 0.910700
15.776100 0.919300
15.799800 0.922200
15.823600 0.934000
15.847400 0.971400
15.871200 1.028800
15.894900 1.057200
15.918700 1.026900
15.942500 0.991400
15.966300 0.905400
15.990000 0.845100
16.013800 0.761200
16.037600 0.693400
16.061400 0.639500
16.085200 0.593200
16.108900 0.549300
16.132700 0.528800
16.156500 0.517500
16.180300 0.529100
16.204000 0.583200
16.227800 0.666700
16.251600 0.736500
16.275400 0.829100
16.299100 0.904100
16.322900 0.983900
16.346700 1.013800
16.370500 1.029300
16.394200 1.029100
16.418000 1.034900
16.441800 1.040000
16.465600 1.052400
16.489300 1.066800
16.513100 1.070700
16.536900 1.084200
16.560700 1.095600
16.584500 1.108000
16.608200 1.096000
16.632000 1.068400
16.655800 1.067100
16.679600 1.074800
16.703300 1.086600
16.727100 1.094600
16.750900 1.095500
16.774700 0.953500
16.798400 0.865900
16.822200 0.819400
16.846000 0.788300
16.869800 0.764700
16.893500 0.740500
16.917300 0.727700
16.941100 0.728500
16.964900 0.724400
16.988600 0.691600
17.012400 0.639800
17.036200 0.580200
17.060000 0.545000
17.083800 0.514800
17.107500 0.473100
17.131300 0.431700
17.155100 0.393600
17.178900 0.356000
17.202600 0.335200
17.226400 0.328000
17.250200 0.342900
17.274000 0.377600
17.297700 0.416100
17.321500 0.456900
17.345300 0.485700
17.369100 0.513000
17.392800 0.544600
17.416600 0.598200
17.440400 0.648400
17.464200 0.707300
17.487900 0.772200
17.511700 0.818300
17.535500 0.868100
17.559300 0.918000
17.583100 0.927300
17.606800 0.938800
17.630600 0.934400
17.654400 0.949300
17.678200 0.967300
17.701900 0.994400
17.725700 1.047200
17.749500 1.022900
17.773300 0.979600
17.797000 0.965300
17.820800 0.950700
17.844600 0.922100
17.868400 0.903800
17.892100 0.888400
17.915900 0.874300
17.939700 0.859100
17.963500 0.845800
17.987300 0.831700
18.011000 0.819100
18.034800 0.803100
18.058600 0.785300
18.082400 0.773100
18.106100 0.756700
18.129900 0.701600
18.153700 0.620900
18.177500 0.560800
18.201200 0.533900
18.225000 0.503300
18.248800 0.493200
18.272600 0.485200
18.296300 0.480100
18.320100 0.479000
18.343900 0.483100
18.367700 0.486400
18.391400 0.483300
18.415200 0.486300
18.439000 0.488500
18.462800 0.493900
18.486600 0.493400
18.510300 0.496500
18.534100 0.499900
18.557900 0.500600
18.581700 0.498200
18.605400 0.504200
18.629200 0.537500
18.653000 0.541400
18.676800 0.555000
18.700500 0.563900
18.724300 0.577900
18.748100 0.586200
18.771900 0.598700
18.795600 0.619700
18.819400 0.648400
18.843200 0.671300
18.867000 0.697800
18.890700 0.721500
18.914500 0.756700
18.938300 0.760400
18.962100 0.766500
18.985900 0.704700
19.009600 0.678500
19.033400 0.657300
19.057200 0.638600
19.081000 0.624700
19.104700 0.615400
19.128500 0.609200
19.152300 0.604700
19.176100 0.602200
19.199800 0.599900
19.223600 0.598100
19.247400 0.596700
19.271200 0.592500
19.294900 0.588000
19.318700 0.583300
19.342500 0.578000
19.366300 0.574200
19.390000 0.571100
19.413800 0.567100
19.437600 0.561700
19.461400 0.558400
19.485200 0.557800
19.508900 0.555700
19.532700 0.553700
19.556500 0.552300
19.580300 0.552000
19.604000 0.548700
19.627800 0.547200
19.651600 0.547400
19.675400 0.546300
19.699100 0.544800
19.722900 0.548300
19.746700 0.541600
19.770500 0.530400
19.794200 0.515900
19.818000 0.507400
19.841800 0.496900
19.865600 0.485400
19.889400 0.475200
19.913100 0.467700
19.936900 0.462600
19.960700 0.458100
19.984500 0.453200
20.008200 0.449300
20.032000 0.447000
20.055800 0.444800
20.079600 0.442800
20.103300 0.440600
20.127100 0.437600
20.150900 0.434000
20.174700 0.430400
20.198400 0.426900
20.222200 0.423400
20.246000 0.420400
20.269800 0.417700
20.293500 0.415100
20.317300 0.412900
20.341100 0.411000
20.364900 0.409200
20.388700 0.407400
20.412400 0.406400
20.436200 0.406600
20.460000 0.408400
20.483800 0.411900
20.507500 0.416000
20.531300 0.426900
20.555100 0.431900
20.578900 0.430800
20.602600 0.407800
20.626400 0.387600
20.650200 0.380200
20.674000 0.381100
20.697700 0.381600
20.721500 0.381900
20.745300 0.382000
20.769100 0.382100
20.792800 0.443500
20.816600 0.489600
20.840400 0.511700
20.864200 0.531000
20.888000 0.550700
20.911700 0.560100
20.935500 0.560400
20.959300 0.585900
20.983100 0.590700
21.006800 0.558300
21.030600 0.533900
21.054400 0.502800
21.078200 0.457700
21.101900 0.418700
21.125700 0.380500
21.149500 0.356700
21.173300 0.347300
21.197000 0.348300
21.220800 0.355100
21.244600 0.365200
21.268400 0.378000
21.292100 0.397400
21.315900 0.432800
21.339700 0.464400
21.363500 0.507500
21.387300 0.511900
21.411000 0.542100
21.434800 0.574500
21.458600 0.597300
21.482400 0.617700
21.506100 0.607600
21.529900 0.596000
21.553700 0.593300
21.577500 0.589700
21.601200 0.599400
21.625000 0.623500
21.648800 0.656500
21.672600 0.694600
21.696300 0.755000
21.720100 0.760400
21.743900 0.775900
21.767700 0.816100
21.791500 0.868300
21.815200 0.894400
21.839000 0.916400
21.862800 0.926300
21.886600 0.942300
21.910300 0.940800
21.934100 0.922100
21.957900 0.888900
21.981700 0.868900
22.005400 0.852200
22.029200 0.851800
22.053000 0.875500
22.076800 0.879400
22.100500 0.859700
22.124300 0.827900
22.148100 0.794800
22.171900 0.771700
22.195600 0.814500
22.219400 0.829900
22.243200 0.750800
22.267000 0.509800
22.290800 0.476600
22.314500 0.457300
22.338300 0.435100
22.362100 0.409800
22.385900 0.376100
22.409600 0.354300
22.433400 0.338700
22.457200 0.327500
22.481000 0.306000
22.504700 0.292500
22.528500 0.160200
22.552300 0.148700
22.576100 0.134300
22.599800 0.119200
22.623600 0.106600
22.647400 0.097900
22.671200 0.091100
22.694900 0.086000
22.718700 0.082700
22.742500 0.080400
22.766300 0.078300
22.790100 0.076000
22.813800 0.073500
22.837600 0.071400
22.861400 0.069400
22.885200 0.067900
22.908900 0.066500
22.932700 0.065300
22.956500 0.064100
22.980300 0.063300
23.004000 0.062200
23.027800 0.061000
23.051600 0.059600
23.075400 0.058100
23.099100 0.056600
23.122900 0.055100
23.146700 0.053600
23.170500 0.052100
23.194200 0.050500
23.218000 0.048900
23.241800 0.047400
23.265600 0.045800
23.289400 0.044400
23.313100 0.043200
23.336900 0.042200
23.360700 0.041300
23.384500 0.040500
23.408200 0.039700
23.432000 0.039100
23.455800 0.038600
23.479600 0.038200
23.503300 0.037900
23.527100 0.037500
23.550900 0.037100
23.574700 0.036800
23.598400 0.036400
23.622200 0.036100
23.646000 0.035800
23.669800 0.035500
23.693600 0.035300
23.717300 0.035100
23.741100 0.035000
23.764900 0.034900
23.788700 0.035000
23.812400 0.035700
23.836200 0.036700
23.860000 0.037600
23.883800 0.038500
23.907500 0.039600
23.931300 0.041000
23.955100 0.042700
23.978900 0.044400
24.002600 0.050400
24.026400 0.054300
24.050200 0.050700
24.074000 0.045900
24.097700 0.039500
24.121500 0.035500
24.145300 0.033500
24.169100 0.032000
24.192900 0.031400
24.216600 0.031100
24.240400 0.031300
24.264200 0.031500
24.288000 0.029700
24.311700 0.027200
24.335500 0.024200
24.359300 0.019600
24.383100 0.014200
24.406800 0.011300
24.430600 0.008100
24.454400 0.004800
24.478200 0.003200
24.501900 0.002200
24.525700 0.001400
24.549500 0.000800
24.573300 0.000400
24.597000 0.000100
24.620800 0.000000
24.644600 0.000000
24.668400 0.000000
24.692200 0.000000
24.715900 0.000000
24.739700 0.000000
24.763500 0.000000
24.787300 0.000000
24.811000 0.000000
24.834800 0.000000
24.858600 0.000000
24.882400 0.000000
24.906100 0.000000
24.929900 0.000000
24.953700 0.000000
24.977500 0.000000
25.001200 0.000000
25.025000 0.000000
25.048800 0.000000
25.072600 0.000000
25.096300 0.000000
25.120100 0.000000
25.143900 0.000000
25.167700 0.000000
25.191500 0.000000
25.215200 0.000000
25.239000 0.000000
25.262800 0.000000
25.286600 0.000000
25.310300 0.000000
25.334100 0.000000
25.357900 0.000000
25.381700 0.000000
25.405400 0.000000
25.429200 0.000000
25.453000 0.000000
25.476800 0.000000
25.500500 0.000000
25.524300 0.000000
25.548100 0.000000
25.571900 0.000000
25.595700 0.000000
25.619400 0.000000
25.643200 0.000000
25.667000 0.000000
25.690800 0.000000
25.714500 0.000000
25.738300 0.000000
25.762100 0.000000
25.785900 0.000000
25.809600 0.000000
25.833400 0.000000
25.857200 0.000000
25.881000 0.000000
25.904700 0.000000
25.928500 0.000000
25.952300 0.000000
25.976100 0.000000
25.999800 0.000000
26.023600 0.000000
26.047400 0.000000
26.071200 0.000000
26.095000 0.000000
26.118700 0.000000
26.142500 0.000000
26.166300 0.000000
26.190100 0.000000
26.213800 0.000000
26.237600 0.000000
26.261400 0.000000
26.285200 0.000000
26.308900 0.000000
26.332700 0.000000
26.356500 0.000000
26.380300 0.000000
26.404000 0.000000
26.427800 0.000000
26.451600 0.000000
26.475400 0.000000
26.499100 0.000000
26.522900 0.000000
26.546700 0.000000
26.570500 0.000000
26.594300 0.000000
26.618000 0.000000
26.641800 0.000000
26.665600 0.000000
26.689400 0.000000
26.713100 0.000000
26.736900 0.000000
26.760700 0.000000
26.784500 0.000000
e
