set title 'mp-636839 - Density of States'
set xlabel 'Energy (eV)'
set ylabel 'DOS (states/eV)'
set grid
set xrange [-10:10]
set yrange [0:239.750]
set xzeroaxis lt -1
set terminal png size 800,600
set output 'mp-636839_dos_gnuplot.png'
plot '-' using 1:2 with lines title 'DOS'
-24.960800 0.000000
-24.935700 0.000000
-24.910600 0.000000
-24.885400 0.000000
-24.860300 0.000000
-24.835200 0.000000
-24.810100 0.000000
-24.784900 0.000000
-24.759800 0.000000
-24.734700 0.000000
-24.709500 0.000000
-24.684400 0.000000
-24.659300 0.000000
-24.634200 0.000000
-24.609000 0.000000
-24.583900 0.000000
-24.558800 0.000000
-24.533600 0.000000
-24.508500 0.000000
-24.483400 0.000000
-24.458300 0.000000
-24.433100 0.000000
-24.408000 0.000000
-24.382900 0.000000
-24.357700 0.000000
-24.332600 0.000000
-24.307500 0.000000
-24.282400 0.000000
-24.257200 0.000000
-24.232100 0.000000
-24.207000 0.000000
-24.181800 0.000000
-24.156700 0.000000
-24.131600 0.000000
-24.106500 0.000000
-24.081300 0.000000
-24.056200 0.000000
-24.031100 0.000000
-24.005900 0.000000
-23.980800 0.000000
-23.955700 0.000000
-23.930600 0.000000
-23.905400 0.000000
-23.880300 0.000000
-23.855200 0.000000
-23.830000 0.000000
-23.804900 0.000000
-23.779800 0.000000
-23.754700 0.000000
-23.729500 0.000000
-23.704400 0.000000
-23.679300 0.000000
-23.654100 0.000000
-23.629000 0.000000
-23.603900 0.000000
-23.578800 0.000000
-23.553600 0.000000
-23.528500 0.000000
-23.503400 0.000000
-23.478200 0.000000
-23.453100 0.000000
-23.428000 0.000000
-23.402900 0.000000
-23.377700 0.000000
-23.352600 0.000000
-23.327500 0.000000
-23.302300 0.000000
-23.277200 0.000000
-23.252100 0.000000
-23.227000 0.000000
-23.201800 0.000000
-23.176700 0.000000
-23.151600 0.000000
-23.126400 0.000000
-23.101300 0.000000
-23.076200 0.000000
-23.051100 0.000000
-23.025900 0.000000
-23.000800 0.000000
-22.975700 0.000000
-22.950500 0.000000
-22.925400 0.000000
-22.900300 0.000000
-22.875200 0.000000
-22.850000 0.000000
-22.824900 0.000000
-22.799800 0.000000
-22.774700 0.000000
-22.749500 0.000000
-22.724400 0.000000
-22.699300 0.000000
-22.674100 16.632300
-22.649000 61.571400
-22.623900 50.195100
-22.598800 117.938800
-22.573600 99.923300
-22.548500 0.000000
-22.523400 0.000000
-22.498200 0.000000
-22.473100 0.000000
-22.448000 0.000000
-22.422900 0.000000
-22.397700 0.000000
-22.372600 0.000000
-22.347500 0.000000
-22.322300 0.000000
-22.297200 0.000000
-22.272100 0.000000
-22.247000 0.000000
-22.221800 0.000000
-22.196700 0.000000
-22.171600 0.000000
-22.146400 0.000000
-22.121300 0.000000
-22.096200 0.000000
-22.071100 0.000000
-22.045900 0.000000
-22.020800 0.000000
-21.995700 0.000000
-21.970500 0.000000
-21.945400 0.000000
-21.920300 0.000000
-21.895200 0.000000
-21.870000 0.000000
-21.844900 0.000000
-21.819800 0.000000
-21.794600 0.000000
-21.769500 0.000000
-21.744400 0.000000
-21.719300 0.000000
-21.694100 0.000000
-21.669000 0.000000
-21.643900 0.000000
-21.618700 0.000000
-21.593600 0.000000
-21.568500 0.000000
-21.543400 0.000000
-21.518200 0.000000
-21.493100 0.000000
-21.468000 0.000000
-21.442800 0.000000
-21.417700 0.000000
-21.392600 0.000000
-21.367500 0.000000
-21.342300 0.000000
-21.317200 0.000000
-21.292100 0.000000
-21.266900 0.000000
-21.241800 0.000000
-21.216700 0.000000
-21.191600 0.000000
-21.166400 0.000000
-21.141300 0.000000
-21.116200 0.000000
-21.091000 0.000000
-21.065900 0.000000
-21.040800 0.000000
-21.015700 0.000000
-20.990500 0.000000
-20.965400 0.000000
-20.940300 0.000000
-20.915100 0.000000
-20.890000 0.000000
-20.864900 0.000000
-20.839800 0.000000
-20.814600 0.000000
-20.789500 0.000000
-20.764400 0.000000
-20.739200 0.000000
-20.714100 0.000000
-20.689000 0.000000
-20.663900 0.000000
-20.638700 0.000000
-20.613600 0.000000
-20.588500 0.000000
-20.563300 0.000000
-20.538200 0.000000
-20.513100 0.000000
-20.488000 0.000000
-20.462800 0.000000
-20.437700 0.000000
-20.412600 0.000000
-20.387400 0.000000
-20.362300 0.000000
-20.337200 0.000000
-20.312100 0.000000
-20.286900 0.000000
-20.261800 0.000000
-20.236700 0.000000
-20.211500 0.000000
-20.186400 0.000000
-20.161300 0.000000
-20.136200 0.000000
-20.111000 0.000000
-20.085900 0.000000
-20.060800 0.000000
-20.035600 0.000000
-20.010500 0.000000
-19.985400 0.000000
-19.960300 0.000000
-19.935100 0.000000
-19.910000 0.000000
-19.884900 0.000000
-19.859800 0.000000
-19.834600 0.000000
-19.809500 0.000000
-19.784400 0.000000
-19.759200 0.000000
-19.734100 0.000000
-19.709000 0.000000
-19.683900 0.000000
-19.658700 0.000000
-19.633600 0.000000
-19.608500 0.000000
-19.583300 0.000000
-19.558200 0.000000
-19.533100 0.000000
-19.508000 0.000000
-19.482800 0.000000
-19.457700 0.000000
-19.432600 0.000000
-19.407400 0.000000
-19.382300 0.000000
-19.357200 0.000000
-19.332100 0.000000
-19.306900 0.000000
-19.281800 0.000000
-19.256700 0.000000
-19.231500 0.000000
-19.206400 0.000000
-19.181300 0.000000
-19.156200 0.000000
-19.131000 0.000000
-19.105900 0.000000
-19.080800 0.000000
-19.055600 0.000000
-19.030500 0.000000
-19.005400 0.000000
-18.980300 0.000000
-18.955100 0.000000
-18.930000 0.000000
-18.904900 0.000000
-18.879700 0.000000
-18.854600 0.000000
-18.829500 0.000000
-18.804400 0.000000
-18.779200 0.000000
-18.754100 0.000000
-18.729000 0.000000
-18.703800 0.000000
-18.678700 0.000000
-18.653600 0.000000
-18.628500 0.000000
-18.603300 0.000000
-18.578200 0.000000
-18.553100 0.000000
-18.527900 0.000000
-18.502800 0.000000
-18.477700 0.000000
-18.452600 0.000000
-18.427400 0.000000
-18.402300 0.000000
-18.377200 196.900100
-18.352000 0.000000
-18.326900 0.000000
-18.301800 0.000000
-18.276700 0.000000
-18.251500 0.000000
-18.226400 0.000000
-18.201300 0.000000
-18.176100 0.000000
-18.151000 0.000000
-18.125900 0.000000
-18.100800 0.000000
-18.075600 0.000000
-18.050500 0.000000
-18.025400 0.000000
-18.000200 0.000000
-17.975100 0.000000
-17.950000 0.000000
-17.924900 0.000000
-17.899700 0.000000
-17.874600 0.000000
-17.849500 0.000000
-17.824300 0.000000
-17.799200 0.000000
-17.774100 0.000000
-17.749000 0.000000
-17.723800 0.000000
-17.698700 0.000000
-17.673600 0.000000
-17.648400 0.000000
-17.623300 0.000000
-17.598200 0.000000
-17.573100 0.000000
-17.547900 0.000000
-17.522800 0.000000
-17.497700 0.000000
-17.472500 0.000000
-17.447400 0.000000
-17.422300 0.000000
-17.397200 0.000000
-17.372000 0.000000
-17.346900 0.000000
-17.321800 0.000000
-17.296600 0.000000
-17.271500 0.000000
-17.246400 0.000000
-17.221300 0.000000
-17.196100 0.000000
-17.171000 0.000000
-17.145900 0.000000
-17.120700 0.000000
-17.095600 0.000000
-17.070500 0.000000
-17.045400 0.000000
-17.020200 0.000000
-16.995100 0.000000
-16.970000 0.000000
-16.944900 0.000000
-16.919700 0.000000
-16.894600 0.000000
-16.869500 0.000000
-16.844300 0.000000
-16.819200 0.000000
-16.794100 0.000000
-16.769000 0.000000
-16.743800 0.000000
-16.718700 0.000000
-16.693600 0.000000
-16.668400 0.000000
-16.643300 0.000000
-16.618200 0.000000
-16.593100 0.000000
-16.567900 0.000000
-16.542800 0.000000
-16.517700 0.000000
-16.492500 0.000000
-16.467400 0.000000
-16.442300 0.000000
-16.417200 0.000000
-16.392000 0.000000
-16.366900 0.000000
-16.341800 0.000000
-16.316600 0.000000
-16.291500 0.000000
-16.266400 0.000000
-16.241300 0.000000
-16.216100 0.000000
-16.191000 0.000000
-16.165900 0.000000
-16.140700 0.000000
-16.115600 0.000000
-16.090500 0.000000
-16.065400 0.000000
-16.040200 0.000000
-16.015100 0.000000
-15.990000 0.000000
-15.964800 0.000000
-15.939700 0.000000
-15.914600 0.000000
-15.889500 0.000000
-15.864300 0.000000
-15.839200 0.000000
-15.814100 0.000000
-15.788900 0.000000
-15.763800 0.000000
-15.738700 0.000000
-15.713600 0.000000
-15.688400 0.000000
-15.663300 0.000000
-15.638200 0.000000
-15.613000 0.000000
-15.587900 0.000000
-15.562800 0.000000
-15.537700 0.000000
-15.512500 0.000000
-15.487400 0.000000
-15.462300 0.000000
-15.437100 0.000000
-15.412000 0.000000
-15.386900 0.000000
-15.361800 0.000000
-15.336600 0.000000
-15.311500 0.000000
-15.286400 0.000000
-15.261200 0.000000
-15.236100 0.000000
-15.211000 0.000000
-15.185900 0.000000
-15.160700 0.000000
-15.135600 0.000000
-15.110500 0.000000
-15.085300 0.000000
-15.060200 0.000000
-15.035100 0.000000
-15.010000 0.000000
-14.984800 0.000000
-14.959700 0.000000
-14.934600 0.000000
-14.909400 0.000000
-14.884300 0.000000
-14.859200 0.000000
-14.834100 0.000000
-14.808900 0.000000
-14.783800 0.000000
-14.758700 0.000000
-14.733500 0.000000
-14.708400 0.000000
-14.683300 0.000000
-14.658200 0.000000
-14.633000 0.000000
-14.607900 0.000000
-14.582800 0.000000
-14.557600 0.000000
-14.532500 0.000000
-14.507400 0.000000
-14.482300 0.000000
-14.457100 0.000000
-14.432000 0.000000
-14.406900 0.000000
-14.381700 0.000000
-14.356600 0.000000
-14.331500 0.000000
-14.306400 0.000000
-14.281200 0.000000
-14.256100 0.000000
-14.231000 0.000000
-14.205800 0.000000
-14.180700 0.000000
-14.155600 0.000000
-14.130500 0.000000
-14.105300 0.000000
-14.080200 0.000000
-14.055100 0.000000
-14.030000 0.000000
-14.004800 0.000000
-13.979700 0.000000
-13.954600 0.000000
-13.929400 0.000000
-13.904300 0.000000
-13.879200 0.000000
-13.854100 0.000000
-13.828900 0.000000
-13.803800 0.000000
-13.778700 0.000000
-13.753500 0.000000
-13.728400 0.000000
-13.703300 0.000000
-13.678200 0.000000
-13.653000 0.000000
-13.627900 0.000000
-13.602800 0.000000
-13.577600 0.000000
-13.552500 0.000000
-13.527400 0.000000
-13.502300 0.000000
-13.477100 0.000000
-13.452000 0.000000
-13.426900 0.000000
-13.401700 0.000000
-13.376600 0.000000
-13.351500 0.000000
-13.326400 0.000000
-13.301200 0.000000
-13.276100 0.000000
-13.251000 0.000000
-13.225800 0.000000
-13.200700 0.000000
-13.175600 0.000000
-13.150500 0.000000
-13.125300 0.000000
-13.100200 0.000000
-13.075100 0.000000
-13.049900 0.000000
-13.024800 0.000000
-12.999700 0.000000
-12.974600 0.000000
-12.949400 0.000000
-12.924300 0.000000
-12.899200 0.000000
-12.874000 0.000000
-12.848900 0.000000
-12.823800 0.000000
-12.798700 0.000000
-12.773500 0.000000
-12.748400 0.000000
-12.723300 0.000000
-12.698100 0.000000
-12.673000 0.000000
-12.647900 0.000000
-12.622800 0.000000
-12.597600 0.000000
-12.572500 0.000000
-12.547400 0.000000
-12.522200 0.000000
-12.497100 0.000000
-12.472000 0.000000
-12.446900 0.000000
-12.421700 0.000000
-12.396600 0.000000
-12.371500 0.000000
-12.346300 0.000000
-12.321200 0.000000
-12.296100 0.000000
-12.271000 0.000000
-12.245800 0.000000
-12.220700 0.000000
-12.195600 0.000000
-12.170400 0.000000
-12.145300 0.000000
-12.120200 0.000000
-12.095100 0.000000
-12.069900 0.000000
-12.044800 0.000000
-12.019700 0.000000
-11.994500 0.000000
-11.969400 0.000000
-11.944300 0.000000
-11.919200 0.000000
-11.894000 0.000000
-11.868900 0.000000
-11.843800 0.000000
-11.818600 0.000000
-11.793500 0.000000
-11.768400 0.000000
-11.743300 0.000000
-11.718100 0.000000
-11.693000 0.000000
-11.667900 0.000000
-11.642700 0.000000
-11.617600 0.000000
-11.592500 0.000000
-11.567400 0.000000
-11.542200 0.000000
-11.517100 0.000000
-11.492000 0.000000
-11.466800 0.000000
-11.441700 0.000000
-11.416600 0.000000
-11.391500 0.000000
-11.366300 0.000000
-11.341200 0.000000
-11.316100 0.000000
-11.290900 0.000000
-11.265800 0.000000
-11.240700 0.000000
-11.215600 0.000000
-11.190400 0.000000
-11.165300 0.000000
-11.140200 0.000000
-11.115100 0.000000
-11.089900 0.000000
-11.064800 0.000000
-11.039700 0.000000
-11.014500 0.000000
-10.989400 0.000000
-10.964300 0.000000
-10.939200 0.000000
-10.914000 0.000000
-10.888900 0.000000
-10.863800 0.000000
-10.838600 0.000000
-10.813500 0.000000
-10.788400 0.000000
-10.763300 0.000000
-10.738100 0.000000
-10.713000 0.000000
-10.687900 0.000000
-10.662700 0.000000
-10.637600 0.000000
-10.612500 0.000000
-10.587400 0.000000
-10.562200 0.000000
-10.537100 0.000000
-10.512000 0.000000
-10.486800 0.000000
-10.461700 0.000000
-10.436600 0.000000
-10.411500 0.000000
-10.386300 0.000000
-10.361200 0.000000
-10.336100 0.000000
-10.310900 0.000000
-10.285800 0.000000
-10.260700 0.000000
-10.235600 0.000000
-10.210400 0.000000
-10.185300 0.000000
-10.160200 0.000000
-10.135000 0.000000
-10.109900 0.000000
-10.084800 0.000000
-10.059700 0.000000
-10.034500 0.000000
-10.009400 0.000000
-9.984300 0.000000
-9.959100 0.000000
-9.934000 0.000000
-9.908900 0.000000
-9.883800 0.000000
-9.858600 0.000000
-9.833500 0.000000
-9.808400 0.000000
-9.783200 0.000000
-9.758100 0.000000
-9.733000 0.000000
-9.707900 0.000000
-9.682700 0.000000
-9.657600 0.000000
-9.632500 0.000000
-9.607300 0.000000
-9.582200 0.000000
-9.557100 0.000000
-9.532000 0.000000
-9.506800 0.000000
-9.481700 0.000000
-9.456600 0.000000
-9.431400 0.000000
-9.406300 0.000000
-9.381200 0.000000
-9.356100 0.000000
-9.330900 0.000000
-9.305800 0.000000
-9.280700 0.000000
-9.255500 0.000000
-9.230400 0.000000
-9.205300 0.000000
-9.180200 0.000000
-9.155000 0.000000
-9.129900 0.000000
-9.104800 0.000000
-9.079600 0.000000
-9.054500 0.000000
-9.029400 0.000000
-9.004300 0.000000
-8.979100 0.000000
-8.954000 0.000000
-8.928900 0.000000
-8.903700 0.000000
-8.878600 0.000000
-8.853500 0.000000
-8.828400 0.000000
-8.803200 0.000000
-8.778100 0.000000
-8.753000 0.000000
-8.727800 0.000000
-8.702700 0.000000
-8.677600 4.486000
-8.652500 3.309000
-8.627300 2.636200
-8.602200 6.664200
-8.577100 6.516800
-8.551900 7.093000
-8.526800 7.480300
-8.501700 8.061800
-8.476600 8.822400
-8.451400 9.891700
-8.426300 13.653600
-8.401200 13.457900
-8.376000 13.513000
-8.350900 13.695800
-8.325800 10.784800
-8.300700 12.605000
-8.275500 8.821300
-8.250400 4.700700
-8.225300 1.178400
-8.200200 0.000000
-8.175000 0.000000
-8.149900 0.000000
-8.124800 0.000000
-8.099600 0.000000
-8.074500 0.000000
-8.049400 0.781300
-8.024300 1.993700
-7.999100 4.762500
-7.974000 7.718900
-7.948900 6.951900
-7.923700 6.026100
-7.898600 6.100500
-7.873500 6.670300
-7.848400 7.359100
-7.823200 8.850300
-7.798100 10.473800
-7.773000 8.459800
-7.747800 7.330100
-7.722700 9.866600
-7.697600 9.239600
-7.672500 8.779200
-7.647300 8.779800
-7.622200 13.499300
-7.597100 9.154700
-7.571900 5.986300
-7.546800 8.932400
-7.521700 2.656400
-7.496600 0.000000
-7.471400 0.000000
-7.446300 0.000000
-7.421200 0.000000
-7.396000 0.000000
-7.370900 0.000000
-7.345800 0.000000
-7.320700 0.000000
-7.295500 0.000000
-7.270400 14.858900
-7.245300 11.869200
-7.220100 16.174700
-7.195000 12.006600
-7.169900 19.723800
-7.144800 31.836000
-7.119600 31.346800
-7.094500 39.847900
-7.069400 24.971600
-7.044200 10.023500
-7.019100 11.129300
-6.994000 18.219000
-6.968900 13.572800
-6.943700 19.901700
-6.918600 29.127400
-6.893500 32.677000
-6.868300 18.803500
-6.843200 15.522400
-6.818100 19.188600
-6.793000 18.202500
-6.767800 29.483700
-6.742700 22.165500
-6.717600 18.415200
-6.692400 16.120600
-6.667300 16.797000
-6.642200 15.939300
-6.617100 15.595600
-6.591900 15.872500
-6.566800 21.181100
-6.541700 14.658400
-6.516500 8.972900
-6.491400 8.959600
-6.466300 4.169500
-6.441200 7.357100
-6.416000 6.600200
-6.390900 0.000000
-6.365800 0.000000
-6.340600 0.000000
-6.315500 0.000000
-6.290400 0.000000
-6.265300 0.000000
-6.240100 0.000000
-6.215000 0.000000
-6.189900 16.777900
-6.164700 20.640100
-6.139600 18.242700
-6.114500 26.623500
-6.089400 44.677200
-6.064200 40.640000
-6.039100 41.854100
-6.014000 50.565900
-5.988800 55.123600
-5.963700 30.778700
-5.938600 34.437700
-5.913500 72.994800
-5.888300 18.818400
-5.863200 16.053800
-5.838100 14.175900
-5.812900 19.859400
-5.787800 30.975300
-5.762700 33.573000
-5.737600 20.573700
-5.712400 41.978700
-5.687300 14.546300
-5.662200 22.764800
-5.637000 26.591200
-5.611900 25.743000
-5.586800 15.963100
-5.561700 31.243100
-5.536500 24.418000
-5.511400 31.992100
-5.486300 24.830700
-5.461100 29.235300
-5.436000 34.424600
-5.410900 29.970400
-5.385800 35.543500
-5.360600 40.063100
-5.335500 16.275900
-5.310400 43.251200
-5.285300 22.812900
-5.260100 31.492000
-5.235000 30.269400
-5.209900 26.568300
-5.184700 37.232700
-5.159600 54.174000
-5.134500 28.629200
-5.109400 33.518800
-5.084200 34.850000
-5.059100 78.317200
-5.034000 50.796000
-5.008800 217.954100
-4.983700 11.137400
-4.958600 11.101500
-4.933500 17.442400
-4.908300 12.246300
-4.883200 13.091600
-4.858100 15.020200
-4.832900 5.007700
-4.807800 5.216700
-4.782700 5.425700
-4.757600 4.608700
-4.732400 4.591200
-4.707300 7.006100
-4.682200 12.852600
-4.657000 13.200300
-4.631900 9.695400
-4.606800 8.530000
-4.581700 7.545700
-4.556500 8.804500
-4.531400 7.768300
-4.506300 6.732200
-4.481100 7.073100
-4.456000 4.644100
-4.430900 6.063500
-4.405800 7.178600
-4.380600 7.522300
-4.355500 7.377200
-4.330400 4.413400
-4.305200 6.676600
-4.280100 1.946300
-4.255000 2.101900
-4.229900 2.257400
-4.204700 2.413000
-4.179600 2.633500
-4.154500 4.631500
-4.129300 5.896800
-4.104200 7.405300
-4.079100 7.754200
-4.054000 8.111000
-4.028800 7.330600
-4.003700 7.763800
-3.978600 7.769400
-3.953400 7.315700
-3.928300 6.813000
-3.903200 7.911200
-3.878100 7.451500
-3.852900 7.000000
-3.827800 6.690700
-3.802700 6.981600
-3.777500 5.692600
-3.752400 2.250700
-3.727300 2.162300
-3.702200 2.073900
-3.677000 1.985500
-3.651900 1.985900
-3.626800 1.919200
-3.601600 1.812300
-3.576500 1.705500
-3.551400 1.598600
-3.526300 2.285800
-3.501100 2.957200
-3.476000 2.017200
-3.450900 0.000000
-3.425700 0.000000
-3.400600 0.000000
-3.375500 0.000000
-3.350400 4.805600
-3.325200 3.575000
-3.300100 3.244800
-3.275000 3.139800
-3.249800 3.057100
-3.224700 3.048300
-3.199600 3.089000
-3.174500 3.129600
-3.149300 3.170300
-3.124200 3.214000
-3.099100 3.258500
-3.073900 3.304500
-3.048800 3.479700
-3.023700 3.656200
-2.998600 3.842500
-2.973400 4.036800
-2.948300 4.210400
-2.923200 3.470900
-2.898000 3.535600
-2.872900 3.600400
-2.847800 3.659600
-2.822700 3.716600
-2.797500 3.773600
-2.772400 3.120000
-2.747300 3.072800
-2.722100 3.032600
-2.697000 2.994400
-2.671900 2.968000
-2.646800 2.987800
-2.621600 3.024400
-2.596500 3.060900
-2.571400 3.175600
-2.546200 3.374900
-2.521100 3.574300
-2.496000 3.773600
-2.470900 3.973000
-2.445700 3.217700
-2.420600 5.546300
-2.395500 3.601600
-2.370400 3.405800
-2.345200 3.210000
-2.320100 2.959600
-2.295000 2.610100
-2.269800 2.260600
-2.244700 1.911100
-2.219600 2.280400
-2.194500 1.634100
-2.169300 1.256300
-2.144200 0.878400
-2.119100 0.500600
-2.093900 0.122700
-2.068800 0.000000
-2.043700 0.178600
-2.018600 0.605900
-1.993400 1.112500
-1.968300 2.109000
-1.943200 2.359700
-1.918000 3.040600
-1.892900 3.061400
-1.867800 3.073500
-1.842700 3.085600
-1.817500 3.097700
-1.792400 3.109900
-1.767300 3.122000
-1.742100 3.143700
-1.717000 3.222700
-1.691900 3.742700
-1.666800 4.438100
-1.641600 5.203500
-1.616500 5.968900
-1.591400 5.353900
-1.566200 5.642000
-1.541100 5.930000
-1.516000 6.325000
-1.490900 9.747000
-1.465700 6.007200
-1.440600 4.619900
-1.415500 4.519800
-1.390300 4.410200
-1.365200 5.815400
-1.340100 5.585800
-1.315000 5.207200
-1.289800 4.401100
-1.264700 4.292500
-1.239600 4.061800
-1.214400 3.831200
-1.189300 6.088700
-1.164200 6.900700
-1.139100 7.320700
-1.113900 11.376200
-1.088800 8.819700
-1.063700 8.750900
-1.038500 7.800300
-1.013400 15.522900
-0.988300 15.059200
-0.963200 24.535700
-0.938000 16.698300
-0.912900 20.490900
-0.887800 20.423100
-0.862600 12.605000
-0.837500 17.373400
-0.812400 14.405100
-0.787300 14.319000
-0.762100 18.268700
-0.737000 15.541500
-0.711900 14.399300
-0.686700 17.270100
-0.661600 34.441000
-0.636500 25.915400
-0.611400 13.787400
-0.586200 11.058700
-0.561100 9.368600
-0.536000 12.222000
-0.510800 13.294100
-0.485700 19.484000
-0.460600 18.659900
-0.435500 11.908300
-0.410300 7.711400
-0.385200 5.105300
-0.360100 5.098600
-0.334900 7.767600
-0.309800 4.609300
-0.284700 3.982800
-0.259600 0.000000
-0.234400 0.000000
-0.209300 0.000000
-0.184200 0.000000
-0.159000 0.000000
-0.133900 0.000000
-0.108800 0.000000
-0.083700 0.000000
-0.058500 0.000000
-0.033400 0.000000
-0.008300 0.000000
0.016900 0.000000
0.042000 0.000000
0.067100 0.000000
0.092200 0.000000
0.117400 0.000000
0.142500 0.000000
0.167600 0.000000
0.192800 0.000000
0.217900 0.000000
0.243000 0.000000
0.268100 0.000000
0.293300 0.000000
0.318400 0.000000
0.343500 0.000000
0.368700 0.000000
0.393800 0.000000
0.418900 0.000000
0.444000 0.000000
0.469200 0.000000
0.494300 0.000000
0.519400 0.000000
0.544500 0.000000
0.569700 0.000000
0.594800 0.000000
0.619900 0.000000
0.645100 0.000000
0.670200 0.000000
0.695300 0.000000
0.720400 0.000000
0.745600 0.000000
0.770700 0.000000
0.795800 0.000000
0.821000 0.000000
0.846100 0.000000
0.871200 0.000000
0.896300 0.000000
0.921500 0.000000
0.946600 0.000000
0.971700 0.000000
0.996900 0.000000
1.022000 0.000000
1.047100 0.000000
1.072200 0.000000
1.097400 0.000000
1.122500 0.000000
1.147600 0.000000
1.172800 0.000000
1.197900 0.000000
1.223000 0.000000
1.248100 0.000000
1.273300 0.000000
1.298400 0.000000
1.323500 0.000000
1.348700 0.000000
1.373800 0.000000
1.398900 0.000000
1.424000 0.000000
1.449200 0.000000
1.474300 0.000000
1.499400 0.000000
1.524600 0.000000
1.549700 0.000000
1.574800 0.000000
1.599900 0.000000
1.625100 0.000000
1.650200 0.000000
1.675300 0.000000
1.700500 0.000000
1.725600 0.000000
1.750700 0.000000
1.775800 0.000000
1.801000 0.000000
1.826100 0.000000
1.851200 0.000000
1.876400 0.000000
1.901500 0.000000
1.926600 0.000000
1.951700 0.000000
1.976900 0.000000
2.002000 0.000000
2.027100 3.305700
2.052300 16.420400
2.077400 7.877000
2.102500 21.763600
2.127600 9.900100
2.152800 9.036800
2.177900 6.788600
2.203000 6.592600
2.228200 6.349800
2.253300 6.018000
2.278400 5.638500
2.303500 5.259300
2.328700 4.801100
2.353800 4.428500
2.378900 4.191700
2.404100 4.001900
2.429200 3.919000
2.454300 3.772400
2.479400 3.620100
2.504600 7.212400
2.529700 2.177200
2.554800 2.245600
2.580000 2.425600
2.605100 2.605600
2.630200 4.090900
2.655300 4.426100
2.680500 4.703600
2.705600 5.284400
2.730700 3.138400
2.755900 1.161000
2.781000 0.985700
2.806100 0.810300
2.831200 0.748700
2.856400 0.778600
2.881500 0.808500
2.906600 0.838400
2.931800 0.868300
2.956900 0.898300
2.982000 1.049400
3.007100 1.290000
3.032300 1.530500
3.057400 1.771000
3.082500 0.649100
3.107700 0.649500
3.132800 12.999900
3.157900 1.333900
3.183000 1.334000
3.208200 1.334100
3.233300 1.334200
3.258400 1.334300
3.283600 1.334400
3.308700 1.334500
3.333800 1.334600
3.358900 1.334700
3.384100 1.334800
3.409200 1.334900
3.434300 1.334900
3.459400 1.335000
3.484600 1.335100
3.509700 1.335200
3.534800 1.335300
3.560000 1.335400
3.585100 1.625300
3.610200 1.924200
3.635300 2.399400
3.660500 3.295500
3.685600 4.050500
3.710700 4.427300
3.735900 4.786400
3.761000 5.103900
3.786100 5.673200
3.811200 6.060800
3.836400 6.373300
3.861500 6.685800
3.886600 6.635700
3.911800 7.761100
3.936900 5.957000
3.962000 4.922400
3.987100 3.695700
4.012300 3.542700
4.037400 3.538800
4.062500 4.065700
4.087700 8.493300
4.112800 8.227200
4.137900 8.081300
4.163000 10.278200
4.188200 5.943300
4.213300 5.409200
4.238400 4.817500
4.263600 4.225700
4.288700 3.634000
4.313800 5.486000
4.338900 5.441200
4.364100 7.212800
4.389200 16.540500
4.414300 9.773600
4.439500 8.869600
4.464600 7.965600
4.489700 6.197000
4.514800 7.066900
4.540000 7.490500
4.565100 9.346100
4.590200 8.033300
4.615400 6.316400
4.640500 7.193000
4.665600 9.369000
4.690700 10.627000
4.715900 9.960500
4.741000 14.497600
4.766100 10.868900
4.791300 10.391200
4.816400 11.060900
4.841500 10.592900
4.866600 9.118200
4.891800 8.928100
4.916900 11.772300
4.942000 10.707500
4.967200 14.636900
4.992300 14.061500
5.017400 15.500200
5.042500 7.162500
5.067700 9.155100
5.092800 7.213300
5.117900 6.293600
5.143100 17.904700
5.168200 7.741200
5.193300 8.671900
5.218400 12.811200
5.243600 10.885600
5.268700 8.248600
5.293800 7.020800
5.319000 5.483700
5.344100 4.622200
5.369200 4.085500
5.394300 3.626200
5.419500 4.417100
5.444600 3.772600
5.469700 5.625600
5.494900 8.608900
5.520000 6.858700
5.545100 6.380400
5.570200 6.497000
5.595400 6.432100
5.620500 6.496600
5.645600 10.134100
5.670800 11.413500
5.695900 8.677200
5.721000 7.501100
5.746100 7.038700
5.771300 7.874800
5.796400 8.094200
5.821500 7.856900
5.846700 6.906800
5.871800 5.645400
5.896900 4.940400
5.922000 4.690000
5.947200 3.895300
5.972300 3.758700
5.997400 6.443300
6.022600 3.030800
6.047700 2.856400
6.072800 6.720700
6.097900 5.009700
6.123100 4.084400
6.148200 3.474000
6.173300 3.283600
6.198500 3.970000
6.223600 6.430000
6.248700 6.594100
6.273800 6.502700
6.299000 7.904000
6.324100 6.749700
6.349200 6.042300
6.374300 11.458200
6.399500 2.955600
6.424600 3.049500
6.449700 3.143300
6.474900 3.237200
6.500000 3.921900
6.525100 4.211200
6.550200 4.578600
6.575400 4.146500
6.600500 4.354000
6.625600 5.060900
6.650800 5.697600
6.675900 6.088800
6.701000 6.466900
6.726100 8.900400
6.751300 6.038100
6.776400 4.967700
6.801500 3.897400
6.826700 3.586300
6.851800 3.342800
6.876900 3.056400
6.902000 7.059500
6.927200 5.399500
6.952300 4.579700
6.977400 3.922100
7.002600 3.314700
7.027700 4.382600
7.052800 3.718900
7.077900 3.179500
7.103100 2.697600
7.128200 2.926000
7.153300 3.487600
7.178500 3.871400
7.203600 4.117500
7.228700 4.274700
7.253800 4.431800
7.279000 4.588900
7.304100 4.746000
7.329200 5.535800
7.354400 6.234000
7.379500 3.751100
7.404600 3.538300
7.429700 6.004200
7.454900 7.279900
7.480000 3.504500
7.505100 2.848200
7.530300 2.049800
7.555400 2.043800
7.580500 2.037900
7.605600 2.031900
7.630800 3.965600
7.655900 3.462100
7.681000 2.958700
7.706200 2.653500
7.731300 2.399300
7.756400 2.528100
7.781500 2.872900
7.806700 4.799100
7.831800 6.690700
7.856900 6.895400
7.882100 6.979000
7.907200 6.290500
7.932300 6.063700
7.957400 6.579100
7.982600 6.680400
8.007700 5.129600
8.032800 5.396500
8.058000 5.984200
8.083100 6.794600
8.108200 7.577800
8.133300 7.985800
8.158500 8.600600
8.183600 10.190600
8.208700 6.692400
8.233900 7.157800
8.259000 6.645700
8.284100 7.234400
8.309200 5.022700
8.334400 4.930000
8.359500 4.933600
8.384600 5.101000
8.409800 5.135700
8.434900 7.160600
8.460000 7.768500
8.485100 12.590200
8.510300 6.066500
8.535400 6.034700
8.560500 6.510800
8.585700 6.932800
8.610800 7.465200
8.635900 6.600200
8.661000 6.360900
8.686200 8.059700
8.711300 6.101000
8.736400 7.802400
8.761600 6.537800
8.786700 6.805100
8.811800 6.563500
8.836900 6.321900
8.862100 6.305200
8.887200 5.974400
8.912300 5.643500
8.937500 6.499000
8.962600 5.947900
8.987700 5.396900
9.012800 4.845800
9.038000 4.294800
9.063100 5.567900
9.088200 5.227300
9.113400 4.886700
9.138500 4.546100
9.163600 4.179800
9.188700 4.883900
9.213900 5.911800
9.239000 5.182200
9.264100 5.636900
9.289200 6.091600
9.314400 5.312200
9.339500 5.482100
9.364600 5.449300
9.389800 5.477000
9.414900 13.037200
9.440000 7.485800
9.465100 7.969500
9.490300 7.668700
9.515400 6.751400
9.540500 6.716200
9.565700 6.433800
9.590800 4.543200
9.615900 3.616000
9.641000 2.758500
9.666200 2.261100
9.691300 1.763800
9.716400 1.266400
9.741600 0.704500
9.766700 0.705400
9.791800 0.706200
9.816900 1.494300
9.842100 2.978300
9.867200 3.225000
9.892300 3.442500
9.917500 3.341400
9.942600 4.026400
9.967700 4.147900
9.992800 4.269400
10.018000 4.403300
10.043100 4.886100
10.068200 5.368900
10.093400 5.851600
10.118500 5.018400
10.143600 5.110900
10.168700 5.203500
10.193900 10.030700
10.219000 4.885100
10.244100 5.600800
10.269300 6.316500
10.294400 5.678800
10.319500 5.340100
10.344600 6.266700
10.369800 5.347400
10.394900 6.271300
10.420000 8.229200
10.445200 10.161700
10.470300 12.011900
10.495400 8.779900
10.520500 8.740400
10.545700 7.144700
10.570800 7.456600
10.595900 7.078400
10.621100 7.210600
10.646200 7.441100
10.671300 6.233300
10.696400 14.133200
10.721600 6.568900
10.746700 6.653200
10.771800 6.973500
10.797000 8.563800
10.822100 9.012500
10.847200 12.512200
10.872300 10.664600
10.897500 10.192600
10.922600 9.638700
10.947700 9.415000
10.972900 9.545000
10.998000 8.119400
11.023100 7.902000
11.048200 9.326500
11.073400 13.029000
11.098500 10.481700
11.123600 12.407100
11.148800 9.045500
11.173900 7.723500
11.199000 6.919000
11.224100 10.066600
11.249300 11.754000
11.274400 9.996900
11.299500 19.246100
11.324700 15.925600
11.349800 14.140500
11.374900 8.415900
11.400000 5.953000
11.425200 6.352800
11.450300 8.915600
11.475400 8.844500
11.500600 9.835200
11.525700 12.199400
11.550800 13.603800
11.575900 11.723500
11.601100 12.493600
11.626200 13.740500
11.651300 15.039300
11.676500 11.981700
11.701600 11.279200
11.726700 12.282400
11.751800 9.366000
11.777000 7.169100
11.802100 6.321200
11.827200 6.322600
11.852400 7.572800
11.877500 8.409800
11.902600 8.573100
11.927700 8.444900
11.952900 7.824500
11.978000 7.814100
12.003100 7.812600
12.028300 7.933100
12.053400 8.397200
12.078500 7.865600
12.103600 7.020000
12.128800 8.196900
12.153900 4.079900
12.179000 3.804100
12.204100 3.528300
12.229300 4.885100
12.254400 9.486000
12.279500 10.516400
12.304700 9.063900
12.329800 7.611300
12.354900 6.785100
12.380000 6.319500
12.405200 3.715900
12.430300 4.384300
12.455400 5.216900
12.480600 5.525100
12.505700 5.004800
12.530800 14.379500
12.555900 9.710500
12.581100 11.379300
12.606200 6.328900
12.631300 4.998000
12.656500 4.620600
12.681600 4.365000
12.706700 4.317500
12.731800 3.916100
12.757000 4.236400
12.782100 4.556600
12.807200 5.515300
12.832400 8.724800
12.857500 8.985200
12.882600 8.111400
12.907700 7.881600
12.932900 5.715900
12.958000 5.298400
12.983100 4.913700
13.008300 4.767900
13.033400 5.237100
13.058500 4.773200
13.083600 4.362500
13.108800 4.461400
13.133900 3.532800
13.159000 6.018200
13.184200 8.179200
13.209300 9.340200
13.234400 7.863300
13.259500 6.846800
13.284700 6.534100
13.309800 6.953200
13.334900 8.801800
13.360100 6.333000
13.385200 5.823000
13.410300 5.204000
13.435400 5.179300
13.460600 5.155000
13.485700 4.524900
13.510800 4.615800
13.536000 5.470500
13.561100 6.141900
13.586200 6.123900
13.611300 2.381200
13.636500 2.761900
13.661600 3.003700
13.686700 3.043500
13.711900 3.364100
13.737000 4.361500
13.762100 5.452000
13.787200 16.360700
13.812400 12.496400
13.837500 9.529600
13.862600 6.159000
13.887800 6.519600
13.912900 8.253400
13.938000 3.200000
13.963100 6.244400
13.988300 5.127300
14.013400 5.638100
14.038500 7.388700
14.063700 6.495600
14.088800 7.972000
14.113900 8.203100
14.139000 7.146000
14.164200 6.936500
14.189300 6.892800
14.214400 4.497800
14.239600 4.444400
14.264700 6.399200
14.289800 8.701200
14.314900 8.426400
14.340100 6.039800
14.365200 6.818300
14.390300 7.927600
14.415500 5.167200
14.440600 5.806600
14.465700 5.871500
14.490800 6.135500
14.516000 9.064300
14.541100 2.596500
14.566200 10.944700
14.591400 8.168700
14.616500 8.254800
14.641600 8.685300
14.666700 4.959400
14.691900 6.269600
14.717000 4.988600
14.742100 4.080000
14.767300 3.983600
14.792400 4.231400
14.817500 4.538400
14.842600 4.845400
14.867800 5.935300
14.892900 6.263200
14.918000 7.427600
14.943200 8.184400
14.968300 14.922600
14.993400 11.300000
15.018500 5.077000
15.043700 4.245200
15.068800 4.056000
15.093900 3.867100
15.119000 3.889500
15.144200 3.911800
15.169300 3.934100
15.194400 4.406700
15.219600 4.490500
15.244700 4.634000
15.269800 5.456300
15.294900 6.767900
15.320100 6.203300
15.345200 5.639500
15.370300 5.305800
15.395500 7.341500
15.420600 8.686500
15.445700 7.844000
15.470800 4.922000
15.496000 3.887000
15.521100 5.479000
15.546200 6.584200
15.571400 9.913000
15.596500 16.712900
15.621600 9.664500
15.646700 10.005200
15.671900 8.701700
15.697000 8.983500
15.722100 9.682500
15.747300 8.534500
15.772400 6.871800
15.797500 6.029900
15.822600 6.537000
15.847800 7.267100
15.872900 7.854200
15.898000 8.668300
15.923200 6.352600
15.948300 5.537500
15.973400 5.423000
15.998500 4.911700
16.023700 4.835500
16.048800 4.956800
16.073900 5.122700
16.099100 8.998000
16.124200 7.982000
16.149300 7.212600
16.174400 8.856400
16.199600 9.673800
16.224700 10.698700
16.249800 9.066800
16.275000 8.481300
16.300100 7.956300
16.325200 7.431300
16.350300 7.093200
16.375500 5.253400
16.400600 14.979400
16.425700 8.437100
16.450900 9.258600
16.476000 10.636900
16.501100 8.571200
16.526200 9.113300
16.551400 10.600100
16.576500 9.804700
16.601600 8.734500
16.626800 7.993100
16.651900 7.349400
16.677000 7.556700
16.702100 7.037000
16.727300 9.034000
16.752400 7.423600
16.777500 7.044300
16.802700 7.917200
16.827800 11.134600
16.852900 11.386800
16.878000 11.390500
16.903200 11.782800
16.928300 8.043900
16.953400 6.708900
16.978600 6.380800
17.003700 5.647400
17.028800 5.372300
17.053900 5.167800
17.079100 5.067300
17.104200 5.140500
17.129300 4.541800
17.154500 5.132500
17.179600 6.827200
17.204700 10.319600
17.229800 11.681100
17.255000 12.834000
17.280100 6.266500
17.305200 6.353200
17.330400 8.378800
17.355500 8.293700
17.380600 10.264400
17.405700 11.457500
17.430900 5.997500
17.456000 5.678600
17.481100 5.698600
17.506300 12.988700
17.531400 8.604700
17.556500 10.346300
17.581600 11.274200
17.606800 7.841200
17.631900 6.334900
17.657000 5.727400
17.682200 6.532500
17.707300 10.081300
17.732400 7.409000
17.757500 6.448300
17.782700 5.469400
17.807800 5.860000
17.832900 6.281600
17.858100 6.619500
17.883200 5.705000
17.908300 7.413700
17.933400 8.432100
17.958600 8.546700
17.983700 10.862200
18.008800 8.006900
18.033900 6.076800
18.059100 5.177000
18.084200 6.389400
18.109300 11.564200
18.134500 9.456600
18.159600 8.439900
18.184700 8.894600
18.209800 7.836300
18.235000 5.568500
18.260100 6.331600
18.285200 9.541600
18.310400 9.732300
18.335500 8.347200
18.360600 10.245700
18.385700 11.189400
18.410900 9.641000
18.436000 11.020700
18.461100 9.796200
18.486300 8.414300
18.511400 7.488900
18.536500 7.352700
18.561600 7.464300
18.586800 7.217600
18.611900 7.177200
18.637000 8.252100
18.662200 8.101000
18.687300 9.392200
18.712400 8.526700
18.737500 8.774900
18.762700 9.107900
18.787800 9.475400
18.812900 9.475300
18.838100 9.926500
18.863200 9.260300
18.888300 8.594000
18.913400 10.040000
18.938600 12.171800
18.963700 11.018100
18.988800 10.677200
19.014000 9.644900
19.039100 7.069000
19.064200 7.409800
19.089300 9.007000
19.114500 6.022300
19.139600 5.614500
19.164700 8.074600
19.189900 10.676800
19.215000 8.767600
19.240100 7.049900
19.265200 5.694500
19.290400 9.848200
19.315500 6.703100
19.340600 7.425800
19.365800 7.748000
19.390900 7.721800
19.416000 7.776100
19.441100 8.552800
19.466300 9.362000
19.491400 9.280200
19.516500 9.033100
19.541700 8.861700
19.566800 14.830500
19.591900 12.175000
19.617000 11.268900
19.642200 10.590500
19.667300 10.616700
19.692400 11.939800
19.717600 11.966400
19.742700 11.307500
19.767800 10.658100
19.792900 8.905600
19.818100 8.731900
19.843200 8.571500
19.868300 7.041900
19.893500 7.058000
19.918600 7.229300
19.943700 7.672400
19.968800 8.145800
19.994000 8.625000
20.019100 9.609300
20.044200 10.145400
20.069400 8.870700
20.094500 8.545900
20.119600 9.671600
20.144700 9.159200
20.169900 8.670500
20.195000 8.252600
20.220100 8.153100
20.245300 8.107200
20.270400 8.172300
20.295500 7.664200
20.320600 8.006900
20.345800 10.819700
20.370900 10.473600
20.396000 9.115800
20.421200 8.790500
20.446300 8.565800
20.471400 8.520400
20.496500 8.929200
20.521700 8.301800
20.546800 7.306400
20.571900 7.604200
20.597100 7.990500
20.622200 8.493400
20.647300 7.993200
20.672400 8.609100
20.697600 14.330200
20.722700 11.290900
20.747800 9.638500
20.773000 12.120100
20.798100 10.584200
20.823200 10.016800
20.848300 10.575800
20.873500 10.835500
20.898600 13.422500
20.923700 9.068600
20.948800 8.878800
20.974000 9.487100
20.999100 9.433900
21.024200 11.651900
21.049400 12.462200
21.074500 10.208400
21.099600 10.455400
21.124700 10.403200
21.149900 10.286600
21.175000 10.181300
21.200100 9.668700
21.225300 10.129900
21.250400 10.618700
21.275500 8.461100
21.300600 8.906300
21.325800 9.102900
21.350900 10.213000
21.376000 11.031400
21.401200 13.496500
21.426300 6.852300
21.451400 6.875500
21.476500 6.954800
21.501700 7.439900
21.526800 8.628200
21.551900 10.297800
21.577100 12.176000
21.602200 14.013400
21.627300 9.008800
21.652400 9.347900
21.677600 9.762800
21.702700 10.054800
21.727800 24.658300
21.753000 11.149100
21.778100 10.248100
21.803200 9.205600
21.828300 9.395300
21.853500 8.305700
21.878600 8.749600
21.903700 8.279800
21.928900 9.056200
21.954000 10.282700
21.979100 10.678500
22.004200 10.785500
22.029400 10.914900
22.054500 9.957700
22.079600 13.835900
22.104800 11.367800
22.129900 11.813300
22.155000 5.783800
22.180100 5.893300
22.205300 6.092500
22.230400 6.301200
22.255500 9.335500
22.280700 7.220400
22.305800 7.290900
22.330900 8.690000
22.356000 8.615800
22.381200 9.204000
22.406300 6.206900
22.431400 5.371900
22.456600 7.178500
22.481700 6.695200
22.506800 6.213200
22.531900 5.706600
22.557100 4.745200
22.582200 3.678100
22.607300 3.111700
22.632500 3.139900
22.657600 3.172200
22.682700 4.288500
22.707800 14.355100
22.733000 1.461800
22.758100 1.492000
22.783200 2.093700
22.808400 2.012800
22.833500 1.934900
22.858600 2.703200
22.883700 2.445800
22.908900 2.189700
22.934000 1.900700
22.959100 1.098400
22.984300 0.283900
23.009400 0.002000
23.034500 0.000000
23.059600 0.000000
23.084800 0.000000
23.109900 0.000000
23.135000 0.000000
23.160200 0.000000
23.185300 0.000000
23.210400 0.000000
23.235500 0.000000
23.260700 0.000000
23.285800 0.000000
23.310900 0.000000
23.336100 0.000000
23.361200 0.000000
23.386300 0.000000
23.411400 0.000000
23.436600 0.000000
23.461700 0.000000
23.486800 0.000000
23.512000 0.000000
23.537100 0.000000
23.562200 0.000000
23.587300 0.000000
23.612500 0.000000
23.637600 0.000000
23.662700 0.000000
23.687900 0.000000
23.713000 0.000000
23.738100 0.000000
23.763200 0.000000
23.788400 0.000000
23.813500 0.000000
23.838600 0.000000
23.863700 0.000000
23.888900 0.000000
23.914000 0.000000
23.939100 0.000000
23.964300 0.000000
23.989400 0.000000
24.014500 0.000000
24.039600 0.000000
24.064800 0.000000
24.089900 0.000000
24.115000 0.000000
24.140200 0.000000
24.165300 0.000000
24.190400 0.000000
24.215500 0.000000
24.240700 0.000000
24.265800 0.000000
24.290900 0.000000
24.316100 0.000000
24.341200 0.000000
24.366300 0.000000
24.391400 0.000000
24.416600 0.000000
24.441700 0.000000
24.466800 0.000000
24.492000 0.000000
24.517100 0.000000
24.542200 0.000000
24.567300 0.000000
24.592500 0.000000
24.617600 0.000000
24.642700 0.000000
24.667900 0.000000
24.693000 0.000000
24.718100 0.000000
24.743200 0.000000
24.768400 0.000000
24.793500 0.000000
24.818600 0.000000
24.843800 0.000000
24.868900 0.000000
24.894000 0.000000
24.919100 0.000000
24.944300 0.000000
24.969400 0.000000
24.994500 0.000000
25.019700 0.000000
25.044800 0.000000
25.069900 0.000000
25.095000 0.000000
25.120200 0.000000
25.145300 0.000000
25.170400 0.000000
25.195600 0.000000
25.220700 0.000000
25.245800 0.000000
25.270900 0.000000
25.296100 0.000000
e
