set title 'mp-569766 - Density of States'
set xlabel 'Energy (eV)'
set ylabel 'DOS (states/eV)'
set grid
set xrange [-10:10]
set yrange [0:28.126]
set xzeroaxis lt -1
set terminal png size 800,600
set output 'mp-569766_dos_gnuplot.png'
plot '-' using 1:2 with lines title 'DOS'
-11.777100 0.000000
-11.761400 0.000000
-11.745800 0.000000
-11.730100 0.000000
-11.714500 0.000000
-11.698800 0.000000
-11.683200 0.000000
-11.667500 0.000000
-11.651900 0.000000
-11.636200 0.000000
-11.620600 0.000000
-11.604900 0.000000
-11.589300 0.000000
-11.573600 0.000000
-11.558000 0.000000
-11.542300 0.000000
-11.526700 0.000000
-11.511000 0.000000
-11.495400 0.000000
-11.479700 0.000000
-11.464100 0.000000
-11.448400 0.000000
-11.432800 0.000000
-11.417100 0.000000
-11.401500 0.000000
-11.385800 0.000000
-11.370200 0.000000
-11.354500 0.000000
-11.338900 0.000000
-11.323200 0.000000
-11.307600 0.000000
-11.291900 0.000000
-11.276300 0.000000
-11.260600 0.000000
-11.245000 0.000000
-11.229300 0.000000
-11.213700 0.000000
-11.198000 0.000000
-11.182400 0.000000
-11.166700 0.000000
-11.151100 0.000000
-11.135400 0.000000
-11.119800 0.000000
-11.104100 0.000000
-11.088500 0.000000
-11.072800 0.000000
-11.057200 0.000000
-11.041500 0.000000
-11.025900 0.000000
-11.010200 0.000000
-10.994600 0.000000
-10.978900 0.000000
-10.963300 0.000000
-10.947600 0.000000
-10.932000 0.000000
-10.916300 0.000000
-10.900700 0.000000
-10.885000 0.000000
-10.869400 0.000000
-10.853700 0.000000
-10.838100 0.000000
-10.822400 0.000000
-10.806800 0.000000
-10.791100 0.000000
-10.775500 0.000000
-10.759800 0.000000
-10.744200 0.000000
-10.728500 0.000000
-10.712900 0.000000
-10.697200 0.000000
-10.681600 0.000000
-10.665900 0.000000
-10.650300 0.000000
-10.634600 0.000000
-10.619000 0.000000
-10.603300 0.000000
-10.587700 0.000000
-10.572000 0.000000
-10.556400 0.000000
-10.540700 0.000000
-10.525100 0.000000
-10.509400 0.000000
-10.493800 0.000000
-10.478100 0.000000
-10.462500 0.000000
-10.446800 0.000000
-10.431200 0.000000
-10.415500 0.000000
-10.399900 0.000000
-10.384200 0.000000
-10.368600 0.000000
-10.352900 0.000800
-10.337300 0.112400
-10.321600 0.413000
-10.306000 0.902900
-10.290300 1.674200
-10.274700 2.365900
-10.259000 2.778000
-10.243400 3.007500
-10.227700 3.046100
-10.212100 3.046200
-10.196400 3.046200
-10.180800 3.046200
-10.165100 3.046200
-10.149500 3.046200
-10.133800 3.046100
-10.118200 3.046000
-10.102500 3.045800
-10.086900 3.045600
-10.071200 3.045400
-10.055600 3.045100
-10.039900 3.044800
-10.024300 3.044400
-10.008600 2.993000
-9.993000 2.877100
-9.977300 3.419400
-9.961700 3.702100
-9.946000 4.074600
-9.930400 4.389700
-9.914700 4.927700
-9.899100 5.635900
-9.883400 6.085800
-9.867800 6.088300
-9.852100 6.090400
-9.836500 6.092300
-9.820800 6.093900
-9.805200 6.095100
-9.789500 6.096100
-9.773900 6.096800
-9.758200 6.097200
-9.742600 6.100500
-9.726900 6.106500
-9.711300 6.114700
-9.695600 6.125200
-9.680000 6.191800
-9.664300 6.286700
-9.648700 6.425300
-9.633000 6.492600
-9.617400 6.499800
-9.601700 6.506300
-9.586100 6.513600
-9.570400 6.521600
-9.554800 6.814100
-9.539100 7.190900
-9.523500 7.644300
-9.507800 5.967700
-9.492200 6.602800
-9.476500 7.435700
-9.460900 8.457300
-9.445200 4.845800
-9.429600 5.641000
-9.413900 6.296300
-9.398300 6.642600
-9.382600 6.829700
-9.367000 6.858200
-9.351300 6.807100
-9.335700 6.626300
-9.320000 6.700500
-9.304400 6.928400
-9.288700 7.275000
-9.273100 8.711500
-9.257400 9.830700
-9.241800 10.510000
-9.226100 10.525300
-9.210500 10.427800
-9.194800 10.269400
-9.179200 10.050000
-9.163500 9.695100
-9.147900 8.908300
-9.132200 7.873900
-9.116600 7.772700
-9.100900 7.777300
-9.085300 7.783200
-9.069600 7.790400
-9.054000 7.798800
-9.038300 7.808500
-9.022700 6.135400
-9.007000 5.550400
-8.991400 4.986100
-8.975700 4.322500
-8.960100 3.395700
-8.944400 2.501100
-8.928800 1.638700
-8.913100 0.000000
-8.897500 0.000000
-8.881800 0.000000
-8.866200 0.000000
-8.850500 0.000000
-8.834900 0.000000
-8.819200 0.000000
-8.803600 0.000000
-8.787900 0.000000
-8.772300 0.000000
-8.756600 0.000000
-8.741000 0.000000
-8.725300 0.000000
-8.709700 0.000000
-8.694000 0.000000
-8.678400 0.000000
-8.662700 0.000000
-8.647100 0.002000
-8.631400 0.102100
-8.615800 0.353700
-8.600100 0.756600
-8.584500 1.325500
-8.568800 2.272300
-8.553200 3.614600
-8.537500 4.844000
-8.521900 5.488300
-8.506200 6.206300
-8.490600 6.526200
-8.474900 6.606600
-8.459300 6.705300
-8.443600 6.806000
-8.428000 6.883900
-8.412300 6.983500
-8.396700 6.865300
-8.381000 5.296700
-8.365400 4.140400
-8.349700 4.141200
-8.334100 4.253100
-8.318400 4.776100
-8.302800 5.566300
-8.287100 6.467200
-8.271500 7.206200
-8.255800 8.300600
-8.240200 9.436300
-8.224500 10.084100
-8.208900 10.437200
-8.193200 10.524500
-8.177600 6.227600
-8.161900 25.569100
-8.146300 21.743400
-8.130600 13.405600
-8.115000 9.583200
-8.099300 6.034800
-8.083700 2.563000
-8.068000 0.508100
-8.052400 0.000000
-8.036700 0.000000
-8.021100 0.000000
-8.005400 0.000000
-7.989800 0.000000
-7.974100 0.000000
-7.958500 0.000000
-7.942800 0.000000
-7.927200 0.000000
-7.911500 0.000000
-7.895900 0.000000
-7.880200 0.000000
-7.864600 0.000000
-7.848900 0.000000
-7.833300 0.000000
-7.817600 0.000000
-7.802000 0.000000
-7.786300 0.000000
-7.770700 0.000000
-7.755000 0.000000
-7.739400 0.000000
-7.723700 0.000000
-7.708100 0.000000
-7.692400 0.000000
-7.676800 0.000000
-7.661100 0.000000
-7.645500 0.000000
-7.629800 0.000000
-7.614200 0.000000
-7.598500 0.000000
-7.582900 0.000000
-7.567200 0.000000
-7.551600 0.000000
-7.536000 0.000000
-7.520300 0.000000
-7.504700 0.000000
-7.489000 2.872700
-7.473400 2.872400
-7.457700 4.039100
-7.442100 4.038900
-7.426400 4.038600
-7.410800 4.038400
-7.395100 4.038200
-7.379500 4.038000
-7.363800 4.037800
-7.348200 4.037600
-7.332500 4.037400
-7.316900 4.037200
-7.301200 4.037100
-7.285600 4.037000
-7.269900 4.036800
-7.254300 4.036700
-7.238600 4.036600
-7.223000 4.036500
-7.207300 4.036500
-7.191700 4.036400
-7.176000 4.036300
-7.160400 4.036300
-7.144700 3.710300
-7.129100 3.451900
-7.113400 3.377200
-7.097800 3.377000
-7.082100 3.376800
-7.066500 3.376700
-7.050800 3.376500
-7.035200 3.376300
-7.019500 3.376200
-7.003900 3.376000
-6.988200 3.375800
-6.972600 3.375600
-6.956900 3.375500
-6.941300 3.375300
-6.925600 3.375100
-6.910000 3.374900
-6.894300 3.374700
-6.878700 3.374500
-6.863000 3.374300
-6.847400 3.374200
-6.831700 3.374000
-6.816100 3.373800
-6.800400 3.373600
-6.784800 3.373400
-6.769100 3.373200
-6.753500 3.373000
-6.737800 3.372800
-6.722200 3.291000
-6.706500 2.809500
-6.690900 2.261200
-6.675200 1.719300
-6.659600 1.348100
-6.643900 1.187000
-6.628300 1.166800
-6.612600 1.857200
-6.597000 2.375700
-6.581300 2.490000
-6.565700 2.489400
-6.550000 2.488900
-6.534400 2.488300
-6.518700 2.487800
-6.503100 2.487200
-6.487400 2.486700
-6.471800 2.486100
-6.456100 2.485600
-6.440500 2.485000
-6.424800 2.484500
-6.409200 2.483900
-6.393500 2.483400
-6.377900 2.482800
-6.362200 2.482300
-6.346600 2.481700
-6.330900 2.481200
-6.315300 2.480700
-6.299600 2.480100
-6.284000 2.479600
-6.268300 2.479000
-6.252700 2.423100
-6.237000 2.013000
-6.221400 1.565500
-6.205700 1.124500
-6.190100 0.702000
-6.174400 0.291500
-6.158800 0.020800
-6.143100 0.000000
-6.127500 0.000000
-6.111800 0.000000
-6.096200 0.000000
-6.080500 0.000000
-6.064900 0.000000
-6.049200 0.000000
-6.033600 0.000000
-6.017900 0.000000
-6.002300 0.000000
-5.986600 0.000000
-5.971000 0.000000
-5.955300 0.000000
-5.939700 0.000000
-5.924000 0.000000
-5.908400 0.000000
-5.892700 0.000000
-5.877100 0.000000
-5.861400 0.000000
-5.845800 0.000000
-5.830100 0.000000
-5.814500 0.000000
-5.798800 0.000000
-5.783200 0.000000
-5.767500 0.000000
-5.751900 0.000000
-5.736200 0.000000
-5.720600 0.000000
-5.704900 0.000000
-5.689300 0.000000
-5.673600 0.000000
-5.658000 0.000000
-5.642300 0.000000
-5.626700 0.000000
-5.611000 0.000000
-5.595400 0.000000
-5.579700 0.000000
-5.564100 0.000000
-5.548400 0.000000
-5.532800 0.000000
-5.517100 0.000000
-5.501500 0.000000
-5.485800 0.000000
-5.470200 0.000000
-5.454500 0.000000
-5.438900 0.000000
-5.423200 0.000000
-5.407600 0.000000
-5.391900 0.000000
-5.376300 0.000000
-5.360600 0.000000
-5.345000 0.000000
-5.329300 0.000000
-5.313700 0.000000
-5.298000 0.000000
-5.282400 0.000000
-5.266700 0.000000
-5.251100 0.000000
-5.235400 0.000000
-5.219800 0.000000
-5.204100 0.000000
-5.188500 0.000000
-5.172800 0.000000
-5.157200 0.000000
-5.141500 0.000000
-5.125900 0.000000
-5.110200 0.000000
-5.094600 0.000000
-5.078900 0.000000
-5.063300 0.000000
-5.047600 0.000000
-5.032000 0.000000
-5.016300 0.000000
-5.000700 0.000000
-4.985000 0.000000
-4.969400 0.000000
-4.953700 0.000000
-4.938100 0.000000
-4.922400 0.000000
-4.906800 0.000000
-4.891100 0.000000
-4.875500 0.000000
-4.859800 0.000000
-4.844200 0.000000
-4.828500 0.000000
-4.812900 0.000000
-4.797200 0.000000
-4.781600 0.000000
-4.765900 0.000000
-4.750300 0.000000
-4.734600 0.000000
-4.719000 0.000000
-4.703300 0.000000
-4.687700 0.000000
-4.672000 0.000000
-4.656400 0.000000
-4.640700 0.000000
-4.625100 0.000000
-4.609400 0.000000
-4.593800 0.000000
-4.578100 0.000000
-4.562500 0.000000
-4.546800 0.000000
-4.531200 0.000000
-4.515500 0.000000
-4.499900 0.000000
-4.484200 0.000000
-4.468600 0.000000
-4.452900 0.000000
-4.437300 0.000000
-4.421600 0.000000
-4.406000 0.000000
-4.390300 0.000000
-4.374700 0.000000
-4.359000 0.000000
-4.343400 0.000000
-4.327700 0.000000
-4.312100 0.000000
-4.296400 0.000000
-4.280800 0.000000
-4.265100 0.000000
-4.249500 0.000000
-4.233800 0.000000
-4.218200 0.000000
-4.202500 0.000000
-4.186900 0.000000
-4.171200 0.000000
-4.155600 0.000000
-4.139900 0.000000
-4.124300 0.000000
-4.108600 0.000000
-4.093000 0.000000
-4.077300 0.000000
-4.061700 0.000000
-4.046000 0.000000
-4.030400 0.000000
-4.014700 0.000000
-3.999100 0.000000
-3.983400 0.000000
-3.967800 0.000000
-3.952100 0.000000
-3.936500 0.000000
-3.920800 0.000000
-3.905200 0.000000
-3.889500 0.000000
-3.873900 0.000000
-3.858200 0.000000
-3.842600 0.000000
-3.826900 0.000000
-3.811300 0.000000
-3.795600 0.000000
-3.780000 0.000000
-3.764300 0.000000
-3.748700 0.000000
-3.733000 0.000000
-3.717400 0.000000
-3.701700 0.000000
-3.686100 0.000000
-3.670400 0.000000
-3.654800 0.000000
-3.639100 0.000000
-3.623500 0.000000
-3.607800 0.000000
-3.592200 0.000000
-3.576500 0.000000
-3.560900 0.000000
-3.545200 0.000000
-3.529600 0.000000
-3.513900 0.000000
-3.498300 0.000000
-3.482600 0.000000
-3.467000 0.000000
-3.451300 0.000000
-3.435700 0.000000
-3.420000 0.000000
-3.404400 0.000000
-3.388700 0.000000
-3.373100 0.000000
-3.357400 0.000000
-3.341800 0.000000
-3.326100 0.000000
-3.310500 0.000000
-3.294800 0.000000
-3.279200 0.000000
-3.263500 0.000000
-3.247900 0.000000
-3.232200 0.000000
-3.216600 0.000000
-3.200900 0.000000
-3.185300 0.000000
-3.169600 0.000000
-3.154000 0.000000
-3.138300 0.000000
-3.122700 0.000000
-3.107000 0.000000
-3.091400 0.000000
-3.075700 0.000000
-3.060100 0.000000
-3.044400 0.000000
-3.028800 0.000000
-3.013100 0.000000
-2.997500 0.000000
-2.981800 0.000000
-2.966200 0.000000
-2.950500 0.000000
-2.934900 0.000000
-2.919200 0.000000
-2.903600 0.000000
-2.887900 0.000000
-2.872300 0.000000
-2.856600 0.000000
-2.841000 0.000000
-2.825300 0.000000
-2.809700 0.000000
-2.794000 0.000000
-2.778400 0.000000
-2.762700 0.000000
-2.747100 0.000000
-2.731400 0.000000
-2.715800 0.000000
-2.700100 0.000000
-2.684500 0.000000
-2.668800 0.000000
-2.653200 0.000000
-2.637500 0.000000
-2.621900 0.000000
-2.606200 0.000000
-2.590600 0.000000
-2.574900 0.000000
-2.559300 0.000000
-2.543600 0.000000
-2.528000 0.000000
-2.512300 0.000000
-2.496700 0.000000
-2.481000 0.000000
-2.465400 0.000000
-2.449700 0.000000
-2.434100 0.000000
-2.418400 0.000000
-2.402800 0.000000
-2.387100 0.000000
-2.371500 0.000000
-2.355800 0.000000
-2.340200 0.000000
-2.324500 0.000000
-2.308900 0.000000
-2.293200 0.000000
-2.277600 0.000000
-2.261900 0.000000
-2.246300 0.000000
-2.230600 0.000000
-2.215000 0.000000
-2.199300 0.000000
-2.183700 0.000000
-2.168000 0.000000
-2.152400 0.000000
-2.136700 0.000000
-2.121100 0.000000
-2.105400 0.000000
-2.089800 0.000000
-2.074100 0.000000
-2.058500 0.000000
-2.042800 0.000000
-2.027200 0.000000
-2.011500 0.000000
-1.995900 0.000000
-1.980200 0.000000
-1.964600 0.000000
-1.948900 0.000000
-1.933300 0.000000
-1.917600 0.000000
-1.902000 0.000000
-1.886300 0.000000
-1.870700 0.334500
-1.855000 0.913700
-1.839400 1.520700
-1.823700 2.133000
-1.808100 2.684200
-1.792400 2.770700
-1.776800 2.970400
-1.761100 3.494000
-1.745500 4.034000
-1.729900 4.574400
-1.714200 5.093200
-1.698600 5.372900
-1.682900 5.403000
-1.667300 5.597200
-1.651600 6.172600
-1.636000 7.168600
-1.620300 7.783000
-1.604700 8.443300
-1.589000 9.150100
-1.573400 9.877500
-1.557700 10.443000
-1.542100 8.533000
-1.526400 8.637600
-1.510800 8.483900
-1.495100 8.268100
-1.479500 8.019800
-1.463800 8.134000
-1.448200 8.433100
-1.432500 8.939500
-1.416900 9.138000
-1.401200 8.471800
-1.385600 6.124000
-1.369900 4.799600
-1.354300 5.075700
-1.338600 5.691600
-1.323000 6.351300
-1.307300 7.004700
-1.291700 7.312900
-1.276000 7.426000
-1.260400 7.427700
-1.244700 7.431800
-1.229100 7.431700
-1.213400 7.429900
-1.197800 7.428400
-1.182100 7.427100
-1.166500 7.426000
-1.150800 7.425000
-1.135200 7.424300
-1.119500 7.420600
-1.103900 7.300100
-1.088200 7.080800
-1.072600 6.963700
-1.056900 6.905700
-1.041300 6.881600
-1.025600 6.857700
-1.010000 6.624200
-0.994300 6.291300
-0.978700 6.326900
-0.963000 6.465200
-0.947400 6.572500
-0.931700 6.583800
-0.916100 6.587800
-0.900400 7.030900
-0.884800 7.024300
-0.869100 7.152500
-0.853500 7.465900
-0.837800 8.151700
-0.822200 9.508300
-0.806500 9.941800
-0.790900 9.921000
-0.775200 9.925200
-0.759600 9.952000
-0.743900 9.986000
-0.728300 10.024700
-0.712600 10.068200
-0.697000 10.116300
-0.681300 7.661100
-0.665700 6.490300
-0.650000 5.443200
-0.634400 4.721300
-0.618700 4.525800
-0.603100 4.503700
-0.587400 6.265400
-0.571800 7.373200
-0.556100 7.260500
-0.540500 7.148000
-0.524800 7.035900
-0.509200 6.924400
-0.493500 6.820900
-0.477900 6.729300
-0.462200 6.642100
-0.446600 6.555000
-0.430900 6.467900
-0.415300 6.380900
-0.399600 6.198900
-0.384000 5.573200
-0.368300 5.152000
-0.352700 5.016100
-0.337000 4.890200
-0.321400 4.693700
-0.305700 4.517000
-0.290100 4.341800
-0.274400 4.157400
-0.258800 3.990900
-0.243100 3.926700
-0.227500 3.871300
-0.211800 3.825200
-0.196200 3.788600
-0.180500 3.739500
-0.164900 3.674900
-0.149200 3.610400
-0.133600 3.546000
-0.117900 3.481700
-0.102300 3.417600
-0.086600 3.356000
-0.071000 3.298200
-0.055300 3.245700
-0.039700 3.193600
-0.024000 3.141700
-0.008400 3.089900
0.007300 3.038200
0.022900 2.986800
0.038600 2.432700
0.054200 1.562900
0.069900 0.974800
0.085500 0.878600
0.101200 0.815500
0.116800 0.753900
0.132500 0.692300
0.148100 0.630700
0.163800 0.569100
0.179400 0.507500
0.195100 0.445900
0.210700 0.384200
0.226400 0.322500
0.242000 0.267400
0.257700 0.291100
0.273300 0.413600
0.289000 0.865800
0.304600 1.820000
0.320300 2.808300
0.335900 3.837500
0.351600 5.686300
0.367200 7.518200
0.382900 9.057700
0.398500 10.254600
0.414200 10.390700
0.429800 7.356200
0.445500 6.492100
0.461100 6.817800
0.476800 7.012800
0.492400 6.719300
0.508100 6.431200
0.523700 6.524600
0.539400 6.909000
0.555000 7.358000
0.570700 7.878800
0.586300 9.036900
0.602000 8.335100
0.617600 7.749200
0.633300 7.374200
0.648900 7.190600
0.664600 7.071100
0.680200 6.788100
0.695900 6.763300
0.711500 7.016400
0.727200 7.336500
0.742800 7.689300
0.758500 8.016800
0.774100 8.127000
0.789800 8.310100
0.805400 8.566200
0.821100 8.888000
0.836700 9.099900
0.852400 9.127400
0.868000 9.000500
0.883700 8.914300
0.899300 8.908500
0.915000 10.704700
0.930600 10.273600
0.946300 10.364400
0.961900 10.392000
0.977600 10.409200
0.993200 10.656900
1.008900 11.318500
1.024500 11.343000
1.040200 10.896100
1.055800 10.642400
1.071500 10.900800
1.087100 11.679800
1.102800 12.113400
1.118400 11.540800
1.134100 11.396800
1.149700 11.140700
1.165400 10.961900
1.181000 11.543100
1.196700 12.135300
1.212300 11.433500
1.228000 10.134700
1.243600 8.915300
1.259300 8.219100
1.274900 7.580700
1.290600 7.124200
1.306200 7.411400
1.321900 7.743700
1.337500 8.482600
1.353200 10.285500
1.368800 12.741600
1.384500 17.353200
1.400100 17.996600
1.415800 17.760000
1.431400 15.165200
1.447100 14.194600
1.462700 12.011000
1.478400 11.594600
1.494000 11.697600
1.509700 11.914900
1.525300 11.683000
1.541000 11.473100
1.556600 11.242500
1.572300 10.978900
1.587900 10.992000
1.603600 10.985900
1.619200 11.555100
1.634900 12.438500
1.650500 13.774200
1.666200 10.247900
1.681800 9.252800
1.697500 8.899300
1.713100 8.650200
1.728800 8.547700
1.744400 8.876500
1.760100 9.022500
1.775700 8.822500
1.791400 8.701200
1.807000 8.719500
1.822700 8.870900
1.838300 9.013700
1.854000 9.081400
1.869600 9.073100
1.885300 9.415800
1.900900 9.782200
1.916600 10.594200
1.932200 11.503600
1.947900 11.580900
1.963500 10.608600
1.979200 9.547800
1.994800 9.542900
2.010500 10.405200
2.026100 12.087400
2.041800 13.788500
2.057400 13.508100
2.073100 13.121000
2.088700 12.884300
2.104400 13.480400
2.120000 14.281300
2.135700 15.081600
2.151300 15.945600
2.167000 16.528800
2.182600 16.607700
2.198300 15.910700
2.213900 15.760400
2.229600 15.764500
2.245200 15.339000
2.260900 14.692900
2.276500 13.170500
2.292200 12.062500
2.307800 13.179700
2.323500 14.085500
2.339100 13.637600
2.354800 12.969900
2.370400 12.242900
2.386100 11.559400
2.401700 10.962600
2.417400 10.492200
2.433000 10.134200
2.448700 9.811600
2.464300 9.540200
2.480000 9.587600
2.495600 9.492000
2.511300 9.422800
2.526900 9.292700
2.542600 9.100800
2.558200 8.686400
2.573900 7.301300
2.589500 6.449400
2.605200 5.287100
2.620800 4.290000
2.636500 3.405200
2.652100 2.776400
2.667800 2.201300
2.683400 1.562400
2.699100 0.964600
2.714700 0.498600
2.730400 0.179800
2.746000 0.008100
2.761700 0.000000
2.777300 0.000000
2.793000 0.000000
2.808600 0.000000
2.824300 0.000000
2.839900 0.000000
2.855600 0.000000
2.871200 0.000000
2.886900 0.000000
2.902500 0.000000
2.918200 0.000000
2.933800 0.000000
2.949500 0.000000
2.965100 0.000000
2.980800 0.000000
2.996400 0.000000
3.012100 0.000000
3.027700 0.000000
3.043400 0.000000
3.059000 0.000000
3.074700 0.000000
3.090300 0.000000
3.106000 0.000000
3.121600 0.000000
3.137300 0.000000
3.152900 0.000000
3.168600 0.000000
3.184200 0.000000
3.199900 0.000000
3.215500 0.000000
3.231200 0.000000
3.246800 0.000000
3.262500 0.000000
3.278100 0.000000
3.293800 0.000000
3.309400 0.000000
3.325100 0.000000
3.340700 0.000000
3.356400 0.000000
3.372000 0.000000
3.387700 0.000000
3.403300 0.000000
3.419000 0.000000
3.434600 0.000000
3.450300 0.000000
3.465900 0.000000
3.481600 0.000000
3.497200 0.004000
3.512900 0.016300
3.528500 0.037000
3.544200 0.074000
3.559800 0.112700
3.575500 0.151400
3.591100 0.190200
3.606800 0.229000
3.622400 0.267800
3.638100 0.306600
3.653700 0.345400
3.669400 0.384300
3.685000 0.429400
3.700700 0.499900
3.716300 0.573400
3.732000 0.646900
3.747600 0.729000
3.763300 0.846300
3.778900 0.995600
3.794600 1.146500
3.810200 1.297300
3.825900 1.448000
3.841500 1.598600
3.857200 1.749100
3.872800 1.899600
3.888500 2.050000
3.904100 2.200400
3.919800 2.350700
3.935400 2.500800
3.951100 2.650300
3.966700 2.802100
3.982400 2.976300
3.998000 3.165400
4.013700 3.347700
4.029300 3.531000
4.045000 3.715200
4.060600 3.900500
4.076300 4.086900
4.091900 4.274200
4.107500 4.462600
4.123200 4.652000
4.138800 4.543900
4.154500 4.166000
4.170100 4.394900
4.185800 4.624100
4.201400 6.310000
4.217100 5.750500
4.232700 5.880200
4.248400 5.949000
4.264000 5.822600
4.279700 5.568100
4.295300 5.991100
4.311000 7.298600
4.326600 7.929800
4.342300 8.534900
4.357900 9.112300
4.373600 9.507200
4.389200 9.821200
4.404900 10.120800
4.420500 10.598000
4.436200 11.379100
4.451800 11.946000
4.467500 12.548100
4.483100 12.754500
4.498800 12.788700
4.514400 12.712500
4.530100 12.523200
4.545700 12.215900
4.561400 11.728000
4.577000 11.191000
4.592700 10.534900
4.608300 11.785600
4.624000 12.160300
4.639600 12.140100
4.655300 11.713900
4.670900 11.109300
4.686600 10.461800
4.702200 9.974500
4.717900 10.162800
4.733500 13.140200
4.749200 16.441400
4.764800 18.090400
4.780500 16.124200
4.796100 9.778000
4.811800 8.918300
4.827400 8.979600
4.843100 8.781900
4.858700 8.476700
4.874400 8.497000
4.890000 8.271000
4.905700 7.735200
4.921300 7.162300
4.937000 6.552200
4.952600 5.904900
4.968300 3.936500
4.983900 2.507800
4.999600 2.513100
5.015200 2.518400
5.030900 2.523700
5.046500 2.529100
5.062200 3.453800
5.077800 4.711200
5.093500 8.507100
5.109100 13.569600
5.124800 8.898000
5.140400 9.968700
5.156100 10.612400
5.171700 9.386900
5.187400 9.229300
5.203000 9.721200
5.218700 10.555600
5.234300 10.231100
5.250000 9.713900
5.265600 9.156700
5.281300 8.689900
5.296900 7.962100
5.312600 7.154200
5.328200 6.525500
5.343900 5.261000
5.359500 4.092500
5.375200 3.020000
5.390800 2.043700
5.406500 1.163400
5.422100 0.378500
5.437800 0.175100
5.453400 0.071800
5.469100 0.013800
5.484700 0.000000
5.500400 0.000000
5.516000 0.000000
5.531700 0.000000
5.547300 0.000000
5.563000 0.000000
5.578600 0.000000
5.594300 0.000000
5.609900 0.000000
5.625600 0.000000
5.641200 0.000000
5.656900 0.000000
5.672500 0.000000
5.688200 0.000000
5.703800 0.000000
5.719500 0.000000
5.735100 0.000000
5.750800 0.000000
5.766400 0.000000
5.782100 0.000000
5.797700 0.000000
5.813400 0.000000
5.829000 0.000000
5.844700 0.000000
5.860300 0.000000
5.876000 0.000000
5.891600 0.000000
5.907300 0.000000
5.922900 0.000000
5.938600 0.000000
5.954200 0.000000
5.969900 0.000000
5.985500 0.000000
6.001200 0.000000
6.016800 0.000000
6.032500 0.000000
6.048100 0.000000
6.063800 0.000000
6.079400 0.000000
6.095100 0.000000
6.110700 0.000000
6.126400 0.000000
6.142000 0.000000
6.157700 0.000000
6.173300 0.000000
6.189000 0.000000
6.204600 0.000000
6.220300 0.000000
6.235900 0.000000
6.251600 0.000000
6.267200 0.000000
6.282900 0.000000
6.298500 0.000000
6.314200 0.000000
6.329800 0.000000
6.345500 0.000000
6.361100 0.000000
6.376800 0.000000
6.392400 0.000000
6.408100 0.000000
6.423700 0.000000
6.439400 0.000000
6.455000 0.000000
6.470700 0.000000
6.486300 0.000000
6.502000 0.000000
6.517600 0.000000
6.533300 0.000000
6.548900 0.000000
6.564600 0.000000
6.580200 0.000000
6.595900 0.000000
6.611500 0.000000
6.627200 0.000000
6.642800 0.000000
6.658500 0.000000
6.674100 0.000000
6.689800 0.000000
6.705400 0.000000
6.721100 0.000000
6.736700 0.000000
6.752400 0.000000
6.768000 0.000000
6.783700 0.000000
6.799300 0.000000
6.815000 0.000000
6.830600 0.000000
6.846300 0.000000
6.861900 0.000000
6.877600 0.000000
6.893200 0.000000
6.908900 0.000000
6.924500 0.000000
6.940200 0.000000
6.955800 0.000000
6.971500 0.000000
6.987100 0.000000
7.002800 0.000000
7.018400 0.000000
7.034100 0.000000
7.049700 0.000000
7.065400 0.000000
7.081000 0.000000
7.096700 0.000000
7.112300 0.000000
7.128000 0.000000
7.143600 0.000000
7.159300 0.000000
7.174900 0.000000
7.190600 0.000000
7.206200 0.000000
7.221900 0.000000
7.237500 0.000000
7.253200 0.000000
7.268800 0.001300
7.284500 0.022500
7.300100 0.069700
7.315800 0.164200
7.331400 0.324600
7.347100 0.520800
7.362700 0.775800
7.378400 1.095000
7.394000 1.428700
7.409700 1.791500
7.425300 2.185100
7.441000 2.615600
7.456600 3.053600
7.472300 3.497700
7.487900 3.901700
7.503600 4.150100
7.519200 4.222500
7.534900 4.233000
7.550500 4.235800
7.566200 4.238500
7.581800 4.240900
7.597500 4.243200
7.613100 4.245300
7.628800 4.247200
7.644400 4.248900
7.660100 4.285800
7.675700 4.399200
7.691400 4.540600
7.707000 4.710100
7.722700 4.907700
7.738300 5.100300
7.754000 5.226800
7.769600 5.347000
7.785300 5.453700
7.800900 5.486200
7.816600 5.256400
7.832200 4.750800
7.847900 4.200500
7.863500 3.630200
7.879200 3.445400
7.894800 3.247200
7.910500 3.038100
7.926100 2.828000
7.941800 2.687600
7.957400 2.575700
7.973100 2.511300
7.988700 2.511200
8.004400 2.575400
8.020000 2.720600
8.035700 2.839700
8.051300 3.020200
8.067000 3.212500
8.082600 3.415700
8.098300 3.617800
8.113900 3.814600
8.129600 4.006200
8.145200 4.448900
8.160900 4.723100
8.176500 4.711700
8.192200 4.700100
8.207800 4.693000
8.223500 4.693700
8.239100 4.701900
8.254800 4.717800
8.270400 4.741400
8.286100 4.772600
8.301700 4.756600
8.317400 4.423500
8.333000 3.699000
8.348700 3.101300
8.364300 2.681200
8.380000 2.532200
8.395600 2.428500
8.411300 2.357600
8.426900 2.319600
8.442600 2.319700
8.458200 2.301800
8.473900 2.310200
8.489500 2.390900
8.505200 2.543900
8.520800 2.769300
8.536500 3.067100
8.552100 3.742800
8.567800 5.387000
8.583400 9.987400
8.599100 8.819500
8.614700 7.057900
8.630400 6.242700
8.646000 5.932800
8.661700 5.695000
8.677300 5.529300
8.693000 5.252000
8.708600 4.972100
8.724300 4.718100
8.739900 4.735100
8.755600 5.085900
8.771200 5.399700
8.786900 5.621200
8.802500 5.847900
8.818200 6.226000
8.833800 6.372700
8.849500 6.249800
8.865100 6.095400
8.880800 6.106500
8.896400 6.089400
8.912100 6.024800
8.927700 5.916100
8.943400 5.867100
8.959000 6.276100
8.974700 7.235700
8.990300 8.393900
9.006000 9.047700
9.021600 9.697900
9.037300 10.228600
9.052900 9.662600
9.068600 8.000000
9.084200 5.801800
9.099900 3.566900
9.115500 1.751200
9.131200 0.687300
9.146800 1.308800
9.162500 3.133700
9.178100 4.097300
9.193800 5.121000
9.209400 6.204900
9.225100 7.348800
9.240700 8.552900
9.256400 9.817200
9.272000 11.510400
9.287700 15.785900
9.303300 17.079800
9.319000 8.975500
9.334600 7.621100
9.350300 6.453400
9.365900 5.588200
9.381600 4.318400
9.397200 3.553500
9.412900 3.971700
9.428500 4.893200
9.444200 6.035800
9.459800 6.940600
9.475500 7.833600
9.491100 7.740700
9.506800 7.703700
9.522400 7.808400
9.538100 8.743600
9.553700 9.678600
9.569400 10.417000
9.585000 10.958800
9.600700 11.304800
9.616300 11.588100
9.632000 11.813400
9.647600 11.922700
9.663300 12.076600
9.678900 12.276300
9.694600 12.254100
9.710200 11.948600
9.725900 13.694400
9.741500 14.783600
9.757200 14.721000
9.772800 14.535900
9.788500 14.227700
9.804100 13.997700
9.819800 13.621600
9.835400 13.020900
9.851100 12.268200
9.866700 11.246400
9.882400 10.037500
9.898000 8.954300
9.913600 8.289000
9.929300 8.092000
9.944900 8.532400
9.960600 11.625000
9.976200 11.673100
9.991900 11.027200
10.007500 10.209000
10.023200 9.122700
10.038800 8.188300
10.054500 7.447200
10.070100 7.529400
10.085800 7.409000
10.101400 7.589400
10.117100 7.879600
10.132700 8.254100
10.148400 8.712900
10.164000 9.275200
10.179700 10.676000
10.195300 11.945300
10.211000 12.160800
10.226600 11.645100
10.242300 11.371500
10.257900 10.876900
10.273600 10.218800
10.289200 10.915500
10.304900 11.593300
10.320500 11.675700
10.336200 11.472500
10.351800 11.197200
10.367500 10.850000
10.383100 10.430700
10.398800 9.939300
10.414400 9.375900
10.430100 8.604700
10.445700 7.946700
10.461400 7.603400
10.477000 7.228800
10.492700 7.563200
10.508300 7.450800
10.524000 8.021800
10.539600 9.885100
10.555300 10.447600
10.570900 10.629600
10.586600 10.488700
10.602200 10.151000
10.617900 9.636800
10.633500 9.106100
10.649200 8.938800
10.664800 8.710900
10.680500 8.325400
10.696100 7.814500
10.711800 7.123800
10.727400 6.582400
10.743100 6.265500
10.758700 6.393900
10.774400 7.122600
10.790000 8.305000
10.805700 9.926500
10.821300 11.315300
10.837000 13.616800
10.852600 7.863400
10.868300 7.434400
10.883900 7.859500
10.899600 8.439000
10.915200 9.129500
10.930900 9.723800
10.946500 9.423500
10.962200 9.058800
10.977800 8.555700
10.993500 7.864100
11.009100 7.920600
11.024800 9.822700
11.040400 12.171200
11.056100 12.590300
11.071700 12.811200
11.087400 12.397300
11.103000 11.507200
11.118700 10.677900
11.134300 9.924500
11.150000 9.251300
11.165600 9.650500
11.181300 10.523700
11.196900 11.556700
11.212600 11.089400
11.228200 10.440800
11.243900 9.794000
11.259500 9.251900
11.275200 8.809200
11.290800 8.430400
11.306500 8.114100
11.322100 7.775500
11.337800 7.352400
11.353400 6.977700
11.369100 6.651500
11.384700 6.373800
11.400400 6.142500
11.416000 6.079800
11.431700 6.213800
11.447300 6.566600
11.463000 6.958100
11.478600 7.413600
11.494300 8.097600
11.509900 8.879200
11.525600 9.490700
11.541200 10.023200
11.556900 9.495100
11.572500 9.247200
11.588200 9.234900
11.603800 9.409600
11.619500 9.029800
11.635100 8.661800
11.650800 8.548800
11.666400 8.605500
11.682100 8.812200
11.697700 9.055100
11.713400 9.229400
11.729000 9.330000
11.744700 9.441600
11.760300 9.591700
11.776000 9.769900
11.791600 10.466700
11.807300 9.181500
11.822900 8.347900
11.838600 8.253800
11.854200 8.175600
11.869900 8.141500
11.885500 8.214800
11.901200 8.512100
11.916800 8.777700
11.932500 8.895400
11.948100 8.860500
11.963800 8.854600
11.979400 8.810300
11.995100 8.683100
12.010700 8.500700
12.026400 8.201200
12.042000 8.023300
12.057700 7.935700
12.073300 7.858400
12.089000 7.867100
12.104600 7.987000
12.120300 8.112500
12.135900 8.235300
12.151600 8.335100
12.167200 8.405300
12.182900 8.445800
12.198500 8.456600
12.214200 8.435000
12.229800 8.384700
12.245500 8.401600
12.261100 8.418400
12.276800 8.553900
12.292400 8.746700
12.308100 8.982900
12.323700 9.252400
12.339400 9.548300
12.355000 9.816900
12.370700 9.749500
12.386300 9.813800
12.402000 9.905100
12.417600 9.947000
12.433300 9.931900
12.448900 9.861400
12.464600 9.852000
12.480200 10.037500
12.495900 10.236800
12.511500 10.334900
12.527200 10.463200
12.542800 10.355600
12.558500 10.006500
12.574100 9.645600
12.589800 9.414900
12.605400 9.318500
12.621100 9.165600
12.636700 9.061900
12.652400 9.040300
12.668000 9.064400
12.683700 9.058600
12.699300 9.091600
12.715000 9.155500
12.730600 9.257500
12.746300 9.385600
12.761900 9.536400
12.777600 9.710900
12.793200 9.949200
12.808900 10.267800
12.824500 10.311300
12.840200 10.235300
12.855800 10.259800
12.871500 10.372600
12.887100 10.545100
12.902800 10.714900
12.918400 10.873200
12.934100 10.978200
12.949700 10.852200
12.965400 10.665000
12.981000 10.325300
12.996700 10.092800
13.012300 9.889300
13.028000 9.767900
13.043600 9.728800
13.059300 9.767600
13.074900 9.837600
13.090600 9.241000
13.106200 9.427200
13.121900 9.641700
13.137500 9.803400
13.153200 9.957400
13.168800 10.088500
13.184500 10.202300
13.200100 10.270200
13.215800 10.306300
13.231400 10.311700
13.247100 10.317800
13.262700 10.309000
13.278400 10.292600
13.294000 10.302400
13.309700 10.369600
13.325300 10.541400
13.341000 10.760000
13.356600 10.952400
13.372300 11.116700
13.387900 11.222000
13.403600 11.259700
13.419200 11.386300
13.434900 11.689800
13.450500 12.040200
13.466200 12.475000
13.481800 12.862600
13.497500 12.162600
13.513100 13.041700
13.528800 12.769900
13.544400 12.198100
13.560100 11.935700
13.575700 11.862500
13.591400 12.013900
13.607000 11.974600
13.622700 11.600500
13.638300 10.564600
13.654000 9.568000
13.669600 9.326200
13.685300 9.470200
13.700900 11.665700
13.716600 9.675500
13.732200 9.290400
13.747900 9.265300
13.763500 8.964100
13.779200 8.260600
13.794800 7.897500
13.810500 8.025200
13.826100 8.228600
13.841800 8.460500
13.857400 8.665500
13.873100 8.821800
13.888700 8.907900
13.904400 8.966600
13.920000 9.025100
13.935700 9.085700
13.951300 9.158500
13.967000 9.193700
13.982600 9.014700
13.998300 8.531200
14.013900 8.077200
14.029600 7.700400
14.045200 7.609500
14.060900 7.770000
14.076500 7.783100
14.092200 7.843500
14.107800 7.942000
14.123500 8.057900
14.139100 8.173400
14.154800 8.292400
14.170400 8.539500
14.186100 8.906300
14.201700 9.185000
14.217400 9.393800
14.233000 9.580000
14.248700 9.572900
14.264300 9.550800
14.280000 9.370700
14.295600 9.216100
14.311300 9.640500
14.326900 9.218600
14.342600 8.784500
14.358200 8.725000
14.373900 8.933600
14.389500 9.413000
14.405200 10.216600
14.420800 11.165600
14.436500 12.895800
14.452100 10.789600
14.467800 9.686500
14.483400 8.955600
14.499100 8.749700
14.514700 8.579100
14.530400 8.337000
14.546000 8.243300
14.561700 8.301300
14.577300 8.438300
14.593000 8.749800
14.608600 9.037900
14.624300 9.217200
14.639900 9.374800
14.655600 9.515000
14.671200 9.658000
14.686900 9.823000
14.702500 9.987300
14.718200 10.192200
14.733800 10.554000
14.749500 10.929600
14.765100 11.317200
14.780800 11.719600
14.796400 12.360500
14.812100 12.498800
14.827700 12.914700
14.843400 13.372900
14.859000 13.981500
14.874700 14.537100
14.890300 14.992200
14.906000 14.750500
14.921600 14.368200
14.937300 13.831100
14.952900 13.287100
14.968600 12.744300
14.984200 12.226100
14.999900 12.329100
15.015500 12.146500
15.031200 10.921000
15.046800 10.008800
15.062500 9.338400
15.078100 9.229000
15.093800 9.629500
15.109400 10.006600
15.125100 10.360300
15.140700 10.687000
15.156400 10.804500
15.172000 10.607400
15.187700 10.379600
15.203300 10.131500
15.219000 9.885700
15.234600 9.703200
15.250300 9.414800
15.265900 9.215700
15.281600 8.994000
15.297200 8.849200
15.312900 8.817500
15.328500 8.929300
15.344200 9.078900
15.359800 9.232100
15.375500 9.588700
15.391100 13.534500
15.406800 12.459100
15.422400 11.979900
15.438100 11.333200
15.453700 11.215000
15.469400 11.480200
15.485000 11.733000
15.500700 11.964100
15.516300 12.135900
15.532000 12.696900
15.547600 12.797400
15.563300 12.639000
15.578900 12.425400
15.594600 12.272400
15.610200 11.993200
15.625900 11.546400
15.641500 10.948300
15.657200 10.560800
15.672800 10.327600
15.688500 8.735700
15.704100 8.357400
15.719800 8.445900
15.735400 8.488700
15.751000 8.483900
15.766700 8.466200
15.782300 8.512300
15.798000 8.740000
15.813600 9.061700
15.829300 9.433800
15.844900 10.214600
15.860600 10.539100
15.876200 10.839300
15.891900 11.132400
15.907500 11.338700
15.923200 11.317600
15.938800 11.348400
15.954500 12.324600
15.970100 11.532900
15.985800 11.945600
16.001400 12.128600
16.017100 12.371300
16.032700 12.283400
16.048400 12.126900
16.064000 12.094700
16.079700 12.228000
16.095300 12.249800
16.111000 12.171800
16.126600 12.467400
16.142300 11.702600
16.157900 11.587400
16.173600 11.720000
16.189200 11.761600
16.204900 11.652500
16.220500 11.427800
16.236200 11.194800
16.251800 11.003200
16.267500 10.828800
16.283100 10.643300
16.298800 10.517300
16.314400 10.455300
16.330100 10.414300
16.345700 10.432700
16.361400 10.444900
16.377000 10.580700
16.392700 10.729000
16.408300 10.820700
16.424000 10.924200
16.439600 11.022000
16.455300 11.055100
16.470900 11.048200
16.486600 11.002200
16.502200 11.176800
16.517900 11.499500
16.533500 11.884900
16.549200 12.483700
16.564800 12.917400
16.580500 12.858200
16.596100 12.913500
16.611800 13.108700
16.627400 13.499100
16.643100 13.746900
16.658700 13.415700
16.674400 12.196700
16.690000 11.082200
16.705700 10.329200
16.721300 9.851400
16.737000 9.471800
16.752600 9.232700
16.768300 9.098000
16.783900 9.001600
16.799600 8.944500
16.815200 8.993200
16.830900 9.195200
16.846500 9.576300
16.862200 10.320100
16.877800 11.455400
16.893500 13.187600
16.909100 17.774800
16.924800 15.223400
16.940400 13.672200
16.956100 15.094800
16.971700 11.675200
16.987400 11.396600
17.003000 10.884400
17.018700 10.321200
17.034300 9.707000
17.050000 9.041800
17.065600 8.462100
17.081300 8.624800
17.096900 8.567600
17.112600 8.741000
17.128200 8.807600
17.143900 9.363200
17.159500 9.877700
17.175200 10.396900
17.190800 10.147800
17.206500 8.654300
17.222100 8.027700
17.237800 7.581100
17.253400 7.055400
17.269100 6.845000
17.284700 8.357600
17.300400 9.982400
17.316000 10.251000
17.331700 9.960900
17.347300 9.945200
17.363000 9.374400
17.378600 8.866400
17.394300 8.419900
17.409900 8.043800
17.425600 7.754800
17.441200 7.565100
17.456900 7.534900
17.472500 8.353400
17.488200 9.191000
17.503800 9.683500
17.519500 10.223900
17.535100 10.809700
17.550800 11.343300
17.566400 11.298400
17.582100 11.157600
17.597700 10.904900
17.613400 11.980200
17.629000 11.870400
17.644700 12.401300
17.660300 11.774000
17.676000 11.272100
17.691600 11.145400
17.707300 11.227400
17.722900 11.246200
17.738600 11.060700
17.754200 10.845800
17.769900 10.760900
17.785500 11.025100
17.801200 11.108200
17.816800 10.727900
17.832500 9.476900
17.848100 8.746800
17.863800 8.004400
17.879400 7.645800
17.895100 7.502000
17.910700 7.319600
17.926400 7.087900
17.942000 6.764200
17.957700 6.337300
17.973300 5.936300
17.989000 5.528300
18.004600 5.004900
18.020300 4.407800
18.035900 3.802500
18.051600 3.189500
18.067200 2.605200
18.082900 2.091100
18.098500 0.064400
18.114200 0.000000
18.129800 0.000000
18.145500 0.000000
18.161100 0.000000
18.176800 0.000000
18.192400 0.000000
18.208100 0.000000
18.223700 0.000000
18.239400 0.000000
18.255000 0.000000
18.270700 0.000000
18.286300 0.000000
18.302000 0.000000
18.317600 0.000000
18.333300 0.000000
18.348900 0.000000
18.364600 0.000000
18.380200 0.000000
18.395900 0.000000
18.411500 0.000000
18.427200 0.000000
18.442800 0.000000
18.458500 0.000000
18.474100 0.000000
18.489800 0.000000
18.505400 0.000000
18.521100 0.000000
18.536700 0.000000
18.552400 0.000000
18.568000 0.000000
18.583700 0.000000
18.599300 0.000000
18.615000 0.000000
18.630600 0.000000
18.646300 0.000000
18.661900 0.000000
18.677600 0.000000
18.693200 0.000000
18.708900 0.000000
18.724500 0.000000
18.740200 0.000000
18.755800 0.000000
18.771500 0.000000
18.787100 0.000000
18.802800 0.000000
18.818400 0.000000
18.834100 0.000000
18.849700 0.000000
18.865400 0.000000
18.881000 0.000000
18.896700 0.000000
18.912300 0.000000
18.928000 0.000000
18.943600 0.000000
18.959300 0.000000
18.974900 0.000000
18.990600 0.000000
19.006200 0.000000
19.021900 0.000000
19.037500 0.000000
19.053200 0.000000
19.068800 0.000000
19.084500 0.000000
19.100100 0.000000
19.115800 0.000000
19.131400 0.000000
19.147100 0.000000
19.162700 0.000000
19.178400 0.000000
19.194000 0.000000
19.209700 0.000000
19.225300 0.000000
19.241000 0.000000
19.256600 0.000000
19.272300 0.000000
19.287900 0.000000
19.303600 0.000000
19.319200 0.000000
19.334900 0.000000
19.350500 0.000000
19.366200 0.000000
19.381800 0.000000
19.397500 0.000000
19.413100 0.000000
19.428800 0.000000
19.444400 0.000000
19.460100 0.000000
19.475700 0.000000
19.491400 0.000000
19.507000 0.000000
19.522700 0.000000
e
