set title 'mp-636675 - Density of States'
set xlabel 'Energy (eV)'
set ylabel 'DOS (states/eV)'
set grid
set xrange [-10:10]
set yrange [0:92.858]
set xzeroaxis lt -1
set terminal png size 800,600
set output 'mp-636675_dos_gnuplot.png'
plot '-' using 1:2 with lines title 'DOS'
-14.406200 0.000000
-14.392300 0.000000
-14.378500 0.000000
-14.364600 0.000000
-14.350800 0.000000
-14.336900 0.000000
-14.323000 0.000000
-14.309200 0.000000
-14.295300 0.000000
-14.281500 0.000000
-14.267600 0.000000
-14.253800 0.000000
-14.239900 0.000000
-14.226100 0.000000
-14.212200 0.000000
-14.198300 0.000000
-14.184500 0.000000
-14.170600 0.000000
-14.156800 0.000000
-14.142900 0.000000
-14.129100 0.000000
-14.115200 0.000000
-14.101400 0.000000
-14.087500 0.000000
-14.073600 0.000000
-14.059800 0.000000
-14.045900 0.000000
-14.032100 0.000000
-14.018200 0.000000
-14.004400 0.000000
-13.990500 0.000000
-13.976600 0.000000
-13.962800 0.000000
-13.948900 0.000000
-13.935100 0.000000
-13.921200 0.000000
-13.907400 0.000000
-13.893500 0.000000
-13.879700 0.000000
-13.865800 0.000000
-13.851900 0.000000
-13.838100 0.000000
-13.824200 0.000000
-13.810400 0.000000
-13.796500 0.000000
-13.782700 0.000000
-13.768800 0.000000
-13.755000 0.000000
-13.741100 0.000000
-13.727200 0.000000
-13.713400 0.000000
-13.699500 0.000000
-13.685700 0.000000
-13.671800 0.000000
-13.658000 0.000000
-13.644100 0.000000
-13.630200 0.000000
-13.616400 0.000000
-13.602500 0.000000
-13.588700 0.000000
-13.574800 0.000000
-13.561000 0.000000
-13.547100 0.000000
-13.533300 0.000000
-13.519400 0.000000
-13.505500 0.000000
-13.491700 0.000000
-13.477800 0.000000
-13.464000 0.000000
-13.450100 0.000000
-13.436300 0.000000
-13.422400 0.000000
-13.408600 0.000000
-13.394700 0.000000
-13.380800 0.000000
-13.367000 0.000000
-13.353100 0.000000
-13.339300 0.000000
-13.325400 0.000000
-13.311600 0.000000
-13.297700 0.000000
-13.283800 0.000000
-13.270000 0.000000
-13.256100 0.000000
-13.242300 0.000000
-13.228400 0.000000
-13.214600 0.000000
-13.200700 0.000000
-13.186900 0.000000
-13.173000 0.000000
-13.159100 0.000000
-13.145300 0.000000
-13.131400 0.000000
-13.117600 0.000000
-13.103700 0.000000
-13.089900 0.000000
-13.076000 0.000000
-13.062200 0.000000
-13.048300 0.000000
-13.034400 0.000000
-13.020600 0.000000
-13.006700 0.000000
-12.992900 0.000000
-12.979000 0.000000
-12.965200 0.000000
-12.951300 0.000000
-12.937400 0.000000
-12.923600 0.000000
-12.909700 0.000000
-12.895900 0.000000
-12.882000 0.000000
-12.868200 0.000000
-12.854300 0.000000
-12.840500 0.000000
-12.826600 0.000000
-12.812700 0.000000
-12.798900 0.000000
-12.785000 0.000000
-12.771200 4898.918200
-12.757300 0.000000
-12.743500 0.000000
-12.729600 0.000000
-12.715800 0.000000
-12.701900 0.000000
-12.688000 0.000000
-12.674200 0.000000
-12.660300 0.000000
-12.646500 0.000000
-12.632600 0.000000
-12.618800 0.000000
-12.604900 0.000000
-12.591000 0.000000
-12.577200 0.000000
-12.563300 0.000000
-12.549500 0.000000
-12.535600 0.000000
-12.521800 0.000000
-12.507900 0.000000
-12.494100 0.000000
-12.480200 0.000000
-12.466300 0.000000
-12.452500 0.000000
-12.438600 0.000000
-12.424800 0.000000
-12.410900 0.000000
-12.397100 0.000000
-12.383200 0.000000
-12.369400 0.000000
-12.355500 0.000000
-12.341600 0.000000
-12.327800 0.000000
-12.313900 0.000000
-12.300100 0.000000
-12.286200 0.000000
-12.272400 0.000000
-12.258500 0.000000
-12.244600 0.000000
-12.230800 0.000000
-12.216900 0.000000
-12.203100 0.000000
-12.189200 0.000000
-12.175400 0.000000
-12.161500 0.000000
-12.147700 0.000000
-12.133800 0.000000
-12.119900 0.000000
-12.106100 0.000000
-12.092200 0.000000
-12.078400 0.000000
-12.064500 0.000000
-12.050700 0.000000
-12.036800 0.000000
-12.023000 0.000000
-12.009100 0.000000
-11.995200 0.000000
-11.981400 0.000000
-11.967500 0.000000
-11.953700 0.000000
-11.939800 0.000000
-11.926000 0.000000
-11.912100 0.000000
-11.898200 0.000000
-11.884400 0.000000
-11.870500 0.000000
-11.856700 0.000000
-11.842800 0.000000
-11.829000 0.000000
-11.815100 0.000000
-11.801300 0.000000
-11.787400 0.000000
-11.773500 0.000000
-11.759700 0.000000
-11.745800 0.000000
-11.732000 0.000000
-11.718100 0.000000
-11.704300 0.000000
-11.690400 0.000000
-11.676600 0.000000
-11.662700 0.000000
-11.648800 0.000000
-11.635000 0.000000
-11.621100 0.000000
-11.607300 0.000000
-11.593400 0.000000
-11.579600 0.000000
-11.565700 0.000000
-11.551800 0.000000
-11.538000 0.000000
-11.524100 0.000000
-11.510300 0.000000
-11.496400 0.000000
-11.482600 0.000000
-11.468700 0.000000
-11.454900 0.000000
-11.441000 0.000000
-11.427100 0.000000
-11.413300 0.000000
-11.399400 0.000000
-11.385600 0.000000
-11.371700 0.000000
-11.357900 0.000000
-11.344000 0.000000
-11.330200 0.000000
-11.316300 0.000000
-11.302400 0.000000
-11.288600 0.000000
-11.274700 0.000000
-11.260900 0.000000
-11.247000 0.000000
-11.233200 0.000000
-11.219300 0.000000
-11.205400 0.000000
-11.191600 0.000000
-11.177700 0.000000
-11.163900 0.000000
-11.150000 0.000000
-11.136200 0.000000
-11.122300 0.000000
-11.108500 0.000000
-11.094600 0.000000
-11.080700 0.000000
-11.066900 0.000000
-11.053000 0.000000
-11.039200 0.000000
-11.025300 0.000000
-11.011500 0.000000
-10.997600 0.000000
-10.983800 0.000000
-10.969900 0.000000
-10.956000 0.000000
-10.942200 0.000000
-10.928300 0.000000
-10.914500 0.000000
-10.900600 0.026000
-10.886800 0.345500
-10.872900 1.029100
-10.859000 2.076800
-10.845200 3.488500
-10.831300 5.709400
-10.817500 8.869300
-10.803600 13.889300
-10.789800 22.254900
-10.775900 24.578400
-10.762100 24.094100
-10.748200 28.694000
-10.734300 22.975400
-10.720500 8.403000
-10.706600 11.009300
-10.692800 15.981500
-10.678900 22.319800
-10.665100 40.207600
-10.651200 34.197800
-10.637400 0.405900
-10.623500 0.000000
-10.609600 3.755200
-10.595800 62.474200
-10.581900 43.872200
-10.568100 38.652000
-10.554200 34.526500
-10.540400 30.113300
-10.526500 20.888100
-10.512600 19.000700
-10.498800 12.796200
-10.484900 4.573000
-10.471100 0.000000
-10.457200 0.000000
-10.443400 0.000000
-10.429500 0.000000
-10.415700 0.000000
-10.401800 0.000000
-10.387900 0.000400
-10.374100 4.067900
-10.360200 10.049200
-10.346400 23.284600
-10.332500 33.108800
-10.318700 43.049400
-10.304800 21.124600
-10.291000 105.714400
-10.277100 56.520000
-10.263200 76.393500
-10.249400 105.759900
-10.235500 67.030600
-10.221700 44.640600
-10.207800 82.213700
-10.194000 128.675700
-10.180100 126.118500
-10.166200 95.410700
-10.152400 127.151900
-10.138500 9.926400
-10.124700 0.000000
-10.110800 0.000000
-10.097000 0.000000
-10.083100 0.000000
-10.069300 0.000000
-10.055400 0.000000
-10.041500 0.000000
-10.027700 0.000000
-10.013800 0.000000
-10.000000 0.000000
-9.986100 0.000000
-9.972300 0.000000
-9.958400 0.000000
-9.944600 0.000000
-9.930700 0.000000
-9.916800 0.000000
-9.903000 0.000000
-9.889100 0.000000
-9.875300 0.000000
-9.861400 0.000000
-9.847600 0.000000
-9.833700 0.000000
-9.819800 0.000000
-9.806000 0.000000
-9.792100 0.000000
-9.778300 0.000000
-9.764400 0.000000
-9.750600 0.000000
-9.736700 0.000000
-9.722900 0.000000
-9.709000 0.000000
-9.695100 0.000000
-9.681300 0.000000
-9.667400 0.000000
-9.653600 0.000000
-9.639700 0.000000
-9.625900 0.000000
-9.612000 0.000000
-9.598200 0.000000
-9.584300 0.000000
-9.570400 0.000000
-9.556600 0.000000
-9.542700 0.000000
-9.528900 0.000000
-9.515000 0.000000
-9.501200 0.000000
-9.487300 0.000000
-9.473400 0.000000
-9.459600 0.000000
-9.445700 0.000000
-9.431900 0.000000
-9.418000 0.000000
-9.404200 0.000000
-9.390300 0.000000
-9.376500 0.000000
-9.362600 0.000000
-9.348700 0.000000
-9.334900 0.000000
-9.321000 0.000000
-9.307200 0.000000
-9.293300 0.000000
-9.279500 0.000000
-9.265600 0.000000
-9.251800 0.000000
-9.237900 0.000000
-9.224000 0.000000
-9.210200 0.000000
-9.196300 0.000000
-9.182500 0.000000
-9.168600 0.000000
-9.154800 0.000000
-9.140900 0.000000
-9.127000 0.000000
-9.113200 0.000000
-9.099300 0.000000
-9.085500 0.000000
-9.071600 0.000000
-9.057800 0.000000
-9.043900 0.000000
-9.030100 0.000000
-9.016200 0.000000
-9.002300 0.000000
-8.988500 0.000000
-8.974600 0.000000
-8.960800 0.000000
-8.946900 0.000000
-8.933100 0.000000
-8.919200 0.000000
-8.905400 0.000000
-8.891500 0.000000
-8.877600 0.000000
-8.863800 0.000000
-8.849900 0.000000
-8.836100 0.000000
-8.822200 0.000000
-8.808400 0.000000
-8.794500 0.000000
-8.780600 0.000000
-8.766800 0.000000
-8.752900 0.000000
-8.739100 0.000000
-8.725200 0.000000
-8.711400 0.000000
-8.697500 0.000000
-8.683700 0.000000
-8.669800 0.000000
-8.655900 0.000000
-8.642100 0.000000
-8.628200 0.000000
-8.614400 0.000000
-8.600500 0.000000
-8.586700 0.000000
-8.572800 0.000000
-8.559000 0.000000
-8.545100 0.000000
-8.531200 0.000000
-8.517400 0.000000
-8.503500 0.000000
-8.489700 0.000000
-8.475800 0.000000
-8.462000 0.000000
-8.448100 0.000000
-8.434200 0.000000
-8.420400 0.000000
-8.406500 0.000000
-8.392700 0.000000
-8.378800 0.000000
-8.365000 0.000000
-8.351100 0.000000
-8.337300 0.000000
-8.323400 0.000000
-8.309500 0.000000
-8.295700 0.000000
-8.281800 0.000000
-8.268000 0.000000
-8.254100 0.000000
-8.240300 0.000000
-8.226400 0.000000
-8.212600 0.000000
-8.198700 0.000000
-8.184800 0.000000
-8.171000 0.000000
-8.157100 0.000000
-8.143300 0.000000
-8.129400 0.000000
-8.115600 0.000000
-8.101700 0.000000
-8.087800 0.000000
-8.074000 0.000000
-8.060100 0.000000
-8.046300 0.000000
-8.032400 0.000000
-8.018600 0.000000
-8.004700 0.000000
-7.990900 0.000000
-7.977000 0.000000
-7.963100 0.000000
-7.949300 0.000000
-7.935400 0.000000
-7.921600 0.000000
-7.907700 0.000000
-7.893900 0.000000
-7.880000 0.000000
-7.866200 0.000000
-7.852300 0.000000
-7.838400 0.000000
-7.824600 0.000000
-7.810700 0.000000
-7.796900 0.000000
-7.783000 0.000000
-7.769200 0.000000
-7.755300 0.000000
-7.741400 0.000000
-7.727600 0.000000
-7.713700 0.000000
-7.699900 0.000000
-7.686000 0.000000
-7.672200 0.000000
-7.658300 0.000000
-7.644500 0.000000
-7.630600 0.000000
-7.616700 0.000000
-7.602900 0.000000
-7.589000 0.000000
-7.575200 0.000000
-7.561300 0.000000
-7.547500 0.000000
-7.533600 0.000000
-7.519800 0.000000
-7.505900 0.000000
-7.492000 0.000000
-7.478200 0.000000
-7.464300 0.000000
-7.450500 0.000000
-7.436600 0.000000
-7.422800 0.000000
-7.408900 0.000000
-7.395000 0.000000
-7.381200 0.000000
-7.367300 0.000000
-7.353500 0.000000
-7.339600 0.000000
-7.325800 0.000000
-7.311900 0.000000
-7.298100 0.000000
-7.284200 0.000000
-7.270300 0.000000
-7.256500 0.000000
-7.242600 0.000000
-7.228800 0.000000
-7.214900 0.000000
-7.201100 0.000000
-7.187200 0.000000
-7.173400 0.000000
-7.159500 0.000000
-7.145600 0.000000
-7.131800 0.000000
-7.117900 0.000000
-7.104100 0.000000
-7.090200 0.000000
-7.076400 0.000000
-7.062500 0.000000
-7.048600 0.000000
-7.034800 0.000000
-7.020900 0.000000
-7.007100 0.000000
-6.993200 0.000000
-6.979400 0.000000
-6.965500 0.000000
-6.951700 0.000000
-6.937800 0.000000
-6.923900 0.000000
-6.910100 0.000000
-6.896200 0.000000
-6.882400 0.000000
-6.868500 0.000000
-6.854700 0.000000
-6.840800 0.000000
-6.827000 0.000000
-6.813100 0.000000
-6.799200 0.000000
-6.785400 0.000000
-6.771500 0.000000
-6.757700 0.000000
-6.743800 0.000000
-6.730000 0.000000
-6.716100 0.000000
-6.702200 0.000000
-6.688400 0.000000
-6.674500 0.000000
-6.660700 0.000000
-6.646800 0.000000
-6.633000 0.000000
-6.619100 0.000000
-6.605300 0.000000
-6.591400 0.000000
-6.577500 0.000000
-6.563700 0.000000
-6.549800 0.000000
-6.536000 0.000000
-6.522100 0.000000
-6.508300 0.000000
-6.494400 0.000000
-6.480600 0.000000
-6.466700 0.000000
-6.452800 0.000000
-6.439000 0.000000
-6.425100 0.000000
-6.411300 0.000000
-6.397400 0.000000
-6.383600 0.000000
-6.369700 0.000000
-6.355800 0.000000
-6.342000 0.000000
-6.328100 0.000000
-6.314300 0.000000
-6.300400 0.000000
-6.286600 0.000000
-6.272700 0.000000
-6.258900 0.000000
-6.245000 0.000000
-6.231100 0.000000
-6.217300 0.000000
-6.203400 0.000000
-6.189600 0.000000
-6.175700 0.000000
-6.161900 0.000000
-6.148000 0.000000
-6.134200 0.000000
-6.120300 0.000000
-6.106400 0.000000
-6.092600 0.000000
-6.078700 0.000000
-6.064900 0.000000
-6.051000 0.000000
-6.037200 0.000000
-6.023300 0.000000
-6.009400 0.000000
-5.995600 0.000000
-5.981700 0.000000
-5.967900 0.000000
-5.954000 0.000000
-5.940200 0.000000
-5.926300 0.000000
-5.912500 0.000000
-5.898600 0.000000
-5.884700 0.000000
-5.870900 0.000000
-5.857000 0.000000
-5.843200 0.000000
-5.829300 0.000000
-5.815500 0.000000
-5.801600 0.000000
-5.787800 0.000000
-5.773900 0.000000
-5.760000 0.000000
-5.746200 0.000000
-5.732300 0.000000
-5.718500 0.000000
-5.704600 0.000000
-5.690800 0.000000
-5.676900 0.000000
-5.663000 0.000000
-5.649200 0.000000
-5.635300 0.000000
-5.621500 0.000000
-5.607600 0.000000
-5.593800 0.000000
-5.579900 0.000000
-5.566100 0.000000
-5.552200 0.000000
-5.538300 0.000000
-5.524500 0.000000
-5.510600 0.000000
-5.496800 0.000000
-5.482900 0.000000
-5.469100 0.000000
-5.455200 0.000000
-5.441400 0.000000
-5.427500 0.000000
-5.413600 0.000000
-5.399800 0.000000
-5.385900 0.000000
-5.372100 0.000000
-5.358200 0.000000
-5.344400 0.000000
-5.330500 0.000000
-5.316700 0.000000
-5.302800 0.000000
-5.288900 0.000000
-5.275100 0.000000
-5.261200 0.000000
-5.247400 0.000000
-5.233500 0.000000
-5.219700 0.000000
-5.205800 0.000000
-5.191900 0.000000
-5.178100 0.000000
-5.164200 0.000000
-5.150400 0.000000
-5.136500 0.000000
-5.122700 0.000000
-5.108800 0.000000
-5.095000 0.000000
-5.081100 0.000000
-5.067200 0.000000
-5.053400 0.000000
-5.039500 0.000000
-5.025700 0.000000
-5.011800 0.000000
-4.998000 0.000000
-4.984100 0.000000
-4.970300 0.000000
-4.956400 0.000000
-4.942500 0.404100
-4.928700 2.789900
-4.914800 7.316400
-4.901000 16.550400
-4.887100 45.691900
-4.873300 49.522700
-4.859400 22.691100
-4.845500 60.832300
-4.831700 12.671500
-4.817800 0.000000
-4.804000 0.000000
-4.790100 0.000000
-4.776300 0.000000
-4.762400 0.000000
-4.748600 0.000000
-4.734700 0.000000
-4.720800 0.000000
-4.707000 0.000000
-4.693100 0.000000
-4.679300 0.000000
-4.665400 0.000000
-4.651600 0.000000
-4.637700 0.000000
-4.623900 0.000000
-4.610000 0.000000
-4.596100 0.000000
-4.582300 0.000000
-4.568400 0.000000
-4.554600 0.000000
-4.540700 0.000000
-4.526900 0.000000
-4.513000 0.000000
-4.499100 0.000000
-4.485300 0.000000
-4.471400 0.000000
-4.457600 0.000000
-4.443700 0.000000
-4.429900 0.000000
-4.416000 0.000000
-4.402200 0.000000
-4.388300 0.000000
-4.374400 0.000000
-4.360600 0.000000
-4.346700 0.000000
-4.332900 0.000000
-4.319000 0.000000
-4.305200 0.000000
-4.291300 0.000000
-4.277500 0.000000
-4.263600 0.000000
-4.249700 0.000000
-4.235900 0.000000
-4.222000 0.000000
-4.208200 0.000000
-4.194300 0.000000
-4.180500 0.000000
-4.166600 0.000000
-4.152700 0.000000
-4.138900 0.000000
-4.125000 0.000000
-4.111200 0.000000
-4.097300 0.000000
-4.083500 0.000000
-4.069600 0.000000
-4.055800 0.000000
-4.041900 0.000000
-4.028000 0.000000
-4.014200 0.000000
-4.000300 0.000000
-3.986500 0.000000
-3.972600 0.000000
-3.958800 0.000000
-3.944900 0.000000
-3.931100 0.000000
-3.917200 0.000000
-3.903300 0.000000
-3.889500 0.000000
-3.875600 0.000000
-3.861800 0.000000
-3.847900 0.000000
-3.834100 0.000000
-3.820200 0.000000
-3.806300 0.000000
-3.792500 0.000000
-3.778600 0.000000
-3.764800 0.000000
-3.750900 0.000000
-3.737100 0.000000
-3.723200 0.000000
-3.709400 0.000000
-3.695500 0.000000
-3.681600 0.000000
-3.667800 0.000000
-3.653900 0.000000
-3.640100 0.000000
-3.626200 0.000000
-3.612400 0.000000
-3.598500 0.000000
-3.584700 0.000000
-3.570800 0.005000
-3.556900 1.766300
-3.543100 7.738000
-3.529200 14.406900
-3.515400 20.543400
-3.501500 26.739000
-3.487700 32.183300
-3.473800 53.362900
-3.459900 53.829500
-3.446100 32.316700
-3.432200 24.208100
-3.418400 0.000000
-3.404500 0.000000
-3.390700 0.000000
-3.376800 0.000000
-3.363000 0.000000
-3.349100 0.000000
-3.335200 0.000000
-3.321400 0.000000
-3.307500 0.139500
-3.293700 0.628600
-3.279800 1.469400
-3.266000 2.661900
-3.252100 5.085300
-3.238300 8.451700
-3.224400 11.951100
-3.210500 23.564400
-3.196700 30.561500
-3.182800 30.305200
-3.169000 28.309300
-3.155100 8.750600
-3.141300 5.814200
-3.127400 12.564100
-3.113500 33.256900
-3.099700 51.608300
-3.085800 17.564300
-3.072000 8.044800
-3.058100 9.098800
-3.044300 12.166900
-3.030400 17.634100
-3.016600 12.073700
-3.002700 11.934300
-2.988800 12.227300
-2.975000 12.395600
-2.961100 12.439200
-2.947300 12.358200
-2.933400 16.902300
-2.919600 15.309600
-2.905700 17.956000
-2.891900 18.866600
-2.878000 18.989100
-2.864100 14.400400
-2.850300 13.257800
-2.836400 12.103700
-2.822600 10.859100
-2.808700 9.523700
-2.794900 8.097800
-2.781000 6.581300
-2.767100 5.050400
-2.753300 3.732400
-2.739400 2.907900
-2.725600 2.272900
-2.711700 1.906200
-2.697900 1.571700
-2.684000 1.269500
-2.670200 0.999500
-2.656300 0.761700
-2.642400 0.556200
-2.628600 0.382900
-2.614700 0.241900
-2.600900 0.133100
-2.587000 0.056600
-2.573200 0.012300
-2.559300 0.000000
-2.545500 0.000000
-2.531600 0.000000
-2.517700 0.000000
-2.503900 0.000000
-2.490000 0.000000
-2.476200 0.000000
-2.462300 0.000000
-2.448500 0.000000
-2.434600 0.000000
-2.420700 0.000000
-2.406900 0.000000
-2.393000 0.000000
-2.379200 0.000000
-2.365300 0.000000
-2.351500 0.000000
-2.337600 0.000000
-2.323800 0.000000
-2.309900 0.000000
-2.296000 0.000000
-2.282200 0.000000
-2.268300 0.000000
-2.254500 0.000000
-2.240600 0.000000
-2.226800 0.000000
-2.212900 0.000000
-2.199100 0.000000
-2.185200 0.000000
-2.171300 0.000000
-2.157500 0.000000
-2.143600 0.000000
-2.129800 0.000000
-2.115900 0.000000
-2.102100 0.000000
-2.088200 0.000000
-2.074300 0.000000
-2.060500 0.000000
-2.046600 0.000000
-2.032800 0.000000
-2.018900 0.000000
-2.005100 0.000000
-1.991200 0.000000
-1.977400 0.000000
-1.963500 0.000000
-1.949600 0.000000
-1.935800 0.000000
-1.921900 0.000000
-1.908100 0.000000
-1.894200 0.000000
-1.880400 0.000000
-1.866500 0.000000
-1.852700 0.000000
-1.838800 0.000000
-1.824900 0.000000
-1.811100 0.000000
-1.797200 0.000000
-1.783400 0.000000
-1.769500 0.000000
-1.755700 0.000000
-1.741800 0.000000
-1.727900 0.000000
-1.714100 0.000000
-1.700200 0.000000
-1.686400 0.000000
-1.672500 0.000000
-1.658700 0.000000
-1.644800 20.491400
-1.631000 44.932300
-1.617100 59.029800
-1.603200 23.672200
-1.589400 28.100300
-1.575500 26.087400
-1.561700 22.289200
-1.547800 18.507200
-1.534000 27.210400
-1.520100 0.000000
-1.506300 1.209800
-1.492400 10.820700
-1.478500 19.193800
-1.464700 31.074800
-1.450800 37.327900
-1.437000 37.559800
-1.423100 32.026100
-1.409300 24.349100
-1.395400 19.373400
-1.381500 16.311700
-1.367700 17.155700
-1.353800 23.283300
-1.340000 19.603900
-1.326100 14.543300
-1.312300 5.602000
-1.298400 6.967500
-1.284600 8.676100
-1.270700 13.858100
-1.256800 17.477800
-1.243000 19.211900
-1.229100 21.644000
-1.215300 23.355500
-1.201400 24.186000
-1.187600 24.474700
-1.173700 39.165600
-1.159900 16.911700
-1.146000 19.199400
-1.132100 34.642300
-1.118300 6.758300
-1.104400 9.549500
-1.090600 15.692800
-1.076700 19.139800
-1.062900 22.500900
-1.049000 25.847100
-1.035100 27.253300
-1.021300 24.297200
-1.007400 21.213200
-0.993600 19.244400
-0.979700 26.687200
-0.965900 33.098000
-0.952000 25.063900
-0.938200 10.091900
-0.924300 0.000000
-0.910400 0.000000
-0.896600 0.000000
-0.882700 1.939000
-0.868900 9.327000
-0.855000 26.107400
-0.841200 37.240200
-0.827300 46.604100
-0.813500 26.980000
-0.799600 9.421200
-0.785700 11.617000
-0.771900 15.546100
-0.758000 18.949400
-0.744200 21.827000
-0.730300 23.613300
-0.716500 11.798900
-0.702600 7.111900
-0.688700 4.124000
-0.674900 4.070400
-0.661000 6.978400
-0.647200 52.184000
-0.633300 47.232900
-0.619500 32.945700
-0.605600 10.646000
-0.591800 9.276600
-0.577900 34.946200
-0.564000 26.314900
-0.550200 21.346700
-0.536300 18.493900
-0.522500 24.062800
-0.508600 28.942800
-0.494800 30.759500
-0.480900 29.076400
-0.467100 34.784900
-0.453200 29.937500
-0.439300 25.184600
-0.425500 16.066200
-0.411600 13.866100
-0.397800 12.057900
-0.383900 23.423800
-0.370100 25.433300
-0.356200 12.076700
-0.342300 13.021300
-0.328500 14.282100
-0.314600 8.576000
-0.300800 16.875900
-0.286900 21.889900
-0.273100 22.157100
-0.259200 27.894500
-0.245400 25.388200
-0.231500 23.461200
-0.217600 25.155000
-0.203800 27.211800
-0.189900 26.643000
-0.176100 17.989200
-0.162200 25.617200
-0.148400 39.499900
-0.134500 22.994700
-0.120700 30.858800
-0.106800 37.910100
-0.092900 32.171400
-0.079100 30.572100
-0.065200 28.308200
-0.051400 25.939000
-0.037500 20.817300
-0.023700 14.321100
-0.009800 36.649200
0.004100 36.840100
0.017900 30.111000
0.031800 21.899900
0.045600 19.041200
0.059500 19.863200
0.073300 22.166300
0.087200 24.036000
0.101000 34.342100
0.114900 42.720500
0.128800 45.415000
0.142600 37.901600
0.156500 30.908600
0.170300 44.976900
0.184200 43.496600
0.198000 24.185100
0.211900 59.571600
0.225700 40.172500
0.239600 30.594600
0.253500 24.327500
0.267300 27.852600
0.281200 34.571600
0.295000 39.464700
0.308900 32.208300
0.322700 25.244300
0.336600 19.003900
0.350500 28.494400
0.364300 46.133000
0.378200 56.742000
0.392000 61.850300
0.405900 34.990300
0.419700 24.742800
0.433600 15.880200
0.447400 21.302500
0.461300 33.772400
0.475200 50.212500
0.489000 55.002000
0.502900 45.049200
0.516700 36.299600
0.530600 24.082200
0.544400 15.157100
0.558300 0.000000
0.572100 0.000000
0.586000 9.338300
0.599900 25.166200
0.613700 36.923400
0.627600 52.341900
0.641400 33.927300
0.655300 36.532500
0.669100 32.053000
0.683000 70.868300
0.696900 29.474600
0.710700 26.821200
0.724600 23.948200
0.738400 20.548300
0.752300 15.990800
0.766100 35.738600
0.780000 30.208000
0.793800 23.243700
0.807700 20.850200
0.821600 18.058600
0.835400 14.868900
0.849300 11.281000
0.863100 8.106400
0.877000 5.922200
0.890800 4.097500
0.904700 2.650300
0.918500 1.779300
0.932400 1.081300
0.946300 0.556200
0.960100 0.204000
0.974000 0.967600
0.987800 2.622100
1.001700 4.244000
1.015500 4.831900
1.029400 5.359800
1.043300 6.447800
1.057100 8.099500
1.071000 9.985000
1.084800 11.231200
1.098700 12.296900
1.112500 13.317000
1.126400 14.291500
1.140200 15.220600
1.154100 16.118100
1.168000 29.114300
1.181800 26.763900
1.195700 24.328700
1.209500 15.397000
1.223400 11.048500
1.237200 10.078400
1.251100 7.942200
1.264900 5.996700
1.278800 4.242000
1.292700 2.678100
1.306500 1.304800
1.320400 0.122300
1.334200 0.000000
1.348100 0.000000
1.361900 0.000000
1.375800 0.000000
1.389700 0.000000
1.403500 0.000000
1.417400 0.000000
1.431200 0.000000
1.445100 0.000000
1.458900 0.000000
1.472800 0.000000
1.486600 0.000000
1.500500 0.000000
1.514400 0.000000
1.528200 0.000000
1.542100 0.000000
1.555900 0.000000
1.569800 0.000000
1.583600 0.000000
1.597500 0.000000
1.611300 0.000000
1.625200 0.000000
1.639100 0.000000
1.652900 0.000000
1.666800 0.000000
1.680600 0.000000
1.694500 0.000000
1.708300 0.000000
1.722200 0.000000
1.736100 0.000000
1.749900 0.000000
1.763800 0.000000
1.777600 0.000000
1.791500 0.000000
1.805300 0.000000
1.819200 0.000000
1.833000 0.000000
1.846900 0.000000
1.860800 0.000000
1.874600 0.000000
1.888500 0.000000
1.902300 0.000000
1.916200 0.000000
1.930000 0.000000
1.943900 0.000000
1.957700 0.000000
1.971600 0.000000
1.985500 0.000000
1.999300 0.000000
2.013200 0.000000
2.027000 0.000000
2.040900 0.000000
2.054700 0.000000
2.068600 0.000000
2.082500 0.000000
2.096300 0.000000
2.110200 0.000000
2.124000 0.000000
2.137900 0.000000
2.151700 0.000000
2.165600 0.000000
2.179400 0.000000
2.193300 0.000000
2.207200 0.000000
2.221000 0.000000
2.234900 0.000000
2.248700 0.000000
2.262600 0.000000
2.276400 0.000000
2.290300 0.000000
2.304100 0.000000
2.318000 0.000000
2.331900 0.000000
2.345700 0.000000
2.359600 0.000000
2.373400 0.000000
2.387300 0.000000
2.401100 0.000000
2.415000 0.000000
2.428900 0.000000
2.442700 0.000000
2.456600 0.000000
2.470400 0.000000
2.484300 0.000000
2.498100 0.000000
2.512000 0.000000
2.525800 0.000000
2.539700 0.000000
2.553600 0.000000
2.567400 0.000000
2.581300 0.000000
2.595100 0.000000
2.609000 0.000000
2.622800 0.000000
2.636700 0.000000
2.650500 0.000000
2.664400 0.000000
2.678300 0.000000
2.692100 0.000000
2.706000 0.000000
2.719800 0.000000
2.733700 0.000000
2.747500 0.000000
2.761400 0.000000
2.775300 0.000000
2.789100 0.000000
2.803000 0.000000
2.816800 0.000000
2.830700 0.000000
2.844500 0.000000
2.858400 0.000000
2.872200 0.000000
2.886100 0.000000
2.900000 0.000000
2.913800 0.000000
2.927700 0.000000
2.941500 0.000000
2.955400 0.000000
2.969200 0.000000
2.983100 0.000000
2.996900 0.000000
3.010800 0.000000
3.024700 0.000000
3.038500 0.000000
3.052400 0.000000
3.066200 0.000000
3.080100 0.000000
3.093900 0.000000
3.107800 0.000000
3.121600 0.000000
3.135500 0.000000
3.149400 0.000000
3.163200 0.000000
3.177100 0.000000
3.190900 0.000000
3.204800 0.000000
3.218600 0.000000
3.232500 0.000000
3.246400 0.000000
3.260200 0.000000
3.274100 0.000000
3.287900 0.000000
3.301800 0.000000
3.315600 0.000000
3.329500 0.000000
3.343300 0.000000
3.357200 0.000000
3.371100 0.000000
3.384900 0.000000
3.398800 0.000000
3.412600 0.000000
3.426500 0.000000
3.440300 0.000000
3.454200 0.000000
3.468000 0.000000
3.481900 0.000000
3.495800 0.000000
3.509600 0.000000
3.523500 0.000000
3.537300 0.000000
3.551200 0.000000
3.565000 0.000000
3.578900 6.892500
3.592800 64.651300
3.606600 54.524100
3.620500 21.891300
3.634300 15.265500
3.648200 13.595200
3.662000 12.518100
3.675900 12.007900
3.689700 17.519400
3.703600 18.393100
3.717500 18.010500
3.731300 15.309500
3.745200 8.080900
3.759000 3.502800
3.772900 0.000000
3.786700 0.000000
3.800600 0.000000
3.814400 0.000000
3.828300 0.000000
3.842200 0.000000
3.856000 0.000000
3.869900 0.000000
3.883700 0.000000
3.897600 0.000000
3.911400 0.000000
3.925300 0.000000
3.939200 0.000000
3.953000 0.201400
3.966900 0.497200
3.980700 0.837900
3.994600 1.223300
4.008400 1.653400
4.022300 2.128400
4.036100 2.648100
4.050000 3.212700
4.063900 3.822000
4.077700 4.478400
4.091600 5.355200
4.105400 10.153000
4.119300 11.984800
4.133100 13.531800
4.147000 14.953700
4.160800 16.519300
4.174700 9.711800
4.188600 11.983200
4.202400 15.754900
4.216300 22.541200
4.230100 24.609600
4.244000 26.427000
4.257800 27.993400
4.271700 18.528800
4.285600 13.627700
4.299400 10.507300
4.313300 18.022000
4.327100 18.365300
4.341000 18.576300
4.354800 19.110200
4.368700 20.332200
4.382500 18.841200
4.396400 12.458000
4.410300 15.677900
4.424100 21.923700
4.438000 20.963900
4.451800 24.795100
4.465700 22.778500
4.479500 18.986000
4.493400 16.633800
4.507200 14.144700
4.521100 12.010100
4.535000 10.716800
4.548800 10.425400
4.562700 8.836900
4.576500 11.027500
4.590400 13.714900
4.604200 49.847100
4.618100 25.041900
4.632000 21.898900
4.645800 19.120200
4.659700 15.621400
4.673500 15.940400
4.687400 16.942500
4.701200 21.915300
4.715100 18.932000
4.728900 15.811700
4.742800 12.554500
4.756700 6.190900
4.770500 5.118400
4.784400 4.108400
4.798200 5.882700
4.812100 9.117900
4.825900 11.870200
4.839800 24.526800
4.853600 27.672200
4.867500 15.373900
4.881400 11.034000
4.895200 10.012800
4.909100 20.735000
4.922900 26.073400
4.936800 31.017600
4.950600 48.560200
4.964500 20.869900
4.978400 21.249500
4.992200 17.928000
5.006100 14.741200
5.019900 14.348800
5.033800 14.309600
5.047600 14.623700
5.061500 15.290900
5.075300 20.989000
5.089200 22.380300
5.103100 23.854200
5.116900 22.449400
5.130800 24.529400
5.144600 29.569900
5.158500 38.140800
5.172300 8.778000
5.186200 13.040700
5.200000 16.220700
5.213900 16.070200
5.227800 15.963900
5.241600 15.901900
5.255500 15.873600
5.269300 15.633300
5.283200 12.183500
5.297000 26.421100
5.310900 39.071300
5.324800 35.030600
5.338600 34.637100
5.352500 32.873700
5.366300 29.174700
5.380200 20.388900
5.394000 16.701300
5.407900 16.797500
5.421700 9.490200
5.435600 9.877300
5.449500 10.388900
5.463300 11.024800
5.477200 11.785200
5.491000 12.669900
5.504900 55.547300
5.518700 47.300100
5.532600 37.044500
5.546400 5.883200
5.560300 0.000000
5.574200 0.883800
5.588000 4.823200
5.601900 32.624500
5.615700 25.211800
5.629600 24.326100
5.643400 22.559900
5.657300 20.372600
5.671200 17.819500
5.685000 12.908100
5.698900 11.564000
5.712700 11.097000
5.726600 15.307200
5.740400 18.817900
5.754300 26.731500
5.768100 20.335200
5.782000 15.246500
5.795900 6.879900
5.809700 4.540700
5.823600 2.537000
5.837400 0.868700
5.851300 1.686600
5.865100 10.275400
5.879000 21.999000
5.892800 22.393200
5.906700 20.663100
5.920600 17.183600
5.934400 19.231100
5.948300 38.387200
5.962100 41.628400
5.976000 11.091700
5.989800 10.744300
6.003700 10.297500
6.017600 9.751500
6.031400 9.106100
6.045300 8.361300
6.059100 7.517300
6.073000 6.397000
6.086800 3.865900
6.100700 1.165500
6.114500 0.008900
6.128400 0.000000
6.142300 0.000000
6.156100 0.000000
6.170000 0.000000
6.183800 0.000000
6.197700 0.000000
6.211500 0.000000
6.225400 0.000000
6.239200 0.000000
6.253100 0.000000
6.267000 0.000000
6.280800 0.000000
6.294700 0.000000
6.308500 0.000000
6.322400 0.000000
6.336200 0.000000
6.350100 0.000000
6.364000 0.000000
6.377800 0.000000
6.391700 0.000000
6.405500 0.000000
6.419400 0.000000
6.433200 0.000000
6.447100 0.000000
6.460900 0.000000
6.474800 0.000000
6.488700 0.000000
6.502500 0.000000
6.516400 0.000000
6.530200 0.000000
6.544100 0.000000
6.557900 0.000000
6.571800 0.000000
6.585600 0.000000
6.599500 0.000000
6.613400 0.000000
6.627200 0.000000
6.641100 0.000000
6.654900 5.330500
6.668800 8.052600
6.682600 14.597900
6.696500 19.906600
6.710400 22.290400
6.724200 28.672000
6.738100 28.169300
6.751900 25.343900
6.765800 25.138100
6.779600 24.766300
6.793500 21.045300
6.807300 23.821300
6.821200 22.234300
6.835100 20.872900
6.848900 14.071600
6.862800 12.257900
6.876600 10.546800
6.890500 9.278600
6.904300 8.169800
6.918200 12.242600
6.932000 14.792900
6.945900 15.580200
6.959800 16.305000
6.973600 16.962700
6.987500 17.553400
7.001300 14.366500
7.015200 14.030100
7.029000 13.633300
7.042900 13.176300
7.056800 12.690100
7.070600 12.272400
7.084500 11.720200
7.098300 9.907400
7.112200 7.934400
7.126000 6.216200
7.139900 5.150400
7.153700 4.235700
7.167600 3.472100
7.181500 2.859600
7.195300 2.344200
7.209200 1.880000
7.223000 1.467000
7.236900 1.105200
7.250700 0.794600
7.264600 0.535300
7.278400 0.327100
7.292300 0.170200
7.306200 0.064500
7.320000 2.112500
7.333900 5.412200
7.347700 9.089000
7.361600 33.769000
7.375400 13.436400
7.389300 12.266300
7.403200 10.609200
7.417000 9.909800
7.430900 10.292800
7.444700 10.842300
7.458600 11.558500
7.472400 12.584400
7.486300 13.724700
7.500100 14.940300
7.514000 16.174300
7.527900 16.876200
7.541700 21.102500
7.555600 19.706300
7.569400 16.726800
7.583300 12.600100
7.597100 8.816100
7.611000 3.056000
7.624800 2.481700
7.638700 1.967200
7.652600 1.512400
7.666400 1.117200
7.680300 0.781800
7.694100 0.506100
7.708000 0.290100
7.721800 0.133900
7.735700 0.037300
7.749600 0.000400
7.763400 0.000000
7.777300 0.070000
7.791100 0.459600
7.805000 1.041100
7.818800 1.814400
7.832700 2.779600
7.846500 3.936700
7.860400 5.285500
7.874300 6.826300
7.888100 11.874400
7.902000 17.735800
7.915800 21.195600
7.929700 20.376400
7.943500 24.836400
7.957400 25.995100
7.971200 27.683700
7.985100 21.423900
7.999000 17.824400
8.012800 30.937100
8.026700 25.102700
8.040500 19.084400
8.054400 2.388400
8.068200 0.000000
8.082100 0.000000
8.096000 23.396200
8.109800 28.824100
8.123700 26.572700
8.137500 22.377200
8.151400 18.582400
8.165200 14.245600
8.179100 10.991300
8.192900 9.726100
8.206800 8.939200
8.220700 8.630900
8.234500 11.146300
8.248400 13.499300
8.262200 16.098700
8.276100 18.646600
8.289900 19.799200
8.303800 19.764500
8.317600 17.585100
8.331500 15.726900
8.345400 12.990200
8.359200 14.628100
8.373100 16.462600
8.386900 23.146700
8.400800 31.833100
8.414600 28.945300
8.428500 28.120700
8.442400 22.612200
8.456200 20.062300
8.470100 18.414100
8.483900 22.152300
8.497800 20.751100
8.511600 18.723500
8.525500 12.340900
8.539300 10.358200
8.553200 8.713600
8.567100 7.766600
8.580900 10.794100
8.594800 14.755500
8.608600 21.138800
8.622500 26.056200
8.636300 26.272700
8.650200 25.472500
8.664000 22.775600
8.677900 19.623500
8.691800 16.910700
8.705600 14.610900
8.719500 10.909400
8.733300 10.696200
8.747200 10.830600
8.761000 11.312700
8.774900 11.908600
8.788800 13.400600
8.802600 15.160800
8.816500 19.537900
8.830300 22.722500
8.844200 24.039600
8.858000 25.124500
8.871900 29.189800
8.885700 28.608100
8.899600 27.147400
8.913500 23.992300
8.927300 21.030200
8.941200 32.806300
8.955000 4.041800
8.968900 5.731300
8.982700 9.192700
8.996600 13.177400
9.010400 17.498900
9.024300 20.476900
9.038200 20.513000
9.052000 20.752600
9.065900 22.766600
9.079700 23.586100
9.093600 21.786000
9.107400 20.053400
9.121300 18.388300
9.135200 14.600100
9.149000 14.042600
9.162900 13.839500
9.176700 18.616700
9.190600 16.117300
9.204400 16.253500
9.218300 13.319600
9.232100 16.194200
9.246000 17.146300
9.259900 21.818700
9.273700 25.181600
9.287600 27.290000
9.301400 28.393900
9.315300 22.944000
9.329100 18.908800
9.343000 14.341200
9.356800 14.123900
9.370700 14.897500
9.384600 18.842300
9.398400 21.600600
9.412300 27.330300
9.426100 28.640800
9.440000 30.242700
9.453800 31.569000
9.467700 30.322600
9.481600 31.567600
9.495400 16.029400
9.509300 13.304300
9.523100 16.502900
9.537000 84.416300
9.550800 19.707200
9.564700 19.927400
9.578500 19.517500
9.592400 20.817800
9.606300 22.353700
9.620100 20.277300
9.634000 18.383600
9.647800 17.179400
9.661700 16.525600
9.675500 16.179600
9.689400 15.814300
9.703200 13.447100
9.717100 16.573100
9.731000 17.067900
9.744800 17.409000
9.758700 18.112600
9.772500 15.433600
9.786400 16.281500
9.800200 17.162700
9.814100 17.922100
9.828000 18.727600
9.841800 19.389000
9.855700 19.810300
9.869500 18.000900
9.883400 16.995700
9.897200 18.208700
9.911100 20.767300
9.924900 23.839600
9.938800 25.578200
9.952700 26.049200
9.966500 26.204900
9.980400 25.560700
9.994200 23.963100
10.008100 18.541600
10.021900 20.131900
10.035800 22.425300
10.049600 24.653000
10.063500 25.297300
10.077400 27.565200
10.091200 24.386300
10.105100 21.729500
10.118900 21.659900
10.132800 31.252100
10.146600 5.588200
10.160500 10.392100
10.174400 15.929700
10.188200 20.183200
10.202100 22.671300
10.215900 25.267900
10.229800 37.290400
10.243600 42.434400
10.257500 21.767200
10.271300 20.407800
10.285200 33.914600
10.299100 28.005000
10.312900 15.805600
10.326800 10.062500
10.340600 9.042800
10.354500 10.121700
10.368300 11.207300
10.382200 15.147400
10.396000 17.258800
10.409900 17.348900
10.423800 17.327200
10.437600 17.173100
10.451500 16.488600
10.465300 18.172200
10.479200 20.747000
10.493000 22.931100
10.506900 24.719800
10.520800 22.458200
10.534600 27.042400
10.548500 41.728700
10.562300 34.491000
10.576200 22.174100
10.590000 22.278100
10.603900 26.510200
10.617700 20.170100
10.631600 10.449300
10.645500 11.516300
10.659300 13.232500
10.673200 19.236200
10.687000 24.564100
10.700900 32.396800
10.714700 30.905600
10.728600 26.782800
10.742400 18.375100
10.756300 22.834100
10.770200 19.342400
10.784000 17.110500
10.797900 17.179300
10.811700 13.499800
10.825600 8.895200
10.839400 9.277100
10.853300 9.893800
10.867200 11.302500
10.881000 13.036700
10.894900 14.699300
10.908700 16.198100
10.922600 17.472700
10.936400 21.296000
10.950300 20.989400
10.964100 19.104900
10.978000 17.492300
10.991900 16.151900
11.005700 12.735700
11.019600 37.142200
11.033400 23.556000
11.047300 18.956000
11.061100 14.656000
11.075000 28.793800
11.088800 35.084000
11.102700 38.420300
11.116600 31.038700
11.130400 15.763900
11.144300 11.595800
11.158100 13.061600
11.172000 20.313200
11.185800 20.380400
11.199700 20.112900
11.213600 19.982300
11.227400 28.313100
11.241300 22.024900
11.255100 10.611200
11.269000 11.963500
11.282800 16.837900
11.296700 20.213000
11.310500 25.453000
11.324400 30.644600
11.338300 35.488800
11.352100 39.132900
11.366000 31.733900
11.379800 34.942900
11.393700 26.771100
11.407500 20.567500
11.421400 15.390200
11.435200 31.208800
11.449100 26.334500
11.463000 21.757800
11.476800 17.688300
11.490700 11.418800
11.504500 13.462700
11.518400 27.625100
11.532200 10.843400
11.546100 11.734900
11.559900 12.716800
11.573800 13.789000
11.587700 14.605300
11.601500 15.088100
11.615400 15.620600
11.629200 16.659300
11.643100 22.436000
11.656900 25.030200
11.670800 27.215300
11.684700 26.814300
11.698500 24.260400
11.712400 16.238100
11.726200 11.909100
11.740100 11.091800
11.753900 13.712800
11.767800 19.646600
11.781600 19.922200
11.795500 19.916500
11.809400 19.629300
11.823200 12.478200
11.837100 11.982100
11.850900 11.854800
11.864800 15.294300
11.878600 28.504800
11.892500 7.844300
11.906300 6.758900
11.920200 5.734500
11.934100 4.771100
11.947900 3.868800
11.961800 3.027500
11.975600 2.247300
11.989500 1.528200
12.003300 1.102600
12.017200 0.710600
12.031100 0.352400
12.044900 0.027800
12.058800 0.000000
12.072600 0.000000
12.086500 0.000000
12.100300 0.000000
12.114200 0.000000
12.128000 0.000000
12.141900 0.000000
12.155800 0.000000
12.169600 0.000000
12.183500 0.000000
12.197300 0.000000
12.211200 0.000000
12.225000 0.000000
12.238900 0.000000
12.252700 0.000000
12.266600 0.000000
12.280500 0.000000
12.294300 0.000000
12.308200 0.000000
12.322000 0.000000
12.335900 0.000000
12.349700 0.000000
12.363600 0.000000
12.377500 0.000000
12.391300 0.000000
12.405200 0.000000
12.419000 0.000000
12.432900 0.000000
12.446700 0.000000
12.460600 0.000000
12.474400 0.000000
12.488300 0.000000
12.502200 0.000000
12.516000 0.000000
12.529900 0.000000
12.543700 0.000000
12.557600 0.000000
12.571400 0.000000
12.585300 0.000000
12.599100 0.000000
12.613000 0.000000
12.626900 0.000000
12.640700 0.000000
12.654600 0.000000
12.668400 0.000000
12.682300 0.000000
12.696100 0.000000
12.710000 0.000000
12.723900 0.000000
12.737700 0.000000
12.751600 0.000000
12.765400 0.000000
12.779300 0.000000
12.793100 0.000000
12.807000 0.000000
12.820800 0.000000
12.834700 0.000000
12.848600 0.000000
12.862400 0.000000
12.876300 0.000000
12.890100 0.000000
12.904000 0.000000
12.917800 0.000000
12.931700 0.000000
12.945500 0.000000
12.959400 0.000000
12.973300 0.000000
12.987100 0.000000
13.001000 0.000000
13.014800 0.000000
13.028700 0.000000
13.042500 0.000000
13.056400 0.000000
13.070300 0.000000
13.084100 0.000000
13.098000 0.000000
13.111800 0.000000
13.125700 0.000000
13.139500 0.000000
13.153400 0.000000
13.167200 0.000000
13.181100 0.000000
13.195000 0.000000
13.208800 0.000000
13.222700 0.000000
13.236500 0.000000
13.250400 0.000000
13.264200 0.000000
13.278100 0.000000
13.291900 0.000000
13.305800 0.000000
e
