set title 'mp-1225746 - Density of States'
set xlabel 'Energy (eV)'
set ylabel 'DOS (states/eV)'
set grid
set xrange [-10:10]
set yrange [0:19.319]
set xzeroaxis lt -1
set terminal png size 800,600
set output 'mp-1225746_dos_gnuplot.png'
plot '-' using 1:2 with lines title 'DOS'
-70.048000 0.000000
-69.976800 0.000000
-69.905700 0.000000
-69.834500 0.000000
-69.763300 0.000000
-69.692200 0.000000
-69.621000 0.000000
-69.549900 0.000000
-69.478700 0.000000
-69.407600 0.000000
-69.336400 0.000000
-69.265300 0.000000
-69.194100 0.000000
-69.123000 0.000000
-69.051800 0.000000
-68.980700 0.000000
-68.909500 0.000000
-68.838300 0.000000
-68.767200 0.000000
-68.696000 0.000000
-68.624900 0.000000
-68.553700 0.000000
-68.482600 0.000000
-68.411400 0.000000
-68.340300 0.000000
-68.269100 0.000000
-68.198000 0.000000
-68.126800 0.000000
-68.055700 0.000000
-67.984500 0.000000
-67.913300 0.000000
-67.842200 0.000000
-67.771000 0.000000
-67.699900 0.000000
-67.628700 0.000000
-67.557600 0.000000
-67.486400 0.000000
-67.415300 0.000000
-67.344100 0.000000
-67.273000 0.000000
-67.201800 0.000000
-67.130700 0.000000
-67.059500 0.000000
-66.988300 0.000000
-66.917200 0.000000
-66.846000 0.000000
-66.774900 0.000000
-66.703700 0.000000
-66.632600 0.000000
-66.561400 0.000000
-66.490300 0.000000
-66.419100 0.000000
-66.348000 0.000000
-66.276800 0.000000
-66.205600 0.000000
-66.134500 0.000000
-66.063300 0.000000
-65.992200 0.000000
-65.921000 0.000000
-65.849900 0.000000
-65.778700 0.000000
-65.707600 0.000000
-65.636400 0.000000
-65.565300 0.000000
-65.494100 0.000000
-65.423000 0.000000
-65.351800 0.000000
-65.280600 0.000000
-65.209500 0.000000
-65.138300 0.000000
-65.067200 0.000000
-64.996000 0.000000
-64.924900 0.000000
-64.853700 0.000000
-64.782600 0.000000
-64.711400 0.000000
-64.640300 0.000000
-64.569100 0.000000
-64.498000 0.000000
-64.426800 0.000000
-64.355600 0.000000
-64.284500 0.000000
-64.213300 0.000000
-64.142200 0.000000
-64.071000 0.000000
-63.999900 0.000000
-63.928700 0.000000
-63.857600 0.000000
-63.786400 0.000000
-63.715300 0.000000
-63.644100 0.000000
-63.573000 287.452400
-63.501800 0.000000
-63.430600 0.000000
-63.359500 0.000000
-63.288300 0.000000
-63.217200 0.000000
-63.146000 0.000000
-63.074900 0.000000
-63.003700 67.038300
-62.932600 0.000000
-62.861400 0.000000
-62.790300 0.000000
-62.719100 0.000000
-62.648000 0.000000
-62.576800 0.000000
-62.505600 0.000000
-62.434500 0.000000
-62.363300 0.000000
-62.292200 0.000000
-62.221000 0.000000
-62.149900 0.000000
-62.078700 0.000000
-62.007600 0.000000
-61.936400 0.000000
-61.865300 0.000000
-61.794100 0.000000
-61.722900 0.000000
-61.651800 0.000000
-61.580600 0.000000
-61.509500 0.000000
-61.438300 0.000000
-61.367200 0.000000
-61.296000 0.000000
-61.224900 0.000000
-61.153700 0.000000
-61.082600 0.000000
-61.011400 0.000000
-60.940300 0.000000
-60.869100 0.000000
-60.797900 0.000000
-60.726800 0.000000
-60.655600 0.000000
-60.584500 0.000000
-60.513300 0.000000
-60.442200 0.000000
-60.371000 0.000000
-60.299900 0.000000
-60.228700 0.000000
-60.157600 0.000000
-60.086400 0.000000
-60.015300 0.000000
-59.944100 0.000000
-59.872900 0.000000
-59.801800 0.000000
-59.730600 0.000000
-59.659500 0.000000
-59.588300 0.000000
-59.517200 0.000000
-59.446000 0.000000
-59.374900 0.000000
-59.303700 0.000000
-59.232600 0.000000
-59.161400 0.000000
-59.090300 0.000000
-59.019100 0.000000
-58.947900 0.000000
-58.876800 0.000000
-58.805600 0.000000
-58.734500 0.000000
-58.663300 0.000000
-58.592200 0.000000
-58.521000 0.000000
-58.449900 0.000000
-58.378700 0.000000
-58.307600 0.000000
-58.236400 0.000000
-58.165300 0.000000
-58.094100 0.000000
-58.022900 0.000000
-57.951800 0.000000
-57.880600 0.000000
-57.809500 0.000000
-57.738300 0.000000
-57.667200 0.000000
-57.596000 0.000000
-57.524900 0.000000
-57.453700 0.000000
-57.382600 0.000000
-57.311400 0.000000
-57.240200 0.000000
-57.169100 0.000000
-57.097900 0.000000
-57.026800 0.000000
-56.955600 0.000000
-56.884500 0.000000
-56.813300 0.000000
-56.742200 0.000000
-56.671000 0.000000
-56.599900 0.000000
-56.528700 0.000000
-56.457600 0.000000
-56.386400 0.000000
-56.315200 0.000000
-56.244100 0.000000
-56.172900 0.000000
-56.101800 0.000000
-56.030600 0.000000
-55.959500 0.000000
-55.888300 0.000000
-55.817200 0.000000
-55.746000 0.000000
-55.674900 0.000000
-55.603700 0.000000
-55.532600 0.000000
-55.461400 0.000000
-55.390200 0.000000
-55.319100 0.000000
-55.247900 0.000000
-55.176800 0.000000
-55.105600 0.000000
-55.034500 0.000000
-54.963300 0.000000
-54.892200 0.000000
-54.821000 0.000000
-54.749900 0.000000
-54.678700 0.000000
-54.607600 0.000000
-54.536400 0.000000
-54.465200 0.000000
-54.394100 0.000000
-54.322900 0.000000
-54.251800 0.000000
-54.180600 0.000000
-54.109500 0.000000
-54.038300 0.000000
-53.967200 0.000000
-53.896000 0.000000
-53.824900 0.000000
-53.753700 0.000000
-53.682600 0.000000
-53.611400 0.000000
-53.540200 0.000000
-53.469100 0.000000
-53.397900 0.000000
-53.326800 0.000000
-53.255600 0.000000
-53.184500 0.000000
-53.113300 0.000000
-53.042200 0.000000
-52.971000 0.000000
-52.899900 0.000000
-52.828700 0.000000
-52.757500 0.000000
-52.686400 0.000000
-52.615200 0.000000
-52.544100 0.000000
-52.472900 0.000000
-52.401800 0.000000
-52.330600 0.000000
-52.259500 0.000000
-52.188300 0.000000
-52.117200 0.000000
-52.046000 0.000000
-51.974900 0.000000
-51.903700 0.000000
-51.832500 0.000000
-51.761400 0.000000
-51.690200 0.000000
-51.619100 0.000000
-51.547900 0.000000
-51.476800 0.000000
-51.405600 0.000000
-51.334500 0.000000
-51.263300 0.000000
-51.192200 0.000000
-51.121000 0.000000
-51.049900 0.000000
-50.978700 0.000000
-50.907500 0.000000
-50.836400 0.000000
-50.765200 0.000000
-50.694100 0.000000
-50.622900 0.000000
-50.551800 0.000000
-50.480600 0.000000
-50.409500 0.000000
-50.338300 0.000000
-50.267200 0.000000
-50.196000 0.000000
-50.124900 0.000000
-50.053700 0.000000
-49.982500 0.000000
-49.911400 0.000000
-49.840200 0.000000
-49.769100 0.000000
-49.697900 0.000000
-49.626800 0.000000
-49.555600 0.000000
-49.484500 0.000000
-49.413300 0.000000
-49.342200 0.000000
-49.271000 0.000000
-49.199900 0.000000
-49.128700 0.000000
-49.057500 0.000000
-48.986400 0.000000
-48.915200 0.000000
-48.844100 0.000000
-48.772900 0.000000
-48.701800 0.000000
-48.630600 0.000000
-48.559500 0.000000
-48.488300 0.000000
-48.417200 0.000000
-48.346000 0.000000
-48.274800 0.000000
-48.203700 0.000000
-48.132500 0.000000
-48.061400 0.000000
-47.990200 0.000000
-47.919100 0.000000
-47.847900 0.000000
-47.776800 0.000000
-47.705600 0.000000
-47.634500 0.000000
-47.563300 0.000000
-47.492200 0.000000
-47.421000 0.000000
-47.349800 0.000000
-47.278700 0.000000
-47.207500 0.000000
-47.136400 0.000000
-47.065200 0.000000
-46.994100 0.000000
-46.922900 0.000000
-46.851800 0.000000
-46.780600 0.000000
-46.709500 0.000000
-46.638300 0.000000
-46.567200 0.000000
-46.496000 0.000000
-46.424800 0.000000
-46.353700 0.000000
-46.282500 0.000000
-46.211400 0.000000
-46.140200 0.000000
-46.069100 0.000000
-45.997900 0.000000
-45.926800 0.000000
-45.855600 0.000000
-45.784500 0.000000
-45.713300 0.000000
-45.642200 0.000000
-45.571000 0.000000
-45.499800 0.000000
-45.428700 0.000000
-45.357500 0.000000
-45.286400 0.000000
-45.215200 0.000000
-45.144100 0.000000
-45.072900 0.000000
-45.001800 0.000000
-44.930600 0.000000
-44.859500 0.000000
-44.788300 0.000000
-44.717200 0.000000
-44.646000 0.000000
-44.574800 0.000000
-44.503700 0.000000
-44.432500 0.000000
-44.361400 0.000000
-44.290200 0.000000
-44.219100 0.000000
-44.147900 0.000000
-44.076800 0.000000
-44.005600 0.000000
-43.934500 0.000000
-43.863300 0.000000
-43.792100 0.000000
-43.721000 0.000000
-43.649800 0.000000
-43.578700 0.000000
-43.507500 0.000000
-43.436400 0.000000
-43.365200 0.000000
-43.294100 0.000000
-43.222900 0.000000
-43.151800 0.000000
-43.080600 0.000000
-43.009500 0.000000
-42.938300 0.000000
-42.867100 0.000000
-42.796000 0.000000
-42.724800 0.000000
-42.653700 0.000000
-42.582500 0.000000
-42.511400 0.000000
-42.440200 0.000000
-42.369100 0.000000
-42.297900 0.000000
-42.226800 0.000000
-42.155600 0.000000
-42.084500 0.000000
-42.013300 0.000000
-41.942100 0.000000
-41.871000 0.000000
-41.799800 0.000000
-41.728700 0.000000
-41.657500 0.000000
-41.586400 0.000000
-41.515200 0.000000
-41.444100 0.000000
-41.372900 0.000000
-41.301800 0.000000
-41.230600 0.000000
-41.159500 0.000000
-41.088300 0.000000
-41.017100 0.000000
-40.946000 0.000000
-40.874800 0.000000
-40.803700 0.000000
-40.732500 0.000000
-40.661400 0.000000
-40.590200 0.000000
-40.519100 0.000000
-40.447900 0.000000
-40.376800 0.000000
-40.305600 0.000000
-40.234500 0.000000
-40.163300 0.000000
-40.092100 0.000000
-40.021000 0.000000
-39.949800 0.000000
-39.878700 0.000000
-39.807500 0.000000
-39.736400 0.000000
-39.665200 0.000000
-39.594100 0.000000
-39.522900 0.000000
-39.451800 0.000000
-39.380600 0.000000
-39.309400 0.000000
-39.238300 0.000000
-39.167100 0.000000
-39.096000 0.000000
-39.024800 0.000000
-38.953700 0.000000
-38.882500 0.000000
-38.811400 0.000000
-38.740200 0.000000
-38.669100 0.000000
-38.597900 0.000000
-38.526800 0.000000
-38.455600 0.000000
-38.384400 0.000000
-38.313300 0.000000
-38.242100 0.000000
-38.171000 0.000000
-38.099800 0.000000
-38.028700 0.000000
-37.957500 0.000000
-37.886400 0.000000
-37.815200 0.000000
-37.744100 0.000000
-37.672900 0.000000
-37.601800 0.000000
-37.530600 0.000000
-37.459400 0.000000
-37.388300 0.000000
-37.317100 0.000000
-37.246000 0.000000
-37.174800 0.000000
-37.103700 0.000000
-37.032500 0.000000
-36.961400 0.000000
-36.890200 0.000000
-36.819100 0.000000
-36.747900 0.000000
-36.676800 0.000000
-36.605600 0.000000
-36.534400 0.000000
-36.463300 0.000000
-36.392100 0.000000
-36.321000 0.000000
-36.249800 0.000000
-36.178700 0.000000
-36.107500 0.000000
-36.036400 0.000000
-35.965200 0.000000
-35.894100 0.000000
-35.822900 0.000000
-35.751800 0.000000
-35.680600 0.000000
-35.609400 0.000000
-35.538300 0.000000
-35.467100 0.000000
-35.396000 0.000000
-35.324800 0.000000
-35.253700 0.000000
-35.182500 0.000000
-35.111400 0.000000
-35.040200 0.000000
-34.969100 0.000000
-34.897900 0.000000
-34.826700 0.000000
-34.755600 0.000000
-34.684400 0.000000
-34.613300 0.000000
-34.542100 0.000000
-34.471000 0.000000
-34.399800 0.000000
-34.328700 0.000000
-34.257500 0.000000
-34.186400 0.000000
-34.115200 0.000000
-34.044100 0.000000
-33.972900 0.000000
-33.901700 0.000000
-33.830600 0.000000
-33.759400 0.000000
-33.688300 0.000000
-33.617100 0.000000
-33.546000 0.000000
-33.474800 0.000000
-33.403700 0.000000
-33.332500 0.000000
-33.261400 0.000000
-33.190200 0.000000
-33.119100 0.000000
-33.047900 0.000000
-32.976700 0.000000
-32.905600 0.000000
-32.834400 0.000000
-32.763300 0.000000
-32.692100 0.000000
-32.621000 0.000000
-32.549800 0.000000
-32.478700 0.000000
-32.407500 0.000000
-32.336400 0.000000
-32.265200 0.000000
-32.194100 0.000000
-32.122900 0.000000
-32.051700 0.000000
-31.980600 0.000000
-31.909400 0.000000
-31.838300 0.000000
-31.767100 0.000000
-31.696000 0.000000
-31.624800 0.000000
-31.553700 0.000000
-31.482500 0.000000
-31.411400 0.000000
-31.340200 0.000000
-31.269100 0.000000
-31.197900 0.000000
-31.126700 0.000000
-31.055600 0.000000
-30.984400 0.000000
-30.913300 0.000000
-30.842100 0.000000
-30.771000 0.000000
-30.699800 0.000000
-30.628700 0.000000
-30.557500 0.000000
-30.486400 0.000000
-30.415200 0.000000
-30.344000 0.000000
-30.272900 0.000000
-30.201700 0.000000
-30.130600 0.000000
-30.059400 0.000000
-29.988300 0.000000
-29.917100 0.000000
-29.846000 0.000000
-29.774800 0.000000
-29.703700 0.000000
-29.632500 0.000000
-29.561400 0.000000
-29.490200 0.000000
-29.419000 0.000000
-29.347900 0.000000
-29.276700 0.000000
-29.205600 0.000000
-29.134400 0.000000
-29.063300 0.000000
-28.992100 0.000000
-28.921000 0.000000
-28.849800 0.000000
-28.778700 0.000000
-28.707500 0.000000
-28.636400 0.000000
-28.565200 0.000000
-28.494000 0.000000
-28.422900 0.000000
-28.351700 0.000000
-28.280600 0.000000
-28.209400 0.000000
-28.138300 0.000000
-28.067100 0.000000
-27.996000 0.000000
-27.924800 0.000000
-27.853700 0.000000
-27.782500 0.000000
-27.711400 0.000000
-27.640200 0.000000
-27.569000 0.000000
-27.497900 0.000000
-27.426700 0.000000
-27.355600 0.000000
-27.284400 0.000000
-27.213300 0.000000
-27.142100 0.000000
-27.071000 0.000000
-26.999800 0.000000
-26.928700 0.000000
-26.857500 0.000000
-26.786400 0.000000
-26.715200 0.000000
-26.644000 0.000000
-26.572900 0.000000
-26.501700 0.000000
-26.430600 0.000000
-26.359400 0.000000
-26.288300 0.000000
-26.217100 0.000000
-26.146000 0.000000
-26.074800 0.000000
-26.003700 0.000000
-25.932500 0.000000
-25.861400 0.000000
-25.790200 0.000000
-25.719000 0.000000
-25.647900 0.000000
-25.576700 0.000000
-25.505600 0.000000
-25.434400 0.000000
-25.363300 0.000000
-25.292100 0.000000
-25.221000 0.000000
-25.149800 0.000000
-25.078700 0.000000
-25.007500 0.000000
-24.936300 0.000000
-24.865200 0.000000
-24.794000 0.000000
-24.722900 0.000000
-24.651700 0.000000
-24.580600 0.000000
-24.509400 0.000000
-24.438300 0.000000
-24.367100 0.000000
-24.296000 0.000000
-24.224800 0.000000
-24.153700 0.000000
-24.082500 0.000000
-24.011300 0.000000
-23.940200 0.000000
-23.869000 0.000000
-23.797900 0.000000
-23.726700 0.000000
-23.655600 0.000000
-23.584400 0.000000
-23.513300 0.000000
-23.442100 0.000000
-23.371000 0.000000
-23.299800 0.000000
-23.228700 0.000000
-23.157500 0.000000
-23.086300 0.000000
-23.015200 0.000000
-22.944000 0.000000
-22.872900 0.000000
-22.801700 0.000000
-22.730600 0.000000
-22.659400 0.000000
-22.588300 0.000000
-22.517100 0.000000
-22.446000 0.000000
-22.374800 0.000000
-22.303700 0.000000
-22.232500 0.000000
-22.161300 0.000000
-22.090200 0.000000
-22.019000 0.000000
-21.947900 0.000000
-21.876700 0.000000
-21.805600 0.000000
-21.734400 0.000000
-21.663300 0.000000
-21.592100 0.000000
-21.521000 0.000000
-21.449800 0.000000
-21.378700 0.000000
-21.307500 0.000000
-21.236300 0.000000
-21.165200 0.000000
-21.094000 0.000000
-21.022900 0.000000
-20.951700 0.000000
-20.880600 0.000000
-20.809400 0.000000
-20.738300 0.000000
-20.667100 0.000000
-20.596000 0.000000
-20.524800 0.000000
-20.453600 0.000000
-20.382500 0.000000
-20.311300 0.000000
-20.240200 0.000000
-20.169000 0.000000
-20.097900 0.000000
-20.026700 0.000000
-19.955600 0.000000
-19.884400 0.000000
-19.813300 0.000000
-19.742100 0.000000
-19.671000 0.000000
-19.599800 0.000000
-19.528600 0.000000
-19.457500 0.000000
-19.386300 0.000000
-19.315200 0.000000
-19.244000 0.000000
-19.172900 0.000000
-19.101700 0.000000
-19.030600 0.000000
-18.959400 0.000000
-18.888300 0.000000
-18.817100 0.000000
-18.746000 0.000000
-18.674800 0.000000
-18.603600 0.000000
-18.532500 0.000000
-18.461300 0.000000
-18.390200 0.000000
-18.319000 0.000000
-18.247900 0.000000
-18.176700 0.000000
-18.105600 0.000000
-18.034400 0.000000
-17.963300 0.000000
-17.892100 0.000000
-17.821000 0.000000
-17.749800 0.000000
-17.678600 0.000000
-17.607500 0.000000
-17.536300 0.000000
-17.465200 0.000000
-17.394000 0.000000
-17.322900 0.000000
-17.251700 0.000000
-17.180600 0.000000
-17.109400 0.000000
-17.038300 0.000000
-16.967100 0.000000
-16.896000 0.000000
-16.824800 0.000000
-16.753600 0.000000
-16.682500 0.000000
-16.611300 0.000000
-16.540200 0.000000
-16.469000 0.000000
-16.397900 0.000000
-16.326700 0.000000
-16.255600 0.000000
-16.184400 0.000000
-16.113300 0.000000
-16.042100 0.000000
-15.970900 0.000000
-15.899800 0.000000
-15.828600 0.000000
-15.757500 0.000000
-15.686300 0.000000
-15.615200 0.000000
-15.544000 0.000000
-15.472900 0.000000
-15.401700 0.000000
-15.330600 0.000000
-15.259400 0.000000
-15.188300 0.000000
-15.117100 0.000000
-15.045900 0.000000
-14.974800 0.000000
-14.903600 0.000000
-14.832500 0.000000
-14.761300 0.000000
-14.690200 0.000000
-14.619000 0.000000
-14.547900 0.000000
-14.476700 0.000000
-14.405600 0.000000
-14.334400 0.000000
-14.263300 0.000000
-14.192100 0.000000
-14.120900 0.000000
-14.049800 0.000000
-13.978600 0.000000
-13.907500 0.000000
-13.836300 0.000000
-13.765200 0.000000
-13.694000 0.000000
-13.622900 0.000000
-13.551700 0.000000
-13.480600 0.000000
-13.409400 0.000000
-13.338300 0.000000
-13.267100 0.000000
-13.195900 0.000000
-13.124800 0.000000
-13.053600 0.000000
-12.982500 0.000000
-12.911300 0.000000
-12.840200 0.000000
-12.769000 0.000000
-12.697900 0.000000
-12.626700 0.000000
-12.555600 0.000000
-12.484400 0.000000
-12.413300 0.000000
-12.342100 0.000000
-12.270900 0.000000
-12.199800 0.000000
-12.128600 0.000000
-12.057500 0.000000
-11.986300 0.000000
-11.915200 0.000000
-11.844000 0.000000
-11.772900 0.000000
-11.701700 0.000000
-11.630600 0.000000
-11.559400 0.000000
-11.488200 0.000000
-11.417100 0.000000
-11.345900 0.000000
-11.274800 0.000000
-11.203600 0.000000
-11.132500 0.000000
-11.061300 0.000000
-10.990200 0.000000
-10.919000 0.000000
-10.847900 0.000000
-10.776700 0.000000
-10.705600 0.000000
-10.634400 0.000000
-10.563200 0.000000
-10.492100 0.000000
-10.420900 0.000000
-10.349800 0.000000
-10.278600 0.000000
-10.207500 0.000000
-10.136300 0.000000
-10.065200 0.000000
-9.994000 0.000000
-9.922900 0.000000
-9.851700 0.000000
-9.780600 0.398100
-9.709400 0.505800
-9.638200 0.457200
-9.567100 0.498200
-9.495900 0.483600
-9.424800 0.492700
-9.353600 0.516600
-9.282500 0.508700
-9.211300 0.520500
-9.140200 0.535500
-9.069000 0.553500
-8.997900 0.554600
-8.926700 0.568900
-8.855600 0.584000
-8.784400 0.600900
-8.713200 0.618600
-8.642100 0.637400
-8.570900 0.657500
-8.499800 0.677700
-8.428600 0.713600
-8.357500 0.748600
-8.286300 0.782400
-8.215200 0.816900
-8.144000 0.882700
-8.072900 0.964600
-8.001700 1.043600
-7.930600 1.139100
-7.859400 1.359800
-7.788200 1.724800
-7.717100 2.595800
-7.645900 1.909600
-7.574800 1.321700
-7.503600 1.419500
-7.432500 1.146000
-7.361300 0.000000
-7.290200 0.000000
-7.219000 0.000000
-7.147900 0.000000
-7.076700 0.000000
-7.005500 0.000000
-6.934400 0.000000
-6.863200 0.000000
-6.792100 0.000000
-6.720900 0.000000
-6.649800 0.000000
-6.578600 0.000000
-6.507500 0.000000
-6.436300 0.000000
-6.365200 0.000000
-6.294000 0.000000
-6.222900 0.000000
-6.151700 0.000000
-6.080500 0.000000
-6.009400 0.000000
-5.938200 0.000000
-5.867100 0.000000
-5.795900 0.000000
-5.724800 0.000000
-5.653600 0.000000
-5.582500 0.000000
-5.511300 0.000000
-5.440200 0.000000
-5.369000 0.000000
-5.297900 0.000000
-5.226700 0.000000
-5.155500 0.000000
-5.084400 0.000000
-5.013200 0.000000
-4.942100 0.000000
-4.870900 0.000000
-4.799800 0.000000
-4.728600 0.000000
-4.657500 0.000000
-4.586300 0.000000
-4.515200 0.000000
-4.444000 0.000000
-4.372900 0.000000
-4.301700 0.000000
-4.230500 0.000000
-4.159400 0.000000
-4.088200 0.000000
-4.017100 0.000000
-3.945900 0.000000
-3.874800 0.000000
-3.803600 0.000000
-3.732500 0.000000
-3.661300 0.000000
-3.590200 0.000000
-3.519000 0.000000
-3.447900 0.000000
-3.376700 0.000000
-3.305500 0.000000
-3.234400 0.000000
-3.163200 0.000000
-3.092100 0.000000
-3.020900 0.000000
-2.949800 0.000000
-2.878600 0.000000
-2.807500 0.000000
-2.736300 0.000000
-2.665200 0.000000
-2.594000 0.000000
-2.522800 0.000000
-2.451700 0.000000
-2.380500 0.000000
-2.309400 0.000000
-2.238200 0.000000
-2.167100 0.000000
-2.095900 0.000000
-2.024800 0.000000
-1.953600 0.086000
-1.882500 0.092100
-1.811300 0.129400
-1.740200 0.141900
-1.669000 0.161500
-1.597800 0.181400
-1.526700 0.201900
-1.455500 0.221700
-1.384400 0.242200
-1.313200 0.265100
-1.242100 0.290300
-1.170900 0.315400
-1.099800 0.321000
-1.028600 0.325800
-0.957500 0.330200
-0.886300 0.336200
-0.815200 0.341500
-0.744000 0.346800
-0.672800 0.355100
-0.601700 1.169400
-0.530500 1.398900
-0.459400 1.332300
-0.388200 1.437200
-0.317100 1.539000
-0.245900 1.597100
-0.174800 1.713500
-0.103600 1.867800
-0.032500 2.184100
0.038700 2.589700
0.109800 2.451800
0.181000 2.073700
0.252200 1.786600
0.323300 1.135200
0.394500 0.602900
0.465600 0.575000
0.536800 1.814700
0.607900 2.922200
0.679100 2.519000
0.750200 2.330600
0.821400 2.748300
0.892500 4.313500
0.963700 4.166500
1.034800 3.502900
1.106000 1.558400
1.177200 1.096900
1.248300 0.851100
1.319500 0.685500
1.390600 0.895000
1.461800 1.644700
1.532900 2.613500
1.604100 2.361100
1.675200 2.548000
1.746400 2.346200
1.817500 2.194500
1.888700 1.908800
1.959900 2.039800
2.031000 1.941800
2.102200 2.195100
2.173300 2.630600
2.244500 3.267700
2.315600 5.376600
2.386800 4.793000
2.457900 4.701500
2.529100 6.128600
2.600200 7.264100
2.671400 6.422300
2.742500 10.032900
2.813700 11.498200
2.884900 5.108000
2.956000 5.999400
3.027200 4.974700
3.098300 5.116100
3.169500 10.129100
3.240600 11.281100
3.311800 10.019000
3.382900 11.058800
3.454100 8.951800
3.525200 9.342400
3.596400 11.313200
3.667500 8.596300
3.738700 9.301500
3.809900 8.590100
3.881000 9.768900
3.952200 11.206600
4.023300 12.096300
4.094500 13.537000
4.165600 11.108000
4.236800 8.897900
4.307900 8.476700
4.379100 9.097400
4.450200 11.582500
4.521400 12.827000
4.592500 10.067300
4.663700 8.884900
4.734900 12.084300
4.806000 17.562700
4.877200 9.158500
4.948300 6.471100
5.019500 3.946100
5.090600 5.617500
5.161800 5.300600
5.232900 4.514000
5.304100 3.274800
5.375200 2.897200
5.446400 3.259900
5.517500 3.386800
5.588700 2.750200
5.659900 2.388300
5.731000 2.251700
5.802200 2.335800
5.873300 1.485300
5.944500 1.382400
6.015600 2.656900
6.086800 2.614500
6.157900 3.454700
6.229100 2.580000
6.300200 1.980800
6.371400 1.786300
6.442600 1.686900
6.513700 1.677600
6.584900 1.488700
6.656000 1.645200
6.727200 1.757000
6.798300 1.801100
6.869500 1.750500
6.940600 2.003000
7.011800 2.870900
7.082900 3.311400
7.154100 3.180700
7.225200 2.415300
7.296400 1.849000
7.367600 1.319600
7.438700 1.360000
7.509900 1.271000
7.581000 1.433100
7.652200 1.940700
7.723300 2.771100
7.794500 0.788800
7.865600 0.708000
7.936800 0.642700
8.007900 0.604800
8.079100 0.558300
8.150200 0.535800
8.221400 0.517800
8.292600 0.500100
8.363700 0.490400
8.434900 0.482000
8.506000 0.475000
8.577200 0.469100
8.648300 0.465100
8.719500 0.463900
8.790600 0.475600
8.861800 0.531000
8.932900 0.566800
9.004100 0.581300
9.075200 0.622700
9.146400 0.738700
9.217600 0.760100
9.288700 0.777200
9.359900 0.809400
9.431000 0.863700
9.502200 0.904000
9.573300 0.793800
9.644500 0.775800
9.715600 0.857100
9.786800 0.801900
9.857900 0.785900
9.929100 0.842600
10.000200 0.829000
10.071400 0.816000
10.142600 0.710200
10.213700 0.664700
10.284900 0.634300
10.356000 0.675700
10.427200 0.686100
10.498300 0.706700
10.569500 0.691400
10.640600 0.695700
10.711800 0.642800
10.782900 0.603200
10.854100 0.538900
10.925300 0.572000
10.996400 0.631300
11.067600 0.754500
11.138700 0.864800
11.209900 0.787200
11.281000 0.749000
11.352200 0.692500
11.423300 0.650800
11.494500 0.633900
11.565600 0.596400
11.636800 0.431200
11.707900 0.371600
11.779100 0.362000
11.850300 0.407700
11.921400 0.560900
11.992600 0.698100
12.063700 0.851000
12.134900 0.956900
12.206000 1.118500
12.277200 1.143900
12.348300 1.083000
12.419500 1.049900
12.490600 0.983100
12.561800 1.018900
12.632900 1.082400
12.704100 1.102800
12.775300 1.168300
12.846400 1.216800
12.917600 1.220200
12.988700 1.249500
13.059900 1.257200
13.131000 1.249100
13.202200 1.290300
13.273300 1.293100
13.344500 1.261500
13.415600 1.237300
13.486800 1.255400
13.557900 1.282300
13.629100 1.292700
13.700300 1.301000
13.771400 1.361900
13.842600 1.438600
13.913700 1.372300
13.984900 1.020900
14.056000 1.060700
14.127200 1.301600
14.198300 1.218100
14.269500 0.988000
14.340600 0.908400
14.411800 0.863900
14.482900 0.832100
14.554100 0.876800
14.625300 0.885400
14.696400 0.876800
14.767600 0.910700
14.838700 1.036400
14.909900 1.137000
14.981000 1.136400
15.052200 1.104500
15.123300 1.060200
15.194500 1.014200
15.265600 0.987500
15.336800 0.980900
15.408000 0.986400
15.479100 1.010100
15.550300 1.016600
15.621400 1.022300
15.692600 0.982400
15.763700 0.948900
15.834900 0.930800
15.906000 0.916300
15.977200 0.887000
16.048300 0.865200
16.119500 0.929000
16.190600 0.957800
16.261800 1.082200
16.333000 1.169700
16.404100 1.225600
16.475300 1.264500
16.546400 1.294900
16.617600 1.307700
16.688700 1.323400
16.759900 1.355100
16.831000 1.412500
16.902200 1.462500
16.973300 1.398400
17.044500 1.420200
17.115600 1.478900
17.186800 1.491000
17.258000 1.483300
17.329100 1.412300
17.400300 1.398100
17.471400 1.471200
17.542600 1.492000
17.613700 1.568800
17.684900 2.086300
17.756000 1.791100
17.827200 1.741900
17.898300 1.718700
17.969500 1.739000
18.040600 1.701600
18.111800 1.714800
18.183000 1.658600
18.254100 1.382900
18.325300 1.324700
18.396400 1.258100
18.467600 1.235100
18.538700 1.252000
18.609900 1.239400
18.681000 1.286100
18.752200 1.281200
18.823300 1.358900
18.894500 1.338500
18.965600 1.345600
19.036800 1.381100
19.108000 1.502800
19.179100 1.602700
19.250300 1.320400
19.321400 1.170100
19.392600 1.075800
19.463700 1.013900
19.534900 0.972600
19.606000 0.955000
19.677200 0.991400
19.748300 1.075000
19.819500 1.185100
19.890700 1.316500
19.961800 1.418800
20.033000 1.544500
20.104100 1.801200
20.175300 2.186000
20.246400 2.420300
20.317600 2.204000
20.388700 1.962700
20.459900 1.629100
20.531000 1.437400
20.602200 1.330800
20.673300 1.224000
20.744500 1.180200
20.815700 1.153700
20.886800 1.288800
20.958000 1.332000
21.029100 1.586300
21.100300 1.872100
21.171400 2.380500
21.242600 2.699500
21.313700 2.719400
21.384900 2.720400
21.456000 3.150500
21.527200 3.441900
21.598300 2.410200
21.669500 2.171200
21.740700 2.014400
21.811800 1.859100
21.883000 1.690600
21.954100 1.674200
22.025300 1.453300
22.096400 1.251000
22.167600 1.182400
22.238700 1.140200
22.309900 1.117100
22.381000 1.090600
22.452200 1.056500
22.523300 1.028100
22.594500 1.003500
22.665700 0.973100
22.736800 0.946300
22.808000 0.936100
22.879100 0.923800
22.950300 0.904600
23.021400 0.890400
23.092600 0.881200
23.163700 0.918500
23.234900 0.991000
23.306000 1.051700
23.377200 1.100300
23.448300 1.152700
23.519500 1.220800
23.590700 1.341000
23.661800 1.465200
23.733000 1.526700
23.804100 1.401800
23.875300 1.355600
23.946400 1.460000
24.017600 1.522800
24.088700 1.417300
24.159900 1.342100
24.231000 1.357700
24.302200 1.476200
24.373400 1.641600
24.444500 1.749000
24.515700 1.847300
24.586800 1.914100
24.658000 2.026700
24.729100 2.450100
24.800300 2.605300
24.871400 2.593700
24.942600 2.697200
25.013700 2.484700
25.084900 2.050400
25.156000 1.855400
25.227200 1.915300
25.298400 1.947200
25.369500 2.022500
25.440700 2.104900
25.511800 2.164100
25.583000 2.083800
25.654100 2.132600
25.725300 2.147000
25.796400 2.111500
25.867600 2.089600
25.938700 2.029200
26.009900 1.960700
26.081000 2.040600
26.152200 2.114800
26.223400 2.120200
26.294500 2.164700
26.365700 2.085800
26.436800 2.097300
26.508000 2.003300
26.579100 1.948700
26.650300 1.890400
26.721400 1.857000
26.792600 1.895000
26.863700 1.832900
26.934900 1.726400
27.006000 1.748400
27.077200 1.841300
27.148400 1.738600
27.219500 1.687500
27.290700 1.647300
27.361800 1.648500
27.433000 1.579600
27.504100 1.523100
27.575300 1.503800
27.646400 1.459800
27.717600 1.407400
27.788700 1.363600
27.859900 1.287900
27.931000 1.243700
28.002200 1.253800
28.073400 1.157000
28.144500 1.091100
28.215700 1.024200
28.286800 0.975500
28.358000 0.947000
28.429100 0.942400
28.500300 0.977500
28.571400 1.030000
28.642600 1.134000
28.713700 1.169700
28.784900 1.093700
28.856100 0.774500
28.927200 0.553400
28.998400 0.459700
29.069500 0.421600
29.140700 0.366000
29.211800 0.383600
29.283000 0.520400
29.354100 0.537000
29.425300 0.617200
29.496400 0.668700
29.567600 0.742500
29.638700 0.834400
29.709900 0.902400
29.781100 0.960200
29.852200 0.927900
29.923400 0.940500
29.994500 0.929900
30.065700 1.005600
30.136800 0.981600
30.208000 1.080400
30.279100 1.245800
30.350300 1.402300
30.421400 1.546700
30.492600 1.706700
30.563700 1.869000
30.634900 2.067000
30.706100 2.210000
30.777200 2.194700
30.848400 2.006100
30.919500 1.889700
30.990700 1.812900
31.061800 1.809100
31.133000 1.769500
31.204100 1.754600
31.275300 1.760700
31.346400 1.735100
31.417600 1.764900
31.488700 1.716800
31.559900 1.692500
31.631100 1.607200
31.702200 1.458600
31.773400 1.434200
31.844500 1.576800
31.915700 1.563400
31.986800 1.621200
32.058000 1.698300
32.129100 1.729200
32.200300 1.728700
32.271400 1.595200
32.342600 1.488500
32.413700 1.474900
32.484900 1.439000
32.556100 1.375100
32.627200 1.363200
32.698400 1.298300
32.769500 1.330000
32.840700 1.417000
32.911800 1.552300
32.983000 1.542300
33.054100 1.579300
33.125300 1.621300
33.196400 1.685300
33.267600 1.720000
33.338800 1.818100
33.409900 2.008300
33.481100 1.914800
33.552200 1.822200
33.623400 1.754300
33.694500 1.713500
33.765700 1.752000
33.836800 1.839300
33.908000 2.066000
33.979100 2.105700
34.050300 1.904700
34.121400 1.875500
34.192600 1.824800
34.263800 1.765800
34.334900 1.744300
34.406100 1.744500
34.477200 1.745800
34.548400 1.744600
34.619500 1.739800
34.690700 1.746800
34.761800 1.762900
34.833000 1.836800
34.904100 1.946800
34.975300 1.928500
35.046400 1.982000
35.117600 2.017000
35.188800 2.013700
35.259900 1.935500
35.331100 1.876600
35.402200 1.876100
35.473400 1.885200
35.544500 1.873400
35.615700 1.789300
35.686800 1.694200
35.758000 1.615300
35.829100 1.565400
35.900300 1.563900
35.971400 1.623700
36.042600 1.737900
36.113800 1.858200
36.184900 1.917700
36.256100 1.989400
36.327200 2.036600
36.398400 2.076500
36.469500 2.107700
36.540700 2.080300
36.611800 2.272200
36.683000 2.098600
36.754100 1.943100
36.825300 1.779900
36.896400 1.748100
36.967600 1.722500
37.038800 1.776900
37.109900 1.676700
37.181100 1.651400
37.252200 1.616600
37.323400 1.571400
37.394500 1.563400
37.465700 1.606000
37.536800 1.630200
37.608000 1.697800
37.679100 1.806200
37.750300 1.885000
37.821500 1.983900
37.892600 2.074800
37.963800 2.111800
38.034900 2.078700
38.106100 1.996900
38.177200 1.949500
38.248400 1.906200
38.319500 1.887500
38.390700 1.911000
38.461800 1.907000
38.533000 1.937000
38.604100 2.019400
38.675300 2.032600
38.746500 2.107700
38.817600 2.266800
38.888800 2.309700
38.959900 2.465700
39.031100 2.637500
39.102200 2.787100
39.173400 2.889300
39.244500 2.999600
39.315700 3.387700
39.386800 3.962500
39.458000 5.446000
39.529100 8.534300
39.600300 18.255400
39.671500 9.540900
39.742600 6.419300
39.813800 5.434300
39.884900 5.267500
39.956100 5.370100
40.027200 5.651800
40.098400 5.484700
40.169500 6.061100
40.240700 6.122500
40.311800 4.289300
40.383000 3.554700
40.454100 3.300000
40.525300 3.086200
40.596500 3.066600
40.667600 3.086200
40.738800 2.862600
40.809900 2.746700
40.881100 2.688600
40.952200 2.583500
41.023400 2.225400
41.094500 2.219300
41.165700 2.389800
41.236800 2.559500
41.308000 2.721200
41.379100 2.765500
41.450300 2.908200
41.521500 2.864100
41.592600 2.488600
41.663800 2.325900
41.734900 2.141400
41.806100 2.005700
41.877200 1.913900
41.948400 1.868900
42.019500 1.838600
42.090700 1.987400
42.161800 2.114500
42.233000 2.282000
42.304200 2.426200
42.375300 2.464800
42.446500 2.340600
42.517600 2.269000
42.588800 2.219300
42.659900 2.201100
42.731100 2.233000
42.802200 2.279300
42.873400 2.308800
42.944500 2.259100
43.015700 2.242400
43.086800 2.425800
43.158000 2.286900
43.229200 2.314400
43.300300 2.248300
43.371500 2.106700
43.442600 1.969800
43.513800 1.958100
43.584900 1.952500
43.656100 1.985300
43.727200 1.990000
43.798400 1.970100
43.869500 1.941100
43.940700 1.878600
44.011800 1.882700
44.083000 1.856000
44.154200 1.870500
44.225300 1.928300
44.296500 1.991400
44.367600 2.043100
44.438800 2.058100
44.509900 2.178600
44.581100 2.151100
44.652200 2.114700
44.723400 2.095000
44.794500 2.091900
44.865700 2.117500
44.936800 2.154200
45.008000 2.194500
45.079200 2.215600
45.150300 2.188200
45.221500 2.140600
45.292600 2.127300
45.363800 2.073700
45.434900 2.074200
45.506100 2.090800
45.577200 2.164700
45.648400 2.252100
45.719500 2.341000
45.790700 2.418500
45.861800 2.470500
45.933000 2.377200
46.004200 2.361600
46.075300 2.314000
46.146500 2.272600
46.217600 2.256300
46.288800 2.257800
46.359900 2.353500
46.431100 2.417000
46.502200 2.468800
46.573400 2.407600
46.644500 2.313600
46.715700 2.280100
46.786900 2.366300
46.858000 2.399100
46.929200 2.373200
47.000300 2.342400
47.071500 2.299400
47.142600 2.289500
47.213800 2.251900
47.284900 2.282200
47.356100 2.390800
47.427200 2.461100
47.498400 2.391100
47.569500 2.338000
47.640700 2.350500
47.711900 2.498600
47.783000 2.432600
47.854200 2.360500
47.925300 2.245900
47.996500 1.918500
48.067600 1.829700
48.138800 1.786700
48.209900 1.790600
48.281100 1.786100
48.352200 1.879600
48.423400 1.844000
48.494500 1.855600
48.565700 1.878500
48.636900 1.982800
48.708000 2.152000
48.779200 2.211700
48.850300 2.192600
48.921500 2.140200
48.992600 2.116900
49.063800 2.051600
49.134900 2.177600
49.206100 2.432300
49.277200 2.406300
49.348400 2.386300
49.419500 2.411100
49.490700 2.307300
49.561900 2.201800
49.633000 2.165900
49.704200 2.125000
49.775300 2.066200
49.846500 2.008900
49.917600 2.057200
49.988800 2.061100
50.059900 2.152500
50.131100 2.073500
50.202200 2.023300
50.273400 1.968300
50.344500 2.018600
50.415700 2.101100
50.486900 2.197000
50.558000 2.125300
50.629200 2.010000
50.700300 1.970500
50.771500 1.982500
50.842600 2.017800
50.913800 1.906700
50.984900 1.826300
51.056100 1.816900
51.127200 1.844600
51.198400 1.893000
51.269600 2.002200
51.340700 2.077600
51.411900 2.139600
51.483000 2.126200
51.554200 2.098000
51.625300 2.133700
51.696500 2.138300
51.767600 2.115600
51.838800 2.080900
51.909900 2.063600
51.981100 2.066200
52.052200 2.086800
52.123400 2.146500
52.194600 2.134300
52.265700 2.274500
52.336900 2.284000
52.408000 2.235600
52.479200 2.228800
52.550300 2.286800
52.621500 2.334700
52.692600 2.356900
52.763800 2.365500
52.834900 2.393400
52.906100 2.403600
52.977200 2.400800
53.048400 2.436900
53.119600 2.463900
53.190700 2.480000
53.261900 2.451100
53.333000 2.319300
53.404200 2.339000
53.475300 2.329800
53.546500 2.256500
53.617600 2.232400
53.688800 2.362800
53.759900 2.580000
53.831100 2.466700
53.902200 2.477500
53.973400 2.507600
54.044600 2.375800
54.115700 2.210200
54.186900 2.202300
54.258000 2.261100
54.329200 2.273100
54.400300 2.272300
54.471500 2.231700
54.542600 2.262400
54.613800 2.342700
54.684900 2.288600
54.756100 2.304900
54.827200 2.360000
54.898400 2.467700
54.969600 2.416700
55.040700 2.303400
55.111900 2.296900
55.183000 2.311800
55.254200 2.362700
55.325300 2.430300
55.396500 2.463700
55.467600 2.528500
55.538800 2.571900
55.609900 2.529000
55.681100 2.565800
55.752300 2.425300
55.823400 2.404100
55.894600 2.440800
55.965700 2.444200
56.036900 2.430800
56.108000 2.408100
56.179200 2.440200
56.250300 2.361000
56.321500 2.345300
56.392600 2.355000
56.463800 2.334600
56.534900 2.396100
56.606100 2.576200
56.677300 2.712000
56.748400 2.888300
56.819600 2.650600
56.890700 2.513900
56.961900 2.511200
57.033000 2.437700
57.104200 2.319900
57.175300 2.224200
57.246500 2.251200
57.317600 2.410100
57.388800 2.617100
57.459900 2.658600
57.531100 2.686700
57.602300 2.575000
57.673400 2.421600
57.744600 2.444600
57.815700 2.323000
57.886900 2.245000
57.958000 2.219000
58.029200 2.338700
58.100300 2.492200
58.171500 2.482600
58.242600 2.454300
58.313800 2.424800
58.384900 2.432700
58.456100 2.459000
58.527300 2.445500
58.598400 2.396300
58.669600 2.485900
58.740700 2.577500
58.811900 2.533700
58.883000 2.489600
58.954200 2.438300
59.025300 2.437500
59.096500 2.437300
59.167600 2.459400
59.238800 2.466800
59.309900 2.418900
59.381100 2.236400
59.452300 2.136400
59.523400 2.140900
59.594600 2.219200
59.665700 2.302400
59.736900 2.457400
59.808000 2.559300
59.879200 2.469800
59.950300 2.286000
60.021500 2.167900
60.092600 2.230600
60.163800 2.416300
60.235000 2.445800
60.306100 2.445200
60.377300 2.369500
60.448400 2.235300
60.519600 2.122800
60.590700 2.221900
60.661900 2.106800
60.733000 1.969300
60.804200 1.841100
60.875300 1.792500
60.946500 1.815500
61.017600 1.797600
61.088800 1.918300
61.160000 1.877400
61.231100 1.787200
61.302300 1.751800
61.373400 1.659700
61.444600 1.531500
61.515700 1.453300
61.586900 1.479400
61.658000 1.397700
61.729200 1.303400
61.800300 1.218000
61.871500 1.133000
61.942600 1.034200
62.013800 0.949100
62.085000 0.894100
62.156100 0.830800
62.227300 0.805400
62.298400 0.743700
62.369600 0.725600
62.440700 0.724700
62.511900 0.692400
62.583000 0.626600
62.654200 0.599100
62.725300 0.596800
62.796500 0.596300
62.867600 0.590700
62.938800 0.587300
63.010000 0.608900
63.081100 0.565100
63.152300 0.558300
63.223400 0.526600
63.294600 0.497200
63.365700 0.394100
63.436900 0.321000
63.508000 0.287100
63.579200 0.272700
63.650300 0.268000
63.721500 0.272200
63.792600 0.276800
63.863800 0.283700
63.935000 0.273900
64.006100 0.221400
64.077300 0.183500
64.148400 0.166900
64.219600 0.153600
64.290700 0.141000
64.361900 0.131700
64.433000 0.122000
64.504200 0.107400
64.575300 0.104100
64.646500 0.104400
64.717700 0.105300
64.788800 0.107400
64.860000 0.110600
64.931100 0.114100
65.002300 0.115200
65.073400 0.113500
65.144600 0.108600
65.215700 0.098400
65.286900 0.082400
65.358000 0.073900
65.429200 0.084300
65.500300 0.092100
65.571500 0.083100
65.642700 0.055000
65.713800 0.031800
65.785000 0.000300
65.856100 0.000000
65.927300 0.000000
65.998400 0.000000
66.069600 0.000000
66.140700 0.000000
66.211900 0.000000
66.283000 0.000000
66.354200 0.000000
66.425300 0.000000
66.496500 0.000000
66.567700 0.000000
66.638800 0.000000
66.710000 0.000000
66.781100 0.000000
66.852300 0.000000
66.923400 0.000000
66.994600 0.000000
67.065700 0.000000
67.136900 0.000000
67.208000 0.000000
67.279200 0.000000
67.350300 0.000000
67.421500 0.000000
67.492700 0.000000
67.563800 0.000000
67.635000 0.000000
67.706100 0.000000
67.777300 0.000000
67.848400 0.000000
67.919600 0.000000
67.990700 0.000000
68.061900 0.000000
68.133000 0.000000
68.204200 0.000000
68.275300 0.000000
68.346500 0.000000
68.417700 0.000000
68.488800 0.000000
68.560000 0.000000
68.631100 0.000000
68.702300 0.000000
68.773400 0.000000
68.844600 0.000000
68.915700 0.000000
68.986900 0.000000
69.058000 0.000000
69.129200 0.000000
69.200400 0.000000
69.271500 0.000000
69.342700 0.000000
69.413800 0.000000
69.485000 0.000000
69.556100 0.000000
69.627300 0.000000
69.698400 0.000000
69.769600 0.000000
69.840700 0.000000
69.911900 0.000000
69.983000 0.000000
70.054200 0.000000
70.125400 0.000000
70.196500 0.000000
70.267700 0.000000
70.338800 0.000000
70.410000 0.000000
70.481100 0.000000
70.552300 0.000000
70.623400 0.000000
70.694600 0.000000
70.765700 0.000000
70.836900 0.000000
70.908000 0.000000
70.979200 0.000000
71.050400 0.000000
71.121500 0.000000
71.192700 0.000000
71.263800 0.000000
71.335000 0.000000
71.406100 0.000000
71.477300 0.000000
71.548400 0.000000
71.619600 0.000000
71.690700 0.000000
71.761900 0.000000
71.833000 0.000000
71.904200 0.000000
71.975400 0.000000
72.046500 0.000000
72.117700 0.000000
72.188800 0.000000
72.260000 0.000000
e
