set title 'mp-580941 - Density of States'
set xlabel 'Energy (eV)'
set ylabel 'DOS (states/eV)'
set grid
set xrange [-10:10]
set yrange [0:123.679]
set xzeroaxis lt -1
set terminal png size 800,600
set output 'mp-580941_dos_gnuplot.png'
plot '-' using 1:2 with lines title 'DOS'
-12.743600 0.000000
-12.727300 0.000000
-12.711000 0.000000
-12.694700 0.000000
-12.678400 0.000000
-12.662100 0.000000
-12.645800 0.000000
-12.629500 0.000000
-12.613200 0.000000
-12.596900 0.000000
-12.580600 0.000000
-12.564300 0.000000
-12.548000 0.000000
-12.531700 0.000000
-12.515400 0.000000
-12.499100 0.000000
-12.482800 0.000000
-12.466500 0.000000
-12.450200 0.000000
-12.433900 0.000000
-12.417600 0.000000
-12.401400 0.000000
-12.385100 0.000000
-12.368800 0.000000
-12.352500 0.000000
-12.336200 0.000000
-12.319900 0.000000
-12.303600 0.000000
-12.287300 0.000000
-12.271000 0.000000
-12.254700 0.000000
-12.238400 0.000000
-12.222100 0.000000
-12.205800 0.000000
-12.189500 0.000000
-12.173200 0.000000
-12.156900 0.000000
-12.140600 0.000000
-12.124300 0.000000
-12.108000 0.000000
-12.091700 0.000000
-12.075400 0.000000
-12.059100 0.000000
-12.042800 0.000000
-12.026500 0.000000
-12.010200 0.000000
-11.993900 0.000000
-11.977600 0.000000
-11.961300 0.000000
-11.945000 0.000000
-11.928700 0.000000
-11.912400 0.000000
-11.896100 0.000000
-11.879800 0.000000
-11.863500 0.000000
-11.847200 0.000000
-11.830900 0.000000
-11.814600 0.000000
-11.798300 0.000000
-11.782000 0.000000
-11.765700 0.000000
-11.749400 0.000000
-11.733100 0.000000
-11.716800 0.000000
-11.700500 0.000000
-11.684200 0.000000
-11.668000 0.000000
-11.651700 0.000000
-11.635400 0.000000
-11.619100 0.000000
-11.602800 0.000000
-11.586500 0.000000
-11.570200 0.000000
-11.553900 0.000000
-11.537600 0.000000
-11.521300 0.000000
-11.505000 0.000000
-11.488700 0.000000
-11.472400 0.000000
-11.456100 0.000000
-11.439800 0.000000
-11.423500 0.000000
-11.407200 0.000000
-11.390900 0.000000
-11.374600 0.000000
-11.358300 0.000000
-11.342000 0.000000
-11.325700 0.000000
-11.309400 0.000000
-11.293100 0.000000
-11.276800 0.000000
-11.260500 0.008000
-11.244200 1.158600
-11.227900 4.316900
-11.211600 9.000800
-11.195300 11.282100
-11.179000 11.523500
-11.162700 12.395500
-11.146400 13.637800
-11.130100 15.483100
-11.113800 19.820900
-11.097500 25.282800
-11.081200 30.886600
-11.064900 36.680000
-11.048600 29.339900
-11.032300 0.000000
-11.016000 0.000000
-10.999700 0.000000
-10.983400 0.000000
-10.967100 0.000000
-10.950800 0.000000
-10.934500 0.000000
-10.918300 0.000000
-10.902000 0.000000
-10.885700 0.706300
-10.869400 4.038300
-10.853100 9.974300
-10.836800 15.808900
-10.820500 17.540000
-10.804200 20.442200
-10.787900 27.027100
-10.771600 40.259500
-10.755300 54.708400
-10.739000 27.497100
-10.722700 0.000000
-10.706400 0.000000
-10.690100 0.000000
-10.673800 0.000000
-10.657500 0.000000
-10.641200 0.000000
-10.624900 0.000000
-10.608600 0.000000
-10.592300 0.000000
-10.576000 0.000000
-10.559700 0.000000
-10.543400 0.000000
-10.527100 0.000000
-10.510800 0.000000
-10.494500 0.000000
-10.478200 0.000000
-10.461900 0.000000
-10.445600 0.000000
-10.429300 0.000000
-10.413000 0.000000
-10.396700 0.000000
-10.380400 0.000000
-10.364100 0.000000
-10.347800 0.000000
-10.331500 0.000000
-10.315200 0.000000
-10.298900 0.000000
-10.282600 0.000000
-10.266300 0.000000
-10.250000 0.000000
-10.233700 0.000000
-10.217400 0.000000
-10.201100 0.000000
-10.184800 0.000000
-10.168600 0.000000
-10.152300 0.000000
-10.136000 0.000000
-10.119700 0.000000
-10.103400 0.000000
-10.087100 0.000000
-10.070800 0.000000
-10.054500 0.000000
-10.038200 0.000000
-10.021900 0.000000
-10.005600 0.000000
-9.989300 0.000000
-9.973000 0.000000
-9.956700 0.000000
-9.940400 0.000000
-9.924100 0.000000
-9.907800 0.000000
-9.891500 0.000000
-9.875200 0.000000
-9.858900 0.000000
-9.842600 0.000000
-9.826300 0.000000
-9.810000 0.000000
-9.793700 0.000000
-9.777400 0.000000
-9.761100 0.000000
-9.744800 0.000000
-9.728500 0.000000
-9.712200 0.000000
-9.695900 0.000000
-9.679600 0.000000
-9.663300 0.000000
-9.647000 0.000000
-9.630700 0.000000
-9.614400 0.000000
-9.598100 0.000000
-9.581800 0.000000
-9.565500 0.000000
-9.549200 0.000000
-9.532900 0.000000
-9.516600 0.000000
-9.500300 0.000000
-9.484000 0.000000
-9.467700 0.000000
-9.451400 0.000000
-9.435200 0.000000
-9.418900 0.000000
-9.402600 0.000000
-9.386300 0.000000
-9.370000 0.000000
-9.353700 0.000000
-9.337400 0.000000
-9.321100 0.000000
-9.304800 0.000000
-9.288500 0.000000
-9.272200 0.000000
-9.255900 0.000000
-9.239600 0.000000
-9.223300 0.000000
-9.207000 0.000000
-9.190700 0.000000
-9.174400 0.000000
-9.158100 0.000000
-9.141800 0.000000
-9.125500 0.000000
-9.109200 0.000000
-9.092900 0.000000
-9.076600 0.000000
-9.060300 0.000000
-9.044000 0.000000
-9.027700 0.000000
-9.011400 0.000000
-8.995100 0.000000
-8.978800 0.000000
-8.962500 0.000000
-8.946200 0.000000
-8.929900 0.000000
-8.913600 0.000000
-8.897300 0.000000
-8.881000 0.000000
-8.864700 0.000000
-8.848400 0.000000
-8.832100 0.000000
-8.815800 0.000000
-8.799500 0.000000
-8.783200 0.000000
-8.766900 0.000000
-8.750600 0.000000
-8.734300 0.000000
-8.718000 0.000000
-8.701700 0.000000
-8.685500 0.000000
-8.669200 0.000000
-8.652900 0.000000
-8.636600 0.000000
-8.620300 0.000000
-8.604000 0.000000
-8.587700 0.000000
-8.571400 0.000000
-8.555100 0.000000
-8.538800 0.000000
-8.522500 0.000000
-8.506200 0.000000
-8.489900 0.000000
-8.473600 0.000000
-8.457300 0.000000
-8.441000 0.000000
-8.424700 0.000000
-8.408400 0.000000
-8.392100 0.000000
-8.375800 0.000000
-8.359500 0.000000
-8.343200 0.000000
-8.326900 0.000000
-8.310600 0.000000
-8.294300 0.000000
-8.278000 0.000000
-8.261700 0.000000
-8.245400 0.000000
-8.229100 0.000000
-8.212800 0.000000
-8.196500 0.000000
-8.180200 0.000000
-8.163900 0.000000
-8.147600 0.000000
-8.131300 0.000000
-8.115000 0.000000
-8.098700 0.000000
-8.082400 0.000000
-8.066100 0.000000
-8.049800 0.000000
-8.033500 0.000000
-8.017200 0.000000
-8.000900 0.000000
-7.984600 0.000000
-7.968300 0.000000
-7.952000 0.000000
-7.935800 0.000000
-7.919500 0.000000
-7.903200 0.000000
-7.886900 0.000000
-7.870600 0.000000
-7.854300 0.000000
-7.838000 0.000000
-7.821700 0.000000
-7.805400 0.000000
-7.789100 0.000000
-7.772800 0.000000
-7.756500 0.000000
-7.740200 0.000000
-7.723900 0.000000
-7.707600 0.000000
-7.691300 0.000000
-7.675000 0.000000
-7.658700 0.000000
-7.642400 0.000000
-7.626100 0.000000
-7.609800 0.000000
-7.593500 0.000000
-7.577200 0.000000
-7.560900 0.000000
-7.544600 0.000000
-7.528300 0.000000
-7.512000 0.000000
-7.495700 0.000000
-7.479400 0.000000
-7.463100 0.000000
-7.446800 0.000000
-7.430500 0.000000
-7.414200 0.000000
-7.397900 0.000000
-7.381600 0.000000
-7.365300 0.000000
-7.349000 0.000000
-7.332700 0.000000
-7.316400 0.000000
-7.300100 0.000000
-7.283800 0.000000
-7.267500 0.000000
-7.251200 0.000000
-7.234900 0.000000
-7.218600 0.000000
-7.202400 0.000000
-7.186100 0.000000
-7.169800 0.000000
-7.153500 0.000000
-7.137200 0.000000
-7.120900 0.000000
-7.104600 0.000000
-7.088300 0.000000
-7.072000 0.000000
-7.055700 0.000000
-7.039400 0.000000
-7.023100 0.000000
-7.006800 0.000000
-6.990500 0.000000
-6.974200 0.000000
-6.957900 0.000000
-6.941600 0.000000
-6.925300 0.000000
-6.909000 0.000000
-6.892700 0.000000
-6.876400 0.000000
-6.860100 0.000000
-6.843800 0.000000
-6.827500 0.000000
-6.811200 0.000000
-6.794900 0.000000
-6.778600 0.000000
-6.762300 0.000000
-6.746000 0.000000
-6.729700 0.000000
-6.713400 0.000000
-6.697100 0.000000
-6.680800 0.000000
-6.664500 0.000000
-6.648200 0.000000
-6.631900 0.000000
-6.615600 0.000000
-6.599300 0.000000
-6.583000 0.000000
-6.566700 0.000000
-6.550400 0.000000
-6.534100 0.000000
-6.517800 0.000000
-6.501500 0.000000
-6.485200 0.000000
-6.468900 0.000000
-6.452700 0.000000
-6.436400 0.000000
-6.420100 0.000000
-6.403800 0.000000
-6.387500 0.000000
-6.371200 0.000000
-6.354900 0.000000
-6.338600 0.000000
-6.322300 0.000000
-6.306000 0.000000
-6.289700 0.000000
-6.273400 0.000000
-6.257100 0.000000
-6.240800 0.000000
-6.224500 0.000000
-6.208200 0.000000
-6.191900 0.000000
-6.175600 0.000000
-6.159300 0.000000
-6.143000 0.000000
-6.126700 0.000000
-6.110400 0.000000
-6.094100 0.000000
-6.077800 0.000000
-6.061500 0.000000
-6.045200 0.000000
-6.028900 0.000000
-6.012600 0.000000
-5.996300 0.000000
-5.980000 0.000000
-5.963700 0.000000
-5.947400 0.000000
-5.931100 0.000000
-5.914800 0.000000
-5.898500 0.000000
-5.882200 0.000000
-5.865900 0.000000
-5.849600 0.000000
-5.833300 0.000000
-5.817000 0.000000
-5.800700 0.000000
-5.784400 0.000000
-5.768100 0.000000
-5.751800 0.000000
-5.735500 0.000000
-5.719300 0.000000
-5.703000 0.000000
-5.686700 0.000000
-5.670400 0.000000
-5.654100 0.000000
-5.637800 0.000000
-5.621500 0.000000
-5.605200 0.000000
-5.588900 0.000000
-5.572600 0.000000
-5.556300 0.000000
-5.540000 0.000000
-5.523700 0.000000
-5.507400 0.000000
-5.491100 0.000000
-5.474800 0.000000
-5.458500 0.000000
-5.442200 0.000000
-5.425900 0.000000
-5.409600 0.000000
-5.393300 0.000000
-5.377000 0.000000
-5.360700 0.000000
-5.344400 0.000000
-5.328100 0.000000
-5.311800 0.000000
-5.295500 0.000000
-5.279200 0.000000
-5.262900 0.000000
-5.246600 0.000000
-5.230300 0.000000
-5.214000 0.000000
-5.197700 0.000000
-5.181400 0.000000
-5.165100 0.000000
-5.148800 0.000000
-5.132500 0.000000
-5.116200 0.000000
-5.099900 0.000000
-5.083600 0.000000
-5.067300 0.000000
-5.051000 0.000000
-5.034700 0.000000
-5.018400 0.000000
-5.002100 0.000000
-4.985800 0.000000
-4.969600 0.000000
-4.953300 0.000000
-4.937000 0.000000
-4.920700 0.000000
-4.904400 0.000000
-4.888100 0.000000
-4.871800 0.000000
-4.855500 0.000000
-4.839200 0.000000
-4.822900 0.000000
-4.806600 0.000000
-4.790300 0.000000
-4.774000 0.000000
-4.757700 0.000000
-4.741400 0.000000
-4.725100 0.000000
-4.708800 0.000000
-4.692500 0.000000
-4.676200 0.000000
-4.659900 0.000000
-4.643600 0.000000
-4.627300 0.000000
-4.611000 0.000000
-4.594700 0.000000
-4.578400 0.000000
-4.562100 0.000000
-4.545800 0.000000
-4.529500 0.000000
-4.513200 0.000000
-4.496900 0.000000
-4.480600 0.000000
-4.464300 0.000000
-4.448000 0.000000
-4.431700 0.000000
-4.415400 0.000000
-4.399100 0.000000
-4.382800 0.000000
-4.366500 0.000000
-4.350200 0.000000
-4.333900 0.000000
-4.317600 0.000000
-4.301300 0.000000
-4.285000 0.000000
-4.268700 0.000000
-4.252400 0.000000
-4.236100 0.000000
-4.219900 0.000000
-4.203600 0.000000
-4.187300 0.000000
-4.171000 0.000000
-4.154700 0.000000
-4.138400 0.000000
-4.122100 0.000000
-4.105800 0.000000
-4.089500 0.000000
-4.073200 0.000000
-4.056900 0.000000
-4.040600 0.000000
-4.024300 0.000000
-4.008000 0.000000
-3.991700 0.000000
-3.975400 0.000000
-3.959100 0.000000
-3.942800 0.000000
-3.926500 0.000000
-3.910200 0.000000
-3.893900 0.000000
-3.877600 0.000000
-3.861300 0.000000
-3.845000 0.000000
-3.828700 0.000000
-3.812400 0.000000
-3.796100 0.000000
-3.779800 0.000000
-3.763500 0.000000
-3.747200 0.000000
-3.730900 0.000000
-3.714600 0.000000
-3.698300 0.000000
-3.682000 0.000000
-3.665700 0.000000
-3.649400 0.000000
-3.633100 0.000000
-3.616800 0.000000
-3.600500 0.000000
-3.584200 0.000000
-3.567900 0.000000
-3.551600 0.000000
-3.535300 0.000000
-3.519000 0.000000
-3.502700 0.000000
-3.486500 0.000000
-3.470200 0.000000
-3.453900 0.000000
-3.437600 0.000000
-3.421300 0.000000
-3.405000 0.000000
-3.388700 0.000000
-3.372400 0.000000
-3.356100 0.000000
-3.339800 0.000000
-3.323500 0.000000
-3.307200 0.000000
-3.290900 0.000000
-3.274600 0.000000
-3.258300 0.000000
-3.242000 0.000000
-3.225700 0.000000
-3.209400 0.000000
-3.193100 0.000000
-3.176800 0.000000
-3.160500 0.000000
-3.144200 0.000000
-3.127900 0.000000
-3.111600 0.000000
-3.095300 0.000000
-3.079000 0.000000
-3.062700 0.000000
-3.046400 0.000000
-3.030100 0.000000
-3.013800 78.701200
-2.997500 32.866700
-2.981200 27.624700
-2.964900 35.816700
-2.948600 36.556300
-2.932300 32.667800
-2.916000 19.407700
-2.899700 10.921300
-2.883400 6.926600
-2.867100 4.926500
-2.850800 4.681300
-2.834500 4.870500
-2.818200 5.059500
-2.801900 5.248500
-2.785600 5.437200
-2.769300 5.625900
-2.753000 5.814400
-2.736800 6.475500
-2.720500 8.325200
-2.704200 10.098900
-2.687900 14.441900
-2.671600 29.376600
-2.655300 60.288500
-2.639000 40.415100
-2.622700 33.822200
-2.606400 28.211900
-2.590100 30.100700
-2.573800 31.692600
-2.557500 27.538300
-2.541200 24.191600
-2.524900 21.366100
-2.508600 21.355900
-2.492300 23.370200
-2.476000 17.868300
-2.459700 15.169700
-2.443400 14.108300
-2.427100 13.815300
-2.410800 14.569700
-2.394500 15.293900
-2.378200 15.987700
-2.361900 16.411800
-2.345600 17.345400
-2.329300 26.709500
-2.313000 44.300900
-2.296700 20.153500
-2.280400 9.354100
-2.264100 4.042700
-2.247800 8.549500
-2.231500 32.601400
-2.215200 53.204500
-2.198900 61.034300
-2.182600 32.500700
-2.166300 20.522000
-2.150000 13.594200
-2.133700 8.105500
-2.117400 3.822400
-2.101100 10.492900
-2.084800 15.711000
-2.068500 18.684500
-2.052200 19.717000
-2.035900 19.838700
-2.019600 19.376500
-2.003300 18.410300
-1.987100 18.959600
-1.970800 19.620600
-1.954500 19.966400
-1.938200 18.749700
-1.921900 14.987600
-1.905600 8.648900
-1.889300 6.741000
-1.873000 5.542200
-1.856700 4.373800
-1.840400 3.235800
-1.824100 2.184100
-1.807800 1.540600
-1.791500 5.713500
-1.775200 74.566200
-1.758900 66.663800
-1.742600 60.184100
-1.726300 54.643800
-1.710000 30.616900
-1.693700 31.864900
-1.677400 29.649500
-1.661100 31.250400
-1.644800 32.734000
-1.628500 26.189200
-1.612200 21.783200
-1.595900 10.296500
-1.579600 8.390500
-1.563300 10.587300
-1.547000 16.638400
-1.530700 62.141900
-1.514400 91.347500
-1.498100 57.008800
-1.481800 112.435800
-1.465500 53.826400
-1.449200 14.988900
-1.432900 6.575200
-1.416600 1.443000
-1.400300 0.109700
-1.384000 0.417100
-1.367700 1.218800
-1.351400 2.145300
-1.335100 3.356600
-1.318800 4.853000
-1.302500 6.579400
-1.286200 8.454300
-1.269900 10.476700
-1.253700 11.571900
-1.237400 11.473100
-1.221100 11.168500
-1.204800 11.042500
-1.188500 11.067700
-1.172200 10.832100
-1.155900 10.335800
-1.139600 9.770500
-1.123300 10.712500
-1.107000 12.080200
-1.090700 13.703600
-1.074400 15.633800
-1.058100 17.119500
-1.041800 19.042300
-1.025500 29.386400
-1.009200 28.043000
-0.992900 23.245600
-0.976600 19.042200
-0.960300 15.306300
-0.944000 14.213800
-0.927700 14.700800
-0.911400 10.332200
-0.895100 8.054600
-0.878800 7.631600
-0.862500 7.510800
-0.846200 7.397000
-0.829900 7.290100
-0.813600 7.190100
-0.797300 7.093200
-0.781000 6.990500
-0.764700 6.881400
-0.748400 6.782900
-0.732100 6.759100
-0.715800 6.749200
-0.699500 6.671500
-0.683200 6.571600
-0.666900 6.491700
-0.650600 6.473400
-0.634300 6.475200
-0.618000 6.493900
-0.601700 6.529500
-0.585400 6.581900
-0.569100 6.651200
-0.552800 6.758600
-0.536500 7.081300
-0.520200 7.467400
-0.504000 7.689400
-0.487700 7.785400
-0.471400 7.900100
-0.455100 8.044200
-0.438800 8.217300
-0.422500 8.369800
-0.406200 8.466500
-0.389900 8.759100
-0.373600 9.373600
-0.357300 9.521500
-0.341000 9.629600
-0.324700 9.734000
-0.308400 9.838000
-0.292100 9.941900
-0.275800 10.045800
-0.259500 10.307900
-0.243200 11.248300
-0.226900 12.243800
-0.210600 12.150000
-0.194300 12.125500
-0.178000 12.138000
-0.161700 12.179800
-0.145400 12.198600
-0.129100 11.809000
-0.112800 11.002100
-0.096500 10.435500
-0.080200 11.968400
-0.063900 11.320400
-0.047600 10.585600
-0.031300 10.543900
-0.015000 10.678500
0.001300 10.873500
0.017600 11.069200
0.033900 11.305600
0.050200 11.552000
0.066500 11.783500
0.082800 12.010400
0.099100 12.235400
0.115400 12.458600
0.131700 12.697900
0.148000 13.041600
0.164300 13.501900
0.180600 12.459500
0.196900 11.976900
0.213200 11.410600
0.229500 10.758000
0.245700 10.016900
0.262000 9.182600
0.278300 8.825000
0.294600 8.811800
0.310900 8.806000
0.327200 8.798300
0.343500 8.904000
0.359800 8.884700
0.376100 8.860000
0.392400 8.837400
0.408700 8.894100
0.425000 9.044600
0.441300 9.248900
0.457600 9.436300
0.473900 11.680700
0.490200 15.295500
0.506500 19.019200
0.522800 21.774700
0.539100 22.786900
0.555400 22.716700
0.571700 22.196600
0.588000 22.013400
0.604300 20.350600
0.620600 14.953700
0.636900 12.214700
0.653200 10.007100
0.669500 8.557200
0.685800 7.861900
0.702100 7.479200
0.718400 7.105100
0.734700 6.749000
0.751000 6.403900
0.767300 6.044200
0.783600 5.688400
0.799900 5.224800
0.816200 4.719000
0.832500 4.255000
0.848800 3.835400
0.865100 3.493200
0.881400 3.226500
0.897700 2.973200
0.914000 2.738100
0.930300 2.519700
0.946600 2.300900
0.962900 2.081800
0.979100 1.862300
0.995400 1.642500
1.011700 1.422300
1.028000 1.201700
1.044300 0.980800
1.060600 0.760000
1.076900 0.554200
1.093200 0.370900
1.109500 0.210000
1.125800 0.083600
1.142100 0.014300
1.158400 0.000000
1.174700 0.000000
1.191000 0.000000
1.207300 0.000000
1.223600 0.000000
1.239900 0.000000
1.256200 0.000000
1.272500 0.000000
1.288800 0.000000
1.305100 0.000000
1.321400 0.000000
1.337700 0.000000
1.354000 0.000000
1.370300 0.000000
1.386600 0.000000
1.402900 0.000000
1.419200 0.000000
1.435500 0.000000
1.451800 0.000000
1.468100 0.000000
1.484400 0.000000
1.500700 0.000000
1.517000 0.000000
1.533300 0.000000
1.549600 0.000000
1.565900 0.000000
1.582200 0.000000
1.598500 0.000000
1.614800 0.000000
1.631100 0.000000
1.647400 0.000000
1.663700 0.000000
1.680000 0.000000
1.696300 0.000000
1.712600 0.000000
1.728800 0.000000
1.745100 0.000000
1.761400 0.000000
1.777700 0.000000
1.794000 0.000000
1.810300 0.000000
1.826600 0.000000
1.842900 0.000000
1.859200 0.000000
1.875500 0.000000
1.891800 0.000000
1.908100 0.000000
1.924400 0.000000
1.940700 0.000000
1.957000 0.000000
1.973300 0.000000
1.989600 0.000000
2.005900 0.000000
2.022200 0.000000
2.038500 0.000000
2.054800 0.000000
2.071100 0.000000
2.087400 0.000000
2.103700 0.000000
2.120000 0.000000
2.136300 0.000000
2.152600 0.000000
2.168900 0.000000
2.185200 0.000000
2.201500 0.000000
2.217800 0.000000
2.234100 0.000000
2.250400 0.000000
2.266700 0.000000
2.283000 0.000000
2.299300 0.000000
2.315600 0.000000
2.331900 0.000000
2.348200 0.000000
2.364500 0.000000
2.380800 0.000000
2.397100 0.000000
2.413400 0.000000
2.429700 0.000000
2.446000 0.000000
2.462200 0.000000
2.478500 0.000000
2.494800 0.000000
2.511100 0.000000
2.527400 0.000000
2.543700 0.000100
2.560000 0.000500
2.576300 0.001200
2.592600 0.002200
2.608900 0.003500
2.625200 0.005000
2.641500 0.006900
2.657800 0.009000
2.674100 0.011500
2.690400 0.014200
2.706700 0.017200
2.723000 0.020600
2.739300 0.024200
2.755600 0.028100
2.771900 0.032300
2.788200 0.036700
2.804500 0.041500
2.820800 0.046600
2.837100 0.051900
2.853400 0.057600
2.869700 0.063500
2.886000 0.069700
2.902300 0.076300
2.918600 0.083100
2.934900 0.090200
2.951200 0.097600
2.967500 0.105300
2.983800 0.113300
3.000100 0.122300
3.016400 0.132300
3.032700 0.143200
3.049000 0.155200
3.065300 0.168200
3.081600 0.182300
3.097900 0.197300
3.114200 0.213300
3.130500 0.230400
3.146800 0.248400
3.163100 0.267500
3.179400 0.287100
3.195700 0.306800
3.211900 0.326500
3.228200 0.346400
3.244500 0.366300
3.260800 0.386300
3.277100 0.406400
3.293400 0.426500
3.309700 0.447100
3.326000 0.474600
3.342300 0.506900
3.358600 0.540000
3.374900 0.573900
3.391200 0.608600
3.407500 0.643900
3.423800 0.677400
3.440100 0.711600
3.456400 0.746400
3.472700 0.781900
3.489000 0.818000
3.505300 0.854800
3.521600 0.892200
3.537900 0.930300
3.554200 0.969000
3.570500 1.008500
3.586800 1.048500
3.603100 1.089200
3.619400 1.130600
3.635700 1.172700
3.652000 1.215000
3.668300 1.257300
3.684600 1.299800
3.700900 1.341800
3.717200 1.384000
3.733500 1.426600
3.749800 1.469600
3.766100 1.512800
3.782400 1.556400
3.798700 1.600400
3.815000 1.644600
3.831300 1.689300
3.847600 1.734200
3.863900 1.779500
3.880200 1.825100
3.896500 1.872500
3.912800 1.922100
3.929100 1.971800
3.945400 2.021700
3.961600 2.071800
3.977900 2.122000
3.994200 2.172400
4.010500 2.171300
4.026800 2.219600
4.043100 2.268200
4.059400 2.317100
4.075700 2.366200
4.092000 2.415500
4.108300 2.465100
4.124600 2.514900
4.140900 2.565000
4.157200 2.615200
4.173500 2.666600
4.189800 2.739800
4.206100 2.844000
4.222400 2.978700
4.238700 3.128400
4.255000 3.278900
4.271300 3.429700
4.287600 3.580900
4.303900 3.732500
4.320200 3.882900
4.336500 4.030500
4.352800 4.175300
4.369100 4.321300
4.385400 4.484500
4.401700 4.666500
4.418000 4.863800
4.434300 5.055700
4.450600 5.239000
4.466900 5.412800
4.483200 5.553900
4.499500 5.660100
4.515800 5.732800
4.532100 5.772000
4.548400 5.778800
4.564700 5.774400
4.581000 5.767800
4.597300 5.777700
4.613600 5.877400
4.629900 6.074400
4.646200 6.368800
4.662500 6.736700
4.678800 7.120600
4.695000 7.417200
4.711300 7.620300
4.727600 7.858400
4.743900 8.065800
4.760200 8.008500
4.776500 7.928000
4.792800 7.826900
4.809100 7.720000
4.825400 7.597000
4.841700 7.468600
4.858000 7.337000
4.874300 7.203300
4.890600 7.070200
4.906900 6.937500
4.923200 6.805500
4.939500 6.674000
4.955800 6.543100
4.972100 6.408600
4.988400 6.260200
5.004700 6.104100
5.021000 5.940600
5.037300 5.769700
5.053600 5.626000
5.069900 5.482100
5.086200 5.338100
5.102500 5.193900
5.118800 5.049700
5.135100 4.905200
5.151400 4.737800
5.167700 4.595300
5.184000 4.459200
5.200300 4.320800
5.216600 4.180000
5.232900 4.037000
5.249200 3.891600
5.265500 3.743900
5.281800 3.594000
5.298100 3.441700
5.314400 3.249900
5.330700 3.028300
5.347000 2.805300
5.363300 2.580800
5.379600 2.354900
5.395900 2.127500
5.412200 1.898700
5.428500 1.668400
5.444700 1.436700
5.461000 1.205800
5.477300 0.986100
5.493600 0.790800
5.509900 0.633200
5.526200 0.474400
5.542500 0.314200
5.558800 0.152800
5.575100 0.018800
5.591400 0.000000
5.607700 0.000000
5.624000 0.000000
5.640300 0.000000
5.656600 0.269700
5.672900 1.122000
5.689200 1.758800
5.705500 2.319100
5.721800 2.811700
5.738100 3.236700
5.754400 3.588300
5.770700 3.839800
5.787000 3.987800
5.803300 4.093900
5.819600 4.204900
5.835900 4.320700
5.852200 4.441000
5.868500 4.566000
5.884800 4.695600
5.901100 4.829800
5.917400 4.968700
5.933700 5.112200
5.950000 5.260300
5.966300 5.413000
5.982600 5.756000
5.998900 6.233700
6.015200 6.800400
6.031500 7.456100
6.047800 8.200700
6.064100 9.071000
6.080400 10.625400
6.096700 10.819800
6.113000 10.402000
6.129300 9.611000
6.145600 8.487100
6.161900 7.246600
6.178200 6.003600
6.194400 5.161800
6.210700 4.640400
6.227000 4.373100
6.243300 4.146700
6.259600 3.922200
6.275900 3.699800
6.292200 3.479400
6.308500 3.261000
6.324800 3.044600
6.341100 2.830200
6.357400 2.617900
6.373700 2.407500
6.390000 2.200900
6.406300 1.728400
6.422600 1.262800
6.438900 1.176100
6.455200 1.109500
6.471500 1.111100
6.487800 1.798800
6.504100 2.580500
6.520400 3.456200
6.536700 4.425900
6.553000 5.489600
6.569300 6.647200
6.585600 7.160500
6.601900 7.770700
6.618200 8.355500
6.634500 8.915000
6.650800 9.449000
6.667100 9.957700
6.683400 10.462500
6.699700 10.908600
6.716000 11.229600
6.732300 11.422000
6.748600 11.488000
6.764900 11.923100
6.781200 14.706000
6.797500 14.431400
6.813800 13.431800
6.830100 12.423100
6.846400 11.419500
6.862700 10.082700
6.879000 8.995200
6.895300 8.048000
6.911600 7.140700
6.927800 6.099600
6.944100 4.872500
6.960400 3.514200
6.976700 2.639300
6.993000 2.168900
7.009300 2.051000
7.025600 1.999300
7.041900 1.963700
7.058200 1.944600
7.074500 1.951100
7.090800 1.987800
7.107100 2.054600
7.123400 2.151600
7.139700 2.282000
7.156000 2.458500
7.172300 2.744900
7.188600 3.159300
7.204900 3.694000
7.221200 4.330000
7.237500 5.055800
7.253800 5.816400
7.270100 6.607500
7.286400 7.429100
7.302700 8.281200
7.319000 9.163800
7.335300 9.532700
7.351600 9.798700
7.367900 10.003800
7.384200 10.167600
7.400500 10.290000
7.416800 10.367000
7.433100 10.407000
7.449400 11.103300
7.465700 11.296700
7.482000 8.342400
7.498300 8.283300
7.514600 8.191300
7.530900 8.066300
7.547200 7.908300
7.563500 7.717400
7.579800 7.395400
7.596100 7.024600
7.612400 6.739300
7.628700 6.373900
7.645000 6.089700
7.661300 6.046100
7.677500 6.059600
7.693800 6.095800
7.710100 6.154600
7.726400 6.071900
7.742700 5.982000
7.759000 5.978800
7.775300 5.985400
7.791600 6.001700
7.807900 6.027700
7.824200 6.068400
7.840500 6.883200
7.856800 7.524800
7.873100 7.971800
7.889400 8.225200
7.905700 8.409300
7.922000 8.647500
7.938300 9.461000
7.954600 10.195700
7.970900 9.558800
7.987200 9.712200
8.003500 9.880300
8.019800 9.830100
8.036100 10.651200
8.052400 11.522700
8.068700 11.619400
8.085000 10.832500
8.101300 10.241100
8.117600 9.764700
8.133900 9.398000
8.150200 9.090200
8.166500 8.822100
8.182800 8.592100
8.199100 8.400100
8.215400 8.246300
8.231700 8.130600
8.248000 8.046800
8.264300 7.982900
8.280600 8.006300
8.296900 8.057500
8.313200 8.127600
8.329500 8.216300
8.345800 8.323600
8.362100 8.953800
8.378400 9.171300
8.394700 9.360600
8.411000 9.541300
8.427200 9.635500
8.443500 9.643100
8.459800 9.564300
8.476100 9.398900
8.492400 9.147000
8.508700 8.797400
8.525000 8.960800
8.541300 10.196900
8.557600 9.452000
8.573900 8.748000
8.590200 8.051100
8.606500 7.361200
8.622800 6.678400
8.639100 6.015700
8.655400 5.355300
8.671700 4.683200
8.688000 4.004700
8.704300 3.431000
8.720600 3.007500
8.736900 2.737300
8.753200 2.517800
8.769500 2.325400
8.785800 2.167100
8.802100 2.043000
8.818400 1.952800
8.834700 1.889700
8.851000 1.853100
8.867300 1.843100
8.883600 1.859500
8.899900 1.902300
8.916200 1.968200
8.932500 2.046000
8.948800 2.123200
8.965100 2.199600
8.981400 2.274900
8.997700 2.345500
9.014000 2.410500
9.030300 2.469900
9.046600 2.523800
9.062900 2.572000
9.079200 2.615100
9.095500 2.659500
9.111800 2.707200
9.128100 2.758200
9.144400 2.810500
9.160600 2.863000
9.176900 2.915500
9.193200 2.968000
9.209500 3.020700
9.225800 3.073400
9.242100 3.126200
9.258400 3.179100
9.274700 3.232100
9.291000 3.349400
9.307300 3.587000
9.323600 3.819700
9.339900 4.045700
9.356200 4.264900
9.372500 4.477300
9.388800 4.683000
9.405100 4.881900
9.421400 5.074000
9.437700 5.228500
9.454000 5.418300
9.470300 5.646900
9.486600 5.856800
9.502900 6.104300
9.519200 6.389200
9.535500 6.702200
9.551800 6.883400
9.568100 7.038000
9.584400 7.166200
9.600700 7.142200
9.617000 7.106900
9.633300 7.104300
9.649600 7.134600
9.665900 7.197700
9.682200 7.268100
9.698500 7.308200
9.714800 7.317600
9.731100 7.299000
9.747400 7.252400
9.763700 7.177900
9.780000 7.075500
9.796300 6.945100
9.812600 6.786900
9.828900 6.600700
9.845200 6.422800
9.861500 6.256200
9.877800 6.070600
9.894100 5.866200
9.910300 5.642900
9.926600 4.696400
9.942900 4.308300
9.959200 4.232100
9.975500 4.185300
9.991800 4.309800
10.008100 4.718500
10.024400 5.272100
10.040700 5.903000
10.057000 6.529500
10.073300 7.151600
10.089600 7.769300
10.105900 9.054200
10.122200 9.684200
10.138500 9.764600
10.154800 9.788500
10.171100 9.755700
10.187400 9.666300
10.203700 9.517800
10.220000 9.309000
10.236300 9.206500
10.252600 9.044600
10.268900 8.497500
10.285200 7.845700
10.301500 6.806100
10.317800 5.794800
10.334100 5.124600
10.350400 4.740800
10.366700 4.546900
10.383000 4.421500
10.399300 4.364400
10.415600 4.375300
10.431900 4.448100
10.448200 4.570600
10.464500 4.724600
10.480800 4.879600
10.497100 5.035200
10.513400 5.190200
10.529700 5.342100
10.546000 5.490700
10.562300 5.636000
10.578600 5.778000
10.594900 5.916700
10.611200 6.018100
10.627500 6.084000
10.643700 6.126200
10.660000 6.144800
10.676300 6.139800
10.692600 6.116300
10.708900 6.080300
10.725200 6.033000
10.741500 5.976200
10.757800 5.959500
10.774100 5.937700
10.790400 5.910800
10.806700 6.140200
10.823000 6.871000
10.839300 5.783700
10.855600 5.651700
10.871900 5.612600
10.888200 5.568000
10.904500 5.518000
10.920800 5.432100
10.937100 5.180800
10.953400 4.494400
10.969700 3.557000
10.986000 3.858400
11.002300 4.039100
11.018600 4.294400
11.034900 4.569500
11.051200 4.866200
11.067500 5.159300
11.083800 5.433000
11.100100 5.698600
11.116400 5.945300
11.132700 6.172700
11.149000 6.381600
11.165300 6.571900
11.181600 6.743600
11.197900 6.896800
11.214200 7.031500
11.230500 7.209100
11.246800 7.409400
11.263100 7.598300
11.279400 7.775900
11.295700 7.942300
11.312000 8.098100
11.328300 8.245100
11.344600 8.767500
11.360900 9.609200
11.377200 10.050800
11.393400 10.205200
11.409700 10.287400
11.426000 10.302400
11.442300 10.195300
11.458600 21.190800
11.474900 10.175600
11.491200 7.739800
11.507500 7.290100
11.523800 7.003800
11.540100 6.974000
11.556400 7.202100
11.572700 7.691200
11.589000 8.440000
11.605300 8.922300
11.621600 8.807800
11.637900 8.744100
11.654200 8.730000
11.670500 8.918900
11.686800 9.330100
11.703100 9.714200
11.719400 10.065400
11.735700 10.344100
11.752000 10.543700
11.768300 10.707100
11.784600 10.816100
11.800900 10.870700
11.817200 10.906700
11.833500 10.079500
11.849800 9.308800
11.866100 8.586600
11.882400 7.883700
11.898700 7.283400
11.915000 7.138000
11.931300 7.960900
11.947600 8.192300
11.963900 8.441100
11.980200 8.755100
11.996500 9.054000
12.012800 9.320400
12.029100 9.407900
12.045400 9.283700
12.061700 9.493400
12.078000 10.100000
12.094300 10.755500
12.110600 11.457800
12.126900 9.528500
12.143100 9.233000
12.159400 8.964100
12.175700 8.722500
12.192000 8.508800
12.208300 8.323000
12.224600 8.196500
12.240900 8.173800
12.257200 8.135600
12.273500 7.862800
12.289800 7.562700
12.306100 7.285300
12.322400 7.030700
12.338700 6.798800
12.355000 6.574900
12.371300 6.434500
12.387600 6.325100
12.403900 6.228900
12.420200 6.145900
12.436500 6.064000
12.452800 5.988300
12.469100 5.922200
12.485400 5.865900
12.501700 5.819500
12.518000 5.784900
12.534300 5.762300
12.550600 5.751800
12.566900 5.753200
12.583200 5.783500
12.599500 5.856000
12.615800 5.960400
12.632100 6.103000
12.648400 6.283500
12.664700 6.502200
12.681000 6.758800
12.697300 7.053600
12.713600 7.384800
12.729900 7.743200
12.746200 8.121200
12.762500 8.091500
12.778800 7.977500
12.795100 7.875000
12.811400 7.783600
12.827700 7.703600
12.844000 7.634800
12.860300 7.577300
12.876500 7.530600
12.892800 7.491100
12.909100 7.378000
12.925400 7.128400
12.941700 6.959900
12.958000 6.873200
12.974300 6.848000
12.990600 7.602600
13.006900 9.132100
13.023200 10.686900
13.039500 12.268800
13.055800 11.807500
13.072100 11.521700
13.088400 11.199700
13.104700 10.928700
13.121000 10.708300
13.137300 10.541200
13.153600 10.424800
13.169900 10.321000
13.186200 10.219500
13.202500 10.046400
13.218800 9.771300
13.235100 9.343600
13.251400 8.810800
13.267700 8.297200
13.284000 7.961900
13.300300 7.646100
13.316600 7.356500
13.332900 7.098000
13.349200 6.870400
13.365500 6.669400
13.381800 6.493900
13.398100 6.334000
13.414400 6.187200
13.430700 6.056500
13.447000 5.944800
13.463300 5.848400
13.479600 5.763700
13.495900 5.690300
13.512200 5.628100
13.528500 5.577100
13.544800 5.827200
13.561100 6.947900
13.577400 7.776200
13.593700 8.458600
13.610000 8.978700
13.626200 9.393000
13.642500 9.700700
13.658800 9.830800
13.675100 9.727600
13.691400 9.390500
13.707700 8.520300
13.724000 8.540500
13.740300 8.601900
13.756600 8.680600
13.772900 8.730700
13.789200 8.752500
13.805500 8.625400
13.821800 8.333800
13.838100 8.056700
13.854400 7.991800
13.870700 7.979300
13.887000 7.938500
13.903300 7.869500
13.919600 7.750100
13.935900 7.437100
13.952200 7.137500
13.968500 6.851200
13.984800 6.578300
14.001100 6.318700
14.017400 6.072500
14.033700 5.839700
14.050000 5.611300
14.066300 5.367500
14.082600 5.078100
14.098900 4.486900
14.115200 4.586100
14.131500 4.949600
14.147800 5.455500
14.164100 6.103700
14.180400 6.894400
14.196700 7.820400
14.213000 8.894700
14.229300 10.081200
14.245600 11.118000
14.261900 11.970700
14.278200 12.639300
14.294500 13.102200
14.310800 12.326000
14.327100 11.463300
14.343400 10.510400
14.359700 9.479300
14.375900 8.384700
14.392200 7.490800
14.408500 7.391500
14.424800 7.421200
14.441100 7.475000
14.457400 7.552600
14.473700 7.659300
14.490000 7.817500
14.506300 7.951000
14.522600 8.248800
14.538900 8.761200
14.555200 9.488100
14.571500 10.573600
14.587800 12.211400
14.604100 14.801300
14.620400 16.914700
14.636700 16.814500
14.653000 17.505300
14.669300 20.554600
14.685600 16.225400
14.701900 10.436600
14.718200 7.410600
14.734500 5.348500
14.750800 5.492600
14.767100 5.663600
14.783400 5.861400
14.799700 6.048700
14.816000 6.200800
14.832300 6.347800
14.848600 6.501200
14.864900 6.660900
14.881200 6.827100
14.897500 6.999600
14.913800 7.188700
14.930100 7.418600
14.946400 7.650600
14.962700 7.885700
14.979000 8.116700
14.995300 8.356600
15.011600 8.710600
15.027900 9.109200
15.044200 9.499500
15.060500 9.815500
15.076800 10.049400
15.093100 10.201300
15.109300 10.283400
15.125600 10.307000
15.141900 10.586100
15.158200 11.301000
15.174500 9.903200
15.190800 7.900000
15.207100 7.431300
15.223400 7.468200
15.239700 7.513900
15.256000 7.568500
15.272300 7.631900
15.288600 7.704200
15.304900 7.785400
15.321200 7.875500
15.337500 7.976400
15.353800 8.094700
15.370100 8.231000
15.386400 8.385300
15.402700 8.557600
15.419000 8.749300
15.435300 9.102300
15.451600 9.412300
15.467900 9.694400
15.484200 9.957100
15.500500 10.190100
15.516800 10.383700
15.533100 10.513400
15.549400 10.578900
15.565700 10.623100
15.582000 10.728000
15.598300 10.939700
15.614600 11.263600
15.630900 11.701000
15.647200 12.252400
15.663500 10.256900
15.679800 8.172700
15.696100 8.092600
15.712400 8.049600
15.728700 8.043400
15.745000 8.018200
15.761300 7.979000
15.777600 7.977400
15.793900 7.991500
15.810200 7.989500
15.826500 8.036200
15.842800 8.131500
15.859000 8.275500
15.875300 8.468200
15.891600 8.708800
15.907900 8.996700
15.924200 9.319400
15.940500 10.133800
15.956800 11.626000
15.973100 11.955800
15.989400 10.210600
16.005700 8.874800
16.022000 8.726300
16.038300 8.564100
16.054600 8.384400
16.070900 8.185100
16.087200 7.970200
16.103500 7.739700
16.119800 7.492500
16.136100 7.227300
16.152400 6.983700
16.168700 6.773900
16.185000 6.596400
16.201300 6.449200
16.217600 6.277900
16.233900 6.155500
16.250200 6.152900
16.266500 6.264000
16.282800 6.616700
16.299100 10.103900
16.315400 10.080100
16.331700 9.403200
16.348000 9.052600
16.364300 8.741000
16.380600 8.392900
16.396900 8.008300
16.413200 7.587000
16.429500 6.645100
16.445800 6.279000
16.462100 5.913700
16.478400 5.504000
16.494700 5.078500
16.511000 4.674800
16.527300 4.292500
16.543600 3.928900
16.559900 3.593100
16.576200 3.292300
16.592400 3.022900
16.608700 2.785000
16.625000 2.815900
16.641300 2.576500
16.657600 2.360500
16.673900 2.168100
16.690200 1.999200
16.706500 1.853600
16.722800 1.729700
16.739100 1.624300
16.755400 1.534600
16.771700 1.458200
16.788000 1.388600
16.804300 1.324600
16.820600 1.266200
16.836900 1.213400
16.853200 1.166200
16.869500 1.124600
16.885800 1.088700
16.902100 1.058300
16.918400 1.033600
16.934700 1.014400
16.951000 0.999500
16.967300 0.986000
16.983600 0.973500
16.999900 0.961900
17.016200 0.951200
17.032500 0.941500
17.048800 0.932700
17.065100 0.924800
17.081400 0.917900
17.097700 0.912400
17.114000 0.926300
17.130300 0.934400
17.146600 0.893400
17.162900 0.848500
17.179200 0.799600
17.195500 0.746700
17.211800 0.689900
17.228100 0.629100
17.244400 0.564400
17.260700 0.495700
17.277000 0.423000
17.293300 0.346400
17.309600 0.310700
17.325900 0.301100
17.342100 0.291600
17.358400 0.282300
17.374700 0.273100
17.391000 0.264100
17.407300 0.255300
17.423600 0.246600
17.439900 0.238000
17.456200 0.229600
17.472500 0.221400
17.488800 0.213300
17.505100 0.205300
17.521400 0.197600
17.537700 0.189900
17.554000 0.182400
17.570300 0.175100
17.586600 0.167900
17.602900 0.160800
17.619200 0.153900
17.635500 0.147200
17.651800 0.140600
17.668100 0.134200
17.684400 0.127900
17.700700 0.121800
17.717000 0.115800
17.733300 0.109900
17.749600 0.104300
17.765900 0.098700
17.782200 0.093300
17.798500 0.088100
17.814800 0.083000
17.831100 0.078100
17.847400 0.073300
17.863700 0.068700
17.880000 0.064200
17.896300 0.059900
17.912600 0.055700
17.928900 0.051700
17.945200 0.047800
17.961500 0.044100
17.977800 0.040500
17.994100 0.037100
18.010400 0.033900
18.026700 0.030700
18.043000 0.027800
18.059300 0.025000
18.075600 0.022300
18.091800 0.019800
18.108100 0.017400
18.124400 0.015200
18.140700 0.013200
18.157000 0.011200
18.173300 0.009500
18.189600 0.007900
18.205900 0.006400
18.222200 0.005100
18.238500 0.004000
18.254800 0.003000
18.271100 0.002100
18.287400 0.001400
18.303700 0.000900
18.320000 0.000500
18.336300 0.000200
18.352600 0.000100
18.368900 0.000000
18.385200 0.000000
18.401500 0.000000
18.417800 0.000000
18.434100 0.000000
18.450400 0.000000
18.466700 0.000000
18.483000 0.000000
18.499300 0.000000
18.515600 0.000000
18.531900 0.000000
18.548200 0.000000
18.564500 0.000000
18.580800 0.000000
18.597100 0.000000
18.613400 0.000000
18.629700 0.000000
18.646000 0.000000
18.662300 0.000000
18.678600 0.000000
18.694900 0.000000
18.711200 0.000000
18.727500 0.000000
18.743800 0.000000
18.760100 0.000000
18.776400 0.000000
18.792700 0.000000
18.809000 0.000000
18.825200 0.000000
18.841500 0.000000
18.857800 0.000000
18.874100 0.000000
18.890400 0.000000
18.906700 0.000000
18.923000 0.000000
18.939300 0.000000
18.955600 0.000000
18.971900 0.000000
18.988200 0.000000
19.004500 0.000000
19.020800 0.000000
19.037100 0.000000
19.053400 0.000000
19.069700 0.000000
19.086000 0.000000
19.102300 0.000000
19.118600 0.000000
19.134900 0.000000
19.151200 0.000000
19.167500 0.000000
19.183800 0.000000
19.200100 0.000000
19.216400 0.000000
19.232700 0.000000
19.249000 0.000000
19.265300 0.000000
19.281600 0.000000
19.297900 0.000000
19.314200 0.000000
19.330500 0.000000
19.346800 0.000000
19.363100 0.000000
19.379400 0.000000
19.395700 0.000000
19.412000 0.000000
19.428300 0.000000
19.444600 0.000000
19.460900 0.000000
19.477200 0.000000
19.493500 0.000000
19.509800 0.000000
19.526100 0.000000
19.542400 0.000000
19.558700 0.000000
19.574900 0.000000
19.591200 0.000000
19.607500 0.000000
19.623800 0.000000
19.640100 0.000000
19.656400 0.000000
19.672700 0.000000
19.689000 0.000000
19.705300 0.000000
19.721600 0.000000
19.737900 0.000000
19.754200 0.000000
19.770500 0.000000
19.786800 0.000000
19.803100 0.000000
19.819400 0.000000
19.835700 0.000000
19.852000 0.000000
e
