set title 'mp-982261 - Density of States'
set xlabel 'Energy (eV)'
set ylabel 'DOS (states/eV)'
set grid
set xrange [-10:10]
set yrange [0:25.495]
set xzeroaxis lt -1
set terminal png size 800,600
set output 'mp-982261_dos_gnuplot.png'
plot '-' using 1:2 with lines title 'DOS'
-13.935900 0.000000
-13.921000 0.000000
-13.906100 0.000000
-13.891200 0.000000
-13.876400 0.000000
-13.861500 0.000000
-13.846600 0.000000
-13.831800 0.000000
-13.816900 0.000000
-13.802000 0.000000
-13.787100 0.000000
-13.772300 0.000000
-13.757400 0.000000
-13.742500 0.000000
-13.727700 0.000000
-13.712800 0.000000
-13.697900 0.000000
-13.683100 0.000000
-13.668200 0.000000
-13.653300 0.000000
-13.638400 0.000000
-13.623600 0.000000
-13.608700 0.000000
-13.593800 0.000000
-13.579000 0.000000
-13.564100 0.000000
-13.549200 0.000000
-13.534300 0.000000
-13.519500 0.000000
-13.504600 0.000000
-13.489700 0.000000
-13.474900 0.000000
-13.460000 0.000000
-13.445100 0.000000
-13.430200 0.000000
-13.415400 0.000000
-13.400500 0.000000
-13.385600 0.000000
-13.370800 0.000000
-13.355900 0.000000
-13.341000 0.000000
-13.326200 0.000000
-13.311300 0.000000
-13.296400 0.000000
-13.281500 0.000000
-13.266700 0.000000
-13.251800 0.000000
-13.236900 0.000000
-13.222100 0.000000
-13.207200 0.000000
-13.192300 0.000000
-13.177400 0.000000
-13.162600 0.000000
-13.147700 0.000000
-13.132800 0.000000
-13.118000 0.000000
-13.103100 0.000000
-13.088200 0.000000
-13.073400 0.000000
-13.058500 0.000000
-13.043600 0.000000
-13.028700 0.000000
-13.013900 0.000000
-12.999000 0.000000
-12.984100 0.000000
-12.969300 0.000000
-12.954400 0.000000
-12.939500 0.000000
-12.924600 0.000000
-12.909800 0.000000
-12.894900 0.000000
-12.880000 0.000000
-12.865200 0.000000
-12.850300 0.000000
-12.835400 0.000000
-12.820600 0.000000
-12.805700 0.000000
-12.790800 0.000000
-12.775900 0.000000
-12.761100 0.000000
-12.746200 0.000000
-12.731300 0.000000
-12.716500 0.000000
-12.701600 0.000000
-12.686700 0.000000
-12.671800 0.000000
-12.657000 0.000000
-12.642100 0.000000
-12.627200 0.000000
-12.612400 0.000000
-12.597500 0.000000
-12.582600 5.293200
-12.567700 104.793700
-12.552900 132.685900
-12.538000 198.102200
-12.523100 190.368700
-12.508300 572.467000
-12.493400 118.866800
-12.478500 66.108500
-12.463700 0.000000
-12.448800 0.000000
-12.433900 0.000000
-12.419000 0.000000
-12.404200 0.000000
-12.389300 0.000000
-12.374400 0.000000
-12.359600 0.000000
-12.344700 0.000000
-12.329800 0.000000
-12.314900 0.000000
-12.300100 0.000000
-12.285200 0.000000
-12.270300 0.000000
-12.255500 0.000000
-12.240600 0.000000
-12.225700 0.000000
-12.210900 0.000000
-12.196000 0.000000
-12.181100 0.000000
-12.166200 0.000000
-12.151400 0.000000
-12.136500 0.000000
-12.121600 0.000000
-12.106800 0.000000
-12.091900 0.000000
-12.077000 0.000000
-12.062100 0.000000
-12.047300 0.000000
-12.032400 0.000000
-12.017500 0.000000
-12.002700 0.000000
-11.987800 0.000000
-11.972900 0.000000
-11.958000 0.000000
-11.943200 0.000000
-11.928300 0.000000
-11.913400 0.000000
-11.898600 0.000000
-11.883700 0.000000
-11.868800 0.000000
-11.854000 0.000000
-11.839100 0.000000
-11.824200 0.000000
-11.809300 0.000000
-11.794500 0.000000
-11.779600 0.000000
-11.764700 0.000000
-11.749900 0.000000
-11.735000 0.000000
-11.720100 0.000000
-11.705200 0.000000
-11.690400 0.000000
-11.675500 0.000000
-11.660600 0.000000
-11.645800 0.000000
-11.630900 0.000000
-11.616000 0.000000
-11.601200 0.000000
-11.586300 0.000000
-11.571400 0.000000
-11.556500 0.000000
-11.541700 0.000000
-11.526800 0.000000
-11.511900 0.000000
-11.497100 0.000000
-11.482200 0.000000
-11.467300 0.000000
-11.452400 0.000000
-11.437600 0.000000
-11.422700 0.000000
-11.407800 0.000000
-11.393000 0.000000
-11.378100 0.000000
-11.363200 0.000000
-11.348400 0.000000
-11.333500 0.000000
-11.318600 0.000000
-11.303700 0.000000
-11.288900 0.000000
-11.274000 0.000000
-11.259100 0.000000
-11.244300 0.000000
-11.229400 0.000000
-11.214500 0.000000
-11.199600 0.000000
-11.184800 0.000000
-11.169900 0.000000
-11.155000 0.000000
-11.140200 0.000000
-11.125300 0.000000
-11.110400 0.000000
-11.095500 0.000000
-11.080700 0.000000
-11.065800 0.000000
-11.050900 0.000000
-11.036100 0.000000
-11.021200 0.000000
-11.006300 0.000000
-10.991500 0.000000
-10.976600 0.000000
-10.961700 0.000000
-10.946800 0.000000
-10.932000 0.000000
-10.917100 0.000000
-10.902200 0.000000
-10.887400 0.000000
-10.872500 0.000000
-10.857600 0.000000
-10.842700 0.000000
-10.827900 0.000000
-10.813000 0.000000
-10.798100 0.000000
-10.783300 0.000000
-10.768400 0.000000
-10.753500 0.000000
-10.738700 0.000000
-10.723800 0.000000
-10.708900 0.000000
-10.694000 0.000000
-10.679200 0.000000
-10.664300 0.000000
-10.649400 0.000000
-10.634600 0.000000
-10.619700 0.000000
-10.604800 0.000000
-10.589900 0.000000
-10.575100 0.000000
-10.560200 0.000000
-10.545300 0.000000
-10.530500 0.000000
-10.515600 0.000000
-10.500700 0.000000
-10.485800 0.000000
-10.471000 0.000000
-10.456100 0.000000
-10.441200 0.000000
-10.426400 0.000000
-10.411500 0.000000
-10.396600 0.000000
-10.381800 0.000000
-10.366900 0.000000
-10.352000 0.000000
-10.337100 0.000000
-10.322300 0.000000
-10.307400 0.000000
-10.292500 0.000000
-10.277700 0.000000
-10.262800 0.000000
-10.247900 0.000000
-10.233000 0.000000
-10.218200 0.000000
-10.203300 0.000000
-10.188400 0.000000
-10.173600 0.000000
-10.158700 0.000000
-10.143800 0.000000
-10.129000 0.000000
-10.114100 0.000000
-10.099200 0.000000
-10.084300 0.011800
-10.069500 0.292000
-10.054600 0.514200
-10.039700 0.652800
-10.024900 0.841400
-10.010000 0.971300
-9.995100 1.030400
-9.980200 1.134100
-9.965400 1.245400
-9.950500 1.368100
-9.935600 1.479200
-9.920800 1.562200
-9.905900 1.649400
-9.891000 1.732500
-9.876100 1.844200
-9.861300 1.961100
-9.846400 2.078700
-9.831500 2.196800
-9.816700 2.298300
-9.801800 2.413200
-9.786900 2.550100
-9.772100 2.687600
-9.757200 2.825400
-9.742300 2.982200
-9.727400 3.190200
-9.712600 3.420200
-9.697700 3.764900
-9.682800 4.064200
-9.668000 4.104400
-9.653100 4.287700
-9.638200 4.429800
-9.623300 4.538600
-9.608500 4.704000
-9.593600 4.977700
-9.578700 5.317100
-9.563900 5.812000
-9.549000 6.825300
-9.534100 7.580400
-9.519300 7.581500
-9.504400 6.785200
-9.489500 5.933200
-9.474600 5.140200
-9.459800 2.832600
-9.444900 1.492000
-9.430000 2.274500
-9.415200 5.259100
-9.400300 7.577400
-9.385400 10.242200
-9.370500 7.519400
-9.355700 6.813800
-9.340800 6.456300
-9.325900 6.345200
-9.311100 6.390400
-9.296200 6.475300
-9.281300 6.452500
-9.266500 6.432700
-9.251600 5.524000
-9.236700 5.110400
-9.221800 4.783500
-9.207000 4.555400
-9.192100 4.469200
-9.177200 4.195600
-9.162400 3.975100
-9.147500 3.897700
-9.132600 3.798400
-9.117700 3.298800
-9.102900 2.773200
-9.088000 2.429000
-9.073100 2.140700
-9.058300 1.828800
-9.043400 1.370800
-9.028500 1.006600
-9.013600 0.058300
-8.998800 0.000000
-8.983900 0.000000
-8.969000 0.000000
-8.954200 0.000000
-8.939300 0.000000
-8.924400 0.000000
-8.909600 0.000000
-8.894700 0.000000
-8.879800 0.000000
-8.864900 0.000000
-8.850100 0.000000
-8.835200 0.000000
-8.820300 0.000000
-8.805500 0.000000
-8.790600 0.000000
-8.775700 0.000000
-8.760800 0.000000
-8.746000 0.000000
-8.731100 0.000000
-8.716200 0.000000
-8.701400 0.000000
-8.686500 0.000000
-8.671600 0.000000
-8.656800 0.000000
-8.641900 0.000000
-8.627000 0.000000
-8.612100 0.000000
-8.597300 0.000000
-8.582400 0.000000
-8.567500 0.000000
-8.552700 0.000000
-8.537800 0.000000
-8.522900 0.000000
-8.508000 0.000000
-8.493200 0.000000
-8.478300 0.000000
-8.463400 0.000000
-8.448600 0.000000
-8.433700 0.000000
-8.418800 0.000000
-8.403900 0.000000
-8.389100 0.000000
-8.374200 0.000000
-8.359300 0.000000
-8.344500 0.000000
-8.329600 0.000000
-8.314700 0.000000
-8.299900 0.000000
-8.285000 0.000000
-8.270100 0.000000
-8.255200 0.000000
-8.240400 0.000000
-8.225500 0.000000
-8.210600 0.000000
-8.195800 0.000000
-8.180900 0.000000
-8.166000 0.000000
-8.151100 0.000000
-8.136300 0.000000
-8.121400 0.000000
-8.106500 0.000000
-8.091700 0.000000
-8.076800 0.000000
-8.061900 0.000000
-8.047100 0.000000
-8.032200 0.000000
-8.017300 0.000000
-8.002400 0.000000
-7.987600 0.000000
-7.972700 0.000000
-7.957800 0.000000
-7.943000 0.000000
-7.928100 0.000000
-7.913200 0.000000
-7.898300 0.000000
-7.883500 0.000000
-7.868600 0.000000
-7.853700 0.000000
-7.838900 0.000000
-7.824000 0.000000
-7.809100 0.000000
-7.794300 0.000000
-7.779400 0.000000
-7.764500 0.000000
-7.749600 0.000000
-7.734800 0.000000
-7.719900 0.000000
-7.705000 0.000000
-7.690200 0.000000
-7.675300 0.000000
-7.660400 0.000000
-7.645500 0.000000
-7.630700 0.000000
-7.615800 0.000000
-7.600900 0.000000
-7.586100 0.000000
-7.571200 0.000000
-7.556300 0.000000
-7.541400 0.000000
-7.526600 0.000000
-7.511700 0.000000
-7.496800 0.000000
-7.482000 0.511500
-7.467100 0.555300
-7.452200 0.783800
-7.437400 1.084800
-7.422500 1.213400
-7.407600 1.316000
-7.392700 1.488000
-7.377900 1.673500
-7.363000 1.881200
-7.348100 2.052800
-7.333300 2.214500
-7.318400 2.465800
-7.303500 2.744800
-7.288600 2.862100
-7.273800 3.031300
-7.258900 3.166500
-7.244000 3.419800
-7.229200 3.533600
-7.214300 3.843500
-7.199400 4.232800
-7.184600 4.564300
-7.169700 4.909400
-7.154800 5.479200
-7.139900 6.181000
-7.125100 7.094500
-7.110200 8.154400
-7.095300 8.811600
-7.080500 9.051300
-7.065600 10.050000
-7.050700 10.755300
-7.035800 11.742500
-7.021000 14.043900
-7.006100 20.464500
-6.991200 23.177600
-6.976400 22.028800
-6.961500 17.795300
-6.946600 10.358600
-6.931700 7.447600
-6.916900 6.123000
-6.902000 5.093500
-6.887100 4.046400
-6.872300 3.273100
-6.857400 2.438000
-6.842500 1.571800
-6.827700 0.025900
-6.812800 0.000000
-6.797900 0.000000
-6.783000 0.000000
-6.768200 0.000000
-6.753300 0.000000
-6.738400 0.000000
-6.723600 0.000000
-6.708700 0.000000
-6.693800 0.000000
-6.678900 0.000000
-6.664100 0.000000
-6.649200 0.000000
-6.634300 0.000000
-6.619500 0.000000
-6.604600 0.000000
-6.589700 0.000000
-6.574900 0.000000
-6.560000 0.000000
-6.545100 0.000000
-6.530200 0.000000
-6.515400 0.000000
-6.500500 0.000000
-6.485600 0.000000
-6.470800 0.000000
-6.455900 0.000000
-6.441000 0.000000
-6.426100 0.000000
-6.411300 0.000000
-6.396400 0.000000
-6.381500 0.000000
-6.366700 0.000000
-6.351800 0.000000
-6.336900 0.000000
-6.322100 0.000000
-6.307200 0.000000
-6.292300 0.000000
-6.277400 0.000000
-6.262600 0.000000
-6.247700 0.000000
-6.232800 0.000000
-6.218000 0.000000
-6.203100 0.000000
-6.188200 0.000000
-6.173300 0.000000
-6.158500 0.000000
-6.143600 0.000000
-6.128700 0.000000
-6.113900 0.000000
-6.099000 0.000000
-6.084100 0.000000
-6.069200 0.000000
-6.054400 0.000000
-6.039500 0.000000
-6.024600 0.000000
-6.009800 0.000000
-5.994900 0.000000
-5.980000 0.000000
-5.965200 0.000000
-5.950300 0.000000
-5.935400 0.000000
-5.920500 0.000000
-5.905700 0.000000
-5.890800 0.000000
-5.875900 0.000000
-5.861100 0.000000
-5.846200 0.000000
-5.831300 0.000000
-5.816400 0.000000
-5.801600 0.000000
-5.786700 0.000000
-5.771800 0.000000
-5.757000 0.000000
-5.742100 0.000000
-5.727200 0.000000
-5.712400 0.000000
-5.697500 0.000000
-5.682600 0.000000
-5.667700 0.000000
-5.652900 0.000000
-5.638000 0.000000
-5.623100 0.000000
-5.608300 0.000000
-5.593400 0.000000
-5.578500 0.000000
-5.563600 0.000000
-5.548800 0.000000
-5.533900 0.000000
-5.519000 0.000000
-5.504200 0.000000
-5.489300 0.000000
-5.474400 0.000000
-5.459500 0.000000
-5.444700 0.000000
-5.429800 0.000000
-5.414900 0.000000
-5.400100 0.000000
-5.385200 0.000000
-5.370300 0.000000
-5.355500 0.000000
-5.340600 0.000000
-5.325700 0.000000
-5.310800 0.000000
-5.296000 0.000000
-5.281100 0.000000
-5.266200 0.000000
-5.251400 0.000000
-5.236500 0.000000
-5.221600 0.000000
-5.206700 0.000000
-5.191900 0.000000
-5.177000 0.000000
-5.162100 0.000000
-5.147300 0.000000
-5.132400 0.000000
-5.117500 0.000000
-5.102700 0.000000
-5.087800 0.000000
-5.072900 0.000000
-5.058000 0.000000
-5.043200 0.000000
-5.028300 0.000000
-5.013400 0.000000
-4.998600 0.000000
-4.983700 0.000000
-4.968800 0.000000
-4.953900 0.000000
-4.939100 0.000000
-4.924200 0.000000
-4.909300 0.000000
-4.894500 0.000000
-4.879600 0.000000
-4.864700 0.000000
-4.849800 0.000000
-4.835000 0.000000
-4.820100 0.000000
-4.805200 0.000000
-4.790400 0.000000
-4.775500 0.000000
-4.760600 0.000000
-4.745800 0.000000
-4.730900 0.000000
-4.716000 0.000000
-4.701100 0.000000
-4.686300 0.000000
-4.671400 0.000000
-4.656500 0.000000
-4.641700 0.000000
-4.626800 0.000000
-4.611900 0.000000
-4.597000 0.000000
-4.582200 0.000000
-4.567300 0.000000
-4.552400 0.000000
-4.537600 0.000000
-4.522700 0.000000
-4.507800 0.000000
-4.493000 0.000000
-4.478100 0.000000
-4.463200 0.000000
-4.448300 0.000000
-4.433500 0.000000
-4.418600 0.000000
-4.403700 0.000000
-4.388900 0.000000
-4.374000 0.000000
-4.359100 0.000000
-4.344200 0.000000
-4.329400 0.000000
-4.314500 0.000000
-4.299600 0.000000
-4.284800 0.000000
-4.269900 0.000000
-4.255000 0.000000
-4.240200 0.000000
-4.225300 0.000000
-4.210400 0.000000
-4.195500 0.071200
-4.180700 0.110600
-4.165800 0.167000
-4.150900 0.213600
-4.136100 0.250400
-4.121200 0.276400
-4.106300 0.289000
-4.091400 0.320600
-4.076600 0.353500
-4.061700 0.387900
-4.046800 0.415900
-4.032000 0.440000
-4.017100 0.469900
-4.002200 0.503800
-3.987300 0.732500
-3.972500 0.917300
-3.957600 1.051300
-3.942700 1.200600
-3.927900 1.345700
-3.913000 1.434600
-3.898100 1.566400
-3.883300 1.714400
-3.868400 1.858500
-3.853500 2.003000
-3.838600 2.167700
-3.823800 2.314500
-3.808900 2.468100
-3.794000 2.648900
-3.779200 2.840400
-3.764300 3.038900
-3.749400 3.254700
-3.734500 3.494100
-3.719700 3.777800
-3.704800 4.057600
-3.689900 4.378200
-3.675100 4.979400
-3.660200 5.754500
-3.645300 6.681300
-3.630500 7.772900
-3.615600 10.474600
-3.600700 11.544200
-3.585800 11.586800
-3.571000 12.193000
-3.556100 8.781900
-3.541200 8.154500
-3.526400 7.785400
-3.511500 7.404700
-3.496600 6.991400
-3.481700 6.791700
-3.466900 6.645300
-3.452000 6.657500
-3.437100 6.756400
-3.422300 6.899700
-3.407400 7.657100
-3.392500 7.787900
-3.377600 7.141000
-3.362800 6.715600
-3.347900 5.722900
-3.333000 5.136800
-3.318200 4.807600
-3.303300 3.919500
-3.288400 3.507200
-3.273600 3.150800
-3.258700 2.719600
-3.243800 2.244500
-3.228900 1.887800
-3.214100 1.630700
-3.199200 0.953800
-3.184300 0.844200
-3.169500 0.788300
-3.154600 0.735200
-3.139700 0.669600
-3.124800 0.611800
-3.110000 0.561500
-3.095100 0.515200
-3.080200 0.516900
-3.065400 0.400300
-3.050500 0.363400
-3.035600 0.319700
-3.020800 0.270100
-3.005900 0.229900
-2.991000 0.257100
-2.976100 0.085100
-2.961300 0.039100
-2.946400 0.010700
-2.931500 0.000100
-2.916700 0.000000
-2.901800 0.000000
-2.886900 0.000000
-2.872000 0.000000
-2.857200 0.000000
-2.842300 0.000000
-2.827400 0.000000
-2.812600 0.000000
-2.797700 0.000000
-2.782800 0.000000
-2.768000 0.000000
-2.753100 0.000000
-2.738200 0.000000
-2.723300 0.000000
-2.708500 0.000000
-2.693600 0.000000
-2.678700 0.000000
-2.663900 0.000000
-2.649000 0.000000
-2.634100 0.000000
-2.619200 0.000000
-2.604400 0.000000
-2.589500 0.000000
-2.574600 0.000000
-2.559800 0.000000
-2.544900 0.000000
-2.530000 0.000000
-2.515100 0.000000
-2.500300 0.000000
-2.485400 0.000000
-2.470500 0.000000
-2.455700 0.000000
-2.440800 0.000000
-2.425900 0.000000
-2.411100 0.000000
-2.396200 0.000000
-2.381300 0.000000
-2.366400 0.000000
-2.351600 0.000000
-2.336700 0.000000
-2.321800 0.000000
-2.307000 0.000000
-2.292100 0.000000
-2.277200 0.000000
-2.262300 0.000000
-2.247500 0.000000
-2.232600 0.000000
-2.217700 0.000000
-2.202900 0.000000
-2.188000 0.000000
-2.173100 0.000000
-2.158300 0.000000
-2.143400 0.000000
-2.128500 0.000000
-2.113600 0.000000
-2.098800 0.000000
-2.083900 0.000000
-2.069000 0.000000
-2.054200 0.000000
-2.039300 0.000000
-2.024400 0.000000
-2.009500 0.000000
-1.994700 0.000000
-1.979800 0.000000
-1.964900 0.000000
-1.950100 0.000000
-1.935200 0.000000
-1.920300 0.000000
-1.905400 0.000000
-1.890600 0.000000
-1.875700 0.000000
-1.860800 0.000000
-1.846000 0.000000
-1.831100 0.000000
-1.816200 0.000000
-1.801400 0.000000
-1.786500 0.000000
-1.771600 0.000000
-1.756700 0.000000
-1.741900 0.000000
-1.727000 0.000000
-1.712100 0.000000
-1.697300 0.000000
-1.682400 0.000000
-1.667500 0.000000
-1.652600 0.000000
-1.637800 0.000000
-1.622900 0.000000
-1.608000 0.000000
-1.593200 0.000000
-1.578300 0.000000
-1.563400 0.000000
-1.548600 0.000000
-1.533700 0.000000
-1.518800 0.000000
-1.503900 0.000000
-1.489100 0.000000
-1.474200 0.000000
-1.459300 0.000000
-1.444500 0.000000
-1.429600 0.000000
-1.414700 0.000000
-1.399800 0.000000
-1.385000 0.000000
-1.370100 0.000000
-1.355200 0.000000
-1.340400 0.000000
-1.325500 0.000000
-1.310600 0.000000
-1.295800 0.000000
-1.280900 0.000000
-1.266000 0.000000
-1.251100 0.000000
-1.236300 0.000000
-1.221400 0.000000
-1.206500 0.000000
-1.191700 0.000000
-1.176800 0.000000
-1.161900 0.000000
-1.147000 0.000000
-1.132200 0.000000
-1.117300 0.000000
-1.102400 0.000000
-1.087600 0.000000
-1.072700 0.000000
-1.057800 0.000000
-1.042900 0.000000
-1.028100 0.000000
-1.013200 0.000000
-0.998300 0.000000
-0.983500 0.000000
-0.968600 0.000000
-0.953700 0.000000
-0.938900 0.000000
-0.924000 0.000000
-0.909100 0.000000
-0.894200 0.000000
-0.879400 0.000000
-0.864500 0.000000
-0.849600 0.000000
-0.834800 0.000000
-0.819900 0.000000
-0.805000 0.000000
-0.790100 0.089200
-0.775300 0.419700
-0.760400 0.631200
-0.745500 0.739500
-0.730700 0.998100
-0.715800 2.362800
-0.700900 2.264700
-0.686100 2.344000
-0.671200 2.393200
-0.656300 2.432500
-0.641400 2.458300
-0.626600 2.470000
-0.611700 2.461600
-0.596800 2.455100
-0.582000 2.470300
-0.567100 2.498500
-0.552200 2.519200
-0.537300 2.544000
-0.522500 2.584300
-0.507600 2.631000
-0.492700 2.682900
-0.477900 2.738700
-0.463000 2.807300
-0.448100 2.893800
-0.433200 3.016400
-0.418400 3.178800
-0.403500 3.354100
-0.388600 3.567400
-0.373800 3.974900
-0.358900 4.392800
-0.344000 4.778900
-0.329200 5.011500
-0.314300 5.131300
-0.299400 4.895800
-0.284500 4.375500
-0.269700 3.687600
-0.254800 3.203400
-0.239900 2.960200
-0.225100 2.746400
-0.210200 2.567100
-0.195300 2.406500
-0.180400 2.522900
-0.165600 2.119000
-0.150700 2.281300
-0.135800 2.395600
-0.121000 2.467800
-0.106100 2.553600
-0.091200 2.605300
-0.076400 2.700600
-0.061500 2.905100
-0.046600 2.983300
-0.031700 2.877800
-0.016900 2.735100
-0.002000 2.572700
0.012900 2.561400
0.027700 2.666300
0.042600 2.630700
0.057500 2.794700
0.072400 3.212700
0.087200 3.377300
0.102100 3.502100
0.117000 4.897200
0.131800 5.396600
0.146700 4.878600
0.161600 4.606900
0.176400 4.554800
0.191300 5.072500
0.206200 4.537100
0.221100 4.464600
0.235900 4.483600
0.250800 4.526700
0.265700 4.937600
0.280500 4.649900
0.295400 4.192700
0.310300 3.819300
0.325200 3.422900
0.340000 2.835100
0.354900 2.284000
0.369800 2.264700
0.384600 2.252400
0.399500 2.242100
0.414400 2.242500
0.429300 2.259900
0.444100 2.225300
0.459000 2.717000
0.473900 2.831200
0.488700 3.309700
0.503600 3.434600
0.518500 2.858700
0.533300 2.686900
0.548200 2.503800
0.563100 2.333300
0.578000 2.236000
0.592800 2.232800
0.607700 2.051900
0.622600 2.128200
0.637400 2.177700
0.652300 2.121500
0.667200 2.168500
0.682100 2.231900
0.696900 2.331000
0.711800 2.468700
0.726700 2.628000
0.741500 2.865600
0.756400 3.102000
0.771300 3.430300
0.786100 4.092100
0.801000 4.777100
0.815900 5.057800
0.830800 5.059300
0.845600 5.006400
0.860500 4.853500
0.875400 4.737800
0.890200 4.708300
0.905100 4.542300
0.920000 4.378300
0.934900 4.361600
0.949700 4.443100
0.964600 4.666900
0.979500 5.020000
0.994300 5.544200
1.009200 5.056400
1.024100 4.820100
1.039000 4.700700
1.053800 4.579400
1.068700 4.450200
1.083600 4.192900
1.098400 4.034200
1.113300 3.889000
1.128200 3.775700
1.143000 3.712200
1.157900 3.680000
1.172800 4.045300
1.187700 4.174000
1.202500 4.842300
1.217400 5.362900
1.232300 5.046100
1.247100 4.928500
1.262000 4.777100
1.276900 4.557800
1.291800 4.445600
1.306600 4.394200
1.321500 4.380900
1.336400 4.260400
1.351200 4.062200
1.366100 3.969900
1.381000 3.962800
1.395800 4.099000
1.410700 4.339400
1.425600 4.386100
1.440500 4.477400
1.455300 4.581800
1.470200 4.813000
1.485100 4.967100
1.499900 4.956900
1.514800 4.968500
1.529700 4.898900
1.544600 4.783300
1.559400 4.689800
1.574300 4.575800
1.589200 4.373800
1.604000 4.215000
1.618900 4.089000
1.633800 3.974000
1.648700 3.943500
1.663500 3.953900
1.678400 4.104300
1.693300 4.177400
1.708100 4.053600
1.723000 3.968100
1.737900 4.007400
1.752700 4.060900
1.767600 4.111900
1.782500 4.182600
1.797400 4.222500
1.812200 4.254000
1.827100 4.298400
1.842000 4.392800
1.856800 4.503800
1.871700 5.062100
1.886600 5.163400
1.901500 5.339700
1.916300 5.436900
1.931200 5.641200
1.946100 5.768800
1.960900 5.997900
1.975800 5.949200
1.990700 5.896600
2.005500 5.756200
2.020400 5.720900
2.035300 5.769800
2.050200 5.827300
2.065000 5.873500
2.079900 5.967100
2.094800 6.104800
2.109600 6.351300
2.124500 6.328700
2.139400 6.238300
2.154300 6.116000
2.169100 6.132800
2.184000 6.046200
2.198900 6.100800
2.213700 6.196900
2.228600 6.346200
2.243500 6.635500
2.258300 6.889700
2.273200 6.873100
2.288100 7.220400
2.303000 7.784600
2.317800 7.246900
2.332700 7.020800
2.347600 6.985400
2.362400 7.011300
2.377300 7.035000
2.392200 7.020500
2.407100 6.383500
2.421900 6.229800
2.436800 6.043500
2.451700 5.936400
2.466500 6.140700
2.481400 5.964100
2.496300 5.721300
2.511200 5.688400
2.526000 5.954500
2.540900 5.525500
2.555800 5.203900
2.570600 4.760600
2.585500 4.331100
2.600400 4.062600
2.615200 3.168700
2.630100 3.540500
2.645000 3.995100
2.659900 4.258600
2.674700 4.405600
2.689600 3.936800
2.704500 3.841600
2.719300 3.765100
2.734200 3.759400
2.749100 3.696400
2.764000 3.684200
2.778800 3.557800
2.793700 3.476300
2.808600 3.387100
2.823400 3.336100
2.838300 3.326400
2.853200 3.289800
2.868000 3.249600
2.882900 3.205700
2.897800 3.193200
2.912700 3.180500
2.927500 3.116800
2.942400 3.073700
2.957300 2.976400
2.972100 2.863400
2.987000 2.781100
3.001900 2.726000
3.016800 2.678900
3.031600 2.636900
3.046500 2.599100
3.061400 2.567600
3.076200 2.541700
3.091100 2.518800
3.106000 2.503300
3.120900 2.492500
3.135700 2.488500
3.150600 2.505100
3.165500 2.436400
3.180300 2.459700
3.195200 2.512100
3.210100 2.574000
3.224900 2.624400
3.239800 2.657800
3.254700 2.682400
3.269600 2.717000
3.284400 2.877600
3.299300 3.296400
3.314200 3.675800
3.329000 3.761400
3.343900 3.540800
3.358800 3.393500
3.373700 3.234100
3.388500 3.077000
3.403400 2.971300
3.418300 3.015400
3.433100 3.073200
3.448000 3.147900
3.462900 3.156700
3.477700 3.236200
3.492600 3.301000
3.507500 3.338600
3.522400 3.391300
3.537200 3.346300
3.552100 3.349000
3.567000 3.408800
3.581800 3.487800
3.596700 3.572600
3.611600 3.655300
3.626500 3.777500
3.641300 3.931900
3.656200 4.101700
3.671100 4.285200
3.685900 4.507200
3.700800 4.770100
3.715700 5.099900
3.730500 5.492100
3.745400 5.793500
3.760300 6.058100
3.775200 6.123800
3.790000 5.935100
3.804900 5.703400
3.819800 5.135100
3.834600 4.596600
3.849500 4.391900
3.864400 4.001400
3.879300 3.883600
3.894100 3.850900
3.909000 3.906800
3.923900 4.052700
3.938700 4.276700
3.953600 4.956200
3.968500 6.026900
3.983400 7.221900
3.998200 6.502700
4.013100 6.111500
4.028000 5.721300
4.042800 5.220500
4.057700 4.221200
4.072600 3.974800
4.087400 3.624600
4.102300 3.028100
4.117200 2.250500
4.132100 1.770200
4.146900 1.577200
4.161800 1.437300
4.176700 1.318100
4.191500 1.213900
4.206400 1.122800
4.221300 1.044000
4.236200 1.019900
4.251000 0.990100
4.265900 0.958600
4.280800 0.926800
4.295600 0.895000
4.310500 0.863400
4.325400 0.828900
4.340200 0.770300
4.355100 0.744900
4.370000 0.722400
4.384900 0.703600
4.399700 0.686900
4.414600 0.672300
4.429500 0.669500
4.444300 0.623200
4.459200 0.614900
4.474100 0.607400
4.489000 0.588400
4.503800 0.560800
4.518700 0.528800
4.533600 0.493400
4.548400 0.455300
4.563300 0.409700
4.578200 0.375600
4.593100 0.405500
4.607900 0.338300
4.622800 0.287200
4.637700 0.267700
4.652500 0.231800
4.667400 0.184400
4.682300 0.137800
4.697100 0.124000
4.712000 0.135400
4.726900 0.147000
4.741800 0.158800
4.756600 0.170800
4.771500 0.182900
4.786400 0.195200
4.801200 0.207700
4.816100 0.220400
4.831000 0.233200
4.845900 0.246300
4.860700 0.259500
4.875600 0.272800
4.890500 0.286400
4.905300 0.301800
4.920200 0.321600
4.935100 0.348600
4.949900 0.398700
4.964800 0.459000
4.979700 0.496900
4.994600 0.530800
5.009400 0.565600
5.024300 0.603700
5.039200 0.648200
5.054000 0.699100
5.068900 0.756600
5.083800 0.820600
5.098700 0.891400
5.113500 0.931800
5.128400 1.001300
5.143300 1.084300
5.158100 1.171800
5.173000 1.265100
5.187900 1.419000
5.202700 1.536400
5.217600 1.586700
5.232500 1.558900
5.247400 1.619500
5.262200 1.629400
5.277100 1.626800
5.292000 1.645600
5.306800 1.637300
5.321700 1.638100
5.336600 1.665600
5.351500 1.698200
5.366300 1.735100
5.381200 1.775900
5.396100 1.812800
5.410900 1.842600
5.425800 1.867300
5.440700 1.892700
5.455600 1.919400
5.470400 1.941900
5.485300 1.969100
5.500200 2.002900
5.515000 2.043600
5.529900 2.088200
5.544800 2.141700
5.559600 2.219300
5.574500 2.300200
5.589400 2.396700
5.604300 2.509300
5.619100 2.637400
5.634000 2.803200
5.648900 2.698900
5.663700 2.737400
5.678600 2.937800
5.693500 3.267200
5.708400 3.828200
5.723200 4.351700
5.738100 4.209800
5.753000 3.989600
5.767800 3.803500
5.782700 3.736500
5.797600 3.670200
5.812400 3.631400
5.827300 3.669400
5.842200 3.843500
5.857100 3.810300
5.871900 3.752900
5.886800 3.664500
5.901700 3.515700
5.916500 3.384700
5.931400 3.293300
5.946300 3.233800
5.961200 3.173200
5.976000 3.085400
5.990900 3.012300
6.005800 2.962300
6.020600 2.915000
6.035500 2.864300
6.050400 2.812200
6.065300 2.764700
6.080100 2.732000
6.095000 2.730700
6.109900 2.716300
6.124700 2.700300
6.139600 2.681300
6.154500 2.656900
6.169300 2.630700
6.184200 2.605100
6.199100 2.748800
6.214000 3.051400
6.228800 3.138200
6.243700 3.245600
6.258600 3.351900
6.273400 3.496900
6.288300 3.517900
6.303200 3.438500
6.318100 3.376600
6.332900 3.309400
6.347800 3.174100
6.362700 3.091900
6.377500 3.019000
6.392400 2.954500
6.407300 2.888300
6.422100 2.833200
6.437000 3.043200
6.451900 3.202000
6.466800 3.568200
6.481600 3.653200
6.496500 3.691500
6.511400 3.933400
6.526200 4.080700
6.541100 4.260400
6.556000 4.174300
6.570900 4.019300
6.585700 4.079900
6.600600 4.261900
6.615500 4.099100
6.630300 3.991000
6.645200 3.979200
6.660100 4.093700
6.675000 4.160900
6.689800 4.269200
6.704700 4.346100
6.719600 4.747500
6.734400 4.869900
6.749300 5.101000
6.764200 5.140200
6.779000 5.959100
6.793900 6.231100
6.808800 6.306300
6.823700 5.910000
6.838500 5.861100
6.853400 6.035200
6.868300 6.127700
6.883100 5.956300
6.898000 5.894900
6.912900 5.760000
6.927800 5.728200
6.942600 5.818300
6.957500 5.846700
6.972400 5.989600
6.987200 6.334600
7.002100 6.802800
7.017000 7.127900
7.031800 7.112300
7.046700 7.055600
7.061600 6.787500
7.076500 6.408300
7.091300 6.213800
7.106200 6.583300
7.121100 5.668100
7.135900 5.421000
7.150800 5.202600
7.165700 5.068700
7.180600 4.978800
7.195400 5.122900
7.210300 5.004600
7.225200 4.806000
7.240000 4.764300
7.254900 4.721100
7.269800 4.756600
7.284600 4.660600
7.299500 4.559700
7.314400 4.981000
7.329300 5.229900
7.344100 4.964300
7.359000 4.803100
7.373900 4.693100
7.388700 4.665700
7.403600 4.834000
7.418500 4.922800
7.433400 5.015100
7.448200 5.058800
7.463100 5.334200
7.478000 5.542400
7.492800 5.871800
7.507700 6.281600
7.522600 6.608900
7.537500 6.942700
7.552300 7.049100
7.567200 7.176100
7.582100 6.976700
7.596900 7.005400
7.611800 7.040000
7.626700 6.342700
7.641500 5.256300
7.656400 4.320800
7.671300 4.075000
7.686200 3.998300
7.701000 3.926300
7.715900 3.960300
7.730800 4.047200
7.745600 4.120300
7.760500 4.207200
7.775400 4.557800
7.790300 4.739800
7.805100 5.012100
7.820000 5.231700
7.834900 5.410300
7.849700 5.980900
7.864600 5.453200
7.879500 5.305100
7.894300 5.199700
7.909200 5.081400
7.924100 4.963500
7.939000 4.831500
7.953800 4.694400
7.968700 4.595100
7.983600 4.559900
7.998400 4.673900
8.013300 4.566600
8.028200 4.501000
8.043100 4.407700
8.057900 4.303700
8.072800 4.201200
8.087700 4.103800
8.102500 3.988000
8.117400 3.822400
8.132300 3.622300
8.147200 3.395100
8.162000 3.184500
8.176900 3.075600
8.191800 3.012800
8.206600 2.943700
8.221500 2.877100
8.236400 2.817300
8.251200 2.782400
8.266100 2.770600
8.281000 2.775800
8.295900 2.780400
8.310700 2.815400
8.325600 2.871400
8.340500 2.831800
8.355300 2.792900
8.370200 2.759400
8.385100 2.741800
8.400000 2.724300
8.414800 2.706200
8.429700 2.688100
8.444600 2.673000
8.459400 2.643300
8.474300 2.639100
8.489200 2.661000
8.504000 2.710800
8.518900 2.761100
8.533800 2.822200
8.548700 2.851900
8.563500 2.875700
8.578400 2.921600
8.593300 3.015200
8.608100 3.118200
8.623000 3.246200
8.637900 3.397400
8.652800 3.614000
8.667600 3.729200
8.682500 4.052900
8.697400 4.339100
8.712200 4.602500
8.727100 4.789100
8.742000 4.837200
8.756800 4.846900
8.771700 4.841200
8.786600 4.665300
8.801500 4.506900
8.816300 4.175000
8.831200 3.974500
8.846100 3.863400
8.860900 3.757800
8.875800 3.707500
8.890700 3.541800
8.905600 3.409600
8.920400 3.351300
8.935300 3.312300
8.950200 3.276800
8.965000 3.244100
8.979900 3.281500
8.994800 3.316100
9.009700 3.122500
9.024500 2.771000
9.039400 2.540900
9.054300 2.407300
9.069100 2.338700
9.084000 2.360300
9.098900 2.485600
9.113700 2.508600
9.128600 2.569800
9.143500 2.726800
9.158400 2.782900
9.173200 2.795500
9.188100 2.395000
9.203000 1.656800
9.217800 1.229400
9.232700 1.134500
9.247600 1.189700
9.262500 1.119900
9.277300 1.098200
9.292200 1.118900
9.307100 1.117600
9.321900 0.992300
9.336800 0.982000
9.351700 0.901600
9.366500 0.820900
9.381400 0.742700
9.396300 0.912600
9.411200 0.531100
9.426000 0.416900
9.440900 0.326900
9.455800 0.280900
9.470600 0.274500
9.485500 0.275800
9.500400 0.278900
9.515300 0.308200
9.530100 0.306100
9.545000 0.306800
9.559900 0.309400
9.574700 0.320600
9.589600 0.330100
9.604500 0.337900
9.619400 0.367700
9.634200 0.355100
9.649100 0.353400
9.664000 0.356200
9.678800 0.363100
9.693700 0.372300
9.708600 0.382100
9.723400 0.392600
9.738300 0.404200
9.753200 0.418000
9.768100 0.432500
9.782900 0.443500
9.797800 0.460800
9.812700 0.478800
9.827500 0.497800
9.842400 0.520700
9.857300 0.548300
9.872200 0.579300
9.887000 0.613900
9.901900 0.651900
9.916800 0.693400
9.931600 0.734100
9.946500 0.775700
9.961400 0.819800
9.976200 0.868000
9.991100 0.899200
10.006000 0.945900
10.020900 1.002500
10.035700 1.054300
10.050600 1.179200
10.065500 1.159000
10.080300 1.121600
10.095200 1.137800
10.110100 1.164400
10.125000 1.205500
10.139800 1.224300
10.154700 1.221100
10.169600 1.188600
10.184400 1.201000
10.199300 1.209400
10.214200 1.214000
10.229000 1.217800
10.243900 1.225600
10.258800 1.236200
10.273700 1.255200
10.288500 1.278100
10.303400 1.302800
10.318300 1.329700
10.333100 1.357600
10.348000 1.378900
10.362900 1.399800
10.377800 1.424500
10.392600 1.463000
10.407500 1.503000
10.422400 1.534600
10.437200 1.538500
10.452100 1.523100
10.467000 1.507200
10.481900 1.512400
10.496700 1.529300
10.511600 1.546900
10.526500 1.559700
10.541300 1.564200
10.556200 1.574600
10.571100 1.589300
10.585900 1.606400
10.600800 1.625900
10.615700 1.647800
10.630600 1.669400
10.645400 1.691300
10.660300 1.713600
10.675200 1.736400
10.690000 1.758200
10.704900 1.780200
10.719800 1.803100
10.734700 1.830300
10.749500 1.858300
10.764400 1.890000
10.779300 1.923600
10.794100 1.958600
10.809000 1.994500
10.823900 2.039900
10.838700 2.091400
10.853600 2.141500
10.868500 2.189400
10.883400 2.235300
10.898200 2.278300
10.913100 2.329600
10.928000 2.401000
10.942800 2.553300
10.957700 2.731400
10.972600 2.686200
10.987500 2.614200
11.002300 2.581100
11.017200 2.516600
11.032100 2.470100
11.046900 2.442300
11.061800 2.431300
11.076700 2.431700
11.091600 2.450600
11.106400 2.524400
11.121300 2.670600
11.136200 2.832200
11.151000 3.083600
11.165900 2.896600
11.180800 2.826300
11.195600 2.749000
11.210500 2.742000
11.225400 2.885400
11.240300 2.662300
11.255100 2.459800
11.270000 2.296500
11.284900 2.174900
11.299700 2.131400
11.314600 2.228000
11.329500 2.364300
11.344400 2.689300
11.359200 3.184400
11.374100 3.575400
11.389000 3.895900
11.403800 3.949400
11.418700 4.031200
11.433600 4.170800
11.448400 4.295800
11.463300 4.468600
11.478200 4.701000
11.493100 4.971600
11.507900 5.157800
11.522800 5.162700
11.537700 5.095600
11.552500 4.914700
11.567400 4.890100
11.582300 4.504900
11.597200 4.103200
11.612000 3.972800
11.626900 3.966400
11.641800 4.045100
11.656600 4.157700
11.671500 4.221800
11.686400 4.342800
11.701300 4.763800
11.716100 5.071900
11.731000 4.765100
11.745900 4.514500
11.760700 4.416500
11.775600 4.564200
11.790500 4.553600
11.805300 4.492900
11.820200 4.456700
11.835100 4.437700
11.850000 4.385700
11.864800 4.372600
11.879700 4.366200
11.894600 4.247400
11.909400 3.976500
11.924300 3.655100
11.939200 3.419100
11.954100 3.259100
11.968900 3.179000
11.983800 3.295300
11.998700 3.343500
12.013500 3.364600
12.028400 3.412200
12.043300 3.519800
12.058100 3.439000
12.073000 3.332300
12.087900 3.261300
12.102800 3.223800
12.117600 3.236100
12.132500 3.396700
12.147400 3.629800
12.162200 3.733400
12.177100 3.776500
12.192000 3.853600
12.206900 3.969700
12.221700 4.118800
12.236600 4.262700
12.251500 4.291100
12.266300 4.301500
12.281200 4.361900
12.296100 4.407800
12.310900 4.468700
12.325800 4.504800
12.340700 4.505000
12.355600 4.510200
12.370400 4.513800
12.385300 4.540000
12.400200 4.587200
12.415000 4.618600
12.429900 4.789300
12.444800 5.096400
12.459700 5.334700
12.474500 5.483400
12.489400 5.892900
12.504300 6.539900
12.519100 7.368100
12.534000 8.361300
12.548900 8.003200
12.563800 8.150600
12.578600 7.930300
12.593500 6.888900
12.608400 6.370800
12.623200 5.007400
12.638100 4.255200
12.653000 4.021700
12.667800 3.868600
12.682700 3.734800
12.697600 3.807400
12.712500 3.954700
12.727300 4.271100
12.742200 4.508900
12.757100 4.504000
12.771900 4.512600
12.786800 4.615800
12.801700 4.788300
12.816600 4.862100
12.831400 4.740300
12.846300 4.627900
12.861200 4.469000
12.876000 4.285100
12.890900 4.092300
12.905800 3.930100
12.920600 3.767700
12.935500 3.835200
12.950400 3.810900
12.965300 3.800800
12.980100 3.802300
12.995000 3.587700
13.009900 3.490000
13.024700 3.445500
13.039600 3.425400
13.054500 3.518400
13.069400 3.717800
13.084200 3.866500
13.099100 3.973800
13.114000 3.844600
13.128800 3.543500
13.143700 3.361400
13.158600 3.281200
13.173500 3.241100
13.188300 3.213400
13.203200 3.133000
13.218100 3.020600
13.232900 2.888000
13.247800 2.731800
13.262700 2.498100
13.277500 2.409500
13.292400 2.345000
13.307300 2.282000
13.322200 2.151200
13.337000 2.033200
13.351900 1.913100
13.366800 1.801900
13.381600 1.699600
13.396500 1.640800
13.411400 1.596900
13.426300 1.553900
13.441100 1.492700
13.456000 1.474600
13.470900 1.618500
13.485700 1.438400
13.500600 1.394000
13.515500 1.293500
13.530300 1.167000
13.545200 1.096900
13.560100 1.052100
13.575000 1.015800
13.589800 0.978600
13.604700 0.946000
13.619600 0.916900
13.634400 0.889900
13.649300 0.867800
13.664200 0.846300
13.679100 0.825600
13.693900 0.808100
13.708800 0.793800
13.723700 0.783700
13.738500 0.783700
13.753400 0.794800
13.768300 0.815000
13.783100 0.843400
13.798000 0.880600
13.812900 0.899500
13.827800 0.917700
13.842600 0.822200
13.857500 0.806600
13.872400 0.822000
13.887200 0.850300
13.902100 0.897300
13.917000 0.962000
13.931900 0.899900
13.946700 0.865900
13.961600 0.830200
13.976500 0.792000
13.991300 0.748000
14.006200 0.697500
14.021100 0.639600
14.036000 0.574200
14.050800 0.506400
14.065700 0.436200
14.080600 0.393800
14.095400 0.359200
14.110300 0.324200
14.125200 0.291200
14.140000 0.264500
14.154900 0.242900
14.169800 0.215800
14.184700 0.191800
14.199500 0.175000
14.214400 0.165600
14.229300 0.160500
14.244100 0.156200
14.259000 0.152500
14.273900 0.149500
14.288800 0.141300
14.303600 0.120500
14.318500 0.087300
14.333400 0.068400
14.348200 0.052600
14.363100 0.038800
14.378000 0.027100
14.392800 0.017500
14.407700 0.010000
14.422600 0.004600
14.437500 0.001200
14.452300 0.000000
14.467200 0.000000
14.482100 0.000000
14.496900 0.000000
14.511800 0.000000
14.526700 0.000000
14.541600 0.000000
14.556400 0.000000
14.571300 0.000000
14.586200 0.000000
14.601000 0.000000
14.615900 0.000000
14.630800 0.000000
14.645700 0.000000
14.660500 0.000000
14.675400 0.000000
14.690300 0.000000
14.705100 0.000000
14.720000 0.000000
14.734900 0.000000
14.749700 0.000000
14.764600 0.000000
14.779500 0.000000
14.794400 0.000000
14.809200 0.000000
14.824100 0.000000
14.839000 0.000000
14.853800 0.000000
14.868700 0.000000
14.883600 0.000000
14.898500 0.000000
14.913300 0.000000
14.928200 0.000000
14.943100 0.000000
14.957900 0.000000
14.972800 0.000000
14.987700 0.000000
15.002500 0.000000
15.017400 0.000000
15.032300 0.000000
15.047200 0.000000
15.062000 0.000000
15.076900 0.000000
15.091800 0.000000
15.106600 0.000000
15.121500 0.000000
15.136400 0.000000
15.151300 0.000000
15.166100 0.000000
15.181000 0.000000
15.195900 0.000000
15.210700 0.000000
15.225600 0.000000
15.240500 0.000000
15.255300 0.000000
15.270200 0.000000
15.285100 0.000000
15.300000 0.000000
15.314800 0.000000
15.329700 0.000000
15.344600 0.000000
15.359400 0.000000
15.374300 0.000000
15.389200 0.000000
15.404100 0.000000
15.418900 0.000000
15.433800 0.000000
15.448700 0.000000
15.463500 0.000000
15.478400 0.000000
15.493300 0.000000
15.508200 0.000000
15.523000 0.000000
15.537900 0.000000
15.552800 0.000000
15.567600 0.000000
15.582500 0.000000
15.597400 0.000000
15.612200 0.000000
15.627100 0.000000
15.642000 0.000000
15.656900 0.000000
15.671700 0.000000
15.686600 0.000000
15.701500 0.000000
15.716300 0.000000
15.731200 0.000000
15.746100 0.000000
15.761000 0.000000
15.775800 0.000000
15.790700 0.000000
15.805600 0.000000
e
