set title 'mp-1091415 - Density of States'
set xlabel 'Energy (eV)'
set ylabel 'DOS (states/eV)'
set grid
set xrange [-10:10]
set yrange [0:9.784]
set xzeroaxis lt -1
set terminal png size 800,600
set output 'mp-1091415_dos_gnuplot.png'
plot '-' using 1:2 with lines title 'DOS'
-24.170600 0.000000
-24.149800 0.000000
-24.129000 0.000000
-24.108200 0.000000
-24.087300 0.000000
-24.066500 0.000000
-24.045700 0.000000
-24.024800 0.000000
-24.004000 0.000000
-23.983200 0.000000
-23.962300 0.000000
-23.941500 0.000000
-23.920700 0.000000
-23.899900 0.000000
-23.879000 0.000000
-23.858200 0.000000
-23.837400 0.000000
-23.816500 0.000000
-23.795700 0.000000
-23.774900 0.000000
-23.754000 0.000000
-23.733200 0.000000
-23.712400 0.000000
-23.691600 0.000000
-23.670700 0.000000
-23.649900 0.000000
-23.629100 0.000000
-23.608200 0.000000
-23.587400 0.000000
-23.566600 0.000000
-23.545800 0.000000
-23.524900 0.000000
-23.504100 0.000000
-23.483300 0.000000
-23.462400 0.000000
-23.441600 0.000000
-23.420800 0.000000
-23.399900 0.000000
-23.379100 0.000000
-23.358300 0.000000
-23.337500 0.000000
-23.316600 0.000000
-23.295800 0.000000
-23.275000 0.000000
-23.254100 0.000000
-23.233300 0.000000
-23.212500 0.000000
-23.191600 0.000000
-23.170800 0.000000
-23.150000 0.000000
-23.129200 0.000000
-23.108300 0.000000
-23.087500 0.000000
-23.066700 0.000000
-23.045800 0.000000
-23.025000 0.000000
-23.004200 0.000000
-22.983300 0.000000
-22.962500 0.000000
-22.941700 0.000000
-22.920900 0.000000
-22.900000 0.000000
-22.879200 0.000000
-22.858400 0.000000
-22.837500 0.000000
-22.816700 0.000000
-22.795900 0.000000
-22.775100 0.000000
-22.754200 0.000000
-22.733400 0.000000
-22.712600 0.000000
-22.691700 0.000000
-22.670900 0.000000
-22.650100 0.000000
-22.629200 0.000000
-22.608400 0.000000
-22.587600 0.000000
-22.566800 0.000000
-22.545900 0.000000
-22.525100 0.000000
-22.504300 0.000000
-22.483400 0.000000
-22.462600 0.000000
-22.441800 0.000000
-22.420900 0.000000
-22.400100 0.000000
-22.379300 0.000000
-22.358500 0.000000
-22.337600 0.000000
-22.316800 0.000000
-22.296000 0.000000
-22.275100 427.912300
-22.254300 515.136800
-22.233500 44.110700
-22.212600 132.319200
-22.191800 190.450600
-22.171000 148.147600
-22.150200 282.351900
-22.129300 205.020300
-22.108500 24.224400
-22.087700 204.928100
-22.066800 341.444900
-22.046000 343.343400
-22.025200 198.283200
-22.004400 91.117900
-21.983500 268.806300
-21.962700 410.354100
-21.941900 0.000000
-21.921000 0.000000
-21.900200 0.000000
-21.879400 0.000000
-21.858500 0.000000
-21.837700 0.000000
-21.816900 0.000000
-21.796100 0.000000
-21.775200 0.000000
-21.754400 0.000000
-21.733600 0.000000
-21.712700 0.000000
-21.691900 0.000000
-21.671100 0.000000
-21.650200 0.000000
-21.629400 0.000000
-21.608600 0.000000
-21.587800 0.000000
-21.566900 0.000000
-21.546100 0.000000
-21.525300 0.000000
-21.504400 0.000000
-21.483600 0.000000
-21.462800 0.000000
-21.441900 0.000000
-21.421100 0.000000
-21.400300 0.000000
-21.379500 0.000000
-21.358600 0.000000
-21.337800 0.000000
-21.317000 0.000000
-21.296100 0.000000
-21.275300 0.000000
-21.254500 0.000000
-21.233700 0.000000
-21.212800 0.000000
-21.192000 0.000000
-21.171200 0.000000
-21.150300 0.000000
-21.129500 0.000000
-21.108700 0.000000
-21.087800 0.000000
-21.067000 0.000000
-21.046200 0.000000
-21.025400 0.000000
-21.004500 0.000000
-20.983700 0.000000
-20.962900 0.000000
-20.942000 0.000000
-20.921200 0.000000
-20.900400 0.000000
-20.879500 0.000000
-20.858700 0.000000
-20.837900 0.000000
-20.817100 0.000000
-20.796200 0.000000
-20.775400 0.000000
-20.754600 0.000000
-20.733700 0.000000
-20.712900 0.000000
-20.692100 0.000000
-20.671300 0.000000
-20.650400 0.000000
-20.629600 0.000000
-20.608800 0.000000
-20.587900 0.000000
-20.567100 0.000000
-20.546300 0.000000
-20.525400 0.000000
-20.504600 0.000000
-20.483800 0.000000
-20.463000 0.000000
-20.442100 0.000000
-20.421300 0.000000
-20.400500 0.000000
-20.379600 0.000000
-20.358800 0.000000
-20.338000 0.000000
-20.317100 0.000000
-20.296300 0.000000
-20.275500 0.000000
-20.254700 0.000000
-20.233800 0.000000
-20.213000 0.000000
-20.192200 0.000000
-20.171300 0.000000
-20.150500 0.000000
-20.129700 0.000000
-20.108800 0.000000
-20.088000 0.000000
-20.067200 0.000000
-20.046400 0.000000
-20.025500 0.000000
-20.004700 0.000000
-19.983900 0.000000
-19.963000 0.000000
-19.942200 0.000000
-19.921400 0.000000
-19.900600 0.000000
-19.879700 0.000000
-19.858900 0.000000
-19.838100 0.000000
-19.817200 0.000000
-19.796400 0.000000
-19.775600 0.000000
-19.754700 0.000000
-19.733900 0.000000
-19.713100 0.000000
-19.692300 0.000000
-19.671400 0.000000
-19.650600 0.000000
-19.629800 0.000000
-19.608900 0.000000
-19.588100 0.000000
-19.567300 0.000000
-19.546400 0.000000
-19.525600 0.000000
-19.504800 0.000000
-19.484000 0.000000
-19.463100 0.000000
-19.442300 0.000000
-19.421500 0.000000
-19.400600 0.000000
-19.379800 0.000000
-19.359000 0.000000
-19.338100 0.000000
-19.317300 0.000000
-19.296500 0.000000
-19.275700 0.000000
-19.254800 0.000000
-19.234000 0.000000
-19.213200 0.000000
-19.192300 0.000000
-19.171500 0.000000
-19.150700 0.000000
-19.129900 0.000000
-19.109000 0.000000
-19.088200 0.000000
-19.067400 0.000000
-19.046500 0.000000
-19.025700 0.000000
-19.004900 0.000000
-18.984000 0.000000
-18.963200 0.000000
-18.942400 0.000000
-18.921600 0.000000
-18.900700 0.000000
-18.879900 0.000000
-18.859100 0.000000
-18.838200 0.000000
-18.817400 0.000000
-18.796600 0.000000
-18.775700 0.000000
-18.754900 0.000000
-18.734100 0.000000
-18.713300 0.000000
-18.692400 0.000000
-18.671600 0.000000
-18.650800 0.000000
-18.629900 0.000000
-18.609100 0.000000
-18.588300 0.000000
-18.567400 0.000000
-18.546600 0.000000
-18.525800 0.000000
-18.505000 0.000000
-18.484100 0.000000
-18.463300 0.000000
-18.442500 0.000000
-18.421600 0.000000
-18.400800 0.000000
-18.380000 0.000000
-18.359200 0.000000
-18.338300 0.000000
-18.317500 0.000000
-18.296700 0.000000
-18.275800 0.000000
-18.255000 0.000000
-18.234200 0.000000
-18.213300 0.000000
-18.192500 0.000000
-18.171700 0.000000
-18.150900 0.000000
-18.130000 0.000000
-18.109200 0.000000
-18.088400 0.000000
-18.067500 0.000000
-18.046700 0.000000
-18.025900 0.000000
-18.005000 0.000000
-17.984200 0.000000
-17.963400 0.000000
-17.942600 0.000000
-17.921700 0.000000
-17.900900 0.000000
-17.880100 0.000000
-17.859200 0.000000
-17.838400 0.000000
-17.817600 0.000000
-17.796800 0.000000
-17.775900 0.000000
-17.755100 0.000000
-17.734300 0.000000
-17.713400 0.000000
-17.692600 0.000000
-17.671800 0.000000
-17.650900 0.000000
-17.630100 0.000000
-17.609300 0.000000
-17.588500 0.000000
-17.567600 0.000000
-17.546800 0.000000
-17.526000 0.000000
-17.505100 0.000000
-17.484300 0.000000
-17.463500 0.000000
-17.442600 0.000000
-17.421800 0.000000
-17.401000 0.000000
-17.380200 0.000000
-17.359300 0.000000
-17.338500 0.000000
-17.317700 0.000000
-17.296800 0.000000
-17.276000 0.000000
-17.255200 0.000000
-17.234300 0.000000
-17.213500 0.000000
-17.192700 0.000000
-17.171900 0.000000
-17.151000 0.000000
-17.130200 0.000000
-17.109400 0.000000
-17.088500 0.000000
-17.067700 0.000000
-17.046900 0.000000
-17.026100 0.000000
-17.005200 0.000000
-16.984400 0.000000
-16.963600 0.000000
-16.942700 0.000000
-16.921900 0.000000
-16.901100 0.000000
-16.880200 0.000000
-16.859400 0.000000
-16.838600 0.000000
-16.817800 0.000000
-16.796900 0.000000
-16.776100 0.000000
-16.755300 0.000000
-16.734400 0.000000
-16.713600 0.000000
-16.692800 0.000000
-16.671900 0.000000
-16.651100 0.000000
-16.630300 0.000000
-16.609500 0.000000
-16.588600 0.000000
-16.567800 0.000000
-16.547000 0.000000
-16.526100 0.000000
-16.505300 0.000000
-16.484500 0.000000
-16.463600 0.000000
-16.442800 0.000000
-16.422000 0.000000
-16.401200 0.000000
-16.380300 0.000000
-16.359500 0.000000
-16.338700 0.000000
-16.317800 0.000000
-16.297000 0.000000
-16.276200 0.000000
-16.255400 0.000000
-16.234500 0.000000
-16.213700 0.000000
-16.192900 0.000000
-16.172000 0.000000
-16.151200 0.000000
-16.130400 0.000000
-16.109500 0.000000
-16.088700 0.000000
-16.067900 0.000000
-16.047100 0.000000
-16.026200 0.000000
-16.005400 0.000000
-15.984600 0.000000
-15.963700 0.000000
-15.942900 0.000000
-15.922100 0.000000
-15.901200 0.000000
-15.880400 0.000000
-15.859600 0.000000
-15.838800 0.000000
-15.817900 0.000000
-15.797100 0.000000
-15.776300 0.000000
-15.755400 0.000000
-15.734600 0.000000
-15.713800 0.000000
-15.692900 0.000000
-15.672100 0.000000
-15.651300 0.000000
-15.630500 0.000000
-15.609600 0.000000
-15.588800 0.000000
-15.568000 0.000000
-15.547100 0.000000
-15.526300 0.000000
-15.505500 0.000000
-15.484700 0.000000
-15.463800 0.000000
-15.443000 0.000000
-15.422200 0.000000
-15.401300 0.000000
-15.380500 0.000000
-15.359700 0.000000
-15.338800 0.000000
-15.318000 0.000000
-15.297200 0.000000
-15.276400 0.000000
-15.255500 0.000000
-15.234700 0.000000
-15.213900 0.000000
-15.193000 0.000000
-15.172200 0.000000
-15.151400 0.000000
-15.130500 0.000000
-15.109700 0.000000
-15.088900 0.000000
-15.068100 0.000000
-15.047200 0.000000
-15.026400 0.000000
-15.005600 0.000000
-14.984700 0.000000
-14.963900 0.000000
-14.943100 0.000000
-14.922300 0.000000
-14.901400 0.000000
-14.880600 0.000000
-14.859800 0.000000
-14.838900 0.000000
-14.818100 0.000000
-14.797300 0.000000
-14.776400 0.000000
-14.755600 0.000000
-14.734800 0.000000
-14.714000 0.000000
-14.693100 0.000000
-14.672300 0.000000
-14.651500 0.000000
-14.630600 0.000000
-14.609800 0.000000
-14.589000 0.000000
-14.568100 0.000000
-14.547300 0.000000
-14.526500 0.000000
-14.505700 0.000000
-14.484800 0.000000
-14.464000 0.000000
-14.443200 0.000000
-14.422300 0.000000
-14.401500 0.000000
-14.380700 0.000000
-14.359800 0.000000
-14.339000 0.000000
-14.318200 0.000000
-14.297400 0.000000
-14.276500 0.000000
-14.255700 0.000000
-14.234900 0.000000
-14.214000 0.000000
-14.193200 0.000000
-14.172400 0.000000
-14.151600 0.000000
-14.130700 0.000000
-14.109900 0.000000
-14.089100 0.000000
-14.068200 0.000000
-14.047400 0.000000
-14.026600 0.000000
-14.005700 0.000000
-13.984900 0.000000
-13.964100 0.000000
-13.943300 0.000000
-13.922400 0.000000
-13.901600 0.000000
-13.880800 0.000000
-13.859900 0.000000
-13.839100 0.000000
-13.818300 0.000000
-13.797400 0.000000
-13.776600 0.000000
-13.755800 0.000000
-13.735000 0.000000
-13.714100 0.000000
-13.693300 0.000000
-13.672500 0.000000
-13.651600 0.000000
-13.630800 0.000000
-13.610000 0.000000
-13.589100 0.000000
-13.568300 0.000000
-13.547500 0.000000
-13.526700 0.000000
-13.505800 0.000000
-13.485000 0.000000
-13.464200 0.000000
-13.443300 0.000000
-13.422500 0.000000
-13.401700 0.000000
-13.380900 0.000000
-13.360000 0.000000
-13.339200 0.000000
-13.318400 0.000000
-13.297500 0.000000
-13.276700 0.000000
-13.255900 0.000000
-13.235000 0.000000
-13.214200 0.000000
-13.193400 0.000000
-13.172600 0.000000
-13.151700 0.000000
-13.130900 0.000000
-13.110100 0.000000
-13.089200 0.000000
-13.068400 0.000000
-13.047600 0.000000
-13.026700 0.000000
-13.005900 0.000000
-12.985100 0.000000
-12.964300 0.000000
-12.943400 0.000000
-12.922600 0.000000
-12.901800 0.000000
-12.880900 0.000000
-12.860100 0.000000
-12.839300 0.000000
-12.818400 0.000000
-12.797600 0.000000
-12.776800 0.000000
-12.756000 0.000000
-12.735100 0.000000
-12.714300 0.000000
-12.693500 0.000000
-12.672600 0.000000
-12.651800 0.000000
-12.631000 0.000000
-12.610200 0.000000
-12.589300 0.000000
-12.568500 0.000000
-12.547700 0.000000
-12.526800 0.000000
-12.506000 0.000000
-12.485200 0.000000
-12.464300 0.000000
-12.443500 0.000000
-12.422700 0.000000
-12.401900 0.000000
-12.381000 0.000000
-12.360200 0.000000
-12.339400 0.000000
-12.318500 0.000000
-12.297700 0.000000
-12.276900 0.000000
-12.256000 0.000000
-12.235200 0.000000
-12.214400 0.000000
-12.193600 0.000000
-12.172700 0.000000
-12.151900 0.000000
-12.131100 0.000000
-12.110200 0.000000
-12.089400 0.000000
-12.068600 0.000000
-12.047800 0.000000
-12.026900 0.000000
-12.006100 0.000000
-11.985300 0.000000
-11.964400 0.000000
-11.943600 0.000000
-11.922800 0.000000
-11.901900 0.000000
-11.881100 0.000000
-11.860300 0.000000
-11.839500 0.000000
-11.818600 0.000000
-11.797800 0.000000
-11.777000 0.000000
-11.756100 0.000000
-11.735300 0.000000
-11.714500 0.000000
-11.693600 0.000000
-11.672800 0.000000
-11.652000 0.000000
-11.631200 0.000000
-11.610300 0.000000
-11.589500 0.000000
-11.568700 0.000000
-11.547800 0.000000
-11.527000 0.000000
-11.506200 0.000000
-11.485300 0.000000
-11.464500 0.000000
-11.443700 0.000000
-11.422900 0.000000
-11.402000 0.000000
-11.381200 0.000000
-11.360400 0.000000
-11.339500 0.000000
-11.318700 0.000000
-11.297900 0.000000
-11.277100 0.000000
-11.256200 0.000000
-11.235400 0.000000
-11.214600 0.000000
-11.193700 0.000000
-11.172900 0.000000
-11.152100 0.000000
-11.131200 0.000000
-11.110400 0.000000
-11.089600 0.000000
-11.068800 0.000000
-11.047900 0.000000
-11.027100 0.000000
-11.006300 0.000000
-10.985400 0.000000
-10.964600 0.000000
-10.943800 0.000000
-10.922900 0.000000
-10.902100 0.000000
-10.881300 0.000000
-10.860500 0.000000
-10.839600 0.000000
-10.818800 0.000000
-10.798000 0.000000
-10.777100 0.000000
-10.756300 0.000000
-10.735500 0.000000
-10.714600 0.000000
-10.693800 0.000000
-10.673000 0.000000
-10.652200 0.000000
-10.631300 0.000000
-10.610500 0.000000
-10.589700 0.000000
-10.568800 0.000000
-10.548000 0.000000
-10.527200 0.000000
-10.506400 0.000000
-10.485500 0.000000
-10.464700 0.000000
-10.443900 0.000000
-10.423000 0.000000
-10.402200 0.000000
-10.381400 0.000000
-10.360500 0.000000
-10.339700 0.000000
-10.318900 0.000000
-10.298100 0.000000
-10.277200 0.000000
-10.256400 0.000000
-10.235600 0.000000
-10.214700 0.000000
-10.193900 0.000000
-10.173100 0.000000
-10.152200 0.000000
-10.131400 0.000000
-10.110600 0.000000
-10.089800 0.000000
-10.068900 0.000000
-10.048100 0.000000
-10.027300 0.000000
-10.006400 0.000000
-9.985600 0.000000
-9.964800 0.000000
-9.943900 0.000000
-9.923100 0.000000
-9.902300 0.000000
-9.881500 0.000000
-9.860600 0.000000
-9.839800 0.000000
-9.819000 0.000000
-9.798100 0.009100
-9.777300 0.127700
-9.756500 0.312200
-9.735700 0.396700
-9.714800 0.423200
-9.694000 0.496200
-9.673200 0.568400
-9.652300 0.620900
-9.631500 0.657600
-9.610700 0.701300
-9.589800 0.741100
-9.569000 0.779400
-9.548200 0.823100
-9.527400 0.866400
-9.506500 0.894600
-9.485700 0.919100
-9.464900 0.949800
-9.444000 0.982800
-9.423200 1.017200
-9.402400 1.053700
-9.381500 1.089800
-9.360700 1.119900
-9.339900 1.150700
-9.319100 1.182700
-9.298200 1.208500
-9.277400 1.229700
-9.256600 1.254100
-9.235700 1.282000
-9.214900 1.310300
-9.194100 1.338300
-9.173300 1.366100
-9.152400 1.394300
-9.131600 1.423600
-9.110800 1.454600
-9.089900 1.482300
-9.069100 1.490300
-9.048300 1.504500
-9.027400 1.532800
-9.006600 1.552900
-8.985800 1.573200
-8.965000 1.595500
-8.944100 1.622200
-8.923300 1.648500
-8.902500 1.673200
-8.881600 1.698200
-8.860800 1.723800
-8.840000 1.749600
-8.819100 1.776900
-8.798300 1.806500
-8.777500 1.835300
-8.756700 1.863900
-8.735800 1.890100
-8.715000 1.914500
-8.694200 1.939000
-8.673300 1.962400
-8.652500 1.986900
-8.631700 2.011600
-8.610800 2.037400
-8.590000 2.064400
-8.569200 2.091700
-8.548400 2.119500
-8.527500 2.147800
-8.506700 2.176300
-8.485900 2.205100
-8.465000 2.234100
-8.444200 2.263600
-8.423400 2.293800
-8.402600 2.323800
-8.381700 2.353100
-8.360900 2.383700
-8.340100 2.415600
-8.319200 2.448800
-8.298400 2.483200
-8.277600 2.519900
-8.256700 2.558100
-8.235900 2.596900
-8.215100 2.638400
-8.194300 2.682500
-8.173400 2.728100
-8.152600 2.774700
-8.131800 2.822400
-8.110900 2.871400
-8.090100 2.922400
-8.069300 2.980000
-8.048400 3.044000
-8.027600 3.111400
-8.006800 3.184700
-7.986000 3.265400
-7.965100 3.361900
-7.944300 3.482800
-7.923500 3.921500
-7.902600 4.066300
-7.881800 3.837500
-7.861000 3.870800
-7.840100 3.898900
-7.819300 3.915900
-7.798500 3.916200
-7.777700 3.862600
-7.756800 3.853600
-7.736000 3.848300
-7.715200 3.862600
-7.694300 3.863800
-7.673500 3.781800
-7.652700 3.745500
-7.631900 3.735300
-7.611000 3.699200
-7.590200 3.665100
-7.569400 3.623000
-7.548500 3.586600
-7.527700 3.543600
-7.506900 3.491300
-7.486000 3.433100
-7.465200 3.370800
-7.444400 3.303700
-7.423600 3.187100
-7.402700 3.137100
-7.381900 3.111700
-7.361100 3.131800
-7.340200 3.179800
-7.319400 3.187500
-7.298600 3.189300
-7.277700 3.265000
-7.256900 3.042400
-7.236100 2.983500
-7.215300 2.938700
-7.194400 2.894200
-7.173600 2.836900
-7.152800 2.797100
-7.131900 2.778500
-7.111100 2.742100
-7.090300 2.702100
-7.069400 2.659000
-7.048600 2.609500
-7.027800 2.561100
-7.007000 2.525400
-6.986100 2.498800
-6.965300 2.619700
-6.944500 2.616500
-6.923600 2.630800
-6.902800 2.603900
-6.882000 2.583200
-6.861200 2.526500
-6.840300 2.658100
-6.819500 2.701100
-6.798700 2.590500
-6.777800 2.517600
-6.757000 2.469600
-6.736200 2.440800
-6.715300 2.366000
-6.694500 2.265100
-6.673700 2.211700
-6.652900 2.172800
-6.632000 2.137700
-6.611200 2.098000
-6.590400 2.053800
-6.569500 2.007700
-6.548700 1.957600
-6.527900 1.908100
-6.507000 1.928100
-6.486200 1.970400
-6.465400 1.985700
-6.444600 1.912200
-6.423700 1.775100
-6.402900 1.593500
-6.382100 1.482400
-6.361200 1.382600
-6.340400 1.290900
-6.319600 1.205000
-6.298800 1.112800
-6.277900 1.010300
-6.257100 0.895100
-6.236300 0.762000
-6.215400 0.562400
-6.194600 0.355100
-6.173800 0.211300
-6.152900 0.122000
-6.132100 0.056800
-6.111300 0.015200
-6.090500 0.000200
-6.069600 0.004500
-6.048800 0.019400
-6.028000 0.044800
-6.007100 0.080600
-5.986300 0.126900
-5.965500 0.240800
-5.944600 0.420800
-5.923800 0.555900
-5.903000 0.678700
-5.882200 0.793300
-5.861300 0.899600
-5.840500 0.997700
-5.819700 1.091900
-5.798800 1.184500
-5.778000 1.276500
-5.757200 1.369100
-5.736300 1.462100
-5.715500 1.537800
-5.694700 1.638700
-5.673900 1.725200
-5.653000 1.784600
-5.632200 1.843400
-5.611400 1.902200
-5.590500 1.971500
-5.569700 2.027000
-5.548900 2.073000
-5.528100 2.127300
-5.507200 2.191000
-5.486400 2.255000
-5.465600 2.319600
-5.444700 2.384700
-5.423900 2.451800
-5.403100 2.619800
-5.382200 2.792800
-5.361400 2.873800
-5.340600 2.945200
-5.319800 3.025100
-5.298900 3.325700
-5.278100 3.137400
-5.257300 3.887700
-5.236400 3.630700
-5.215600 3.357500
-5.194800 3.000000
-5.173900 3.192100
-5.153100 3.043800
-5.132300 2.865000
-5.111500 2.722800
-5.090600 2.487100
-5.069800 2.417800
-5.049000 2.350100
-5.028100 2.322900
-5.007300 2.307300
-4.986500 2.299900
-4.965600 2.300700
-4.944800 2.308900
-4.924000 2.345000
-4.903200 2.410500
-4.882300 2.479400
-4.861500 2.539700
-4.840700 2.617400
-4.819800 2.748700
-4.799000 2.971500
-4.778200 2.962700
-4.757400 2.955300
-4.736500 2.969700
-4.715700 3.067000
-4.694900 3.129400
-4.674000 3.174100
-4.653200 3.287400
-4.632400 3.581500
-4.611500 3.725300
-4.590700 4.015500
-4.569900 3.787200
-4.549100 3.464500
-4.528200 3.387300
-4.507400 3.327400
-4.486600 3.266600
-4.465700 3.208500
-4.444900 3.172800
-4.424100 3.191600
-4.403200 3.263500
-4.382400 3.258400
-4.361600 3.218400
-4.340800 3.111900
-4.319900 3.019400
-4.299100 2.974600
-4.278300 2.886100
-4.257400 2.778300
-4.236600 2.658000
-4.215800 2.540600
-4.194900 2.485800
-4.174100 2.432600
-4.153300 2.380600
-4.132500 2.329700
-4.111600 2.280400
-4.090800 2.232900
-4.070000 2.187200
-4.049100 2.143300
-4.028300 2.101000
-4.007500 2.059900
-3.986700 2.019700
-3.965800 1.981400
-3.945000 1.941800
-3.924200 1.898200
-3.903300 1.869000
-3.882500 1.840300
-3.861700 1.811700
-3.840800 1.783300
-3.820000 1.754300
-3.799200 1.727100
-3.778400 1.702500
-3.757500 1.679300
-3.736700 1.657300
-3.715900 1.636800
-3.695000 1.617100
-3.674200 1.597600
-3.653400 1.578400
-3.632500 1.559400
-3.611700 1.540700
-3.590900 1.522100
-3.570100 1.503600
-3.549200 1.485300
-3.528400 1.466900
-3.507600 1.448700
-3.486700 1.430400
-3.465900 1.412200
-3.445100 1.394200
-3.424300 1.376400
-3.403400 1.358700
-3.382600 1.341000
-3.361800 1.323500
-3.340900 1.306100
-3.320100 1.289000
-3.299300 1.272100
-3.278400 1.255900
-3.257600 1.239600
-3.236800 1.223600
-3.216000 1.208200
-3.195100 1.193100
-3.174300 1.178300
-3.153500 1.164200
-3.132600 1.151000
-3.111800 1.137500
-3.091000 1.124100
-3.070100 1.110300
-3.049300 1.098300
-3.028500 1.086400
-3.007700 1.074600
-2.986800 1.062700
-2.966000 1.050900
-2.945200 1.039000
-2.924300 1.027100
-2.903500 1.015200
-2.882700 1.003400
-2.861800 0.991700
-2.841000 0.980000
-2.820200 0.968100
-2.799400 0.956000
-2.778500 0.943800
-2.757700 0.930800
-2.736900 0.919600
-2.716000 0.909100
-2.695200 0.898700
-2.674400 0.888100
-2.653600 0.877500
-2.632700 0.866700
-2.611900 0.855900
-2.591100 0.845000
-2.570200 0.834300
-2.549400 0.824000
-2.528600 0.814000
-2.507700 0.804200
-2.486900 0.794800
-2.466100 0.785600
-2.445300 0.776300
-2.424400 0.766500
-2.403600 0.757000
-2.382800 0.747800
-2.361900 0.738600
-2.341100 0.729500
-2.320300 0.720500
-2.299400 0.711600
-2.278600 0.702400
-2.257800 0.692900
-2.237000 0.682500
-2.216100 0.671600
-2.195300 0.661700
-2.174500 0.653100
-2.153600 0.645500
-2.132800 0.636200
-2.112000 0.626900
-2.091100 0.624300
-2.070300 0.624500
-2.049500 0.623500
-2.028700 0.616900
-2.007800 0.609500
-1.987000 0.602300
-1.966200 0.595100
-1.945300 0.588100
-1.924500 0.580800
-1.903700 0.573600
-1.882900 0.566600
-1.862000 0.559700
-1.841200 0.553000
-1.820400 0.719900
-1.799500 0.919000
-1.778700 1.135100
-1.757900 1.297500
-1.737000 1.495300
-1.716200 1.704700
-1.695400 1.678000
-1.674600 1.723300
-1.653700 1.979300
-1.632900 2.200500
-1.612100 2.457300
-1.591200 2.767200
-1.570400 3.156800
-1.549600 3.590500
-1.528700 4.080100
-1.507900 4.380200
-1.487100 4.700700
-1.466300 4.888200
-1.445400 4.937500
-1.424600 4.793400
-1.403800 4.565200
-1.382900 4.286000
-1.362100 4.171400
-1.341300 4.196400
-1.320400 4.163600
-1.299600 4.059200
-1.278800 3.952000
-1.258000 3.852000
-1.237100 3.759400
-1.216300 3.650100
-1.195500 3.554300
-1.174600 3.514800
-1.153800 3.466000
-1.133000 3.528600
-1.112200 3.577000
-1.091300 3.666200
-1.070500 3.871600
-1.049700 4.219100
-1.028800 4.707000
-1.008000 5.282300
-0.987200 5.813700
-0.966300 6.073400
-0.945500 6.036100
-0.924700 5.869100
-0.903900 5.817200
-0.883000 5.695700
-0.862200 5.153900
-0.841400 5.043600
-0.820500 5.040400
-0.799700 5.067500
-0.778900 4.786800
-0.758000 4.602300
-0.737200 4.512200
-0.716400 4.516100
-0.695600 4.517300
-0.674700 4.476500
-0.653900 4.652700
-0.633100 4.698300
-0.612200 4.710300
-0.591400 4.642600
-0.570600 4.453700
-0.549800 4.351800
-0.528900 4.343900
-0.508100 4.302300
-0.487300 4.275700
-0.466400 4.394600
-0.445600 4.457100
-0.424800 4.526300
-0.403900 4.597600
-0.383100 4.661300
-0.362300 4.793900
-0.341500 4.951200
-0.320600 5.023100
-0.299800 4.990600
-0.279000 4.864300
-0.258100 4.829200
-0.237300 4.796600
-0.216500 4.769500
-0.195600 4.744800
-0.174800 4.725700
-0.154000 4.722000
-0.133200 4.732600
-0.112300 4.751900
-0.091500 4.785700
-0.070700 4.859500
-0.049800 4.951300
-0.029000 5.410800
-0.008200 5.773800
0.012700 6.129900
0.033500 6.377700
0.054300 6.620100
0.075100 7.121200
0.096000 7.012000
0.116800 6.698100
0.137600 7.049600
0.158500 6.982900
0.179300 6.144100
0.200100 5.636200
0.220900 5.369800
0.241800 5.167000
0.262600 4.977400
0.283400 4.799600
0.304300 4.653900
0.325100 4.623000
0.345900 4.668900
0.366800 4.842900
0.387600 5.083600
0.408400 5.295200
0.429200 5.568200
0.450100 5.788400
0.470900 6.093300
0.491700 6.580400
0.512600 7.210600
0.533400 7.712400
0.554200 7.222800
0.575100 6.821800
0.595900 6.923400
0.616700 7.433700
0.637500 7.511400
0.658400 7.065400
0.679200 6.607600
0.700000 6.408900
0.720900 6.309500
0.741700 6.260400
0.762500 6.193400
0.783400 6.140000
0.804200 5.980600
0.825000 5.916800
0.845800 5.870100
0.866700 5.821600
0.887500 5.616900
0.908300 5.517300
0.929200 5.352400
0.950000 5.283000
0.970800 5.186100
0.991600 5.069700
1.012500 4.954100
1.033300 4.855200
1.054100 4.755200
1.075000 4.641700
1.095800 4.511200
1.116600 4.374500
1.137500 4.241400
1.158300 4.108700
1.179100 3.988200
1.199900 3.859000
1.220800 3.739600
1.241600 3.614800
1.262400 3.456400
1.283300 3.302100
1.304100 3.163100
1.324900 3.034900
1.345800 2.918400
1.366600 2.816200
1.387400 2.738200
1.408200 2.685800
1.429100 2.647200
1.449900 2.580100
1.470700 2.504800
1.491600 2.376800
1.512400 2.296000
1.533200 2.206400
1.554100 2.121300
1.574900 2.053800
1.595700 1.998300
1.616500 1.969000
1.637400 1.911100
1.658200 1.857300
1.679000 1.796800
1.699900 1.726200
1.720700 1.673100
1.741500 1.613200
1.762300 1.555700
1.783200 1.511400
1.804000 1.469300
1.824800 1.425400
1.845700 1.382100
1.866500 1.339800
1.887300 1.297300
1.908200 1.254400
1.929000 1.222900
1.949800 1.228300
1.970600 1.176800
1.991500 1.094300
2.012300 1.050800
2.033100 1.018800
2.054000 0.984000
2.074800 0.952800
2.095600 0.920900
2.116500 0.887100
2.137300 0.853200
2.158100 0.819600
2.178900 0.789200
2.199800 0.762300
2.220600 0.747200
2.241400 0.755000
2.262300 0.734900
2.283100 0.686900
2.303900 0.614700
2.324700 0.579500
2.345600 0.542800
2.366400 0.494600
2.387200 0.443900
2.408100 0.392700
2.428900 0.338300
2.449700 0.237200
2.470600 0.202000
2.491400 0.206500
2.512200 0.197000
2.533000 0.177900
2.553900 0.001300
2.574700 0.004100
2.595500 0.008400
2.616400 0.013700
2.637200 0.019900
2.658000 0.026600
2.678900 0.033800
2.699700 0.041500
2.720500 0.049700
2.741300 0.058400
2.762200 0.067600
2.783000 0.077000
2.803800 0.086700
2.824700 0.100000
2.845500 0.117800
2.866300 0.140300
2.887200 0.167800
2.908000 0.204500
2.928800 0.251800
2.949600 0.295600
2.970500 0.356400
2.991300 0.435700
3.012100 0.516200
3.033000 0.607600
3.053800 0.713600
3.074600 0.823400
3.095400 0.930900
3.116300 1.044100
3.137100 1.154300
3.157900 1.262300
3.178800 1.370300
3.199600 1.466700
3.220400 1.579700
3.241300 1.701300
3.262100 1.838400
3.282900 1.960300
3.303700 2.088800
3.324600 2.209500
3.345400 2.321500
3.366200 2.433600
3.387100 2.534700
3.407900 2.622900
3.428700 2.706600
3.449600 2.789600
3.470400 2.868300
3.491200 2.940500
3.512000 2.996200
3.532900 3.073000
3.553700 3.182300
3.574500 3.319400
3.595400 3.482600
3.616200 3.620800
3.637000 3.753300
3.657900 3.869600
3.678700 3.953300
3.699500 4.030100
3.720300 4.108800
3.741200 4.188400
3.762000 4.269000
3.782800 4.326300
3.803700 4.386400
3.824500 4.448200
3.845300 4.518000
3.866100 4.638800
3.887000 4.812700
3.907800 4.947100
3.928600 5.049200
3.949500 5.118400
3.970300 5.212600
3.991100 5.330200
4.012000 5.577600
4.032800 5.794400
4.053600 6.079300
4.074400 6.085500
4.095300 6.213900
4.116100 6.285100
4.136900 6.464000
4.157800 6.968500
4.178600 7.215800
4.199400 6.825000
4.220300 6.317200
4.241100 5.882400
4.261900 5.459400
4.282700 5.037000
4.303600 4.650900
4.324400 4.457100
4.345200 4.320800
4.366100 4.188700
4.386900 4.058900
4.407700 3.938400
4.428600 3.860900
4.449400 3.794800
4.470200 3.732700
4.491000 3.671500
4.511900 3.577600
4.532700 3.456700
4.553500 3.478000
4.574400 3.525700
4.595200 3.630900
4.616000 3.568800
4.636800 3.469400
4.657700 3.502300
4.678500 3.578000
4.699300 3.803300
4.720200 3.978000
4.741000 3.987600
4.761800 3.992200
4.782700 4.006800
4.803500 4.011500
4.824300 4.006700
4.845100 3.994100
4.866000 3.949700
4.886800 3.907800
4.907600 3.857100
4.928500 3.770000
4.949300 4.111000
4.970100 4.211300
4.991000 4.405300
5.011800 4.655900
5.032600 4.752900
5.053400 4.866900
5.074300 4.971100
5.095100 5.084100
5.115900 5.172900
5.136800 5.404100
5.157600 4.910000
5.178400 4.876600
5.199200 4.919100
5.220100 5.045700
5.240900 5.259200
5.261700 5.403800
5.282600 5.846700
5.303400 5.782000
5.324200 5.660200
5.345100 5.292600
5.365900 5.064300
5.386700 5.501800
5.407500 6.142100
5.428400 6.764900
5.449200 7.430000
5.470000 7.333900
5.490900 6.735200
5.511700 5.699900
5.532500 4.770900
5.553400 4.420600
5.574200 4.179900
5.595000 4.128600
5.615800 4.080500
5.636700 4.113300
5.657500 4.261300
5.678300 4.517700
5.699200 4.256800
5.720000 3.966700
5.740800 3.887000
5.761700 3.842300
5.782500 3.718900
5.803300 3.533800
5.824100 3.325800
5.845000 3.106300
5.865800 2.914500
5.886600 2.840700
5.907500 2.873600
5.928300 3.004100
5.949100 3.223600
5.969900 3.525000
5.990800 3.982900
6.011600 4.785500
6.032400 5.691000
6.053300 6.920500
6.074100 8.147700
6.094900 8.894800
6.115800 8.341500
6.136600 7.839800
6.157400 7.383300
6.178200 7.095300
6.199100 6.317300
6.219900 5.669100
6.240700 5.259100
6.261600 4.962600
6.282400 4.902600
6.303200 4.988300
6.324100 5.234900
6.344900 5.487800
6.365700 5.867000
6.386500 6.492300
6.407400 7.074900
6.428200 6.788500
6.449000 6.749000
6.469900 6.700700
6.490700 6.993500
6.511500 6.891500
6.532400 6.580800
6.553200 6.217700
6.574000 5.948000
6.594800 5.802800
6.615700 5.393900
6.636500 4.491300
6.657300 3.935300
6.678200 3.949400
6.699000 4.025800
6.719800 4.127200
6.740600 4.307800
6.761500 4.505400
6.782300 4.744700
6.803100 4.993800
6.824000 5.202600
6.844800 5.304000
6.865600 5.435600
6.886500 5.617400
6.907300 5.813600
6.928100 6.110700
6.948900 6.030400
6.969800 5.859500
6.990600 6.096200
7.011400 5.901700
7.032300 5.784400
7.053100 5.736800
7.073900 5.789100
7.094800 5.630400
7.115600 5.554500
7.136400 5.533100
7.157200 5.577800
7.178100 5.633100
7.198900 5.731200
7.219700 5.973500
7.240600 6.237400
7.261400 6.243100
7.282200 6.097400
7.303100 5.562300
7.323900 5.389500
7.344700 5.214700
7.365500 5.010800
7.386400 4.829700
7.407200 4.692000
7.428000 4.558600
7.448900 4.476800
7.469700 4.437600
7.490500 4.457200
7.511300 4.502300
7.532200 4.489400
7.553000 4.469000
7.573800 4.441300
7.594700 4.470700
7.615500 4.536100
7.636300 4.449600
7.657200 4.278200
7.678000 4.259400
7.698800 4.063000
7.719600 3.806800
7.740500 3.703200
7.761300 3.530700
7.782100 3.319500
7.803000 3.258000
7.823800 3.235300
7.844600 3.283700
7.865500 3.385900
7.886300 3.489900
7.907100 3.601900
7.927900 3.783900
7.948800 4.048500
7.969600 4.349800
7.990400 4.740800
8.011300 4.727200
8.032100 4.315000
8.052900 4.392400
8.073700 4.434800
8.094600 4.525600
8.115400 4.603300
8.136200 4.737900
8.157100 5.205100
8.177900 5.144200
8.198700 5.151300
8.219600 5.142200
8.240400 5.186800
8.261200 5.558600
8.282000 5.451500
8.302900 5.005200
8.323700 4.813100
8.344500 4.554700
8.365400 4.283600
8.386200 4.224400
8.407000 4.177500
8.427900 4.125500
8.448700 3.994100
8.469500 3.828800
8.490300 3.747000
8.511200 3.749200
8.532000 3.826500
8.552800 4.042600
8.573700 4.306700
8.594500 4.451200
8.615300 4.605400
8.636200 4.727100
8.657000 4.800700
8.677800 4.706500
8.698600 4.606000
8.719500 4.556700
8.740300 4.411600
8.761100 4.410300
8.782000 4.219300
8.802800 4.115600
8.823600 4.089900
8.844400 4.112000
8.865300 4.133500
8.886100 4.136600
8.906900 4.122500
8.927800 4.194600
8.948600 4.200500
8.969400 4.174900
8.990300 4.147200
9.011100 4.128200
9.031900 4.097500
9.052700 4.035200
9.073600 3.976200
9.094400 3.954000
9.115200 4.032200
9.136100 4.032300
9.156900 4.053100
9.177700 4.014800
9.198600 4.069300
9.219400 4.475300
9.240200 4.896100
9.261000 5.110300
9.281900 4.886200
9.302700 4.733600
9.323500 4.570000
9.344400 4.382500
9.365200 4.288200
9.386000 4.223900
9.406900 4.159200
9.427700 4.077000
9.448500 4.004500
9.469300 3.997300
9.490200 4.016300
9.511000 4.034100
9.531800 4.060700
9.552700 4.093700
9.573500 4.136300
9.594300 4.200900
9.615100 4.263200
9.636000 4.315000
9.656800 4.470000
9.677600 4.578400
9.698500 4.615100
9.719300 4.670000
9.740100 4.847500
9.761000 4.892000
9.781800 4.779800
9.802600 4.785500
9.823400 4.753600
9.844300 4.768400
9.865100 4.879100
9.885900 5.001100
9.906800 5.025000
9.927600 5.101600
9.948400 5.126800
9.969300 5.154700
9.990100 5.184600
10.010900 5.236000
10.031700 5.321600
10.052600 5.238800
10.073400 5.157500
10.094200 5.331000
10.115100 4.842500
10.135900 4.765400
10.156700 4.768300
10.177600 4.794200
10.198400 4.828300
10.219200 4.837500
10.240000 4.810900
10.260900 4.815500
10.281700 5.026000
10.302500 4.731200
10.323400 4.754200
10.344200 4.863400
10.365000 5.017000
10.385800 5.274900
10.406700 5.415200
10.427500 5.386400
10.448300 5.326400
10.469200 5.479100
10.490000 5.490900
10.510800 5.417800
10.531700 5.193300
10.552500 5.084400
10.573300 5.044000
10.594100 5.009100
10.615000 4.977100
10.635800 5.068100
10.656600 5.132200
10.677500 5.202700
10.698300 5.124200
10.719100 5.103700
10.740000 5.209400
10.760800 5.317200
10.781600 5.421900
10.802400 5.642900
10.823300 5.682000
10.844100 5.700800
10.864900 5.961900
10.885800 6.282400
10.906600 6.433700
10.927400 6.406200
10.948200 6.314700
10.969100 6.155100
10.989900 5.977600
11.010700 5.792700
11.031600 5.669400
11.052400 5.668500
11.073200 5.652000
11.094100 5.607000
11.114900 5.502400
11.135700 5.390600
11.156500 5.311300
11.177400 5.226900
11.198200 5.154200
11.219000 5.074000
11.239900 5.015500
11.260700 4.922600
11.281500 4.906100
11.302400 4.949900
11.323200 4.972500
11.344000 5.020600
11.364800 5.064900
11.385700 5.088200
11.406500 5.183600
11.427300 5.108800
11.448200 5.037300
11.469000 5.011200
11.489800 4.975900
11.510700 4.930300
11.531500 4.899100
11.552300 4.884300
11.573100 4.865400
11.594000 4.793600
11.614800 4.730700
11.635600 4.673400
11.656500 4.627800
11.677300 4.634400
11.698100 4.650800
11.718900 4.641700
11.739800 4.632200
11.760600 4.619500
11.781400 4.618500
11.802300 4.604000
11.823100 4.611100
11.843900 4.632200
11.864800 4.674800
11.885600 4.728500
11.906400 4.788400
11.927200 4.854300
11.948100 4.909200
11.968900 4.948100
11.989700 5.013900
12.010600 5.110100
12.031400 5.232500
12.052200 5.675200
12.073100 6.237800
12.093900 6.498400
12.114700 6.769600
12.135500 6.563200
12.156400 6.149700
12.177200 6.013900
12.198000 5.958500
12.218900 5.926600
12.239700 5.941700
12.260500 5.989200
12.281400 5.992400
12.302200 5.966300
12.323000 6.035000
12.343800 6.021500
12.364700 6.038900
12.385500 6.100100
12.406300 6.222600
12.427200 6.465100
12.448000 7.250300
12.468800 7.931400
12.489600 7.552600
12.510500 7.075600
12.531300 6.672000
12.552100 6.336400
12.573000 5.988600
12.593800 5.701000
12.614600 5.504300
12.635500 5.358300
12.656300 5.231800
12.677100 5.164800
12.697900 5.103500
12.718800 5.047500
12.739600 5.006800
12.760400 4.973100
12.781300 4.953900
12.802100 4.972300
12.822900 5.015300
12.843800 4.993100
12.864600 4.942900
12.885400 4.946300
12.906200 4.978400
12.927100 4.996000
12.947900 5.044400
12.968700 5.129600
12.989600 5.172400
13.010400 5.278600
13.031200 5.191000
13.052100 5.123500
13.072900 5.183600
13.093700 5.322800
13.114500 5.383000
13.135400 5.278300
13.156200 5.220600
13.177000 5.244300
13.197900 5.361400
13.218700 5.349400
13.239500 5.255400
13.260300 5.158700
13.281200 5.066700
13.302000 4.982600
13.322800 4.898900
13.343700 4.782500
13.364500 4.699600
13.385300 4.643200
13.406200 4.619700
13.427000 4.581600
13.447800 4.522100
13.468600 4.416600
13.489500 4.135300
13.510300 3.635400
13.531100 3.558200
13.552000 3.635400
13.572800 3.910200
13.593600 4.602200
13.614500 5.236100
13.635300 5.151200
13.656100 5.089300
13.676900 5.509700
13.697800 6.077900
13.718600 6.138300
13.739400 6.012800
13.760300 6.440200
13.781100 6.476200
13.801900 5.906200
13.822700 5.350000
13.843600 5.042600
13.864400 4.975200
13.885200 4.881700
13.906100 4.754200
13.926900 4.782000
13.947700 4.864000
13.968600 4.996200
13.989400 4.782900
14.010200 4.713800
14.031000 4.610000
14.051900 4.517400
14.072700 4.545900
14.093500 4.691900
14.114400 5.059400
14.135200 5.625000
14.156000 5.118800
14.176900 4.184700
14.197700 3.994000
14.218500 3.917900
14.239300 3.922500
14.260200 3.880300
14.281000 3.839500
14.301800 3.784900
14.322700 3.711800
14.343500 3.651300
14.364300 3.601300
14.385200 3.453100
14.406000 3.212400
14.426800 3.100200
14.447600 2.972800
14.468500 2.847500
14.489300 2.826700
14.510100 2.780300
14.531000 2.956300
14.551800 2.747700
14.572600 2.666000
14.593400 2.570800
14.614300 2.469100
14.635100 2.369300
14.655900 2.271400
14.676800 2.175300
14.697600 2.079700
14.718400 1.970200
14.739300 1.855700
14.760100 1.751200
14.780900 1.656600
14.801700 1.568600
14.822600 1.479900
14.843400 1.383800
14.864200 1.296100
14.885100 1.234500
14.905900 1.170600
14.926700 1.102700
14.947600 1.098400
14.968400 0.952200
14.989200 0.836900
15.010000 0.813100
15.030900 0.762400
15.051700 0.699500
15.072500 0.639200
15.093400 0.581100
15.114200 0.524000
15.135000 0.471200
15.155900 0.419800
15.176700 0.372000
15.197500 0.312500
15.218300 0.288600
15.239200 0.267000
15.260000 0.247900
15.280800 0.231300
15.301700 0.217200
15.322500 0.205600
15.343300 0.196400
15.364100 0.281100
15.385000 0.309100
15.405800 0.245000
15.426600 0.211500
15.447500 0.178700
15.468300 0.146700
15.489100 0.115400
15.510000 0.085000
15.530800 0.055300
15.551600 0.026800
15.572400 0.007300
15.593300 0.000100
15.614100 0.000000
15.634900 0.000000
15.655800 0.000000
15.676600 0.000000
15.697400 0.000000
15.718300 0.000000
15.739100 0.000000
15.759900 0.000000
15.780700 0.000000
15.801600 0.000000
15.822400 0.000000
15.843200 0.000000
15.864100 0.000000
15.884900 0.000000
15.905700 0.000000
15.926600 0.000000
15.947400 0.000000
15.968200 0.000000
15.989000 0.000000
16.009900 0.000000
16.030700 0.000000
16.051500 0.000000
16.072400 0.000000
16.093200 0.000000
16.114000 0.000000
16.134800 0.000000
16.155700 0.000000
16.176500 0.000000
16.197300 0.000000
16.218200 0.000000
16.239000 0.000000
16.259800 0.000000
16.280700 0.000000
16.301500 0.000000
16.322300 0.000000
16.343100 0.000000
16.364000 0.000000
16.384800 0.000000
16.405600 0.000000
16.426500 0.000000
16.447300 0.000000
16.468100 0.000000
16.489000 0.000000
16.509800 0.000000
16.530600 0.000000
16.551400 0.000000
16.572300 0.000000
16.593100 0.000000
16.613900 0.000000
16.634800 0.000000
16.655600 0.000000
16.676400 0.000000
16.697200 0.000000
16.718100 0.000000
16.738900 0.000000
16.759700 0.000000
16.780600 0.000000
16.801400 0.000000
16.822200 0.000000
16.843100 0.000000
16.863900 0.000000
16.884700 0.000000
16.905500 0.000000
16.926400 0.000000
16.947200 0.000000
16.968000 0.000000
16.988900 0.000000
17.009700 0.000000
17.030500 0.000000
17.051400 0.000000
17.072200 0.000000
17.093000 0.000000
17.113800 0.000000
17.134700 0.000000
17.155500 0.000000
17.176300 0.000000
17.197200 0.000000
17.218000 0.000000
17.238800 0.000000
17.259700 0.000000
17.280500 0.000000
17.301300 0.000000
17.322100 0.000000
17.343000 0.000000
17.363800 0.000000
17.384600 0.000000
17.405500 0.000000
17.426300 0.000000
17.447100 0.000000
17.467900 0.000000
17.488800 0.000000
e
