set title 'mp-1336 - Density of States'
set xlabel 'Energy (eV)'
set ylabel 'DOS (states/eV)'
set grid
set xrange [-10:10]
set yrange [0:17.256]
set xzeroaxis lt -1
set terminal png size 800,600
set output 'mp-1336_dos_gnuplot.png'
plot '-' using 1:2 with lines title 'DOS'
-18.026900 0.000000
-18.007500 0.000000
-17.988200 0.000000
-17.968800 0.000000
-17.949400 0.000000
-17.930000 0.000000
-17.910600 0.000000
-17.891200 0.000000
-17.871800 0.000000
-17.852400 0.000000
-17.833000 0.000000
-17.813600 0.000000
-17.794200 0.000000
-17.774800 0.000000
-17.755500 0.000000
-17.736100 0.000000
-17.716700 0.000000
-17.697300 0.000000
-17.677900 0.000000
-17.658500 0.000000
-17.639100 0.000000
-17.619700 0.000000
-17.600300 0.000000
-17.580900 0.000000
-17.561500 0.000000
-17.542100 0.000000
-17.522800 0.000000
-17.503400 0.000000
-17.484000 0.000000
-17.464600 0.000000
-17.445200 0.000000
-17.425800 0.000000
-17.406400 0.000000
-17.387000 0.000000
-17.367600 0.000000
-17.348200 0.000000
-17.328800 0.000000
-17.309400 0.000000
-17.290000 0.000000
-17.270700 0.000000
-17.251300 0.000000
-17.231900 0.000000
-17.212500 0.000000
-17.193100 0.000000
-17.173700 0.000000
-17.154300 0.000000
-17.134900 0.000000
-17.115500 0.000000
-17.096100 0.000000
-17.076700 0.000000
-17.057300 0.000000
-17.038000 0.000000
-17.018600 0.000000
-16.999200 0.000000
-16.979800 0.000000
-16.960400 0.000000
-16.941000 0.000000
-16.921600 0.000000
-16.902200 0.000000
-16.882800 0.000000
-16.863400 0.000000
-16.844000 0.000000
-16.824600 0.000000
-16.805200 0.000000
-16.785900 0.000000
-16.766500 0.000000
-16.747100 0.000000
-16.727700 0.000000
-16.708300 0.000000
-16.688900 0.000000
-16.669500 0.000000
-16.650100 0.000000
-16.630700 0.000000
-16.611300 0.000000
-16.591900 0.000000
-16.572500 0.000000
-16.553200 0.000000
-16.533800 0.000000
-16.514400 0.000000
-16.495000 0.000000
-16.475600 0.000000
-16.456200 0.000000
-16.436800 0.000000
-16.417400 0.000000
-16.398000 0.000000
-16.378600 0.000000
-16.359200 0.000000
-16.339800 0.000000
-16.320400 0.000000
-16.301100 0.000000
-16.281700 0.000000
-16.262300 0.002300
-16.242900 0.237800
-16.223500 0.333200
-16.204100 0.445500
-16.184700 0.536400
-16.165300 0.620300
-16.145900 0.687000
-16.126500 0.767900
-16.107100 0.853800
-16.087700 0.939800
-16.068400 1.019100
-16.049000 1.101700
-16.029600 1.193100
-16.010200 1.301100
-15.990800 1.410700
-15.971400 1.527800
-15.952000 1.667200
-15.932600 1.820900
-15.913200 2.010800
-15.893800 2.250000
-15.874400 2.534100
-15.855000 3.075700
-15.835600 7.067300
-15.816300 6.980600
-15.796900 6.292700
-15.777500 5.461700
-15.758100 4.455800
-15.738700 3.826800
-15.719300 3.458300
-15.699900 3.215600
-15.680500 3.169500
-15.661100 3.178200
-15.641700 3.063000
-15.622300 2.991900
-15.602900 2.994500
-15.583600 3.072700
-15.564200 3.014800
-15.544800 3.154300
-15.525400 3.320100
-15.506000 3.615100
-15.486600 5.868500
-15.467200 8.266200
-15.447800 4.481500
-15.428400 7.543400
-15.409000 9.031700
-15.389600 11.115500
-15.370200 12.538300
-15.350800 11.562100
-15.331500 12.669500
-15.312100 9.205100
-15.292700 5.883000
-15.273300 3.980800
-15.253900 2.068200
-15.234500 1.347000
-15.215100 1.019100
-15.195700 0.732000
-15.176300 0.168900
-15.156900 0.000000
-15.137500 0.000000
-15.118100 0.000000
-15.098800 0.000000
-15.079400 0.000000
-15.060000 0.000000
-15.040600 0.000000
-15.021200 0.000000
-15.001800 0.000000
-14.982400 0.000000
-14.963000 0.000000
-14.943600 0.000000
-14.924200 0.000000
-14.904800 0.000000
-14.885400 0.000000
-14.866000 0.000000
-14.846700 0.000000
-14.827300 0.000000
-14.807900 0.000000
-14.788500 0.000000
-14.769100 0.000000
-14.749700 0.000000
-14.730300 0.000000
-14.710900 0.000000
-14.691500 0.000000
-14.672100 0.000000
-14.652700 0.000000
-14.633300 0.000000
-14.614000 0.000000
-14.594600 0.000000
-14.575200 0.000000
-14.555800 0.000000
-14.536400 0.000000
-14.517000 0.000000
-14.497600 0.000000
-14.478200 0.000000
-14.458800 0.000000
-14.439400 0.000000
-14.420000 0.000000
-14.400600 0.000000
-14.381200 0.000000
-14.361900 0.000000
-14.342500 0.000000
-14.323100 0.000000
-14.303700 0.000000
-14.284300 0.000000
-14.264900 0.000000
-14.245500 0.000000
-14.226100 0.000000
-14.206700 0.000000
-14.187300 0.000000
-14.167900 0.000000
-14.148500 0.000000
-14.129200 0.000000
-14.109800 0.000000
-14.090400 0.000000
-14.071000 0.000000
-14.051600 0.000000
-14.032200 0.000000
-14.012800 0.000000
-13.993400 0.000000
-13.974000 0.000000
-13.954600 0.000000
-13.935200 0.000000
-13.915800 0.000000
-13.896500 0.000000
-13.877100 0.000000
-13.857700 0.000000
-13.838300 0.000000
-13.818900 0.000000
-13.799500 0.000000
-13.780100 0.000000
-13.760700 0.000000
-13.741300 0.000000
-13.721900 0.000000
-13.702500 0.000000
-13.683100 0.000000
-13.663700 0.000000
-13.644400 0.000000
-13.625000 0.000000
-13.605600 0.000000
-13.586200 0.000000
-13.566800 0.000000
-13.547400 0.000000
-13.528000 0.000000
-13.508600 0.000000
-13.489200 0.000000
-13.469800 0.000000
-13.450400 0.000000
-13.431000 0.000000
-13.411700 0.000000
-13.392300 0.000000
-13.372900 0.000000
-13.353500 0.000000
-13.334100 0.000000
-13.314700 0.000000
-13.295300 0.000000
-13.275900 0.000000
-13.256500 0.000000
-13.237100 0.000000
-13.217700 0.000000
-13.198300 0.000000
-13.178900 0.000000
-13.159600 0.000000
-13.140200 0.000000
-13.120800 0.000000
-13.101400 0.000000
-13.082000 0.000000
-13.062600 0.000000
-13.043200 0.000000
-13.023800 0.000000
-13.004400 0.000000
-12.985000 0.000000
-12.965600 0.000000
-12.946200 0.000000
-12.926900 0.000000
-12.907500 0.000000
-12.888100 0.000000
-12.868700 0.000000
-12.849300 0.000000
-12.829900 0.000000
-12.810500 0.000000
-12.791100 0.000000
-12.771700 0.000000
-12.752300 0.000000
-12.732900 0.000000
-12.713500 0.000000
-12.694100 0.000000
-12.674800 0.000000
-12.655400 0.000000
-12.636000 0.000000
-12.616600 0.000000
-12.597200 0.000000
-12.577800 0.000000
-12.558400 0.000000
-12.539000 0.000000
-12.519600 0.000000
-12.500200 0.000000
-12.480800 0.000000
-12.461400 0.000000
-12.442100 0.000000
-12.422700 0.000000
-12.403300 0.000000
-12.383900 0.000000
-12.364500 0.000000
-12.345100 0.000000
-12.325700 0.000000
-12.306300 0.000000
-12.286900 0.000000
-12.267500 0.000000
-12.248100 0.000000
-12.228700 0.000000
-12.209300 0.000000
-12.190000 0.000000
-12.170600 0.000000
-12.151200 0.000000
-12.131800 0.000000
-12.112400 0.000000
-12.093000 0.000000
-12.073600 0.000000
-12.054200 0.000000
-12.034800 0.000000
-12.015400 0.000000
-11.996000 0.000000
-11.976600 0.000000
-11.957300 0.000000
-11.937900 0.000000
-11.918500 0.000000
-11.899100 0.000000
-11.879700 0.000000
-11.860300 0.000000
-11.840900 0.000000
-11.821500 0.000000
-11.802100 0.000000
-11.782700 0.000000
-11.763300 0.000000
-11.743900 0.000000
-11.724500 0.000000
-11.705200 0.000000
-11.685800 0.000000
-11.666400 0.000000
-11.647000 0.000000
-11.627600 0.000000
-11.608200 0.000000
-11.588800 0.000000
-11.569400 0.000000
-11.550000 0.000000
-11.530600 0.000000
-11.511200 0.000000
-11.491800 0.000000
-11.472500 0.000000
-11.453100 0.000000
-11.433700 0.000000
-11.414300 0.000000
-11.394900 0.000000
-11.375500 0.000000
-11.356100 0.000000
-11.336700 0.000000
-11.317300 0.000000
-11.297900 0.000000
-11.278500 0.000000
-11.259100 0.000000
-11.239700 0.000000
-11.220400 0.000000
-11.201000 0.000000
-11.181600 0.000000
-11.162200 0.000000
-11.142800 0.000000
-11.123400 0.000000
-11.104000 0.000000
-11.084600 0.000000
-11.065200 0.000000
-11.045800 0.000000
-11.026400 0.000000
-11.007000 0.000000
-10.987700 0.000000
-10.968300 0.000000
-10.948900 0.000000
-10.929500 0.000000
-10.910100 0.000000
-10.890700 0.000000
-10.871300 0.000000
-10.851900 0.000000
-10.832500 0.000000
-10.813100 0.000000
-10.793700 0.000000
-10.774300 0.000000
-10.754900 0.000000
-10.735600 0.000000
-10.716200 0.000000
-10.696800 0.000000
-10.677400 0.000000
-10.658000 0.000000
-10.638600 0.000000
-10.619200 0.000000
-10.599800 0.000000
-10.580400 0.000000
-10.561000 0.000000
-10.541600 0.000000
-10.522200 0.000000
-10.502900 0.000000
-10.483500 0.000000
-10.464100 0.000000
-10.444700 0.000000
-10.425300 0.000000
-10.405900 0.000000
-10.386500 0.000000
-10.367100 0.000000
-10.347700 0.000000
-10.328300 0.000000
-10.308900 0.000000
-10.289500 0.000000
-10.270100 0.000000
-10.250800 0.000000
-10.231400 0.000000
-10.212000 0.000000
-10.192600 0.000000
-10.173200 0.000000
-10.153800 0.000000
-10.134400 0.000000
-10.115000 0.000000
-10.095600 0.000000
-10.076200 0.000000
-10.056800 0.000000
-10.037400 0.000000
-10.018100 0.000000
-9.998700 0.000000
-9.979300 0.000000
-9.959900 0.000000
-9.940500 0.000000
-9.921100 0.000000
-9.901700 0.000000
-9.882300 0.000000
-9.862900 0.000000
-9.843500 0.000000
-9.824100 0.000000
-9.804700 0.000000
-9.785400 0.000000
-9.766000 0.000000
-9.746600 0.000000
-9.727200 0.000000
-9.707800 0.000000
-9.688400 0.000000
-9.669000 0.000000
-9.649600 0.000000
-9.630200 0.000000
-9.610800 0.000000
-9.591400 0.000000
-9.572000 0.000000
-9.552600 0.000000
-9.533300 0.000000
-9.513900 0.000000
-9.494500 0.000000
-9.475100 0.000000
-9.455700 0.000000
-9.436300 0.000000
-9.416900 0.000000
-9.397500 0.000000
-9.378100 0.000000
-9.358700 0.000000
-9.339300 0.000000
-9.319900 0.000000
-9.300600 0.000000
-9.281200 0.000000
-9.261800 0.000000
-9.242400 0.000000
-9.223000 0.000000
-9.203600 0.000000
-9.184200 0.000000
-9.164800 0.000000
-9.145400 0.000000
-9.126000 0.000000
-9.106600 0.000000
-9.087200 0.000000
-9.067800 0.000000
-9.048500 0.000000
-9.029100 0.000000
-9.009700 0.000000
-8.990300 0.000000
-8.970900 0.000000
-8.951500 0.000000
-8.932100 0.000000
-8.912700 0.000000
-8.893300 0.000000
-8.873900 0.000000
-8.854500 0.000000
-8.835100 0.000000
-8.815800 0.000000
-8.796400 0.000000
-8.777000 0.000000
-8.757600 0.000000
-8.738200 0.000000
-8.718800 0.000000
-8.699400 0.000000
-8.680000 0.000000
-8.660600 0.000000
-8.641200 0.000000
-8.621800 0.000000
-8.602400 0.000000
-8.583000 0.000000
-8.563700 0.000000
-8.544300 0.000000
-8.524900 0.000000
-8.505500 0.000000
-8.486100 0.000000
-8.466700 0.000000
-8.447300 0.000000
-8.427900 0.000000
-8.408500 0.000000
-8.389100 0.000000
-8.369700 0.000000
-8.350300 0.000000
-8.331000 0.000000
-8.311600 0.000000
-8.292200 0.000000
-8.272800 0.000000
-8.253400 0.000000
-8.234000 0.000000
-8.214600 0.000000
-8.195200 0.000000
-8.175800 0.000000
-8.156400 0.000000
-8.137000 0.000000
-8.117600 0.000000
-8.098200 0.000000
-8.078900 0.000000
-8.059500 0.000000
-8.040100 0.000000
-8.020700 0.000000
-8.001300 0.000000
-7.981900 0.000000
-7.962500 0.000000
-7.943100 0.000000
-7.923700 0.000000
-7.904300 0.000000
-7.884900 0.000000
-7.865500 0.000000
-7.846200 0.000000
-7.826800 0.000000
-7.807400 0.000000
-7.788000 0.000000
-7.768600 0.000000
-7.749200 0.000000
-7.729800 0.000000
-7.710400 0.000000
-7.691000 0.000000
-7.671600 0.000000
-7.652200 0.000000
-7.632800 0.000000
-7.613400 0.000000
-7.594100 0.000000
-7.574700 0.000000
-7.555300 0.000000
-7.535900 0.000000
-7.516500 0.000000
-7.497100 0.000000
-7.477700 0.000000
-7.458300 0.000000
-7.438900 0.000000
-7.419500 0.000000
-7.400100 0.000000
-7.380700 0.000000
-7.361400 0.000000
-7.342000 0.000000
-7.322600 0.000000
-7.303200 0.000000
-7.283800 0.000000
-7.264400 0.000000
-7.245000 0.000000
-7.225600 0.000000
-7.206200 0.000000
-7.186800 0.000000
-7.167400 0.000000
-7.148000 0.000000
-7.128600 0.000000
-7.109300 0.000000
-7.089900 0.000000
-7.070500 0.000000
-7.051100 0.000000
-7.031700 0.000000
-7.012300 0.000000
-6.992900 0.000000
-6.973500 0.000000
-6.954100 0.000000
-6.934700 0.000000
-6.915300 0.000000
-6.895900 0.000000
-6.876600 0.000000
-6.857200 0.000000
-6.837800 0.000000
-6.818400 0.000000
-6.799000 0.000000
-6.779600 0.000000
-6.760200 0.000000
-6.740800 0.000000
-6.721400 0.000000
-6.702000 0.000000
-6.682600 0.000000
-6.663200 0.000000
-6.643800 0.000000
-6.624500 0.000000
-6.605100 0.000000
-6.585700 0.000000
-6.566300 0.000000
-6.546900 0.000000
-6.527500 0.000000
-6.508100 0.000000
-6.488700 0.000000
-6.469300 0.000000
-6.449900 0.000000
-6.430500 0.000000
-6.411100 0.000000
-6.391800 0.000000
-6.372400 0.000000
-6.353000 0.000000
-6.333600 0.000000
-6.314200 0.000000
-6.294800 0.000000
-6.275400 0.000000
-6.256000 0.000000
-6.236600 0.000000
-6.217200 0.000000
-6.197800 0.000000
-6.178400 0.000000
-6.159100 0.000000
-6.139700 0.000000
-6.120300 0.000000
-6.100900 0.000000
-6.081500 0.000000
-6.062100 0.000000
-6.042700 0.000000
-6.023300 0.000000
-6.003900 0.000000
-5.984500 0.000000
-5.965100 0.000000
-5.945700 0.000000
-5.926300 0.000000
-5.907000 0.000000
-5.887600 0.000000
-5.868200 0.000000
-5.848800 0.000000
-5.829400 0.000000
-5.810000 0.000000
-5.790600 0.000000
-5.771200 0.000000
-5.751800 0.000000
-5.732400 0.000000
-5.713000 0.000000
-5.693600 0.000000
-5.674300 0.000000
-5.654900 0.000000
-5.635500 0.000000
-5.616100 0.000000
-5.596700 0.000000
-5.577300 0.000000
-5.557900 0.000000
-5.538500 0.000000
-5.519100 0.000000
-5.499700 0.000000
-5.480300 0.000000
-5.460900 0.000000
-5.441500 0.000000
-5.422200 0.000000
-5.402800 0.000000
-5.383400 0.000000
-5.364000 0.000000
-5.344600 0.000000
-5.325200 0.000000
-5.305800 0.000000
-5.286400 0.000000
-5.267000 0.000000
-5.247600 0.000000
-5.228200 0.000000
-5.208800 0.000000
-5.189500 0.000000
-5.170100 0.000000
-5.150700 0.000000
-5.131300 0.000000
-5.111900 0.000000
-5.092500 0.000000
-5.073100 0.000000
-5.053700 0.000000
-5.034300 0.000000
-5.014900 0.000000
-4.995500 0.000000
-4.976100 0.000000
-4.956700 0.000000
-4.937400 0.000000
-4.918000 0.000000
-4.898600 0.000000
-4.879200 0.000000
-4.859800 0.000000
-4.840400 0.000000
-4.821000 0.000000
-4.801600 0.000000
-4.782200 0.000000
-4.762800 0.000000
-4.743400 0.002300
-4.724000 0.029300
-4.704700 0.065100
-4.685300 0.095300
-4.665900 0.119700
-4.646500 0.131900
-4.627100 0.148300
-4.607700 0.160300
-4.588300 0.170500
-4.568900 0.182000
-4.549500 0.197900
-4.530100 0.214900
-4.510700 0.231100
-4.491300 0.244900
-4.471900 0.257000
-4.452600 0.266200
-4.433200 0.278500
-4.413800 0.290900
-4.394400 0.303500
-4.375000 0.317000
-4.355600 0.330000
-4.336200 0.341400
-4.316800 0.353300
-4.297400 0.369600
-4.278000 0.385000
-4.258600 0.400400
-4.239200 0.416200
-4.219900 0.432700
-4.200500 0.449100
-4.181100 0.467100
-4.161700 0.489100
-4.142300 0.508600
-4.122900 0.527400
-4.103500 0.546300
-4.084100 0.565700
-4.064700 0.585600
-4.045300 0.609600
-4.025900 0.637800
-4.006500 0.668300
-3.987100 0.701500
-3.967800 0.734700
-3.948400 0.767300
-3.929000 0.810000
-3.909600 0.864800
-3.890200 0.914000
-3.870800 0.966100
-3.851400 1.031500
-3.832000 1.125900
-3.812600 1.236500
-3.793200 1.409100
-3.773800 1.751900
-3.754400 2.472600
-3.735100 2.733900
-3.715700 2.826600
-3.696300 2.647100
-3.676900 2.591500
-3.657500 2.490400
-3.638100 2.411100
-3.618700 2.330800
-3.599300 2.301700
-3.579900 2.228300
-3.560500 2.029300
-3.541100 1.893900
-3.521700 1.821900
-3.502300 1.746600
-3.483000 1.670600
-3.463600 1.633300
-3.444200 1.567400
-3.424800 1.475900
-3.405400 1.350500
-3.386000 1.290900
-3.366600 1.238900
-3.347200 1.263600
-3.327800 1.435600
-3.308400 1.591200
-3.289000 1.737800
-3.269600 1.916300
-3.250300 2.343600
-3.230900 2.984900
-3.211500 3.663800
-3.192100 4.715300
-3.172700 4.927100
-3.153300 5.186200
-3.133900 5.298800
-3.114500 5.807700
-3.095100 6.561100
-3.075700 6.298700
-3.056300 6.580600
-3.036900 6.582900
-3.017500 5.675300
-2.998200 5.668100
-2.978800 5.820900
-2.959400 6.502200
-2.940000 7.079000
-2.920600 6.867300
-2.901200 6.748800
-2.881800 6.584800
-2.862400 7.180800
-2.843000 8.808800
-2.823600 8.275500
-2.804200 7.895200
-2.784800 7.558300
-2.765500 7.131000
-2.746100 6.133500
-2.726700 5.182100
-2.707300 4.749000
-2.687900 4.381900
-2.668500 4.226600
-2.649100 4.170200
-2.629700 4.013100
-2.610300 3.835700
-2.590900 3.639500
-2.571500 3.440600
-2.552100 3.135600
-2.532800 2.957500
-2.513400 3.042400
-2.494000 3.101500
-2.474600 3.097200
-2.455200 3.083100
-2.435800 2.819400
-2.416400 2.669400
-2.397000 2.666800
-2.377600 2.840100
-2.358200 2.847600
-2.338800 2.808500
-2.319400 2.796400
-2.300000 2.777100
-2.280700 2.712100
-2.261300 2.696400
-2.241900 2.743900
-2.222500 2.900600
-2.203100 3.042200
-2.183700 3.195600
-2.164300 3.343400
-2.144900 3.339400
-2.125500 3.346100
-2.106100 3.339500
-2.086700 3.404000
-2.067300 3.502400
-2.048000 3.610100
-2.028600 3.736400
-2.009200 3.882900
-1.989800 4.097000
-1.970400 4.552700
-1.951000 5.381500
-1.931600 5.273300
-1.912200 4.320400
-1.892800 3.769300
-1.873400 3.499300
-1.854000 3.359400
-1.834600 3.628400
-1.815200 2.585300
-1.795900 2.929500
-1.776500 2.991400
-1.757100 3.138100
-1.737700 3.295700
-1.718300 3.036700
-1.698900 2.727300
-1.679500 2.477600
-1.660100 2.327400
-1.640700 2.266500
-1.621300 2.263800
-1.601900 2.281100
-1.582500 2.269200
-1.563200 2.162600
-1.543800 2.112200
-1.524400 2.093600
-1.505000 2.096700
-1.485600 2.177600
-1.466200 2.259400
-1.446800 2.313000
-1.427400 2.294100
-1.408000 2.341600
-1.388600 2.390300
-1.369200 2.437900
-1.349800 2.619300
-1.330400 2.779000
-1.311100 2.720700
-1.291700 2.609600
-1.272300 2.636700
-1.252900 2.690100
-1.233500 2.764100
-1.214100 2.856500
-1.194700 3.003100
-1.175300 3.128700
-1.155900 3.271900
-1.136500 3.349700
-1.117100 3.354000
-1.097700 3.258300
-1.078400 3.104100
-1.059000 3.024100
-1.039600 3.043000
-1.020200 3.011400
-1.000800 3.019700
-0.981400 3.044500
-0.962000 3.128700
-0.942600 3.306800
-0.923200 3.540500
-0.903800 3.880000
-0.884400 4.412600
-0.865000 3.611700
-0.845600 3.380200
-0.826300 3.311200
-0.806900 3.186300
-0.787500 3.054400
-0.768100 2.874100
-0.748700 2.771100
-0.729300 2.714800
-0.709900 2.647500
-0.690500 2.556100
-0.671100 2.489700
-0.651700 2.435400
-0.632300 2.392600
-0.612900 2.375400
-0.593600 2.438200
-0.574200 2.336800
-0.554800 2.222900
-0.535400 2.137300
-0.516000 2.057900
-0.496600 1.945000
-0.477200 1.806400
-0.457800 1.600300
-0.438400 1.469200
-0.419000 1.361000
-0.399600 1.268900
-0.380200 1.193100
-0.360800 1.129200
-0.341500 1.069700
-0.322100 1.016500
-0.302700 0.962700
-0.283300 0.905300
-0.263900 0.852100
-0.244500 0.807000
-0.225100 0.805400
-0.205700 0.764200
-0.186300 0.714700
-0.166900 0.645300
-0.147500 0.599100
-0.128100 0.546300
-0.108800 0.497400
-0.089400 0.454800
-0.070000 0.412300
-0.050600 0.370900
-0.031200 0.330200
-0.011800 0.290400
0.007600 0.252400
0.027000 0.221100
0.046400 0.190400
0.065800 0.166100
0.085200 0.150900
0.104600 0.141700
0.124000 0.140600
0.143300 0.158800
0.162700 0.227800
0.182100 0.347400
0.201500 0.586500
0.220900 0.841300
0.240300 1.076700
0.259700 1.299800
0.279100 1.574400
0.298500 1.944200
0.317900 2.157600
0.337300 2.150600
0.356700 2.115800
0.376000 2.187600
0.395400 2.298600
0.414800 2.427600
0.434200 2.621800
0.453600 3.502000
0.473000 3.548900
0.492400 3.096800
0.511800 3.095400
0.531200 3.087800
0.550600 3.058100
0.570000 3.052300
0.589400 3.032400
0.608800 3.006900
0.628100 2.991000
0.647500 2.921700
0.666900 2.913600
0.686300 3.001100
0.705700 3.095100
0.725100 3.145600
0.744500 3.238900
0.763900 3.323500
0.783300 3.412000
0.802700 3.487600
0.822100 3.799000
0.841500 4.082100
0.860800 4.100000
0.880200 4.183600
0.899600 4.061800
0.919000 4.186600
0.938400 4.199400
0.957800 4.358800
0.977200 4.663800
0.996600 5.137000
1.016000 4.917400
1.035400 4.607500
1.054800 4.448300
1.074200 4.518000
1.093600 5.477100
1.112900 7.093700
1.132300 7.076400
1.151700 7.588200
1.171100 8.391300
1.190500 8.076900
1.209900 7.697000
1.229300 7.178000
1.248700 5.975500
1.268100 6.364700
1.287500 6.976600
1.306900 8.033600
1.326300 9.226400
1.345600 8.882000
1.365000 8.636500
1.384400 9.939400
1.403800 8.978300
1.423200 7.872900
1.442600 7.346200
1.462000 7.333200
1.481400 8.492600
1.500800 6.452200
1.520200 7.463400
1.539600 10.050500
1.559000 8.057200
1.578300 7.355800
1.597700 7.549300
1.617100 7.636400
1.636500 7.868200
1.655900 8.878200
1.675300 9.497700
1.694700 10.428300
1.714100 10.709800
1.733500 8.956300
1.752900 10.009000
1.772300 11.754800
1.791700 12.439700
1.811100 12.360700
1.830400 15.687500
1.849800 12.599800
1.869200 10.400800
1.888600 7.908100
1.908000 6.800700
1.927400 6.191700
1.946800 5.703000
1.966200 5.229600
1.985600 4.894600
2.005000 4.856700
2.024400 5.257500
2.043800 5.121400
2.063100 5.507900
2.082500 6.499700
2.101900 6.571200
2.121300 7.368800
2.140700 8.753900
2.160100 8.966600
2.179500 7.344400
2.198900 6.739600
2.218300 5.300800
2.237700 3.639100
2.257100 3.306100
2.276500 3.514700
2.295900 4.027700
2.315200 6.161300
2.334600 7.689700
2.354000 7.130800
2.373400 7.740800
2.392800 7.100500
2.412200 6.624700
2.431600 6.441500
2.451000 6.858800
2.470400 6.404800
2.489800 6.109900
2.509200 5.480500
2.528600 5.308200
2.547900 5.112600
2.567300 4.737800
2.586700 4.322700
2.606100 3.911700
2.625500 3.657000
2.644900 3.418700
2.664300 3.589800
2.683700 2.852500
2.703100 1.909000
2.722500 1.700300
2.741900 1.571200
2.761300 1.469000
2.780700 1.408600
2.800000 1.396300
2.819400 1.400200
2.838800 1.425300
2.858200 1.453700
2.877600 1.484300
2.897000 1.513900
2.916400 1.539800
2.935800 1.556000
2.955200 1.613100
2.974600 1.673000
2.994000 1.892900
3.013400 1.889500
3.032700 1.881400
3.052100 1.855500
3.071500 1.817700
3.090900 1.801500
3.110300 1.834600
3.129700 1.879100
3.149100 1.883700
3.168500 1.900000
3.187900 1.908600
3.207300 1.905300
3.226700 1.834100
3.246100 1.758800
3.265500 1.717000
3.284800 1.723400
3.304200 1.726800
3.323600 1.758600
3.343000 1.884300
3.362400 1.998600
3.381800 2.141000
3.401200 2.123300
3.420600 1.811200
3.440000 1.626000
3.459400 1.548700
3.478800 1.476200
3.498200 1.409000
3.517500 1.365800
3.536900 1.438100
3.556300 1.585500
3.575700 1.516600
3.595100 1.357700
3.614500 1.144400
3.633900 0.933800
3.653300 0.678500
3.672700 0.628500
3.692100 0.658400
3.711500 0.766600
3.730900 0.958400
3.750300 1.270300
3.769600 1.312200
3.789000 1.254400
3.808400 1.116300
3.827800 0.969400
3.847200 0.880700
3.866600 0.869600
3.886000 0.841700
3.905400 0.799100
3.924800 0.750000
3.944200 0.791000
3.963600 0.834600
3.983000 0.881300
4.002300 0.930000
4.021700 0.981200
4.041100 1.038800
4.060500 1.094100
4.079900 1.146700
4.099300 1.198400
4.118700 1.265700
4.138100 1.332500
4.157500 1.403300
4.176900 1.485900
4.196300 1.615800
4.215700 1.711100
4.235100 1.849300
4.254400 2.032500
4.273800 2.267200
4.293200 2.540700
4.312600 2.786600
4.332000 2.741900
4.351400 2.736100
4.370800 2.727100
4.390200 2.671300
4.409600 2.547000
4.429000 2.181100
4.448400 2.042100
4.467800 1.943500
4.487100 1.871300
4.506500 1.815700
4.525900 1.766900
4.545300 1.766600
4.564700 1.828900
4.584100 1.955200
4.603500 2.081800
4.622900 2.343800
4.642300 2.244200
4.661700 2.226000
4.681100 2.234500
4.700500 2.260500
4.719900 2.294400
4.739200 2.410900
4.758600 2.576000
4.778000 2.577100
4.797400 2.492800
4.816800 2.342400
4.836200 2.022700
4.855600 1.909800
4.875000 1.838800
4.894400 1.815800
4.913800 1.841200
4.933200 1.873700
4.952600 1.913200
4.971900 1.952000
4.991300 1.990200
5.010700 2.026700
5.030100 2.062200
5.049500 2.113700
5.068900 2.172400
5.088300 2.233600
5.107700 2.308200
5.127100 2.409100
5.146500 2.555000
5.165900 2.803600
5.185300 3.171000
5.204600 3.584200
5.224000 4.138500
5.243400 4.954800
5.262800 5.791700
5.282200 5.904000
5.301600 5.298600
5.321000 4.592500
5.340400 4.066000
5.359800 3.554600
5.379200 2.961700
5.398600 2.580500
5.418000 2.278000
5.437400 1.980300
5.456700 1.714100
5.476100 1.410300
5.495500 1.148800
5.514900 1.023900
5.534300 0.904400
5.553700 0.745300
5.573100 0.585500
5.592500 0.520000
5.611900 0.486800
5.631300 0.454800
5.650700 0.420900
5.670100 0.387400
5.689400 0.357700
5.708800 0.338500
5.728200 0.322900
5.747600 0.305400
5.767000 0.284100
5.786400 0.267400
5.805800 0.248000
5.825200 0.228000
5.844600 0.178100
5.864000 0.134500
5.883400 0.091100
5.902800 0.066200
5.922200 0.070500
5.941500 0.074300
5.960900 0.077600
5.980300 0.080800
5.999700 0.083800
6.019100 0.086800
6.038500 0.089900
6.057900 0.093000
6.077300 0.096200
6.096700 0.099300
6.116100 0.102200
6.135500 0.105200
6.154900 0.108400
6.174200 0.111800
6.193600 0.115200
6.213000 0.118400
6.232400 0.121400
6.251800 0.124300
6.271200 0.127100
6.290600 0.129900
6.310000 0.132700
6.329400 0.135700
6.348800 0.138800
6.368200 0.142000
6.387600 0.145300
6.407000 0.148600
6.426300 0.152000
6.445700 0.155500
6.465100 0.158900
6.484500 0.162400
6.503900 0.165700
6.523300 0.169100
6.542700 0.172400
6.562100 0.175600
6.581500 0.178800
6.600900 0.182100
6.620300 0.185300
6.639700 0.188600
6.659000 0.192000
6.678400 0.195500
6.697800 0.199000
6.717200 0.202600
6.736600 0.206300
6.756000 0.210300
6.775400 0.215300
6.794800 0.221000
6.814200 0.227500
6.833600 0.234900
6.853000 0.242800
6.872400 0.251200
6.891800 0.259900
6.911100 0.267900
6.930500 0.275200
6.949900 0.281800
6.969300 0.287700
6.988700 0.293300
7.008100 0.299000
7.027500 0.304900
7.046900 0.311200
7.066300 0.318000
7.085700 0.325300
7.105100 0.332800
7.124500 0.340400
7.143800 0.347900
7.163200 0.355300
7.182600 0.362600
7.202000 0.369800
7.221400 0.377000
7.240800 0.384300
7.260200 0.391700
7.279600 0.399400
7.299000 0.407600
7.318400 0.416100
7.337800 0.425100
7.357200 0.434400
7.376600 0.443800
7.395900 0.458900
7.415300 0.476300
7.434700 0.493000
7.454100 0.504800
7.473500 0.509900
7.492900 0.515200
7.512300 0.521800
7.531700 0.531400
7.551100 0.541100
7.570500 0.551100
7.589900 0.561400
7.609300 0.572100
7.628600 0.582300
7.648000 0.593100
7.667400 0.604800
7.686800 0.618500
7.706200 0.632600
7.725600 0.646800
7.745000 0.661000
7.764400 0.675300
7.783800 0.690000
7.803200 0.705000
7.822600 0.720900
7.842000 0.738400
7.861400 0.763300
7.880700 0.793800
7.900100 0.827000
7.919500 0.855500
7.938900 0.880600
7.958300 0.909700
7.977700 0.946900
7.997100 0.991200
8.016500 1.039500
8.035900 1.091300
8.055300 1.172700
8.074700 1.334000
8.094100 1.513600
8.113400 1.759300
8.132800 2.260700
8.152200 2.842100
8.171600 2.566100
8.191000 2.548900
8.210400 2.556900
8.229800 2.498900
8.249200 2.604300
8.268600 2.663700
8.288000 2.699200
8.307400 2.990900
8.326800 3.005600
8.346200 2.203200
8.365500 2.041800
8.384900 1.842400
8.404300 1.765700
8.423700 1.706200
8.443100 1.636000
8.462500 1.565400
8.481900 1.494000
8.501300 1.431300
8.520700 1.541000
8.540100 1.336100
8.559500 1.226300
8.578900 1.155800
8.598200 1.089100
8.617600 1.030300
8.637000 1.013000
8.656400 1.000800
8.675800 0.997500
8.695200 0.957300
8.714600 0.887500
8.734000 0.807800
8.753400 0.737400
8.772800 0.700700
8.792200 0.667500
8.811600 0.635700
8.830900 0.606400
8.850300 0.579000
8.869700 0.563700
8.889100 0.526600
8.908500 0.509400
8.927900 0.493300
8.947300 0.479700
8.966700 0.471500
8.986100 0.453000
9.005500 0.465800
9.024900 0.420900
9.044300 0.397800
9.063700 0.378200
9.083000 0.373200
9.102400 0.384700
9.121800 0.397700
9.141200 0.410100
9.160600 0.427800
9.180000 0.442300
9.199400 0.458500
9.218800 0.475900
9.238200 0.495400
9.257600 0.515100
9.277000 0.680800
9.296400 0.656700
9.315700 0.720300
9.335100 0.702300
9.354500 0.758500
9.373900 0.805500
9.393300 0.855700
9.412700 0.849400
9.432100 0.846200
9.451500 0.863900
9.470900 0.879300
9.490300 0.895900
9.509700 0.922500
9.529100 0.951200
9.548500 0.981500
9.567800 1.014000
9.587200 1.044500
9.606600 1.145600
9.626000 1.323400
9.645400 1.492800
9.664800 1.555700
9.684200 1.608100
9.703600 1.627400
9.723000 1.635500
9.742400 1.663300
9.761800 1.689500
9.781200 1.702100
9.800500 1.700500
9.819900 1.697800
9.839300 1.683200
9.858700 1.676200
9.878100 1.679500
9.897500 1.678100
9.916900 1.673400
9.936300 1.663500
9.955700 1.661200
9.975100 1.659100
9.994500 1.657000
10.013900 1.651100
10.033300 1.641500
10.052600 1.643600
10.072000 1.665300
10.091400 1.698800
10.110800 1.717800
10.130200 1.686600
10.149600 1.650700
10.169000 1.619100
10.188400 1.595700
10.207800 1.541700
10.227200 1.377600
10.246600 1.241400
10.266000 1.187900
10.285300 1.151100
10.304700 1.110300
10.324100 1.068300
10.343500 1.016600
10.362900 0.966100
10.382300 0.923900
10.401700 0.895100
10.421100 0.872100
10.440500 0.848900
10.459900 0.820100
10.479300 0.800300
10.498700 0.778600
10.518100 0.745600
10.537400 0.699600
10.556800 0.652200
10.576200 0.603300
10.595600 0.559900
10.615000 0.525500
10.634400 0.492800
10.653800 0.463100
10.673200 0.442300
10.692600 0.425400
10.712000 0.410100
10.731400 0.396500
10.750800 0.384600
10.770100 0.374500
10.789500 0.364700
10.808900 0.355700
10.828300 0.347700
10.847700 0.340700
10.867100 0.334900
10.886500 0.332000
10.905900 0.330300
10.925300 0.331100
10.944700 0.332500
10.964100 0.333900
10.983500 0.334300
11.002900 0.335800
11.022200 0.339800
11.041600 0.348900
11.061000 0.357900
11.080400 0.366500
11.099800 0.374700
11.119200 0.382300
11.138600 0.389800
11.158000 0.397400
11.177400 0.405100
11.196800 0.411800
11.216200 0.417900
11.235600 0.422700
11.254900 0.427300
11.274300 0.432800
11.293700 0.438800
11.313100 0.443800
11.332500 0.450100
11.351900 0.457500
11.371300 0.464700
11.390700 0.471600
11.410100 0.478500
11.429500 0.485600
11.448900 0.493000
11.468300 0.500800
11.487700 0.507900
11.507000 0.513000
11.526400 0.518000
11.545800 0.523500
11.565200 0.530700
11.584600 0.538000
11.604000 0.542700
11.623400 0.544400
11.642800 0.545100
11.662200 0.545700
11.681600 0.547700
11.701000 0.552200
11.720400 0.555300
11.739700 0.554900
11.759100 0.552300
11.778500 0.549000
11.797900 0.545800
11.817300 0.543800
11.836700 0.543300
11.856100 0.544200
11.875500 0.544100
11.894900 0.544900
11.914300 0.549900
11.933700 0.557100
11.953100 0.565800
11.972500 0.576200
11.991800 0.588200
12.011200 0.602700
12.030600 0.620200
12.050000 0.640400
12.069400 0.634400
12.088800 0.618700
12.108200 0.615500
12.127600 0.611900
12.147000 0.609600
12.166400 0.608700
12.185800 0.605400
12.205200 0.603600
12.224500 0.603700
12.243900 0.603200
12.263300 0.601800
12.282700 0.599600
12.302100 0.596000
12.321500 0.589500
12.340900 0.584500
12.360300 0.580500
12.379700 0.578500
12.399100 0.578500
12.418500 0.579300
12.437900 0.580900
12.457300 0.583000
12.476600 0.585700
12.496000 0.589200
12.515400 0.593400
12.534800 0.596900
12.554200 0.600600
12.573600 0.604700
12.593000 0.618900
12.612400 0.641500
12.631800 0.666400
12.651200 0.685800
12.670600 0.698100
12.690000 0.704600
12.709300 0.710900
12.728700 0.721200
12.748100 0.735200
12.767500 0.749700
12.786900 0.764700
12.806300 0.779500
12.825700 0.793100
12.845100 0.807000
12.864500 0.822400
12.883900 0.839800
12.903300 0.859700
12.922700 0.877900
12.942000 0.892800
12.961400 0.904900
12.980800 0.917800
13.000200 0.931100
13.019600 0.945400
13.039000 0.964400
13.058400 0.987200
13.077800 1.000800
13.097200 1.013700
13.116600 1.025000
13.136000 1.038400
13.155400 1.056300
13.174800 1.076700
13.194100 1.103200
13.213500 1.129800
13.232900 1.151200
13.252300 1.175000
13.271700 1.192700
13.291100 1.213100
13.310500 1.224400
13.329900 1.224900
13.349300 1.220300
13.368700 1.209900
13.388100 1.197100
13.407500 1.184900
13.426800 1.180000
13.446200 1.177300
13.465600 1.176800
13.485000 1.174100
13.504400 1.173300
13.523800 1.170300
13.543200 1.165000
13.562600 1.159300
13.582000 1.154200
13.601400 1.150300
13.620800 1.146800
13.640200 1.143600
13.659600 1.140800
13.678900 1.138400
13.698300 1.137300
13.717700 1.139400
13.737100 1.142400
13.756500 1.144500
13.775900 1.144600
13.795300 1.144200
13.814700 1.144100
13.834100 1.143400
13.853500 1.140800
13.872900 1.138800
13.892300 1.138400
13.911600 1.138900
13.931000 1.138900
13.950400 1.138100
13.969800 1.137200
13.989200 1.132900
14.008600 1.127200
14.028000 1.120600
14.047400 1.113000
14.066800 1.103100
14.086200 1.091400
14.105600 1.079000
14.125000 1.068800
14.144400 1.061600
14.163700 1.055400
14.183100 1.049300
14.202500 1.044300
14.221900 1.039400
14.241300 1.033400
14.260700 1.023900
14.280100 1.014700
14.299500 1.008500
14.318900 1.003000
14.338300 0.998000
14.357700 0.994300
14.377100 0.992000
14.396400 0.990200
14.415800 0.995000
14.435200 0.997400
14.454600 1.005700
14.474000 1.009200
14.493400 1.014100
14.512800 1.019100
14.532200 1.024400
14.551600 1.030400
14.571000 1.037600
14.590400 1.051500
14.609800 1.061100
14.629200 1.073500
14.648500 1.088600
14.667900 1.102200
14.687300 1.111400
14.706700 1.127500
14.726100 1.133900
14.745500 1.145200
14.764900 1.160800
14.784300 1.178200
14.803700 1.198400
14.823100 1.218500
14.842500 1.247600
14.861900 1.274300
14.881200 1.300900
14.900600 1.344900
14.920000 1.392700
14.939400 1.491200
14.958800 1.511100
14.978200 1.607600
14.997600 1.651000
15.017000 1.644800
15.036400 1.661600
15.055800 1.756200
15.075200 2.046000
15.094600 2.353400
15.114000 2.500100
15.133300 2.224300
15.152700 2.246700
15.172100 2.280000
15.191500 2.221500
15.210900 2.102300
15.230300 2.183600
15.249700 2.431600
15.269100 2.508800
15.288500 2.651900
15.307900 2.724800
15.327300 2.827300
15.346700 2.911700
15.366000 3.060600
15.385400 3.081600
15.404800 3.432900
15.424200 3.139200
15.443600 2.990400
15.463000 2.756400
15.482400 2.611200
15.501800 2.520400
15.521200 2.405300
15.540600 2.293100
15.560000 2.263200
15.579400 2.228700
15.598800 2.199500
15.618100 2.151700
15.637500 2.113700
15.656900 2.115900
15.676300 2.102800
15.695700 2.127200
15.715100 2.132500
15.734500 2.137600
15.753900 2.140100
15.773300 2.130600
15.792700 2.100300
15.812100 2.075500
15.831500 2.107500
15.850800 2.112100
15.870200 2.095600
15.889600 2.078200
15.909000 2.070700
15.928400 2.056300
15.947800 2.023000
15.967200 1.961700
15.986600 1.885500
16.006000 1.841700
16.025400 1.816900
16.044800 1.731300
16.064200 1.679400
16.083600 1.590200
16.102900 1.502000
16.122300 1.391300
16.141700 1.334100
16.161100 1.282400
16.180500 1.258100
16.199900 1.226800
16.219300 1.196200
16.238700 1.162300
16.258100 1.132400
16.277500 1.159100
16.296900 1.125200
16.316300 1.117600
16.335600 1.048000
16.355000 1.011200
16.374400 0.993500
16.393800 0.979100
16.413200 1.004100
16.432600 1.057700
16.452000 1.107000
16.471400 1.157900
16.490800 1.123500
16.510200 1.107700
16.529600 1.093400
16.549000 1.054100
16.568300 1.055000
16.587700 1.058500
16.607100 1.060500
16.626500 1.058400
16.645900 1.044300
16.665300 1.036500
16.684700 1.030400
16.704100 1.024100
16.723500 1.015800
16.742900 1.011800
16.762300 1.005400
16.781700 0.985100
16.801100 0.975600
16.820400 0.966600
16.839800 0.958200
16.859200 0.950000
16.878600 0.942300
16.898000 0.936800
16.917400 0.932700
16.936800 0.930000
16.956200 0.926800
16.975600 0.924400
16.995000 0.921700
17.014400 0.920400
17.033800 0.918900
17.053100 0.917600
17.072500 0.916500
17.091900 0.914800
17.111300 0.911000
17.130700 0.905600
17.150100 0.908300
17.169500 0.906300
17.188900 0.905800
17.208300 0.906400
17.227700 0.908100
17.247100 0.911600
17.266500 0.915200
17.285900 0.918600
17.305200 0.916500
17.324600 0.911100
17.344000 0.908700
17.363400 0.907700
17.382800 0.906600
17.402200 0.905900
17.421600 0.903700
17.441000 0.901500
17.460400 0.897500
17.479800 0.893500
17.499200 0.892900
17.518600 0.874000
17.537900 0.868600
17.557300 0.858500
17.576700 0.862700
17.596100 0.867900
17.615500 0.873000
17.634900 0.879400
17.654300 0.890100
17.673700 0.910700
17.693100 0.970800
17.712500 0.999800
17.731900 0.994700
17.751300 0.948000
17.770700 0.911100
17.790000 0.868800
17.809400 0.821100
17.828800 0.776400
17.848200 0.711900
17.867600 0.655000
17.887000 0.628200
17.906400 0.602300
17.925800 0.576800
17.945200 0.550800
17.964600 0.526200
17.984000 0.505000
18.003400 0.494200
18.022700 0.500100
18.042100 0.485700
18.061500 0.468000
18.080900 0.445100
18.100300 0.425900
18.119700 0.417000
18.139100 0.407100
18.158500 0.399900
18.177900 0.392900
18.197300 0.385600
18.216700 0.377600
18.236100 0.368500
18.255500 0.357500
18.274800 0.344800
18.294200 0.327800
18.313600 0.308300
18.333000 0.292500
18.352400 0.298200
18.371800 0.305400
18.391200 0.306100
18.410600 0.311000
18.430000 0.313100
18.449400 0.289500
18.468800 0.278100
18.488200 0.244100
18.507500 0.216400
18.526900 0.192400
18.546300 0.171900
18.565700 0.155100
18.585100 0.141000
18.604500 0.128400
18.623900 0.117200
18.643300 0.107500
18.662700 0.098500
18.682100 0.089300
18.701500 0.080700
18.720900 0.072600
18.740300 0.065100
18.759600 0.058200
18.779000 0.052100
18.798400 0.046400
18.817800 0.040100
18.837200 0.033700
18.856600 0.027300
18.876000 0.020900
18.895400 0.015400
18.914800 0.010000
18.934200 0.005700
18.953600 0.002600
18.973000 0.000700
18.992300 0.000000
19.011700 0.000000
19.031100 0.000000
19.050500 0.000000
19.069900 0.000000
19.089300 0.000000
19.108700 0.000000
19.128100 0.000000
19.147500 0.000000
19.166900 0.000000
19.186300 0.000000
19.205700 0.000000
19.225100 0.000000
19.244400 0.000000
19.263800 0.000000
19.283200 0.000000
19.302600 0.000000
19.322000 0.000000
19.341400 0.000000
19.360800 0.000000
19.380200 0.000000
19.399600 0.000000
19.419000 0.000000
19.438400 0.000000
19.457800 0.000000
19.477100 0.000000
19.496500 0.000000
19.515900 0.000000
19.535300 0.000000
19.554700 0.000000
19.574100 0.000000
19.593500 0.000000
19.612900 0.000000
19.632300 0.000000
19.651700 0.000000
19.671100 0.000000
19.690500 0.000000
19.709900 0.000000
19.729200 0.000000
19.748600 0.000000
19.768000 0.000000
19.787400 0.000000
19.806800 0.000000
19.826200 0.000000
19.845600 0.000000
19.865000 0.000000
19.884400 0.000000
19.903800 0.000000
19.923200 0.000000
19.942600 0.000000
19.961900 0.000000
19.981300 0.000000
20.000700 0.000000
20.020100 0.000000
20.039500 0.000000
20.058900 0.000000
20.078300 0.000000
20.097700 0.000000
20.117100 0.000000
20.136500 0.000000
20.155900 0.000000
20.175300 0.000000
20.194600 0.000000
20.214000 0.000000
20.233400 0.000000
20.252800 0.000000
20.272200 0.000000
20.291600 0.000000
20.311000 0.000000
20.330400 0.000000
20.349800 0.000000
20.369200 0.000000
20.388600 0.000000
20.408000 0.000000
20.427400 0.000000
20.446700 0.000000
20.466100 0.000000
20.485500 0.000000
20.504900 0.000000
20.524300 0.000000
20.543700 0.000000
20.563100 0.000000
20.582500 0.000000
20.601900 0.000000
20.621300 0.000000
20.640700 0.000000
20.660100 0.000000
20.679400 0.000000
20.698800 0.000000
20.718200 0.000000
20.737600 0.000000
20.757000 0.000000
e
