set title 'mp-1214760 - Density of States'
set xlabel 'Energy (eV)'
set ylabel 'DOS (states/eV)'
set grid
set xrange [-10:10]
set yrange [0:269.479]
set xzeroaxis lt -1
set terminal png size 800,600
set output 'mp-1214760_dos_gnuplot.png'
plot '-' using 1:2 with lines title 'DOS'
-13.010400 0.000000
-12.996800 0.000000
-12.983300 0.000000
-12.969700 0.000000
-12.956100 0.000000
-12.942600 0.000000
-12.929000 0.000000
-12.915500 0.000000
-12.901900 0.000000
-12.888400 0.000000
-12.874800 0.000000
-12.861200 0.000000
-12.847700 0.000000
-12.834100 0.000000
-12.820600 0.000000
-12.807000 0.000000
-12.793400 0.000000
-12.779900 0.000000
-12.766300 0.000000
-12.752800 0.000000
-12.739200 0.000000
-12.725700 0.000000
-12.712100 0.000000
-12.698500 0.000000
-12.685000 0.000000
-12.671400 0.000000
-12.657900 0.000000
-12.644300 0.000000
-12.630700 0.000000
-12.617200 0.000000
-12.603600 0.000000
-12.590100 0.000000
-12.576500 0.000000
-12.563000 0.000000
-12.549400 0.000000
-12.535800 0.000000
-12.522300 0.000000
-12.508700 0.000000
-12.495200 0.000000
-12.481600 0.000000
-12.468100 0.000000
-12.454500 0.000000
-12.440900 0.000000
-12.427400 0.000000
-12.413800 0.000000
-12.400300 0.000000
-12.386700 0.000000
-12.373100 0.000000
-12.359600 0.000000
-12.346000 0.000000
-12.332500 0.000000
-12.318900 0.000000
-12.305400 0.000000
-12.291800 0.000000
-12.278200 0.000000
-12.264700 0.000000
-12.251100 0.000000
-12.237600 0.000000
-12.224000 0.000000
-12.210400 0.000000
-12.196900 0.000000
-12.183300 0.000000
-12.169800 0.000000
-12.156200 0.000000
-12.142700 0.000000
-12.129100 0.000000
-12.115500 0.000000
-12.102000 0.000000
-12.088400 0.000000
-12.074900 0.000000
-12.061300 0.000000
-12.047700 0.000000
-12.034200 0.000000
-12.020600 0.000000
-12.007100 0.000000
-11.993500 0.000000
-11.980000 0.000000
-11.966400 0.000000
-11.952800 0.000000
-11.939300 0.000000
-11.925700 0.000000
-11.912200 0.000000
-11.898600 0.000000
-11.885000 0.000000
-11.871500 0.000000
-11.857900 0.000000
-11.844400 0.000000
-11.830800 0.000000
-11.817300 0.000000
-11.803700 0.000000
-11.790100 0.000000
-11.776600 0.006900
-11.763000 1.121700
-11.749500 2.875500
-11.735900 2.966300
-11.722400 4.559100
-11.708800 5.579300
-11.695200 5.427100
-11.681700 5.502400
-11.668100 5.705100
-11.654600 5.961100
-11.641000 5.956700
-11.627400 6.116100
-11.613900 6.360300
-11.600300 6.613900
-11.586800 6.866200
-11.573200 7.133500
-11.559700 7.381200
-11.546100 7.639300
-11.532500 7.937800
-11.519000 8.576900
-11.505400 9.292700
-11.491900 9.824400
-11.478300 10.579300
-11.464700 14.512100
-11.451200 14.417600
-11.437600 16.825700
-11.424100 19.312300
-11.410500 25.043800
-11.397000 24.006900
-11.383400 27.486000
-11.369800 40.707200
-11.356300 28.927000
-11.342700 29.569400
-11.329200 40.227800
-11.315600 26.997000
-11.302000 25.005000
-11.288500 22.479700
-11.274900 20.157600
-11.261400 18.624600
-11.247800 16.470700
-11.234300 16.119100
-11.220700 8.852000
-11.207100 8.223500
-11.193600 6.497200
-11.180000 0.000000
-11.166500 0.000000
-11.152900 0.000000
-11.139400 0.000000
-11.125800 0.000000
-11.112200 0.000000
-11.098700 0.000000
-11.085100 0.000000
-11.071600 0.000000
-11.058000 0.000000
-11.044400 0.000000
-11.030900 0.000000
-11.017300 0.000000
-11.003800 0.000000
-10.990200 0.000000
-10.976700 0.000000
-10.963100 0.000000
-10.949500 0.000000
-10.936000 0.000000
-10.922400 0.000000
-10.908900 0.000000
-10.895300 0.000000
-10.881700 0.000000
-10.868200 0.000000
-10.854600 0.000000
-10.841100 0.000000
-10.827500 0.000000
-10.814000 0.000000
-10.800400 0.000000
-10.786800 0.000000
-10.773300 0.000000
-10.759700 0.000000
-10.746200 0.000000
-10.732600 0.000000
-10.719000 0.000000
-10.705500 0.000000
-10.691900 0.000000
-10.678400 0.000000
-10.664800 0.000000
-10.651300 0.000000
-10.637700 0.000000
-10.624100 0.000000
-10.610600 0.000000
-10.597000 0.000000
-10.583500 0.000000
-10.569900 0.000000
-10.556300 0.000000
-10.542800 0.000000
-10.529200 0.000000
-10.515700 0.000000
-10.502100 0.000000
-10.488600 0.000000
-10.475000 0.000000
-10.461400 0.000000
-10.447900 0.000000
-10.434300 0.000000
-10.420800 0.000000
-10.407200 0.000000
-10.393700 0.000000
-10.380100 0.000000
-10.366500 0.000000
-10.353000 0.000000
-10.339400 0.000000
-10.325900 0.000000
-10.312300 0.000000
-10.298700 0.000000
-10.285200 0.000000
-10.271600 0.000000
-10.258100 0.000000
-10.244500 0.000000
-10.231000 0.000000
-10.217400 0.000000
-10.203800 0.000000
-10.190300 0.000000
-10.176700 0.000000
-10.163200 0.000000
-10.149600 0.000000
-10.136000 0.000000
-10.122500 0.000000
-10.108900 0.000000
-10.095400 0.000000
-10.081800 0.000000
-10.068300 0.000000
-10.054700 0.000000
-10.041100 0.000000
-10.027600 0.000000
-10.014000 0.000000
-10.000500 0.000000
-9.986900 0.000000
-9.973300 0.000000
-9.959800 0.000000
-9.946200 0.000000
-9.932700 0.000000
-9.919100 0.000000
-9.905600 0.000000
-9.892000 0.000000
-9.878400 0.000000
-9.864900 0.000000
-9.851300 0.000000
-9.837800 0.000000
-9.824200 0.000000
-9.810700 0.000000
-9.797100 0.000000
-9.783500 0.000000
-9.770000 0.000000
-9.756400 0.000000
-9.742900 0.000000
-9.729300 0.000000
-9.715700 0.000000
-9.702200 0.000000
-9.688600 0.000000
-9.675100 0.000000
-9.661500 0.000000
-9.648000 0.000000
-9.634400 0.000000
-9.620800 0.000000
-9.607300 0.000000
-9.593700 0.000000
-9.580200 0.000000
-9.566600 0.000000
-9.553000 0.000000
-9.539500 0.000000
-9.525900 0.000000
-9.512400 0.000000
-9.498800 0.000000
-9.485300 0.000000
-9.471700 0.000000
-9.458100 0.000000
-9.444600 0.000000
-9.431000 0.000000
-9.417500 0.000000
-9.403900 0.000000
-9.390300 0.000000
-9.376800 0.000000
-9.363200 0.000000
-9.349700 0.000000
-9.336100 0.000000
-9.322600 0.000000
-9.309000 0.000000
-9.295400 0.000000
-9.281900 0.000000
-9.268300 0.000000
-9.254800 0.000000
-9.241200 0.000000
-9.227600 0.000000
-9.214100 0.000000
-9.200500 0.000000
-9.187000 0.000000
-9.173400 0.000000
-9.159900 0.000000
-9.146300 0.000000
-9.132700 0.000000
-9.119200 0.000000
-9.105600 0.000000
-9.092100 0.000000
-9.078500 0.000000
-9.065000 0.000000
-9.051400 0.000000
-9.037800 0.000000
-9.024300 0.000000
-9.010700 0.000000
-8.997200 0.000000
-8.983600 0.000000
-8.970000 0.000000
-8.956500 0.000000
-8.942900 0.000000
-8.929400 0.000000
-8.915800 0.000000
-8.902300 0.000000
-8.888700 0.000000
-8.875100 0.000000
-8.861600 0.000000
-8.848000 0.000000
-8.834500 0.000000
-8.820900 0.000000
-8.807300 0.000000
-8.793800 0.000000
-8.780200 0.000000
-8.766700 0.000000
-8.753100 0.000000
-8.739600 0.000000
-8.726000 0.000000
-8.712400 0.000000
-8.698900 0.000000
-8.685300 0.000000
-8.671800 0.000000
-8.658200 0.000000
-8.644600 0.000000
-8.631100 0.000000
-8.617500 0.000000
-8.604000 0.000000
-8.590400 0.000000
-8.576900 0.000000
-8.563300 0.000000
-8.549700 0.000000
-8.536200 0.000000
-8.522600 0.000000
-8.509100 0.000000
-8.495500 0.000000
-8.482000 0.000000
-8.468400 0.000000
-8.454800 0.000000
-8.441300 0.000000
-8.427700 0.000000
-8.414200 0.000000
-8.400600 0.000000
-8.387000 0.000000
-8.373500 0.000000
-8.359900 0.000000
-8.346400 0.000000
-8.332800 0.000000
-8.319300 0.000000
-8.305700 0.000000
-8.292100 0.000000
-8.278600 0.000000
-8.265000 0.000000
-8.251500 0.000000
-8.237900 0.000000
-8.224300 0.000000
-8.210800 0.000000
-8.197200 0.000000
-8.183700 0.000000
-8.170100 0.000000
-8.156600 0.000000
-8.143000 0.000000
-8.129400 0.000000
-8.115900 0.000000
-8.102300 0.000000
-8.088800 0.000000
-8.075200 0.000000
-8.061600 0.000000
-8.048100 0.000000
-8.034500 0.000000
-8.021000 0.000000
-8.007400 0.000000
-7.993900 0.000000
-7.980300 0.000000
-7.966700 0.000000
-7.953200 0.000000
-7.939600 0.000000
-7.926100 0.000000
-7.912500 0.000000
-7.898900 0.000000
-7.885400 0.000000
-7.871800 0.000000
-7.858300 0.000000
-7.844700 0.000000
-7.831200 0.000000
-7.817600 0.000000
-7.804000 0.000000
-7.790500 0.000000
-7.776900 0.000000
-7.763400 0.000000
-7.749800 0.000000
-7.736300 0.000000
-7.722700 0.000000
-7.709100 0.000000
-7.695600 0.000000
-7.682000 0.000000
-7.668500 0.000000
-7.654900 0.000000
-7.641300 0.000000
-7.627800 0.000000
-7.614200 0.000000
-7.600700 0.000000
-7.587100 0.000000
-7.573600 0.000000
-7.560000 0.000000
-7.546400 0.000000
-7.532900 0.000000
-7.519300 0.000000
-7.505800 0.000000
-7.492200 0.000000
-7.478600 0.000000
-7.465100 0.000000
-7.451500 0.000000
-7.438000 0.000000
-7.424400 0.000000
-7.410900 0.000000
-7.397300 0.000000
-7.383700 0.000000
-7.370200 0.000000
-7.356600 0.000000
-7.343100 0.000000
-7.329500 0.000000
-7.315900 0.000000
-7.302400 0.000000
-7.288800 0.000000
-7.275300 0.000000
-7.261700 0.000000
-7.248200 0.000000
-7.234600 0.000000
-7.221000 0.000000
-7.207500 0.000000
-7.193900 0.000000
-7.180400 0.000000
-7.166800 0.000000
-7.153300 0.000000
-7.139700 0.000000
-7.126100 0.000000
-7.112600 0.000000
-7.099000 0.000000
-7.085500 0.000000
-7.071900 0.000000
-7.058300 0.000000
-7.044800 0.000000
-7.031200 0.000000
-7.017700 0.000000
-7.004100 0.000000
-6.990600 0.000000
-6.977000 0.000000
-6.963400 0.000000
-6.949900 0.000000
-6.936300 0.000000
-6.922800 0.000000
-6.909200 0.000000
-6.895600 0.000000
-6.882100 0.000000
-6.868500 0.000000
-6.855000 0.000000
-6.841400 0.000000
-6.827900 0.000000
-6.814300 0.000000
-6.800700 0.000000
-6.787200 0.000000
-6.773600 0.000000
-6.760100 0.000000
-6.746500 0.000000
-6.732900 0.000000
-6.719400 0.000000
-6.705800 0.000000
-6.692300 0.000000
-6.678700 0.000000
-6.665200 0.000000
-6.651600 0.000000
-6.638000 0.000000
-6.624500 0.000000
-6.610900 0.000000
-6.597400 0.000000
-6.583800 0.000000
-6.570200 0.000000
-6.556700 0.000000
-6.543100 0.000000
-6.529600 0.000000
-6.516000 0.000000
-6.502500 0.000000
-6.488900 0.000000
-6.475300 0.000000
-6.461800 0.000000
-6.448200 0.000000
-6.434700 0.000000
-6.421100 0.000000
-6.407600 0.000000
-6.394000 0.000000
-6.380400 0.000000
-6.366900 0.000000
-6.353300 0.000000
-6.339800 0.000000
-6.326200 0.000000
-6.312600 0.000000
-6.299100 0.000000
-6.285500 0.000000
-6.272000 0.000000
-6.258400 0.000000
-6.244900 0.000000
-6.231300 0.000000
-6.217700 0.000000
-6.204200 0.000000
-6.190600 0.000000
-6.177100 0.000000
-6.163500 0.000000
-6.149900 0.000000
-6.136400 0.000000
-6.122800 0.000000
-6.109300 0.000000
-6.095700 0.000000
-6.082200 0.000000
-6.068600 0.000000
-6.055000 0.000000
-6.041500 0.000000
-6.027900 0.000000
-6.014400 0.000000
-6.000800 0.000000
-5.987200 0.000000
-5.973700 0.000000
-5.960100 0.000000
-5.946600 0.000000
-5.933000 0.000000
-5.919500 0.000000
-5.905900 0.000000
-5.892300 0.000000
-5.878800 0.000000
-5.865200 0.000000
-5.851700 0.000000
-5.838100 0.000000
-5.824600 0.000000
-5.811000 0.000000
-5.797400 0.000000
-5.783900 0.000000
-5.770300 0.000000
-5.756800 0.000000
-5.743200 0.000000
-5.729600 0.000000
-5.716100 0.000000
-5.702500 0.000000
-5.689000 0.000000
-5.675400 0.000000
-5.661900 0.000000
-5.648300 0.000000
-5.634700 0.000000
-5.621200 0.000000
-5.607600 0.000000
-5.594100 0.000000
-5.580500 0.000000
-5.566900 0.000000
-5.553400 0.000000
-5.539800 0.000000
-5.526300 0.000000
-5.512700 0.000000
-5.499200 0.000000
-5.485600 0.000000
-5.472000 0.000000
-5.458500 0.000000
-5.444900 0.000000
-5.431400 0.000000
-5.417800 0.000000
-5.404200 0.000000
-5.390700 0.000000
-5.377100 0.000000
-5.363600 0.000000
-5.350000 0.000000
-5.336500 0.000000
-5.322900 0.000000
-5.309300 0.000000
-5.295800 0.000000
-5.282200 0.000000
-5.268700 0.000000
-5.255100 0.000000
-5.241500 0.000000
-5.228000 0.000000
-5.214400 0.000000
-5.200900 0.000000
-5.187300 0.000000
-5.173800 0.000000
-5.160200 0.000000
-5.146600 0.000000
-5.133100 0.000000
-5.119500 0.000000
-5.106000 0.000000
-5.092400 0.000000
-5.078900 0.000000
-5.065300 0.000000
-5.051700 0.000000
-5.038200 0.000000
-5.024600 0.000000
-5.011100 0.000000
-4.997500 0.000000
-4.983900 0.000000
-4.970400 0.000000
-4.956800 0.000000
-4.943300 0.000000
-4.929700 0.000000
-4.916200 0.000000
-4.902600 0.000000
-4.889000 0.000000
-4.875500 0.000000
-4.861900 0.000000
-4.848400 0.000000
-4.834800 0.000000
-4.821200 0.000000
-4.807700 0.000000
-4.794100 0.000000
-4.780600 0.000000
-4.767000 0.000000
-4.753500 0.000000
-4.739900 0.000000
-4.726300 0.000000
-4.712800 0.000000
-4.699200 0.000000
-4.685700 0.000000
-4.672100 0.000000
-4.658500 0.000000
-4.645000 0.000000
-4.631400 0.000000
-4.617900 0.000000
-4.604300 0.000000
-4.590800 0.000000
-4.577200 0.000000
-4.563600 0.000000
-4.550100 0.000000
-4.536500 0.000000
-4.523000 0.000000
-4.509400 0.000000
-4.495800 0.000000
-4.482300 0.000000
-4.468700 0.000000
-4.455200 0.000000
-4.441600 0.000000
-4.428100 0.000000
-4.414500 0.000000
-4.400900 0.000000
-4.387400 0.000000
-4.373800 0.000000
-4.360300 0.000000
-4.346700 0.000000
-4.333200 0.000000
-4.319600 0.000000
-4.306000 0.000000
-4.292500 0.000000
-4.278900 0.000000
-4.265400 0.000000
-4.251800 0.000000
-4.238200 0.000000
-4.224700 0.000000
-4.211100 0.000000
-4.197600 0.000000
-4.184000 0.000000
-4.170500 0.000000
-4.156900 1.532100
-4.143300 4.593500
-4.129800 4.058000
-4.116200 4.634900
-4.102700 4.693700
-4.089100 4.357400
-4.075500 4.465600
-4.062000 4.583800
-4.048400 4.751600
-4.034900 4.984400
-4.021300 5.075300
-4.007800 5.141900
-3.994200 5.227300
-3.980600 5.336300
-3.967100 5.458300
-3.953500 5.622300
-3.940000 5.793300
-3.926400 6.082700
-3.912800 6.310200
-3.899300 6.619100
-3.885700 6.884400
-3.872200 7.151300
-3.858600 7.425300
-3.845100 8.063400
-3.831500 9.537000
-3.817900 10.361600
-3.804400 10.797000
-3.790800 10.525300
-3.777300 10.598200
-3.763700 9.287900
-3.750200 8.086100
-3.736600 7.343600
-3.723000 6.708800
-3.709500 6.436900
-3.695900 6.145300
-3.682400 5.854500
-3.668800 5.543100
-3.655200 5.262700
-3.641700 5.043600
-3.628100 4.857800
-3.614600 4.672000
-3.601000 4.548300
-3.587500 4.549700
-3.573900 4.449400
-3.560300 4.248000
-3.546800 3.956700
-3.533200 3.665700
-3.519700 4.240600
-3.506100 5.268900
-3.492500 3.320800
-3.479000 0.938800
-3.465400 9.954300
-3.451900 17.224300
-3.438300 17.347100
-3.424800 18.678200
-3.411200 20.037000
-3.397600 23.119100
-3.384100 26.926900
-3.370500 22.322800
-3.357000 18.326000
-3.343400 15.931400
-3.329800 15.503600
-3.316300 15.141000
-3.302700 15.109300
-3.289200 15.084100
-3.275600 15.314000
-3.262100 14.510500
-3.248500 13.758400
-3.234900 12.932800
-3.221400 12.490100
-3.207800 13.034200
-3.194300 13.379100
-3.180700 13.643100
-3.167100 14.171400
-3.153600 15.420200
-3.140000 16.016900
-3.126500 15.377000
-3.112900 15.951300
-3.099400 15.707800
-3.085800 17.356500
-3.072200 11.927000
-3.058700 13.619800
-3.045100 9.446800
-3.031600 9.483900
-3.018000 15.621900
-3.004500 28.108400
-2.990900 20.772000
-2.977300 21.335400
-2.963800 20.391700
-2.950200 21.436200
-2.936700 20.946800
-2.923100 18.872900
-2.909500 16.780400
-2.896000 38.193300
-2.882400 11.289700
-2.868900 10.695100
-2.855300 10.038600
-2.841800 10.824500
-2.828200 244.980600
-2.814600 14.313600
-2.801100 10.787600
-2.787500 23.043000
-2.774000 14.788000
-2.760400 18.617000
-2.746800 7.769900
-2.733300 1.164400
-2.719700 4.376300
-2.706200 11.948200
-2.692600 11.404300
-2.679100 16.109500
-2.665500 11.543900
-2.651900 11.195000
-2.638400 13.877900
-2.624800 16.701200
-2.611300 12.616500
-2.597700 10.887800
-2.584100 8.103500
-2.570600 7.463700
-2.557000 7.570500
-2.543500 8.347500
-2.529900 9.403600
-2.516400 10.548100
-2.502800 12.043400
-2.489200 11.157400
-2.475700 10.722900
-2.462100 10.809300
-2.448600 8.076000
-2.435000 6.118000
-2.421500 4.928300
-2.407900 3.016100
-2.394300 2.959400
-2.380800 2.919400
-2.367200 11.074400
-2.353700 25.860100
-2.340100 30.617600
-2.326500 25.055100
-2.313000 18.396200
-2.299400 16.187800
-2.285900 15.775600
-2.272300 15.501800
-2.258800 15.500300
-2.245200 16.908200
-2.231600 16.540200
-2.218100 16.570900
-2.204500 21.077800
-2.191000 19.211800
-2.177400 13.769900
-2.163800 8.662300
-2.150300 8.428900
-2.136700 7.676200
-2.123200 5.856000
-2.109600 4.145100
-2.096100 3.612400
-2.082500 2.965900
-2.068900 2.493200
-2.055400 2.062600
-2.041800 1.673200
-2.028300 1.524700
-2.014700 1.457000
-2.001100 1.389300
-1.987600 1.321600
-1.974000 1.357600
-1.960500 1.564500
-1.946900 2.039000
-1.933400 2.054400
-1.919800 2.069600
-1.906200 2.084700
-1.892700 2.000800
-1.879100 4.557500
-1.865600 0.885500
-1.852000 0.926100
-1.838400 0.966800
-1.824900 1.355000
-1.811300 1.633900
-1.797800 1.934700
-1.784200 2.198200
-1.770700 2.336300
-1.757100 2.474400
-1.743500 2.385600
-1.730000 2.390000
-1.716400 2.383700
-1.702900 2.412800
-1.689300 2.495100
-1.675800 2.568300
-1.662200 2.661700
-1.648600 2.749500
-1.635100 2.836800
-1.621500 2.921500
-1.608000 3.002500
-1.594400 3.080600
-1.580800 3.154800
-1.567300 3.197900
-1.553700 3.261200
-1.540200 3.327800
-1.526600 3.401600
-1.513100 3.483200
-1.499500 3.606500
-1.485900 3.802900
-1.472400 4.084700
-1.458800 4.371700
-1.445300 4.566400
-1.431700 4.762900
-1.418100 4.961300
-1.404600 5.437400
-1.391000 6.110400
-1.377500 7.154800
-1.363900 6.369200
-1.350400 6.677900
-1.336800 7.163700
-1.323200 8.404200
-1.309700 9.194400
-1.296100 9.239400
-1.282600 8.476100
-1.269000 5.832000
-1.255400 5.494000
-1.241900 8.233100
-1.228300 6.935300
-1.214800 3.265100
-1.201200 2.956900
-1.187700 2.549800
-1.174100 2.526000
-1.160500 2.552200
-1.147000 2.588100
-1.133400 2.217500
-1.119900 4.584700
-1.106300 4.824400
-1.092800 2.738500
-1.079200 2.731300
-1.065600 2.724000
-1.052100 2.716700
-1.038500 4.936300
-1.025000 5.154000
-1.011400 5.388100
-0.997800 3.555800
-0.984300 3.570500
-0.970700 3.585100
-0.957200 3.600000
-0.943600 3.617400
-0.930100 3.639800
-0.916500 3.851900
-0.902900 4.128500
-0.889400 3.611300
-0.875800 3.634600
-0.862300 3.649900
-0.848700 4.813600
-0.835100 3.902700
-0.821600 3.496600
-0.808000 3.499100
-0.794500 3.504200
-0.780900 3.494900
-0.767400 3.479200
-0.753800 3.477300
-0.740200 3.475600
-0.726700 3.474000
-0.713100 3.472400
-0.699600 4.437600
-0.686000 5.504800
-0.672400 6.117300
-0.658900 6.343500
-0.645300 6.613800
-0.631800 5.276800
-0.618200 5.689400
-0.604700 5.818400
-0.591100 6.151600
-0.577500 6.545400
-0.564000 7.796200
-0.550400 7.777200
-0.536900 8.004000
-0.523300 8.363900
-0.509700 9.987000
-0.496200 9.043200
-0.482600 8.587800
-0.469100 8.726900
-0.455500 8.990500
-0.442000 9.209700
-0.428400 10.143100
-0.414800 9.588100
-0.401300 10.352800
-0.387700 11.427000
-0.374200 12.892400
-0.360600 13.887000
-0.347100 15.710200
-0.333500 12.528900
-0.319900 11.529300
-0.306400 11.062700
-0.292800 9.949800
-0.279300 9.469400
-0.265700 9.643900
-0.252100 9.658200
-0.238600 10.340900
-0.225000 10.519400
-0.211500 10.088700
-0.197900 10.203300
-0.184400 10.066500
-0.170800 9.519500
-0.157200 9.195400
-0.143700 10.194200
-0.130100 11.839000
-0.116600 12.570500
-0.103000 12.567200
-0.089400 11.749500
-0.075900 11.345300
-0.062300 11.391800
-0.048800 11.673600
-0.035200 12.132700
-0.021700 12.484100
-0.008100 12.984000
0.005500 13.059500
0.019000 12.831100
0.032600 12.245500
0.046100 12.627100
0.059700 11.926300
0.073300 10.692900
0.086800 10.285800
0.100400 9.935500
0.113900 10.211000
0.127500 10.853100
0.141000 11.497100
0.154600 10.272100
0.168200 11.202000
0.181700 11.465900
0.195300 11.013500
0.208800 11.036700
0.222400 10.589900
0.235900 10.109800
0.249500 9.422600
0.263100 8.875000
0.276600 8.803600
0.290200 9.253400
0.303700 8.529000
0.317300 8.075800
0.330900 8.388800
0.344400 8.503600
0.358000 8.641400
0.371500 9.779800
0.385100 9.618500
0.398600 9.752700
0.412200 9.736000
0.425800 9.544200
0.439300 9.383400
0.452900 9.266500
0.466400 8.662100
0.480000 8.205400
0.493600 7.557200
0.507100 6.902500
0.520700 6.100900
0.534200 5.998800
0.547800 5.899300
0.561300 5.754400
0.574900 5.659100
0.588500 5.692200
0.602000 5.787600
0.615600 5.784000
0.629100 5.771700
0.642700 5.753600
0.656300 5.739900
0.669800 5.746400
0.683400 5.902100
0.696900 6.039100
0.710500 6.120100
0.724000 6.448700
0.737600 6.544700
0.751200 6.683400
0.764700 6.846900
0.778300 6.715100
0.791800 6.882600
0.805400 6.985700
0.819000 6.744900
0.832500 6.159000
0.846100 5.967300
0.859600 6.174500
0.873200 6.128600
0.886700 6.047500
0.900300 5.490300
0.913900 5.350200
0.927400 5.220000
0.941000 5.092200
0.954500 4.962200
0.968100 5.146500
0.981600 5.204300
0.995200 5.035500
1.008800 4.853200
1.022300 4.651100
1.035900 4.398000
1.049400 3.925700
1.063000 3.239200
1.076600 2.701400
1.090100 2.416100
1.103700 1.983400
1.117200 1.439500
1.130800 1.584900
1.144300 0.438200
1.157900 0.000000
1.171500 0.000000
1.185000 0.000000
1.198600 0.000000
1.212100 0.000000
1.225700 0.000000
1.239300 0.000000
1.252800 0.000000
1.266400 0.000000
1.279900 0.000000
1.293500 0.000000
1.307000 0.000000
1.320600 0.000000
1.334200 0.000000
1.347700 0.000000
1.361300 0.000000
1.374800 0.000000
1.388400 0.000000
1.402000 0.000000
1.415500 0.000000
1.429100 0.000000
1.442600 0.000000
1.456200 0.000000
1.469700 0.000000
1.483300 0.000000
1.496900 0.000000
1.510400 0.000000
1.524000 0.000000
1.537500 0.000000
1.551100 0.000000
1.564700 0.000000
1.578200 0.000000
1.591800 0.000000
1.605300 0.000000
1.618900 0.000000
1.632400 0.000000
1.646000 0.000000
1.659600 0.000000
1.673100 0.000000
1.686700 0.000000
1.700200 0.000000
1.713800 0.000000
1.727300 0.000000
1.740900 0.000000
1.754500 0.000000
1.768000 0.000000
1.781600 0.000000
1.795100 0.000000
1.808700 0.000000
1.822300 0.000000
1.835800 0.000000
1.849400 0.000000
1.862900 0.000000
1.876500 0.000000
1.890000 0.000000
1.903600 0.000000
1.917200 0.000000
1.930700 0.000000
1.944300 0.000000
1.957800 0.000000
1.971400 0.000000
1.985000 0.000000
1.998500 0.000000
2.012100 0.000000
2.025600 0.000000
2.039200 0.000000
2.052700 0.000000
2.066300 0.000000
2.079900 0.000000
2.093400 0.000000
2.107000 0.000000
2.120500 0.000000
2.134100 0.000000
2.147700 0.000000
2.161200 0.000000
2.174800 0.000000
2.188300 0.000000
2.201900 0.000000
2.215400 0.000000
2.229000 0.000000
2.242600 0.000000
2.256100 0.000000
2.269700 0.000000
2.283200 0.000000
2.296800 0.000000
2.310300 0.000000
2.323900 0.000000
2.337500 0.000000
2.351000 0.000000
2.364600 0.000000
2.378100 0.000000
2.391700 0.000000
2.405300 0.000000
2.418800 0.000000
2.432400 0.000000
2.445900 0.000000
2.459500 0.000000
2.473000 0.000000
2.486600 0.000000
2.500200 0.000000
2.513700 0.000000
2.527300 0.000000
2.540800 0.000000
2.554400 0.000000
2.568000 0.000000
2.581500 0.000000
2.595100 0.000000
2.608600 0.000000
2.622200 0.000000
2.635700 0.000000
2.649300 0.000000
2.662900 0.000000
2.676400 0.000000
2.690000 0.000000
2.703500 0.000000
2.717100 0.000000
2.730700 0.000000
2.744200 0.000000
2.757800 0.000000
2.771300 0.000000
2.784900 0.000000
2.798400 0.000000
2.812000 0.000000
2.825600 0.000000
2.839100 0.000000
2.852700 0.000000
2.866200 0.000000
2.879800 0.000000
2.893400 0.000000
2.906900 0.000000
2.920500 0.000000
2.934000 0.000000
2.947600 0.000000
2.961100 0.000000
2.974700 0.000000
2.988300 0.000000
3.001800 0.000000
3.015400 0.000000
3.028900 0.000000
3.042500 0.000600
3.056000 0.002600
3.069600 0.005700
3.083200 0.010200
3.096700 0.015900
3.110300 0.022900
3.123800 0.031100
3.137400 0.040600
3.151000 0.051400
3.164500 0.063400
3.178100 0.076700
3.191600 0.091300
3.205200 0.107000
3.218700 0.123400
3.232300 0.140700
3.245900 0.159000
3.259400 0.187600
3.273000 0.217200
3.286500 0.245400
3.300100 0.272400
3.313700 0.298000
3.327200 0.322300
3.340800 0.345200
3.354300 0.366900
3.367900 0.387200
3.381400 0.406300
3.395000 0.423900
3.408600 0.428700
3.422100 0.436900
3.435700 0.445500
3.449200 0.454400
3.462800 0.463800
3.476400 0.473500
3.489900 0.483500
3.503500 0.494500
3.517000 0.507200
3.530600 0.545600
3.544100 0.601300
3.557700 0.668100
3.571300 0.746000
3.584800 0.834100
3.598400 0.933600
3.611900 1.046700
3.625500 1.180400
3.639000 1.335100
3.652600 1.523500
3.666200 1.874600
3.679700 2.089100
3.693300 2.275700
3.706800 2.441700
3.720400 2.591300
3.734000 2.746200
3.747500 2.870600
3.761100 2.901900
3.774600 2.876400
3.788200 2.849700
3.801700 2.803400
3.815300 2.753600
3.828900 2.646900
3.842400 2.581200
3.856000 2.521400
3.869500 2.468400
3.883100 2.421600
3.896700 2.378700
3.910200 2.333300
3.923800 2.292900
3.937300 2.377600
3.950900 2.429300
3.964400 2.550300
3.978000 2.687500
3.991600 3.037200
4.005100 3.304300
4.018700 3.610500
4.032200 3.988900
4.045800 4.569700
4.059400 4.977600
4.072900 5.416000
4.086500 5.936800
4.100000 6.245000
4.113600 6.539300
4.127100 6.768300
4.140700 6.870500
4.154300 6.896400
4.167800 6.867000
4.181400 6.178400
4.194900 6.060100
4.208500 5.904700
4.222100 5.700500
4.235600 5.453300
4.249200 5.165200
4.262700 4.857100
4.276300 4.931200
4.289800 4.736500
4.303400 4.463300
4.317000 4.265500
4.330500 4.096100
4.344100 3.970500
4.357600 4.100700
4.371200 4.155300
4.384700 4.266100
4.398300 4.427800
4.411900 4.522200
4.425400 4.764100
4.439000 4.430400
4.452500 4.425700
4.466100 4.401300
4.479700 4.356700
4.493200 4.243300
4.506800 4.066300
4.520300 3.853300
4.533900 3.490400
4.547400 3.067400
4.561000 2.696800
4.574600 2.342600
4.588100 1.961300
4.601700 1.553000
4.615200 1.183600
4.628800 0.888500
4.642400 0.615200
4.655900 0.392500
4.669500 0.219600
4.683000 0.096600
4.696600 0.023400
4.710100 0.000000
4.723700 0.000000
4.737300 0.000000
4.750800 0.000000
4.764400 0.000000
4.777900 0.000000
4.791500 0.000000
4.805100 0.000000
4.818600 0.000000
4.832200 0.000000
4.845700 0.000000
4.859300 0.000000
4.872800 0.000000
4.886400 0.000000
4.900000 0.000000
4.913500 0.000000
4.927100 0.000000
4.940600 0.000000
4.954200 0.000000
4.967700 0.000000
4.981300 0.000000
4.994900 0.000000
5.008400 0.000000
5.022000 0.000000
5.035500 0.000000
5.049100 0.000000
5.062700 0.000000
5.076200 0.000000
5.089800 0.000000
5.103300 0.000000
5.116900 0.000000
5.130400 0.000000
5.144000 0.000000
5.157600 0.000000
5.171100 0.000000
5.184700 0.000000
5.198200 0.000000
5.211800 0.000000
5.225400 0.000000
5.238900 0.000000
5.252500 0.000000
5.266000 0.000000
5.279600 0.000000
5.293100 0.000000
5.306700 0.000100
5.320300 0.001400
5.333800 0.004300
5.347400 0.008700
5.360900 0.014600
5.374500 0.022100
5.388100 0.031100
5.401600 0.041700
5.415200 0.057300
5.428700 0.075300
5.442300 0.093200
5.455800 0.111200
5.469400 0.129100
5.483000 0.147100
5.496500 0.165100
5.510100 0.183100
5.523600 0.201100
5.537200 0.219100
5.550800 0.235900
5.564300 0.251400
5.577900 0.265600
5.591400 0.281800
5.605000 0.300900
5.618500 0.320500
5.632100 0.339800
5.645700 0.356700
5.659200 0.519400
5.672800 0.728800
5.686300 0.861100
5.699900 1.004800
5.713400 1.163200
5.727000 1.436900
5.740600 1.825400
5.754100 2.282000
5.767700 2.848900
5.781200 3.280200
5.794800 3.723600
5.808400 4.442300
5.821900 4.921700
5.835500 5.077900
5.849000 5.084700
5.862600 5.203500
5.876100 5.217200
5.889700 5.271900
5.903300 5.442600
5.916800 5.642200
5.930400 5.861500
5.943900 6.073200
5.957500 6.556700
5.971100 7.297900
5.984600 8.031100
5.998200 8.722800
6.011700 9.003100
6.025300 9.367000
6.038800 9.996100
6.052400 7.251300
6.066000 6.131600
6.079500 5.989900
6.093100 6.440800
6.106600 6.450500
6.120200 4.917100
6.133800 4.706200
6.147300 4.382200
6.160900 4.203800
6.174400 4.036500
6.188000 3.893300
6.201500 3.587800
6.215100 3.455600
6.228700 3.057900
6.242200 3.006800
6.255800 2.973100
6.269300 2.934900
6.282900 2.892400
6.296400 2.845500
6.310000 2.804600
6.323600 2.782500
6.337100 2.768700
6.350700 2.763500
6.364200 2.769800
6.377800 2.796200
6.391400 2.831300
6.404900 2.882200
6.418500 3.055900
6.432000 3.259100
6.445600 3.477200
6.459100 3.687400
6.472700 4.242400
6.486300 5.006400
6.499800 5.512600
6.513400 6.143900
6.526900 6.382400
6.540500 7.917900
6.554100 9.376900
6.567600 5.443900
6.581200 5.486500
6.594700 5.527500
6.608300 5.580800
6.621800 5.636400
6.635400 5.677100
6.649000 5.861700
6.662500 6.171900
6.676100 6.613100
6.689600 6.679900
6.703200 6.818800
6.716800 6.662900
6.730300 5.831700
6.743900 5.125200
6.757400 4.513500
6.771000 4.044700
6.784500 3.723600
6.798100 3.588000
6.811700 3.539000
6.825200 3.558200
6.838800 3.889900
6.852300 4.161400
6.865900 4.627200
6.879500 4.913800
6.893000 5.309200
6.906600 5.772300
6.920100 6.280100
6.933700 6.890200
6.947200 7.766600
6.960800 8.672700
6.974400 9.224700
6.987900 8.641000
7.001500 8.093800
7.015000 7.563700
7.028600 7.680900
7.042100 7.876600
7.055700 7.939700
7.069300 8.068900
7.082800 7.712700
7.096400 7.175800
7.109900 6.408400
7.123500 6.044900
7.137100 5.551300
7.150600 5.308900
7.164200 5.129600
7.177700 5.416200
7.191300 5.972900
7.204800 6.632700
7.218400 6.891800
7.232000 7.230200
7.245500 7.512500
7.259100 7.963000
7.272600 8.101500
7.286200 7.621400
7.299800 7.155200
7.313300 6.705500
7.326900 6.349500
7.340400 5.998600
7.354000 5.626600
7.367500 5.329300
7.381100 5.045200
7.394700 4.624400
7.408200 4.522500
7.421800 4.424400
7.435300 4.308200
7.448900 4.236000
7.462500 4.338000
7.476000 5.216700
7.489600 6.081200
7.503100 5.581400
7.516700 4.598400
7.530200 4.515700
7.543800 4.686500
7.557400 4.614000
7.570900 4.516900
7.584500 4.530900
7.598000 4.461100
7.611600 4.456100
7.625100 4.331200
7.638700 4.210900
7.652300 4.208400
7.665800 4.200600
7.679400 5.181500
7.692900 4.655800
7.706500 2.833100
7.720100 2.826500
7.733600 2.826600
7.747200 2.942000
7.760700 3.476600
7.774300 3.738000
7.787800 3.881300
7.801400 3.756000
7.815000 4.259500
7.828500 5.264400
7.842100 6.095400
7.855600 5.841700
7.869200 5.127800
7.882800 4.489400
7.896300 3.975300
7.909900 3.724500
7.923400 3.502100
7.937000 4.475100
7.950500 4.511100
7.964100 4.559400
7.977700 4.620500
7.991200 4.864500
8.004800 5.198200
8.018300 5.305200
8.031900 5.564200
8.045500 5.565900
8.059000 5.721300
8.072600 5.948800
8.086100 6.263000
8.099700 6.553600
8.113200 6.979900
8.126800 7.740000
8.140400 10.724200
8.153900 11.425500
8.167500 11.347800
8.181000 12.109000
8.194600 11.891200
8.208200 11.959100
8.221700 10.676200
8.235300 10.935500
8.248800 8.723800
8.262400 7.985100
8.275900 7.048600
8.289500 6.846300
8.303100 6.983500
8.316600 7.285000
8.330200 7.795000
8.343700 9.369500
8.357300 10.332000
8.370800 8.987300
8.384400 8.936100
8.398000 8.839500
8.411500 8.575700
8.425100 8.336300
8.438600 10.672300
8.452200 13.282700
8.465800 8.072100
8.479300 8.147400
8.492900 8.332900
8.506400 8.421900
8.520000 8.440900
8.533500 9.637800
8.547100 10.692000
8.560700 11.292300
8.574200 10.300100
8.587800 9.668000
8.601300 9.057700
8.614900 8.449200
8.628500 7.756100
8.642000 7.042000
8.655600 6.799400
8.669100 6.872200
8.682700 6.983300
8.696200 7.353600
8.709800 7.607200
8.723400 7.729800
8.736900 7.093500
8.750500 6.564700
8.764000 6.068100
8.777600 5.984800
8.791200 5.903900
8.804700 6.299500
8.818300 6.313500
8.831800 5.891500
8.845400 5.723600
8.858900 5.516400
8.872500 5.399800
8.886100 5.226200
8.899600 5.016400
8.913200 4.747500
8.926700 4.532400
8.940300 4.389500
8.953900 4.777300
8.967400 4.556600
8.981000 4.397600
8.994500 4.205900
9.008100 4.043200
9.021600 3.880300
9.035200 3.766000
9.048800 3.862000
9.062300 3.735200
9.075900 3.622200
9.089400 3.592300
9.103000 3.595600
9.116500 3.647100
9.130100 3.732200
9.143700 3.843100
9.157200 4.006200
9.170800 4.217700
9.184300 4.444100
9.197900 6.472300
9.211500 6.344700
9.225000 7.217700
9.238600 11.093300
9.252100 9.596300
9.265700 10.221200
9.279200 11.083000
9.292800 11.962700
9.306400 11.759400
9.319900 11.277200
9.333500 10.648900
9.347000 10.075500
9.360600 9.545600
9.374200 9.043000
9.387700 9.681800
9.401300 10.635900
9.414800 9.150500
9.428400 7.832300
9.441900 8.296200
9.455500 9.465400
9.469100 9.291400
9.482600 9.403500
9.496200 9.401400
9.509700 8.295100
9.523300 6.765900
9.536900 6.711100
9.550400 6.728000
9.564000 6.986100
9.577500 7.939500
9.591100 8.474400
9.604600 8.804300
9.618200 9.092300
9.631800 8.740000
9.645300 8.926900
9.658900 8.517300
9.672400 8.137700
9.686000 7.232900
9.699500 6.945700
9.713100 6.653200
9.726700 6.535600
9.740200 6.696900
9.753800 6.583100
9.767300 6.441200
9.780900 6.447400
9.794500 6.096900
9.808000 5.359100
9.821600 5.077600
9.835100 4.814100
9.848700 4.601900
9.862200 4.420700
9.875800 4.216200
9.889400 4.181800
9.902900 4.226000
9.916500 4.286700
9.930000 4.367100
9.943600 4.475700
9.957200 4.596600
9.970700 4.725700
9.984300 4.884100
9.997800 7.170000
10.011400 6.966100
10.024900 5.758700
10.038500 5.406400
10.052100 5.352100
10.065600 5.304000
10.079200 5.396000
10.092700 5.547800
10.106300 5.763700
10.119900 6.677900
10.133400 6.450800
10.147000 6.154700
10.160500 5.984200
10.174100 6.942300
10.187600 6.830100
10.201200 5.210600
10.214800 4.951100
10.228300 4.675500
10.241900 4.271200
10.255400 4.133700
10.269000 4.522800
10.282600 5.555900
10.296100 8.910300
10.309700 8.452700
10.323200 8.469600
10.336800 8.307100
10.350300 8.120100
10.363900 7.238200
10.377500 5.563800
10.391000 4.590500
10.404600 4.352500
10.418100 4.278100
10.431700 4.213300
10.445200 4.183600
10.458800 4.015600
10.472400 3.690100
10.485900 3.693400
10.499500 3.703000
10.513000 3.728800
10.526600 3.699900
10.540200 3.688600
10.553700 3.681900
10.567300 3.702600
10.580800 3.731300
10.594400 3.773400
10.607900 4.296200
10.621500 4.652200
10.635100 5.353200
10.648600 5.824100
10.662200 5.874700
10.675700 6.246300
10.689300 6.458100
10.702900 7.149500
10.716400 6.679400
10.730000 6.785500
10.743500 6.914000
10.757100 7.021900
10.770600 7.277100
10.784200 7.321200
10.797800 7.111600
10.811300 6.913100
10.824900 6.818800
10.838400 6.766400
10.852000 6.777300
10.865600 6.912300
10.879100 7.027800
10.892700 7.114000
10.906200 7.162100
10.919800 7.302300
10.933300 7.221600
10.946900 6.872100
10.960500 7.033900
10.974000 7.036100
10.987600 6.690100
11.001100 6.707400
11.014700 6.738200
11.028200 6.819400
11.041800 6.914200
11.055400 7.135000
11.068900 7.044200
11.082500 6.927900
11.096000 6.962700
11.109600 6.976500
11.123200 7.082800
11.136700 7.095500
11.150300 6.850000
11.163800 6.634800
11.177400 6.573300
11.190900 6.527900
11.204500 6.451900
11.218100 6.805800
11.231600 6.990900
11.245200 7.113300
11.258700 7.189000
11.272300 7.209000
11.285900 7.230100
11.299400 7.776900
11.313000 7.684000
11.326500 7.671000
11.340100 7.273000
11.353600 7.885600
11.367200 7.376500
11.380800 6.928700
11.394300 6.463800
11.407900 6.442000
11.421400 6.283500
11.435000 6.094800
11.448600 5.940900
11.462100 5.851800
11.475700 6.153600
11.489200 6.460800
11.502800 6.200800
11.516300 6.178300
11.529900 6.143600
11.543500 6.334000
11.557000 6.174000
11.570600 6.236400
11.584100 6.312700
11.597700 6.352500
11.611300 6.342900
11.624800 6.312500
11.638400 6.316700
11.651900 6.740500
11.665500 6.896300
11.679000 7.070400
11.692600 7.992900
11.706200 8.403400
11.719700 8.600300
11.733300 7.444600
11.746800 6.445400
11.760400 5.549400
11.773900 5.387000
11.787500 5.246700
11.801100 5.134100
11.814600 5.051900
11.828200 5.039200
11.841700 5.050400
11.855300 5.035200
11.868900 5.306300
11.882400 5.596900
11.896000 7.278800
11.909500 5.561200
11.923100 5.465000
11.936600 5.448700
11.950200 5.343500
11.963800 5.308300
11.977300 5.251600
11.990900 5.192500
12.004400 4.881800
12.018000 4.178400
12.031600 3.280200
12.045100 3.098500
12.058700 2.980500
12.072200 3.025300
12.085800 3.018700
12.099300 2.903100
12.112900 2.745400
12.126500 2.541400
12.140000 2.424700
12.153600 2.310700
12.167100 2.260000
12.180700 2.103400
12.194300 1.958700
12.207800 1.825800
12.221400 1.704900
12.234900 1.595800
12.248500 1.684000
12.262000 1.602800
12.275600 1.607800
12.289200 1.667500
12.302700 1.088600
12.316300 1.033800
12.329800 0.981600
12.343400 0.993700
12.356900 0.938800
12.370500 0.886600
12.384100 0.836100
12.397600 1.370600
12.411200 1.253100
12.424700 0.377700
12.438300 0.362300
12.451900 0.347300
12.465400 0.332600
12.479000 0.318300
12.492500 0.304300
12.506100 0.174700
12.519600 0.170300
12.533200 0.166000
12.546800 0.161700
12.560300 0.157600
12.573900 0.153600
12.587400 0.149600
12.601000 0.145800
12.614600 0.142100
12.628100 0.138500
12.641700 0.134900
12.655200 0.131500
12.668800 0.128200
12.682300 0.125000
12.695900 0.121900
12.709500 0.118900
12.723000 0.115900
12.736600 0.113100
12.750100 0.110400
12.763700 0.107800
12.777300 0.105300
12.790800 0.102900
12.804400 0.100600
12.817900 0.098400
12.831500 0.096300
12.845000 0.094300
12.858600 0.092400
12.872200 0.835500
12.885700 0.000000
12.899300 0.000000
12.912800 0.000000
12.926400 0.000000
12.940000 0.000000
12.953500 0.000000
12.967100 0.000000
12.980600 0.000000
12.994200 0.000000
13.007700 0.000000
13.021300 0.000000
13.034900 0.000000
13.048400 0.000000
13.062000 0.000000
13.075500 0.000000
13.089100 0.000000
13.102600 0.000000
13.116200 0.000000
13.129800 0.000000
13.143300 0.000000
13.156900 0.000000
13.170400 0.000000
13.184000 0.000000
13.197600 0.000000
13.211100 0.000000
13.224700 0.000000
13.238200 0.000000
13.251800 0.000000
13.265300 0.000000
13.278900 0.000000
13.292500 0.000000
13.306000 0.000000
13.319600 0.000000
13.333100 0.000000
13.346700 0.000000
13.360300 0.000000
13.373800 0.000000
13.387400 0.000000
13.400900 0.000000
13.414500 0.000000
13.428000 0.000000
13.441600 0.000000
13.455200 0.000000
13.468700 0.000000
13.482300 0.000000
13.495800 0.000000
13.509400 0.000000
13.523000 0.000000
13.536500 0.000000
13.550100 0.000000
13.563600 0.000000
13.577200 0.000000
13.590700 0.000000
13.604300 0.000000
13.617900 0.000000
13.631400 0.000000
13.645000 0.000000
13.658500 0.000000
13.672100 0.000000
13.685600 0.000000
13.699200 0.000000
13.712800 0.000000
13.726300 0.000000
13.739900 0.000000
13.753400 0.000000
13.767000 0.000000
13.780600 0.000000
13.794100 0.000000
13.807700 0.000000
13.821200 0.000000
13.834800 0.000000
13.848300 0.000000
13.861900 0.000000
13.875500 0.000000
13.889000 0.000000
13.902600 0.000000
13.916100 0.000000
13.929700 0.000000
13.943300 0.000000
13.956800 0.000000
13.970400 0.000000
13.983900 0.000000
13.997500 0.000000
14.011000 0.000000
14.024600 0.000000
14.038200 0.000000
14.051700 0.000000
14.065300 0.000000
14.078800 0.000000
14.092400 0.000000
14.106000 0.000000
e
