set title 'mp-323 - Density of States'
set xlabel 'Energy (eV)'
set ylabel 'DOS (states/eV)'
set grid
set xrange [-10:10]
set yrange [0:88.621]
set xzeroaxis lt -1
set terminal png size 800,600
set output 'mp-323_dos_gnuplot.png'
plot '-' using 1:2 with lines title 'DOS'
-28.736000 0.000000
-28.699900 0.000000
-28.663800 0.000000
-28.627600 0.000000
-28.591500 0.000000
-28.555400 0.000000
-28.519300 0.000000
-28.483200 0.000000
-28.447100 0.000000
-28.411000 0.000000
-28.374900 0.000000
-28.338700 0.000000
-28.302600 0.000000
-28.266500 0.000000
-28.230400 0.000000
-28.194300 0.000000
-28.158200 0.000000
-28.122100 0.000000
-28.085900 0.000000
-28.049800 0.000000
-28.013700 0.000000
-27.977600 0.000000
-27.941500 0.000000
-27.905400 0.000000
-27.869300 0.000000
-27.833100 0.000000
-27.797000 0.000000
-27.760900 0.000000
-27.724800 0.000000
-27.688700 0.000000
-27.652600 0.000000
-27.616500 0.000000
-27.580300 0.000000
-27.544200 0.000000
-27.508100 0.000000
-27.472000 0.000000
-27.435900 0.000000
-27.399800 0.000000
-27.363700 0.000000
-27.327600 0.000000
-27.291400 0.000000
-27.255300 0.000000
-27.219200 0.000000
-27.183100 0.000000
-27.147000 0.000000
-27.110900 0.000000
-27.074800 0.000000
-27.038600 0.000000
-27.002500 0.000000
-26.966400 0.000000
-26.930300 0.000000
-26.894200 0.000000
-26.858100 0.000000
-26.822000 0.000000
-26.785800 0.000000
-26.749700 0.000000
-26.713600 0.000000
-26.677500 0.000000
-26.641400 0.000000
-26.605300 0.000000
-26.569200 0.000000
-26.533000 0.000000
-26.496900 0.000000
-26.460800 0.000000
-26.424700 0.000000
-26.388600 0.000000
-26.352500 0.000000
-26.316400 0.000000
-26.280300 0.000000
-26.244100 0.000000
-26.208000 0.000000
-26.171900 0.000000
-26.135800 0.000000
-26.099700 0.000000
-26.063600 0.000000
-26.027500 0.000000
-25.991300 0.000000
-25.955200 0.000000
-25.919100 0.000000
-25.883000 0.000000
-25.846900 0.000000
-25.810800 0.000000
-25.774700 0.000000
-25.738500 0.000000
-25.702400 0.000000
-25.666300 0.000000
-25.630200 0.000000
-25.594100 0.000000
-25.558000 0.000000
-25.521900 0.000000
-25.485700 0.000000
-25.449600 0.025100
-25.413500 2.220600
-25.377400 4.373900
-25.341300 7.930400
-25.305200 22.709700
-25.269100 14.883300
-25.233000 0.000000
-25.196800 0.000000
-25.160700 0.000000
-25.124600 0.000000
-25.088500 0.000000
-25.052400 0.000000
-25.016300 0.000000
-24.980200 0.000000
-24.944000 0.000000
-24.907900 0.000000
-24.871800 0.000000
-24.835700 0.000000
-24.799600 0.000000
-24.763500 0.000000
-24.727400 0.000000
-24.691200 0.000000
-24.655100 0.000000
-24.619000 0.000000
-24.582900 0.000000
-24.546800 0.000000
-24.510700 0.000000
-24.474600 0.000000
-24.438400 0.000000
-24.402300 0.000000
-24.366200 0.000000
-24.330100 0.000000
-24.294000 0.000000
-24.257900 0.000000
-24.221800 0.000000
-24.185700 0.000000
-24.149500 0.000000
-24.113400 0.000000
-24.077300 0.000000
-24.041200 0.000000
-24.005100 0.000000
-23.969000 0.000000
-23.932900 0.000000
-23.896700 0.000000
-23.860600 0.000000
-23.824500 0.000000
-23.788400 0.000000
-23.752300 0.000000
-23.716200 0.000000
-23.680100 0.000000
-23.643900 0.000000
-23.607800 0.000000
-23.571700 0.000000
-23.535600 0.000000
-23.499500 0.000000
-23.463400 0.000000
-23.427300 0.000000
-23.391100 0.000000
-23.355000 0.000000
-23.318900 0.000000
-23.282800 0.000000
-23.246700 0.000000
-23.210600 0.000000
-23.174500 0.000000
-23.138400 0.000000
-23.102200 0.000000
-23.066100 0.000000
-23.030000 0.000000
-22.993900 0.000000
-22.957800 0.000000
-22.921700 0.000000
-22.885600 0.000000
-22.849400 0.000000
-22.813300 0.000000
-22.777200 0.000000
-22.741100 0.000000
-22.705000 0.000000
-22.668900 0.000000
-22.632800 0.000000
-22.596600 0.000000
-22.560500 0.000000
-22.524400 0.000000
-22.488300 0.000000
-22.452200 0.000000
-22.416100 0.000000
-22.380000 0.000000
-22.343800 0.000000
-22.307700 0.000000
-22.271600 0.000000
-22.235500 0.000000
-22.199400 0.000000
-22.163300 0.000000
-22.127200 0.000000
-22.091100 0.000000
-22.054900 0.000000
-22.018800 0.000000
-21.982700 0.000000
-21.946600 0.000000
-21.910500 0.000000
-21.874400 0.000000
-21.838300 0.000000
-21.802100 0.000000
-21.766000 0.000000
-21.729900 0.000000
-21.693800 0.000000
-21.657700 0.000000
-21.621600 0.000000
-21.585500 0.000000
-21.549300 0.000000
-21.513200 0.000000
-21.477100 0.000000
-21.441000 0.000000
-21.404900 0.000000
-21.368800 0.000000
-21.332700 0.000000
-21.296500 0.000000
-21.260400 0.000000
-21.224300 0.000000
-21.188200 0.000000
-21.152100 0.000000
-21.116000 0.000000
-21.079900 0.000000
-21.043800 0.000000
-21.007600 0.000000
-20.971500 0.000000
-20.935400 0.000000
-20.899300 0.000000
-20.863200 0.000000
-20.827100 0.000000
-20.791000 0.000000
-20.754800 0.000000
-20.718700 0.000000
-20.682600 0.000000
-20.646500 0.000000
-20.610400 0.000000
-20.574300 0.000000
-20.538200 0.000000
-20.502000 0.000000
-20.465900 0.000000
-20.429800 0.000000
-20.393700 0.000000
-20.357600 0.000000
-20.321500 0.000000
-20.285400 0.000000
-20.249200 0.000000
-20.213100 0.000000
-20.177000 0.000000
-20.140900 0.000000
-20.104800 0.000000
-20.068700 0.000000
-20.032600 0.000000
-19.996500 0.000000
-19.960300 0.000000
-19.924200 0.000000
-19.888100 0.000000
-19.852000 0.000000
-19.815900 0.000000
-19.779800 0.000000
-19.743700 0.000000
-19.707500 0.000000
-19.671400 0.000000
-19.635300 0.000000
-19.599200 0.000000
-19.563100 0.000000
-19.527000 0.000000
-19.490900 0.000000
-19.454700 0.000000
-19.418600 0.000000
-19.382500 0.000000
-19.346400 0.000000
-19.310300 0.000000
-19.274200 0.000000
-19.238100 0.000000
-19.201900 0.000000
-19.165800 0.000000
-19.129700 0.000000
-19.093600 0.000000
-19.057500 0.000000
-19.021400 0.000000
-18.985300 0.000000
-18.949200 0.000000
-18.913000 0.000000
-18.876900 0.000000
-18.840800 0.000000
-18.804700 0.000000
-18.768600 0.000000
-18.732500 0.000000
-18.696400 0.000000
-18.660200 0.000000
-18.624100 0.000000
-18.588000 0.000000
-18.551900 0.000000
-18.515800 0.000000
-18.479700 0.000000
-18.443600 0.000000
-18.407400 0.000000
-18.371300 0.000000
-18.335200 0.000000
-18.299100 0.000000
-18.263000 0.000000
-18.226900 0.000000
-18.190800 0.000000
-18.154600 0.000000
-18.118500 0.000000
-18.082400 0.000000
-18.046300 0.000000
-18.010200 0.000000
-17.974100 0.000000
-17.938000 0.000000
-17.901900 0.000000
-17.865700 0.000000
-17.829600 0.000000
-17.793500 0.000000
-17.757400 0.000000
-17.721300 0.000000
-17.685200 0.000000
-17.649100 0.000000
-17.612900 0.000000
-17.576800 0.000000
-17.540700 0.000000
-17.504600 0.000000
-17.468500 0.000000
-17.432400 0.000000
-17.396300 0.000000
-17.360100 0.000000
-17.324000 0.000000
-17.287900 0.000000
-17.251800 0.000000
-17.215700 0.000000
-17.179600 0.000000
-17.143500 0.000000
-17.107300 0.294100
-17.071200 0.772800
-17.035100 1.045300
-16.999000 1.584600
-16.962900 2.188200
-16.926800 3.556100
-16.890700 7.619100
-16.854600 18.058800
-16.818400 12.246200
-16.782300 6.986600
-16.746200 1.195100
-16.710100 0.016500
-16.674000 1.745300
-16.637900 7.016800
-16.601800 7.761700
-16.565600 8.454000
-16.529500 6.939900
-16.493400 5.161500
-16.457300 4.415700
-16.421200 4.039300
-16.385100 3.900900
-16.349000 2.781400
-16.312800 1.879900
-16.276700 0.173500
-16.240600 0.000000
-16.204500 0.000000
-16.168400 0.000000
-16.132300 0.000000
-16.096200 0.000000
-16.060000 0.000000
-16.023900 0.000000
-15.987800 0.000000
-15.951700 0.000000
-15.915600 0.000000
-15.879500 0.000000
-15.843400 0.000000
-15.807300 0.000000
-15.771100 0.000000
-15.735000 0.000000
-15.698900 0.000000
-15.662800 0.000000
-15.626700 0.000000
-15.590600 0.000000
-15.554500 0.000000
-15.518300 0.000000
-15.482200 0.000000
-15.446100 0.000000
-15.410000 0.000000
-15.373900 6.488800
-15.337800 15.530300
-15.301700 12.887000
-15.265500 7.189700
-15.229400 4.746900
-15.193300 3.442500
-15.157200 2.354000
-15.121100 1.408100
-15.085000 0.174000
-15.048900 0.000000
-15.012700 0.000000
-14.976600 0.000000
-14.940500 0.000000
-14.904400 0.000000
-14.868300 0.000000
-14.832200 0.000000
-14.796100 0.000000
-14.760000 0.000000
-14.723800 0.000000
-14.687700 0.000000
-14.651600 0.000000
-14.615500 0.000000
-14.579400 0.000000
-14.543300 0.000000
-14.507200 0.000000
-14.471000 0.000000
-14.434900 0.000000
-14.398800 0.000000
-14.362700 0.000000
-14.326600 0.000000
-14.290500 0.000000
-14.254400 0.000000
-14.218200 0.000000
-14.182100 0.000000
-14.146000 0.000000
-14.109900 0.000000
-14.073800 0.000000
-14.037700 0.000000
-14.001600 0.000000
-13.965400 0.000000
-13.929300 0.000000
-13.893200 0.000000
-13.857100 0.000000
-13.821000 0.000000
-13.784900 0.000000
-13.748800 0.000000
-13.712700 0.000000
-13.676500 0.000000
-13.640400 0.000000
-13.604300 0.000000
-13.568200 0.000000
-13.532100 0.000000
-13.496000 0.000000
-13.459900 0.000000
-13.423700 0.000000
-13.387600 0.000000
-13.351500 0.000000
-13.315400 0.000000
-13.279300 0.000000
-13.243200 0.000000
-13.207100 0.000000
-13.170900 0.000000
-13.134800 0.000000
-13.098700 0.000000
-13.062600 0.000000
-13.026500 0.000000
-12.990400 0.000000
-12.954300 0.000000
-12.918100 0.000000
-12.882000 0.000000
-12.845900 0.000000
-12.809800 0.000000
-12.773700 0.000000
-12.737600 0.000000
-12.701500 0.000000
-12.665400 0.000000
-12.629200 0.000000
-12.593100 0.000000
-12.557000 0.000000
-12.520900 0.000000
-12.484800 0.000000
-12.448700 0.000000
-12.412600 0.000000
-12.376400 0.000000
-12.340300 0.000000
-12.304200 0.000000
-12.268100 0.000000
-12.232000 0.000000
-12.195900 0.000000
-12.159800 0.000000
-12.123600 0.000000
-12.087500 0.000000
-12.051400 0.000000
-12.015300 0.000000
-11.979200 0.000000
-11.943100 0.000000
-11.907000 0.000000
-11.870900 0.000000
-11.834700 0.000000
-11.798600 0.000000
-11.762500 0.000000
-11.726400 0.000000
-11.690300 0.000000
-11.654200 0.000000
-11.618100 0.000000
-11.581900 0.000000
-11.545800 0.000000
-11.509700 0.000000
-11.473600 0.000000
-11.437500 0.000000
-11.401400 0.000000
-11.365300 0.000000
-11.329100 0.000000
-11.293000 0.000000
-11.256900 0.000000
-11.220800 0.000000
-11.184700 0.000000
-11.148600 0.000000
-11.112500 0.000000
-11.076300 0.000000
-11.040200 0.000000
-11.004100 0.000000
-10.968000 0.000000
-10.931900 0.000000
-10.895800 0.000000
-10.859700 0.000000
-10.823600 0.000000
-10.787400 0.000000
-10.751300 0.000000
-10.715200 0.000000
-10.679100 0.000000
-10.643000 0.000000
-10.606900 0.000000
-10.570800 0.000000
-10.534600 0.000000
-10.498500 0.000000
-10.462400 0.000000
-10.426300 0.000000
-10.390200 0.000000
-10.354100 0.000000
-10.318000 0.000000
-10.281800 0.000000
-10.245700 0.000000
-10.209600 0.000000
-10.173500 0.000000
-10.137400 0.000000
-10.101300 0.000000
-10.065200 0.000000
-10.029000 0.000000
-9.992900 0.000000
-9.956800 0.000000
-9.920700 0.000000
-9.884600 0.000000
-9.848500 0.000000
-9.812400 0.000000
-9.776300 0.000000
-9.740100 0.000000
-9.704000 0.000000
-9.667900 0.000000
-9.631800 0.000000
-9.595700 0.000000
-9.559600 0.000000
-9.523500 0.000000
-9.487300 0.000000
-9.451200 0.000000
-9.415100 0.000000
-9.379000 0.018600
-9.342900 0.393600
-9.306800 0.669700
-9.270700 1.002000
-9.234500 1.431100
-9.198400 2.137900
-9.162300 2.785300
-9.126200 3.826000
-9.090100 4.273500
-9.054000 6.670500
-9.017900 10.072100
-8.981700 13.300700
-8.945600 16.528000
-8.909500 14.928800
-8.873400 14.340800
-8.837300 12.392300
-8.801200 7.994900
-8.765100 2.253800
-8.729000 5.926400
-8.692800 9.850700
-8.656700 11.978700
-8.620600 9.909700
-8.584500 3.859300
-8.548400 1.769800
-8.512300 1.318500
-8.476200 1.049000
-8.440000 0.807200
-8.403900 0.648300
-8.367800 0.519100
-8.331700 0.355700
-8.295600 0.204500
-8.259500 0.000000
-8.223400 0.000000
-8.187200 0.000000
-8.151100 0.000000
-8.115000 0.000000
-8.078900 0.000000
-8.042800 0.000000
-8.006700 0.000000
-7.970600 0.000000
-7.934400 0.000000
-7.898300 0.000000
-7.862200 0.000000
-7.826100 0.000000
-7.790000 0.000000
-7.753900 0.000000
-7.717800 0.000000
-7.681700 0.000000
-7.645500 0.000000
-7.609400 0.000000
-7.573300 0.000000
-7.537200 0.000000
-7.501100 0.000000
-7.465000 0.000000
-7.428900 0.000000
-7.392700 0.000000
-7.356600 0.000000
-7.320500 0.000000
-7.284400 0.000000
-7.248300 0.000000
-7.212200 0.000000
-7.176100 0.000000
-7.139900 0.000000
-7.103800 0.000000
-7.067700 0.000000
-7.031600 0.000000
-6.995500 0.000000
-6.959400 0.000000
-6.923300 0.000000
-6.887100 0.000000
-6.851000 0.000000
-6.814900 0.000000
-6.778800 0.000000
-6.742700 0.000000
-6.706600 0.000000
-6.670500 0.000000
-6.634400 0.000000
-6.598200 0.000000
-6.562100 0.000000
-6.526000 0.000000
-6.489900 0.000000
-6.453800 0.000000
-6.417700 0.000000
-6.381600 0.000000
-6.345400 0.000000
-6.309300 0.000000
-6.273200 0.000000
-6.237100 0.000000
-6.201000 0.000000
-6.164900 0.000000
-6.128800 0.000000
-6.092600 0.000000
-6.056500 0.000000
-6.020400 0.000000
-5.984300 0.000000
-5.948200 0.000000
-5.912100 0.000000
-5.876000 0.000000
-5.839800 0.000000
-5.803700 0.000000
-5.767600 0.000000
-5.731500 0.000000
-5.695400 0.000000
-5.659300 0.000000
-5.623200 0.000000
-5.587100 0.000000
-5.550900 0.000000
-5.514800 0.000000
-5.478700 0.000000
-5.442600 0.000000
-5.406500 0.000000
-5.370400 0.000000
-5.334300 0.000000
-5.298100 0.000000
-5.262000 0.000000
-5.225900 0.000000
-5.189800 0.000000
-5.153700 0.000000
-5.117600 0.000000
-5.081500 0.000000
-5.045300 0.000000
-5.009200 0.000000
-4.973100 0.000000
-4.937000 0.000000
-4.900900 0.000000
-4.864800 0.000000
-4.828700 0.000000
-4.792500 0.000000
-4.756400 0.000000
-4.720300 0.000000
-4.684200 0.000000
-4.648100 0.000000
-4.612000 0.000000
-4.575900 0.000000
-4.539800 0.000000
-4.503600 0.000000
-4.467500 0.000000
-4.431400 0.000000
-4.395300 0.000000
-4.359200 0.000000
-4.323100 0.000000
-4.287000 0.000000
-4.250800 0.000000
-4.214700 0.000000
-4.178600 0.000000
-4.142500 0.000000
-4.106400 0.000000
-4.070300 0.000000
-4.034200 0.000000
-3.998000 0.000000
-3.961900 0.000000
-3.925800 0.000000
-3.889700 0.000000
-3.853600 0.000000
-3.817500 0.000000
-3.781400 0.000000
-3.745200 0.000000
-3.709100 0.000000
-3.673000 0.000000
-3.636900 0.000000
-3.600800 0.000000
-3.564700 0.000000
-3.528600 0.000000
-3.492500 0.000000
-3.456300 0.000000
-3.420200 0.000000
-3.384100 0.000000
-3.348000 0.000000
-3.311900 0.000000
-3.275800 0.000000
-3.239700 0.000000
-3.203500 0.000000
-3.167400 0.000000
-3.131300 0.000000
-3.095200 0.000000
-3.059100 0.000000
-3.023000 0.000000
-2.986900 0.000000
-2.950700 0.000000
-2.914600 0.000000
-2.878500 0.000000
-2.842400 0.000000
-2.806300 0.000000
-2.770200 0.000000
-2.734100 0.000000
-2.697900 0.000000
-2.661800 0.000000
-2.625700 0.000000
-2.589600 0.000000
-2.553500 0.000000
-2.517400 0.000000
-2.481300 0.000000
-2.445200 0.000000
-2.409000 0.000000
-2.372900 0.000000
-2.336800 0.000000
-2.300700 0.000000
-2.264600 0.000000
-2.228500 0.000000
-2.192400 0.000000
-2.156200 0.000000
-2.120100 0.000000
-2.084000 0.000000
-2.047900 0.000000
-2.011800 0.000000
-1.975700 0.000000
-1.939600 0.000000
-1.903400 0.000000
-1.867300 0.000000
-1.831200 0.000000
-1.795100 0.000000
-1.759000 0.000000
-1.722900 0.000000
-1.686800 0.000000
-1.650600 0.000000
-1.614500 0.000000
-1.578400 0.000000
-1.542300 0.000000
-1.506200 0.000000
-1.470100 0.000000
-1.434000 0.000000
-1.397900 0.000000
-1.361700 0.000000
-1.325600 0.000000
-1.289500 0.000000
-1.253400 0.000000
-1.217300 0.000000
-1.181200 0.000000
-1.145100 0.000000
-1.108900 0.000000
-1.072800 0.000000
-1.036700 0.000000
-1.000600 0.000000
-0.964500 0.000000
-0.928400 0.000000
-0.892300 0.000000
-0.856100 0.000000
-0.820000 0.000000
-0.783900 0.000000
-0.747800 0.000000
-0.711700 0.000000
-0.675600 0.000000
-0.639500 0.000000
-0.603300 0.000000
-0.567200 0.000000
-0.531100 0.000000
-0.495000 0.000000
-0.458900 0.000000
-0.422800 0.000000
-0.386700 0.000000
-0.350600 0.000000
-0.314400 0.000000
-0.278300 0.000000
-0.242200 0.000000
-0.206100 0.000000
-0.170000 0.000000
-0.133900 0.000000
-0.097800 0.000000
-0.061600 0.000000
-0.025500 0.000000
0.010600 0.000000
0.046700 0.000000
0.082800 0.000000
0.118900 0.000000
0.155000 0.000000
0.191200 0.000000
0.227300 0.000000
0.263400 0.000000
0.299500 0.000000
0.335600 0.000000
0.371700 0.285200
0.407800 0.390000
0.444000 0.790400
0.480100 1.619300
0.516200 2.605500
0.552300 3.902800
0.588400 6.275600
0.624500 7.759600
0.660600 8.411400
0.696700 6.341300
0.732900 5.387200
0.769000 3.483100
0.805100 2.686600
0.841200 2.129900
0.877300 1.871700
0.913400 2.061400
0.949500 2.627800
0.985700 4.597800
1.021800 5.267900
1.057900 6.753800
1.094000 7.582200
1.130100 6.685900
1.166200 5.444800
1.202300 5.480500
1.238500 6.203300
1.274600 6.666200
1.310700 6.615500
1.346800 6.624200
1.382900 6.285000
1.419000 5.893500
1.455100 5.319100
1.491300 4.932500
1.527400 5.326900
1.563500 5.452300
1.599600 5.700800
1.635700 6.664900
1.671800 4.750400
1.707900 5.459600
1.744000 7.224600
1.780200 8.685600
1.816300 6.580400
1.852400 7.556000
1.888500 6.069900
1.924600 3.949000
1.960700 3.573600
1.996800 3.871000
2.033000 4.482800
2.069100 5.154900
2.105200 5.263700
2.141300 5.555200
2.177400 4.744000
2.213500 3.870800
2.249600 3.340800
2.285800 3.388600
2.321900 3.544800
2.358000 5.001000
2.394100 7.700200
2.430200 5.892500
2.466300 5.418900
2.502400 5.072200
2.538600 5.156200
2.574700 5.082000
2.610800 4.652700
2.646900 3.776700
2.683000 3.952500
2.719100 3.785500
2.755200 3.812200
2.791300 2.930900
2.827500 2.841900
2.863600 0.041700
2.899700 0.088000
2.935800 0.151400
2.971900 0.231900
3.008000 0.329400
3.044100 0.444100
3.080300 0.575900
3.116400 1.445000
3.152500 2.317000
3.188600 3.173600
3.224700 6.216700
3.260800 9.449600
3.296900 12.617200
3.333100 8.736200
3.369200 5.930500
3.405300 3.929900
3.441400 7.580500
3.477500 8.785800
3.513600 10.452900
3.549700 6.894200
3.585900 5.579100
3.622000 4.943800
3.658100 4.638200
3.694200 4.173400
3.730300 2.186300
3.766400 1.399700
3.802500 0.912600
3.838600 0.916100
3.874800 1.112700
3.910900 1.377900
3.947000 1.756500
3.983100 2.508000
4.019200 3.631900
4.055300 9.906400
4.091400 14.397200
4.127600 8.032000
4.163700 2.356900
4.199800 0.000000
4.235900 0.000000
4.272000 0.000000
4.308100 0.000000
4.344200 0.000000
4.380400 0.000000
4.416500 0.000000
4.452600 0.000000
4.488700 0.000000
4.524800 0.000000
4.560900 0.000000
4.597000 0.000000
4.633200 0.000000
4.669300 0.000000
4.705400 0.000000
4.741500 0.000000
4.777600 0.000000
4.813700 0.000000
4.849800 0.000000
4.885900 0.000000
4.922100 0.000000
4.958200 0.000000
4.994300 0.000000
5.030400 0.000000
5.066500 0.000000
5.102600 0.000000
5.138700 0.000000
5.174900 0.000000
5.211000 0.000000
5.247100 0.000000
5.283200 0.000000
5.319300 0.000000
5.355400 0.000000
5.391500 0.000000
5.427700 0.000000
5.463800 0.000000
5.499900 0.000000
5.536000 0.000000
5.572100 0.000000
5.608200 0.000000
5.644300 0.000000
5.680500 0.000000
5.716600 0.000000
5.752700 0.000000
5.788800 0.000000
5.824900 0.000000
5.861000 0.000000
5.897100 0.000000
5.933200 0.000000
5.969400 0.000000
6.005500 0.000000
6.041600 0.000000
6.077700 0.000000
6.113800 0.000000
6.149900 0.000000
6.186000 0.000000
6.222200 0.000000
6.258300 0.000000
6.294400 0.000000
6.330500 0.000000
6.366600 0.000000
6.402700 0.000000
6.438800 0.000000
6.475000 0.000000
6.511100 0.000000
6.547200 0.000000
6.583300 0.000000
6.619400 0.000000
6.655500 0.000000
6.691600 0.000000
6.727800 0.000000
6.763900 0.000000
6.800000 0.000000
6.836100 0.000000
6.872200 0.000000
6.908300 0.000000
6.944400 0.000000
6.980500 0.000000
7.016700 0.000000
7.052800 0.000000
7.088900 0.000000
7.125000 0.000000
7.161100 0.000000
7.197200 0.000000
7.233300 0.000000
7.269500 0.000000
7.305600 0.000000
7.341700 0.000000
7.377800 0.000000
7.413900 0.000000
7.450000 0.000000
7.486100 0.000000
7.522300 0.000000
7.558400 0.000000
7.594500 0.000000
7.630600 0.000000
7.666700 0.000000
7.702800 0.000000
7.738900 0.000000
7.775100 0.000000
7.811200 0.000000
7.847300 0.000000
7.883400 0.000000
7.919500 0.000000
7.955600 0.000000
7.991700 0.000000
8.027800 0.000000
8.064000 0.000000
8.100100 0.000000
8.136200 0.000000
8.172300 0.000000
8.208400 0.000000
8.244500 0.000000
8.280600 0.000000
8.316800 0.000000
8.352900 0.000000
8.389000 0.000000
8.425100 0.000000
8.461200 0.000000
8.497300 0.000000
8.533400 0.000000
8.569600 0.000000
8.605700 0.000000
8.641800 0.000000
8.677900 0.000000
8.714000 0.000000
8.750100 0.000000
8.786200 0.000000
8.822300 0.000000
8.858500 0.000000
8.894600 0.000000
8.930700 0.000000
8.966800 0.000000
9.002900 0.000000
9.039000 0.000000
9.075100 5.010100
9.111300 14.577900
9.147400 13.040400
9.183500 11.955500
9.219600 17.955200
9.255700 80.564600
9.291800 41.496500
9.327900 54.766000
9.364100 30.839500
9.400200 13.640400
9.436300 32.562300
9.472400 33.750200
9.508500 13.601000
9.544600 4.426300
9.580700 1.014300
9.616900 0.000000
9.653000 0.000000
9.689100 0.000000
9.725200 0.000000
9.761300 0.000000
9.797400 0.000000
9.833500 0.000000
9.869600 0.000000
9.905800 0.001900
9.941900 0.019700
9.978000 0.034000
10.014100 0.044900
10.050200 0.052300
10.086300 0.056600
10.122400 0.067300
10.158600 0.078000
10.194700 0.090600
10.230800 0.105400
10.266900 0.122400
10.303000 0.141500
10.339100 0.162900
10.375200 0.186400
10.411400 0.211600
10.447500 0.238400
10.483600 0.266800
10.519700 0.296600
10.555800 0.334400
10.591900 0.426100
10.628000 0.468900
10.664200 0.521600
10.700300 0.573500
10.736400 0.623200
10.772500 0.670700
10.808600 0.715300
10.844700 0.757000
10.880800 0.808400
10.916900 0.866300
10.953100 0.933800
10.989200 0.960800
11.025300 0.985000
11.061400 1.008800
11.097500 1.032000
11.133600 1.068100
11.169700 1.115100
11.205900 1.170100
11.242000 1.230300
11.278100 1.300900
11.314200 1.391900
11.350300 1.531700
11.386400 1.637500
11.422500 1.730700
11.458700 1.813300
11.494800 2.304000
11.530900 3.952200
11.567000 2.640500
11.603100 3.133200
11.639200 3.496700
11.675300 3.843100
11.711500 3.947100
11.747600 4.019200
11.783700 4.125000
11.819800 4.282300
11.855900 4.851300
11.892000 3.911200
11.928100 2.340900
11.964200 1.626800
12.000400 1.774100
12.036500 1.926600
12.072600 2.085700
12.108700 2.287900
12.144800 2.636500
12.180900 2.974600
12.217000 3.238900
12.253200 3.614700
12.289300 4.723000
12.325400 4.838700
12.361500 5.242300
12.397600 4.021600
12.433700 4.255500
12.469800 4.968900
12.506000 6.260900
12.542100 7.375900
12.578200 6.547400
12.614300 5.071400
12.650400 3.827800
12.686500 2.548700
12.722600 1.788200
12.758800 1.678700
12.794900 1.912700
12.831000 2.464200
12.867100 3.179900
12.903200 3.957200
12.939300 3.999900
12.975400 3.588700
13.011500 3.781600
13.047700 3.392100
13.083800 3.304500
13.119900 3.305800
13.156000 3.523100
13.192100 3.812800
13.228200 4.320100
13.264300 5.080600
13.300500 5.288400
13.336600 4.578000
13.372700 4.405800
13.408800 4.197800
13.444900 4.680200
13.481000 4.340000
13.517100 4.258600
13.553300 4.538900
13.589400 5.540300
13.625500 4.835400
13.661600 3.875100
13.697700 3.803700
13.733800 3.695800
13.769900 3.636900
13.806100 2.849400
13.842200 2.169700
13.878300 1.358900
13.914400 0.373700
13.950500 0.142200
13.986600 0.127500
14.022700 0.129600
14.058800 0.132100
14.095000 0.134700
14.131100 0.137600
14.167200 0.140800
14.203300 0.144100
14.239400 0.147800
14.275500 0.151600
14.311600 0.155700
14.347800 0.160100
14.383900 0.164600
14.420000 0.169500
14.456100 0.174500
14.492200 0.179800
14.528300 0.185000
14.564400 0.188800
14.600600 0.191000
14.636700 0.191400
14.672800 0.193600
14.708900 0.195600
14.745000 0.197300
14.781100 0.198600
14.817200 0.199600
14.853400 0.200300
14.889500 0.200600
14.925600 0.200500
14.961700 0.200100
14.997800 0.199300
15.033900 0.198200
15.070000 0.197000
15.106100 0.203400
15.142300 0.205600
15.178400 0.208000
15.214500 0.210300
15.250600 0.212800
15.286700 0.215200
15.322800 0.217700
15.358900 0.220300
15.395100 0.222900
15.431200 0.225500
15.467300 0.228200
15.503400 0.231000
15.539500 0.233700
15.575600 0.236600
15.611700 0.239400
15.647900 0.242400
15.684000 0.245300
15.720100 0.248300
15.756200 0.251400
15.792300 0.254500
15.828400 0.257600
15.864500 0.260800
15.900700 0.264100
15.936800 0.267500
15.972900 0.271000
16.009000 0.274600
16.045100 0.278300
16.081200 0.282100
16.117300 0.285900
16.153400 0.289800
16.189600 0.293900
16.225700 0.298200
16.261800 0.302700
16.297900 0.307400
16.334000 0.312400
16.370100 0.317500
16.406200 0.322600
16.442400 0.327800
16.478500 0.333100
16.514600 0.338500
16.550700 0.344000
16.586800 0.349600
16.622900 0.355000
16.659000 0.360400
16.695200 0.366100
16.731300 0.371900
16.767400 0.377900
16.803500 0.384000
16.839600 0.390100
16.875700 0.396500
16.911800 0.404700
16.948000 0.412600
16.984100 0.420300
17.020200 0.427700
17.056300 0.434800
17.092400 0.452000
17.128500 0.470900
17.164600 0.478800
17.200700 0.486500
17.236900 0.494000
17.273000 0.501100
17.309100 0.507900
17.345200 0.514400
17.381300 0.520600
17.417400 0.526600
17.453500 0.544400
17.489700 0.567300
17.525800 0.589900
17.561900 0.606800
17.598000 0.619500
17.634100 0.628100
17.670200 0.632700
17.706300 0.633600
17.742500 0.640800
17.778600 0.647300
17.814700 0.652700
17.850800 0.657000
17.886900 0.661000
17.923000 0.666800
17.959100 0.672500
17.995300 0.678100
18.031400 0.683700
18.067500 0.687400
18.103600 0.680800
18.139700 0.678400
18.175800 0.680400
18.211900 0.684800
18.248000 0.679500
18.284200 0.674800
18.320300 0.669000
18.356400 0.662200
18.392500 0.659900
18.428600 0.658000
18.464700 0.654300
18.500800 0.670000
18.537000 0.680200
18.573100 0.681200
18.609200 0.673100
18.645300 0.668100
18.681400 0.649900
18.717500 0.623600
18.753600 0.600200
18.789800 0.575400
18.825900 0.549100
18.862000 0.522000
18.898100 0.476700
18.934200 0.468600
18.970300 0.469500
19.006400 0.472500
19.042600 0.477500
19.078700 0.484600
19.114800 0.493700
19.150900 0.505200
19.187000 0.522800
19.223100 0.544500
19.259200 0.529000
19.295300 0.552400
19.331500 0.578700
19.367600 0.611400
19.403700 0.653100
19.439800 0.705700
19.475900 0.765900
19.512000 0.885100
19.548100 1.105600
19.584300 1.091900
19.620400 1.098400
19.656500 1.102800
19.692600 1.090000
19.728700 1.060100
19.764800 1.013000
19.800900 0.958900
19.837100 0.958800
19.873200 0.970700
19.909300 0.984500
19.945400 1.063400
19.981500 1.171500
20.017600 1.252200
20.053700 1.319100
20.089900 1.372200
20.126000 1.410700
20.162100 1.414100
20.198200 1.374000
20.234300 1.301700
20.270400 1.218800
20.306500 1.159300
20.342600 1.112000
20.378800 1.066200
20.414900 1.021300
20.451000 0.977400
20.487100 0.935800
20.523200 0.920100
20.559300 0.903700
20.595400 0.884900
20.631600 0.861400
20.667700 0.838500
20.703800 0.816600
20.739900 0.805000
20.776000 0.695400
20.812100 0.692500
20.848200 0.721700
20.884400 0.918600
20.920500 1.166600
20.956600 1.287400
20.992700 1.387600
21.028800 1.440300
21.064900 1.492100
21.101000 1.542900
21.137200 1.592800
21.173300 1.650000
21.209400 1.731800
21.245500 1.808100
21.281600 1.778000
21.317700 1.683500
21.353800 1.702900
21.389900 1.697500
21.426100 1.959700
21.462200 1.841300
21.498300 1.748000
21.534400 1.533100
21.570500 1.305400
21.606600 1.148500
21.642700 1.226800
21.678900 0.878100
21.715000 0.828500
21.751100 0.820900
21.787200 0.854300
21.823300 0.850000
21.859400 0.806300
21.895500 1.107200
21.931700 0.771100
21.967800 0.771100
22.003900 0.771500
22.040000 0.772200
22.076100 0.773300
22.112200 0.774700
22.148300 0.776400
22.184500 0.778400
22.220600 0.780800
22.256700 0.783500
22.292800 0.786600
22.328900 0.790000
22.365000 0.794200
22.401100 0.802200
22.437200 0.948900
22.473400 0.892100
22.509500 0.908300
22.545600 0.966100
22.581700 1.084100
22.617800 1.111300
22.653900 1.128300
22.690000 1.161900
22.726200 1.240200
22.762300 1.343400
22.798400 1.486700
22.834500 1.699500
22.870600 1.854600
22.906700 2.005300
22.942800 2.071400
22.979000 2.174200
23.015100 2.568300
23.051200 3.207600
23.087300 3.900900
23.123400 3.821500
23.159500 3.423800
23.195600 3.088700
23.231800 2.823300
23.267900 2.741000
23.304000 2.709400
23.340100 2.733800
23.376200 2.666200
23.412300 2.790600
23.448400 2.625300
23.484500 2.595600
23.520700 2.589200
23.556800 2.602500
23.592900 2.648700
23.629000 2.686800
23.665100 2.698600
23.701200 2.707700
23.737300 2.733500
23.773500 2.835500
23.809600 2.938400
23.845700 2.954700
23.881800 2.975100
23.917900 3.052000
23.954000 2.943500
23.990100 2.859900
24.026300 2.891400
24.062400 2.822300
24.098500 2.695000
24.134600 2.603000
24.170700 2.529500
24.206800 2.466600
24.242900 2.416800
24.279100 2.382600
24.315200 2.352400
24.351300 2.306900
24.387400 2.282000
24.423500 2.277300
24.459600 2.278300
24.495700 2.262900
24.531800 2.230100
24.568000 2.304500
24.604100 1.968900
24.640200 1.883500
24.676300 1.822600
24.712400 1.789100
24.748500 1.769600
24.784600 1.729100
24.820800 1.773700
24.856900 1.773600
24.893000 1.781500
24.929100 1.801600
24.965200 1.837500
25.001300 1.884200
25.037400 1.947400
25.073600 2.073800
25.109700 2.227200
25.145800 2.223000
25.181900 2.242600
25.218000 2.423800
25.254100 2.495100
25.290200 2.578800
25.326400 2.666300
25.362500 2.769100
25.398600 2.871500
25.434700 2.916000
25.470800 2.918200
25.506900 2.755700
25.543000 2.575400
25.579100 2.385400
25.615300 2.196100
25.651400 1.942900
25.687500 1.825100
25.723600 1.723700
25.759700 1.626100
25.795800 1.534000
25.831900 1.449800
25.868100 1.373800
25.904200 1.318300
25.940300 1.236200
25.976400 1.232800
26.012500 1.156600
26.048600 1.084900
26.084700 1.014400
26.120900 0.944900
26.157000 0.881200
26.193100 0.888500
26.229200 0.910400
26.265300 0.889700
26.301400 0.902700
26.337500 0.994500
26.373700 1.350700
26.409800 1.663900
26.445900 1.894900
26.482000 2.062900
26.518100 2.226300
26.554200 2.387800
26.590300 2.525200
26.626400 2.581200
26.662600 2.627600
26.698700 2.681600
26.734800 2.718500
26.770900 2.737900
26.807000 2.723600
26.843100 2.666700
26.879200 2.603100
26.915400 2.521800
26.951500 2.435300
26.987600 2.314900
27.023700 2.190400
27.059800 2.065600
27.095900 1.979500
27.132000 2.018400
27.168200 2.188700
27.204300 2.380300
27.240400 1.844200
27.276500 1.491300
27.312600 1.443400
27.348700 1.556000
27.384800 1.562000
27.421000 1.566200
27.457100 1.563200
27.493200 1.555500
27.529300 1.573100
27.565400 1.611100
27.601500 1.642100
27.637600 1.689600
27.673700 1.794700
27.709900 1.866100
27.746000 1.882800
27.782100 1.872800
27.818200 1.862600
27.854300 1.843700
27.890400 1.821000
27.926500 1.819600
27.962700 1.824200
27.998800 3.368800
28.034900 2.207600
28.071000 1.738600
28.107100 1.688000
28.143200 1.648700
28.179300 1.677200
28.215500 1.700200
28.251600 1.717700
28.287700 1.727400
28.323800 1.729800
28.359900 1.725200
28.396000 1.713900
28.432100 1.683500
28.468300 1.611900
28.504400 1.585800
28.540500 1.600400
28.576600 1.614000
28.612700 1.559500
28.648800 1.568600
28.684900 1.556500
28.721000 1.624600
28.757200 1.729800
28.793300 1.839000
28.829400 2.002400
28.865500 2.089400
28.901600 2.159500
28.937700 2.174900
28.973800 2.202700
29.010000 2.364800
29.046100 2.407500
29.082200 2.399000
29.118300 2.306100
29.154400 2.081600
29.190500 2.039800
29.226600 2.064000
29.262800 1.984400
29.298900 1.961800
29.335000 2.292300
29.371100 2.103800
29.407200 2.100100
29.443300 2.130600
29.479400 2.043800
29.515600 1.943000
29.551700 1.842000
29.587800 1.736700
29.623900 2.568200
29.660000 1.610000
29.696100 1.552100
29.732200 1.529000
29.768300 1.498000
29.804500 1.471100
29.840600 1.444700
29.876700 1.425300
29.912800 1.412900
29.948900 1.408100
29.985000 1.411000
30.021100 1.417700
30.057300 1.439100
30.093400 1.454400
30.129500 1.473900
30.165600 1.497700
30.201700 1.525900
30.237800 1.563900
30.273900 1.615200
30.310100 1.673400
30.346200 1.763700
30.382300 1.974800
30.418400 2.412400
30.454500 2.665600
30.490600 2.849800
30.526700 2.805500
30.562800 2.534500
30.599000 2.219000
30.635100 1.777400
30.671200 1.455300
30.707300 1.301100
30.743400 1.204900
30.779500 1.194200
30.815600 1.193900
30.851800 1.198600
30.887900 1.411300
30.924000 1.599800
30.960100 1.999100
30.996200 1.913000
31.032300 1.981400
31.068400 2.076600
31.104600 2.143000
31.140700 2.182100
31.176800 2.023700
31.212900 1.938200
31.249000 1.913100
31.285100 1.935800
31.321200 1.954700
31.357400 1.953400
31.393500 1.967400
31.429600 1.998100
31.465700 2.030300
31.501800 2.063300
31.537900 2.231400
31.574000 2.079100
31.610100 2.042700
31.646300 1.959400
31.682400 1.954500
31.718500 1.802200
31.754600 1.817300
31.790700 2.363300
31.826800 1.922700
31.862900 1.957100
31.899100 2.002800
31.935200 1.908100
31.971300 1.901700
32.007400 2.012100
32.043500 2.115900
32.079600 2.021300
32.115700 1.889200
32.151900 1.794800
32.188000 1.756500
32.224100 1.739200
32.260200 1.724800
32.296300 1.714200
32.332400 1.703700
32.368500 1.693800
32.404700 1.668800
32.440800 1.649200
32.476900 1.655900
32.513000 1.700700
32.549100 1.757700
32.585200 1.760000
32.621300 1.723200
32.657400 1.650700
32.693600 1.542300
32.729700 1.398900
32.765800 1.190600
32.801900 1.462900
32.838000 1.716700
32.874100 2.168900
32.910200 2.550000
32.946400 3.053400
32.982500 3.651900
33.018600 3.602600
33.054700 3.254500
33.090800 3.046500
33.126900 2.808700
33.163000 2.618000
33.199200 2.668600
33.235300 2.414400
33.271400 2.271200
33.307500 2.267800
33.343600 2.311100
33.379700 2.350200
33.415800 2.395600
33.452000 2.373900
33.488100 2.349400
33.524200 2.282000
33.560300 2.273900
33.596400 2.253400
33.632500 2.229400
33.668600 2.203200
33.704700 2.184100
33.740900 2.019800
33.777000 1.971700
33.813100 1.972600
33.849200 1.960600
33.885300 1.962600
33.921400 1.958200
33.957500 1.955500
33.993700 1.963300
34.029800 1.957700
34.065900 1.936700
34.102000 1.925500
34.138100 1.895200
34.174200 1.821100
34.210300 1.751100
34.246500 1.653000
34.282600 1.403400
34.318700 1.411900
34.354800 1.439900
34.390900 1.567900
34.427000 1.617100
34.463100 1.663400
34.499300 1.700500
34.535400 1.707300
34.571500 1.679900
34.607600 1.708200
34.643700 1.731700
34.679800 1.735300
34.715900 1.721900
34.752000 1.698500
34.788200 1.661100
34.824300 1.593900
34.860400 1.539400
34.896500 1.513300
34.932600 1.499200
34.968700 1.497200
35.004800 1.507200
35.041000 1.520600
35.077100 1.556900
35.113200 1.601600
35.149300 1.656800
35.185400 1.723700
35.221500 1.751400
35.257600 1.701400
35.293800 1.731800
35.329900 1.760100
35.366000 1.912300
35.402100 2.008900
35.438200 2.142400
35.474300 2.232500
35.510400 2.364400
35.546600 2.568500
35.582700 2.557100
35.618800 2.361300
35.654900 2.110600
35.691000 1.999300
35.727100 1.871100
35.763200 1.756500
35.799300 1.677000
35.835500 1.719400
35.871600 1.828200
35.907700 1.935000
35.943800 2.014900
35.979900 2.080400
36.016000 2.139700
36.052100 2.112700
36.088300 2.202900
36.124400 2.259700
36.160500 2.194000
36.196600 2.083200
36.232700 1.919000
36.268800 1.731400
36.304900 1.616100
36.341100 1.692700
36.377200 1.716200
36.413300 1.615500
36.449400 1.392600
36.485500 1.034900
36.521600 1.114400
36.557700 1.380400
36.593900 1.158100
36.630000 1.170300
36.666100 1.182800
36.702200 1.201800
36.738300 1.200900
36.774400 1.233000
36.810500 1.288500
36.846600 1.365700
36.882800 1.444700
36.918900 1.520000
36.955000 1.574000
36.991100 1.604700
37.027200 1.647400
37.063300 1.749800
37.099400 1.866600
37.135600 1.898100
37.171700 1.980500
37.207800 2.063900
37.243900 2.149500
37.280000 2.229300
37.316100 2.305900
37.352200 2.372100
37.388400 2.375600
37.424500 2.413700
37.460600 2.496700
37.496700 2.545600
37.532800 2.571100
37.568900 2.581700
37.605000 2.715000
37.641200 3.143100
37.677300 2.736500
37.713400 2.593600
37.749500 2.264500
37.785600 2.205500
37.821700 2.178600
37.857800 2.180800
37.893900 2.182600
37.930100 2.206100
37.966200 2.357400
38.002300 2.466500
38.038400 2.917700
38.074500 2.631300
38.110600 3.147800
38.146700 3.158900
38.182900 2.808700
38.219000 2.715700
38.255100 2.644900
38.291200 2.479300
38.327300 2.398500
38.363400 2.320800
38.399500 2.250600
38.435700 2.185500
38.471800 2.123600
38.507900 2.060800
38.544000 2.020100
38.580100 1.993300
38.616200 1.974800
38.652300 1.993100
38.688500 2.020900
38.724600 2.048600
38.760700 1.962500
38.796800 2.003800
38.832900 2.056500
38.869000 2.129300
38.905100 2.165500
38.941200 2.272600
38.977400 2.330400
39.013500 2.093300
39.049600 2.103800
39.085700 2.083800
39.121800 1.874800
39.157900 1.807900
39.194000 1.761400
39.230200 1.735100
39.266300 1.744100
39.302400 1.841200
39.338500 2.123200
39.374600 2.155100
39.410700 2.055600
39.446800 1.932300
39.483000 1.717900
39.519100 1.274200
39.555200 1.199800
39.591300 1.097400
39.627400 1.060500
39.663500 0.927200
39.699600 0.719000
39.735800 0.657500
39.771900 0.578200
39.808000 0.508500
39.844100 0.448200
39.880200 0.382200
39.916300 0.306900
39.952400 0.242900
39.988500 0.190300
40.024700 0.149000
40.060800 0.030600
40.096900 0.007200
40.133000 0.004900
40.169100 0.002600
40.205200 0.000200
40.241300 0.000000
40.277500 0.000000
40.313600 0.000000
40.349700 0.000000
40.385800 0.000000
40.421900 0.000000
40.458000 0.000000
40.494100 0.000000
40.530300 0.000000
40.566400 0.000000
40.602500 0.000000
40.638600 0.000000
40.674700 0.000000
40.710800 0.000000
40.746900 0.000000
40.783100 0.000000
40.819200 0.000000
40.855300 0.000000
40.891400 0.000000
40.927500 0.000000
40.963600 0.000000
40.999700 0.000000
41.035800 0.000000
41.072000 0.000000
41.108100 0.000000
41.144200 0.000000
41.180300 0.000000
41.216400 0.000000
41.252500 0.000000
41.288600 0.000000
41.324800 0.000000
41.360900 0.000000
41.397000 0.000000
41.433100 0.000000
41.469200 0.000000
41.505300 0.000000
41.541400 0.000000
41.577600 0.000000
41.613700 0.000000
41.649800 0.000000
41.685900 0.000000
41.722000 0.000000
41.758100 0.000000
41.794200 0.000000
41.830400 0.000000
41.866500 0.000000
41.902600 0.000000
41.938700 0.000000
41.974800 0.000000
42.010900 0.000000
42.047000 0.000000
42.083100 0.000000
42.119300 0.000000
42.155400 0.000000
42.191500 0.000000
42.227600 0.000000
42.263700 0.000000
42.299800 0.000000
42.335900 0.000000
42.372100 0.000000
42.408200 0.000000
42.444300 0.000000
42.480400 0.000000
42.516500 0.000000
42.552600 0.000000
42.588700 0.000000
42.624900 0.000000
42.661000 0.000000
42.697100 0.000000
42.733200 0.000000
42.769300 0.000000
42.805400 0.000000
42.841500 0.000000
42.877700 0.000000
42.913800 0.000000
42.949900 0.000000
42.986000 0.000000
43.022100 0.000000
43.058200 0.000000
43.094300 0.000000
43.130400 0.000000
43.166600 0.000000
43.202700 0.000000
43.238800 0.000000
43.274900 0.000000
43.311000 0.000000
43.347100 0.000000
43.383200 0.000000
43.419400 0.000000
43.455500 0.000000
43.491600 0.000000
e
