set title 'mp-1238832 - Density of States'
set xlabel 'Energy (eV)'
set ylabel 'DOS (states/eV)'
set grid
set xrange [-10:10]
set yrange [0:97.107]
set xzeroaxis lt -1
set terminal png size 800,600
set output 'mp-1238832_dos_gnuplot.png'
plot '-' using 1:2 with lines title 'DOS'
-17.816400 0.000000
-17.799200 0.000000
-17.782000 0.000000
-17.764900 0.000000
-17.747700 0.000000
-17.730500 0.000000
-17.713300 0.000000
-17.696100 0.000000
-17.679000 0.000000
-17.661800 0.000000
-17.644600 0.000000
-17.627400 0.000000
-17.610200 0.000000
-17.593000 0.000000
-17.575900 0.000000
-17.558700 0.000000
-17.541500 0.000000
-17.524300 0.000000
-17.507100 0.000000
-17.490000 0.000000
-17.472800 0.000000
-17.455600 0.000000
-17.438400 0.000000
-17.421200 0.000000
-17.404100 0.000000
-17.386900 0.000000
-17.369700 0.000000
-17.352500 0.000000
-17.335300 0.000000
-17.318100 0.000000
-17.301000 0.000000
-17.283800 0.000000
-17.266600 0.000000
-17.249400 0.000000
-17.232200 0.000000
-17.215100 0.000000
-17.197900 0.000000
-17.180700 0.000000
-17.163500 0.000000
-17.146300 0.000000
-17.129100 0.000000
-17.112000 0.000000
-17.094800 0.000000
-17.077600 0.000000
-17.060400 0.000000
-17.043200 0.000000
-17.026100 0.000000
-17.008900 0.000000
-16.991700 0.000000
-16.974500 0.000000
-16.957300 0.000000
-16.940100 0.000000
-16.923000 0.000000
-16.905800 0.000000
-16.888600 0.000000
-16.871400 0.000000
-16.854200 0.000000
-16.837100 0.000000
-16.819900 0.000000
-16.802700 0.000000
-16.785500 0.000000
-16.768300 0.000000
-16.751100 0.000000
-16.734000 0.000000
-16.716800 0.000000
-16.699600 0.000000
-16.682400 0.000000
-16.665200 0.000000
-16.648100 0.000000
-16.630900 0.000000
-16.613700 0.000000
-16.596500 0.000000
-16.579300 0.000000
-16.562100 0.000000
-16.545000 0.000000
-16.527800 0.000000
-16.510600 0.000000
-16.493400 0.000000
-16.476200 0.000000
-16.459100 0.000000
-16.441900 0.000000
-16.424700 0.000000
-16.407500 0.000000
-16.390300 0.000000
-16.373200 0.000000
-16.356000 0.000000
-16.338800 0.000000
-16.321600 0.000000
-16.304400 0.000000
-16.287200 0.000000
-16.270100 0.000000
-16.252900 0.023900
-16.235700 1.988000
-16.218500 4.987800
-16.201300 5.760700
-16.184200 3.310000
-16.167000 5.737200
-16.149800 7.844900
-16.132600 7.283200
-16.115400 5.743000
-16.098200 4.366700
-16.081100 4.202000
-16.063900 4.124800
-16.046700 3.666400
-16.029500 3.395400
-16.012300 3.233800
-15.995200 3.231800
-15.978000 3.123200
-15.960800 2.936500
-15.943600 2.862600
-15.926400 2.828500
-15.909200 2.645000
-15.892100 2.539700
-15.874900 2.488300
-15.857700 2.488400
-15.840500 2.488500
-15.823300 2.488600
-15.806200 2.469300
-15.789000 2.411900
-15.771800 2.330500
-15.754600 3.308800
-15.737400 9.999900
-15.720200 16.610000
-15.703100 11.530000
-15.685900 21.193500
-15.668700 19.413700
-15.651500 14.173300
-15.634300 12.977500
-15.617200 11.954700
-15.600000 11.160100
-15.582800 9.977100
-15.565600 9.700700
-15.548400 9.700300
-15.531200 9.592600
-15.514100 9.182600
-15.496900 8.840900
-15.479700 8.418000
-15.462500 7.993300
-15.445300 7.993600
-15.428200 7.993800
-15.411000 7.994100
-15.393800 7.994400
-15.376600 7.983400
-15.359400 7.867300
-15.342300 7.772900
-15.325100 7.657300
-15.307900 7.599200
-15.290700 7.599400
-15.273500 7.599700
-15.256300 7.600000
-15.239200 7.600300
-15.222000 7.600600
-15.204800 7.600000
-15.187600 7.669300
-15.170400 8.047700
-15.153300 8.285600
-15.136100 8.635800
-15.118900 8.636400
-15.101700 8.637100
-15.084500 8.637700
-15.067300 8.638500
-15.050200 8.938100
-15.033000 11.649100
-15.015800 15.276700
-14.998600 15.510100
-14.981400 5.884900
-14.964300 5.934000
-14.947100 5.934300
-14.929900 5.934500
-14.912700 5.934800
-14.895500 5.935100
-14.878300 5.935400
-14.861200 6.553600
-14.844000 7.866100
-14.826800 8.646800
-14.809600 8.647600
-14.792400 8.648500
-14.775300 8.649500
-14.758100 9.095300
-14.740900 24.221100
-14.723700 24.668600
-14.706500 0.000000
-14.689300 0.000000
-14.672200 0.000000
-14.655000 0.000000
-14.637800 0.000000
-14.620600 0.000000
-14.603400 0.000000
-14.586300 0.000000
-14.569100 0.000000
-14.551900 0.000000
-14.534700 0.000000
-14.517500 0.000000
-14.500300 0.000000
-14.483200 0.000000
-14.466000 0.000000
-14.448800 0.000000
-14.431600 0.000000
-14.414400 0.000000
-14.397300 0.000000
-14.380100 0.000000
-14.362900 0.000000
-14.345700 0.000000
-14.328500 0.000000
-14.311400 0.000000
-14.294200 0.000000
-14.277000 0.000000
-14.259800 0.000000
-14.242600 0.000000
-14.225400 0.000000
-14.208300 0.000000
-14.191100 0.000000
-14.173900 0.000000
-14.156700 0.000000
-14.139500 0.000000
-14.122400 0.000000
-14.105200 0.000000
-14.088000 0.000000
-14.070800 0.000000
-14.053600 0.000000
-14.036400 0.000000
-14.019300 0.000000
-14.002100 0.000000
-13.984900 0.000000
-13.967700 0.000000
-13.950500 0.000000
-13.933400 0.000000
-13.916200 0.000000
-13.899000 0.000000
-13.881800 0.000000
-13.864600 0.000000
-13.847400 0.000000
-13.830300 0.000000
-13.813100 0.000000
-13.795900 0.000000
-13.778700 0.000000
-13.761500 0.000000
-13.744400 0.000000
-13.727200 0.000000
-13.710000 0.000000
-13.692800 0.000000
-13.675600 0.000000
-13.658400 0.000000
-13.641300 0.000000
-13.624100 0.000000
-13.606900 0.000000
-13.589700 0.000000
-13.572500 0.000000
-13.555400 0.000000
-13.538200 0.000000
-13.521000 0.000000
-13.503800 0.000000
-13.486600 0.000000
-13.469400 0.000000
-13.452300 0.000000
-13.435100 0.000000
-13.417900 0.000000
-13.400700 0.000000
-13.383500 0.000000
-13.366400 0.000000
-13.349200 0.000000
-13.332000 0.000000
-13.314800 0.000000
-13.297600 0.000000
-13.280500 0.000000
-13.263300 0.000000
-13.246100 0.000000
-13.228900 0.000000
-13.211700 0.000000
-13.194500 0.000000
-13.177400 0.000000
-13.160200 0.000000
-13.143000 0.000000
-13.125800 0.000000
-13.108600 0.000000
-13.091500 0.000000
-13.074300 0.000000
-13.057100 0.000000
-13.039900 0.000000
-13.022700 0.000000
-13.005500 0.000000
-12.988400 0.000000
-12.971200 0.000000
-12.954000 0.000000
-12.936800 0.000000
-12.919600 0.000000
-12.902500 0.000000
-12.885300 0.000000
-12.868100 0.000000
-12.850900 0.000000
-12.833700 0.000000
-12.816500 0.000000
-12.799400 0.000000
-12.782200 0.000000
-12.765000 0.000000
-12.747800 0.000000
-12.730600 0.000000
-12.713500 0.000000
-12.696300 0.000000
-12.679100 0.000000
-12.661900 0.000000
-12.644700 0.000000
-12.627500 0.000000
-12.610400 0.000000
-12.593200 0.000000
-12.576000 0.000000
-12.558800 0.000000
-12.541600 0.000000
-12.524500 0.000000
-12.507300 0.000000
-12.490100 0.000000
-12.472900 0.000000
-12.455700 0.000000
-12.438500 0.000000
-12.421400 0.000000
-12.404200 0.000000
-12.387000 0.000000
-12.369800 0.000000
-12.352600 0.000000
-12.335500 0.000000
-12.318300 0.000000
-12.301100 0.000000
-12.283900 0.000000
-12.266700 0.000000
-12.249600 0.000000
-12.232400 0.000000
-12.215200 0.000000
-12.198000 0.000000
-12.180800 0.000000
-12.163600 0.000000
-12.146500 0.000000
-12.129300 0.000000
-12.112100 0.000000
-12.094900 0.000000
-12.077700 0.000000
-12.060600 0.000000
-12.043400 0.000000
-12.026200 0.000000
-12.009000 0.000000
-11.991800 0.000000
-11.974600 0.000000
-11.957500 0.000000
-11.940300 0.000000
-11.923100 0.000000
-11.905900 0.000000
-11.888700 0.000000
-11.871600 0.000000
-11.854400 0.000000
-11.837200 0.000000
-11.820000 0.000000
-11.802800 0.000000
-11.785600 0.000000
-11.768500 0.000000
-11.751300 0.000000
-11.734100 0.000000
-11.716900 0.000000
-11.699700 0.000000
-11.682600 0.000000
-11.665400 0.000000
-11.648200 0.000000
-11.631000 0.000000
-11.613800 0.000000
-11.596600 0.000000
-11.579500 0.000000
-11.562300 0.000000
-11.545100 0.000000
-11.527900 0.000000
-11.510700 0.000000
-11.493600 0.000000
-11.476400 0.000000
-11.459200 0.000000
-11.442000 0.000000
-11.424800 0.000000
-11.407700 0.000000
-11.390500 0.000000
-11.373300 0.000000
-11.356100 0.000000
-11.338900 0.000000
-11.321700 0.000000
-11.304600 0.000000
-11.287400 0.000000
-11.270200 0.000000
-11.253000 0.000000
-11.235800 0.000000
-11.218700 0.000000
-11.201500 0.000000
-11.184300 0.000000
-11.167100 0.000000
-11.149900 0.000000
-11.132700 0.000000
-11.115600 0.000000
-11.098400 0.000000
-11.081200 0.000000
-11.064000 0.000000
-11.046800 0.000000
-11.029700 0.000000
-11.012500 0.000000
-10.995300 0.000000
-10.978100 0.000000
-10.960900 0.000000
-10.943700 0.000000
-10.926600 0.000000
-10.909400 0.000000
-10.892200 0.000000
-10.875000 0.000000
-10.857800 0.000000
-10.840700 0.000000
-10.823500 0.000000
-10.806300 0.000000
-10.789100 0.000000
-10.771900 0.000000
-10.754700 0.000000
-10.737600 0.000000
-10.720400 0.000000
-10.703200 0.000000
-10.686000 0.000000
-10.668800 0.000000
-10.651700 0.000000
-10.634500 0.000000
-10.617300 0.000000
-10.600100 0.000000
-10.582900 0.000000
-10.565700 0.000000
-10.548600 0.000000
-10.531400 0.000000
-10.514200 0.000000
-10.497000 0.000000
-10.479800 0.000000
-10.462700 0.000000
-10.445500 0.000000
-10.428300 0.000000
-10.411100 0.000000
-10.393900 0.000000
-10.376800 0.000000
-10.359600 0.000000
-10.342400 0.000000
-10.325200 0.000000
-10.308000 0.000000
-10.290800 0.000000
-10.273700 0.000000
-10.256500 0.000000
-10.239300 0.000000
-10.222100 0.000000
-10.204900 0.000000
-10.187800 0.000000
-10.170600 0.000000
-10.153400 0.000000
-10.136200 0.000000
-10.119000 0.000000
-10.101800 0.000000
-10.084700 0.000000
-10.067500 0.000000
-10.050300 0.000000
-10.033100 0.000000
-10.015900 0.000000
-9.998800 0.000000
-9.981600 0.000000
-9.964400 0.000000
-9.947200 0.000000
-9.930000 0.000000
-9.912800 0.000000
-9.895700 0.000000
-9.878500 0.000000
-9.861300 0.000000
-9.844100 0.000000
-9.826900 0.000000
-9.809800 0.000000
-9.792600 0.000000
-9.775400 0.000000
-9.758200 0.000000
-9.741000 0.000000
-9.723800 0.000000
-9.706700 0.000000
-9.689500 0.000000
-9.672300 0.000000
-9.655100 0.000000
-9.637900 0.000000
-9.620800 0.000000
-9.603600 0.000000
-9.586400 0.000000
-9.569200 0.000000
-9.552000 0.000000
-9.534800 0.000000
-9.517700 0.000000
-9.500500 0.000000
-9.483300 0.000000
-9.466100 0.000000
-9.448900 0.000000
-9.431800 0.000000
-9.414600 0.000000
-9.397400 0.000000
-9.380200 0.000000
-9.363000 0.000000
-9.345900 0.000000
-9.328700 0.000000
-9.311500 0.000000
-9.294300 0.000000
-9.277100 0.000000
-9.259900 0.000000
-9.242800 0.000000
-9.225600 0.000000
-9.208400 0.000000
-9.191200 0.000000
-9.174000 0.000000
-9.156900 0.000000
-9.139700 0.000000
-9.122500 0.000000
-9.105300 0.000000
-9.088100 0.000000
-9.070900 0.000000
-9.053800 0.000000
-9.036600 0.000000
-9.019400 0.000000
-9.002200 0.000000
-8.985000 0.000000
-8.967900 0.000000
-8.950700 0.000000
-8.933500 0.000000
-8.916300 0.000000
-8.899100 0.000000
-8.881900 0.000000
-8.864800 0.000000
-8.847600 0.000000
-8.830400 0.000000
-8.813200 0.000000
-8.796000 0.000000
-8.778900 0.000000
-8.761700 0.000000
-8.744500 0.000000
-8.727300 0.000000
-8.710100 0.000000
-8.692900 0.000000
-8.675800 0.000000
-8.658600 0.000000
-8.641400 0.000000
-8.624200 0.000000
-8.607000 0.000000
-8.589900 0.000000
-8.572700 0.000000
-8.555500 0.000000
-8.538300 0.000000
-8.521100 0.000000
-8.503900 0.000000
-8.486800 0.000000
-8.469600 0.000000
-8.452400 0.000000
-8.435200 0.000000
-8.418000 0.000000
-8.400900 0.000000
-8.383700 0.000000
-8.366500 0.000000
-8.349300 0.000000
-8.332100 0.000000
-8.315000 0.000000
-8.297800 0.000000
-8.280600 0.000000
-8.263400 0.000000
-8.246200 0.000000
-8.229000 0.000000
-8.211900 0.000000
-8.194700 0.000000
-8.177500 0.000000
-8.160300 0.000000
-8.143100 0.000000
-8.126000 0.000000
-8.108800 0.000000
-8.091600 0.000000
-8.074400 0.000000
-8.057200 0.000000
-8.040000 0.000000
-8.022900 0.000000
-8.005700 0.000000
-7.988500 0.000000
-7.971300 0.000000
-7.954100 0.000000
-7.937000 0.000000
-7.919800 0.000000
-7.902600 0.000000
-7.885400 0.000000
-7.868200 0.000000
-7.851000 0.000000
-7.833900 0.000000
-7.816700 0.000000
-7.799500 0.000000
-7.782300 0.000000
-7.765100 0.000000
-7.748000 0.000000
-7.730800 0.000000
-7.713600 2.375500
-7.696400 14.130000
-7.679200 10.183300
-7.662000 5.255500
-7.644900 5.255600
-7.627700 5.255700
-7.610500 5.255800
-7.593300 4.385000
-7.576100 3.503500
-7.559000 3.503500
-7.541800 3.503500
-7.524600 3.503500
-7.507400 3.503600
-7.490200 3.503600
-7.473000 3.490100
-7.455900 3.048600
-7.438700 3.048600
-7.421500 3.048600
-7.404300 3.048600
-7.387100 55.053100
-7.370000 77.666400
-7.352800 49.120500
-7.335600 33.980600
-7.318400 28.667700
-7.301200 8.339300
-7.284100 24.175800
-7.266900 23.430300
-7.249700 46.570800
-7.232500 43.138900
-7.215300 42.400100
-7.198100 37.697400
-7.181000 39.991600
-7.163800 44.846800
-7.146600 46.549000
-7.129400 68.848600
-7.112200 56.413600
-7.095100 61.894600
-7.077900 61.163400
-7.060700 88.279500
-7.043500 80.400300
-7.026300 0.000000
-7.009100 0.000000
-6.992000 0.000000
-6.974800 0.000000
-6.957600 0.000000
-6.940400 0.000000
-6.923200 0.000000
-6.906100 0.000000
-6.888900 0.000000
-6.871700 0.000000
-6.854500 0.000000
-6.837300 0.000000
-6.820100 0.000000
-6.803000 0.000000
-6.785800 0.000000
-6.768600 0.000000
-6.751400 0.000000
-6.734200 0.000000
-6.717100 0.000000
-6.699900 0.000000
-6.682700 0.000000
-6.665500 0.000000
-6.648300 0.000000
-6.631100 0.000000
-6.614000 0.000000
-6.596800 0.000000
-6.579600 0.000000
-6.562400 0.000000
-6.545200 0.000000
-6.528100 0.000000
-6.510900 0.000000
-6.493700 0.000000
-6.476500 0.000000
-6.459300 0.000000
-6.442100 0.000000
-6.425000 0.000000
-6.407800 0.000000
-6.390600 0.000000
-6.373400 0.000000
-6.356200 0.000000
-6.339100 0.000000
-6.321900 0.000000
-6.304700 0.000000
-6.287500 0.000000
-6.270300 0.000000
-6.253200 0.000000
-6.236000 0.000000
-6.218800 0.000000
-6.201600 0.000000
-6.184400 0.000000
-6.167200 0.000000
-6.150100 0.000000
-6.132900 0.000000
-6.115700 0.000000
-6.098500 0.000000
-6.081300 0.000000
-6.064200 0.000000
-6.047000 0.642300
-6.029800 14.775000
-6.012600 15.897600
-5.995400 11.387300
-5.978200 9.170700
-5.961100 7.163400
-5.943900 19.824700
-5.926700 16.018700
-5.909500 11.789300
-5.892300 11.464400
-5.875200 11.077700
-5.858000 10.939700
-5.840800 11.947200
-5.823600 12.292900
-5.806400 15.661400
-5.789200 16.893000
-5.772100 5.321400
-5.754900 12.186400
-5.737700 4.539000
-5.720500 0.403600
-5.703300 0.000000
-5.686200 0.000000
-5.669000 0.000000
-5.651800 0.000000
-5.634600 0.000000
-5.617400 0.000000
-5.600200 0.000000
-5.583100 0.000000
-5.565900 0.000000
-5.548700 0.000000
-5.531500 0.000000
-5.514300 0.000000
-5.497200 0.000000
-5.480000 0.000000
-5.462800 0.000000
-5.445600 0.000000
-5.428400 0.000000
-5.411200 0.000000
-5.394100 0.000000
-5.376900 0.000000
-5.359700 0.000000
-5.342500 0.000000
-5.325300 0.000000
-5.308200 0.000000
-5.291000 0.000000
-5.273800 0.000000
-5.256600 0.000000
-5.239400 0.000000
-5.222300 0.000000
-5.205100 0.000000
-5.187900 9.962400
-5.170700 9.961200
-5.153500 9.960400
-5.136300 9.959900
-5.119200 9.959900
-5.102000 5.978800
-5.084800 3.380700
-5.067600 3.380700
-5.050400 3.380700
-5.033300 3.380600
-5.016100 3.380600
-4.998900 3.380600
-4.981700 3.380600
-4.964500 3.380500
-4.947300 3.380500
-4.930200 3.380500
-4.913000 3.380500
-4.895800 3.380400
-4.878600 3.380400
-4.861400 3.380400
-4.844300 3.405900
-4.827100 3.093500
-4.809900 2.868200
-4.792700 2.867900
-4.775500 2.867600
-4.758300 2.867400
-4.741200 3.316500
-4.724000 4.637400
-4.706800 7.730000
-4.689600 9.765100
-4.672400 10.077300
-4.655300 20.921600
-4.638100 28.669000
-4.620900 4.040100
-4.603700 4.250300
-4.586500 4.675700
-4.569300 5.076000
-4.552200 5.283600
-4.535000 5.550400
-4.517800 5.834600
-4.500600 6.061100
-4.483400 6.365500
-4.466300 6.768900
-4.449100 7.207600
-4.431900 8.112400
-4.414700 8.497200
-4.397500 8.933000
-4.380300 7.445600
-4.363200 6.867500
-4.346000 6.379500
-4.328800 6.217700
-4.311600 6.079100
-4.294400 5.969600
-4.277300 5.871300
-4.260100 5.783400
-4.242900 5.834800
-4.225700 6.533400
-4.208500 7.815800
-4.191400 9.517800
-4.174200 9.748900
-4.157000 9.736700
-4.139800 9.549200
-4.122600 9.419600
-4.105400 9.251900
-4.088300 9.217900
-4.071100 9.390200
-4.053900 9.758600
-4.036700 9.942700
-4.019500 9.714700
-4.002400 9.583900
-3.985200 9.307500
-3.968000 8.691400
-3.950800 8.188900
-3.933600 7.604300
-3.916400 6.966200
-3.899300 6.056400
-3.882100 5.751800
-3.864900 5.832300
-3.847700 5.865300
-3.830500 5.883300
-3.813400 5.946200
-3.796200 5.999400
-3.779000 6.055000
-3.761800 5.753500
-3.744600 5.222300
-3.727400 4.194800
-3.710300 3.678000
-3.693100 3.419200
-3.675900 3.304000
-3.658700 3.060400
-3.641500 2.550100
-3.624400 2.013600
-3.607200 1.567100
-3.590000 1.242800
-3.572800 1.242800
-3.555600 1.242900
-3.538400 1.107300
-3.521300 0.912700
-3.504100 0.912700
-3.486900 0.912700
-3.469700 0.912600
-3.452500 0.912600
-3.435400 0.912500
-3.418200 0.912500
-3.401000 0.912500
-3.383800 0.912400
-3.366600 0.912400
-3.349400 0.912400
-3.332300 0.912300
-3.315100 1.483000
-3.297900 4.104200
-3.280700 11.648200
-3.263500 7.202200
-3.246400 7.380700
-3.229200 8.788200
-3.212000 9.618500
-3.194800 9.458900
-3.177600 9.199000
-3.160500 9.449800
-3.143300 9.870400
-3.126100 10.902600
-3.108900 10.755500
-3.091700 10.253200
-3.074500 8.261700
-3.057400 9.078300
-3.040200 9.387200
-3.023000 9.329300
-3.005800 9.044200
-2.988600 8.711100
-2.971500 8.461800
-2.954300 9.359300
-2.937100 13.794100
-2.919900 16.377000
-2.902700 18.139400
-2.885500 17.989800
-2.868400 15.298000
-2.851200 14.582600
-2.834000 18.384700
-2.816800 17.993600
-2.799600 14.580700
-2.782500 17.274100
-2.765300 20.068900
-2.748100 25.302400
-2.730900 20.594500
-2.713700 18.428600
-2.696500 23.504600
-2.679400 21.398900
-2.662200 17.897700
-2.645000 18.257900
-2.627800 24.032200
-2.610600 48.593400
-2.593500 22.598300
-2.576300 14.786800
-2.559100 10.050600
-2.541900 6.377600
-2.524700 6.332900
-2.507500 7.446100
-2.490400 7.962800
-2.473200 8.328200
-2.456000 10.012600
-2.438800 10.528000
-2.421600 10.908300
-2.404500 11.123200
-2.387300 13.396700
-2.370100 14.704600
-2.352900 14.999700
-2.335700 15.088600
-2.318500 15.400900
-2.301400 15.678900
-2.284200 15.688400
-2.267000 16.018400
-2.249800 16.697200
-2.232600 16.932400
-2.215500 18.381800
-2.198300 20.424300
-2.181100 22.964400
-2.163900 25.197200
-2.146700 50.336300
-2.129600 7.086300
-2.112400 7.818500
-2.095200 9.066400
-2.078000 9.039600
-2.060800 9.613000
-2.043600 23.768100
-2.026500 2.204200
-2.009300 2.204200
-1.992100 2.204200
-1.974900 2.204200
-1.957700 2.204200
-1.940600 2.204200
-1.923400 2.204200
-1.906200 2.204200
-1.889000 2.204200
-1.871800 2.204200
-1.854600 2.204200
-1.837500 2.204200
-1.820300 2.204200
-1.803100 2.204200
-1.785900 2.204200
-1.768700 2.204200
-1.751600 2.204200
-1.734400 2.204200
-1.717200 2.204200
-1.700000 2.204200
-1.682800 2.204200
-1.665600 2.204200
-1.648500 2.204200
-1.631300 2.204200
-1.614100 2.204200
-1.596900 2.204200
-1.579700 2.204200
-1.562600 2.204200
-1.545400 2.602800
-1.528200 3.131500
-1.511000 3.627100
-1.493800 3.952400
-1.476600 3.952400
-1.459500 3.952400
-1.442300 3.952300
-1.425100 3.952300
-1.407900 3.952200
-1.390700 3.952200
-1.373600 3.952200
-1.356400 3.952100
-1.339200 3.638100
-1.322000 2.880000
-1.304800 2.683900
-1.287600 1.992900
-1.270500 1.833100
-1.253300 1.833100
-1.236100 1.833100
-1.218900 1.833100
-1.201700 1.833100
-1.184600 1.833100
-1.167400 1.833000
-1.150200 1.833000
-1.133000 1.833000
-1.115800 1.833000
-1.098700 1.833000
-1.081500 1.833000
-1.064300 2.395300
-1.047100 3.386600
-1.029900 4.857000
-1.012700 4.857000
-0.995600 4.857000
-0.978400 4.857000
-0.961200 4.857000
-0.944000 4.857000
-0.926800 4.857000
-0.909700 4.856900
-0.892500 4.856900
-0.875300 2.808200
-0.858100 1.210000
-0.840900 0.000000
-0.823700 0.000000
-0.806600 0.000000
-0.789400 0.000000
-0.772200 0.000000
-0.755000 0.000000
-0.737800 0.000000
-0.720700 0.000000
-0.703500 0.000000
-0.686300 0.000000
-0.669100 0.000000
-0.651900 0.000000
-0.634700 0.000000
-0.617600 0.000000
-0.600400 0.000000
-0.583200 0.000000
-0.566000 0.000000
-0.548800 0.000000
-0.531700 0.000000
-0.514500 0.000000
-0.497300 0.000000
-0.480100 0.000000
-0.462900 0.000000
-0.445700 0.000000
-0.428600 0.000000
-0.411400 0.000000
-0.394200 0.000000
-0.377000 0.000000
-0.359800 0.000000
-0.342700 0.000000
-0.325500 0.000000
-0.308300 0.000000
-0.291100 0.000000
-0.273900 0.000000
-0.256700 0.000000
-0.239600 0.000000
-0.222400 0.000000
-0.205200 0.000000
-0.188000 0.000000
-0.170800 0.000000
-0.153700 0.000000
-0.136500 0.000000
-0.119300 0.000000
-0.102100 0.000000
-0.084900 0.000000
-0.067800 0.000000
-0.050600 0.000000
-0.033400 0.000000
-0.016200 0.000000
0.001000 0.000000
0.018200 0.000000
0.035300 0.000000
0.052500 0.000000
0.069700 0.000000
0.086900 0.000000
0.104100 0.000000
0.121200 0.000000
0.138400 0.000000
0.155600 0.000000
0.172800 0.000000
0.190000 0.000000
0.207200 0.000000
0.224300 0.000000
0.241500 0.000000
0.258700 0.000000
0.275900 0.000000
0.293100 0.000000
0.310200 0.000000
0.327400 0.000000
0.344600 0.000000
0.361800 0.000000
0.379000 0.000000
0.396200 0.000000
0.413300 0.000000
0.430500 0.000000
0.447700 0.000000
0.464900 0.000000
0.482100 0.000000
0.499200 0.000000
0.516400 0.000000
0.533600 0.000000
0.550800 0.000000
0.568000 0.000000
0.585200 0.000000
0.602300 0.000000
0.619500 0.000000
0.636700 0.000000
0.653900 0.000000
0.671100 0.000000
0.688200 0.000000
0.705400 0.000000
0.722600 0.000000
0.739800 0.000000
0.757000 0.000000
0.774200 0.000000
0.791300 0.000000
0.808500 0.000000
0.825700 0.000000
0.842900 0.000000
0.860100 0.000000
0.877200 0.000000
0.894400 0.000000
0.911600 0.000000
0.928800 0.000000
0.946000 0.000000
0.963100 0.000000
0.980300 0.000000
0.997500 0.000000
1.014700 0.000000
1.031900 0.000000
1.049100 0.000000
1.066200 0.000000
1.083400 0.000000
1.100600 0.000000
1.117800 0.000000
1.135000 0.000000
1.152100 0.000000
1.169300 0.000000
1.186500 0.000000
1.203700 0.000000
1.220900 0.000000
1.238100 0.000000
1.255200 0.000000
1.272400 0.000000
1.289600 0.000000
1.306800 0.000000
1.324000 0.000000
1.341100 0.000000
1.358300 0.000000
1.375500 0.000000
1.392700 0.000000
1.409900 0.000000
1.427100 0.000000
1.444200 0.000000
1.461400 0.000000
1.478600 0.000000
1.495800 0.000000
1.513000 0.000000
1.530100 0.000000
1.547300 0.000000
1.564500 0.000000
1.581700 0.000000
1.598900 0.000000
1.616100 0.000000
1.633200 0.000000
1.650400 0.000000
1.667600 0.000000
1.684800 0.000000
1.702000 0.000000
1.719100 0.000000
1.736300 0.000000
1.753500 0.000000
1.770700 0.000000
1.787900 0.000000
1.805100 0.000000
1.822200 0.000000
1.839400 0.000000
1.856600 0.000000
1.873800 0.000000
1.891000 0.000000
1.908100 0.000000
1.925300 0.000000
1.942500 0.000000
1.959700 0.000000
1.976900 0.000000
1.994000 0.000000
2.011200 0.000000
2.028400 1.780400
2.045600 3.707800
2.062800 3.707300
2.080000 3.706900
2.097100 3.706600
2.114300 3.706300
2.131500 3.684700
2.148700 2.416700
2.165900 1.375800
2.183000 1.375800
2.200200 1.375800
2.217400 1.375800
2.234600 1.375800
2.251800 1.375800
2.269000 1.375700
2.286100 1.375700
2.303300 1.375700
2.320500 1.375700
2.337700 1.375700
2.354900 1.375700
2.372000 1.375700
2.389200 1.375700
2.406400 1.375700
2.423600 1.375700
2.440800 1.375600
2.458000 1.290800
2.475100 1.205700
2.492300 1.096400
2.509500 1.067100
2.526700 1.067100
2.543900 1.067100
2.561000 1.067100
2.578200 1.067100
2.595400 1.067100
2.612600 1.067100
2.629800 1.067100
2.647000 1.067100
2.664100 1.067100
2.681300 1.071600
2.698500 1.096100
2.715700 1.141700
2.732900 1.208700
2.750000 1.296800
2.767200 1.404400
2.784400 1.467800
2.801600 1.522300
2.818800 1.567800
2.836000 1.604300
2.853100 1.649000
2.870300 1.727600
2.887500 1.864600
2.904700 2.000600
2.921900 2.099600
2.939000 2.187600
2.956200 2.298800
2.973400 2.484000
2.990600 2.712300
3.007800 2.890400
3.024900 3.017200
3.042100 3.057100
3.059300 3.014400
3.076500 3.019700
3.093700 2.889400
3.110900 2.788300
3.128000 2.716600
3.145200 2.651600
3.162400 2.662500
3.179600 2.695100
3.196800 3.047200
3.213900 3.452400
3.231100 4.612000
3.248300 5.918300
3.265500 6.582300
3.282700 6.783300
3.299900 6.630900
3.317000 6.563000
3.334200 6.618300
3.351400 6.790900
3.368600 6.698600
3.385800 5.705600
3.402900 4.141100
3.420100 3.468300
3.437300 3.579000
3.454500 6.886000
3.471700 6.165400
3.488900 4.726500
3.506000 3.264200
3.523200 2.133500
3.540400 1.147700
3.557600 0.095800
3.574800 0.000000
3.591900 0.000000
3.609100 0.000000
3.626300 0.000000
3.643500 0.000000
3.660700 0.000000
3.677900 0.000000
3.695000 0.000000
3.712200 0.000000
3.729400 0.000000
3.746600 0.000000
3.763800 0.000000
3.780900 0.000000
3.798100 0.000000
3.815300 0.000000
3.832500 0.000000
3.849700 0.000000
3.866900 0.000000
3.884000 0.000000
3.901200 0.000000
3.918400 0.000000
3.935600 0.000000
3.952800 0.000000
3.969900 0.000000
3.987100 0.000000
4.004300 0.000000
4.021500 0.000000
4.038700 0.000000
4.055800 0.000000
4.073000 0.000000
4.090200 0.000000
4.107400 0.000000
4.124600 0.000000
4.141800 0.000000
4.158900 0.000000
4.176100 0.000000
4.193300 0.000000
4.210500 0.000000
4.227700 0.000000
4.244800 0.000000
4.262000 0.000000
4.279200 0.000000
4.296400 0.000000
4.313600 0.000000
4.330800 0.000000
4.347900 0.000000
4.365100 0.000000
4.382300 0.000000
4.399500 0.000000
4.416700 0.000000
4.433800 0.000000
4.451000 0.000000
4.468200 0.000000
4.485400 0.000000
4.502600 0.000000
4.519800 0.000000
4.536900 0.000000
4.554100 0.000000
4.571300 0.000000
4.588500 0.000000
4.605700 0.000000
4.622800 0.000000
4.640000 0.000000
4.657200 0.000000
4.674400 0.000000
4.691600 0.000000
4.708800 0.000000
4.725900 0.000000
4.743100 0.000000
4.760300 0.000000
4.777500 0.000000
4.794700 0.000000
4.811800 0.000000
4.829000 0.000000
4.846200 0.000000
4.863400 0.000000
4.880600 0.000000
4.897800 0.000000
4.914900 0.000000
4.932100 0.000000
4.949300 0.000000
4.966500 0.000000
4.983700 0.000000
5.000800 0.000000
5.018000 0.000000
5.035200 0.000000
5.052400 0.000000
5.069600 0.000000
5.086700 0.000000
5.103900 0.000000
5.121100 0.000000
5.138300 0.000000
5.155500 0.000000
5.172700 0.000000
5.189800 0.000000
5.207000 0.284500
5.224200 0.516700
5.241400 0.827200
5.258600 1.121000
5.275700 1.379100
5.292900 1.432100
5.310100 1.356000
5.327300 1.187000
5.344500 1.105500
5.361700 1.087200
5.378800 1.111500
5.396000 1.143200
5.413200 1.173900
5.430400 1.203600
5.447600 1.203800
5.464700 1.196800
5.481900 1.174200
5.499100 1.136100
5.516300 3.229100
5.533500 6.540400
5.550700 7.323000
5.567800 8.809800
5.585000 9.253200
5.602200 9.174400
5.619400 7.999200
5.636600 7.398600
5.653700 7.173500
5.670900 6.602300
5.688100 6.542100
5.705300 7.442100
5.722500 7.819300
5.739700 7.846600
5.756800 8.020400
5.774000 7.743100
5.791200 7.950600
5.808400 7.786100
5.825600 7.706200
5.842700 7.682000
5.859900 7.255800
5.877100 6.796500
5.894300 6.356000
5.911500 5.959400
5.928700 5.839200
5.945800 5.872200
5.963000 5.980300
5.980200 6.360800
5.997400 6.373700
6.014600 6.419000
6.031700 6.575200
6.048900 6.789300
6.066100 7.259700
6.083300 8.317600
6.100500 10.222100
6.117600 11.432200
6.134800 13.840400
6.152000 12.715500
6.169200 10.711700
6.186400 9.343100
6.203600 6.068900
6.220700 6.035600
6.237900 6.125000
6.255100 6.496900
6.272300 6.840900
6.289500 7.247100
6.306600 7.568400
6.323800 7.682600
6.341000 7.357900
6.358200 7.384900
6.375400 7.534500
6.392600 7.720700
6.409700 7.947100
6.426900 8.213200
6.444100 8.677600
6.461300 9.584600
6.478500 8.465900
6.495600 8.783400
6.512800 8.706100
6.530000 8.516000
6.547200 8.079200
6.564400 7.431600
6.581600 7.057100
6.598700 6.964900
6.615900 7.197900
6.633100 7.911500
6.650300 7.291200
6.667500 5.179400
6.684600 4.598600
6.701800 4.264200
6.719000 3.843000
6.736200 3.463800
6.753400 3.434700
6.770600 3.433500
6.787700 3.516600
6.804900 3.846700
6.822100 4.173900
6.839300 4.512900
6.856500 4.725300
6.873600 5.047600
6.890800 4.913200
6.908000 4.763300
6.925200 4.630800
6.942400 4.670900
6.959500 4.439000
6.976700 4.250600
6.993900 4.124500
7.011100 4.148900
7.028300 4.475400
7.045500 5.659800
7.062600 5.498100
7.079800 5.182400
7.097000 5.594700
7.114200 5.375200
7.131400 4.761000
7.148500 4.750300
7.165700 4.920800
7.182900 5.020700
7.200100 5.002500
7.217300 4.907400
7.234500 4.804000
7.251600 4.946900
7.268800 4.734500
7.286000 4.222300
7.303200 4.162000
7.320400 4.101000
7.337500 3.786600
7.354700 3.061100
7.371900 3.280000
7.389100 3.914800
7.406300 4.542000
7.423500 4.765600
7.440600 4.573000
7.457800 4.124900
7.475000 3.758100
7.492200 3.335100
7.509400 3.152400
7.526500 2.765400
7.543700 2.737900
7.560900 2.746700
7.578100 2.770800
7.595300 2.853500
7.612500 2.993500
7.629600 3.096600
7.646800 3.576500
7.664000 3.919300
7.681200 4.099700
7.698400 4.449400
7.715500 4.863400
7.732700 4.879400
7.749900 5.404700
7.767100 5.742100
7.784300 4.979000
7.801500 4.308400
7.818600 4.154300
7.835800 4.080500
7.853000 4.046400
7.870200 4.002400
7.887400 4.136100
7.904500 4.225300
7.921700 4.301900
7.938900 4.471200
7.956100 4.619300
7.973300 4.833500
7.990400 5.125000
8.007600 5.416700
8.024800 6.108800
8.042000 7.039100
8.059200 8.429400
8.076400 9.782600
8.093500 10.004700
8.110700 9.707900
8.127900 9.670300
8.145100 10.243800
8.162300 10.736200
8.179400 10.889100
8.196600 9.426100
8.213800 9.254600
8.231000 9.704000
8.248200 5.377600
8.265400 3.282100
8.282500 3.421800
8.299700 3.541100
8.316900 3.654300
8.334100 3.798700
8.351300 3.881300
8.368400 4.040600
8.385600 4.251800
8.402800 4.512600
8.420000 4.820700
8.437200 4.888700
8.454400 4.795700
8.471500 4.793600
8.488700 4.786500
8.505900 4.914600
8.523100 5.036600
8.540300 5.132900
8.557400 5.557000
8.574600 5.498600
8.591800 5.136800
8.609000 4.992400
8.626200 5.072300
8.643400 6.550000
8.660500 6.979100
8.677700 6.976900
8.694900 5.798200
8.712100 4.213600
8.729300 3.986300
8.746400 3.806700
8.763600 3.651000
8.780800 3.754500
8.798000 3.982500
8.815200 4.245200
8.832400 4.618300
8.849500 5.633000
8.866700 5.125100
8.883900 5.151600
8.901100 4.601700
8.918300 5.442900
8.935400 3.901500
8.952600 4.034100
8.969800 4.384100
8.987000 5.028900
9.004200 6.552200
9.021300 11.994600
9.038500 14.425400
9.055700 14.147400
9.072900 32.254900
9.090100 10.493300
9.107300 8.769700
9.124400 8.536700
9.141600 9.031300
9.158800 6.588900
9.176000 3.905000
9.193200 4.094300
9.210300 5.485700
9.227500 7.612300
9.244700 8.879300
9.261900 8.811600
9.279100 8.377300
9.296300 5.910300
9.313400 5.807800
9.330600 5.998700
9.347800 6.780000
9.365000 7.258700
9.382200 7.572500
9.399300 7.352500
9.416500 7.244600
9.433700 6.710500
9.450900 6.484000
9.468100 6.057900
9.485300 5.913600
9.502400 5.844000
9.519600 6.565000
9.536800 9.145100
9.554000 12.561800
9.571200 15.765600
9.588300 15.170200
9.605500 12.314300
9.622700 11.024000
9.639900 10.908900
9.657100 10.440900
9.674300 11.210000
9.691400 11.843700
9.708600 10.530100
9.725800 10.265600
9.743000 11.183900
9.760200 13.500900
9.777300 14.560000
9.794500 14.554800
9.811700 13.179400
9.828900 11.937100
9.846100 11.114200
9.863300 9.794400
9.880400 9.141800
9.897600 8.688800
9.914800 8.579200
9.932000 8.534600
9.949200 8.161200
9.966300 8.625900
9.983500 7.311000
10.000700 5.971700
10.017900 5.178500
10.035100 5.181300
10.052200 5.080500
10.069400 5.139300
10.086600 5.216500
10.103800 5.260700
10.121000 5.282000
10.138200 5.250100
10.155300 5.028900
10.172500 4.952200
10.189700 5.030000
10.206900 5.314700
10.224100 5.982700
10.241200 6.387800
10.258400 7.343600
10.275600 7.340600
10.292800 6.668500
10.310000 6.122500
10.327200 5.966500
10.344300 5.374100
10.361500 5.010800
10.378700 4.871300
10.395900 4.815800
10.413100 4.853700
10.430200 4.924400
10.447400 5.267800
10.464600 5.500900
10.481800 5.635800
10.499000 5.713800
10.516200 5.715000
10.533300 5.501600
10.550500 5.096300
10.567700 4.770700
10.584900 4.520500
10.602100 4.336900
10.619200 4.229100
10.636400 4.318100
10.653600 4.376500
10.670800 4.485200
10.688000 4.784600
10.705200 4.796700
10.722300 4.804500
10.739500 4.816000
10.756700 4.887200
10.773900 4.202600
10.791100 4.104800
10.808200 3.991900
10.825400 4.029700
10.842600 4.078400
10.859800 4.293000
10.877000 4.619300
10.894200 5.060800
10.911300 5.765500
10.928500 6.817900
10.945700 7.727500
10.962900 8.430300
10.980100 8.698600
10.997200 9.692900
11.014400 11.404200
11.031600 12.913000
11.048800 9.381300
11.066000 9.461400
11.083100 9.458600
11.100300 9.463300
11.117500 9.435000
11.134700 9.383300
11.151900 9.292100
11.169100 9.277500
11.186200 13.127200
11.203400 10.521300
11.220600 8.466400
11.237800 8.095900
11.255000 7.929000
11.272100 7.827100
11.289300 7.712900
11.306500 7.623500
11.323700 7.638200
11.340900 7.496700
11.358100 7.421000
11.375200 7.409000
11.392400 7.521900
11.409600 7.384700
11.426800 7.316000
11.444000 6.912900
11.461100 6.511000
11.478300 7.010600
11.495500 7.844600
11.512700 8.169600
11.529900 8.601100
11.547100 8.968000
11.564200 9.344000
11.581400 19.766500
11.598600 10.034900
11.615800 8.159300
11.633000 6.800400
11.650100 6.426200
11.667300 7.574300
11.684500 8.351100
11.701700 9.738800
11.718900 10.201500
11.736100 9.847600
11.753200 9.123300
11.770400 10.284500
11.787600 10.661700
11.804800 10.628000
11.822000 9.077800
11.839100 9.654600
11.856300 10.223000
11.873500 9.427400
11.890700 9.246600
11.907900 10.067300
11.925100 8.717700
11.942200 8.012400
11.959400 7.844500
11.976600 7.083900
11.993800 6.479200
12.011000 5.513100
12.028100 4.850900
12.045300 4.252600
12.062500 3.931700
12.079700 3.695200
12.096900 3.506300
12.114000 3.354600
12.131200 3.278200
12.148400 4.770500
12.165600 7.404100
12.182800 9.479400
12.200000 10.419900
12.217100 8.260900
12.234300 6.380800
12.251500 5.077200
12.268700 5.264700
12.285900 6.074300
12.303000 7.461000
12.320200 8.112900
12.337400 6.837800
12.354600 3.696800
12.371800 3.684600
12.389000 3.677000
12.406100 3.674100
12.423300 3.690200
12.440500 4.430300
12.457700 5.866600
12.474900 6.437600
12.492000 6.725500
12.509200 6.844100
12.526400 7.085500
12.543600 6.165200
12.560800 5.423500
12.578000 5.401100
12.595100 6.071000
12.612300 7.054400
12.629500 9.122600
12.646700 8.229500
12.663900 6.808200
12.681000 6.659800
12.698200 6.447200
12.715400 6.220600
12.732600 6.237100
12.749800 6.320400
12.767000 6.629000
12.784100 7.009100
12.801300 7.933300
12.818500 8.328300
12.835700 7.953100
12.852900 6.976200
12.870000 6.525900
12.887200 6.343600
12.904400 6.199400
12.921600 6.129600
12.938800 6.048000
12.956000 5.643400
12.973100 5.315500
12.990300 4.930300
13.007500 4.853000
13.024700 4.878600
13.041900 4.943200
13.059000 5.048500
13.076200 4.856600
13.093400 5.091900
13.110600 5.364200
13.127800 5.655400
13.144900 5.952000
13.162100 6.280900
13.179300 6.654500
13.196500 7.233500
13.213700 8.601800
13.230900 8.547600
13.248000 8.463900
13.265200 7.971900
13.282400 7.654500
13.299600 7.743100
13.316800 8.455400
13.333900 6.793300
13.351100 5.976300
13.368300 5.263100
13.385500 5.072200
13.402700 5.067900
13.419900 4.904000
13.437000 4.850600
13.454200 4.869700
13.471400 5.043100
13.488600 5.155900
13.505800 5.558200
13.522900 6.797200
13.540100 6.807100
13.557300 5.392000
13.574500 4.492300
13.591700 4.331600
13.608900 4.296400
13.626000 4.347400
13.643200 4.380300
13.660400 3.889700
13.677600 4.443400
13.694800 4.610300
13.711900 4.603800
13.729100 5.175900
13.746300 4.741700
13.763500 4.079800
13.780700 3.365900
13.797900 2.948900
13.815000 2.607500
13.832200 2.316800
13.849400 2.077400
13.866600 1.846100
13.883800 1.488300
13.900900 1.352600
13.918100 1.268800
13.935300 1.189100
13.952500 1.156700
13.969700 1.113900
13.986900 1.070600
14.004000 1.026900
14.021200 0.984200
14.038400 0.953400
14.055600 0.905800
14.072800 0.898000
14.089900 0.890500
14.107100 0.883500
14.124300 0.877000
14.141500 0.870800
14.158700 0.865000
14.175800 0.859700
14.193000 0.854800
14.210200 0.850300
14.227400 0.875600
14.244600 0.885900
14.261800 0.897500
14.278900 0.909000
14.296100 0.915900
14.313300 0.917900
14.330500 0.915000
14.347700 0.889200
14.364800 0.840300
14.382000 0.784200
14.399200 0.758900
14.416400 0.736400
14.433600 0.716700
14.450800 0.660600
14.467900 0.645700
14.485100 0.630300
14.502300 0.631200
14.519500 0.660700
14.536700 0.670600
14.553800 0.659300
14.571000 0.610300
14.588200 0.557900
14.605400 0.535600
14.622600 0.513600
14.639800 0.490500
14.656900 0.463100
14.674100 0.431400
14.691300 0.397000
14.708500 0.360200
14.725700 0.317600
14.742800 0.284600
14.760000 0.266900
14.777200 0.248700
14.794400 0.230000
14.811600 0.210900
14.828800 0.191200
14.845900 0.171000
14.863100 0.150400
14.880300 0.129300
14.897500 0.107600
14.914700 0.085500
14.931800 0.062900
14.949000 0.039700
14.966200 0.016100
14.983400 0.000400
15.000600 0.000000
15.017800 0.000000
15.034900 0.000000
15.052100 0.000000
15.069300 0.000000
15.086500 0.000000
15.103700 0.000000
15.120800 0.000000
15.138000 0.000000
15.155200 0.000000
15.172400 0.000000
15.189600 0.000000
15.206700 0.000000
15.223900 0.000000
15.241100 0.000000
15.258300 0.000000
15.275500 0.000000
15.292700 0.000000
15.309800 0.000000
15.327000 0.000000
15.344200 0.000000
15.361400 0.000000
15.378600 0.000000
15.395700 0.000000
15.412900 0.000000
15.430100 0.000000
15.447300 0.000000
15.464500 0.000000
15.481700 0.000000
15.498800 0.000000
15.516000 0.000000
15.533200 0.000000
15.550400 0.000000
15.567600 0.000000
15.584700 0.000000
15.601900 0.000000
15.619100 0.000000
15.636300 0.000000
15.653500 0.000000
15.670700 0.000000
15.687800 0.000000
15.705000 0.000000
15.722200 0.000000
15.739400 0.000000
15.756600 0.000000
15.773700 0.000000
15.790900 0.000000
15.808100 0.000000
15.825300 0.000000
15.842500 0.000000
15.859700 0.000000
15.876800 0.000000
15.894000 0.000000
15.911200 0.000000
15.928400 0.000000
15.945600 0.000000
15.962700 0.000000
15.979900 0.000000
15.997100 0.000000
16.014300 0.000000
16.031500 0.000000
16.048700 0.000000
16.065800 0.000000
16.083000 0.000000
16.100200 0.000000
16.117400 0.000000
16.134600 0.000000
16.151700 0.000000
16.168900 0.000000
16.186100 0.000000
16.203300 0.000000
16.220500 0.000000
16.237600 0.000000
16.254800 0.000000
16.272000 0.000000
16.289200 0.000000
16.306400 0.000000
16.323600 0.000000
16.340700 0.000000
16.357900 0.000000
16.375100 0.000000
16.392300 0.000000
16.409500 0.000000
16.426600 0.000000
16.443800 0.000000
16.461000 0.000000
16.478200 0.000000
16.495400 0.000000
16.512600 0.000000
16.529700 0.000000
16.546900 0.000000
e
