set title 'mp-11508 - Density of States'
set xlabel 'Energy (eV)'
set ylabel 'DOS (states/eV)'
set grid
set xrange [-10:10]
set yrange [0:10.347]
set xzeroaxis lt -1
set terminal png size 800,600
set output 'mp-11508_dos_gnuplot.png'
plot '-' using 1:2 with lines title 'DOS'
-29.415300 0.000000
-29.389300 0.000000
-29.363300 0.000000
-29.337300 0.000000
-29.311300 0.000000
-29.285300 0.000000
-29.259300 0.000000
-29.233300 0.000000
-29.207300 0.000000
-29.181300 0.000000
-29.155300 0.000000
-29.129300 0.000000
-29.103300 0.000000
-29.077300 0.000000
-29.051300 0.000000
-29.025200 0.000000
-28.999200 0.000000
-28.973200 0.000000
-28.947200 0.000000
-28.921200 0.000000
-28.895200 0.000000
-28.869200 0.000000
-28.843200 0.000000
-28.817200 0.000000
-28.791200 0.000000
-28.765200 0.000000
-28.739200 0.000000
-28.713200 0.000000
-28.687200 0.000000
-28.661200 0.000000
-28.635200 0.000000
-28.609200 0.000000
-28.583200 0.000000
-28.557200 0.000000
-28.531200 0.000000
-28.505200 0.000000
-28.479100 0.000000
-28.453100 0.000000
-28.427100 0.000000
-28.401100 0.000000
-28.375100 0.000000
-28.349100 0.000000
-28.323100 0.000000
-28.297100 0.000000
-28.271100 0.000000
-28.245100 0.000000
-28.219100 0.000000
-28.193100 0.000000
-28.167100 0.000000
-28.141100 0.000000
-28.115100 0.000000
-28.089100 0.000000
-28.063100 0.000000
-28.037100 0.000000
-28.011100 0.000000
-27.985100 0.000000
-27.959100 0.000000
-27.933000 0.000000
-27.907000 0.000000
-27.881000 0.000000
-27.855000 0.000000
-27.829000 0.000000
-27.803000 0.000000
-27.777000 0.000000
-27.751000 0.000000
-27.725000 0.000000
-27.699000 0.000000
-27.673000 0.000000
-27.647000 0.000000
-27.621000 0.000000
-27.595000 0.000000
-27.569000 0.000000
-27.543000 0.000000
-27.517000 0.000000
-27.491000 0.000000
-27.465000 0.000000
-27.439000 0.000000
-27.412900 0.000000
-27.386900 0.000000
-27.360900 0.000000
-27.334900 0.000000
-27.308900 0.000000
-27.282900 0.000000
-27.256900 0.000000
-27.230900 0.000000
-27.204900 0.000000
-27.178900 0.000000
-27.152900 0.000000
-27.126900 0.000000
-27.100900 0.000000
-27.074900 0.000000
-27.048900 101.834300
-27.022900 22.308200
-26.996900 17.513100
-26.970900 0.000000
-26.944900 15.223800
-26.918900 16.544400
-26.892900 21.497600
-26.866800 0.000000
-26.840800 0.000000
-26.814800 0.000000
-26.788800 416.507500
-26.762800 0.000000
-26.736800 0.000000
-26.710800 0.000000
-26.684800 0.000000
-26.658800 0.000000
-26.632800 0.000000
-26.606800 0.000000
-26.580800 0.000000
-26.554800 0.000000
-26.528800 0.000000
-26.502800 0.000000
-26.476800 0.000000
-26.450800 0.000000
-26.424800 0.000000
-26.398800 0.000000
-26.372800 0.000000
-26.346800 0.000000
-26.320700 0.000000
-26.294700 0.000000
-26.268700 0.000000
-26.242700 0.000000
-26.216700 0.000000
-26.190700 0.000000
-26.164700 0.000000
-26.138700 0.000000
-26.112700 0.000000
-26.086700 0.000000
-26.060700 0.000000
-26.034700 0.000000
-26.008700 0.000000
-25.982700 0.000000
-25.956700 0.000000
-25.930700 0.000000
-25.904700 0.000000
-25.878700 0.000000
-25.852700 0.000000
-25.826700 0.000000
-25.800700 0.000000
-25.774600 0.000000
-25.748600 0.000000
-25.722600 0.000000
-25.696600 0.000000
-25.670600 0.000000
-25.644600 0.000000
-25.618600 0.000000
-25.592600 0.000000
-25.566600 0.000000
-25.540600 0.000000
-25.514600 0.000000
-25.488600 0.000000
-25.462600 0.000000
-25.436600 0.000000
-25.410600 0.000000
-25.384600 0.000000
-25.358600 0.000000
-25.332600 0.000000
-25.306600 0.000000
-25.280600 0.000000
-25.254600 0.000000
-25.228500 0.000000
-25.202500 0.000000
-25.176500 0.000000
-25.150500 0.000000
-25.124500 0.000000
-25.098500 0.000000
-25.072500 0.000000
-25.046500 0.000000
-25.020500 0.000000
-24.994500 0.000000
-24.968500 0.000000
-24.942500 0.000000
-24.916500 0.000000
-24.890500 0.000000
-24.864500 0.000000
-24.838500 0.000000
-24.812500 0.000000
-24.786500 0.000000
-24.760500 0.000000
-24.734500 0.000000
-24.708500 0.000000
-24.682400 0.000000
-24.656400 0.000000
-24.630400 0.000000
-24.604400 0.000000
-24.578400 0.000000
-24.552400 0.000000
-24.526400 0.000000
-24.500400 0.000000
-24.474400 0.000000
-24.448400 0.000000
-24.422400 0.000000
-24.396400 0.000000
-24.370400 0.000000
-24.344400 0.000000
-24.318400 0.000000
-24.292400 0.000000
-24.266400 0.000000
-24.240400 0.000000
-24.214400 0.000000
-24.188400 0.000000
-24.162400 0.000000
-24.136300 0.000000
-24.110300 0.000000
-24.084300 0.000000
-24.058300 0.000000
-24.032300 0.000000
-24.006300 0.000000
-23.980300 0.000000
-23.954300 0.000000
-23.928300 0.000000
-23.902300 0.000000
-23.876300 0.000000
-23.850300 0.000000
-23.824300 0.000000
-23.798300 0.000000
-23.772300 0.000000
-23.746300 0.000000
-23.720300 0.000000
-23.694300 0.000000
-23.668300 0.000000
-23.642300 0.000000
-23.616200 0.000000
-23.590200 0.000000
-23.564200 0.000000
-23.538200 0.000000
-23.512200 0.000000
-23.486200 0.000000
-23.460200 0.000000
-23.434200 0.000000
-23.408200 0.000000
-23.382200 0.000000
-23.356200 0.000000
-23.330200 0.000000
-23.304200 0.000000
-23.278200 0.000000
-23.252200 0.000000
-23.226200 0.000000
-23.200200 0.000000
-23.174200 0.000000
-23.148200 0.000000
-23.122200 0.000000
-23.096200 0.000000
-23.070100 0.000000
-23.044100 0.000000
-23.018100 0.000000
-22.992100 0.000000
-22.966100 0.000000
-22.940100 0.000000
-22.914100 0.000000
-22.888100 0.000000
-22.862100 0.000000
-22.836100 0.000000
-22.810100 0.000000
-22.784100 0.000000
-22.758100 0.000000
-22.732100 0.000000
-22.706100 0.000000
-22.680100 0.000000
-22.654100 0.000000
-22.628100 0.000000
-22.602100 0.000000
-22.576100 0.000000
-22.550100 0.000000
-22.524000 0.000000
-22.498000 0.000000
-22.472000 0.000000
-22.446000 0.000000
-22.420000 0.000000
-22.394000 0.000000
-22.368000 0.000000
-22.342000 0.000000
-22.316000 0.000000
-22.290000 0.000000
-22.264000 0.000000
-22.238000 0.000000
-22.212000 0.000000
-22.186000 0.000000
-22.160000 0.000000
-22.134000 0.000000
-22.108000 0.000000
-22.082000 0.000000
-22.056000 0.000000
-22.030000 0.000000
-22.004000 0.000000
-21.977900 0.000000
-21.951900 0.000000
-21.925900 0.000000
-21.899900 0.000000
-21.873900 0.000000
-21.847900 0.000000
-21.821900 0.000000
-21.795900 0.000000
-21.769900 0.000000
-21.743900 0.000000
-21.717900 0.000000
-21.691900 0.000000
-21.665900 0.000000
-21.639900 0.000000
-21.613900 0.000000
-21.587900 0.000000
-21.561900 0.000000
-21.535900 0.000000
-21.509900 0.000000
-21.483900 0.000000
-21.457900 0.000000
-21.431800 0.000000
-21.405800 0.000000
-21.379800 0.000000
-21.353800 0.000000
-21.327800 0.000000
-21.301800 0.000000
-21.275800 0.000000
-21.249800 0.000000
-21.223800 0.000000
-21.197800 0.000000
-21.171800 0.000000
-21.145800 0.000000
-21.119800 0.000000
-21.093800 0.000000
-21.067800 0.000000
-21.041800 0.000000
-21.015800 0.000000
-20.989800 0.000000
-20.963800 0.000000
-20.937800 0.000000
-20.911800 0.000000
-20.885700 0.000000
-20.859700 0.000000
-20.833700 0.000000
-20.807700 0.000000
-20.781700 0.000000
-20.755700 0.000000
-20.729700 0.000000
-20.703700 0.000000
-20.677700 0.000000
-20.651700 0.000000
-20.625700 0.000000
-20.599700 0.000000
-20.573700 0.000000
-20.547700 0.000000
-20.521700 0.000000
-20.495700 0.000000
-20.469700 0.000000
-20.443700 0.000000
-20.417700 0.000000
-20.391700 0.000000
-20.365700 0.000000
-20.339600 0.000000
-20.313600 0.000000
-20.287600 0.000000
-20.261600 0.000000
-20.235600 0.000000
-20.209600 0.000000
-20.183600 0.000000
-20.157600 0.000000
-20.131600 0.000000
-20.105600 0.000000
-20.079600 0.000000
-20.053600 0.000000
-20.027600 0.000000
-20.001600 0.000000
-19.975600 0.000000
-19.949600 0.000000
-19.923600 0.000000
-19.897600 0.000000
-19.871600 0.000000
-19.845600 0.000000
-19.819600 0.000000
-19.793500 0.000000
-19.767500 0.000000
-19.741500 0.000000
-19.715500 0.000000
-19.689500 0.000000
-19.663500 0.000000
-19.637500 0.000000
-19.611500 0.000000
-19.585500 0.000000
-19.559500 0.000000
-19.533500 0.000000
-19.507500 0.000000
-19.481500 0.000000
-19.455500 0.000000
-19.429500 0.000000
-19.403500 0.000000
-19.377500 0.000000
-19.351500 0.000000
-19.325500 0.000000
-19.299500 0.000000
-19.273400 0.000000
-19.247400 0.000000
-19.221400 0.000000
-19.195400 0.000000
-19.169400 0.000000
-19.143400 0.000000
-19.117400 0.000000
-19.091400 0.000000
-19.065400 0.000000
-19.039400 0.000000
-19.013400 0.000000
-18.987400 0.000000
-18.961400 0.000000
-18.935400 0.000000
-18.909400 0.000000
-18.883400 0.000000
-18.857400 0.000000
-18.831400 0.000000
-18.805400 0.000000
-18.779400 0.000000
-18.753400 0.000000
-18.727300 0.000000
-18.701300 0.000000
-18.675300 0.000000
-18.649300 0.000000
-18.623300 0.000000
-18.597300 0.000000
-18.571300 0.000000
-18.545300 0.000000
-18.519300 0.000000
-18.493300 0.000000
-18.467300 0.000000
-18.441300 0.000000
-18.415300 0.000000
-18.389300 0.000000
-18.363300 0.000000
-18.337300 0.000000
-18.311300 0.000000
-18.285300 0.000000
-18.259300 0.000000
-18.233300 0.000000
-18.207300 0.000000
-18.181200 0.000000
-18.155200 0.000000
-18.129200 0.000000
-18.103200 0.000000
-18.077200 0.000000
-18.051200 0.000000
-18.025200 0.000000
-17.999200 0.000000
-17.973200 0.000000
-17.947200 0.000000
-17.921200 0.000000
-17.895200 0.000000
-17.869200 0.000000
-17.843200 0.000000
-17.817200 0.000000
-17.791200 0.000000
-17.765200 0.000000
-17.739200 0.000000
-17.713200 0.000000
-17.687200 0.000000
-17.661200 0.000000
-17.635100 0.000000
-17.609100 0.000000
-17.583100 0.000000
-17.557100 0.000000
-17.531100 0.000000
-17.505100 0.000000
-17.479100 0.000000
-17.453100 0.000000
-17.427100 0.000000
-17.401100 0.000000
-17.375100 0.000000
-17.349100 0.000000
-17.323100 0.000000
-17.297100 0.000000
-17.271100 0.000000
-17.245100 0.000000
-17.219100 0.000000
-17.193100 0.000000
-17.167100 0.000000
-17.141100 0.000000
-17.115100 0.000000
-17.089000 0.000000
-17.063000 0.000000
-17.037000 0.000000
-17.011000 0.000000
-16.985000 0.000000
-16.959000 0.000000
-16.933000 0.000000
-16.907000 0.000000
-16.881000 0.000000
-16.855000 0.000000
-16.829000 0.000000
-16.803000 0.000000
-16.777000 0.000000
-16.751000 0.000000
-16.725000 0.000000
-16.699000 0.000000
-16.673000 0.000000
-16.647000 0.000000
-16.621000 0.000000
-16.595000 0.000000
-16.569000 0.000000
-16.542900 0.000000
-16.516900 0.000000
-16.490900 0.000000
-16.464900 0.000000
-16.438900 0.000000
-16.412900 0.000000
-16.386900 0.000000
-16.360900 0.000000
-16.334900 0.000000
-16.308900 0.000000
-16.282900 0.000000
-16.256900 0.000000
-16.230900 0.000000
-16.204900 0.000000
-16.178900 0.000000
-16.152900 0.000000
-16.126900 0.000000
-16.100900 0.000000
-16.074900 0.000000
-16.048900 0.000000
-16.022900 0.000000
-15.996800 0.000000
-15.970800 0.000000
-15.944800 0.000000
-15.918800 0.000000
-15.892800 0.000000
-15.866800 0.000000
-15.840800 0.000000
-15.814800 0.000000
-15.788800 0.000000
-15.762800 0.000000
-15.736800 0.000000
-15.710800 0.000000
-15.684800 0.000000
-15.658800 0.000000
-15.632800 0.000000
-15.606800 0.000000
-15.580800 0.000000
-15.554800 0.000000
-15.528800 0.000000
-15.502800 0.000000
-15.476800 0.000000
-15.450700 0.000000
-15.424700 0.000000
-15.398700 0.000000
-15.372700 0.000000
-15.346700 0.000000
-15.320700 0.000000
-15.294700 0.000000
-15.268700 0.000000
-15.242700 0.000000
-15.216700 0.000000
-15.190700 0.000000
-15.164700 0.000000
-15.138700 0.000000
-15.112700 0.000000
-15.086700 0.000000
-15.060700 0.000000
-15.034700 0.000000
-15.008700 0.000000
-14.982700 0.000000
-14.956700 0.000000
-14.930600 0.000000
-14.904600 0.000000
-14.878600 0.000000
-14.852600 0.000000
-14.826600 0.000000
-14.800600 0.000000
-14.774600 0.000000
-14.748600 0.000000
-14.722600 0.000000
-14.696600 0.000000
-14.670600 0.000000
-14.644600 0.000000
-14.618600 0.000000
-14.592600 0.000000
-14.566600 0.000000
-14.540600 0.000000
-14.514600 0.000000
-14.488600 0.000000
-14.462600 0.000000
-14.436600 0.000000
-14.410600 0.000000
-14.384500 0.000000
-14.358500 0.000000
-14.332500 0.000000
-14.306500 0.000000
-14.280500 0.000000
-14.254500 0.000000
-14.228500 0.000000
-14.202500 0.000000
-14.176500 0.000000
-14.150500 0.000000
-14.124500 0.000000
-14.098500 0.000000
-14.072500 0.000000
-14.046500 0.000000
-14.020500 0.000000
-13.994500 0.000000
-13.968500 0.000000
-13.942500 0.000000
-13.916500 0.000000
-13.890500 0.000000
-13.864500 0.000000
-13.838400 0.000000
-13.812400 0.000000
-13.786400 0.000000
-13.760400 0.000000
-13.734400 0.000000
-13.708400 0.000000
-13.682400 0.000000
-13.656400 0.000000
-13.630400 0.000000
-13.604400 0.000000
-13.578400 0.000000
-13.552400 0.000000
-13.526400 0.000000
-13.500400 0.000000
-13.474400 0.000000
-13.448400 0.000000
-13.422400 0.000000
-13.396400 0.000000
-13.370400 0.000000
-13.344400 0.000000
-13.318400 0.000000
-13.292300 0.000000
-13.266300 0.000000
-13.240300 0.000000
-13.214300 0.000000
-13.188300 0.000000
-13.162300 0.000000
-13.136300 0.000000
-13.110300 0.000000
-13.084300 0.000000
-13.058300 0.000000
-13.032300 0.000000
-13.006300 0.000000
-12.980300 0.000000
-12.954300 0.000000
-12.928300 0.000000
-12.902300 0.000000
-12.876300 0.000000
-12.850300 0.000000
-12.824300 0.000000
-12.798300 0.000000
-12.772300 0.000000
-12.746200 0.000000
-12.720200 0.000000
-12.694200 0.000000
-12.668200 0.000000
-12.642200 0.000000
-12.616200 0.000000
-12.590200 0.000000
-12.564200 0.000000
-12.538200 0.000000
-12.512200 0.000000
-12.486200 0.000000
-12.460200 0.000000
-12.434200 0.000000
-12.408200 0.000000
-12.382200 0.000000
-12.356200 0.000000
-12.330200 0.000000
-12.304200 0.000000
-12.278200 0.000000
-12.252200 0.000000
-12.226200 0.000000
-12.200100 0.000000
-12.174100 0.000000
-12.148100 0.000000
-12.122100 0.000000
-12.096100 0.000000
-12.070100 0.000000
-12.044100 0.000000
-12.018100 0.000000
-11.992100 0.000000
-11.966100 0.000000
-11.940100 0.000000
-11.914100 0.000000
-11.888100 0.000000
-11.862100 0.000000
-11.836100 0.000000
-11.810100 0.000000
-11.784100 0.000000
-11.758100 0.000000
-11.732100 0.000000
-11.706100 0.000000
-11.680100 0.000000
-11.654000 0.000000
-11.628000 0.000000
-11.602000 0.000000
-11.576000 0.000000
-11.550000 0.000000
-11.524000 0.000000
-11.498000 0.000000
-11.472000 0.000000
-11.446000 0.000000
-11.420000 0.000000
-11.394000 0.000000
-11.368000 0.000000
-11.342000 0.000000
-11.316000 0.000000
-11.290000 0.000000
-11.264000 0.000000
-11.238000 0.000000
-11.212000 0.000000
-11.186000 0.000000
-11.160000 0.000000
-11.133900 0.000000
-11.107900 0.000000
-11.081900 0.000000
-11.055900 0.000000
-11.029900 0.000000
-11.003900 0.000000
-10.977900 0.000000
-10.951900 0.000000
-10.925900 0.000000
-10.899900 0.000000
-10.873900 0.000000
-10.847900 0.000000
-10.821900 0.000000
-10.795900 0.000000
-10.769900 0.000000
-10.743900 0.000000
-10.717900 0.000000
-10.691900 0.000000
-10.665900 0.000000
-10.639900 0.000000
-10.613900 0.000000
-10.587800 0.000000
-10.561800 0.000000
-10.535800 0.000000
-10.509800 0.000000
-10.483800 0.000000
-10.457800 0.000000
-10.431800 0.000000
-10.405800 0.000000
-10.379800 0.000000
-10.353800 0.000000
-10.327800 0.000000
-10.301800 0.000000
-10.275800 0.000000
-10.249800 0.000000
-10.223800 0.000000
-10.197800 0.000000
-10.171800 0.000000
-10.145800 0.000000
-10.119800 0.000000
-10.093800 0.000000
-10.067800 0.000000
-10.041700 0.000000
-10.015700 0.000000
-9.989700 0.000000
-9.963700 0.000000
-9.937700 0.000000
-9.911700 0.000000
-9.885700 0.000000
-9.859700 0.000000
-9.833700 0.000000
-9.807700 0.000000
-9.781700 0.000000
-9.755700 0.000000
-9.729700 0.000000
-9.703700 0.000000
-9.677700 0.000000
-9.651700 0.000000
-9.625700 0.000000
-9.599700 0.000000
-9.573700 0.000000
-9.547700 0.000000
-9.521700 0.000000
-9.495600 0.000000
-9.469600 0.000000
-9.443600 0.000000
-9.417600 0.000000
-9.391600 0.000000
-9.365600 0.000000
-9.339600 0.000000
-9.313600 0.000000
-9.287600 0.000000
-9.261600 0.000000
-9.235600 0.000000
-9.209600 0.000000
-9.183600 0.000000
-9.157600 0.000000
-9.131600 0.000000
-9.105600 0.000000
-9.079600 0.000000
-9.053600 0.000000
-9.027600 0.000000
-9.001600 0.000000
-8.975600 0.000000
-8.949500 0.000000
-8.923500 0.000000
-8.897500 0.000000
-8.871500 0.000000
-8.845500 0.000000
-8.819500 0.000000
-8.793500 0.000000
-8.767500 0.000000
-8.741500 0.000000
-8.715500 0.000000
-8.689500 0.000000
-8.663500 0.000000
-8.637500 0.000000
-8.611500 0.000000
-8.585500 0.000000
-8.559500 0.000000
-8.533500 0.000000
-8.507500 0.000000
-8.481500 0.000000
-8.455500 0.000000
-8.429500 0.000000
-8.403400 0.000000
-8.377400 0.000000
-8.351400 0.000000
-8.325400 0.000000
-8.299400 0.000000
-8.273400 0.000000
-8.247400 0.000000
-8.221400 0.000000
-8.195400 0.000000
-8.169400 0.000000
-8.143400 0.000000
-8.117400 0.000000
-8.091400 0.000000
-8.065400 0.000000
-8.039400 0.000000
-8.013400 0.000000
-7.987400 0.000000
-7.961400 0.000000
-7.935400 0.000000
-7.909400 0.000000
-7.883400 0.000000
-7.857300 0.000000
-7.831300 0.000000
-7.805300 0.000000
-7.779300 0.000000
-7.753300 0.000000
-7.727300 0.000000
-7.701300 0.000000
-7.675300 0.066500
-7.649300 0.297600
-7.623300 0.544900
-7.597300 0.624600
-7.571300 0.752300
-7.545300 0.838800
-7.519300 0.994300
-7.493300 1.107800
-7.467300 1.218600
-7.441300 1.493200
-7.415300 1.689600
-7.389300 1.675100
-7.363300 1.647700
-7.337300 1.693500
-7.311200 1.714500
-7.285200 1.707400
-7.259200 1.724300
-7.233200 1.727000
-7.207200 1.717700
-7.181200 1.742300
-7.155200 1.773900
-7.129200 1.806500
-7.103200 1.813600
-7.077200 1.842200
-7.051200 1.868600
-7.025200 1.908900
-6.999200 1.953000
-6.973200 2.004000
-6.947200 2.067600
-6.921200 2.132100
-6.895200 2.191400
-6.869200 2.284700
-6.843200 2.443900
-6.817200 2.708800
-6.791100 3.137500
-6.765100 2.632700
-6.739100 2.348800
-6.713100 2.225200
-6.687100 2.184500
-6.661100 2.194800
-6.635100 2.111200
-6.609100 1.901900
-6.583100 1.689800
-6.557100 1.480800
-6.531100 1.160700
-6.505100 0.877700
-6.479100 0.724000
-6.453100 0.669500
-6.427100 0.689500
-6.401100 0.763000
-6.375100 0.806800
-6.349100 0.878800
-6.323100 0.982300
-6.297100 1.130400
-6.271100 1.273800
-6.245000 1.399200
-6.219000 1.501800
-6.193000 1.582400
-6.167000 1.637600
-6.141000 1.681600
-6.115000 1.702700
-6.089000 1.658800
-6.063000 1.581100
-6.037000 1.508100
-6.011000 1.448500
-5.985000 1.407700
-5.959000 1.377100
-5.933000 1.355000
-5.907000 1.341000
-5.881000 1.333600
-5.855000 1.332100
-5.829000 1.335800
-5.803000 1.344700
-5.777000 1.358400
-5.751000 1.377000
-5.725000 1.400500
-5.698900 1.428900
-5.672900 1.462300
-5.646900 1.501100
-5.620900 1.546400
-5.594900 1.601300
-5.568900 1.670700
-5.542900 1.757100
-5.516900 1.868200
-5.490900 2.111400
-5.464900 2.468500
-5.438900 2.839600
-5.412900 2.857400
-5.386900 2.339200
-5.360900 2.302900
-5.334900 3.120500
-5.308900 4.992600
-5.282900 3.553900
-5.256900 2.740400
-5.230900 2.030700
-5.204900 1.829700
-5.178900 1.696400
-5.152800 1.625800
-5.126800 1.619300
-5.100800 1.863900
-5.074800 1.995700
-5.048800 2.037600
-5.022800 2.021900
-4.996800 2.094500
-4.970800 2.150100
-4.944800 2.161400
-4.918800 2.129400
-4.892800 2.188800
-4.866800 2.401800
-4.840800 2.298800
-4.814800 2.078900
-4.788800 1.833700
-4.762800 1.558800
-4.736800 1.270400
-4.710800 1.203900
-4.684800 1.212500
-4.658800 1.254500
-4.632800 1.402600
-4.606700 1.564600
-4.580700 1.781800
-4.554700 2.140100
-4.528700 2.415700
-4.502700 2.467000
-4.476700 2.523300
-4.450700 2.525100
-4.424700 2.541500
-4.398700 2.780900
-4.372700 2.868900
-4.346700 2.730600
-4.320700 2.715500
-4.294700 2.754500
-4.268700 2.805300
-4.242700 2.837200
-4.216700 2.757800
-4.190700 2.696500
-4.164700 2.641200
-4.138700 2.603700
-4.112700 2.618700
-4.086700 2.611600
-4.060600 2.594500
-4.034600 2.273700
-4.008600 2.264000
-3.982600 2.410200
-3.956600 2.209700
-3.930600 2.070000
-3.904600 2.102800
-3.878600 2.190600
-3.852600 2.242700
-3.826600 2.359600
-3.800600 2.447600
-3.774600 2.555400
-3.748600 2.859400
-3.722600 3.246300
-3.696600 3.558900
-3.670600 3.460600
-3.644600 3.042600
-3.618600 2.446900
-3.592600 1.575100
-3.566600 1.064100
-3.540600 0.862000
-3.514500 0.732400
-3.488500 0.648100
-3.462500 0.603800
-3.436500 0.578300
-3.410500 0.560100
-3.384500 0.539000
-3.358500 0.507200
-3.332500 0.543400
-3.306500 0.617400
-3.280500 0.722500
-3.254500 0.814900
-3.228500 0.894900
-3.202500 0.978900
-3.176500 1.050300
-3.150500 1.129000
-3.124500 1.221700
-3.098500 1.315300
-3.072500 1.414300
-3.046500 1.518500
-3.020500 1.640500
-2.994500 1.783500
-2.968400 2.080400
-2.942400 2.280200
-2.916400 2.268900
-2.890400 2.373000
-2.864400 2.624500
-2.838400 2.807700
-2.812400 2.873500
-2.786400 3.040300
-2.760400 2.698500
-2.734400 2.428200
-2.708400 2.373700
-2.682400 2.140900
-2.656400 1.913800
-2.630400 2.007300
-2.604400 1.971400
-2.578400 1.970300
-2.552400 1.960800
-2.526400 2.003700
-2.500400 2.118800
-2.474400 2.185700
-2.448300 2.209000
-2.422300 2.303400
-2.396300 2.438800
-2.370300 2.816400
-2.344300 3.053500
-2.318300 3.158600
-2.292300 3.237800
-2.266300 3.291800
-2.240300 3.183400
-2.214300 3.151300
-2.188300 3.315100
-2.162300 3.419000
-2.136300 3.238300
-2.110300 2.720600
-2.084300 2.432000
-2.058300 2.268600
-2.032300 2.603500
-2.006300 1.871500
-1.980300 1.730100
-1.954300 1.670700
-1.928300 1.623200
-1.902200 1.602900
-1.876200 1.607100
-1.850200 1.630900
-1.824200 1.674100
-1.798200 1.762600
-1.772200 1.860600
-1.746200 1.941900
-1.720200 2.054700
-1.694200 2.164800
-1.668200 2.280100
-1.642200 2.410800
-1.616200 2.363300
-1.590200 2.173400
-1.564200 1.843600
-1.538200 1.652200
-1.512200 1.641200
-1.486200 1.433700
-1.460200 1.335800
-1.434200 1.127000
-1.408200 1.042500
-1.382200 1.057900
-1.356100 1.117700
-1.330100 1.369700
-1.304100 1.921400
-1.278100 2.756400
-1.252100 4.785100
-1.226100 4.463600
-1.200100 4.590500
-1.174100 4.314500
-1.148100 3.701100
-1.122100 3.179100
-1.096100 2.759200
-1.070100 2.429600
-1.044100 2.200700
-1.018100 2.023200
-0.992100 1.875200
-0.966100 1.790500
-0.940100 1.860000
-0.914100 2.727500
-0.888100 3.868000
-0.862100 3.792400
-0.836100 3.527700
-0.810000 3.286400
-0.784000 3.078500
-0.758000 2.899800
-0.732000 2.748500
-0.706000 2.609900
-0.680000 2.462400
-0.654000 2.342300
-0.628000 2.290100
-0.602000 2.265500
-0.576000 2.300900
-0.550000 2.310900
-0.524000 2.190300
-0.498000 2.084200
-0.472000 2.045000
-0.446000 1.996800
-0.420000 1.941800
-0.394000 1.907000
-0.368000 1.884600
-0.342000 1.876300
-0.316000 1.886700
-0.290000 1.889800
-0.263900 1.854100
-0.237900 1.838800
-0.211900 1.777500
-0.185900 1.744900
-0.159900 1.685000
-0.133900 1.632600
-0.107900 1.616900
-0.081900 1.649000
-0.055900 1.696900
-0.029900 1.798800
-0.003900 1.650500
0.022100 1.616600
0.048100 1.591900
0.074100 1.601700
0.100100 1.568100
0.126100 1.551200
0.152100 1.556000
0.178100 1.610200
0.204100 1.676200
0.230100 1.684300
0.256100 1.461100
0.282200 1.289000
0.308200 1.043200
0.334200 0.778900
0.360200 0.717200
0.386200 0.669800
0.412200 0.609800
0.438200 0.563700
0.464200 0.531800
0.490200 0.536400
0.516200 0.556500
0.542200 0.558200
0.568200 0.557500
0.594200 0.574100
0.620200 0.573700
0.646200 0.567200
0.672200 0.571400
0.698200 0.566800
0.724200 0.582100
0.750200 0.600900
0.776200 0.622400
0.802200 0.654100
0.828300 0.694000
0.854300 0.739100
0.880300 0.791100
0.906300 0.878700
0.932300 1.037200
0.958300 1.246500
0.984300 1.498100
1.010300 1.742600
1.036300 1.968800
1.062300 2.224000
1.088300 2.638900
1.114300 2.962700
1.140300 3.285000
1.166300 3.240000
1.192300 3.279800
1.218300 3.734500
1.244300 3.500800
1.270300 3.268700
1.296300 2.831600
1.322300 2.537800
1.348300 2.332000
1.374400 2.204500
1.400400 2.204900
1.426400 2.240000
1.452400 2.323400
1.478400 2.583200
1.504400 2.989800
1.530400 3.489900
1.556400 4.091100
1.582400 4.535700
1.608400 4.349300
1.634400 4.053700
1.660400 4.149400
1.686400 4.539100
1.712400 4.446600
1.738400 4.219100
1.764400 4.022700
1.790400 3.956600
1.816400 3.825900
1.842400 3.816400
1.868400 3.831800
1.894500 3.796100
1.920500 3.835000
1.946500 3.942100
1.972500 4.152900
1.998500 4.212100
2.024500 4.211700
2.050500 4.395200
2.076500 4.442700
2.102500 4.406000
2.128500 4.597400
2.154500 5.320200
2.180500 5.597800
2.206500 5.741000
2.232500 5.382300
2.258500 5.263900
2.284500 5.208000
2.310500 5.128300
2.336500 5.206900
2.362500 5.435300
2.388500 5.295300
2.414500 4.704000
2.440600 4.447100
2.466600 4.336800
2.492600 4.559200
2.518600 4.833700
2.544600 5.329500
2.570600 5.758200
2.596600 5.790300
2.622600 5.969600
2.648600 5.685100
2.674600 5.384300
2.700600 5.248500
2.726600 5.172000
2.752600 5.166600
2.778600 5.163500
2.804600 5.180500
2.830600 5.483000
2.856600 5.872100
2.882600 6.300600
2.908600 6.573700
2.934600 6.832800
2.960600 6.621500
2.986700 5.936100
3.012700 5.714900
3.038700 5.388200
3.064700 5.300800
3.090700 5.364100
3.116700 5.596700
3.142700 5.742300
3.168700 5.640600
3.194700 5.726300
3.220700 5.965100
3.246700 6.182100
3.272700 6.072500
3.298700 6.145000
3.324700 5.619100
3.350700 4.567300
3.376700 4.086800
3.402700 3.522900
3.428700 3.610200
3.454700 4.078700
3.480700 4.922100
3.506700 5.415400
3.532800 5.739000
3.558800 5.975600
3.584800 5.614500
3.610800 5.992600
3.636800 6.325800
3.662800 6.496000
3.688800 7.097100
3.714800 7.350900
3.740800 7.822200
3.766800 7.447400
3.792800 7.888500
3.818800 8.866900
3.844800 9.341300
3.870800 8.830500
3.896800 8.148400
3.922800 7.497400
3.948800 6.321700
3.974800 5.683200
4.000800 5.278400
4.026800 5.006100
4.052800 4.813300
4.078900 4.708900
4.104900 4.122200
4.130900 4.313600
4.156900 4.959200
4.182900 5.228900
4.208900 5.806700
4.234900 6.603700
4.260900 7.194700
4.286900 7.078800
4.312900 6.730400
4.338900 6.656300
4.364900 6.370800
4.390900 5.794900
4.416900 5.698000
4.442900 5.832300
4.468900 6.165500
4.494900 6.722300
4.520900 7.619700
4.546900 8.080300
4.572900 8.183000
4.598900 7.981800
4.625000 7.638700
4.651000 7.026500
4.677000 6.822700
4.703000 6.758000
4.729000 6.988300
4.755000 6.227600
4.781000 6.023800
4.807000 5.830900
4.833000 5.713200
4.859000 5.712000
4.885000 5.525800
4.911000 5.117500
4.937000 4.980500
4.963000 5.041900
4.989000 5.233900
5.015000 5.622100
5.041000 4.952000
5.067000 4.440800
5.093000 4.294300
5.119000 4.261300
5.145000 4.382900
5.171100 4.517400
5.197100 5.071100
5.223100 5.104000
5.249100 5.291600
5.275100 5.200700
5.301100 5.156500
5.327100 5.462300
5.353100 5.413600
5.379100 5.688900
5.405100 6.189600
5.431100 6.788200
5.457100 6.626000
5.483100 6.248100
5.509100 6.525100
5.535100 5.978300
5.561100 5.464800
5.587100 5.393500
5.613100 5.895900
5.639100 7.642300
5.665100 7.891300
5.691200 8.785100
5.717200 9.259800
5.743200 9.406100
5.769200 8.768700
5.795200 8.351100
5.821200 7.921700
5.847200 7.614000
5.873200 7.160600
5.899200 6.687000
5.925200 6.214900
5.951200 6.563900
5.977200 6.586900
6.003200 6.131900
6.029200 5.833300
6.055200 5.804200
6.081200 5.600100
6.107200 5.543100
6.133200 5.293700
6.159200 5.141400
6.185200 5.726400
6.211200 6.023600
6.237300 5.815900
6.263300 4.790000
6.289300 4.963200
6.315300 5.317200
6.341300 4.759300
6.367300 5.029800
6.393300 4.676500
6.419300 4.585600
6.445300 4.481500
6.471300 4.556400
6.497300 4.755500
6.523300 4.957600
6.549300 5.029600
6.575300 4.598800
6.601300 4.253300
6.627300 4.213900
6.653300 4.430000
6.679300 3.444100
6.705300 3.234100
6.731300 3.388100
6.757300 3.624600
6.783400 3.915200
6.809400 4.448200
6.835400 4.517200
6.861400 5.674600
6.887400 5.904300
6.913400 6.291500
6.939400 6.228600
6.965400 6.239400
6.991400 6.066000
7.017400 6.379300
7.043400 6.786700
7.069400 7.320300
7.095400 7.277900
7.121400 6.619200
7.147400 5.191200
7.173400 4.845400
7.199400 4.680900
7.225400 4.173500
7.251400 4.037100
7.277400 4.040500
7.303400 4.046600
7.329500 3.975700
7.355500 3.936100
7.381500 3.721900
7.407500 3.543400
7.433500 3.209200
7.459500 3.045200
7.485500 2.904500
7.511500 2.798700
7.537500 2.778100
7.563500 2.647800
7.589500 2.458200
7.615500 2.360000
7.641500 2.267000
7.667500 2.190900
7.693500 2.131200
7.719500 2.062700
7.745500 1.929000
7.771500 1.844800
7.797500 1.741200
7.823500 1.633500
7.849500 1.505000
7.875600 1.352300
7.901600 1.163500
7.927600 1.064000
7.953600 0.963300
7.979600 0.879300
8.005600 0.817000
8.031600 0.777000
8.057600 0.734200
8.083600 0.693500
8.109600 0.661300
8.135600 0.639700
8.161600 0.627600
8.187600 0.580000
8.213600 0.582000
8.239600 0.577400
8.265600 0.519800
8.291600 0.568100
8.317600 0.538900
8.343600 0.537600
8.369600 0.535400
8.395600 0.619500
8.421700 0.760800
8.447700 0.987400
8.473700 1.136000
8.499700 1.232100
8.525700 1.345400
8.551700 1.489300
8.577700 1.737100
8.603700 2.031400
8.629700 2.547500
8.655700 3.439900
8.681700 4.151600
8.707700 4.140800
8.733700 4.371800
8.759700 4.165400
8.785700 3.648000
8.811700 3.097600
8.837700 2.758900
8.863700 2.817400
8.889700 2.978700
8.915700 3.222600
8.941700 3.480400
8.967800 3.626700
8.993800 4.034300
9.019800 4.697100
9.045800 4.872500
9.071800 5.201100
9.097800 5.297300
9.123800 5.397700
9.149800 5.566500
9.175800 5.453600
9.201800 5.675000
9.227800 5.018700
9.253800 4.449400
9.279800 4.107400
9.305800 3.975900
9.331800 4.505200
9.357800 5.704700
9.383800 7.333100
9.409800 8.269700
9.435800 8.794900
9.461800 8.752400
9.487800 8.498100
9.513900 8.610300
9.539900 8.638300
9.565900 8.199500
9.591900 8.137100
9.617900 8.633000
9.643900 8.145900
9.669900 7.863300
9.695900 7.773800
9.721900 7.898900
9.747900 7.214600
9.773900 6.855300
9.799900 6.748300
9.825900 6.396600
9.851900 6.293400
9.877900 6.080700
9.903900 6.120900
9.929900 6.288000
9.955900 6.050700
9.981900 6.388000
10.007900 6.490800
10.034000 6.440000
10.060000 7.113200
10.086000 7.615100
10.112000 8.783300
10.138000 9.117800
10.164000 9.335800
10.190000 8.006500
10.216000 6.910000
10.242000 6.461100
10.268000 6.526300
10.294000 6.680700
10.320000 6.692400
10.346000 7.314700
10.372000 6.440500
10.398000 6.268600
10.424000 6.070600
10.450000 6.325600
10.476000 5.955700
10.502000 5.725000
10.528000 5.625000
10.554000 5.377300
10.580100 5.294900
10.606100 5.288000
10.632100 5.168700
10.658100 5.537700
10.684100 6.168800
10.710100 6.839600
10.736100 7.102900
10.762100 7.161700
10.788100 6.959400
10.814100 5.983200
10.840100 5.592300
10.866100 5.397500
10.892100 6.267700
10.918100 7.943300
10.944100 8.553900
10.970100 9.075300
10.996100 9.388500
11.022100 9.023700
11.048100 7.891900
11.074100 7.931400
11.100100 7.972800
11.126200 7.544700
11.152200 7.587900
11.178200 6.928700
11.204200 6.843000
11.230200 7.143500
11.256200 7.668300
11.282200 7.683200
11.308200 7.700500
11.334200 7.803500
11.360200 9.496600
11.386200 8.643400
11.412200 8.450500
11.438200 8.335100
11.464200 7.970200
11.490200 7.308900
11.516200 6.496500
11.542200 6.450400
11.568200 6.675400
11.594200 6.903900
11.620200 7.470700
11.646200 8.177400
11.672300 9.049000
11.698300 8.323900
11.724300 7.192800
11.750300 6.622800
11.776300 6.217200
11.802300 5.849300
11.828300 6.072000
11.854300 6.605600
11.880300 6.941400
11.906300 7.494100
11.932300 8.125000
11.958300 8.035500
11.984300 7.235800
12.010300 6.595900
12.036300 6.732200
12.062300 6.770000
12.088300 6.533600
12.114300 6.279500
12.140300 6.357400
12.166300 6.651700
12.192300 6.804500
12.218400 7.413000
12.244400 7.794700
12.270400 7.586500
12.296400 6.912800
12.322400 6.559000
12.348400 6.390000
12.374400 6.255700
12.400400 5.333800
12.426400 5.259700
12.452400 5.011300
12.478400 5.082400
12.504400 4.965700
12.530400 4.717200
12.556400 4.819100
12.582400 5.004300
12.608400 5.338800
12.634400 5.702900
12.660400 6.308900
12.686400 6.026300
12.712400 5.638700
12.738400 5.651000
12.764500 5.941300
12.790500 6.312500
12.816500 6.119400
12.842500 5.655400
12.868500 5.033400
12.894500 4.370500
12.920500 3.860200
12.946500 3.501400
12.972500 3.475700
12.998500 3.526700
13.024500 3.525700
13.050500 3.611200
13.076500 3.804900
13.102500 4.134800
13.128500 4.826900
13.154500 5.475600
13.180500 5.647100
13.206500 4.939400
13.232500 4.528500
13.258500 4.216700
13.284500 3.681500
13.310600 3.598900
13.336600 3.735100
13.362600 3.931800
13.388600 3.858800
13.414600 4.192900
13.440600 4.704500
13.466600 5.146300
13.492600 5.141300
13.518600 4.912600
13.544600 4.744700
13.570600 4.626200
13.596600 4.510900
13.622600 4.588200
13.648600 4.566200
13.674600 4.532400
13.700600 4.583100
13.726600 4.662300
13.752600 4.244200
13.778600 4.064300
13.804600 3.905900
13.830600 3.728200
13.856700 3.544600
13.882700 3.125600
13.908700 2.984800
13.934700 2.970300
13.960700 2.814700
13.986700 2.833700
14.012700 2.989600
14.038700 3.280600
14.064700 3.615700
14.090700 3.952500
14.116700 4.301200
14.142700 4.476700
14.168700 4.710000
14.194700 4.724000
14.220700 4.673500
14.246700 4.896200
14.272700 4.357600
14.298700 4.650900
14.324700 4.932600
14.350700 5.136700
14.376800 5.356700
14.402800 5.518300
14.428800 5.587700
14.454800 5.669100
14.480800 5.563000
14.506800 5.542800
14.532800 5.028500
14.558800 4.613200
14.584800 4.524500
14.610800 5.134300
14.636800 5.618700
14.662800 5.540500
14.688800 5.477600
14.714800 5.630600
14.740800 5.865500
14.766800 5.781600
14.792800 5.390100
14.818800 5.185600
14.844800 5.128500
14.870800 5.071400
14.896800 4.992000
14.922900 4.801200
14.948900 4.518300
14.974900 4.222200
15.000900 4.158300
15.026900 4.258100
15.052900 4.451500
15.078900 4.984600
15.104900 5.298400
15.130900 5.271300
15.156900 5.325000
15.182900 5.619000
15.208900 5.645200
15.234900 5.263300
15.260900 5.104300
15.286900 4.963900
15.312900 5.010000
15.338900 5.189100
15.364900 5.160200
15.390900 5.045200
15.416900 4.975400
15.442900 5.076800
15.469000 5.159700
15.495000 5.196300
15.521000 5.185600
15.547000 5.080100
15.573000 4.994700
15.599000 5.018000
15.625000 4.726900
15.651000 4.468200
15.677000 4.588100
15.703000 4.597300
15.729000 4.752000
15.755000 5.111100
15.781000 5.417900
15.807000 5.797900
15.833000 6.038200
15.859000 6.339800
15.885000 6.671800
15.911000 6.747900
15.937000 6.582600
15.963000 6.419400
15.989000 6.180500
16.015100 5.345000
16.041100 4.623700
16.067100 4.787300
16.093100 5.247500
16.119100 5.817200
16.145100 5.975100
16.171100 5.918100
16.197100 5.606900
16.223100 5.317800
16.249100 5.268200
16.275100 5.335000
16.301100 5.676800
16.327100 6.058500
16.353100 5.177300
16.379100 5.272200
16.405100 5.762800
16.431100 5.881800
16.457100 5.677600
16.483100 5.358200
16.509100 5.329300
16.535100 5.197000
16.561200 5.382200
16.587200 5.357500
16.613200 4.879300
16.639200 4.931700
16.665200 5.551300
16.691200 6.137000
16.717200 6.588200
16.743200 7.405800
16.769200 7.843000
16.795200 8.368600
16.821200 7.401600
16.847200 6.251000
16.873200 5.415900
16.899200 4.973300
16.925200 4.712800
16.951200 4.842900
16.977200 5.266000
17.003200 6.170600
17.029200 6.411400
17.055200 6.353000
17.081200 6.437400
17.107300 6.931600
17.133300 6.800500
17.159300 6.453800
17.185300 5.584600
17.211300 5.308400
17.237300 5.086800
17.263300 5.353700
17.289300 6.097000
17.315300 6.182200
17.341300 5.740500
17.367300 5.714900
17.393300 6.062400
17.419300 6.018700
17.445300 6.027600
17.471300 5.937700
17.497300 6.001900
17.523300 6.253300
17.549300 6.246300
17.575300 6.121100
17.601300 5.737100
17.627300 5.646900
17.653400 5.283800
17.679400 5.101500
17.705400 5.028200
17.731400 4.962200
17.757400 4.916300
17.783400 5.096900
17.809400 5.420700
17.835400 5.013900
17.861400 4.671600
17.887400 4.771100
17.913400 4.778200
17.939400 5.119400
17.965400 5.461000
17.991400 5.904700
18.017400 5.667300
18.043400 5.363500
18.069400 4.994500
18.095400 4.715700
18.121400 4.625800
18.147400 4.530100
18.173500 4.580800
18.199500 4.867300
18.225500 5.352500
18.251500 5.658700
18.277500 6.105000
18.303500 6.531000
18.329500 6.653700
18.355500 7.735500
18.381500 6.677300
18.407500 6.772100
18.433500 7.143800
18.459500 6.956100
18.485500 7.425800
18.511500 6.633800
18.537500 6.514400
18.563500 6.464600
18.589500 6.379100
18.615500 6.492700
18.641500 7.003000
18.667500 6.964200
18.693500 6.892900
18.719600 6.624800
18.745600 6.264700
18.771600 5.818200
18.797600 5.595000
18.823600 5.613300
18.849600 5.603400
18.875600 5.593100
18.901600 5.693600
18.927600 5.656600
18.953600 5.840100
18.979600 6.560400
19.005600 6.977100
19.031600 6.963200
19.057600 6.837000
19.083600 7.015600
19.109600 6.633500
19.135600 5.443500
19.161600 5.122900
19.187600 4.947300
19.213600 5.033700
19.239600 5.443900
19.265700 5.315100
19.291700 5.527400
19.317700 5.411900
19.343700 5.299600
19.369700 5.721900
19.395700 5.997300
19.421700 6.110900
19.447700 6.796600
19.473700 6.097800
19.499700 5.521500
19.525700 4.784100
19.551700 4.118300
19.577700 3.486700
19.603700 2.856000
19.629700 2.152100
19.655700 1.828000
19.681700 1.613400
19.707700 1.481200
19.733700 1.374200
19.759700 1.295900
19.785700 1.221800
19.811800 1.215600
19.837800 1.151200
19.863800 1.406100
19.889800 0.908900
19.915800 0.714700
19.941800 0.585500
19.967800 0.521500
19.993800 0.478600
20.019800 0.387500
20.045800 0.293200
20.071800 0.209500
20.097800 0.140500
20.123800 0.085900
20.149800 0.044100
20.175800 0.016400
20.201800 0.003200
20.227800 0.000000
20.253800 0.000000
20.279800 0.000000
20.305800 0.000000
20.331800 0.000000
20.357900 0.000000
20.383900 0.000000
20.409900 0.000000
20.435900 0.000000
20.461900 0.000000
20.487900 0.000000
20.513900 0.000000
20.539900 0.000000
20.565900 0.000000
20.591900 0.000000
20.617900 0.000000
20.643900 0.000000
20.669900 0.000000
20.695900 0.000000
20.721900 0.000000
20.747900 0.000000
20.773900 0.000000
20.799900 0.000000
20.825900 0.000000
20.851900 0.000000
20.877900 0.000000
20.904000 0.000000
20.930000 0.000000
20.956000 0.000000
20.982000 0.000000
21.008000 0.000000
21.034000 0.000000
21.060000 0.000000
21.086000 0.000000
21.112000 0.000000
21.138000 0.000000
21.164000 0.000000
21.190000 0.000000
21.216000 0.000000
21.242000 0.000000
21.268000 0.000000
21.294000 0.000000
21.320000 0.000000
21.346000 0.000000
21.372000 0.000000
21.398000 0.000000
21.424000 0.000000
21.450100 0.000000
21.476100 0.000000
21.502100 0.000000
21.528100 0.000000
21.554100 0.000000
21.580100 0.000000
21.606100 0.000000
21.632100 0.000000
21.658100 0.000000
21.684100 0.000000
21.710100 0.000000
21.736100 0.000000
21.762100 0.000000
21.788100 0.000000
21.814100 0.000000
21.840100 0.000000
21.866100 0.000000
21.892100 0.000000
21.918100 0.000000
21.944100 0.000000
21.970100 0.000000
21.996200 0.000000
22.022200 0.000000
22.048200 0.000000
22.074200 0.000000
22.100200 0.000000
22.126200 0.000000
22.152200 0.000000
22.178200 0.000000
22.204200 0.000000
22.230200 0.000000
22.256200 0.000000
22.282200 0.000000
22.308200 0.000000
22.334200 0.000000
22.360200 0.000000
22.386200 0.000000
22.412200 0.000000
22.438200 0.000000
22.464200 0.000000
22.490200 0.000000
22.516300 0.000000
22.542300 0.000000
22.568300 0.000000
22.594300 0.000000
e
