set title 'mp-554405 - Density of States'
set xlabel 'Energy (eV)'
set ylabel 'DOS (states/eV)'
set grid
set xrange [-10:10]
set yrange [0:201.324]
set xzeroaxis lt -1
set terminal png size 800,600
set output 'mp-554405_dos_gnuplot.png'
plot '-' using 1:2 with lines title 'DOS'
-12.483700 0.000000
-12.468200 0.000000
-12.452700 0.000000
-12.437200 0.000000
-12.421800 0.000000
-12.406300 0.000000
-12.390800 0.000000
-12.375300 0.000000
-12.359800 0.000000
-12.344400 0.000000
-12.328900 0.000000
-12.313400 0.000000
-12.297900 0.000000
-12.282400 0.000000
-12.266900 0.000000
-12.251500 0.000000
-12.236000 0.000000
-12.220500 0.000000
-12.205000 0.000000
-12.189500 0.000000
-12.174000 0.000000
-12.158600 0.000000
-12.143100 0.000000
-12.127600 0.000000
-12.112100 0.000000
-12.096600 0.000000
-12.081100 0.000000
-12.065700 0.000000
-12.050200 0.000000
-12.034700 0.000000
-12.019200 0.000000
-12.003700 0.000000
-11.988200 0.000000
-11.972800 0.000000
-11.957300 0.000000
-11.941800 0.000000
-11.926300 0.000000
-11.910800 0.000000
-11.895300 0.000000
-11.879900 0.000000
-11.864400 0.000000
-11.848900 0.000000
-11.833400 0.000000
-11.817900 0.000000
-11.802400 0.000000
-11.787000 0.000000
-11.771500 0.000000
-11.756000 0.000000
-11.740500 0.000000
-11.725000 0.000000
-11.709500 0.000000
-11.694100 0.000000
-11.678600 0.000000
-11.663100 0.000000
-11.647600 0.000000
-11.632100 0.000000
-11.616700 0.000000
-11.601200 0.000000
-11.585700 0.000000
-11.570200 0.000000
-11.554700 0.000000
-11.539200 0.000000
-11.523800 0.000000
-11.508300 0.000000
-11.492800 0.000000
-11.477300 0.000000
-11.461800 0.000000
-11.446300 0.000000
-11.430900 0.000000
-11.415400 0.000000
-11.399900 0.000000
-11.384400 0.000000
-11.368900 0.000000
-11.353400 0.000000
-11.338000 0.000000
-11.322500 0.000000
-11.307000 0.000000
-11.291500 0.000000
-11.276000 0.000000
-11.260500 0.000000
-11.245100 0.000000
-11.229600 0.000000
-11.214100 0.000000
-11.198600 0.000000
-11.183100 0.000000
-11.167600 0.000000
-11.152200 0.000000
-11.136700 0.000000
-11.121200 0.000000
-11.105700 0.000000
-11.090200 0.000000
-11.074700 0.002100
-11.059300 0.035500
-11.043800 0.087800
-11.028300 0.169000
-11.012800 0.256800
-10.997300 0.344500
-10.981800 0.432300
-10.966400 0.523000
-10.950900 0.642600
-10.935400 0.769700
-10.919900 0.904400
-10.904400 1.046500
-10.888900 1.196100
-10.873500 1.353300
-10.858000 1.529900
-10.842500 1.716600
-10.827000 1.903300
-10.811500 2.089900
-10.796100 2.276600
-10.780600 2.463300
-10.765100 2.650000
-10.749600 2.836700
-10.734100 3.046800
-10.718600 3.279600
-10.703200 3.312600
-10.687700 3.416000
-10.672200 3.522200
-10.656700 3.684400
-10.641200 3.907500
-10.625700 4.063100
-10.610300 4.232400
-10.594800 4.435700
-10.579300 4.650300
-10.563800 4.866700
-10.548300 5.077700
-10.532800 5.278900
-10.517400 5.470400
-10.501900 5.678900
-10.486400 5.917600
-10.470900 6.156500
-10.455400 6.420300
-10.439900 6.700300
-10.424500 6.992600
-10.409000 7.297200
-10.393500 7.614500
-10.378000 7.945100
-10.362500 8.289200
-10.347000 8.643800
-10.331600 9.048500
-10.316100 9.451800
-10.300600 9.852100
-10.285100 10.265400
-10.269600 10.687900
-10.254100 11.111700
-10.238700 11.657900
-10.223200 16.004300
-10.207700 31.948200
-10.192200 11.607000
-10.176700 11.283300
-10.161200 22.928100
-10.145800 21.687500
-10.130300 19.003600
-10.114800 10.856100
-10.099300 11.630000
-10.083800 12.357600
-10.068400 20.731900
-10.052900 21.273100
-10.037400 20.435200
-10.021900 12.001900
-10.006400 13.439400
-9.990900 14.492300
-9.975500 23.927100
-9.960000 24.892500
-9.944500 30.246500
-9.929000 10.748800
-9.913500 27.922700
-9.898000 0.354400
-9.882600 0.000000
-9.867100 0.000000
-9.851600 0.000000
-9.836100 0.000000
-9.820600 0.000000
-9.805100 0.000000
-9.789700 0.000000
-9.774200 0.000000
-9.758700 0.000000
-9.743200 0.000000
-9.727700 0.000000
-9.712200 0.000000
-9.696800 0.000000
-9.681300 0.000000
-9.665800 0.000000
-9.650300 0.000000
-9.634800 0.000000
-9.619300 0.000000
-9.603900 0.000000
-9.588400 0.000000
-9.572900 0.000000
-9.557400 0.000000
-9.541900 0.000000
-9.526400 0.000000
-9.511000 0.000000
-9.495500 0.000000
-9.480000 0.000000
-9.464500 0.000000
-9.449000 0.000000
-9.433500 0.000000
-9.418100 0.000000
-9.402600 0.000000
-9.387100 0.000000
-9.371600 0.000000
-9.356100 0.000000
-9.340600 0.000000
-9.325200 0.000000
-9.309700 0.000000
-9.294200 0.000000
-9.278700 0.000000
-9.263200 0.000000
-9.247800 0.000000
-9.232300 0.000000
-9.216800 0.000000
-9.201300 0.000000
-9.185800 0.000000
-9.170300 0.000000
-9.154900 0.000000
-9.139400 0.000000
-9.123900 0.000000
-9.108400 0.000000
-9.092900 0.000000
-9.077400 0.000000
-9.062000 0.000000
-9.046500 0.000000
-9.031000 0.000000
-9.015500 0.000000
-9.000000 0.000000
-8.984500 0.000000
-8.969100 0.000000
-8.953600 0.000000
-8.938100 0.000000
-8.922600 0.000000
-8.907100 0.000000
-8.891600 0.000000
-8.876200 0.000000
-8.860700 0.000000
-8.845200 0.000000
-8.829700 0.000000
-8.814200 0.000000
-8.798700 0.000000
-8.783300 0.000000
-8.767800 0.000000
-8.752300 0.000000
-8.736800 0.000000
-8.721300 0.000000
-8.705800 0.000000
-8.690400 0.000000
-8.674900 0.000000
-8.659400 0.000000
-8.643900 0.000000
-8.628400 0.000000
-8.612900 0.000000
-8.597500 0.000000
-8.582000 0.000000
-8.566500 0.000000
-8.551000 0.000000
-8.535500 0.000000
-8.520100 0.000000
-8.504600 0.000000
-8.489100 0.000000
-8.473600 0.000000
-8.458100 0.000000
-8.442600 0.000000
-8.427200 0.000000
-8.411700 0.000000
-8.396200 0.000000
-8.380700 0.000000
-8.365200 0.000000
-8.349700 0.000000
-8.334300 0.000000
-8.318800 0.000000
-8.303300 0.000000
-8.287800 0.000000
-8.272300 0.000000
-8.256800 0.000000
-8.241400 0.000000
-8.225900 0.000000
-8.210400 0.000000
-8.194900 0.000000
-8.179400 0.000000
-8.163900 0.000000
-8.148500 0.000000
-8.133000 0.000000
-8.117500 0.000000
-8.102000 0.000000
-8.086500 0.000000
-8.071000 0.000000
-8.055600 0.000000
-8.040100 0.000000
-8.024600 0.000000
-8.009100 0.000000
-7.993600 0.000000
-7.978100 0.000000
-7.962700 0.000000
-7.947200 0.000000
-7.931700 0.000000
-7.916200 0.000000
-7.900700 0.000000
-7.885200 0.000000
-7.869800 0.000000
-7.854300 0.000000
-7.838800 0.000000
-7.823300 0.000000
-7.807800 0.000000
-7.792300 0.000000
-7.776900 0.000000
-7.761400 0.000000
-7.745900 0.000000
-7.730400 0.000000
-7.714900 0.000000
-7.699500 0.000000
-7.684000 0.000000
-7.668500 0.000000
-7.653000 0.000000
-7.637500 0.000000
-7.622000 0.000000
-7.606600 0.000000
-7.591100 0.000000
-7.575600 0.000000
-7.560100 0.000000
-7.544600 0.000000
-7.529100 0.000000
-7.513700 0.000000
-7.498200 0.000000
-7.482700 0.000000
-7.467200 0.000000
-7.451700 0.000000
-7.436200 0.000000
-7.420800 0.000000
-7.405300 0.000000
-7.389800 0.000000
-7.374300 0.000000
-7.358800 0.000000
-7.343300 0.000000
-7.327900 0.000000
-7.312400 0.000000
-7.296900 0.000000
-7.281400 0.000000
-7.265900 0.000000
-7.250400 0.000000
-7.235000 0.000000
-7.219500 0.000000
-7.204000 0.000000
-7.188500 0.000000
-7.173000 0.000000
-7.157500 0.000000
-7.142100 0.000000
-7.126600 0.000000
-7.111100 0.000000
-7.095600 0.000000
-7.080100 0.000000
-7.064600 0.000000
-7.049200 0.000000
-7.033700 0.000000
-7.018200 0.000000
-7.002700 0.000000
-6.987200 0.000000
-6.971800 0.000000
-6.956300 0.000000
-6.940800 0.000000
-6.925300 0.000000
-6.909800 0.000000
-6.894300 0.000000
-6.878900 0.000000
-6.863400 0.000000
-6.847900 0.000000
-6.832400 0.000000
-6.816900 0.000000
-6.801400 0.000000
-6.786000 0.000000
-6.770500 0.000000
-6.755000 0.000000
-6.739500 0.000000
-6.724000 0.000000
-6.708500 0.000000
-6.693100 0.000000
-6.677600 0.000000
-6.662100 0.000000
-6.646600 0.000000
-6.631100 0.000000
-6.615600 0.000000
-6.600200 0.000000
-6.584700 0.000000
-6.569200 0.000000
-6.553700 0.000000
-6.538200 0.000000
-6.522700 0.000000
-6.507300 0.000000
-6.491800 0.000000
-6.476300 0.000000
-6.460800 0.000000
-6.445300 0.000000
-6.429800 0.000000
-6.414400 0.000000
-6.398900 0.000000
-6.383400 0.000000
-6.367900 0.000000
-6.352400 0.000000
-6.336900 0.000000
-6.321500 0.000000
-6.306000 0.000000
-6.290500 0.000000
-6.275000 0.000000
-6.259500 0.000000
-6.244000 0.000000
-6.228600 0.000000
-6.213100 0.000000
-6.197600 0.000000
-6.182100 0.000000
-6.166600 0.000000
-6.151200 0.000000
-6.135700 0.000000
-6.120200 0.000000
-6.104700 0.000000
-6.089200 0.000000
-6.073700 0.000000
-6.058300 0.000000
-6.042800 0.000000
-6.027300 0.000000
-6.011800 0.000000
-5.996300 0.000000
-5.980800 0.000000
-5.965400 0.000000
-5.949900 0.000000
-5.934400 0.000000
-5.918900 0.000000
-5.903400 0.000000
-5.887900 0.000000
-5.872500 0.000000
-5.857000 0.000000
-5.841500 0.000000
-5.826000 0.000000
-5.810500 0.000000
-5.795000 0.000000
-5.779600 0.000000
-5.764100 0.000000
-5.748600 0.000000
-5.733100 0.000000
-5.717600 0.000000
-5.702100 0.000000
-5.686700 0.000000
-5.671200 0.000000
-5.655700 0.000000
-5.640200 0.000000
-5.624700 0.000000
-5.609200 0.000000
-5.593800 0.000000
-5.578300 0.000000
-5.562800 0.000000
-5.547300 0.000000
-5.531800 0.000000
-5.516300 0.000000
-5.500900 0.000000
-5.485400 0.000000
-5.469900 0.000000
-5.454400 0.000000
-5.438900 0.000000
-5.423500 0.000000
-5.408000 0.000000
-5.392500 0.000000
-5.377000 0.000000
-5.361500 0.000000
-5.346000 0.000000
-5.330600 0.000000
-5.315100 0.000000
-5.299600 0.000000
-5.284100 0.000000
-5.268600 0.000000
-5.253100 0.000000
-5.237700 0.000000
-5.222200 0.000000
-5.206700 0.000000
-5.191200 0.000000
-5.175700 0.000000
-5.160200 0.000000
-5.144800 0.000000
-5.129300 0.000000
-5.113800 0.000000
-5.098300 0.000000
-5.082800 0.000000
-5.067300 0.000000
-5.051900 0.000000
-5.036400 0.000000
-5.020900 0.000000
-5.005400 0.000000
-4.989900 0.000000
-4.974400 0.000000
-4.959000 0.000000
-4.943500 0.000000
-4.928000 0.000000
-4.912500 0.000000
-4.897000 0.000000
-4.881500 0.000000
-4.866100 0.000000
-4.850600 0.000000
-4.835100 0.000000
-4.819600 0.000000
-4.804100 0.000000
-4.788600 0.000000
-4.773200 0.000000
-4.757700 0.000000
-4.742200 0.000000
-4.726700 0.000000
-4.711200 0.000000
-4.695700 0.000000
-4.680300 0.000000
-4.664800 0.000000
-4.649300 0.000000
-4.633800 0.000000
-4.618300 0.000000
-4.602900 0.000000
-4.587400 0.000000
-4.571900 0.000000
-4.556400 0.000000
-4.540900 0.000000
-4.525400 0.000000
-4.510000 0.000000
-4.494500 0.000000
-4.479000 0.000000
-4.463500 0.000000
-4.448000 0.000000
-4.432500 0.000000
-4.417100 0.000000
-4.401600 0.000000
-4.386100 57.475300
-4.370600 50.072700
-4.355100 75.129600
-4.339600 80.751100
-4.324200 94.663500
-4.308700 96.995000
-4.293200 102.934700
-4.277700 125.165900
-4.262200 86.899500
-4.246700 95.660800
-4.231300 77.262500
-4.215800 98.770100
-4.200300 71.490500
-4.184800 86.127200
-4.169300 71.816100
-4.153800 56.038600
-4.138400 92.780600
-4.122900 71.064700
-4.107400 59.930100
-4.091900 103.452800
-4.076400 59.931800
-4.060900 23.396100
-4.045500 49.660400
-4.030000 7.752500
-4.014500 12.183900
-3.999000 33.057000
-3.983500 58.888700
-3.968000 55.625300
-3.952600 44.882300
-3.937100 183.022100
-3.921600 151.294000
-3.906100 155.019000
-3.890600 126.741500
-3.875200 89.717800
-3.859700 48.196800
-3.844200 37.270900
-3.828700 44.618800
-3.813200 49.192400
-3.797700 46.722300
-3.782300 37.776900
-3.766800 28.800100
-3.751300 33.808300
-3.735800 35.465100
-3.720300 15.833700
-3.704800 19.703500
-3.689400 21.652700
-3.673900 22.252500
-3.658400 22.259400
-3.642900 19.371000
-3.627400 13.879400
-3.611900 9.090300
-3.596500 7.908500
-3.581000 6.695900
-3.565500 10.975000
-3.550000 0.000000
-3.534500 0.000000
-3.519000 0.000000
-3.503600 0.000000
-3.488100 0.000000
-3.472600 0.000000
-3.457100 0.000000
-3.441600 0.000000
-3.426100 0.000000
-3.410700 0.000000
-3.395200 0.000000
-3.379700 0.000000
-3.364200 0.000000
-3.348700 0.000000
-3.333200 0.000000
-3.317800 0.000000
-3.302300 0.000000
-3.286800 0.000000
-3.271300 0.000000
-3.255800 0.000000
-3.240300 0.000000
-3.224900 0.000000
-3.209400 0.000000
-3.193900 0.000000
-3.178400 0.000000
-3.162900 0.014300
-3.147400 0.032900
-3.132000 0.053000
-3.116500 0.074600
-3.101000 0.097700
-3.085500 0.122300
-3.070000 0.148400
-3.054600 0.175900
-3.039100 0.205000
-3.023600 0.270600
-3.008100 0.397300
-2.992600 0.562900
-2.977100 0.774800
-2.961700 1.065100
-2.946200 1.355900
-2.930700 1.647400
-2.915200 1.939400
-2.899700 2.237100
-2.884200 2.621900
-2.868800 3.058900
-2.853300 3.575200
-2.837800 4.124400
-2.822300 4.687200
-2.806800 5.254500
-2.791300 5.822100
-2.775900 6.392700
-2.760400 7.002600
-2.744900 7.991400
-2.729400 8.905400
-2.713900 9.660100
-2.698400 10.288000
-2.683000 10.790700
-2.667500 11.255900
-2.652000 12.013100
-2.636500 14.379000
-2.621000 17.306700
-2.605500 13.193000
-2.590100 9.209200
-2.574600 6.104600
-2.559100 6.148900
-2.543600 6.172700
-2.528100 6.179800
-2.512600 6.194000
-2.497200 6.200600
-2.481700 6.498700
-2.466200 6.674600
-2.450700 6.553000
-2.435200 6.133900
-2.419700 5.608200
-2.404300 4.989000
-2.388800 4.076200
-2.373300 3.928900
-2.357800 4.781200
-2.342300 5.593400
-2.326900 5.391200
-2.311400 5.271400
-2.295900 5.332000
-2.280400 5.393200
-2.264900 5.455000
-2.249400 5.517400
-2.234000 5.608900
-2.218500 5.823800
-2.203000 6.093200
-2.187500 6.284300
-2.172000 6.360100
-2.156500 6.302900
-2.141100 6.112500
-2.125600 5.788900
-2.110100 5.332300
-2.094600 4.743600
-2.079100 4.422700
-2.063600 4.513300
-2.048200 4.614300
-2.032700 4.725700
-2.017200 4.847400
-2.001700 4.978800
-1.986200 5.112300
-1.970700 5.245600
-1.955300 5.378600
-1.939800 5.511400
-1.924300 5.643900
-1.908800 6.702500
-1.893300 7.268300
-1.877800 6.987600
-1.862400 5.860600
-1.846900 3.887100
-1.831400 3.675200
-1.815900 3.861400
-1.800400 4.398800
-1.784900 4.043500
-1.769500 2.795600
-1.754000 2.740100
-1.738500 2.723500
-1.723000 2.706900
-1.707500 2.690400
-1.692000 2.691400
-1.676600 2.707900
-1.661100 2.722300
-1.645600 2.734400
-1.630100 2.744300
-1.614600 2.751900
-1.599100 2.757400
-1.583700 2.760600
-1.568200 2.761600
-1.552700 2.760400
-1.537200 2.757000
-1.521700 2.751300
-1.506300 2.743400
-1.490800 2.733400
-1.475300 2.721000
-1.459800 2.706500
-1.444300 2.689200
-1.428800 2.657500
-1.413400 2.607900
-1.397900 2.555800
-1.382400 2.505400
-1.366900 2.456700
-1.351400 2.409800
-1.335900 2.364600
-1.320500 2.321200
-1.305000 2.279500
-1.289500 2.239500
-1.274000 2.201200
-1.258500 2.164700
-1.243000 2.129900
-1.227600 2.096800
-1.212100 2.067200
-1.196600 2.048800
-1.181100 2.025900
-1.165600 1.997600
-1.150100 1.969600
-1.134700 1.941800
-1.119200 1.914700
-1.103700 1.888000
-1.088200 1.861500
-1.072700 1.835000
-1.057200 9.006300
-1.041800 6.557300
-1.026300 6.044800
-1.010800 5.591800
-0.995300 5.198400
-0.979800 4.863900
-0.964300 5.200700
-0.948900 6.029200
-0.933400 6.623900
-0.917900 6.865100
-0.902400 6.744600
-0.886900 6.262300
-0.871400 5.644400
-0.856000 5.616600
-0.840500 5.589100
-0.825000 5.562000
-0.809500 5.535400
-0.794000 11.064100
-0.778600 10.054700
-0.763100 6.611500
-0.747600 6.593500
-0.732100 6.576100
-0.716600 6.559400
-0.701100 6.543400
-0.685700 6.528100
-0.670200 6.513500
-0.654700 6.501100
-0.639200 6.498800
-0.623700 6.496800
-0.608200 6.486400
-0.592800 6.435500
-0.577300 6.387200
-0.561800 6.345300
-0.546300 7.658700
-0.530800 9.655400
-0.515300 9.941600
-0.499900 8.517300
-0.484400 7.309200
-0.468900 6.966100
-0.453400 6.955000
-0.437900 6.939400
-0.422400 6.919400
-0.407000 6.894900
-0.391500 6.866000
-0.376000 6.832600
-0.360500 6.794800
-0.345000 6.977300
-0.329500 7.084700
-0.314100 7.103600
-0.298600 7.029400
-0.283100 6.902700
-0.267600 6.906500
-0.252100 7.027500
-0.236600 7.129200
-0.221200 7.199800
-0.205700 7.230700
-0.190200 7.225200
-0.174700 7.182600
-0.159200 7.439300
-0.143700 7.875700
-0.128300 8.211700
-0.112800 8.505700
-0.097300 8.747100
-0.081800 8.899800
-0.066300 8.960900
-0.050800 8.918400
-0.035400 8.779700
-0.019900 8.546800
-0.004400 8.382300
0.011100 8.329600
0.026600 8.270600
0.042000 8.205200
0.057500 8.133400
0.073000 8.055200
0.088500 7.965400
0.104000 7.873400
0.119500 7.779900
0.134900 7.684200
0.150400 7.586000
0.165900 7.485600
0.181400 12.080900
0.196900 14.409200
0.212400 9.943300
0.227800 9.772200
0.243300 9.582500
0.258800 9.397100
0.274300 9.211400
0.289800 9.028300
0.305300 8.848200
0.320700 8.671100
0.336200 8.496600
0.351700 8.304100
0.367200 8.562700
0.382700 8.872500
0.398200 9.122500
0.413600 9.334500
0.429100 9.511200
0.444600 9.649200
0.460100 9.742500
0.475600 9.783400
0.491100 9.786300
0.506500 9.746000
0.522000 9.673500
0.537500 9.562800
0.553000 9.488300
0.568500 9.436400
0.584000 9.107100
0.599400 14.705700
0.614900 13.057300
0.630400 11.869400
0.645900 10.861200
0.661400 10.203500
0.676900 9.951700
0.692300 9.708900
0.707800 9.475200
0.723300 9.244800
0.738800 9.027300
0.754300 27.872000
0.769700 11.653100
0.785200 11.450600
0.800700 11.264600
0.816200 11.068900
0.831700 10.865000
0.847200 10.659800
0.862600 10.453400
0.878100 10.245900
0.893600 10.037400
0.909100 9.827900
0.924600 9.622800
0.940100 9.422600
0.955500 9.223800
0.971000 9.026100
0.986500 8.825400
1.002000 8.623600
1.017500 8.421200
1.033000 8.218300
1.048400 8.009400
1.063900 7.796800
1.079400 7.588400
1.094900 7.384400
1.110400 7.181100
1.125900 6.974000
1.141300 6.741200
1.156800 6.512100
1.172300 6.304900
1.187800 6.104300
1.203300 5.909200
1.218800 5.719700
1.234200 5.535700
1.249700 5.368800
1.265200 5.333900
1.280700 5.172700
1.296200 5.004100
1.311700 4.851000
1.327100 4.782300
1.342600 4.582800
1.358100 4.379400
1.373600 4.178900
1.389100 4.019900
1.404600 3.951900
1.420000 3.867700
1.435500 3.757400
1.451000 3.696700
1.466500 3.657000
1.482000 3.479400
1.497500 3.303800
1.512900 3.130200
1.528400 2.964200
1.543900 2.799000
1.559400 2.634500
1.574900 2.470800
1.590300 2.307700
1.605800 2.145200
1.621300 1.983500
1.636800 1.822500
1.652300 1.667700
1.667800 1.517900
1.683200 1.369800
1.698700 1.223400
1.714200 1.078500
1.729700 0.935300
1.745200 0.793700
1.760700 0.659200
1.776100 0.549900
1.791600 0.453100
1.807100 0.356300
1.822600 0.259500
1.838100 0.162600
1.853600 0.089900
1.869000 0.038500
1.884500 0.003700
1.900000 0.000000
1.915500 0.000000
1.931000 0.000000
1.946500 0.000000
1.961900 0.000000
1.977400 0.000000
1.992900 0.000000
2.008400 0.000000
2.023900 0.000000
2.039400 0.000000
2.054800 0.000000
2.070300 0.000000
2.085800 0.000000
2.101300 0.000000
2.116800 0.000000
2.132300 0.000000
2.147700 0.000000
2.163200 0.000000
2.178700 0.000000
2.194200 0.000000
2.209700 0.000000
2.225200 0.000000
2.240600 0.000000
2.256100 0.000000
2.271600 0.000000
2.287100 0.000000
2.302600 0.000000
2.318000 0.000000
2.333500 0.000000
2.349000 0.000000
2.364500 0.000000
2.380000 0.000000
2.395500 0.000000
2.410900 0.000000
2.426400 0.000000
2.441900 0.000000
2.457400 0.000000
2.472900 0.000000
2.488400 0.000000
2.503800 0.000000
2.519300 0.000000
2.534800 0.000000
2.550300 0.000000
2.565800 0.000000
2.581300 0.000000
2.596700 0.000000
2.612200 0.000000
2.627700 0.000000
2.643200 0.000000
2.658700 0.000000
2.674200 0.000000
2.689600 0.000000
2.705100 0.000000
2.720600 0.000000
2.736100 0.000000
2.751600 0.000000
2.767100 0.000000
2.782500 0.000000
2.798000 0.000000
2.813500 0.000000
2.829000 0.000000
2.844500 0.000000
2.860000 0.000000
2.875400 0.000000
2.890900 0.000000
2.906400 0.000000
2.921900 0.000000
2.937400 0.000000
2.952900 0.000000
2.968300 0.000000
2.983800 0.000000
2.999300 0.000000
3.014800 0.000000
3.030300 0.000000
3.045800 0.000000
3.061200 0.000000
3.076700 0.000000
3.092200 0.000000
3.107700 0.000000
3.123200 0.000000
3.138600 0.000000
3.154100 0.000000
3.169600 0.000000
3.185100 0.000000
3.200600 0.000000
3.216100 0.000000
3.231500 0.000000
3.247000 0.000000
3.262500 0.000000
3.278000 0.000000
3.293500 0.000000
3.309000 0.000000
3.324400 0.000000
3.339900 0.000000
3.355400 0.000000
3.370900 0.000000
3.386400 0.000000
3.401900 0.000000
3.417300 0.000000
3.432800 0.000000
3.448300 0.000000
3.463800 0.000000
3.479300 0.000000
3.494800 0.000000
3.510200 0.000000
3.525700 0.000000
3.541200 0.000000
3.556700 0.000000
3.572200 0.000000
3.587700 0.000000
3.603100 0.000000
3.618600 0.000000
3.634100 0.000000
3.649600 0.000000
3.665100 0.000000
3.680600 0.000000
3.696000 0.000000
3.711500 0.000000
3.727000 0.000000
3.742500 0.000000
3.758000 0.000000
3.773500 0.000000
3.788900 0.000000
3.804400 0.000000
3.819900 0.000000
3.835400 0.000000
3.850900 0.000000
3.866300 0.000000
3.881800 0.000000
3.897300 0.000000
3.912800 0.000000
3.928300 0.000000
3.943800 0.000000
3.959200 0.000000
3.974700 0.000000
3.990200 0.000000
4.005700 0.000000
4.021200 0.000300
4.036700 0.001600
4.052100 0.002900
4.067600 0.004400
4.083100 0.006100
4.098600 0.007800
4.114100 0.009700
4.129600 0.011700
4.145000 0.013800
4.160500 0.016100
4.176000 0.018500
4.191500 0.021000
4.207000 0.023600
4.222500 0.026400
4.237900 0.029300
4.253400 0.032300
4.268900 0.035500
4.284400 0.038800
4.299900 0.042200
4.315400 0.045700
4.330800 0.049400
4.346300 0.053200
4.361800 0.057100
4.377300 0.061100
4.392800 0.067100
4.408300 0.073400
4.423700 0.079800
4.439200 0.086100
4.454700 0.092400
4.470200 0.098700
4.485700 0.105100
4.501200 0.111400
4.516600 0.117800
4.532100 0.124100
4.547600 0.130500
4.563100 0.136800
4.578600 0.143200
4.594000 0.149500
4.609500 0.155900
4.625000 0.162300
4.640500 0.168700
4.656000 0.175100
4.671500 0.181500
4.686900 0.187800
4.702400 0.194200
4.717900 0.200700
4.733400 0.207100
4.748900 0.213500
4.764400 0.219900
4.779800 0.226300
4.795300 0.232800
4.810800 0.239200
4.826300 0.245600
4.841800 0.253000
4.857300 0.263900
4.872700 0.275600
4.888200 0.288000
4.903700 0.301200
4.919200 0.315200
4.934700 0.329900
4.950200 0.345300
4.965600 0.361500
4.981100 0.379300
4.996600 0.399800
5.012100 0.423000
5.027600 0.449500
5.043100 0.476600
5.058500 0.504300
5.074000 0.532600
5.089500 0.561500
5.105000 0.591100
5.120500 0.621200
5.136000 0.654600
5.151400 0.689400
5.166900 0.724200
5.182400 0.759000
5.197900 0.796800
5.213400 0.840000
5.228900 0.887000
5.244300 0.933900
5.259800 1.003500
5.275300 1.102500
5.290800 1.232600
5.306300 1.362700
5.321800 1.492700
5.337200 1.622700
5.352700 1.753500
5.368200 1.890800
5.383700 2.031400
5.399200 2.171900
5.414600 2.312400
5.430100 2.452800
5.445600 2.593100
5.461100 2.754900
5.476600 2.966100
5.492100 3.204100
5.507500 3.441800
5.523000 3.679300
5.538500 3.933500
5.554000 4.204500
5.569500 4.468000
5.585000 4.753600
5.600400 5.019000
5.615900 5.242900
5.631400 5.409700
5.646900 5.576300
5.662400 5.742800
5.677900 5.909200
5.693300 6.075400
5.708800 6.264500
5.724300 6.454500
5.739800 6.642500
5.755300 6.813700
5.770800 6.984300
5.786200 7.148900
5.801700 7.300400
5.817200 7.439000
5.832700 7.564700
5.848200 7.677400
5.863700 7.777100
5.879100 7.831100
5.894600 7.872200
5.910100 7.913300
5.925600 7.954300
5.941100 7.995300
5.956600 8.036200
5.972000 8.103300
5.987500 8.178800
6.003000 8.248100
6.018500 8.311300
6.034000 8.368200
6.049500 8.440000
6.064900 8.549800
6.080400 8.643900
6.095900 8.696500
6.111400 8.684900
6.126900 8.668800
6.142300 8.645300
6.157800 8.618800
6.173300 8.594100
6.188800 8.571000
6.204300 8.549800
6.219800 8.530200
6.235200 8.512400
6.250700 8.755200
6.266200 9.133900
6.281700 9.315200
6.297200 9.333400
6.312700 9.472700
6.328100 9.449800
6.343600 9.211100
6.359100 8.763000
6.374600 8.130100
6.390100 7.967200
6.405600 7.815300
6.421000 7.579800
6.436500 7.260900
6.452000 6.834300
6.467500 6.288900
6.483000 5.998000
6.498500 5.827200
6.513900 5.656500
6.529400 5.485800
6.544900 5.315100
6.560400 5.144400
6.575900 4.973800
6.591400 4.803100
6.606800 4.632500
6.622300 4.462000
6.637800 4.291400
6.653300 8.966000
6.668800 7.698200
6.684300 3.212200
6.699700 3.120600
6.715200 3.031700
6.730700 2.945400
6.746200 2.861800
6.761700 2.780800
6.777200 2.871200
6.792600 2.985200
6.808100 3.064700
6.823600 3.109700
6.839100 3.120200
6.854600 3.114400
6.870100 3.076500
6.885500 3.001600
6.901000 2.889900
6.916500 2.741200
6.932000 2.555700
6.947500 3.333400
6.962900 3.758800
6.978400 3.657200
6.993900 3.255400
7.009400 2.305700
7.024900 1.270900
7.040400 1.345400
7.055800 1.420200
7.071300 1.495100
7.086800 1.570300
7.102300 1.645700
7.117800 1.721300
7.133300 1.797100
7.148700 1.873100
7.164200 1.949400
7.179700 2.025800
7.195200 2.102400
7.210700 2.179300
7.226200 2.257300
7.241600 3.106600
7.257100 4.146200
7.272600 4.926200
7.288100 5.523800
7.303600 5.715500
7.319100 5.633600
7.334500 5.551400
7.350000 5.469200
7.365500 5.386700
7.381000 5.304100
7.396500 5.221300
7.412000 5.138400
7.427400 5.055300
7.442900 4.972100
7.458400 4.888600
7.473900 4.805100
7.489400 4.722600
7.504900 4.733400
7.520300 4.809300
7.535800 4.885000
7.551300 7.701500
7.566800 8.356100
7.582300 6.231800
7.597800 4.778200
7.613200 5.060300
7.628700 5.342300
7.644200 5.624100
7.659700 5.905800
7.675200 6.369600
7.690600 8.341800
7.706100 12.082300
7.721600 12.577300
7.737100 13.447000
7.752600 13.469300
7.768100 9.740600
7.783500 4.554500
7.799000 4.695800
7.814500 4.886600
7.830000 5.157400
7.845500 6.658900
7.861000 9.450700
7.876400 10.826700
7.891900 10.196000
7.907400 9.587100
7.922900 9.000100
7.938400 8.435000
7.953900 7.891700
7.969300 7.370200
7.984800 7.974900
8.000300 9.665700
8.015800 10.852100
8.031300 12.001800
8.046800 12.150300
8.062200 11.376400
8.077700 10.212600
8.093200 8.708200
8.108700 8.219800
8.124200 7.641700
8.139700 7.080200
8.155100 6.535400
8.170600 6.008000
8.186100 5.504200
8.201600 5.023200
8.217100 4.559000
8.232600 4.236200
8.248000 4.942000
8.263500 4.992500
8.279000 4.392000
8.294500 3.105200
8.310000 1.132100
8.325500 0.250500
8.340900 0.197500
8.356400 0.150000
8.371900 0.222700
8.387400 0.351900
8.402900 0.536000
8.418400 0.775300
8.433800 1.074700
8.449300 1.461600
8.464800 2.179800
8.480300 5.623800
8.495800 9.599600
8.511200 11.852000
8.526700 12.235200
8.542200 10.844800
8.557700 10.778700
8.573200 10.441000
8.588700 12.351800
8.604100 10.616500
8.619600 7.414700
8.635100 5.482500
8.650600 4.817900
8.666100 4.324400
8.681600 3.867900
8.697000 3.448500
8.712500 3.066100
8.728000 2.720700
8.743500 2.412300
8.759000 2.162100
8.774500 1.955200
8.789900 1.782700
8.805400 1.651700
8.820900 1.773500
8.836400 3.541800
8.851900 7.353600
8.867400 11.656400
8.882800 14.637900
8.898300 16.298000
8.913800 19.757700
8.929300 16.689400
8.944800 10.164700
8.960300 9.301600
8.975700 8.319100
8.991200 7.217300
9.006700 5.283700
9.022200 2.678400
9.037700 2.033900
9.053200 2.150100
9.068600 2.272800
9.084100 2.401800
9.099600 2.540500
9.115100 2.691700
9.130600 2.843400
9.146100 5.558500
9.161500 14.200800
9.177000 21.755300
9.192500 12.184600
9.208000 11.220300
9.223500 9.977100
9.238900 8.616400
9.254400 8.235700
9.269900 7.864400
9.285400 7.731000
9.300900 8.224200
9.316400 8.537300
9.331800 8.670500
9.347300 8.883700
9.362800 9.017700
9.378300 8.942300
9.393800 8.657500
9.409300 8.168800
9.424700 7.762900
9.440200 6.996900
9.455700 6.268600
9.471200 6.972000
9.486700 9.628500
9.502200 10.008900
9.517600 9.797300
9.533100 10.169700
9.548600 10.207200
9.564100 9.960100
9.579600 9.653800
9.595100 9.310000
9.610500 8.928700
9.626000 8.510000
9.641500 8.135100
9.657000 7.921000
9.672500 8.279900
9.688000 8.381800
9.703400 8.333500
9.718900 8.422100
9.734400 8.265700
9.749900 8.058400
9.765400 7.862200
9.780900 7.677000
9.796300 7.508100
9.811800 7.364200
9.827300 7.228700
9.842800 7.101400
9.858300 6.963100
9.873800 6.825100
9.889200 7.354900
9.904700 7.751200
9.920200 8.014100
9.935700 8.143500
9.951200 8.139600
9.966700 8.002200
9.982100 7.745700
9.997600 7.369200
10.013100 6.863800
10.028600 6.586400
10.044100 7.002300
10.059500 6.871500
10.075000 6.759800
10.090500 6.756300
10.106000 6.756400
10.121500 6.754700
10.137000 6.780100
10.152400 6.812000
10.167900 6.838800
10.183400 6.860700
10.198900 6.784000
10.214400 6.617900
10.229900 6.454400
10.245300 6.293500
10.260800 6.135200
10.276300 13.136900
10.291800 7.725100
10.307300 7.012200
10.322800 6.794700
10.338200 6.708000
10.353700 6.953200
10.369200 7.566000
10.384700 10.118700
10.400200 10.982400
10.415700 9.929000
10.431100 7.826500
10.446600 7.695500
10.462100 7.561000
10.477600 7.422900
10.493100 7.281200
10.508600 7.136000
10.524000 6.987200
10.539500 6.836300
10.555000 6.638100
10.570500 6.377400
10.586000 8.409300
10.601500 10.520000
10.616900 7.842500
10.632400 6.007000
10.647900 7.158700
10.663400 6.471700
10.678900 6.154900
10.694400 6.073100
10.709800 5.986000
10.725300 5.893600
10.740800 5.796000
10.756300 5.693100
10.771800 5.584900
10.787200 5.475200
10.802700 5.366100
10.818200 5.257500
10.833700 5.149500
10.849200 5.042100
10.864700 4.935300
10.880100 4.829100
10.895600 4.750900
10.911100 5.046100
10.926600 5.529900
10.942100 5.507000
10.957600 5.413200
10.973000 5.250800
10.988500 5.091600
11.004000 5.007700
11.019500 5.018000
11.035000 5.238300
11.050500 5.452600
11.065900 5.764800
11.081400 5.954300
11.096900 6.302500
11.112400 6.171900
11.127900 5.925700
11.143400 5.563900
11.158800 5.086500
11.174300 4.798100
11.189800 4.680600
11.205300 4.563400
11.220800 4.458100
11.236300 4.355000
11.251700 4.253800
11.267200 4.154500
11.282700 4.057200
11.298200 3.961700
11.313700 3.868300
11.329200 3.776700
11.344600 3.687100
11.360100 3.599400
11.375600 3.517600
11.391100 3.440600
11.406600 3.363900
11.422100 3.287400
11.437500 3.211100
11.453000 3.135200
11.468500 3.073200
11.484000 3.047900
11.499500 3.035100
11.515000 3.022500
11.530400 3.009400
11.545900 2.995900
11.561400 2.982000
11.576900 2.967700
11.592400 2.958000
11.607800 2.951400
11.623300 2.945300
11.638800 9.550400
11.654300 3.407400
11.669800 3.400400
11.685300 3.393800
11.700700 3.387800
11.716200 3.383800
11.731700 3.390900
11.747200 3.398300
11.762700 3.406300
11.778200 3.414700
11.793600 3.423500
11.809100 3.432800
11.824600 3.446100
11.840100 3.460600
11.855600 3.474600
11.871100 3.488300
11.886500 3.501500
11.902000 3.514200
11.917500 3.526600
11.933000 3.538500
11.948500 3.550100
11.964000 3.556200
11.979400 3.513300
11.994900 3.473200
12.010400 3.415000
12.025900 3.347800
12.041400 3.316500
12.056900 3.327000
12.072300 3.452900
12.087800 3.581000
12.103300 3.704100
12.118800 3.763200
12.134300 3.753600
12.149800 3.806100
12.165200 3.844200
12.180700 3.869100
12.196200 3.876400
12.211700 3.854500
12.227200 3.812600
12.242700 3.770600
12.258100 3.728800
12.273600 3.687500
12.289100 3.646400
12.304600 3.605800
12.320100 4.076300
12.335500 4.564300
12.351000 4.902000
12.366500 5.090400
12.382000 5.136900
12.397500 5.043100
12.413000 4.809000
12.428400 4.434600
12.443900 4.011700
12.459400 4.019100
12.474900 4.036700
12.490400 4.064300
12.505900 4.102000
12.521300 4.149700
12.536800 4.253100
12.552300 4.499600
12.567800 4.788700
12.583300 5.099300
12.598800 5.404900
12.614200 5.705300
12.629700 5.993800
12.645200 6.267700
12.660700 6.846700
12.676200 7.161700
12.691700 6.807300
12.707100 6.231000
12.722600 6.267100
12.738100 6.278600
12.753600 6.265400
12.769100 6.227600
12.784600 6.165100
12.800000 6.078000
12.815500 5.966200
12.831000 5.829900
12.846500 5.668800
12.862000 5.483200
12.877500 5.339000
12.892900 5.246800
12.908400 5.179400
12.923900 5.136800
12.939400 5.115800
12.954900 5.097100
12.970400 5.077300
12.985800 5.056600
13.001300 5.034800
13.016800 5.012100
13.032300 4.988300
13.047800 4.963500
13.063300 4.937700
13.078700 5.988600
13.094200 7.096200
13.109700 7.426800
13.125200 7.109200
13.140700 6.145600
13.156100 5.231400
13.171600 5.115800
13.187100 4.982500
13.202600 4.832700
13.218100 4.666400
13.233600 4.483500
13.249000 4.317400
13.264500 4.298900
13.280000 4.291400
13.295500 4.294900
13.311000 4.309500
13.326500 4.525200
13.341900 4.760400
13.357400 4.958100
13.372900 5.123400
13.388400 5.250700
13.403900 5.339300
13.419400 5.389200
13.434800 5.400500
13.450300 5.974900
13.465800 6.368700
13.481300 5.951900
13.496800 5.339400
13.512300 5.129000
13.527700 4.883500
13.543200 4.638700
13.558700 4.482800
13.574200 4.337700
13.589700 4.209400
13.605200 4.167900
13.620600 4.382800
13.636100 4.894000
13.651600 5.298300
13.667100 5.599300
13.682600 5.792600
13.698100 5.877200
13.713500 5.852900
13.729000 5.719800
13.744500 5.477900
13.760000 5.188700
13.775500 5.358100
13.791000 5.580600
13.806400 5.806100
13.821900 6.032200
13.837400 6.099200
13.852900 5.835700
13.868400 5.694200
13.883800 5.596900
13.899300 5.394500
13.914800 5.180400
13.930300 4.996700
13.945800 4.843800
13.961300 4.726700
13.976700 4.637600
13.992200 4.580500
14.007700 4.549900
14.023200 4.545300
14.038700 4.566100
14.054200 4.598500
14.069600 4.511000
14.085100 4.366200
14.100600 4.190700
14.116100 4.003900
14.131600 3.878400
14.147100 3.820900
14.162500 3.792700
14.178000 3.764300
14.193500 3.735600
14.209000 3.706600
14.224500 3.677300
14.240000 3.647700
14.255400 3.617800
14.270900 3.587600
14.286400 3.556700
14.301900 3.529200
14.317400 3.511300
14.332900 3.497300
14.348300 3.486800
14.363800 3.482800
14.379300 3.492000
14.394800 3.504100
14.410300 3.519200
14.425800 3.544600
14.441200 3.583200
14.456700 3.624100
14.472200 3.680200
14.487700 3.752100
14.503200 3.824400
14.518700 3.897300
14.534100 3.970800
14.549600 4.047600
14.565100 4.125300
14.580600 4.203300
14.596100 4.290500
14.611600 4.383800
14.627000 4.479100
14.642500 4.576200
14.658000 4.675100
14.673500 4.775900
14.689000 4.883700
14.704400 4.993400
14.719900 5.109100
14.735400 5.226200
14.750900 5.344200
14.766400 5.463000
14.781900 5.614100
14.797300 14.660900
14.812800 20.439200
14.828300 8.328900
14.843800 5.850100
14.859300 4.511900
14.874800 4.390600
14.890200 4.458100
14.905700 4.527100
14.921200 4.597800
14.936700 4.670000
14.952200 4.743800
14.967700 4.819100
14.983100 4.896100
14.998600 4.974600
15.014100 5.054700
15.029600 5.136700
15.045100 5.220700
15.060600 5.306600
15.076000 5.395300
15.091500 5.485800
15.107000 5.578200
15.122500 5.672500
15.138000 5.768700
15.153500 5.866900
15.168900 5.968500
15.184400 6.073800
15.199900 6.182700
15.215400 6.295400
15.230900 6.411700
15.246400 10.756100
15.261800 13.360100
15.277300 12.548700
15.292800 11.889600
15.308300 10.837000
15.323800 9.388800
15.339300 7.541500
15.354700 6.832100
15.370200 7.711800
15.385700 8.794100
15.401200 9.865300
15.416700 10.926900
15.432100 12.029800
15.447600 14.653000
15.463100 15.880300
15.478600 8.461300
15.494100 9.506400
15.509600 10.394100
15.525000 11.135200
15.540500 11.689500
15.556000 12.183600
15.571500 14.104900
15.587000 13.540000
15.602500 9.797500
15.617900 8.693000
15.633400 8.721100
15.648900 8.738200
15.664400 8.744300
15.679900 8.739400
15.695400 8.723600
15.710800 8.696800
15.726300 8.661500
15.741800 8.622800
15.757300 8.746900
15.772800 9.023900
15.788300 9.114000
15.803700 9.017100
15.819200 8.733300
15.834700 8.262500
15.850200 7.604800
15.865700 6.760200
15.881200 5.981500
15.896600 5.931000
15.912100 5.878200
15.927600 8.585700
15.943100 8.874000
15.958600 4.202800
15.974100 3.752200
15.989500 3.728900
16.005000 3.708300
16.020500 3.693900
16.036000 4.055900
16.051500 5.035800
16.067000 6.080400
16.082400 7.102800
16.097900 8.935100
16.113400 11.040800
16.128900 11.575600
16.144400 10.556800
16.159900 8.533700
16.175300 8.656500
16.190800 8.752700
16.206300 8.822300
16.221800 8.865300
16.237300 33.129900
16.252700 5.731100
16.268200 7.853300
16.283700 8.440200
16.299200 8.489600
16.314700 8.465300
16.330200 8.342200
16.345600 8.120100
16.361100 7.799100
16.376600 7.379300
16.392100 6.860600
16.407600 6.243000
16.423100 5.472500
16.438500 5.055000
16.454000 4.920300
16.469500 4.847500
16.485000 4.836700
16.500500 5.225100
16.516000 6.363700
16.531400 7.384300
16.546900 8.256500
16.562400 8.825600
16.577900 8.984400
16.593400 8.773700
16.608900 8.193400
16.624300 7.243500
16.639800 5.923600
16.655300 5.179100
16.670800 5.089500
16.686300 4.968300
16.701800 4.815700
16.717200 4.631600
16.732700 4.416000
16.748200 4.168900
16.763700 3.702800
16.779200 3.111300
16.794700 2.982800
16.810100 2.860900
16.825600 2.745600
16.841100 2.636900
16.856600 2.534700
16.872100 2.500500
16.887600 2.463500
16.903000 2.366800
16.918500 2.167700
16.934000 1.806700
16.949500 1.479500
16.965000 1.186100
16.980400 0.926400
16.995900 0.700500
17.011400 0.508400
17.026900 0.349800
17.042400 0.215700
17.057900 0.101600
17.073300 0.007600
17.088800 0.000000
17.104300 0.000000
17.119800 0.000000
17.135300 0.000000
17.150800 0.000000
17.166200 0.000000
17.181700 0.000000
17.197200 0.000000
17.212700 0.000000
17.228200 0.000000
17.243700 0.000000
17.259100 0.000000
17.274600 0.000000
17.290100 0.000000
17.305600 0.000000
17.321100 0.000000
17.336600 0.000000
17.352000 0.000000
17.367500 0.000000
17.383000 0.000000
17.398500 0.000000
17.414000 0.000000
17.429500 0.000000
17.444900 0.000000
17.460400 0.000000
17.475900 0.000000
17.491400 0.000000
17.506900 0.000000
17.522400 0.000000
17.537800 0.000000
17.553300 0.000000
17.568800 0.000000
17.584300 0.000000
17.599800 0.000000
17.615300 0.000000
17.630700 0.000000
17.646200 0.000000
17.661700 0.000000
17.677200 0.000000
17.692700 0.000000
17.708200 0.000000
17.723600 0.000000
17.739100 0.000000
17.754600 0.000000
17.770100 0.000000
17.785600 0.000000
17.801000 0.000000
17.816500 0.000000
17.832000 0.000000
17.847500 0.000000
17.863000 0.000000
17.878500 0.000000
17.893900 0.000000
17.909400 0.000000
17.924900 0.000000
17.940400 0.000000
17.955900 0.000000
17.971400 0.000000
17.986800 0.000000
18.002300 0.000000
18.017800 0.000000
18.033300 0.000000
18.048800 0.000000
18.064300 0.000000
18.079700 0.000000
18.095200 0.000000
18.110700 0.000000
18.126200 0.000000
18.141700 0.000000
18.157200 0.000000
18.172600 0.000000
18.188100 0.000000
18.203600 0.000000
18.219100 0.000000
18.234600 0.000000
18.250100 0.000000
18.265500 0.000000
18.281000 0.000000
18.296500 0.000000
18.312000 0.000000
18.327500 0.000000
18.343000 0.000000
18.358400 0.000000
18.373900 0.000000
18.389400 0.000000
18.404900 0.000000
18.420400 0.000000
18.435900 0.000000
18.451300 0.000000
18.466800 0.000000
18.482300 0.000000
e
