set title 'mp-973571 - Density of States'
set xlabel 'Energy (eV)'
set ylabel 'DOS (states/eV)'
set grid
set xrange [-10:10]
set yrange [0:9.124]
set xzeroaxis lt -1
set terminal png size 800,600
set output 'mp-973571_dos_gnuplot.png'
plot '-' using 1:2 with lines title 'DOS'
-27.578800 0.000000
-27.540600 0.000000
-27.502400 0.000000
-27.464200 0.000000
-27.426000 0.000000
-27.387900 0.000000
-27.349700 0.000000
-27.311500 0.000000
-27.273300 0.000000
-27.235100 0.000000
-27.196900 0.000000
-27.158700 0.000000
-27.120500 0.000000
-27.082300 0.000000
-27.044100 0.000000
-27.005900 0.000000
-26.967800 0.000000
-26.929600 0.000000
-26.891400 0.000000
-26.853200 0.000000
-26.815000 0.000000
-26.776800 0.000000
-26.738600 0.000000
-26.700400 0.000000
-26.662200 0.000000
-26.624000 0.000000
-26.585900 0.000000
-26.547700 0.000000
-26.509500 0.000000
-26.471300 0.000000
-26.433100 0.000000
-26.394900 0.000000
-26.356700 0.000000
-26.318500 0.000000
-26.280300 0.000000
-26.242100 0.000000
-26.203900 0.000000
-26.165800 0.000000
-26.127600 0.000000
-26.089400 0.000000
-26.051200 0.000000
-26.013000 0.000000
-25.974800 0.000000
-25.936600 0.000000
-25.898400 0.000000
-25.860200 0.000000
-25.822000 0.000000
-25.783900 0.000000
-25.745700 0.000000
-25.707500 0.000000
-25.669300 0.000000
-25.631100 0.000000
-25.592900 0.000000
-25.554700 0.000000
-25.516500 0.000000
-25.478300 0.000000
-25.440100 0.000000
-25.401900 0.000000
-25.363800 0.000000
-25.325600 0.000000
-25.287400 0.000000
-25.249200 0.000000
-25.211000 0.000000
-25.172800 0.000000
-25.134600 0.000000
-25.096400 0.000000
-25.058200 0.000000
-25.020000 0.000000
-24.981900 0.000000
-24.943700 0.000000
-24.905500 0.000000
-24.867300 0.000000
-24.829100 0.000000
-24.790900 0.000000
-24.752700 0.000000
-24.714500 0.000000
-24.676300 0.000000
-24.638100 0.000000
-24.600000 0.000000
-24.561800 0.000000
-24.523600 0.000000
-24.485400 0.000000
-24.447200 0.000000
-24.409000 0.000000
-24.370800 0.000000
-24.332600 0.000000
-24.294400 0.000000
-24.256200 0.000000
-24.218000 0.000000
-24.179900 0.000000
-24.141700 0.000000
-24.103500 0.281500
-24.065300 14.572000
-24.027100 36.023100
-23.988900 40.505200
-23.950700 34.698700
-23.912500 13.070600
-23.874300 26.499400
-23.836100 28.152400
-23.798000 37.476400
-23.759800 48.749600
-23.721600 59.261300
-23.683400 74.242700
-23.645200 39.208300
-23.607000 7.744900
-23.568800 0.000000
-23.530600 0.000000
-23.492400 0.000000
-23.454200 0.000000
-23.416000 0.000000
-23.377900 0.000000
-23.339700 0.000000
-23.301500 0.000000
-23.263300 0.000000
-23.225100 0.000000
-23.186900 0.000000
-23.148700 0.000000
-23.110500 0.000000
-23.072300 0.000000
-23.034100 0.000000
-22.996000 0.000000
-22.957800 0.000000
-22.919600 0.000000
-22.881400 0.000000
-22.843200 0.000000
-22.805000 0.000000
-22.766800 0.000000
-22.728600 0.000000
-22.690400 0.000000
-22.652200 0.000000
-22.614000 0.000000
-22.575900 0.000000
-22.537700 0.000000
-22.499500 0.000000
-22.461300 0.000000
-22.423100 0.000000
-22.384900 0.000000
-22.346700 0.000000
-22.308500 0.000000
-22.270300 0.000000
-22.232100 0.000000
-22.194000 0.000000
-22.155800 0.000000
-22.117600 0.000000
-22.079400 0.000000
-22.041200 0.000000
-22.003000 0.000000
-21.964800 0.000000
-21.926600 0.000000
-21.888400 0.000000
-21.850200 0.000000
-21.812100 0.000000
-21.773900 0.000000
-21.735700 0.000000
-21.697500 0.000000
-21.659300 0.000000
-21.621100 0.000000
-21.582900 0.000000
-21.544700 0.000000
-21.506500 0.000000
-21.468300 0.000000
-21.430100 0.000000
-21.392000 0.000000
-21.353800 0.000000
-21.315600 0.000000
-21.277400 0.000000
-21.239200 0.000000
-21.201000 0.000000
-21.162800 0.000000
-21.124600 0.000000
-21.086400 0.000000
-21.048200 0.000000
-21.010100 0.000000
-20.971900 0.000000
-20.933700 0.000000
-20.895500 0.000000
-20.857300 0.000000
-20.819100 0.000000
-20.780900 0.000000
-20.742700 0.000000
-20.704500 0.000000
-20.666300 0.000000
-20.628100 0.000000
-20.590000 0.000000
-20.551800 0.000000
-20.513600 0.000000
-20.475400 0.000000
-20.437200 0.000000
-20.399000 0.000000
-20.360800 0.000000
-20.322600 0.000000
-20.284400 0.000000
-20.246200 0.000000
-20.208100 0.000000
-20.169900 0.000000
-20.131700 0.000000
-20.093500 0.000000
-20.055300 0.000000
-20.017100 0.000000
-19.978900 0.000000
-19.940700 0.000000
-19.902500 0.000000
-19.864300 0.000000
-19.826200 0.000000
-19.788000 0.000000
-19.749800 0.000000
-19.711600 0.000000
-19.673400 0.000000
-19.635200 0.000000
-19.597000 0.000000
-19.558800 0.000000
-19.520600 0.000000
-19.482400 0.000000
-19.444200 0.000000
-19.406100 0.000000
-19.367900 0.000000
-19.329700 0.000000
-19.291500 0.000000
-19.253300 0.000000
-19.215100 0.000000
-19.176900 0.000000
-19.138700 0.000000
-19.100500 0.000000
-19.062300 0.000000
-19.024200 0.000000
-18.986000 0.000000
-18.947800 0.000000
-18.909600 0.000000
-18.871400 0.000000
-18.833200 0.000000
-18.795000 0.000000
-18.756800 0.000000
-18.718600 0.000000
-18.680400 0.000000
-18.642200 0.000000
-18.604100 0.000000
-18.565900 0.000000
-18.527700 0.000000
-18.489500 0.000000
-18.451300 0.000000
-18.413100 0.000000
-18.374900 0.000000
-18.336700 0.000000
-18.298500 0.000000
-18.260300 0.000000
-18.222200 0.000000
-18.184000 0.000000
-18.145800 0.000000
-18.107600 0.000000
-18.069400 0.000000
-18.031200 0.000000
-17.993000 0.000000
-17.954800 0.000000
-17.916600 0.000000
-17.878400 0.000000
-17.840200 0.000000
-17.802100 0.000000
-17.763900 0.000000
-17.725700 0.000000
-17.687500 0.000000
-17.649300 0.000000
-17.611100 0.000000
-17.572900 0.000000
-17.534700 0.000000
-17.496500 0.000000
-17.458300 0.000000
-17.420200 0.000000
-17.382000 0.000000
-17.343800 0.000000
-17.305600 0.000000
-17.267400 0.000000
-17.229200 0.000000
-17.191000 0.000000
-17.152800 0.000000
-17.114600 0.000000
-17.076400 0.000000
-17.038300 0.000000
-17.000100 0.000000
-16.961900 0.000000
-16.923700 0.000000
-16.885500 0.000000
-16.847300 0.000000
-16.809100 0.000000
-16.770900 0.000000
-16.732700 0.000000
-16.694500 0.000000
-16.656300 0.000000
-16.618200 0.000000
-16.580000 0.000000
-16.541800 0.000000
-16.503600 0.000000
-16.465400 0.000000
-16.427200 0.000000
-16.389000 0.000000
-16.350800 0.000000
-16.312600 0.000000
-16.274400 0.000000
-16.236300 0.000000
-16.198100 0.000000
-16.159900 0.000000
-16.121700 0.000000
-16.083500 0.000000
-16.045300 0.000000
-16.007100 0.000000
-15.968900 0.000000
-15.930700 0.000000
-15.892500 0.000000
-15.854300 0.000000
-15.816200 0.000000
-15.778000 0.000000
-15.739800 0.000000
-15.701600 0.000000
-15.663400 0.000000
-15.625200 0.000000
-15.587000 0.000000
-15.548800 0.000000
-15.510600 0.000000
-15.472400 0.000000
-15.434300 0.000000
-15.396100 0.000000
-15.357900 0.000000
-15.319700 0.000000
-15.281500 0.000000
-15.243300 0.000000
-15.205100 0.000000
-15.166900 0.000000
-15.128700 0.000000
-15.090500 0.000000
-15.052300 0.000000
-15.014200 0.000000
-14.976000 0.000000
-14.937800 0.000000
-14.899600 0.000000
-14.861400 0.000000
-14.823200 0.000000
-14.785000 0.000000
-14.746800 0.000000
-14.708600 0.000000
-14.670400 0.000000
-14.632300 0.000000
-14.594100 0.000000
-14.555900 0.000000
-14.517700 0.000000
-14.479500 0.000000
-14.441300 0.000000
-14.403100 0.000000
-14.364900 0.000000
-14.326700 0.000000
-14.288500 0.000000
-14.250400 0.000000
-14.212200 0.000000
-14.174000 0.000000
-14.135800 0.000000
-14.097600 0.000000
-14.059400 0.000000
-14.021200 0.000000
-13.983000 0.000000
-13.944800 0.000000
-13.906600 0.000000
-13.868400 0.000000
-13.830300 0.000000
-13.792100 0.000000
-13.753900 0.000000
-13.715700 0.000000
-13.677500 0.000000
-13.639300 0.000000
-13.601100 0.000000
-13.562900 0.000000
-13.524700 0.000000
-13.486500 0.000000
-13.448400 0.000000
-13.410200 0.000000
-13.372000 0.000000
-13.333800 0.000000
-13.295600 0.000000
-13.257400 0.000000
-13.219200 0.000000
-13.181000 0.000000
-13.142800 0.000000
-13.104600 0.000000
-13.066400 0.000000
-13.028300 0.000000
-12.990100 0.000000
-12.951900 0.000000
-12.913700 0.000000
-12.875500 0.000000
-12.837300 0.000000
-12.799100 0.000000
-12.760900 0.000000
-12.722700 0.000000
-12.684500 0.000000
-12.646400 0.000000
-12.608200 0.000000
-12.570000 0.000000
-12.531800 0.000000
-12.493600 0.000000
-12.455400 0.000000
-12.417200 0.000000
-12.379000 0.000000
-12.340800 0.000000
-12.302600 0.000000
-12.264400 0.000000
-12.226300 0.000000
-12.188100 0.000000
-12.149900 0.000000
-12.111700 0.000000
-12.073500 0.000000
-12.035300 0.000000
-11.997100 0.000000
-11.958900 0.000000
-11.920700 0.000000
-11.882500 0.000000
-11.844400 0.000000
-11.806200 0.000000
-11.768000 0.000000
-11.729800 0.000000
-11.691600 0.000000
-11.653400 0.000000
-11.615200 0.000000
-11.577000 0.000000
-11.538800 0.000000
-11.500600 0.000000
-11.462500 0.000000
-11.424300 0.000000
-11.386100 0.000000
-11.347900 0.000000
-11.309700 0.000000
-11.271500 0.000000
-11.233300 0.000000
-11.195100 0.000000
-11.156900 0.000000
-11.118700 0.000000
-11.080500 0.000000
-11.042400 0.000000
-11.004200 0.000000
-10.966000 0.000000
-10.927800 0.000000
-10.889600 0.000000
-10.851400 0.000000
-10.813200 0.000000
-10.775000 0.000000
-10.736800 0.000000
-10.698600 0.000000
-10.660500 0.000000
-10.622300 0.000000
-10.584100 0.000000
-10.545900 0.000000
-10.507700 0.000000
-10.469500 0.000000
-10.431300 0.000000
-10.393100 0.000000
-10.354900 0.000000
-10.316700 0.000000
-10.278500 0.000000
-10.240400 0.000000
-10.202200 0.000000
-10.164000 0.000000
-10.125800 0.000000
-10.087600 0.000000
-10.049400 0.000000
-10.011200 0.000000
-9.973000 0.000000
-9.934800 0.000000
-9.896600 0.000000
-9.858500 0.000000
-9.820300 0.000000
-9.782100 0.000000
-9.743900 0.000000
-9.705700 0.000000
-9.667500 0.000000
-9.629300 0.000000
-9.591100 0.000000
-9.552900 0.000000
-9.514700 0.000000
-9.476600 0.000000
-9.438400 0.000000
-9.400200 0.000000
-9.362000 0.000000
-9.323800 0.000000
-9.285600 0.000000
-9.247400 0.000000
-9.209200 0.000000
-9.171000 0.000000
-9.132800 0.000000
-9.094600 0.000000
-9.056500 0.000000
-9.018300 0.000000
-8.980100 0.000000
-8.941900 0.000000
-8.903700 0.000000
-8.865500 0.000000
-8.827300 0.000000
-8.789100 0.000000
-8.750900 0.000000
-8.712700 0.000000
-8.674600 0.000000
-8.636400 0.000000
-8.598200 0.000000
-8.560000 0.000000
-8.521800 0.000000
-8.483600 0.000000
-8.445400 0.000000
-8.407200 0.000000
-8.369000 0.000000
-8.330800 0.000000
-8.292600 0.000000
-8.254500 0.000000
-8.216300 0.000000
-8.178100 0.000000
-8.139900 0.000000
-8.101700 0.000000
-8.063500 0.000000
-8.025300 0.000000
-7.987100 0.000000
-7.948900 0.000000
-7.910700 0.000000
-7.872600 0.000000
-7.834400 0.000000
-7.796200 0.000000
-7.758000 0.000000
-7.719800 0.000000
-7.681600 0.000000
-7.643400 0.000000
-7.605200 0.000000
-7.567000 0.000000
-7.528800 0.000000
-7.490600 0.000000
-7.452500 0.000000
-7.414300 0.000000
-7.376100 0.000000
-7.337900 0.000000
-7.299700 0.000000
-7.261500 0.000000
-7.223300 0.000000
-7.185100 0.000000
-7.146900 0.000000
-7.108700 0.000000
-7.070600 0.000000
-7.032400 0.000000
-6.994200 0.000000
-6.956000 0.000000
-6.917800 0.000000
-6.879600 0.000000
-6.841400 0.000000
-6.803200 0.000000
-6.765000 0.000000
-6.726800 0.000000
-6.688700 0.000000
-6.650500 0.000000
-6.612300 0.000000
-6.574100 0.000000
-6.535900 0.000000
-6.497700 0.000000
-6.459500 0.000000
-6.421300 0.000000
-6.383100 0.000000
-6.344900 0.000000
-6.306700 0.000000
-6.268600 0.000000
-6.230400 0.000000
-6.192200 0.000000
-6.154000 0.000000
-6.115800 0.000000
-6.077600 0.000000
-6.039400 0.000000
-6.001200 0.000000
-5.963000 0.000000
-5.924800 0.000000
-5.886700 0.000000
-5.848500 0.000000
-5.810300 0.000000
-5.772100 0.000000
-5.733900 0.000000
-5.695700 0.000000
-5.657500 0.000000
-5.619300 0.000000
-5.581100 0.000000
-5.542900 0.000000
-5.504700 0.000000
-5.466600 0.000000
-5.428400 0.000000
-5.390200 0.000000
-5.352000 0.000000
-5.313800 0.000000
-5.275600 0.000000
-5.237400 0.000000
-5.199200 0.000000
-5.161000 0.000000
-5.122800 0.000000
-5.084700 0.000000
-5.046500 0.000000
-5.008300 0.000000
-4.970100 0.000000
-4.931900 0.000000
-4.893700 0.000000
-4.855500 0.000000
-4.817300 0.000000
-4.779100 0.000000
-4.740900 0.000000
-4.702700 0.000000
-4.664600 0.000000
-4.626400 0.000000
-4.588200 0.000000
-4.550000 0.000000
-4.511800 0.000000
-4.473600 0.000000
-4.435400 0.000000
-4.397200 0.000000
-4.359000 0.000000
-4.320800 0.000000
-4.282700 0.000000
-4.244500 0.000000
-4.206300 0.000000
-4.168100 0.000000
-4.129900 0.000000
-4.091700 0.000000
-4.053500 0.000000
-4.015300 0.000000
-3.977100 0.000000
-3.938900 0.000000
-3.900800 0.000000
-3.862600 0.000000
-3.824400 0.000000
-3.786200 0.000000
-3.748000 0.000000
-3.709800 0.000000
-3.671600 0.000000
-3.633400 0.000000
-3.595200 0.000000
-3.557000 0.000000
-3.518800 0.000000
-3.480700 0.000000
-3.442500 0.000000
-3.404300 0.000000
-3.366100 0.000000
-3.327900 0.000000
-3.289700 0.000000
-3.251500 0.000000
-3.213300 0.000000
-3.175100 0.002600
-3.136900 0.022400
-3.098800 0.050800
-3.060600 0.086600
-3.022400 0.126900
-2.984200 0.151000
-2.946000 0.152800
-2.907800 0.163300
-2.869600 0.175500
-2.831400 0.187300
-2.793200 0.201000
-2.755000 0.215300
-2.716800 0.228800
-2.678700 0.241800
-2.640500 0.255700
-2.602300 0.270200
-2.564100 0.282500
-2.525900 0.295600
-2.487700 0.306700
-2.449500 0.315800
-2.411300 0.322400
-2.373100 0.326500
-2.334900 0.327700
-2.296800 0.325500
-2.258600 0.349000
-2.220400 0.370600
-2.182200 0.377600
-2.144000 0.387200
-2.105800 0.397200
-2.067600 0.407600
-2.029400 0.418300
-1.991200 0.429100
-1.953000 0.438900
-1.914800 0.449000
-1.876700 0.458400
-1.838500 0.466200
-1.800300 0.476000
-1.762100 0.486700
-1.723900 0.497400
-1.685700 0.507700
-1.647500 0.517900
-1.609300 0.528100
-1.571100 0.538400
-1.532900 0.548800
-1.494800 0.559500
-1.456600 0.570400
-1.418400 0.581500
-1.380200 0.593000
-1.342000 0.604500
-1.303800 0.615900
-1.265600 0.627300
-1.227400 0.639600
-1.189200 0.652200
-1.151000 0.664500
-1.112900 0.677000
-1.074700 0.689800
-1.036500 0.703000
-0.998300 0.716300
-0.960100 0.729500
-0.921900 0.742700
-0.883700 0.756600
-0.845500 0.770900
-0.807300 0.785700
-0.769100 0.800800
-0.730900 0.816400
-0.692800 0.832400
-0.654600 0.858200
-0.616400 0.896600
-0.578200 0.887100
-0.540000 0.886000
-0.501800 0.903600
-0.463600 0.923400
-0.425400 0.945500
-0.387200 0.969800
-0.349000 0.996600
-0.310900 1.026900
-0.272700 1.054100
-0.234500 1.078100
-0.196300 1.101800
-0.158100 1.126100
-0.119900 1.150600
-0.081700 1.177000
-0.043500 1.206400
-0.005300 1.240200
0.032900 1.276100
0.071100 1.316300
0.109200 1.365400
0.147400 1.420600
0.185600 1.483000
0.223800 1.553400
0.262000 1.682600
0.300200 1.812400
0.338400 1.901900
0.376600 1.980000
0.414800 2.084900
0.453000 2.048400
0.491100 1.994100
0.529300 1.936100
0.567500 1.867100
0.605700 1.870400
0.643900 1.925500
0.682100 2.008300
0.720300 2.078600
0.758500 2.137400
0.796700 2.194900
0.834900 2.203800
0.873100 2.213400
0.911200 2.229700
0.949400 2.217700
0.987600 2.129200
1.025800 1.929700
1.064000 1.814900
1.102200 1.844100
1.140400 1.945700
1.178600 1.966900
1.216800 1.977700
1.255000 2.039200
1.293100 2.135300
1.331300 2.342700
1.369500 2.444900
1.407700 2.328300
1.445900 2.273600
1.484100 2.246000
1.522300 2.226400
1.560500 2.211800
1.598700 2.328500
1.636900 2.265600
1.675000 2.052800
1.713200 2.007800
1.751400 2.010600
1.789600 2.046900
1.827800 2.172200
1.866000 2.147400
1.904200 1.864700
1.942400 1.724800
1.980600 1.696900
2.018800 1.882100
2.057000 2.478400
2.095100 1.133200
2.133300 1.039500
2.171500 1.331200
2.209700 1.833300
2.247900 2.487600
2.286100 4.401200
2.324300 6.184300
2.362500 6.103700
2.400700 5.829100
2.438900 4.075600
2.477000 4.717100
2.515200 5.175400
2.553400 5.005800
2.591600 5.104900
2.629800 5.470900
2.668000 5.031000
2.706200 4.168700
2.744400 3.780200
2.782600 3.719400
2.820800 4.378300
2.859000 5.048500
2.897100 5.256900
2.935300 5.924600
2.973500 6.172200
3.011700 8.294700
3.049900 4.648300
3.088100 4.036300
3.126300 3.620300
3.164500 2.993700
3.202700 2.923400
3.240900 3.011700
3.279000 3.282700
3.317200 2.962200
3.355400 2.695900
3.393600 2.626800
3.431800 2.556800
3.470000 2.495400
3.508200 2.429100
3.546400 2.737900
3.584600 2.852900
3.622800 3.202900
3.660900 3.466500
3.699100 3.606500
3.737300 3.821200
3.775500 4.357000
3.813700 4.042900
3.851900 4.174300
3.890100 4.412300
3.928300 4.563800
3.966500 6.061100
4.004700 5.520600
4.042900 5.024900
4.081000 4.983600
4.119200 5.035500
4.157400 5.008600
4.195600 4.771900
4.233800 5.015100
4.272000 5.311000
4.310200 4.956300
4.348400 4.705500
4.386600 4.344000
4.424800 4.111600
4.462900 3.896900
4.501100 3.723200
4.539300 3.503500
4.577500 3.374800
4.615700 3.346900
4.653900 3.452400
4.692100 3.498500
4.730300 3.327600
4.768500 3.258400
4.806700 3.110300
4.844900 2.707500
4.883000 2.178500
4.921200 1.810800
4.959400 1.905300
4.997600 2.949300
5.035800 6.647400
5.074000 6.815600
5.112200 5.393100
5.150400 5.347700
5.188600 5.144600
5.226800 5.182200
5.264900 5.570400
5.303100 5.604600
5.341300 4.964300
5.379500 4.513600
5.417700 5.237700
5.455900 5.034600
5.494100 3.050900
5.532300 2.302000
5.570500 1.766400
5.608700 1.804100
5.646900 1.917300
5.685000 2.100700
5.723200 2.358600
5.761400 2.583000
5.799600 2.628900
5.837800 2.740900
5.876000 2.856800
5.914200 2.933100
5.952400 3.010000
5.990600 2.980800
6.028800 2.990900
6.066900 3.015800
6.105100 3.218600
6.143300 3.448700
6.181500 3.454400
6.219700 3.102800
6.257900 2.774800
6.296100 2.485600
6.334300 2.360100
6.372500 2.246400
6.410700 2.137800
6.448800 2.041600
6.487000 1.968000
6.525200 1.909300
6.563400 2.004400
6.601600 2.223800
6.639800 2.304800
6.678000 2.393400
6.716200 2.382200
6.754400 2.164900
6.792600 2.034000
6.830800 2.008100
6.868900 2.016000
6.907100 2.072000
6.945300 2.155000
6.983500 2.251900
7.021700 2.526300
7.059900 2.841700
7.098100 2.820000
7.136300 2.392900
7.174500 2.413500
7.212700 2.628400
7.250800 2.771100
7.289000 3.091100
7.327200 3.237600
7.365400 3.048400
7.403600 2.998800
7.441800 3.092800
7.480000 3.133700
7.518200 3.175800
7.556400 3.247000
7.594600 3.035500
7.632800 2.837800
7.670900 2.781800
7.709100 2.853400
7.747300 2.897300
7.785500 2.880700
7.823700 2.857700
7.861900 2.944100
7.900100 3.175700
7.938300 3.273700
7.976500 3.395500
8.014700 3.619900
8.052800 3.863700
8.091000 4.144900
8.129200 4.445900
8.167400 4.709900
8.205600 4.893500
8.243800 3.906100
8.282000 3.423000
8.320200 3.816700
8.358400 4.006900
8.396600 4.025100
8.434800 4.152700
8.472900 4.457100
8.511100 4.061300
8.549300 4.031300
8.587500 4.053300
8.625700 4.099200
8.663900 4.652300
8.702100 5.056400
8.740300 5.398400
8.778500 5.689000
8.816700 5.369400
8.854800 5.270800
8.893000 5.371200
8.931200 5.336000
8.969400 4.951400
9.007600 5.103500
9.045800 5.095300
9.084000 5.078600
9.122200 5.074300
9.160400 4.782000
9.198600 4.733300
9.236700 4.149300
9.274900 4.179600
9.313100 4.660500
9.351300 5.379800
9.389500 7.181100
9.427700 6.710700
9.465900 6.745800
9.504100 5.841300
9.542300 4.486100
9.580500 3.427600
9.618700 2.760400
9.656800 2.329600
9.695000 1.982600
9.733200 1.800700
9.771400 2.306900
9.809600 3.504700
9.847800 4.303900
9.886000 5.285200
9.924200 4.385900
9.962400 3.991800
10.000600 3.579900
10.038700 3.023600
10.076900 2.735100
10.115100 2.375300
10.153300 1.930800
10.191500 1.255700
10.229700 0.734900
10.267900 0.631000
10.306100 0.755300
10.344300 0.804000
10.382500 1.159800
10.420700 1.413400
10.458800 1.838900
10.497000 2.104200
10.535200 2.370600
10.573400 2.737600
10.611600 2.945000
10.649800 3.025400
10.688000 2.926900
10.726200 2.839500
10.764400 2.978000
10.802600 2.855500
10.840700 2.898600
10.878900 2.790400
10.917100 2.683200
10.955300 2.629400
10.993500 2.618600
11.031700 2.631000
11.069900 2.742000
11.108100 2.847800
11.146300 2.851600
11.184500 2.780200
11.222700 2.748800
11.260800 2.800700
11.299000 2.851300
11.337200 2.819600
11.375400 2.726000
11.413600 2.554000
11.451800 2.389700
11.490000 2.197800
11.528200 2.059900
11.566400 1.966500
11.604600 1.879000
11.642700 1.804200
11.680900 1.736900
11.719100 1.668100
11.757300 1.593800
11.795500 1.565400
11.833700 1.538800
11.871900 1.509300
11.910100 1.477200
11.948300 1.451600
11.986500 1.431100
12.024600 1.404800
12.062800 1.373600
12.101000 1.348800
12.139200 1.328900
12.177400 1.352000
12.215600 1.349200
12.253800 1.346500
12.292000 1.414600
12.330200 1.416400
12.368400 1.349300
12.406600 1.375400
12.444700 1.399900
12.482900 1.439800
12.521100 1.497200
12.559300 1.580500
12.597500 1.687300
12.635700 1.776200
12.673900 1.836200
12.712100 1.966500
12.750300 2.125500
12.788500 2.230500
12.826600 2.245200
12.864800 2.212800
12.903000 2.188700
12.941200 2.359100
12.979400 2.362100
13.017600 2.392200
13.055800 2.442300
13.094000 2.492900
13.132200 2.578700
13.170400 2.650400
13.208600 2.688800
13.246700 2.695500
13.284900 2.674500
13.323100 2.660700
13.361300 2.617300
13.399500 2.547900
13.437700 2.529500
13.475900 2.502500
13.514100 2.537500
13.552300 2.633700
13.590500 2.887000
13.628600 2.937600
13.666800 2.861400
13.705000 2.668500
13.743200 2.533400
13.781400 2.392700
13.819600 2.372400
13.857800 2.405600
13.896000 2.395800
13.934200 2.422100
13.972400 2.532600
14.010600 2.557000
14.048700 2.439700
14.086900 2.471000
14.125100 2.436800
14.163300 2.460700
14.201500 2.537600
14.239700 2.633100
14.277900 2.726200
14.316100 2.808500
14.354300 2.924300
14.392500 3.115100
14.430600 3.097400
14.468800 3.100900
14.507000 3.379400
14.545200 3.607300
14.583400 4.058900
14.621600 4.236800
14.659800 3.915100
14.698000 3.499600
14.736200 3.309900
14.774400 3.546900
14.812500 3.599100
14.850700 3.524900
14.888900 3.645800
14.927100 3.716500
14.965300 3.804700
15.003500 3.866200
15.041700 3.813600
15.079900 4.497500
15.118100 3.758600
15.156300 3.614200
15.194500 3.591700
15.232600 4.063000
15.270800 4.366200
15.309000 3.895700
15.347200 4.035500
15.385400 4.099300
15.423600 4.103400
15.461800 4.199000
15.500000 4.702600
15.538200 4.381300
15.576400 3.830500
15.614500 3.631100
15.652700 3.417400
15.690900 3.101900
15.729100 2.846300
15.767300 2.894900
15.805500 2.976300
15.843700 3.255900
15.881900 3.375200
15.920100 3.530600
15.958300 3.815300
15.996500 4.576300
16.034600 4.309000
16.072800 4.358500
16.111000 3.844900
16.149200 3.641900
16.187400 3.156600
16.225600 3.001500
16.263800 2.895400
16.302000 2.587200
16.340200 2.584100
16.378400 2.892700
16.416500 3.025800
16.454700 2.791100
16.492900 2.701500
16.531100 2.659700
16.569300 2.599700
16.607500 2.484800
16.645700 2.336000
16.683900 2.374200
16.722100 2.470300
16.760300 2.512800
16.798400 2.699600
16.836600 3.159600
16.874800 3.237200
16.913000 3.422800
16.951200 3.784800
16.989400 3.877200
17.027600 3.413500
17.065800 2.998000
17.104000 2.484600
17.142200 2.340600
17.180400 2.317900
17.218500 2.461500
17.256700 2.328700
17.294900 2.118600
17.333100 2.294700
17.371300 2.491100
17.409500 2.678700
17.447700 3.402600
17.485900 4.049800
17.524100 3.755800
17.562300 3.298600
17.600400 2.842100
17.638600 2.591400
17.676800 2.500400
17.715000 2.339100
17.753200 2.158200
17.791400 2.149400
17.829600 2.056000
17.867800 2.056800
17.906000 1.919500
17.944200 1.914700
17.982400 1.948100
18.020500 2.015800
18.058700 2.108900
18.096900 2.191200
18.135100 2.302200
18.173300 2.402400
18.211500 2.990000
18.249700 2.829000
18.287900 2.068800
18.326100 1.819600
18.364300 1.816300
18.402400 1.849200
18.440600 1.944800
18.478800 2.078100
18.517000 2.240900
18.555200 2.460100
18.593400 2.893400
18.631600 3.391900
18.669800 3.986900
18.708000 3.896700
18.746200 3.456500
18.784400 2.914200
18.822500 2.540400
18.860700 2.317900
18.898900 2.118200
18.937100 2.005500
18.975300 1.967900
19.013500 1.946800
19.051700 1.989800
19.089900 1.962200
19.128100 1.890100
19.166300 1.839200
19.204400 1.848900
19.242600 1.912000
19.280800 2.024900
19.319000 2.245800
19.357200 2.693200
19.395400 3.186800
19.433600 2.442800
19.471800 2.103500
19.510000 1.951600
19.548200 1.762700
19.586300 1.562600
19.624500 1.433800
19.662700 1.391700
19.700900 1.379600
19.739100 1.380100
19.777300 1.394200
19.815500 1.432700
19.853700 1.534800
19.891900 1.631100
19.930100 1.723300
19.968300 1.792700
20.006400 1.857800
20.044600 1.937500
20.082800 2.029000
20.121000 2.116300
20.159200 2.171400
20.197400 2.287800
20.235600 2.551600
20.273800 2.736400
20.312000 2.858500
20.350200 2.964800
20.388300 2.990700
20.426500 2.800000
20.464700 2.654500
20.502900 2.569200
20.541100 2.536900
20.579300 2.508300
20.617500 2.392600
20.655700 2.258000
20.693900 2.256200
20.732100 2.360600
20.770300 2.413800
20.808400 2.485300
20.846600 2.960300
20.884800 2.814900
20.923000 2.691600
20.961200 2.591100
20.999400 2.473700
21.037600 2.352000
21.075800 2.318100
21.114000 2.386600
21.152200 2.433600
21.190300 2.472700
21.228500 2.361100
21.266700 2.249500
21.304900 2.158100
21.343100 2.094600
21.381300 2.061600
21.419500 2.088800
21.457700 2.153300
21.495900 2.292700
21.534100 2.296500
21.572300 2.446500
21.610400 2.720900
21.648600 2.970400
21.686800 3.417000
21.725000 3.546300
21.763200 3.624000
21.801400 3.750100
21.839600 3.859000
21.877800 3.709500
21.916000 3.576100
21.954200 3.306000
21.992300 3.257000
22.030500 3.229700
22.068700 3.239400
22.106900 3.285800
22.145100 3.340800
22.183300 3.374900
22.221500 3.418500
22.259700 4.166300
22.297900 3.619100
22.336100 3.489700
22.374200 3.628400
22.412400 3.978100
22.450600 4.039600
22.488800 4.101700
22.527000 4.385700
22.565200 4.120100
22.603400 3.869300
22.641600 3.876100
22.679800 3.844600
22.718000 4.053500
22.756200 3.963400
22.794300 3.914500
22.832500 3.615100
22.870700 3.981200
22.908900 3.679300
22.947100 3.596700
22.985300 3.319900
23.023500 3.033700
23.061700 2.983100
23.099900 3.019400
23.138100 3.029300
23.176200 3.483700
23.214400 3.750100
23.252600 4.052800
23.290800 4.130200
23.329000 4.327400
23.367200 4.484900
23.405400 4.490600
23.443600 4.894100
23.481800 4.619400
23.520000 4.428100
23.558200 4.336900
23.596300 4.175600
23.634500 4.105000
23.672700 4.160900
23.710900 4.107100
23.749100 4.144500
23.787300 4.023400
23.825500 3.881600
23.863700 3.724800
23.901900 3.561600
23.940100 3.625200
23.978200 3.887100
24.016400 3.942300
24.054600 3.888100
24.092800 3.718900
24.131000 3.632800
24.169200 3.147100
24.207400 2.976700
24.245600 2.870200
24.283800 2.821200
24.322000 2.792600
24.360200 2.794800
24.398300 2.795000
24.436500 2.814600
24.474700 2.874300
24.512900 2.704900
24.551100 2.277700
24.589300 2.470900
24.627500 2.931800
24.665700 2.919400
24.703900 2.769600
24.742100 2.711000
24.780200 2.800500
24.818400 2.834000
24.856600 2.860200
24.894800 2.691600
24.933000 2.575200
24.971200 2.722600
25.009400 2.738800
25.047600 2.963800
25.085800 3.274200
25.124000 3.314700
25.162100 3.220500
25.200300 3.149300
25.238500 3.110600
25.276700 3.096200
25.314900 3.117300
25.353100 3.162800
25.391300 3.234400
25.429500 3.296700
25.467700 3.322300
25.505900 3.433700
25.544100 3.535100
25.582200 3.455000
25.620400 3.353000
25.658600 3.311400
25.696800 3.443000
25.735000 3.344600
25.773200 3.253000
25.811400 3.472900
25.849600 3.794700
25.887800 4.050700
25.926000 4.203600
25.964100 4.516400
26.002300 4.367400
26.040500 4.275900
26.078700 3.939000
26.116900 3.311400
26.155100 2.690700
26.193300 2.442400
26.231500 2.372900
26.269700 2.419400
26.307900 2.515100
26.346100 2.761400
26.384200 2.887100
26.422400 3.077300
26.460600 3.176400
26.498800 3.213000
26.537000 3.149800
26.575200 3.103300
26.613400 3.013000
26.651600 2.909000
26.689800 2.838100
26.728000 2.799000
26.766100 2.807000
26.804300 2.907400
26.842500 3.089100
26.880700 3.358000
26.918900 3.508500
26.957100 3.581900
26.995300 3.831700
27.033500 3.939500
27.071700 3.809100
27.109900 4.036000
27.148000 3.883900
27.186200 3.723300
27.224400 3.657600
27.262600 3.572600
27.300800 3.182500
27.339000 3.061200
27.377200 3.081800
27.415400 3.181300
27.453600 3.359900
27.491800 3.392900
27.530000 3.482900
27.568100 3.512500
27.606300 3.522700
27.644500 3.744000
27.682700 4.217900
27.720900 4.548100
27.759100 5.168100
27.797300 4.891000
27.835500 4.787100
27.873700 4.170600
27.911900 3.658100
27.950000 3.588800
27.988200 3.747000
28.026400 4.146700
28.064600 4.915000
28.102800 4.420900
28.141000 3.874300
28.179200 3.682500
28.217400 3.680300
28.255600 3.708600
28.293800 3.701700
28.332000 4.000900
28.370100 3.990400
28.408300 3.992100
28.446500 4.094200
28.484700 3.847300
28.522900 3.739600
28.561100 3.697500
28.599300 3.527500
28.637500 3.438700
28.675700 3.416300
28.713900 3.480100
28.752000 3.582800
28.790200 4.081100
28.828400 4.125500
28.866600 4.090200
28.904800 4.162900
28.943000 3.984200
28.981200 4.060700
29.019400 3.931200
29.057600 4.192300
29.095800 3.829200
29.134000 3.873300
29.172100 4.150700
29.210300 4.305200
29.248500 4.069800
29.286700 3.892100
29.324900 3.935800
29.363100 4.201400
29.401300 4.336900
29.439500 4.155700
29.477700 4.196500
29.515900 4.186600
29.554000 4.032700
29.592200 3.739400
29.630400 3.309200
29.668600 2.997500
29.706800 2.843300
29.745000 2.918900
29.783200 3.033500
29.821400 3.112800
29.859600 3.313300
29.897800 3.620100
29.935900 3.730100
29.974100 3.610700
30.012300 3.468500
30.050500 3.545400
30.088700 3.819900
30.126900 4.021700
30.165100 4.556600
30.203300 4.414600
30.241500 4.036500
30.279700 3.688000
30.317900 3.416800
30.356000 3.318900
30.394200 3.290200
30.432400 3.315800
30.470600 3.348300
30.508800 3.560400
30.547000 3.336600
30.585200 3.307800
30.623400 3.172500
30.661600 2.907800
30.699800 2.575400
30.737900 2.522600
30.776100 2.598500
30.814300 2.650500
30.852500 2.655900
30.890700 2.705900
30.928900 2.818300
30.967100 2.819300
31.005300 3.031900
31.043500 3.407000
31.081700 3.362200
31.119900 3.215000
31.158000 3.154500
31.196200 3.099700
31.234400 3.201300
31.272600 3.433500
31.310800 3.510500
31.349000 3.522400
31.387200 3.677400
31.425400 3.981900
31.463600 3.924400
31.501800 3.582700
31.539900 3.458400
31.578100 3.446000
31.616300 3.552600
31.654500 3.629400
31.692700 4.012300
31.730900 3.719300
31.769100 3.363400
31.807300 3.280000
31.845500 3.146700
31.883700 3.208800
31.921900 3.334100
31.960000 3.696600
31.998200 3.983700
32.036400 3.908100
32.074600 3.928100
32.112800 3.813000
32.151000 3.649600
32.189200 3.520700
32.227400 3.435700
32.265600 3.455400
32.303800 3.746100
32.341900 4.186800
32.380100 4.290000
32.418300 4.295600
32.456500 4.034100
32.494700 3.871600
32.532900 3.644100
32.571100 3.391200
32.609300 3.262600
32.647500 3.233500
32.685700 3.340900
32.723800 3.312800
32.762000 2.994000
32.800200 2.742300
32.838400 2.516000
32.876600 2.421300
32.914800 2.289200
32.953000 2.305800
32.991200 2.474900
33.029400 2.750100
33.067600 3.210400
33.105800 3.612300
33.143900 3.794100
33.182100 3.989300
33.220300 3.997600
33.258500 3.779200
33.296700 3.629300
33.334900 3.745000
33.373100 4.067800
33.411300 4.439900
33.449500 4.529600
33.487700 4.562600
33.525800 4.665300
33.564000 4.779600
33.602200 4.840300
33.640400 4.934400
33.678600 4.774500
33.716800 4.518900
33.755000 4.300900
33.793200 4.070900
33.831400 3.809300
33.869600 3.584000
33.907800 3.561500
33.945900 3.519700
33.984100 3.711300
34.022300 3.630200
34.060500 3.509300
34.098700 3.516700
34.136900 3.580500
34.175100 3.569800
34.213300 3.487900
34.251500 3.599300
34.289700 3.714100
34.327800 3.837300
34.366000 3.937200
34.404200 4.284100
34.442400 4.806000
34.480600 4.536800
34.518800 4.258100
34.557000 4.176000
34.595200 4.161800
34.633400 4.170300
34.671600 3.893800
34.709800 3.860300
34.747900 4.003800
34.786100 4.017500
34.824300 4.060700
34.862500 3.879700
34.900700 3.783400
34.938900 3.674600
34.977100 3.702300
35.015300 3.538100
35.053500 3.387800
35.091700 3.345800
35.129800 3.419100
35.168000 3.588700
35.206200 3.749600
35.244400 3.888400
35.282600 4.039200
35.320800 4.223200
35.359000 4.186200
35.397200 4.247900
35.435400 3.811300
35.473600 3.465500
35.511700 3.352000
35.549900 3.396800
35.588100 3.411300
35.626300 3.417300
35.664500 3.584400
35.702700 3.633500
35.740900 3.636800
35.779100 3.657600
35.817300 3.543100
35.855500 3.548100
35.893700 3.495300
35.931800 3.496100
35.970000 3.352200
36.008200 3.202600
36.046400 3.072900
36.084600 3.088400
36.122800 3.107000
36.161000 3.137400
36.199200 3.294000
36.237400 3.458500
36.275600 3.549400
36.313700 3.612400
36.351900 3.675400
36.390100 3.702800
36.428300 3.713100
36.466500 3.637900
36.504700 3.522300
36.542900 3.455100
36.581100 3.456100
36.619300 3.488800
36.657500 3.565400
36.695700 3.693600
36.733800 3.886500
36.772000 4.141900
36.810200 4.255000
36.848400 4.167500
36.886600 4.139400
36.924800 4.059400
36.963000 4.027000
37.001200 4.032000
37.039400 4.252200
37.077600 4.204000
37.115700 4.303500
37.153900 4.307900
37.192100 4.320600
37.230300 4.490400
37.268500 4.636200
37.306700 4.662000
37.344900 4.538200
37.383100 4.422500
37.421300 4.460200
37.459500 4.382000
37.497700 4.375900
37.535800 4.344100
37.574000 4.453500
37.612200 4.275200
37.650400 4.332600
37.688600 3.948000
37.726800 4.103400
37.765000 4.218900
37.803200 4.411300
37.841400 4.650700
37.879600 4.823000
37.917700 5.025800
37.955900 4.897500
37.994100 4.642000
38.032300 4.437900
38.070500 4.346300
38.108700 4.186800
38.146900 3.881000
38.185100 3.889100
38.223300 3.831800
38.261500 3.752700
38.299600 3.674100
38.337800 3.819000
38.376000 3.847400
38.414200 3.820000
38.452400 3.929700
38.490600 4.054000
38.528800 4.006500
38.567000 3.875800
38.605200 3.706300
38.643400 3.530200
38.681600 3.289200
38.719700 3.058700
38.757900 2.893000
38.796100 2.979200
38.834300 3.137500
38.872500 3.437100
38.910700 3.916300
38.948900 4.214600
38.987100 4.261000
39.025300 4.162200
39.063500 4.137700
39.101600 4.097000
39.139800 3.983600
39.178000 3.867400
39.216200 3.829400
39.254400 3.791800
39.292600 3.722200
39.330800 3.679100
39.369000 3.731700
39.407200 3.863100
39.445400 3.967400
39.483600 4.081800
39.521700 3.986200
39.559900 3.962100
39.598100 3.923900
39.636300 3.946700
39.674500 3.992800
39.712700 3.647200
39.750900 3.500600
39.789100 3.517200
39.827300 3.504900
39.865500 3.467100
39.903600 3.590300
39.941800 3.610900
39.980000 3.768500
40.018200 3.876000
40.056400 3.803400
40.094600 3.679800
40.132800 3.615300
40.171000 3.588500
40.209200 3.516100
40.247400 3.495400
40.285500 3.446800
40.323700 3.400800
40.361900 3.325500
40.400100 3.308600
40.438300 3.263900
40.476500 3.258600
40.514700 3.374000
40.552900 3.555700
40.591100 3.575500
40.629300 3.439800
40.667500 3.284100
40.705600 3.298600
40.743800 3.319900
40.782000 3.346900
40.820200 3.342100
40.858400 3.410600
40.896600 3.485400
40.934800 3.519100
40.973000 3.520200
41.011200 3.585100
41.049400 3.792100
41.087500 3.763100
41.125700 3.794900
41.163900 3.894200
41.202100 3.940000
41.240300 3.942000
41.278500 3.934700
41.316700 3.830000
41.354900 3.767900
41.393100 3.757100
41.431300 3.808000
41.469500 3.836200
41.507600 3.467600
41.545800 3.287800
41.584000 3.186900
41.622200 3.177000
41.660400 3.223300
41.698600 3.237900
41.736800 3.134100
41.775000 3.122000
41.813200 3.124300
41.851400 3.040300
41.889500 2.950500
41.927700 2.917700
41.965900 2.828600
42.004100 2.751600
42.042300 2.640300
42.080500 2.573100
42.118700 2.542700
42.156900 2.524900
42.195100 2.468100
42.233300 2.369700
42.271500 2.292100
42.309600 2.238300
42.347800 2.186200
42.386000 2.067000
42.424200 1.891600
42.462400 1.732500
42.500600 1.584600
42.538800 1.467800
42.577000 1.396300
42.615200 1.356400
42.653400 1.338600
42.691500 1.332900
42.729700 1.353400
42.767900 1.398900
42.806100 1.460100
42.844300 1.545700
42.882500 1.654600
42.920700 1.729100
42.958900 1.760200
42.997100 1.609200
43.035300 1.470500
43.073400 1.323500
43.111600 1.152900
43.149800 0.998800
43.188000 0.863200
43.226200 0.778500
43.264400 0.736600
43.302600 0.729100
43.340800 0.753000
43.379000 0.780900
43.417200 0.823500
43.455400 0.864800
43.493500 0.899600
43.531700 0.848400
43.569900 0.810300
43.608100 0.761400
43.646300 0.661100
43.684500 0.585600
43.722700 0.521200
43.760900 0.464900
43.799100 0.406700
43.837300 0.349900
43.875400 0.308900
43.913600 0.274300
43.951800 0.244300
43.990000 0.219500
44.028200 0.200500
44.066400 0.197700
44.104600 0.174600
44.142800 0.149600
44.181000 0.126400
44.219200 0.105300
44.257400 0.088400
44.295500 0.077000
44.333700 0.068100
44.371900 0.060500
44.410100 0.053700
44.448300 0.047500
44.486500 0.041600
44.524700 0.035500
44.562900 0.029200
44.601100 0.023600
44.639300 0.019700
44.677400 0.016500
44.715600 0.014000
44.753800 0.012200
44.792000 0.010700
44.830200 0.009200
44.868400 0.007700
44.906600 0.006400
44.944800 0.005000
44.983000 0.003800
45.021200 0.002600
45.059400 0.001700
45.097500 0.001300
45.135700 0.000900
45.173900 0.000600
45.212100 0.000300
45.250300 0.000100
45.288500 0.000000
45.326700 0.000000
45.364900 0.000000
45.403100 0.000000
45.441300 0.000000
45.479400 0.000000
45.517600 0.000000
45.555800 0.000000
45.594000 0.000000
45.632200 0.000000
45.670400 0.000000
45.708600 0.000000
45.746800 0.000000
45.785000 0.000000
45.823200 0.000000
45.861300 0.000000
45.899500 0.000000
45.937700 0.000000
45.975900 0.000000
46.014100 0.000000
46.052300 0.000000
46.090500 0.000000
46.128700 0.000000
46.166900 0.000000
46.205100 0.000000
46.243300 0.000000
46.281400 0.000000
46.319600 0.000000
46.357800 0.000000
46.396000 0.000000
46.434200 0.000000
46.472400 0.000000
46.510600 0.000000
46.548800 0.000000
46.587000 0.000000
46.625200 0.000000
46.663300 0.000000
46.701500 0.000000
46.739700 0.000000
46.777900 0.000000
46.816100 0.000000
46.854300 0.000000
46.892500 0.000000
46.930700 0.000000
46.968900 0.000000
47.007100 0.000000
47.045300 0.000000
47.083400 0.000000
47.121600 0.000000
47.159800 0.000000
47.198000 0.000000
47.236200 0.000000
47.274400 0.000000
47.312600 0.000000
47.350800 0.000000
47.389000 0.000000
47.427200 0.000000
47.465300 0.000000
47.503500 0.000000
47.541700 0.000000
47.579900 0.000000
47.618100 0.000000
47.656300 0.000000
47.694500 0.000000
47.732700 0.000000
47.770900 0.000000
47.809100 0.000000
47.847300 0.000000
47.885400 0.000000
47.923600 0.000000
47.961800 0.000000
48.000000 0.000000
48.038200 0.000000
48.076400 0.000000
48.114600 0.000000
48.152800 0.000000
48.191000 0.000000
48.229200 0.000000
48.267300 0.000000
48.305500 0.000000
48.343700 0.000000
48.381900 0.000000
48.420100 0.000000
48.458300 0.000000
48.496500 0.000000
48.534700 0.000000
48.572900 0.000000
48.611100 0.000000
48.649200 0.000000
48.687400 0.000000
48.725600 0.000000
48.763800 0.000000
48.802000 0.000000
e
