set title 'mp-90 - Density of States'
set xlabel 'Energy (eV)'
set ylabel 'DOS (states/eV)'
set grid
set xrange [-10:10]
set yrange [0:7.920]
set xzeroaxis lt -1
set terminal png size 800,600
set output 'mp-90_dos_gnuplot.png'
plot '-' using 1:2 with lines title 'DOS'
-40.769100 0.000000
-40.724400 0.000000
-40.679700 0.000000
-40.635000 0.000000
-40.590300 0.000000
-40.545600 0.000000
-40.500900 0.000000
-40.456200 0.000000
-40.411500 0.000000
-40.366800 0.000000
-40.322100 0.000000
-40.277400 0.000000
-40.232700 0.000000
-40.188000 0.000000
-40.143300 0.000000
-40.098600 0.000000
-40.053900 0.000000
-40.009200 0.000000
-39.964500 0.000000
-39.919800 0.000000
-39.875100 0.000000
-39.830400 0.000000
-39.785700 0.000000
-39.741000 0.000000
-39.696300 0.000000
-39.651600 0.000000
-39.606900 0.000000
-39.562200 0.000000
-39.517500 0.000000
-39.472900 0.000000
-39.428200 0.000000
-39.383500 0.000000
-39.338800 0.000000
-39.294100 0.000000
-39.249400 0.000000
-39.204700 0.000000
-39.160000 0.000000
-39.115300 0.000000
-39.070600 0.000000
-39.025900 0.000000
-38.981200 0.000000
-38.936500 0.000000
-38.891800 0.000000
-38.847100 0.000000
-38.802400 0.000000
-38.757700 0.000000
-38.713000 0.000000
-38.668300 0.000000
-38.623600 0.000000
-38.578900 0.000000
-38.534200 0.000000
-38.489500 0.000000
-38.444800 0.000000
-38.400100 0.000000
-38.355400 0.000000
-38.310700 0.000000
-38.266000 0.000000
-38.221300 0.000000
-38.176600 0.000000
-38.131900 0.000000
-38.087200 0.000000
-38.042500 0.000000
-37.997800 0.000000
-37.953100 0.000000
-37.908400 0.000000
-37.863700 0.000000
-37.819100 0.000000
-37.774400 0.000000
-37.729700 0.000000
-37.685000 0.000000
-37.640300 0.000000
-37.595600 0.000000
-37.550900 0.000000
-37.506200 0.000000
-37.461500 0.000000
-37.416800 0.000000
-37.372100 0.000000
-37.327400 0.000000
-37.282700 0.000000
-37.238000 0.000000
-37.193300 0.000000
-37.148600 0.000000
-37.103900 0.000000
-37.059200 0.000000
-37.014500 0.000000
-36.969800 0.000000
-36.925100 0.000000
-36.880400 0.000000
-36.835700 0.000000
-36.791000 0.000000
-36.746300 0.000000
-36.701600 0.669900
-36.656900 2.925900
-36.612200 4.800600
-36.567500 8.116700
-36.522800 9.182300
-36.478100 5.814600
-36.433400 4.435500
-36.388700 4.596500
-36.344000 4.879900
-36.299300 5.588200
-36.254600 6.555800
-36.209900 7.546700
-36.165200 8.670000
-36.120600 8.168700
-36.075900 7.239700
-36.031200 7.617100
-35.986500 9.711100
-35.941800 12.638400
-35.897100 11.166400
-35.852400 0.000000
-35.807700 0.000000
-35.763000 0.000000
-35.718300 0.000000
-35.673600 0.000000
-35.628900 0.000000
-35.584200 0.000000
-35.539500 0.000000
-35.494800 0.000000
-35.450100 0.000000
-35.405400 0.000000
-35.360700 0.000000
-35.316000 0.000000
-35.271300 0.000000
-35.226600 0.000000
-35.181900 0.000000
-35.137200 0.000000
-35.092500 0.000000
-35.047800 0.000000
-35.003100 0.000000
-34.958400 0.000000
-34.913700 0.000000
-34.869000 0.000000
-34.824300 0.000000
-34.779600 0.000000
-34.734900 0.000000
-34.690200 0.000000
-34.645500 0.000000
-34.600800 0.000000
-34.556100 0.000000
-34.511400 0.000000
-34.466800 0.000000
-34.422100 0.000000
-34.377400 0.000000
-34.332700 0.000000
-34.288000 0.000000
-34.243300 0.000000
-34.198600 0.000000
-34.153900 0.000000
-34.109200 0.000000
-34.064500 0.000000
-34.019800 0.000000
-33.975100 0.000000
-33.930400 0.000000
-33.885700 0.000000
-33.841000 0.000000
-33.796300 0.000000
-33.751600 0.000000
-33.706900 0.000000
-33.662200 0.000000
-33.617500 0.000000
-33.572800 0.000000
-33.528100 0.000000
-33.483400 0.000000
-33.438700 0.000000
-33.394000 0.000000
-33.349300 0.000000
-33.304600 0.000000
-33.259900 0.000000
-33.215200 0.000000
-33.170500 0.000000
-33.125800 0.000000
-33.081100 0.000000
-33.036400 0.000000
-32.991700 0.000000
-32.947000 0.000000
-32.902300 0.000000
-32.857600 0.000000
-32.813000 0.000000
-32.768300 0.000000
-32.723600 0.000000
-32.678900 0.000000
-32.634200 0.000000
-32.589500 0.000000
-32.544800 0.000000
-32.500100 0.000000
-32.455400 0.000000
-32.410700 0.000000
-32.366000 0.000000
-32.321300 0.000000
-32.276600 0.000000
-32.231900 0.000000
-32.187200 0.000000
-32.142500 0.000000
-32.097800 0.000000
-32.053100 0.000000
-32.008400 0.000000
-31.963700 0.000000
-31.919000 0.000000
-31.874300 0.000000
-31.829600 0.000000
-31.784900 0.000000
-31.740200 0.000000
-31.695500 0.000000
-31.650800 0.000000
-31.606100 0.000000
-31.561400 0.000000
-31.516700 0.000000
-31.472000 0.000000
-31.427300 0.000000
-31.382600 0.000000
-31.337900 0.000000
-31.293200 0.000000
-31.248500 0.000000
-31.203800 0.000000
-31.159200 0.000000
-31.114500 0.000000
-31.069800 0.000000
-31.025100 0.000000
-30.980400 0.000000
-30.935700 0.000000
-30.891000 0.000000
-30.846300 0.000000
-30.801600 0.000000
-30.756900 0.000000
-30.712200 0.000000
-30.667500 0.000000
-30.622800 0.000000
-30.578100 0.000000
-30.533400 0.000000
-30.488700 0.000000
-30.444000 0.000000
-30.399300 0.000000
-30.354600 0.000000
-30.309900 0.000000
-30.265200 0.000000
-30.220500 0.000000
-30.175800 0.000000
-30.131100 0.000000
-30.086400 0.000000
-30.041700 0.000000
-29.997000 0.000000
-29.952300 0.000000
-29.907600 0.000000
-29.862900 0.000000
-29.818200 0.000000
-29.773500 0.000000
-29.728800 0.000000
-29.684100 0.000000
-29.639400 0.000000
-29.594700 0.000000
-29.550000 0.000000
-29.505400 0.000000
-29.460700 0.000000
-29.416000 0.000000
-29.371300 0.000000
-29.326600 0.000000
-29.281900 0.000000
-29.237200 0.000000
-29.192500 0.000000
-29.147800 0.000000
-29.103100 0.000000
-29.058400 0.000000
-29.013700 0.000000
-28.969000 0.000000
-28.924300 0.000000
-28.879600 0.000000
-28.834900 0.000000
-28.790200 0.000000
-28.745500 0.000000
-28.700800 0.000000
-28.656100 0.000000
-28.611400 0.000000
-28.566700 0.000000
-28.522000 0.000000
-28.477300 0.000000
-28.432600 0.000000
-28.387900 0.000000
-28.343200 0.000000
-28.298500 0.000000
-28.253800 0.000000
-28.209100 0.000000
-28.164400 0.000000
-28.119700 0.000000
-28.075000 0.000000
-28.030300 0.000000
-27.985600 0.000000
-27.940900 0.000000
-27.896200 0.000000
-27.851600 0.000000
-27.806900 0.000000
-27.762200 0.000000
-27.717500 0.000000
-27.672800 0.000000
-27.628100 0.000000
-27.583400 0.000000
-27.538700 0.000000
-27.494000 0.000000
-27.449300 0.000000
-27.404600 0.000000
-27.359900 0.000000
-27.315200 0.000000
-27.270500 0.000000
-27.225800 0.000000
-27.181100 0.000000
-27.136400 0.000000
-27.091700 0.000000
-27.047000 0.000000
-27.002300 0.000000
-26.957600 0.000000
-26.912900 0.000000
-26.868200 0.000000
-26.823500 0.000000
-26.778800 0.000000
-26.734100 0.000000
-26.689400 0.000000
-26.644700 0.000000
-26.600000 0.000000
-26.555300 0.000000
-26.510600 0.000000
-26.465900 0.000000
-26.421200 0.000000
-26.376500 0.000000
-26.331800 0.000000
-26.287100 0.000000
-26.242400 0.000000
-26.197800 0.000000
-26.153100 0.000000
-26.108400 0.000000
-26.063700 0.000000
-26.019000 0.000000
-25.974300 0.000000
-25.929600 0.000000
-25.884900 0.000000
-25.840200 0.000000
-25.795500 0.000000
-25.750800 0.000000
-25.706100 0.000000
-25.661400 0.000000
-25.616700 0.000000
-25.572000 0.000000
-25.527300 0.000000
-25.482600 0.000000
-25.437900 0.000000
-25.393200 0.000000
-25.348500 0.000000
-25.303800 0.000000
-25.259100 0.000000
-25.214400 0.000000
-25.169700 0.000000
-25.125000 0.000000
-25.080300 0.000000
-25.035600 0.000000
-24.990900 0.000000
-24.946200 0.000000
-24.901500 0.000000
-24.856800 0.000000
-24.812100 0.000000
-24.767400 0.000000
-24.722700 0.000000
-24.678000 0.000000
-24.633300 0.000000
-24.588600 0.000000
-24.544000 0.000000
-24.499300 0.000000
-24.454600 0.000000
-24.409900 0.000000
-24.365200 0.000000
-24.320500 0.000000
-24.275800 0.000000
-24.231100 0.000000
-24.186400 0.000000
-24.141700 0.000000
-24.097000 0.000000
-24.052300 0.000000
-24.007600 0.000000
-23.962900 0.000000
-23.918200 0.000000
-23.873500 0.000000
-23.828800 0.000000
-23.784100 0.000000
-23.739400 0.000000
-23.694700 0.000000
-23.650000 0.000000
-23.605300 0.000000
-23.560600 0.000000
-23.515900 0.000000
-23.471200 0.000000
-23.426500 0.000000
-23.381800 0.000000
-23.337100 0.000000
-23.292400 0.000000
-23.247700 0.000000
-23.203000 0.000000
-23.158300 0.000000
-23.113600 0.000000
-23.068900 0.000000
-23.024200 0.000000
-22.979500 0.000000
-22.934800 0.000000
-22.890200 0.000000
-22.845500 0.000000
-22.800800 0.000000
-22.756100 0.000000
-22.711400 0.000000
-22.666700 0.000000
-22.622000 0.000000
-22.577300 0.000000
-22.532600 0.000000
-22.487900 0.000000
-22.443200 0.000000
-22.398500 0.000000
-22.353800 0.000000
-22.309100 0.000000
-22.264400 0.000000
-22.219700 0.000000
-22.175000 0.000000
-22.130300 0.000000
-22.085600 0.000000
-22.040900 0.000000
-21.996200 0.000000
-21.951500 0.000000
-21.906800 0.000000
-21.862100 0.000000
-21.817400 0.000000
-21.772700 0.000000
-21.728000 0.000000
-21.683300 0.000000
-21.638600 0.000000
-21.593900 0.000000
-21.549200 0.000000
-21.504500 0.000000
-21.459800 0.000000
-21.415100 0.000000
-21.370400 0.000000
-21.325700 0.000000
-21.281000 0.000000
-21.236400 0.000000
-21.191700 0.000000
-21.147000 0.000000
-21.102300 0.000000
-21.057600 0.000000
-21.012900 0.000000
-20.968200 0.000000
-20.923500 0.000000
-20.878800 0.000000
-20.834100 0.000000
-20.789400 0.000000
-20.744700 0.000000
-20.700000 0.000000
-20.655300 0.000000
-20.610600 0.000000
-20.565900 0.000000
-20.521200 0.000000
-20.476500 0.000000
-20.431800 0.000000
-20.387100 0.000000
-20.342400 0.000000
-20.297700 0.000000
-20.253000 0.000000
-20.208300 0.000000
-20.163600 0.000000
-20.118900 0.000000
-20.074200 0.000000
-20.029500 0.000000
-19.984800 0.000000
-19.940100 0.000000
-19.895400 0.000000
-19.850700 0.000000
-19.806000 0.000000
-19.761300 0.000000
-19.716600 0.000000
-19.671900 0.000000
-19.627200 0.000000
-19.582600 0.000000
-19.537900 0.000000
-19.493200 0.000000
-19.448500 0.000000
-19.403800 0.000000
-19.359100 0.000000
-19.314400 0.000000
-19.269700 0.000000
-19.225000 0.000000
-19.180300 0.000000
-19.135600 0.000000
-19.090900 0.000000
-19.046200 0.000000
-19.001500 0.000000
-18.956800 0.000000
-18.912100 0.000000
-18.867400 0.000000
-18.822700 0.000000
-18.778000 0.000000
-18.733300 0.000000
-18.688600 0.000000
-18.643900 0.000000
-18.599200 0.000000
-18.554500 0.000000
-18.509800 0.000000
-18.465100 0.000000
-18.420400 0.000000
-18.375700 0.000000
-18.331000 0.000000
-18.286300 0.000000
-18.241600 0.000000
-18.196900 0.000000
-18.152200 0.000000
-18.107500 0.000000
-18.062800 0.000000
-18.018100 0.000000
-17.973400 0.000000
-17.928800 0.000000
-17.884100 0.000000
-17.839400 0.000000
-17.794700 0.000000
-17.750000 0.000000
-17.705300 0.000000
-17.660600 0.000000
-17.615900 0.000000
-17.571200 0.000000
-17.526500 0.000000
-17.481800 0.000000
-17.437100 0.000000
-17.392400 0.000000
-17.347700 0.000000
-17.303000 0.000000
-17.258300 0.000000
-17.213600 0.000000
-17.168900 0.000000
-17.124200 0.000000
-17.079500 0.000000
-17.034800 0.000000
-16.990100 0.000000
-16.945400 0.000000
-16.900700 0.000000
-16.856000 0.000000
-16.811300 0.000000
-16.766600 0.000000
-16.721900 0.000000
-16.677200 0.000000
-16.632500 0.000000
-16.587800 0.000000
-16.543100 0.000000
-16.498400 0.000000
-16.453700 0.000000
-16.409000 0.000000
-16.364300 0.000000
-16.319600 0.000000
-16.275000 0.000000
-16.230300 0.000000
-16.185600 0.000000
-16.140900 0.000000
-16.096200 0.000000
-16.051500 0.000000
-16.006800 0.000000
-15.962100 0.000000
-15.917400 0.000000
-15.872700 0.000000
-15.828000 0.000000
-15.783300 0.000000
-15.738600 0.000000
-15.693900 0.000000
-15.649200 0.000000
-15.604500 0.000000
-15.559800 0.000000
-15.515100 0.000000
-15.470400 0.000000
-15.425700 0.000000
-15.381000 0.000000
-15.336300 0.000000
-15.291600 0.000000
-15.246900 0.000000
-15.202200 0.000000
-15.157500 0.000000
-15.112800 0.000000
-15.068100 0.000000
-15.023400 0.000000
-14.978700 0.000000
-14.934000 0.000000
-14.889300 0.000000
-14.844600 0.000000
-14.799900 0.000000
-14.755200 0.000000
-14.710500 0.000000
-14.665800 0.000000
-14.621200 0.000000
-14.576500 0.000000
-14.531800 0.000000
-14.487100 0.000000
-14.442400 0.000000
-14.397700 0.000000
-14.353000 0.000000
-14.308300 0.000000
-14.263600 0.000000
-14.218900 0.000000
-14.174200 0.000000
-14.129500 0.000000
-14.084800 0.000000
-14.040100 0.000000
-13.995400 0.000000
-13.950700 0.000000
-13.906000 0.000000
-13.861300 0.000000
-13.816600 0.000000
-13.771900 0.000000
-13.727200 0.000000
-13.682500 0.000000
-13.637800 0.000000
-13.593100 0.000000
-13.548400 0.000000
-13.503700 0.000000
-13.459000 0.000000
-13.414300 0.000000
-13.369600 0.000000
-13.324900 0.000000
-13.280200 0.000000
-13.235500 0.000000
-13.190800 0.000000
-13.146100 0.000000
-13.101400 0.000000
-13.056700 0.000000
-13.012000 0.000000
-12.967400 0.000000
-12.922700 0.000000
-12.878000 0.000000
-12.833300 0.000000
-12.788600 0.000000
-12.743900 0.000000
-12.699200 0.000000
-12.654500 0.000000
-12.609800 0.000000
-12.565100 0.000000
-12.520400 0.000000
-12.475700 0.000000
-12.431000 0.000000
-12.386300 0.000000
-12.341600 0.000000
-12.296900 0.000000
-12.252200 0.000000
-12.207500 0.000000
-12.162800 0.000000
-12.118100 0.000000
-12.073400 0.000000
-12.028700 0.000000
-11.984000 0.000000
-11.939300 0.000000
-11.894600 0.000000
-11.849900 0.000000
-11.805200 0.000000
-11.760500 0.000000
-11.715800 0.000000
-11.671100 0.000000
-11.626400 0.000000
-11.581700 0.000000
-11.537000 0.000000
-11.492300 0.000000
-11.447600 0.000000
-11.402900 0.000000
-11.358200 0.000000
-11.313600 0.000000
-11.268900 0.000000
-11.224200 0.000000
-11.179500 0.000000
-11.134800 0.000000
-11.090100 0.000000
-11.045400 0.000000
-11.000700 0.000000
-10.956000 0.000000
-10.911300 0.000000
-10.866600 0.000000
-10.821900 0.000000
-10.777200 0.000000
-10.732500 0.000000
-10.687800 0.000000
-10.643100 0.000000
-10.598400 0.000000
-10.553700 0.000000
-10.509000 0.000000
-10.464300 0.000000
-10.419600 0.000000
-10.374900 0.000000
-10.330200 0.000000
-10.285500 0.000000
-10.240800 0.000000
-10.196100 0.000000
-10.151400 0.000000
-10.106700 0.000000
-10.062000 0.000000
-10.017300 0.000000
-9.972600 0.000000
-9.927900 0.000000
-9.883200 0.000000
-9.838500 0.000000
-9.793800 0.000000
-9.749100 0.000000
-9.704400 0.000000
-9.659700 0.000000
-9.615100 0.000000
-9.570400 0.000000
-9.525700 0.000000
-9.481000 0.000000
-9.436300 0.000000
-9.391600 0.000000
-9.346900 0.000000
-9.302200 0.000000
-9.257500 0.000000
-9.212800 0.000000
-9.168100 0.000000
-9.123400 0.000000
-9.078700 0.000000
-9.034000 0.000000
-8.989300 0.000000
-8.944600 0.000000
-8.899900 0.000000
-8.855200 0.000000
-8.810500 0.000000
-8.765800 0.000000
-8.721100 0.000000
-8.676400 0.000000
-8.631700 0.000000
-8.587000 0.000000
-8.542300 0.000000
-8.497600 0.000000
-8.452900 0.000000
-8.408200 0.000000
-8.363500 0.000000
-8.318800 0.000000
-8.274100 0.000000
-8.229400 0.000000
-8.184700 0.000000
-8.140000 0.000000
-8.095300 0.000000
-8.050600 0.000000
-8.005900 0.000000
-7.961300 0.000000
-7.916600 0.000000
-7.871900 0.000000
-7.827200 0.000000
-7.782500 0.000000
-7.737800 0.000000
-7.693100 0.000000
-7.648400 0.000000
-7.603700 0.000000
-7.559000 0.000000
-7.514300 0.000000
-7.469600 0.000000
-7.424900 0.000000
-7.380200 0.000000
-7.335500 0.000000
-7.290800 0.000000
-7.246100 0.000000
-7.201400 0.000000
-7.156700 0.000000
-7.112000 0.000000
-7.067300 0.000000
-7.022600 0.000000
-6.977900 0.000000
-6.933200 0.000000
-6.888500 0.000000
-6.843800 0.000000
-6.799100 0.000000
-6.754400 0.000000
-6.709700 0.000000
-6.665000 0.000000
-6.620300 0.000000
-6.575600 0.000000
-6.530900 0.000000
-6.486200 0.000000
-6.441500 0.000000
-6.396800 0.000000
-6.352100 0.000000
-6.307500 0.000000
-6.262800 0.000000
-6.218100 0.000000
-6.173400 0.000000
-6.128700 0.000000
-6.084000 0.000000
-6.039300 0.000000
-5.994600 0.000000
-5.949900 0.000000
-5.905200 0.000000
-5.860500 0.000000
-5.815800 0.000000
-5.771100 0.000000
-5.726400 0.000000
-5.681700 0.000000
-5.637000 0.000000
-5.592300 0.000000
-5.547600 0.000000
-5.502900 0.000000
-5.458200 0.000000
-5.413500 0.000000
-5.368800 0.000000
-5.324100 0.000000
-5.279400 0.000000
-5.234700 0.000000
-5.190000 0.000000
-5.145300 0.000000
-5.100600 0.000000
-5.055900 0.000000
-5.011200 0.000000
-4.966500 0.000000
-4.921800 0.000000
-4.877100 0.000000
-4.832400 0.000000
-4.787700 0.000000
-4.743000 0.000000
-4.698300 0.000000
-4.653700 0.000000
-4.609000 0.000000
-4.564300 0.000000
-4.519600 0.000000
-4.474900 0.000000
-4.430200 0.000000
-4.385500 0.000000
-4.340800 0.000000
-4.296100 0.000000
-4.251400 0.000000
-4.206700 0.000000
-4.162000 0.000000
-4.117300 0.000000
-4.072600 0.000000
-4.027900 0.000000
-3.983200 0.000000
-3.938500 0.000000
-3.893800 0.000000
-3.849100 0.000000
-3.804400 0.000000
-3.759700 0.000000
-3.715000 0.000000
-3.670300 0.000000
-3.625600 0.000000
-3.580900 0.000000
-3.536200 0.000000
-3.491500 0.000000
-3.446800 0.000000
-3.402100 0.000000
-3.357400 0.000000
-3.312700 0.000000
-3.268000 0.000000
-3.223300 0.000000
-3.178600 0.000000
-3.133900 0.000000
-3.089200 0.000000
-3.044500 0.000000
-2.999900 0.000000
-2.955200 0.000000
-2.910500 0.000000
-2.865800 0.000000
-2.821100 0.000000
-2.776400 0.000000
-2.731700 0.000000
-2.687000 0.000000
-2.642300 0.000000
-2.597600 0.000000
-2.552900 0.000000
-2.508200 0.000000
-2.463500 0.000000
-2.418800 0.000000
-2.374100 0.000000
-2.329400 0.000000
-2.284700 0.000000
-2.240000 0.000000
-2.195300 0.000000
-2.150600 0.000000
-2.105900 0.000000
-2.061200 0.000000
-2.016500 0.000000
-1.971800 0.000000
-1.927100 0.000000
-1.882400 0.000000
-1.837700 0.000000
-1.793000 0.000000
-1.748300 0.000000
-1.703600 0.000000
-1.658900 0.000000
-1.614200 0.000000
-1.569500 0.000000
-1.524800 0.000000
-1.480100 0.000000
-1.435400 0.000000
-1.390700 0.000000
-1.346100 0.000000
-1.301400 0.000000
-1.256700 0.000000
-1.212000 0.000000
-1.167300 0.000000
-1.122600 0.000000
-1.077900 0.000000
-1.033200 0.000000
-0.988500 0.000000
-0.943800 0.000000
-0.899100 0.000000
-0.854400 0.007300
-0.809700 0.015100
-0.765000 0.021300
-0.720300 0.026700
-0.675600 0.028300
-0.630900 0.031800
-0.586200 0.035000
-0.541500 0.038700
-0.496800 0.040000
-0.452100 0.043100
-0.407400 0.045800
-0.362700 0.047700
-0.318000 0.050400
-0.273300 0.053600
-0.228600 0.055500
-0.183900 0.057200
-0.139200 0.059500
-0.094500 0.061600
-0.049800 0.063700
-0.005100 0.066000
0.039600 0.068500
0.084300 0.070900
0.129000 0.073100
0.173700 0.074800
0.218400 0.076600
0.263100 0.078600
0.307700 0.081100
0.352400 0.083400
0.397100 0.086000
0.441800 0.088500
0.486500 0.090400
0.531200 0.092500
0.575900 0.094700
0.620600 0.097000
0.665300 0.099300
0.710000 0.101600
0.754700 0.104200
0.799400 0.106900
0.844100 0.109800
0.888800 0.112400
0.933500 0.114800
0.978200 0.117200
1.022900 0.119900
1.067600 0.122800
1.112300 0.125900
1.157000 0.128900
1.201700 0.132000
1.246400 0.135100
1.291100 0.138600
1.335800 0.142300
1.380500 0.145800
1.425200 0.149300
1.469900 0.153000
1.514600 0.156700
1.559300 0.161000
1.604000 0.165600
1.648700 0.170300
1.693400 0.175000
1.738100 0.179800
1.782800 0.185500
1.827500 0.191500
1.872200 0.197500
1.916900 0.203900
1.961500 0.210600
2.006200 0.218300
2.050900 0.226900
2.095600 0.236000
2.140300 0.245500
2.185000 0.257200
2.229700 0.269400
2.274400 0.282600
2.319100 0.298500
2.363800 0.317900
2.408500 0.342300
2.453200 0.378300
2.497900 0.424500
2.542600 0.581900
2.587300 0.757100
2.632000 0.810600
2.676700 0.786300
2.721400 0.847100
2.766100 0.896300
2.810800 0.920200
2.855500 0.947700
2.900200 0.981100
2.944900 1.014700
2.989600 1.027700
3.034300 1.052800
3.079000 1.085100
3.123700 1.117800
3.168400 1.160900
3.213100 1.194100
3.257800 1.242800
3.302500 1.285700
3.347200 1.362400
3.391900 1.457700
3.436600 1.622700
3.481300 1.883500
3.526000 1.897500
3.570700 1.551500
3.615300 1.326400
3.660000 1.201900
3.704700 1.119900
3.749400 1.041200
3.794100 1.015300
3.838800 0.987900
3.883500 0.939400
3.928200 0.938500
3.972900 0.827600
4.017600 0.695100
4.062300 0.635000
4.107000 0.588000
4.151700 0.545400
4.196400 0.518900
4.241100 0.505300
4.285800 0.494800
4.330500 0.741900
4.375200 1.567000
4.419900 2.089200
4.464600 2.701100
4.509300 3.153100
4.554000 2.841100
4.598700 2.546900
4.643400 2.105900
4.688100 1.938200
4.732800 1.813000
4.777500 1.780200
4.822200 1.769200
4.866900 1.745800
4.911600 1.741600
4.956300 1.779400
5.001000 1.801600
5.045700 1.788600
5.090400 1.761600
5.135100 1.741100
5.179800 1.719300
5.224500 1.698400
5.269100 1.728500
5.313800 1.783800
5.358500 1.905500
5.403200 2.146500
5.447900 2.449500
5.492600 2.613100
5.537300 2.442600
5.582000 2.247800
5.626700 2.239300
5.671400 1.964500
5.716100 1.790000
5.760800 1.674700
5.805500 1.590600
5.850200 1.553900
5.894900 1.492700
5.939600 0.956500
5.984300 0.732800
6.029000 0.694200
6.073700 0.666800
6.118400 0.625700
6.163100 0.599400
6.207800 0.577400
6.252500 0.564600
6.297200 0.552400
6.341900 0.546500
6.386600 0.544400
6.431300 0.550800
6.476000 0.554100
6.520700 0.562900
6.565400 0.577600
6.610100 0.586300
6.654800 0.595700
6.699500 0.612900
6.744200 0.614500
6.788900 0.649100
6.833600 0.674300
6.878300 0.708300
6.922900 0.755100
6.967600 0.805400
7.012300 0.878300
7.057000 0.947300
7.101700 1.060900
7.146400 1.279700
7.191100 1.392900
7.235800 1.454100
7.280500 1.498000
7.325200 1.558000
7.369900 1.635800
7.414600 1.742900
7.459300 1.827300
7.504000 1.906600
7.548700 2.033400
7.593400 2.287900
7.638100 2.293000
7.682800 2.364700
7.727500 2.410200
7.772200 2.426500
7.816900 2.427200
7.861600 2.466600
7.906300 2.763900
7.951000 2.891000
7.995700 2.571800
8.040400 2.524600
8.085100 2.526200
8.129800 2.569000
8.174500 2.767700
8.219200 3.001000
8.263900 3.728600
8.308600 7.199900
8.353300 2.971500
8.398000 2.428000
8.442700 2.142300
8.487400 1.938300
8.532100 1.754800
8.576700 1.633100
8.621400 1.558100
8.666100 1.469200
8.710800 1.394700
8.755500 1.353900
8.800200 1.362000
8.844900 1.297600
8.889600 1.261100
8.934300 1.237200
8.979000 1.235300
9.023700 1.203500
9.068400 1.195900
9.113100 1.225900
9.157800 1.364300
9.202500 0.921200
9.247200 0.797100
9.291900 0.702900
9.336600 0.623400
9.381300 0.527800
9.426000 0.439200
9.470700 0.376100
9.515400 0.359200
9.560100 0.380600
9.604800 0.381700
9.649500 0.373300
9.694200 0.360300
9.738900 0.352100
9.783600 0.346800
9.828300 0.343600
9.873000 0.340600
9.917700 0.337900
9.962400 0.335000
10.007100 0.331200
10.051800 0.328300
10.096500 0.326600
10.141200 0.325100
10.185900 0.323400
10.230500 0.321700
10.275200 0.320200
10.319900 0.318300
10.364600 0.316600
10.409300 0.315100
10.454000 0.313400
10.498700 0.311600
10.543400 0.310100
10.588100 0.308300
10.632800 0.306300
10.677500 0.304100
10.722200 0.302800
10.766900 0.301500
10.811600 0.300100
10.856300 0.298300
10.901000 0.296500
10.945700 0.294900
10.990400 0.293300
11.035100 0.291700
11.079800 0.290200
11.124500 0.288700
11.169200 0.287200
11.213900 0.285600
11.258600 0.283900
11.303300 0.282100
11.348000 0.279500
11.392700 0.277800
11.437400 0.276100
11.482100 0.274300
11.526800 0.272600
11.571500 0.270900
11.616200 0.269100
11.660900 0.267300
11.705600 0.265300
11.750300 0.263400
11.795000 0.261700
11.839700 0.260000
11.884300 0.258300
11.929000 0.256500
11.973700 0.254700
12.018400 0.252700
12.063100 0.250700
12.107800 0.248300
12.152500 0.246400
12.197200 0.244200
12.241900 0.242000
12.286600 0.239500
12.331300 0.237400
12.376000 0.235400
12.420700 0.233400
12.465400 0.231600
12.510100 0.229700
12.554800 0.227900
12.599500 0.225800
12.644200 0.223500
12.688900 0.221300
12.733600 0.219100
12.778300 0.216900
12.823000 0.214900
12.867700 0.212700
12.912400 0.209800
12.957100 0.207500
13.001800 0.205500
13.046500 0.203200
13.091200 0.200800
13.135900 0.198100
13.180600 0.195200
13.225300 0.192700
13.270000 0.190500
13.314700 0.188400
13.359400 0.186300
13.404100 0.184200
13.448800 0.182000
13.493500 0.179700
13.538100 0.177000
13.582800 0.174400
13.627500 0.172100
13.672200 0.169900
13.716900 0.167200
13.761600 0.164500
13.806300 0.161600
13.851000 0.158500
13.895700 0.155900
13.940400 0.153300
13.985100 0.150700
14.029800 0.147900
14.074500 0.144900
14.119200 0.142200
14.163900 0.139800
14.208600 0.137300
14.253300 0.135000
14.298000 0.132200
14.342700 0.129700
14.387400 0.127100
14.432100 0.125200
14.476800 0.122600
14.521500 0.119200
14.566200 0.115500
14.610900 0.112300
14.655600 0.111100
14.700300 0.107100
14.745000 0.104300
14.789700 0.095700
14.834400 0.086600
14.879100 0.084100
14.923800 0.082200
14.968500 0.078300
15.013200 0.075800
15.057900 0.073700
15.102600 0.070500
15.147300 0.067200
15.192000 0.065100
15.236600 0.062100
15.281300 0.057100
15.326000 0.055500
15.370700 0.054000
15.415400 0.052100
15.460100 0.050400
15.504800 0.048900
15.549500 0.047800
15.594200 0.069300
15.638900 0.045100
15.683600 0.045700
15.728300 0.046200
15.773000 0.049300
15.817700 0.052100
15.862400 0.062200
15.907100 0.065300
15.951800 0.067200
15.996500 0.069900
16.041200 0.071400
16.085900 0.075600
16.130600 0.080800
16.175300 0.089000
16.220000 0.109200
16.264700 0.129800
16.309400 0.149500
16.354100 0.190700
16.398800 0.369400
16.443500 0.936800
16.488200 0.932400
16.532900 0.837400
16.577600 0.771500
16.622300 0.717700
16.667000 0.675500
16.711700 0.615900
16.756400 0.596000
16.801100 0.636000
16.845800 0.543200
16.890400 0.524500
16.935100 0.508300
16.979800 0.489600
17.024500 0.472600
17.069200 0.460900
17.113900 0.451500
17.158600 0.447500
17.203300 0.441100
17.248000 0.434900
17.292700 0.428900
17.337400 0.414200
17.382100 0.411100
17.426800 0.388100
17.471500 0.381500
17.516200 0.374900
17.560900 0.369100
17.605600 0.364200
17.650300 0.367000
17.695000 0.365100
17.739700 0.360100
17.784400 0.356200
17.829100 0.353000
17.873800 0.353900
17.918500 0.370700
17.963200 0.390700
18.007900 0.444900
18.052600 0.454800
18.097300 0.463500
18.142000 0.467700
18.186700 0.459900
18.231400 0.457900
18.276100 0.455000
18.320800 0.454900
18.365500 0.454800
18.410200 0.451700
18.454900 0.448600
18.499600 0.446100
18.544200 0.444200
18.588900 0.443000
18.633600 0.441200
18.678300 0.440300
18.723000 0.439000
18.767700 0.436500
18.812400 0.434000
18.857100 0.432800
18.901800 0.431500
18.946500 0.430300
18.991200 0.428300
19.035900 0.426500
19.080600 0.425600
19.125300 0.424400
19.170000 0.423000
19.214700 0.421300
19.259400 0.419600
19.304100 0.421300
19.348800 0.422700
19.393500 0.423700
19.438200 0.423700
19.482900 0.421400
19.527600 0.420600
19.572300 0.420400
19.617000 0.420100
19.661700 0.419900
19.706400 0.420000
19.751100 0.419800
19.795800 0.419400
19.840500 0.418800
19.885200 0.418600
19.929900 0.418600
19.974600 0.418100
20.019300 0.417500
20.064000 0.416500
20.108700 0.414200
20.153400 0.413800
20.198000 0.413100
20.242700 0.413100
20.287400 0.413200
20.332100 0.413300
20.376800 0.412800
20.421500 0.412400
20.466200 0.411700
20.510900 0.411400
20.555600 0.411000
20.600300 0.410900
20.645000 0.410200
20.689700 0.408900
20.734400 0.408900
20.779100 0.409100
20.823800 0.409100
20.868500 0.409100
20.913200 0.409200
20.957900 0.409100
21.002600 0.409100
21.047300 0.408600
21.092000 0.408000
21.136700 0.407300
21.181400 0.406700
21.226100 0.405900
21.270800 0.405400
21.315500 0.405500
21.360200 0.405800
21.404900 0.406300
21.449600 0.406600
21.494300 0.406300
21.539000 0.405600
21.583700 0.405000
21.628400 0.404700
21.673100 0.404500
21.717800 0.404300
21.762500 0.403800
21.807200 0.403300
21.851800 0.402600
21.896500 0.402400
21.941200 0.402500
21.985900 0.402600
22.030600 0.402800
22.075300 0.402900
22.120000 0.403000
22.164700 0.402900
22.209400 0.403000
22.254100 0.402900
22.298800 0.402800
22.343500 0.404800
22.388200 0.403800
22.432900 0.402400
22.477600 0.402100
22.522300 0.402300
22.567000 0.402400
22.611700 0.402300
22.656400 0.402100
22.701100 0.402100
22.745800 0.402300
22.790500 0.402400
22.835200 0.402800
22.879900 0.403200
22.924600 0.403400
22.969300 0.403500
23.014000 0.403600
23.058700 0.404000
23.103400 0.404500
23.148100 0.405600
23.192800 0.406600
23.237500 0.407300
23.282200 0.407900
23.326900 0.408700
23.371600 0.410000
23.416300 0.410900
23.461000 0.411700
23.505600 0.413000
23.550300 0.414500
23.595000 0.416200
23.639700 0.418200
23.684400 0.432200
23.729100 0.457400
23.773800 0.485400
23.818500 0.498100
23.863200 0.513600
23.907900 0.526500
23.952600 0.540200
23.997300 0.571800
24.042000 0.604500
24.086700 0.607400
24.131400 0.583700
24.176100 0.575500
24.220800 0.568900
24.265500 0.555700
24.310200 0.551700
24.354900 0.553800
24.399600 0.580300
24.444300 0.595400
24.489000 0.600200
24.533700 0.599800
24.578400 0.593700
24.623100 0.591100
24.667800 0.591700
24.712500 0.583300
24.757200 0.574900
24.801900 0.561800
24.846600 0.556800
24.891300 0.551800
24.936000 0.543300
24.980700 0.538200
25.025400 0.532900
25.070100 0.527700
25.114800 0.523900
25.159400 0.520600
25.204100 0.518000
25.248800 0.515300
25.293500 0.512900
25.338200 0.514600
25.382900 0.509900
25.427600 0.507600
25.472300 0.506600
25.517000 0.507100
25.561700 0.506400
25.606400 0.507600
25.651100 0.504900
25.695800 0.504100
25.740500 0.503600
25.785200 0.503600
25.829900 0.503900
25.874600 0.504900
25.919300 0.505400
25.964000 0.524000
26.008700 0.505700
26.053400 0.506600
26.098100 0.507300
26.142800 0.508100
26.187500 0.508900
26.232200 0.510200
26.276900 0.511700
26.321600 0.514100
26.366300 0.517300
26.411000 0.521700
26.455700 0.527000
26.500400 0.534300
26.545100 0.540700
26.589800 0.548700
26.634500 0.558200
26.679200 0.568900
26.723900 0.580000
26.768600 0.590400
26.813200 0.594800
26.857900 0.595000
26.902600 0.593400
26.947300 0.590200
26.992000 0.588900
27.036700 0.585200
27.081400 0.581600
27.126100 0.576500
27.170800 0.572100
27.215500 0.569000
27.260200 0.564400
27.304900 0.560000
27.349600 0.554200
27.394300 0.550800
27.439000 0.548400
27.483700 0.546500
27.528400 0.544200
27.573100 0.540900
27.617800 0.534700
27.662500 0.530500
27.707200 0.522000
27.751900 0.514600
27.796600 0.507000
27.841300 0.500100
27.886000 0.494900
27.930700 0.490600
27.975400 0.488600
28.020100 0.481600
28.064800 0.476600
28.109500 0.472800
28.154200 0.470800
28.198900 0.464400
28.243600 0.455200
28.288300 0.449800
28.333000 0.444300
28.377700 0.439700
28.422400 0.435300
28.467000 0.435200
28.511700 0.427800
28.556400 0.424600
28.601100 0.420500
28.645800 0.416600
28.690500 0.412900
28.735200 0.413700
28.779900 0.410400
28.824600 0.406700
28.869300 0.403200
28.914000 0.399800
28.958700 0.393200
29.003400 0.386300
29.048100 0.375500
29.092800 0.370100
29.137500 0.361800
29.182200 0.352700
29.226900 0.347900
29.271600 0.345100
29.316300 0.343800
29.361000 0.349600
29.405700 0.346800
29.450400 0.346200
29.495100 0.340500
29.539800 0.329300
29.584500 0.352600
29.629200 0.399300
29.673900 0.394300
29.718600 0.399200
29.763300 0.402600
29.808000 0.403900
29.852700 0.393800
29.897400 0.389500
29.942100 0.378700
29.986800 0.372100
30.031500 0.374300
30.076200 0.366400
30.120800 0.361500
30.165500 0.365500
30.210200 0.359400
30.254900 0.323000
30.299600 0.311000
30.344300 0.301200
30.389000 0.291900
30.433700 0.284100
30.478400 0.277800
30.523100 0.273800
30.567800 0.272900
30.612500 0.280000
30.657200 0.292800
30.701900 0.309900
30.746600 0.328400
30.791300 0.352600
30.836000 0.369900
30.880700 0.378900
30.925400 0.383100
30.970100 0.395200
31.014800 0.412600
31.059500 0.431200
31.104200 0.462300
31.148900 0.532200
31.193600 0.586200
31.238300 0.628800
31.283000 0.646900
31.327700 0.659400
31.372400 0.676700
31.417100 0.695600
31.461800 0.716600
31.506500 0.733700
31.551200 0.744200
31.595900 0.734400
31.640600 0.730600
31.685300 0.690800
31.730000 0.648700
31.774600 0.609800
31.819300 0.579200
31.864000 0.557300
31.908700 0.538900
31.953400 0.522200
31.998100 0.507000
32.042800 0.492800
32.087500 0.479700
32.132200 0.467400
32.176900 0.457000
32.221600 0.447400
32.266300 0.438900
32.311000 0.430900
32.355700 0.423900
32.400400 0.417400
32.445100 0.410700
32.489800 0.405000
32.534500 0.399800
32.579200 0.394800
32.623900 0.391200
32.668600 0.378000
32.713300 0.369300
32.758000 0.361400
32.802700 0.353900
32.847400 0.346900
32.892100 0.340600
32.936800 0.335000
32.981500 0.330200
33.026200 0.327500
33.070900 0.325700
33.115600 0.323000
33.160300 0.320700
33.205000 0.318200
33.249700 0.315300
33.294400 0.312600
33.339100 0.315200
33.383800 0.304800
33.428400 0.295100
33.473100 0.286900
33.517800 0.287800
33.562500 0.293500
33.607200 0.298300
33.651900 0.303900
33.696600 0.310400
33.741300 0.317700
33.786000 0.326600
33.830700 0.337300
33.875400 0.347900
33.920100 0.361500
33.964800 0.378700
34.009500 0.403800
34.054200 0.441700
34.098900 0.527800
34.143600 0.601100
34.188300 0.665600
34.233000 0.705500
34.277700 0.705900
34.322400 0.685600
34.367100 0.670000
34.411800 0.652400
34.456500 0.643400
34.501200 0.656200
34.545900 0.664400
34.590600 0.675700
34.635300 0.687500
34.680000 0.702400
34.724700 0.709700
34.769400 0.692400
34.814100 0.660800
34.858800 0.636500
34.903500 0.623500
34.948200 0.615000
34.992900 0.611800
35.037600 0.610900
35.082200 0.608400
35.126900 0.588000
35.171600 0.565600
35.216300 0.565300
35.261000 0.562500
35.305700 0.563900
35.350400 0.545500
35.395100 0.533100
35.439800 0.517600
35.484500 0.505600
35.529200 0.495900
35.573900 0.487500
35.618600 0.483400
35.663300 0.480500
35.708000 0.480500
35.752700 0.482500
35.797400 0.484200
35.842100 0.485600
35.886800 0.487700
35.931500 0.490400
35.976200 0.493200
36.020900 0.496000
36.065600 0.497100
36.110300 0.499300
36.155000 0.506200
36.199700 0.507800
36.244400 0.515100
36.289100 0.527800
36.333800 0.561800
36.378500 0.576500
36.423200 0.591600
36.467900 0.592000
36.512600 0.598100
36.557300 0.593800
36.602000 0.589500
36.646700 0.592800
36.691400 0.591000
36.736000 0.590800
36.780700 0.588300
36.825400 0.580800
36.870100 0.582600
36.914800 0.586700
36.959500 0.587500
37.004200 0.589800
37.048900 0.603300
37.093600 0.595500
37.138300 0.586800
37.183000 0.580000
37.227700 0.574600
37.272400 0.573300
37.317100 0.573700
37.361800 0.565000
37.406500 0.562900
37.451200 0.562000
37.495900 0.561700
37.540600 0.561400
37.585300 0.560200
37.630000 0.557000
37.674700 0.560200
37.719400 0.549000
37.764100 0.577100
37.808800 0.614800
37.853500 0.663500
37.898200 0.725600
37.942900 0.774700
37.987600 0.719400
38.032300 0.733200
38.077000 0.733600
38.121700 0.734000
38.166400 0.731700
38.211100 0.725400
38.255800 0.722900
38.300500 0.726100
38.345200 0.723400
38.389800 0.726400
38.434500 0.729800
38.479200 0.733900
38.523900 0.738000
38.568600 0.748000
38.613300 0.758900
38.658000 0.772100
38.702700 0.783300
38.747400 0.797100
38.792100 0.809600
38.836800 0.828800
38.881500 0.927500
38.926200 1.006500
38.970900 1.041700
39.015600 1.090600
39.060300 1.126300
39.105000 1.184700
39.149700 1.259500
39.194400 1.357800
39.239100 1.453200
39.283800 1.571100
39.328500 1.704100
39.373200 2.096700
39.417900 2.649800
39.462600 2.545000
39.507300 2.467300
39.552000 2.333600
39.596700 2.224200
39.641400 1.556900
39.686100 1.385900
39.730800 1.435800
39.775500 1.555000
39.820200 1.834400
39.864900 2.367400
39.909600 2.449000
39.954300 1.959600
39.999000 1.298100
40.043600 1.100700
40.088300 1.005000
40.133000 0.906700
40.177700 0.834100
40.222400 0.799600
40.267100 0.838200
40.311800 0.802300
40.356500 0.829900
40.401200 0.745300
40.445900 0.632000
40.490600 0.583700
40.535300 0.549600
40.580000 0.526500
40.624700 0.499200
40.669400 0.457100
40.714100 0.425800
40.758800 0.393300
40.803500 0.372100
40.848200 0.357600
40.892900 0.346000
40.937600 0.337800
40.982300 0.324000
41.027000 0.310600
41.071700 0.300000
41.116400 0.290700
41.161100 0.282000
41.205800 0.274100
41.250500 0.268600
41.295200 0.261000
41.339900 0.253400
41.384600 0.242600
41.429300 0.236200
41.474000 0.229600
41.518700 0.223800
41.563400 0.218700
41.608100 0.213900
41.652800 0.208200
41.697500 0.203800
41.742100 0.198800
41.786800 0.193200
41.831500 0.186200
41.876200 0.180500
41.920900 0.175400
41.965600 0.171700
42.010300 0.169600
42.055000 0.167600
42.099700 0.164000
42.144400 0.157800
42.189100 0.154600
42.233800 0.151000
42.278500 0.147500
42.323200 0.144400
42.367900 0.141600
42.412600 0.138400
42.457300 0.135000
42.502000 0.132400
42.546700 0.130000
42.591400 0.126600
42.636100 0.123000
42.680800 0.120300
42.725500 0.117400
42.770200 0.114400
42.814900 0.111400
42.859600 0.108300
42.904300 0.105400
42.949000 0.103700
42.993700 0.102100
43.038400 0.099500
43.083100 0.098600
43.127800 0.091600
43.172500 0.088300
43.217200 0.086900
43.261900 0.086000
43.306600 0.082300
43.351300 0.076500
43.395900 0.071100
43.440600 0.066800
43.485300 0.062200
43.530000 0.056800
43.574700 0.054600
43.619400 0.052500
43.664100 0.050400
43.708800 0.048400
43.753500 0.051000
43.798200 0.047000
43.842900 0.043200
43.887600 0.040000
43.932300 0.037700
43.977000 0.035600
44.021700 0.033500
44.066400 0.031500
44.111100 0.029400
44.155800 0.029600
44.200500 0.028000
44.245200 0.025800
44.289900 0.021300
44.334600 0.019000
44.379300 0.016800
44.424000 0.019400
44.468700 0.003400
44.513400 0.000900
44.558100 0.000000
44.602800 0.000000
44.647500 0.000000
44.692200 0.000000
44.736900 0.000000
44.781600 0.000000
44.826300 0.000000
44.871000 0.000000
44.915700 0.000000
44.960400 0.000000
45.005100 0.000000
45.049700 0.000000
45.094400 0.000000
45.139100 0.000000
45.183800 0.000000
45.228500 0.000000
45.273200 0.000000
45.317900 0.000000
45.362600 0.000000
45.407300 0.000000
45.452000 0.000000
45.496700 0.000000
45.541400 0.000000
45.586100 0.000000
45.630800 0.000000
45.675500 0.000000
45.720200 0.000000
45.764900 0.000000
45.809600 0.000000
45.854300 0.000000
45.899000 0.000000
45.943700 0.000000
45.988400 0.000000
46.033100 0.000000
46.077800 0.000000
46.122500 0.000000
46.167200 0.000000
46.211900 0.000000
46.256600 0.000000
46.301300 0.000000
46.346000 0.000000
46.390700 0.000000
46.435400 0.000000
46.480100 0.000000
46.524800 0.000000
46.569500 0.000000
46.614200 0.000000
46.658900 0.000000
46.703500 0.000000
46.748200 0.000000
46.792900 0.000000
46.837600 0.000000
46.882300 0.000000
46.927000 0.000000
46.971700 0.000000
47.016400 0.000000
47.061100 0.000000
47.105800 0.000000
47.150500 0.000000
47.195200 0.000000
47.239900 0.000000
47.284600 0.000000
47.329300 0.000000
47.374000 0.000000
47.418700 0.000000
47.463400 0.000000
47.508100 0.000000
47.552800 0.000000
47.597500 0.000000
47.642200 0.000000
47.686900 0.000000
47.731600 0.000000
47.776300 0.000000
47.821000 0.000000
47.865700 0.000000
47.910400 0.000000
47.955100 0.000000
47.999800 0.000000
48.044500 0.000000
48.089200 0.000000
48.133900 0.000000
48.178600 0.000000
48.223300 0.000000
48.268000 0.000000
48.312700 0.000000
48.357300 0.000000
48.402000 0.000000
48.446700 0.000000
48.491400 0.000000
48.536100 0.000000
48.580800 0.000000
48.625500 0.000000
e
