set title 'mp-29179 - Density of States'
set xlabel 'Energy (eV)'
set ylabel 'DOS (states/eV)'
set grid
set xrange [-10:10]
set yrange [0:117.756]
set xzeroaxis lt -1
set terminal png size 800,600
set output 'mp-29179_dos_gnuplot.png'
plot '-' using 1:2 with lines title 'DOS'
-20.428200 0.000000
-20.409500 0.000000
-20.390900 0.000000
-20.372200 0.000000
-20.353500 0.000000
-20.334800 0.000000
-20.316100 0.000000
-20.297400 0.000000
-20.278700 0.000000
-20.260000 0.000000
-20.241300 0.000000
-20.222600 0.000000
-20.203900 0.000000
-20.185200 0.000000
-20.166500 0.000000
-20.147800 0.000000
-20.129100 0.000000
-20.110400 0.000000
-20.091700 0.000000
-20.073000 0.000000
-20.054300 0.000000
-20.035600 0.000000
-20.016900 0.000000
-19.998300 0.000000
-19.979600 0.000000
-19.960900 0.000000
-19.942200 0.000000
-19.923500 0.000000
-19.904800 0.000000
-19.886100 0.000000
-19.867400 0.000000
-19.848700 0.000000
-19.830000 0.000000
-19.811300 0.000000
-19.792600 0.000000
-19.773900 0.000000
-19.755200 0.000000
-19.736500 0.000000
-19.717800 0.000000
-19.699100 0.000000
-19.680400 0.000000
-19.661700 0.000000
-19.643000 0.000000
-19.624300 0.000000
-19.605700 0.000000
-19.587000 0.000000
-19.568300 0.000000
-19.549600 0.000000
-19.530900 0.000000
-19.512200 0.000000
-19.493500 0.000000
-19.474800 0.000000
-19.456100 0.000000
-19.437400 0.000000
-19.418700 0.000000
-19.400000 0.000000
-19.381300 0.000000
-19.362600 0.000000
-19.343900 0.000000
-19.325200 0.000000
-19.306500 0.000000
-19.287800 0.000000
-19.269100 0.000000
-19.250400 0.000000
-19.231700 0.000000
-19.213000 0.000000
-19.194400 0.000000
-19.175700 0.000000
-19.157000 0.000000
-19.138300 0.000000
-19.119600 0.000000
-19.100900 0.000000
-19.082200 0.000000
-19.063500 0.000000
-19.044800 0.000000
-19.026100 0.000000
-19.007400 0.000000
-18.988700 0.000000
-18.970000 0.000000
-18.951300 0.000000
-18.932600 0.000000
-18.913900 0.000000
-18.895200 0.000000
-18.876500 0.000000
-18.857800 0.000000
-18.839100 0.000000
-18.820400 0.000000
-18.801800 0.000000
-18.783100 0.000000
-18.764400 0.000000
-18.745700 0.000000
-18.727000 418.796200
-18.708300 2623.328100
-18.689600 0.000000
-18.670900 0.000000
-18.652200 0.000000
-18.633500 0.000000
-18.614800 0.000000
-18.596100 0.000000
-18.577400 0.000000
-18.558700 0.000000
-18.540000 0.000000
-18.521300 0.000000
-18.502600 0.000000
-18.483900 0.000000
-18.465200 0.000000
-18.446500 0.000000
-18.427800 0.000000
-18.409200 0.000000
-18.390500 0.000000
-18.371800 0.000000
-18.353100 0.000000
-18.334400 0.000000
-18.315700 0.000000
-18.297000 0.000000
-18.278300 0.000000
-18.259600 0.000000
-18.240900 0.000000
-18.222200 0.000000
-18.203500 0.000000
-18.184800 0.000000
-18.166100 0.000000
-18.147400 0.000000
-18.128700 0.000000
-18.110000 0.000000
-18.091300 0.000000
-18.072600 0.000000
-18.053900 0.000000
-18.035200 0.000000
-18.016500 0.000000
-17.997900 0.000000
-17.979200 0.000000
-17.960500 0.000000
-17.941800 0.000000
-17.923100 0.000000
-17.904400 0.000000
-17.885700 0.000000
-17.867000 0.000000
-17.848300 0.000000
-17.829600 0.000000
-17.810900 0.000000
-17.792200 0.000000
-17.773500 0.000000
-17.754800 0.000000
-17.736100 0.000000
-17.717400 0.000000
-17.698700 0.000000
-17.680000 0.000000
-17.661300 0.000000
-17.642600 0.000000
-17.623900 0.000000
-17.605300 0.000000
-17.586600 0.000000
-17.567900 0.000000
-17.549200 0.000000
-17.530500 0.000000
-17.511800 0.000000
-17.493100 0.000000
-17.474400 0.000000
-17.455700 0.000000
-17.437000 0.000000
-17.418300 0.000000
-17.399600 0.000000
-17.380900 0.000000
-17.362200 0.000000
-17.343500 0.000000
-17.324800 0.000000
-17.306100 0.000000
-17.287400 0.000000
-17.268700 0.000000
-17.250000 0.000000
-17.231300 0.000000
-17.212700 0.000000
-17.194000 0.000000
-17.175300 0.000000
-17.156600 0.000000
-17.137900 0.000000
-17.119200 0.000000
-17.100500 0.000000
-17.081800 0.000000
-17.063100 0.000000
-17.044400 0.000000
-17.025700 0.000000
-17.007000 0.000000
-16.988300 0.000000
-16.969600 0.000000
-16.950900 0.000000
-16.932200 0.000000
-16.913500 0.000000
-16.894800 0.000000
-16.876100 0.000000
-16.857400 0.000000
-16.838700 0.000000
-16.820000 0.000000
-16.801400 0.000000
-16.782700 0.000000
-16.764000 0.000000
-16.745300 0.000000
-16.726600 0.000000
-16.707900 0.000000
-16.689200 0.000000
-16.670500 0.000000
-16.651800 0.000000
-16.633100 0.000000
-16.614400 0.000000
-16.595700 0.000000
-16.577000 0.000000
-16.558300 0.000000
-16.539600 0.000000
-16.520900 0.000000
-16.502200 0.000000
-16.483500 0.000000
-16.464800 0.000000
-16.446100 0.000000
-16.427400 0.000000
-16.408800 0.000000
-16.390100 0.000000
-16.371400 0.000000
-16.352700 0.000000
-16.334000 0.000000
-16.315300 0.000000
-16.296600 0.000000
-16.277900 0.000000
-16.259200 0.000000
-16.240500 0.000000
-16.221800 0.000000
-16.203100 0.000000
-16.184400 0.000000
-16.165700 0.000000
-16.147000 0.000000
-16.128300 0.000000
-16.109600 0.000000
-16.090900 0.000000
-16.072200 0.000000
-16.053500 0.000000
-16.034800 0.000000
-16.016200 0.000000
-15.997500 0.000000
-15.978800 0.000000
-15.960100 0.000000
-15.941400 0.000000
-15.922700 0.000000
-15.904000 0.000000
-15.885300 0.000000
-15.866600 0.000000
-15.847900 0.000000
-15.829200 0.000000
-15.810500 0.000000
-15.791800 0.000000
-15.773100 0.000000
-15.754400 0.000000
-15.735700 0.000000
-15.717000 0.000000
-15.698300 0.000000
-15.679600 0.000000
-15.660900 0.000000
-15.642200 0.000000
-15.623500 0.000000
-15.604900 0.000000
-15.586200 0.000000
-15.567500 0.000000
-15.548800 0.000000
-15.530100 0.000000
-15.511400 0.000000
-15.492700 0.000000
-15.474000 0.000000
-15.455300 0.000000
-15.436600 0.000000
-15.417900 0.000000
-15.399200 0.000000
-15.380500 0.000000
-15.361800 0.000000
-15.343100 0.000000
-15.324400 0.000000
-15.305700 0.000000
-15.287000 0.000000
-15.268300 0.000000
-15.249600 0.000000
-15.230900 0.000000
-15.212300 0.000000
-15.193600 0.000000
-15.174900 0.000000
-15.156200 0.000000
-15.137500 0.000000
-15.118800 0.000000
-15.100100 0.000000
-15.081400 0.000000
-15.062700 0.000000
-15.044000 0.000000
-15.025300 0.000000
-15.006600 0.000000
-14.987900 0.000000
-14.969200 0.000000
-14.950500 0.000000
-14.931800 0.000000
-14.913100 0.000000
-14.894400 0.000000
-14.875700 0.000000
-14.857000 0.000000
-14.838300 0.000000
-14.819700 0.000000
-14.801000 0.000000
-14.782300 0.000000
-14.763600 0.000000
-14.744900 0.000000
-14.726200 0.000000
-14.707500 0.000000
-14.688800 0.000000
-14.670100 0.000000
-14.651400 0.000000
-14.632700 0.000000
-14.614000 0.000000
-14.595300 0.000000
-14.576600 0.000000
-14.557900 0.000000
-14.539200 0.000000
-14.520500 0.000000
-14.501800 0.000000
-14.483100 0.000000
-14.464400 0.000000
-14.445700 0.000000
-14.427000 0.000000
-14.408400 0.000000
-14.389700 0.000000
-14.371000 0.000000
-14.352300 0.000000
-14.333600 0.000000
-14.314900 0.000000
-14.296200 0.000000
-14.277500 0.000000
-14.258800 0.000000
-14.240100 0.000000
-14.221400 0.000000
-14.202700 0.000000
-14.184000 0.000000
-14.165300 0.000000
-14.146600 0.000000
-14.127900 0.000000
-14.109200 0.000000
-14.090500 0.000000
-14.071800 0.000000
-14.053100 0.000000
-14.034400 0.000000
-14.015800 0.000000
-13.997100 0.000000
-13.978400 0.000000
-13.959700 0.000000
-13.941000 0.000000
-13.922300 0.000000
-13.903600 0.000000
-13.884900 0.000000
-13.866200 0.000000
-13.847500 0.000000
-13.828800 0.000000
-13.810100 0.000000
-13.791400 0.000000
-13.772700 0.000000
-13.754000 0.000000
-13.735300 0.000000
-13.716600 0.000000
-13.697900 0.000000
-13.679200 0.000000
-13.660500 0.000000
-13.641800 0.000000
-13.623200 0.000000
-13.604500 0.000000
-13.585800 0.000000
-13.567100 0.000000
-13.548400 0.000000
-13.529700 0.000000
-13.511000 0.000000
-13.492300 0.000000
-13.473600 0.000000
-13.454900 0.000000
-13.436200 0.000000
-13.417500 0.000000
-13.398800 0.000000
-13.380100 0.000000
-13.361400 0.000000
-13.342700 0.000000
-13.324000 0.000000
-13.305300 0.000000
-13.286600 0.000000
-13.267900 0.000000
-13.249200 0.000000
-13.230500 0.000000
-13.211900 0.000000
-13.193200 0.000000
-13.174500 0.000000
-13.155800 0.000000
-13.137100 0.000000
-13.118400 0.000000
-13.099700 0.000000
-13.081000 0.000000
-13.062300 0.000000
-13.043600 0.000000
-13.024900 0.000000
-13.006200 0.000000
-12.987500 0.000000
-12.968800 0.000000
-12.950100 0.000000
-12.931400 0.000000
-12.912700 0.000000
-12.894000 0.000000
-12.875300 0.000000
-12.856600 0.000000
-12.837900 0.000000
-12.819300 0.000000
-12.800600 0.000000
-12.781900 0.000000
-12.763200 0.000000
-12.744500 0.000000
-12.725800 0.000000
-12.707100 0.000000
-12.688400 0.000000
-12.669700 0.000000
-12.651000 0.000000
-12.632300 0.000000
-12.613600 0.000000
-12.594900 1.108200
-12.576200 4.021900
-12.557500 6.935600
-12.538800 9.826000
-12.520100 12.146500
-12.501400 14.557900
-12.482700 21.732100
-12.464000 32.130000
-12.445300 34.313000
-12.426700 29.744400
-12.408000 20.672500
-12.389300 17.418900
-12.370600 17.446600
-12.351900 17.474300
-12.333200 17.346100
-12.314500 17.204100
-12.295800 17.256600
-12.277100 16.672400
-12.258400 16.262500
-12.239700 16.277800
-12.221000 16.293000
-12.202300 16.308300
-12.183600 24.956400
-12.164900 41.173900
-12.146200 37.174600
-12.127500 27.528900
-12.108800 12.472500
-12.090100 28.553100
-12.071400 51.386600
-12.052700 58.136200
-12.034000 64.828300
-12.015400 48.752900
-11.996700 44.263100
-11.978000 26.626700
-11.959300 16.661900
-11.940600 40.307300
-11.921900 72.889200
-11.903200 45.862200
-11.884500 68.817300
-11.865800 85.941600
-11.847100 67.800900
-11.828400 83.549100
-11.809700 53.318900
-11.791000 46.494000
-11.772300 39.669000
-11.753600 40.849500
-11.734900 76.554400
-11.716200 48.349400
-11.697500 0.000000
-11.678800 0.000000
-11.660100 0.000000
-11.641400 0.000000
-11.622800 0.000000
-11.604100 0.000000
-11.585400 0.000000
-11.566700 0.000000
-11.548000 0.000000
-11.529300 0.000000
-11.510600 0.000000
-11.491900 0.000000
-11.473200 0.000000
-11.454500 0.000000
-11.435800 0.000000
-11.417100 0.000000
-11.398400 0.000000
-11.379700 0.000000
-11.361000 0.000000
-11.342300 0.000000
-11.323600 0.000000
-11.304900 0.000000
-11.286200 0.000000
-11.267500 0.000000
-11.248800 0.000000
-11.230100 0.000000
-11.211500 0.000000
-11.192800 0.000000
-11.174100 0.000000
-11.155400 0.000000
-11.136700 0.000000
-11.118000 0.000000
-11.099300 0.000000
-11.080600 0.000000
-11.061900 0.000000
-11.043200 0.000000
-11.024500 0.000000
-11.005800 0.000000
-10.987100 0.000000
-10.968400 0.000000
-10.949700 0.000000
-10.931000 0.000000
-10.912300 0.000000
-10.893600 0.000000
-10.874900 0.000000
-10.856200 0.000000
-10.837500 0.000000
-10.818900 0.000000
-10.800200 0.000000
-10.781500 0.000000
-10.762800 0.000000
-10.744100 0.000000
-10.725400 0.000000
-10.706700 0.000000
-10.688000 0.000000
-10.669300 0.000000
-10.650600 0.000000
-10.631900 0.000000
-10.613200 0.000000
-10.594500 0.000000
-10.575800 0.000000
-10.557100 0.000000
-10.538400 0.000000
-10.519700 0.000000
-10.501000 0.000000
-10.482300 0.000000
-10.463600 0.000000
-10.444900 0.000000
-10.426300 0.000000
-10.407600 0.000000
-10.388900 0.000000
-10.370200 0.000000
-10.351500 0.000000
-10.332800 0.000000
-10.314100 0.000000
-10.295400 0.000000
-10.276700 0.000000
-10.258000 0.000000
-10.239300 0.000000
-10.220600 0.000000
-10.201900 0.000000
-10.183200 0.000000
-10.164500 0.000000
-10.145800 0.000000
-10.127100 0.000000
-10.108400 0.000000
-10.089700 0.000000
-10.071000 0.000000
-10.052300 0.000000
-10.033600 0.000000
-10.015000 0.000000
-9.996300 0.000000
-9.977600 0.000000
-9.958900 0.000000
-9.940200 0.000000
-9.921500 0.000000
-9.902800 0.000000
-9.884100 0.000000
-9.865400 0.000000
-9.846700 0.000000
-9.828000 0.000000
-9.809300 0.000000
-9.790600 0.000000
-9.771900 0.000000
-9.753200 0.000000
-9.734500 0.000000
-9.715800 0.000000
-9.697100 0.000000
-9.678400 0.000000
-9.659700 0.000000
-9.641000 0.000000
-9.622400 0.000000
-9.603700 0.000000
-9.585000 0.000000
-9.566300 0.000000
-9.547600 0.000000
-9.528900 0.000000
-9.510200 0.000000
-9.491500 0.000000
-9.472800 0.000000
-9.454100 0.000000
-9.435400 0.000000
-9.416700 0.000000
-9.398000 0.000000
-9.379300 0.000000
-9.360600 0.000000
-9.341900 0.000000
-9.323200 0.000000
-9.304500 0.000000
-9.285800 0.000000
-9.267100 0.000000
-9.248400 0.000000
-9.229800 0.000000
-9.211100 0.000000
-9.192400 0.000000
-9.173700 0.000000
-9.155000 0.000000
-9.136300 0.000000
-9.117600 0.000000
-9.098900 0.000000
-9.080200 0.000000
-9.061500 0.000000
-9.042800 0.000000
-9.024100 0.000000
-9.005400 0.000000
-8.986700 0.000000
-8.968000 0.000000
-8.949300 0.000000
-8.930600 0.000000
-8.911900 0.000000
-8.893200 0.000000
-8.874500 0.000000
-8.855800 0.000000
-8.837100 0.000000
-8.818500 0.000000
-8.799800 0.000000
-8.781100 0.000000
-8.762400 0.000000
-8.743700 0.000000
-8.725000 0.000000
-8.706300 0.000000
-8.687600 0.000000
-8.668900 0.000000
-8.650200 0.000000
-8.631500 0.000000
-8.612800 0.000000
-8.594100 0.000000
-8.575400 0.000000
-8.556700 0.000000
-8.538000 0.000000
-8.519300 0.000000
-8.500600 0.000000
-8.481900 0.000000
-8.463200 0.000000
-8.444500 0.000000
-8.425900 0.000000
-8.407200 0.000000
-8.388500 0.000000
-8.369800 0.000000
-8.351100 0.000000
-8.332400 0.000000
-8.313700 0.000000
-8.295000 0.000000
-8.276300 0.000000
-8.257600 0.000000
-8.238900 0.000000
-8.220200 0.000000
-8.201500 0.000000
-8.182800 0.000000
-8.164100 0.000000
-8.145400 0.000000
-8.126700 0.000000
-8.108000 0.000000
-8.089300 0.000000
-8.070600 0.000000
-8.051900 0.000000
-8.033300 0.000000
-8.014600 0.000000
-7.995900 0.000000
-7.977200 0.000000
-7.958500 0.000000
-7.939800 0.000000
-7.921100 0.000000
-7.902400 0.000000
-7.883700 0.000000
-7.865000 0.000000
-7.846300 0.000000
-7.827600 0.000000
-7.808900 0.000000
-7.790200 0.000000
-7.771500 0.000000
-7.752800 0.000000
-7.734100 0.000000
-7.715400 0.000000
-7.696700 0.000000
-7.678000 0.000000
-7.659300 0.000000
-7.640600 0.000000
-7.622000 0.000000
-7.603300 0.000000
-7.584600 0.000000
-7.565900 0.000000
-7.547200 0.000000
-7.528500 0.000000
-7.509800 0.000000
-7.491100 0.000000
-7.472400 0.000000
-7.453700 0.000000
-7.435000 0.000000
-7.416300 0.000000
-7.397600 0.000000
-7.378900 0.000000
-7.360200 0.000000
-7.341500 0.000000
-7.322800 0.000000
-7.304100 0.000000
-7.285400 0.000000
-7.266700 0.000000
-7.248000 0.000000
-7.229400 0.000000
-7.210700 0.000000
-7.192000 0.000000
-7.173300 0.000000
-7.154600 0.000000
-7.135900 0.000000
-7.117200 0.000000
-7.098500 0.000000
-7.079800 0.000000
-7.061100 0.000000
-7.042400 0.000000
-7.023700 0.000000
-7.005000 0.000000
-6.986300 0.000000
-6.967600 0.000000
-6.948900 0.000000
-6.930200 0.000000
-6.911500 0.000000
-6.892800 0.000000
-6.874100 0.000000
-6.855400 0.000000
-6.836800 0.000000
-6.818100 0.000000
-6.799400 0.000000
-6.780700 0.000000
-6.762000 0.000000
-6.743300 0.000000
-6.724600 0.000000
-6.705900 0.000000
-6.687200 0.000000
-6.668500 0.000000
-6.649800 0.000000
-6.631100 0.000000
-6.612400 0.000000
-6.593700 0.000000
-6.575000 0.000000
-6.556300 0.000000
-6.537600 0.000000
-6.518900 0.000000
-6.500200 0.000000
-6.481500 0.000000
-6.462800 0.000000
-6.444100 0.000000
-6.425500 0.000000
-6.406800 0.000000
-6.388100 0.000000
-6.369400 0.000000
-6.350700 0.000000
-6.332000 0.000000
-6.313300 0.000000
-6.294600 0.000000
-6.275900 0.000000
-6.257200 0.000000
-6.238500 0.000000
-6.219800 0.000000
-6.201100 0.000000
-6.182400 0.000000
-6.163700 0.000000
-6.145000 0.000000
-6.126300 0.000000
-6.107600 0.000000
-6.088900 0.000000
-6.070200 0.000000
-6.051500 0.000000
-6.032900 0.000000
-6.014200 0.000000
-5.995500 0.000000
-5.976800 0.000000
-5.958100 0.000000
-5.939400 0.000000
-5.920700 0.000000
-5.902000 0.000000
-5.883300 0.000000
-5.864600 0.000000
-5.845900 0.000000
-5.827200 0.000000
-5.808500 0.000000
-5.789800 0.000000
-5.771100 0.000000
-5.752400 0.000000
-5.733700 0.000000
-5.715000 0.000000
-5.696300 0.000000
-5.677600 0.000000
-5.658900 0.000000
-5.640300 0.000000
-5.621600 0.000000
-5.602900 0.000000
-5.584200 0.000000
-5.565500 0.000000
-5.546800 0.000000
-5.528100 0.000000
-5.509400 0.000000
-5.490700 0.000000
-5.472000 0.000000
-5.453300 0.000000
-5.434600 0.000000
-5.415900 0.000000
-5.397200 0.000000
-5.378500 0.000000
-5.359800 0.000000
-5.341100 0.000000
-5.322400 0.000000
-5.303700 0.000000
-5.285000 0.000000
-5.266300 0.000000
-5.247600 0.000000
-5.229000 0.000000
-5.210300 0.000000
-5.191600 0.000000
-5.172900 0.000000
-5.154200 0.000000
-5.135500 0.000000
-5.116800 0.000000
-5.098100 0.000000
-5.079400 0.000000
-5.060700 0.000000
-5.042000 0.000000
-5.023300 0.000000
-5.004600 0.000000
-4.985900 0.000000
-4.967200 0.000000
-4.948500 0.000000
-4.929800 0.000000
-4.911100 0.000000
-4.892400 0.000000
-4.873700 0.000000
-4.855000 0.000000
-4.836400 0.000000
-4.817700 0.000000
-4.799000 0.000000
-4.780300 0.000000
-4.761600 0.000000
-4.742900 0.000000
-4.724200 0.000000
-4.705500 0.000000
-4.686800 0.000000
-4.668100 0.000000
-4.649400 0.000000
-4.630700 0.000000
-4.612000 0.000000
-4.593300 0.000000
-4.574600 0.000000
-4.555900 0.000000
-4.537200 0.000000
-4.518500 0.000000
-4.499800 0.000000
-4.481100 0.000000
-4.462400 0.000000
-4.443800 0.000000
-4.425100 0.000000
-4.406400 0.000000
-4.387700 0.000000
-4.369000 17.907400
-4.350300 26.571100
-4.331600 46.859200
-4.312900 44.430200
-4.294200 16.681100
-4.275500 13.239600
-4.256800 10.926000
-4.238100 55.532900
-4.219400 31.055900
-4.200700 21.811200
-4.182000 20.246800
-4.163300 21.538100
-4.144600 20.830100
-4.125900 19.773300
-4.107200 19.727200
-4.088500 21.047000
-4.069800 25.656500
-4.051100 29.433000
-4.032500 28.438700
-4.013800 24.033700
-3.995100 15.166300
-3.976400 9.186400
-3.957700 9.045200
-3.939000 8.903900
-3.920300 8.762600
-3.901600 8.621300
-3.882900 8.480000
-3.864200 8.398500
-3.845500 8.369900
-3.826800 8.341400
-3.808100 8.312800
-3.789400 8.284300
-3.770700 8.600300
-3.752000 11.354100
-3.733300 14.665800
-3.714600 15.799400
-3.695900 15.738900
-3.677200 15.678300
-3.658500 14.330100
-3.639900 10.009400
-3.621200 5.785300
-3.602500 4.423900
-3.583800 4.866600
-3.565100 5.309400
-3.546400 5.752100
-3.527700 6.194800
-3.509000 6.465900
-3.490300 5.849600
-3.471600 5.756300
-3.452900 5.663100
-3.434200 5.569800
-3.415500 5.476600
-3.396800 5.383300
-3.378100 5.290100
-3.359400 5.040000
-3.340700 5.005100
-3.322000 3.954600
-3.303300 2.904200
-3.284600 1.853700
-3.265900 0.803200
-3.247300 0.000000
-3.228600 0.000000
-3.209900 0.000000
-3.191200 0.000000
-3.172500 0.000000
-3.153800 0.000000
-3.135100 0.000000
-3.116400 0.000000
-3.097700 0.000000
-3.079000 0.000000
-3.060300 0.000000
-3.041600 0.000000
-3.022900 0.000000
-3.004200 0.000000
-2.985500 0.000000
-2.966800 0.000000
-2.948100 0.000000
-2.929400 0.000000
-2.910700 0.000000
-2.892000 0.000000
-2.873300 0.000000
-2.854600 0.000000
-2.836000 0.000000
-2.817300 0.000000
-2.798600 0.000000
-2.779900 0.000000
-2.761200 0.000000
-2.742500 0.000000
-2.723800 0.000000
-2.705100 0.000000
-2.686400 0.000000
-2.667700 0.000000
-2.649000 0.000000
-2.630300 0.000000
-2.611600 0.000000
-2.592900 0.000000
-2.574200 0.000000
-2.555500 0.000000
-2.536800 0.000000
-2.518100 0.000000
-2.499400 0.000000
-2.480700 0.000000
-2.462000 0.000000
-2.443400 0.000000
-2.424700 0.000000
-2.406000 0.000000
-2.387300 0.000000
-2.368600 0.000000
-2.349900 0.000000
-2.331200 0.000000
-2.312500 0.000000
-2.293800 0.000000
-2.275100 0.000000
-2.256400 0.000000
-2.237700 0.000000
-2.219000 0.000000
-2.200300 0.000000
-2.181600 0.000000
-2.162900 0.000000
-2.144200 0.000000
-2.125500 0.000000
-2.106800 0.000000
-2.088100 0.000000
-2.069400 0.000000
-2.050700 0.000000
-2.032100 0.000000
-2.013400 0.000000
-1.994700 0.000000
-1.976000 0.000000
-1.957300 0.000000
-1.938600 0.000000
-1.919900 0.000000
-1.901200 0.000000
-1.882500 0.000000
-1.863800 0.000000
-1.845100 3.080000
-1.826400 9.137300
-1.807700 9.114800
-1.789000 9.092300
-1.770300 9.069700
-1.751600 9.047200
-1.732900 9.024700
-1.714200 8.839500
-1.695500 8.069800
-1.676800 46.323000
-1.658100 35.182200
-1.639500 29.107800
-1.620800 27.580000
-1.602100 29.662800
-1.583400 29.920700
-1.564700 29.291300
-1.546000 34.438100
-1.527300 37.872800
-1.508600 35.003600
-1.489900 29.557500
-1.471200 25.771300
-1.452500 25.317700
-1.433800 24.104400
-1.415100 24.376000
-1.396400 25.152100
-1.377700 25.423200
-1.359000 25.694400
-1.340300 25.113900
-1.321600 23.530800
-1.302900 23.136100
-1.284200 21.050200
-1.265500 19.256800
-1.246900 14.430100
-1.228200 10.912000
-1.209500 10.468500
-1.190800 18.907600
-1.172100 33.853500
-1.153400 40.403500
-1.134700 33.116900
-1.116000 29.655200
-1.097300 30.437600
-1.078600 31.275000
-1.059900 32.360700
-1.041200 34.326100
-1.022500 36.934700
-1.003800 39.246300
-0.985100 38.768200
-0.966400 41.636600
-0.947700 40.590100
-0.929000 36.302700
-0.910300 33.143700
-0.891600 29.984600
-0.872900 27.451100
-0.854200 25.587300
-0.835600 24.653600
-0.816900 23.366100
-0.798200 20.475000
-0.779500 18.442300
-0.760800 17.883400
-0.742100 18.158300
-0.723400 18.940700
-0.704700 20.430800
-0.686000 23.174100
-0.667300 24.113800
-0.648600 18.553200
-0.629900 22.867300
-0.611200 24.335900
-0.592500 23.719700
-0.573800 21.851600
-0.555100 23.167400
-0.536400 36.758000
-0.517700 32.878100
-0.499000 27.817400
-0.480300 19.743200
-0.461600 19.221400
-0.443000 21.243500
-0.424300 22.823900
-0.405600 22.476900
-0.386900 24.300700
-0.368200 29.446600
-0.349500 39.296000
-0.330800 58.504200
-0.312100 80.545100
-0.293400 47.340100
-0.274700 13.541300
-0.256000 19.632400
-0.237300 38.115900
-0.218600 61.555100
-0.199900 20.806000
-0.181200 8.710000
-0.162500 18.733900
-0.143800 36.606800
-0.125100 54.020100
-0.106400 64.063500
-0.087700 15.630500
-0.069000 17.763100
-0.050400 16.627700
-0.031700 20.270600
-0.013000 19.430800
0.005700 18.523500
0.024400 19.955200
0.043100 34.568900
0.061800 82.645200
0.080500 49.108800
0.099200 42.234800
0.117900 45.457800
0.136600 38.273700
0.155300 24.151500
0.174000 26.707700
0.192700 46.278400
0.211400 107.051300
0.230100 69.594200
0.248800 60.209600
0.267500 74.535300
0.286200 79.411300
0.304900 58.185800
0.323600 27.267200
0.342300 27.335900
0.360900 27.789100
0.379600 39.261900
0.398300 57.533300
0.417000 67.523500
0.435700 64.195900
0.454400 85.966700
0.473100 31.945200
0.491800 12.736200
0.510500 10.111100
0.529200 9.058000
0.547900 12.303300
0.566600 16.072600
0.585300 19.841900
0.604000 26.555700
0.622700 33.430000
0.641400 23.102700
0.660100 22.367400
0.678800 67.219400
0.697500 29.928900
0.716200 28.470800
0.734900 28.911700
0.753500 26.651900
0.772200 16.217700
0.790900 0.000000
0.809600 0.000000
0.828300 0.109900
0.847000 0.519400
0.865700 0.928900
0.884400 1.338400
0.903100 1.747900
0.921800 2.157400
0.940500 2.566900
0.959200 2.976400
0.977900 3.385900
0.996600 3.630100
1.015300 3.949500
1.034000 4.468300
1.052700 4.987000
1.071400 5.505800
1.090100 6.024600
1.108800 6.543300
1.127500 7.062100
1.146100 7.580900
1.164800 8.099600
1.183500 8.618400
1.202200 52.934800
1.220900 32.414500
1.239600 23.428800
1.258300 25.374600
1.277000 32.022900
1.295700 25.036500
1.314400 27.160100
1.333100 28.900100
1.351800 30.640200
1.370500 32.380300
1.389200 45.791800
1.407900 65.265000
1.426600 52.933500
1.445300 26.351500
1.464000 22.247400
1.482700 37.605500
1.501400 43.524800
1.520100 59.430200
1.538800 37.799900
1.557400 24.605900
1.576100 18.419800
1.594800 13.603600
1.613500 9.283300
1.632200 4.672500
1.650900 0.000000
1.669600 0.000000
1.688300 0.000000
1.707000 0.000000
1.725700 0.000000
1.744400 0.000000
1.763100 0.000000
1.781800 0.000000
1.800500 0.000000
1.819200 0.000000
1.837900 0.000000
1.856600 0.000000
1.875300 0.000000
1.894000 0.000000
1.912700 0.000000
1.931400 0.000000
1.950000 0.000000
1.968700 0.000000
1.987400 0.000000
2.006100 0.000000
2.024800 0.000000
2.043500 0.000000
2.062200 0.000000
2.080900 0.000000
2.099600 0.000000
2.118300 0.000000
2.137000 0.000000
2.155700 0.000000
2.174400 0.000000
2.193100 0.000000
2.211800 0.000000
2.230500 0.000000
2.249200 0.000000
2.267900 0.000000
2.286600 0.000000
2.305300 0.000000
2.324000 0.000000
2.342600 0.000000
2.361300 0.000000
2.380000 0.000000
2.398700 0.000000
2.417400 0.000000
2.436100 0.000000
2.454800 0.000000
2.473500 0.000000
2.492200 0.000000
2.510900 0.000000
2.529600 0.000000
2.548300 0.000000
2.567000 0.000000
2.585700 0.000000
2.604400 0.000000
2.623100 0.000000
2.641800 0.000000
2.660500 0.000000
2.679200 0.000000
2.697900 0.000000
2.716600 0.000000
2.735300 0.000000
2.753900 0.000000
2.772600 0.000000
2.791300 0.000000
2.810000 0.000000
2.828700 0.000000
2.847400 0.000000
2.866100 0.000000
2.884800 0.000000
2.903500 0.000000
2.922200 0.000000
2.940900 0.000000
2.959600 0.000000
2.978300 0.000000
2.997000 0.000000
3.015700 0.000000
3.034400 0.000000
3.053100 0.000000
3.071800 0.000000
3.090500 0.000000
3.109200 0.000000
3.127900 0.000000
3.146500 0.000000
3.165200 0.000000
3.183900 0.000000
3.202600 0.000000
3.221300 0.000000
3.240000 0.000000
3.258700 0.000000
3.277400 0.000000
3.296100 0.000000
3.314800 0.000000
3.333500 0.000000
3.352200 0.000000
3.370900 0.000000
3.389600 0.000000
3.408300 0.000000
3.427000 0.000000
3.445700 0.000000
3.464400 0.000000
3.483100 0.000000
3.501800 0.000000
3.520500 0.000000
3.539100 0.000000
3.557800 0.000000
3.576500 0.000000
3.595200 0.000000
3.613900 0.000000
3.632600 0.000000
3.651300 0.000000
3.670000 0.000000
3.688700 0.000000
3.707400 0.000000
3.726100 0.000000
3.744800 0.000000
3.763500 0.000000
3.782200 0.000000
3.800900 0.000000
3.819600 0.000000
3.838300 0.000000
3.857000 0.000000
3.875700 0.000000
3.894400 0.000000
3.913100 0.000000
3.931800 0.000000
3.950400 0.000000
3.969100 0.000000
3.987800 0.000000
4.006500 0.000000
4.025200 0.000000
4.043900 0.000000
4.062600 0.000000
4.081300 0.000000
4.100000 0.000000
4.118700 0.000000
4.137400 0.000000
4.156100 0.000000
4.174800 0.000000
4.193500 0.000000
4.212200 0.000000
4.230900 0.000000
4.249600 0.000000
4.268300 0.000000
4.287000 0.000000
4.305700 0.000000
4.324400 0.000000
4.343000 0.000000
4.361700 0.000000
4.380400 0.000000
4.399100 0.000000
4.417800 0.000000
4.436500 0.000000
4.455200 0.000000
4.473900 0.000000
4.492600 0.000000
4.511300 0.000000
4.530000 0.000000
4.548700 0.000000
4.567400 0.000000
4.586100 0.000000
4.604800 0.000000
4.623500 0.000000
4.642200 0.000000
4.660900 0.000000
4.679600 0.000000
4.698300 0.000000
4.717000 0.324200
4.735600 1.129800
4.754300 1.935400
4.773000 2.741000
4.791700 3.067500
4.810400 3.065800
4.829100 3.064200
4.847800 3.062500
4.866500 3.254400
4.885200 3.653300
4.903900 4.052200
4.922600 4.451100
4.941300 4.850000
4.960000 5.223300
4.978700 5.602800
4.997400 5.982200
5.016100 6.361700
5.034800 6.741200
5.053500 7.120600
5.072200 7.500100
5.090900 7.879500
5.109600 8.137800
5.128300 8.215200
5.146900 9.137400
5.165600 10.327100
5.184300 11.516900
5.203000 12.668900
5.221700 13.186700
5.240400 13.306100
5.259100 13.832200
5.277800 16.038000
5.296500 18.712700
5.315200 19.166100
5.333900 15.799700
5.352600 15.076800
5.371300 15.435500
5.390000 16.178500
5.408700 17.038000
5.427400 17.927400
5.446100 18.816800
5.464800 19.706300
5.483500 20.355100
5.502200 20.520700
5.520900 20.225400
5.539500 21.181200
5.558200 22.400800
5.576900 23.620500
5.595600 24.890000
5.614300 22.759700
5.633000 46.294500
5.651700 14.556000
5.670400 14.563400
5.689100 20.342400
5.707800 25.296600
5.726500 24.863000
5.745200 23.514100
5.763900 22.165300
5.782600 20.613600
5.801300 16.635600
5.820000 17.926500
5.838700 16.302400
5.857400 14.678300
5.876100 15.014000
5.894800 16.928000
5.913500 20.475200
5.932100 29.116400
5.950800 38.074700
5.969500 36.021600
5.988200 28.126000
6.006900 23.455400
6.025600 24.560700
6.044300 27.932000
6.063000 32.078700
6.081700 20.863200
6.100400 34.733100
6.119100 42.326500
6.137800 25.014600
6.156500 24.240600
6.175200 23.440900
6.193900 22.697000
6.212600 25.749400
6.231300 24.340800
6.250000 22.156400
6.268700 19.824000
6.287400 17.491600
6.306100 16.453400
6.324800 17.728600
6.343400 22.576200
6.362100 26.263200
6.380800 26.133900
6.399500 29.839500
6.418200 30.470000
6.436900 31.100500
6.455600 31.736400
6.474300 36.493300
6.493000 60.578900
6.511700 29.282900
6.530400 23.931700
6.549100 19.913300
6.567800 26.827400
6.586500 27.467200
6.605200 31.694100
6.623900 34.525000
6.642600 35.327100
6.661300 35.175800
6.680000 31.038900
6.698700 28.155000
6.717400 26.134000
6.736000 21.883800
6.754700 21.486200
6.773400 22.804700
6.792100 26.572100
6.810800 27.839000
6.829500 26.912200
6.848200 37.324200
6.866900 47.446800
6.885600 28.112700
6.904300 26.142100
6.923000 24.171500
6.941700 22.200900
6.960400 20.230300
6.979100 18.875000
6.997800 17.804800
7.016500 17.152200
7.035200 16.546100
7.053900 14.019900
7.072600 9.199500
7.091300 4.571700
7.110000 1.954700
7.128600 0.000000
7.147300 0.000000
7.166000 0.000000
7.184700 0.000000
7.203400 0.000000
7.222100 0.000000
7.240800 0.000000
7.259500 0.000000
7.278200 0.000000
7.296900 0.000000
7.315600 0.000000
7.334300 0.000000
7.353000 0.000000
7.371700 0.000000
7.390400 0.000000
7.409100 0.000000
7.427800 0.000000
7.446500 0.000000
7.465200 0.000000
7.483900 0.000000
7.502600 0.000000
7.521300 0.000000
7.539900 0.000000
7.558600 0.000000
7.577300 0.000000
7.596000 0.000000
7.614700 0.000000
7.633400 0.000000
7.652100 0.000000
7.670800 0.000000
7.689500 0.000000
7.708200 0.000000
7.726900 0.000000
7.745600 0.000000
7.764300 0.000000
7.783000 0.000000
7.801700 0.000000
7.820400 0.000000
7.839100 0.000000
7.857800 0.000000
7.876500 0.000000
7.895200 0.000000
7.913900 0.000000
7.932500 0.000000
7.951200 0.000000
7.969900 0.000000
7.988600 0.000000
8.007300 0.000000
8.026000 0.000000
8.044700 0.000000
8.063400 0.000000
8.082100 0.000000
8.100800 0.000000
8.119500 0.000000
8.138200 0.000000
8.156900 0.000000
8.175600 0.000000
8.194300 0.000000
8.213000 0.000000
8.231700 0.000000
8.250400 0.000000
8.269100 0.000000
8.287800 0.000000
8.306500 0.000000
8.325200 0.000000
8.343800 0.000000
8.362500 0.000000
8.381200 0.000000
8.399900 0.000000
8.418600 0.000000
8.437300 0.000000
8.456000 0.000000
8.474700 0.000000
8.493400 0.000000
8.512100 0.000000
8.530800 0.000000
8.549500 0.000000
8.568200 0.000000
8.586900 0.000000
8.605600 0.000000
8.624300 0.000000
8.643000 0.000000
8.661700 0.000000
8.680400 0.000000
8.699100 0.000000
8.717800 0.000000
8.736400 0.000000
8.755100 0.000000
8.773800 0.000000
8.792500 0.000000
8.811200 0.000000
8.829900 0.000000
8.848600 0.000000
8.867300 0.000000
8.886000 0.043700
8.904700 0.172200
8.923400 0.300700
8.942100 0.429300
8.960800 0.557800
8.979500 0.686300
8.998200 0.814900
9.016900 0.943400
9.035600 1.071900
9.054300 1.200500
9.073000 1.329000
9.091700 1.457600
9.110400 1.586100
9.129000 1.684500
9.147700 1.757200
9.166400 1.829900
9.185100 1.902600
9.203800 1.975300
9.222500 2.048000
9.241200 2.120700
9.259900 2.193400
9.278600 5.052100
9.297300 5.257000
9.316000 5.470200
9.334700 5.683400
9.353400 5.896600
9.372100 6.109900
9.390800 6.323100
9.409500 6.536300
9.428200 6.749500
9.446900 6.962700
9.465600 7.176000
9.484300 7.408200
9.503000 7.889300
9.521700 8.324500
9.540300 9.000000
9.559000 15.591100
9.577700 22.803800
9.596400 25.724600
9.615100 26.539000
9.633800 22.757800
9.652500 17.740000
9.671200 13.225100
9.689900 9.403500
9.708600 5.582000
9.727300 4.944900
9.746000 5.676400
9.764700 6.714400
9.783400 7.752500
9.802100 8.549300
9.820800 9.060300
9.839500 9.571200
9.858200 10.082200
9.876900 10.593100
9.895600 11.104100
9.914300 11.615100
9.932900 11.803000
9.951600 8.438500
9.970300 9.402800
9.989000 10.367100
10.007700 11.331400
10.026400 20.307500
10.045100 30.109400
10.063800 40.249300
10.082500 38.696400
10.101200 33.576200
10.119900 23.103100
10.138600 24.269200
10.157300 37.503600
10.176000 48.949300
10.194700 34.730200
10.213400 9.541900
10.232100 6.191600
10.250800 5.182500
10.269500 5.159700
10.288200 5.136900
10.306900 5.114200
10.325500 5.091400
10.344200 5.068600
10.362900 5.042700
10.381600 4.700200
10.400300 5.065900
10.419000 9.354600
10.437700 14.108300
10.456400 15.248700
10.475100 16.362000
10.493800 17.475300
10.512500 18.588600
10.531200 19.702000
10.549900 20.114800
10.568600 17.714800
10.587300 24.088300
10.606000 45.862100
10.624700 34.842900
10.643400 44.274100
10.662100 42.124100
10.680800 37.814300
10.699500 31.830000
10.718200 30.168600
10.736800 29.881600
10.755500 30.506000
10.774200 30.091900
10.792900 28.574000
10.811600 28.074600
10.830300 28.033600
10.849000 28.889800
10.867700 31.599000
10.886400 35.193900
10.905100 14.999200
10.923800 14.558300
10.942500 14.080000
10.961200 13.601700
10.979900 13.129300
10.998600 13.004300
11.017300 33.331200
11.036000 26.339000
11.054700 24.978200
11.073400 23.617400
11.092100 21.874600
11.110800 19.577500
11.129400 17.388600
11.148100 16.648700
11.166800 17.452300
11.185500 18.638800
11.204200 19.825300
11.222900 21.011700
11.241600 22.463700
11.260300 24.539500
11.279000 26.470700
11.297700 29.125600
11.316400 25.531000
11.335100 23.134300
11.353800 21.587300
11.372500 20.040200
11.391200 18.647400
11.409900 17.546600
11.428600 29.354600
11.447300 31.823300
11.466000 32.688100
11.484700 31.252800
11.503400 30.717900
11.522000 30.209200
11.540700 32.538500
11.559400 33.241200
11.578100 33.785800
11.596800 32.560200
11.615500 24.591700
11.634200 15.304100
11.652900 13.965900
11.671600 12.627700
11.690300 11.289500
11.709000 10.357800
11.727700 9.441700
11.746400 8.525600
11.765100 6.141500
11.783800 6.487300
11.802500 8.674700
11.821200 10.117800
11.839900 11.633200
11.858600 13.148700
11.877300 14.664100
11.896000 16.206200
11.914700 18.267400
11.933300 20.222400
11.952000 22.049800
11.970700 23.273200
11.989400 23.141700
12.008100 19.414400
12.026800 14.962600
12.045500 16.533500
12.064200 17.720000
12.082900 18.906500
12.101600 20.092900
12.120300 22.233400
12.139000 24.526700
12.157700 25.102600
12.176400 22.389200
12.195100 19.965400
12.213800 18.824500
12.232500 17.896700
12.251200 16.969000
12.269900 16.041200
12.288600 15.113500
12.307300 27.884100
12.325900 28.958100
12.344600 28.221700
12.363300 23.935300
12.382000 19.877100
12.400700 18.182900
12.419400 17.205400
12.438100 19.311300
12.456800 21.417300
12.475500 23.523200
12.494200 20.117600
12.512900 18.727600
12.531600 16.551300
12.550300 14.943300
12.569000 17.674700
12.587700 18.120400
12.606400 18.865200
12.625100 19.594700
12.643800 16.997400
12.662500 15.031000
12.681200 18.180200
12.699900 19.498100
12.718500 21.094800
12.737200 23.263600
12.755900 21.874700
12.774600 20.854000
12.793300 19.833300
12.812000 18.679300
12.830700 16.932300
12.849400 14.971500
12.868100 25.160500
12.886800 21.503300
12.905500 20.201100
12.924200 18.955000
12.942900 17.897100
12.961600 16.970600
12.980300 16.426100
12.999000 16.103900
13.017700 15.781800
13.036400 15.878700
13.055100 16.216500
13.073800 16.703300
13.092500 17.494000
13.111200 18.284700
13.129800 19.045900
13.148500 19.915000
13.167200 20.793700
13.185900 21.498500
13.204600 22.273400
13.223300 24.659500
13.242000 27.243600
13.260700 25.368800
13.279400 31.754100
13.298100 24.094700
13.316800 22.858100
13.335500 21.358100
13.354200 20.074000
13.372900 18.789800
13.391600 18.466500
13.410300 18.173500
13.429000 17.978600
13.447700 17.495700
13.466400 17.012700
13.485100 16.529800
13.503800 16.046900
13.522400 15.646900
13.541100 15.517300
13.559800 15.657400
13.578500 16.164500
13.597200 17.351100
13.615900 19.251200
13.634600 20.283800
13.653300 21.120700
13.672000 21.028200
13.690700 20.536700
13.709400 20.045200
13.728100 19.302700
13.746800 19.312400
13.765500 19.918300
13.784200 20.743400
13.802900 21.145200
13.821600 22.125000
13.840300 23.310000
13.859000 24.417300
13.877700 25.618500
13.896400 27.935400
13.915000 27.745600
13.933700 26.332800
13.952400 24.920000
13.971100 23.724600
13.989800 22.472700
14.008500 19.885200
14.027200 16.150300
14.045900 12.741800
14.064600 13.082200
14.083300 13.705000
14.102000 14.344800
14.120700 14.984500
14.139400 15.624300
14.158100 16.264100
14.176800 16.921400
14.195500 17.382000
14.214200 17.222000
14.232900 16.875500
14.251600 16.333700
14.270300 15.842100
14.289000 15.638700
14.307700 15.487300
14.326300 15.333900
14.345000 15.174700
14.363700 15.015800
14.382400 14.848100
14.401100 14.606300
14.419800 14.462600
14.438500 14.319000
14.457200 14.175400
14.475900 14.031700
14.494600 13.889700
14.513300 13.757500
14.532000 16.674200
14.550700 20.144000
14.569400 24.187000
14.588100 26.617700
14.606800 27.841500
14.625500 29.067300
14.644200 27.819200
14.662900 24.944400
14.681600 21.953600
14.700300 24.815500
14.718900 27.315700
14.737600 28.766200
14.756300 27.311100
14.775000 23.832200
14.793700 19.811900
14.812400 17.632000
14.831100 17.244000
14.849800 17.358800
14.868500 17.333500
14.887200 17.074000
14.905900 16.925400
14.924600 16.776700
14.943300 16.651900
14.962000 16.082700
14.980700 15.154000
14.999400 14.312200
15.018100 13.765800
15.036800 13.464700
15.055500 12.763200
15.074200 12.063100
15.092900 10.992600
15.111500 9.592500
15.130200 8.465300
15.148900 7.577200
15.167600 6.689100
15.186300 6.010500
15.205000 5.657600
15.223700 5.097100
15.242400 2.497400
15.261100 0.192300
15.279800 0.000000
15.298500 0.000000
15.317200 0.000000
15.335900 0.000000
15.354600 0.000000
15.373300 0.000000
15.392000 0.000000
15.410700 0.000000
15.429400 0.000000
15.448100 0.000000
15.466800 0.000000
15.485500 0.000000
15.504200 0.000000
15.522800 0.000000
15.541500 0.000000
15.560200 0.000000
15.578900 0.000000
15.597600 0.000000
15.616300 0.000000
15.635000 0.000000
15.653700 0.000000
15.672400 0.000000
15.691100 0.000000
15.709800 0.000000
15.728500 0.000000
15.747200 0.000000
15.765900 0.000000
15.784600 0.000000
15.803300 0.000000
15.822000 0.000000
15.840700 0.000000
15.859400 0.000000
15.878100 0.000000
15.896800 0.000000
15.915400 0.000000
15.934100 0.000000
15.952800 0.000000
15.971500 0.000000
15.990200 0.000000
16.008900 0.000000
16.027600 0.000000
16.046300 0.000000
16.065000 0.000000
16.083700 0.000000
16.102400 0.000000
16.121100 0.000000
16.139800 0.000000
16.158500 0.000000
16.177200 0.000000
16.195900 0.000000
16.214600 0.000000
16.233300 0.000000
16.252000 0.000000
16.270700 0.000000
16.289400 0.000000
16.308000 0.000000
16.326700 0.000000
16.345400 0.000000
16.364100 0.000000
16.382800 0.000000
16.401500 0.000000
16.420200 0.000000
16.438900 0.000000
16.457600 0.000000
16.476300 0.000000
16.495000 0.000000
16.513700 0.000000
16.532400 0.000000
16.551100 0.000000
16.569800 0.000000
16.588500 0.000000
16.607200 0.000000
16.625900 0.000000
16.644600 0.000000
16.663300 0.000000
16.682000 0.000000
16.700700 0.000000
16.719300 0.000000
16.738000 0.000000
16.756700 0.000000
16.775400 0.000000
16.794100 0.000000
16.812800 0.000000
16.831500 0.000000
16.850200 0.000000
16.868900 0.000000
16.887600 0.000000
16.906300 0.000000
16.925000 0.000000
16.943700 0.000000
16.962400 0.000000
e
