set title 'mp-971960 - Density of States'
set xlabel 'Energy (eV)'
set ylabel 'DOS (states/eV)'
set grid
set xrange [-10:10]
set yrange [0:28.516]
set xzeroaxis lt -1
set terminal png size 800,600
set output 'mp-971960_dos_gnuplot.png'
plot '-' using 1:2 with lines title 'DOS'
-44.569800 0.000000
-44.528800 0.000000
-44.487900 0.000000
-44.446900 0.000000
-44.405900 0.000000
-44.364900 0.000000
-44.323900 0.000000
-44.282900 0.000000
-44.241900 0.000000
-44.201000 0.000000
-44.160000 0.000000
-44.119000 0.000000
-44.078000 0.000000
-44.037000 0.000000
-43.996000 0.000000
-43.955000 0.000000
-43.914100 0.000000
-43.873100 0.000000
-43.832100 0.000000
-43.791100 0.000000
-43.750100 0.000000
-43.709100 0.000000
-43.668200 0.000000
-43.627200 0.000000
-43.586200 0.000000
-43.545200 0.000000
-43.504200 0.000000
-43.463200 0.000000
-43.422200 0.000000
-43.381300 0.000000
-43.340300 0.000000
-43.299300 0.000000
-43.258300 0.000000
-43.217300 0.000000
-43.176300 0.000000
-43.135300 0.000000
-43.094400 0.000000
-43.053400 0.000000
-43.012400 0.000000
-42.971400 0.000000
-42.930400 0.000000
-42.889400 0.000000
-42.848500 0.000000
-42.807500 0.000000
-42.766500 0.000000
-42.725500 0.000000
-42.684500 0.000000
-42.643500 0.000000
-42.602500 0.000000
-42.561600 0.000000
-42.520600 0.000000
-42.479600 0.000000
-42.438600 0.000000
-42.397600 0.000000
-42.356600 0.000000
-42.315700 0.000000
-42.274700 0.000000
-42.233700 0.000000
-42.192700 0.000000
-42.151700 0.000000
-42.110700 0.000000
-42.069700 0.000000
-42.028800 0.000000
-41.987800 0.000000
-41.946800 0.000000
-41.905800 0.000000
-41.864800 0.000000
-41.823800 0.000000
-41.782800 0.000000
-41.741900 0.000000
-41.700900 0.000000
-41.659900 0.000000
-41.618900 0.000000
-41.577900 0.000000
-41.536900 0.000000
-41.496000 0.000000
-41.455000 0.000000
-41.414000 0.000000
-41.373000 0.000000
-41.332000 0.000000
-41.291000 0.000000
-41.250000 0.000000
-41.209100 0.000000
-41.168100 0.000000
-41.127100 0.000000
-41.086100 0.000000
-41.045100 0.000000
-41.004100 0.000100
-40.963100 0.014900
-40.922200 0.648600
-40.881200 8.340300
-40.840200 32.559900
-40.799200 39.416800
-40.758200 14.845900
-40.717200 1.711200
-40.676300 0.058700
-40.635300 0.005100
-40.594300 0.239700
-40.553300 3.577300
-40.512300 15.618000
-40.471300 20.394500
-40.430300 8.003700
-40.389400 0.929300
-40.348400 0.031100
-40.307400 0.000300
-40.266400 0.000000
-40.225400 0.000000
-40.184400 0.000000
-40.143400 0.000000
-40.102500 0.000000
-40.061500 0.000000
-40.020500 0.000000
-39.979500 0.000000
-39.938500 0.000000
-39.897500 0.000000
-39.856600 0.000000
-39.815600 0.000000
-39.774600 0.000000
-39.733600 0.000000
-39.692600 0.000000
-39.651600 0.000000
-39.610600 0.000000
-39.569700 0.000000
-39.528700 0.000000
-39.487700 0.000000
-39.446700 0.000000
-39.405700 0.000000
-39.364700 0.000000
-39.323800 0.000000
-39.282800 0.000000
-39.241800 0.000000
-39.200800 0.000000
-39.159800 0.000000
-39.118800 0.000000
-39.077800 0.000000
-39.036900 0.000000
-38.995900 0.000000
-38.954900 0.000000
-38.913900 0.000000
-38.872900 0.000000
-38.831900 0.000000
-38.790900 0.000000
-38.750000 0.000000
-38.709000 0.000000
-38.668000 0.000000
-38.627000 0.000000
-38.586000 0.000000
-38.545000 0.000000
-38.504100 0.000000
-38.463100 0.000000
-38.422100 0.000000
-38.381100 0.000000
-38.340100 0.000000
-38.299100 0.000000
-38.258100 0.000000
-38.217200 0.000000
-38.176200 0.000000
-38.135200 0.000000
-38.094200 0.000000
-38.053200 0.000000
-38.012200 0.000000
-37.971200 0.000000
-37.930300 0.000000
-37.889300 0.000000
-37.848300 0.000000
-37.807300 0.000000
-37.766300 0.000000
-37.725300 0.000000
-37.684400 0.000000
-37.643400 0.000000
-37.602400 0.000000
-37.561400 0.000000
-37.520400 0.000000
-37.479400 0.000000
-37.438400 0.000000
-37.397500 0.000000
-37.356500 0.000000
-37.315500 0.000000
-37.274500 0.000000
-37.233500 0.000000
-37.192500 0.000000
-37.151500 0.000000
-37.110600 0.000000
-37.069600 0.000000
-37.028600 0.000000
-36.987600 0.000000
-36.946600 0.000000
-36.905600 0.000000
-36.864700 0.000000
-36.823700 0.000000
-36.782700 0.000000
-36.741700 0.000000
-36.700700 0.000000
-36.659700 0.000000
-36.618700 0.000000
-36.577800 0.000000
-36.536800 0.000000
-36.495800 0.000000
-36.454800 0.000000
-36.413800 0.000000
-36.372800 0.000000
-36.331800 0.000000
-36.290900 0.000000
-36.249900 0.000000
-36.208900 0.000000
-36.167900 0.000000
-36.126900 0.000000
-36.085900 0.000000
-36.045000 0.000000
-36.004000 0.000000
-35.963000 0.000000
-35.922000 0.000000
-35.881000 0.000000
-35.840000 0.000000
-35.799000 0.000000
-35.758100 0.000000
-35.717100 0.000000
-35.676100 0.000000
-35.635100 0.000000
-35.594100 0.000000
-35.553100 0.000000
-35.512200 0.000000
-35.471200 0.000000
-35.430200 0.000000
-35.389200 0.000000
-35.348200 0.000000
-35.307200 0.000000
-35.266200 0.000000
-35.225300 0.000000
-35.184300 0.000000
-35.143300 0.000000
-35.102300 0.000000
-35.061300 0.000000
-35.020300 0.000000
-34.979300 0.000000
-34.938400 0.000000
-34.897400 0.000000
-34.856400 0.000000
-34.815400 0.000000
-34.774400 0.000000
-34.733400 0.000000
-34.692500 0.000000
-34.651500 0.000000
-34.610500 0.000000
-34.569500 0.000000
-34.528500 0.000000
-34.487500 0.000000
-34.446500 0.000000
-34.405600 0.000000
-34.364600 0.000000
-34.323600 0.000000
-34.282600 0.000000
-34.241600 0.000000
-34.200600 0.000000
-34.159600 0.000000
-34.118700 0.000000
-34.077700 0.000000
-34.036700 0.000000
-33.995700 0.000000
-33.954700 0.000000
-33.913700 0.000000
-33.872800 0.000000
-33.831800 0.000000
-33.790800 0.000000
-33.749800 0.000000
-33.708800 0.000000
-33.667800 0.000000
-33.626800 0.000000
-33.585900 0.000000
-33.544900 0.000000
-33.503900 0.000000
-33.462900 0.000000
-33.421900 0.000000
-33.380900 0.000000
-33.339900 0.000000
-33.299000 0.000000
-33.258000 0.000000
-33.217000 0.000000
-33.176000 0.000000
-33.135000 0.000000
-33.094000 0.000000
-33.053100 0.000000
-33.012100 0.000000
-32.971100 0.000000
-32.930100 0.000000
-32.889100 0.000000
-32.848100 0.000000
-32.807100 0.000000
-32.766200 0.000000
-32.725200 0.000000
-32.684200 0.000000
-32.643200 0.000000
-32.602200 0.000000
-32.561200 0.000000
-32.520300 0.000000
-32.479300 0.000000
-32.438300 0.000000
-32.397300 0.000000
-32.356300 0.000000
-32.315300 0.000000
-32.274300 0.000000
-32.233400 0.000000
-32.192400 0.000000
-32.151400 0.000000
-32.110400 0.000000
-32.069400 0.000000
-32.028400 0.000000
-31.987400 0.000000
-31.946500 0.000000
-31.905500 0.000000
-31.864500 0.000000
-31.823500 0.000000
-31.782500 0.000000
-31.741500 0.000000
-31.700600 0.000000
-31.659600 0.000000
-31.618600 0.000000
-31.577600 0.000000
-31.536600 0.000000
-31.495600 0.000000
-31.454600 0.000000
-31.413700 0.000000
-31.372700 0.000000
-31.331700 0.000000
-31.290700 0.000000
-31.249700 0.000000
-31.208700 0.000000
-31.167700 0.000000
-31.126800 0.000000
-31.085800 0.000000
-31.044800 0.000000
-31.003800 0.000000
-30.962800 0.000000
-30.921800 0.000000
-30.880900 0.000000
-30.839900 0.000000
-30.798900 0.000000
-30.757900 0.000000
-30.716900 0.000000
-30.675900 0.000000
-30.634900 0.000000
-30.594000 0.000000
-30.553000 0.000000
-30.512000 0.000000
-30.471000 0.000000
-30.430000 0.000000
-30.389000 0.000000
-30.348000 0.000000
-30.307100 0.000000
-30.266100 0.000000
-30.225100 0.000000
-30.184100 0.000000
-30.143100 0.000000
-30.102100 0.000000
-30.061200 0.000000
-30.020200 0.000000
-29.979200 0.000000
-29.938200 0.000000
-29.897200 0.000000
-29.856200 0.000000
-29.815200 0.000000
-29.774300 0.000000
-29.733300 0.000000
-29.692300 0.000000
-29.651300 0.000000
-29.610300 0.000000
-29.569300 0.000000
-29.528400 0.000000
-29.487400 0.000000
-29.446400 0.000000
-29.405400 0.000000
-29.364400 0.000000
-29.323400 0.000000
-29.282400 0.000000
-29.241500 0.000000
-29.200500 0.000000
-29.159500 0.000000
-29.118500 0.000000
-29.077500 0.000000
-29.036500 0.000000
-28.995500 0.000000
-28.954600 0.000000
-28.913600 0.000000
-28.872600 0.000000
-28.831600 0.000000
-28.790600 0.000000
-28.749600 0.000000
-28.708700 0.000000
-28.667700 0.000000
-28.626700 0.000000
-28.585700 0.000000
-28.544700 0.000000
-28.503700 0.000000
-28.462700 0.000000
-28.421800 0.000000
-28.380800 0.000000
-28.339800 0.000000
-28.298800 0.000000
-28.257800 0.000000
-28.216800 0.000000
-28.175800 0.000000
-28.134900 0.000000
-28.093900 0.000000
-28.052900 0.000000
-28.011900 0.000000
-27.970900 0.000000
-27.929900 0.000000
-27.889000 0.000000
-27.848000 0.000000
-27.807000 0.000000
-27.766000 0.000000
-27.725000 0.000000
-27.684000 0.000000
-27.643000 0.000000
-27.602100 0.000000
-27.561100 0.000000
-27.520100 0.000000
-27.479100 0.000000
-27.438100 0.000000
-27.397100 0.000000
-27.356100 0.000000
-27.315200 0.000000
-27.274200 0.000000
-27.233200 0.000000
-27.192200 0.000000
-27.151200 0.000000
-27.110200 0.000000
-27.069300 0.000000
-27.028300 0.000000
-26.987300 0.000000
-26.946300 0.000000
-26.905300 0.000000
-26.864300 0.000000
-26.823300 0.000000
-26.782400 0.000000
-26.741400 0.000000
-26.700400 0.000000
-26.659400 0.000000
-26.618400 0.000000
-26.577400 0.000000
-26.536500 0.000000
-26.495500 0.000000
-26.454500 0.000000
-26.413500 0.000000
-26.372500 0.000000
-26.331500 0.000000
-26.290500 0.000000
-26.249600 0.000000
-26.208600 0.000000
-26.167600 0.000000
-26.126600 0.000000
-26.085600 0.000000
-26.044600 0.000000
-26.003600 0.000000
-25.962700 0.000000
-25.921700 0.000000
-25.880700 0.000000
-25.839700 0.000000
-25.798700 0.000000
-25.757700 0.000000
-25.716800 0.000000
-25.675800 0.000000
-25.634800 0.000000
-25.593800 0.000000
-25.552800 0.000000
-25.511800 0.000000
-25.470800 0.000000
-25.429900 0.000000
-25.388900 0.000000
-25.347900 0.000000
-25.306900 0.000000
-25.265900 0.000000
-25.224900 0.000000
-25.183900 0.000000
-25.143000 0.000000
-25.102000 0.000000
-25.061000 0.000000
-25.020000 0.000000
-24.979000 0.000000
-24.938000 0.000000
-24.897100 0.000000
-24.856100 0.000000
-24.815100 0.000000
-24.774100 0.000000
-24.733100 0.000000
-24.692100 0.000000
-24.651100 0.000000
-24.610200 0.000000
-24.569200 0.000000
-24.528200 0.000000
-24.487200 0.000000
-24.446200 0.000000
-24.405200 0.000000
-24.364200 0.000000
-24.323300 0.000000
-24.282300 0.000000
-24.241300 0.000000
-24.200300 0.000000
-24.159300 0.000000
-24.118300 0.000000
-24.077400 0.000000
-24.036400 0.000000
-23.995400 0.000000
-23.954400 0.000000
-23.913400 0.000000
-23.872400 0.000000
-23.831400 0.000000
-23.790500 0.000000
-23.749500 0.000000
-23.708500 0.000000
-23.667500 0.000000
-23.626500 0.000000
-23.585500 0.000000
-23.544600 0.000000
-23.503600 0.000000
-23.462600 0.000000
-23.421600 0.000000
-23.380600 0.000000
-23.339600 0.000000
-23.298600 0.000000
-23.257700 0.000000
-23.216700 0.000000
-23.175700 0.000000
-23.134700 0.000000
-23.093700 0.000000
-23.052700 0.000000
-23.011700 0.000000
-22.970800 0.000000
-22.929800 0.000000
-22.888800 0.000000
-22.847800 0.000000
-22.806800 0.000000
-22.765800 0.000000
-22.724900 0.000000
-22.683900 0.000000
-22.642900 0.000000
-22.601900 0.000000
-22.560900 0.000000
-22.519900 0.000000
-22.478900 0.000000
-22.438000 0.000000
-22.397000 0.000000
-22.356000 0.000000
-22.315000 0.000000
-22.274000 0.000000
-22.233000 0.000000
-22.192000 0.000000
-22.151100 0.000000
-22.110100 0.000000
-22.069100 0.000000
-22.028100 0.000000
-21.987100 0.000000
-21.946100 0.000000
-21.905200 0.000000
-21.864200 0.000000
-21.823200 0.000000
-21.782200 0.000000
-21.741200 0.000000
-21.700200 0.000000
-21.659200 0.000000
-21.618300 0.000000
-21.577300 0.000000
-21.536300 0.000000
-21.495300 0.000000
-21.454300 0.000000
-21.413300 0.000000
-21.372300 0.000000
-21.331400 0.000000
-21.290400 0.000000
-21.249400 0.000000
-21.208400 0.000000
-21.167400 0.000000
-21.126400 0.000000
-21.085500 0.000000
-21.044500 0.000000
-21.003500 0.000000
-20.962500 0.000000
-20.921500 0.000000
-20.880500 0.000000
-20.839500 0.000000
-20.798600 0.000000
-20.757600 0.000000
-20.716600 0.000000
-20.675600 0.000000
-20.634600 0.000000
-20.593600 0.000000
-20.552700 0.000000
-20.511700 0.000000
-20.470700 0.000000
-20.429700 0.000000
-20.388700 0.000000
-20.347700 0.000000
-20.306700 0.000000
-20.265800 0.000000
-20.224800 0.000000
-20.183800 0.000000
-20.142800 0.000000
-20.101800 0.000000
-20.060800 0.000000
-20.019800 0.000000
-19.978900 0.000000
-19.937900 0.000000
-19.896900 0.000000
-19.855900 0.000000
-19.814900 0.000000
-19.773900 0.000000
-19.733000 0.000000
-19.692000 0.000000
-19.651000 0.000000
-19.610000 0.000000
-19.569000 0.000000
-19.528000 0.000000
-19.487000 0.000000
-19.446100 0.000000
-19.405100 0.000000
-19.364100 0.000000
-19.323100 0.000000
-19.282100 0.000000
-19.241100 0.000000
-19.200100 0.000000
-19.159200 0.000000
-19.118200 0.000000
-19.077200 0.000000
-19.036200 0.000000
-18.995200 0.000000
-18.954200 0.000000
-18.913300 0.000000
-18.872300 0.000000
-18.831300 0.000000
-18.790300 0.000000
-18.749300 0.000000
-18.708300 0.000000
-18.667300 0.000000
-18.626400 0.000000
-18.585400 0.000000
-18.544400 0.000000
-18.503400 0.000000
-18.462400 0.000000
-18.421400 0.000000
-18.380400 0.000000
-18.339500 0.000000
-18.298500 0.000000
-18.257500 0.000000
-18.216500 0.000000
-18.175500 0.000000
-18.134500 0.000000
-18.093600 0.000000
-18.052600 0.000000
-18.011600 0.000000
-17.970600 0.000000
-17.929600 0.000000
-17.888600 0.000000
-17.847600 0.000000
-17.806700 0.000000
-17.765700 0.000000
-17.724700 0.000000
-17.683700 0.000000
-17.642700 0.000000
-17.601700 0.000000
-17.560800 0.000000
-17.519800 0.000000
-17.478800 0.000000
-17.437800 0.000000
-17.396800 0.000000
-17.355800 0.000000
-17.314800 0.000000
-17.273900 0.000000
-17.232900 0.000000
-17.191900 0.000000
-17.150900 0.000000
-17.109900 0.000000
-17.068900 0.000000
-17.027900 0.000000
-16.987000 0.000000
-16.946000 0.000000
-16.905000 0.000000
-16.864000 0.000000
-16.823000 0.000000
-16.782000 0.000000
-16.741100 0.000000
-16.700100 0.000000
-16.659100 0.000000
-16.618100 0.000000
-16.577100 0.000000
-16.536100 0.000000
-16.495100 0.000000
-16.454200 0.000000
-16.413200 0.000000
-16.372200 0.000000
-16.331200 0.000000
-16.290200 0.000000
-16.249200 0.000000
-16.208200 0.000000
-16.167300 0.000000
-16.126300 0.000000
-16.085300 0.000000
-16.044300 0.000000
-16.003300 0.000000
-15.962300 0.000000
-15.921400 0.000000
-15.880400 0.000000
-15.839400 0.000000
-15.798400 0.000000
-15.757400 0.000000
-15.716400 0.000000
-15.675400 0.000000
-15.634500 0.000000
-15.593500 0.000000
-15.552500 0.000000
-15.511500 0.000000
-15.470500 0.000000
-15.429500 0.000000
-15.388500 0.000000
-15.347600 0.000000
-15.306600 0.000000
-15.265600 0.000000
-15.224600 0.000000
-15.183600 0.000000
-15.142600 0.000000
-15.101700 0.000000
-15.060700 0.000000
-15.019700 0.000000
-14.978700 0.000000
-14.937700 0.000000
-14.896700 0.000000
-14.855700 0.000000
-14.814800 0.000000
-14.773800 0.000000
-14.732800 0.000000
-14.691800 0.000000
-14.650800 0.000000
-14.609800 0.000000
-14.568900 0.000000
-14.527900 0.000000
-14.486900 0.000000
-14.445900 0.000000
-14.404900 0.000000
-14.363900 0.000000
-14.322900 0.000000
-14.282000 0.000000
-14.241000 0.000000
-14.200000 0.000000
-14.159000 0.000000
-14.118000 0.000000
-14.077000 0.000000
-14.036000 0.000000
-13.995100 0.000000
-13.954100 0.000000
-13.913100 0.000000
-13.872100 0.000000
-13.831100 0.000000
-13.790100 0.000000
-13.749200 0.000000
-13.708200 0.000000
-13.667200 0.000000
-13.626200 0.000000
-13.585200 0.000000
-13.544200 0.000000
-13.503200 0.000000
-13.462300 0.000000
-13.421300 0.000000
-13.380300 0.000000
-13.339300 0.000000
-13.298300 0.000000
-13.257300 0.000000
-13.216300 0.000000
-13.175400 0.000000
-13.134400 0.000000
-13.093400 0.000000
-13.052400 0.000000
-13.011400 0.000000
-12.970400 0.000000
-12.929500 0.000000
-12.888500 0.000000
-12.847500 0.000000
-12.806500 0.000000
-12.765500 0.000000
-12.724500 0.000000
-12.683500 0.000000
-12.642600 0.000000
-12.601600 0.000000
-12.560600 0.000000
-12.519600 0.000000
-12.478600 0.000000
-12.437600 0.000000
-12.396600 0.000000
-12.355700 0.000000
-12.314700 0.000000
-12.273700 0.000000
-12.232700 0.000000
-12.191700 0.000000
-12.150700 0.000000
-12.109800 0.000000
-12.068800 0.000000
-12.027800 0.000000
-11.986800 0.000000
-11.945800 0.000000
-11.904800 0.000000
-11.863800 0.000000
-11.822900 0.000000
-11.781900 0.000000
-11.740900 0.000000
-11.699900 0.000000
-11.658900 0.000000
-11.617900 0.000000
-11.576900 0.000000
-11.536000 0.000000
-11.495000 0.000000
-11.454000 0.000000
-11.413000 0.000000
-11.372000 0.000000
-11.331000 0.000000
-11.290100 0.000000
-11.249100 0.000000
-11.208100 0.000000
-11.167100 0.000000
-11.126100 0.000000
-11.085100 0.000000
-11.044100 0.000000
-11.003200 0.000000
-10.962200 0.000000
-10.921200 0.000000
-10.880200 0.000000
-10.839200 0.000000
-10.798200 0.000000
-10.757300 0.000000
-10.716300 0.000000
-10.675300 0.000000
-10.634300 0.000000
-10.593300 0.000000
-10.552300 0.000000
-10.511300 0.000000
-10.470400 0.000000
-10.429400 0.000000
-10.388400 0.000000
-10.347400 0.000000
-10.306400 0.000000
-10.265400 0.000000
-10.224400 0.000000
-10.183500 0.000000
-10.142500 0.000000
-10.101500 0.000000
-10.060500 0.000000
-10.019500 0.000000
-9.978500 0.000000
-9.937600 0.000000
-9.896600 0.000000
-9.855600 0.000000
-9.814600 0.000000
-9.773600 0.000000
-9.732600 0.000000
-9.691600 0.000000
-9.650700 0.000000
-9.609700 0.000000
-9.568700 0.000000
-9.527700 0.000000
-9.486700 0.000000
-9.445700 0.000000
-9.404700 0.000000
-9.363800 0.000000
-9.322800 0.000000
-9.281800 0.000000
-9.240800 0.000000
-9.199800 0.000000
-9.158800 0.000000
-9.117900 0.000000
-9.076900 0.000000
-9.035900 0.000000
-8.994900 0.000000
-8.953900 0.000000
-8.912900 0.000000
-8.871900 0.000000
-8.831000 0.000000
-8.790000 0.000000
-8.749000 0.000000
-8.708000 0.000000
-8.667000 0.000000
-8.626000 0.000000
-8.585000 0.000000
-8.544100 0.000000
-8.503100 0.000000
-8.462100 0.000000
-8.421100 0.000000
-8.380100 0.000000
-8.339100 0.000000
-8.298200 0.000000
-8.257200 0.000000
-8.216200 0.000000
-8.175200 0.000000
-8.134200 0.000000
-8.093200 0.000000
-8.052200 0.000000
-8.011300 0.000000
-7.970300 0.000000
-7.929300 0.000000
-7.888300 0.000000
-7.847300 0.000000
-7.806300 0.000000
-7.765400 0.000000
-7.724400 0.000000
-7.683400 0.000000
-7.642400 0.000000
-7.601400 0.000000
-7.560400 0.000000
-7.519400 0.000000
-7.478500 0.000000
-7.437500 0.000000
-7.396500 0.000000
-7.355500 0.000000
-7.314500 0.000000
-7.273500 0.000000
-7.232500 0.000000
-7.191600 0.000000
-7.150600 0.000000
-7.109600 0.000000
-7.068600 0.000000
-7.027600 0.000000
-6.986600 0.000000
-6.945700 0.000000
-6.904700 0.000000
-6.863700 0.000000
-6.822700 0.000000
-6.781700 0.000000
-6.740700 0.000000
-6.699700 0.000000
-6.658800 0.000000
-6.617800 0.000000
-6.576800 0.000000
-6.535800 0.000000
-6.494800 0.000000
-6.453800 0.000000
-6.412800 0.000000
-6.371900 0.000000
-6.330900 0.000000
-6.289900 0.000000
-6.248900 0.000000
-6.207900 0.000000
-6.166900 0.000000
-6.126000 0.000000
-6.085000 0.000800
-6.044000 0.007900
-6.003000 0.025900
-5.962000 0.044400
-5.921000 0.074900
-5.880000 0.138200
-5.839100 0.201800
-5.798100 0.141500
-5.757100 0.051700
-5.716100 0.093500
-5.675100 0.239300
-5.634100 0.274700
-5.593100 0.215400
-5.552200 0.254600
-5.511200 0.329000
-5.470200 0.222600
-5.429200 0.130800
-5.388200 0.130700
-5.347200 0.280500
-5.306300 0.425200
-5.265300 0.317400
-5.224300 0.271900
-5.183300 0.354100
-5.142300 0.344100
-5.101300 0.189400
-5.060300 0.260100
-5.019400 0.531100
-4.978400 0.516600
-4.937400 0.403100
-4.896400 0.458900
-4.855400 0.402200
-4.814400 0.246100
-4.773500 0.247300
-4.732500 0.300600
-4.691500 0.409000
-4.650500 0.395500
-4.609500 0.548600
-4.568500 0.756100
-4.527500 0.540900
-4.486600 0.364100
-4.445600 0.689400
-4.404600 0.887600
-4.363600 0.643000
-4.322600 0.479900
-4.281600 0.450000
-4.240600 0.242400
-4.199700 0.232400
-4.158700 0.585000
-4.117700 0.979200
-4.076700 1.030200
-4.035700 0.979400
-3.994700 0.863800
-3.953800 0.741800
-3.912800 0.851900
-3.871800 0.989100
-3.830800 1.075600
-3.789800 1.238100
-3.748800 1.521300
-3.707800 2.023700
-3.666900 3.642500
-3.625900 5.736300
-3.584900 7.030100
-3.543900 8.587600
-3.502900 10.330600
-3.461900 13.291900
-3.420900 17.361000
-3.380000 19.151300
-3.339000 20.580100
-3.298000 21.568600
-3.257000 21.800200
-3.216000 20.889800
-3.175000 18.396000
-3.134100 17.476800
-3.093100 18.926600
-3.052100 20.691000
-3.011100 21.038700
-2.970100 20.206100
-2.929100 21.127300
-2.888100 22.338500
-2.847200 22.804500
-2.806200 23.401700
-2.765200 24.151900
-2.724200 24.443300
-2.683200 22.428500
-2.642200 20.981800
-2.601200 23.061500
-2.560300 25.923900
-2.519300 25.571900
-2.478300 21.837900
-2.437300 20.162200
-2.396300 21.201100
-2.355300 22.357500
-2.314400 23.597200
-2.273400 23.021700
-2.232400 18.489200
-2.191400 13.387800
-2.150400 9.932800
-2.109400 6.882700
-2.068400 4.848500
-2.027500 3.690500
-1.986500 2.715200
-1.945500 2.334700
-1.904500 1.748000
-1.863500 1.284600
-1.822500 1.056600
-1.781600 0.949500
-1.740600 0.989400
-1.699600 1.062000
-1.658600 1.051700
-1.617600 0.815400
-1.576600 0.795300
-1.535600 1.125800
-1.494700 0.926900
-1.453700 0.642300
-1.412700 0.822800
-1.371700 1.093000
-1.330700 1.364300
-1.289700 1.456400
-1.248700 1.268800
-1.207800 1.447900
-1.166800 1.507300
-1.125800 1.547800
-1.084800 1.865600
-1.043800 2.050100
-1.002800 1.688600
-0.961900 1.169800
-0.920900 0.717900
-0.879900 0.592700
-0.838900 0.724700
-0.797900 0.816700
-0.756900 0.883800
-0.715900 0.913500
-0.675000 1.303300
-0.634000 1.654300
-0.593000 1.410700
-0.552000 1.003000
-0.511000 0.829000
-0.470000 0.741500
-0.429000 0.781400
-0.388100 1.125000
-0.347100 1.249200
-0.306100 1.418100
-0.265100 1.612400
-0.224100 1.137500
-0.183100 0.872600
-0.142200 1.008600
-0.101200 1.190600
-0.060200 1.060600
-0.019200 1.036300
0.021800 1.445900
0.062800 1.676000
0.103800 1.467800
0.144700 1.122300
0.185700 1.371300
0.226700 1.420500
0.267700 1.104700
0.308700 0.704700
0.349700 0.503300
0.390700 0.937700
0.431600 1.421800
0.472600 1.435100
0.513600 1.626900
0.554600 1.606800
0.595600 1.348500
0.636600 1.450000
0.677500 1.316300
0.718500 1.348400
0.759500 1.658300
0.800500 1.853900
0.841500 1.959400
0.882500 1.482300
0.923500 1.175400
0.964400 1.424900
1.005400 1.850800
1.046400 2.260800
1.087400 2.345600
1.128400 2.101600
1.169400 2.006100
1.210300 1.706900
1.251300 1.380200
1.292300 1.217400
1.333300 1.210000
1.374300 1.592800
1.415300 1.755100
1.456300 1.690600
1.497200 1.890200
1.538200 2.800300
1.579200 3.287100
1.620200 2.972000
1.661200 2.768700
1.702200 2.593400
1.743200 2.856900
1.784100 3.511900
1.825100 3.655700
1.866100 3.553700
1.907100 3.489300
1.948100 2.811300
1.989100 2.275800
2.030000 2.347200
2.071000 2.459400
2.112000 2.014500
2.153000 1.955000
2.194000 2.594600
2.235000 2.819900
2.276000 2.919600
2.316900 3.069700
2.357900 3.627300
2.398900 3.741200
2.439900 3.454500
2.480900 4.222900
2.521900 4.861300
2.562900 4.682800
2.603800 4.300000
2.644800 4.485600
2.685800 5.459100
2.726800 6.508400
2.767800 6.526900
2.808800 5.485700
2.849700 4.568600
2.890700 3.893600
2.931700 3.299400
2.972700 3.417800
3.013700 3.090300
3.054700 2.903600
3.095700 3.200600
3.136600 2.859600
3.177600 1.781000
3.218600 1.426000
3.259600 1.719100
3.300600 2.062800
3.341600 1.876200
3.382600 1.795900
3.423500 1.914100
3.464500 2.113700
3.505500 2.808200
3.546500 3.340000
3.587500 3.152800
3.628500 3.175600
3.669400 3.587700
3.710400 4.274700
3.751400 3.734000
3.792400 2.437400
3.833400 2.065700
3.874400 1.869200
3.915400 1.522900
3.956300 1.452600
3.997300 1.772200
4.038300 2.502800
4.079300 2.782500
4.120300 2.731500
4.161300 3.016000
4.202200 3.082900
4.243200 2.590400
4.284200 2.287500
4.325200 2.178400
4.366200 1.777900
4.407200 1.472400
4.448200 1.500300
4.489100 1.415400
4.530100 1.244500
4.571100 1.504900
4.612100 1.396600
4.653100 1.114400
4.694100 1.299100
4.735100 1.542000
4.776000 1.558400
4.817000 1.139200
4.858000 0.608500
4.899000 0.416200
4.940000 0.779800
4.981000 1.162100
5.021900 1.018600
5.062900 0.772000
5.103900 0.703300
5.144900 0.786300
5.185900 0.780900
5.226900 0.716600
5.267900 0.754700
5.308800 0.856600
5.349800 0.891100
5.390800 0.977700
5.431800 1.108700
5.472800 1.058000
5.513800 0.950900
5.554800 1.161100
5.595700 1.479100
5.636700 1.364100
5.677700 1.086800
5.718700 0.959500
5.759700 0.874000
5.800700 0.899100
5.841600 0.970600
5.882600 0.741200
5.923600 0.391600
5.964600 0.224400
6.005600 0.520100
6.046600 0.994800
6.087600 1.264500
6.128500 1.261600
6.169500 1.178900
6.210500 0.961200
6.251500 0.740100
6.292500 0.684700
6.333500 0.598500
6.374500 0.602000
6.415400 0.795300
6.456400 0.789900
6.497400 0.623800
6.538400 0.441600
6.579400 0.491300
6.620400 0.734800
6.661300 0.775800
6.702300 0.642800
6.743300 0.694400
6.784300 0.808600
6.825300 1.136100
6.866300 1.619100
6.907300 1.650100
6.948200 1.315800
6.989200 1.035500
7.030200 1.316900
7.071200 1.757800
7.112200 1.302400
7.153200 0.766800
7.194100 0.699700
7.235100 1.134700
7.276100 1.346900
7.317100 1.143000
7.358100 0.963700
7.399100 0.830400
7.440100 1.282500
7.481000 2.026500
7.522000 2.169600
7.563000 1.732400
7.604000 1.223400
7.645000 0.981900
7.686000 1.085200
7.727000 1.710000
7.767900 2.764700
7.808900 2.840800
7.849900 2.021600
7.890900 1.952000
7.931900 2.186700
7.972900 2.135100
8.013800 2.257800
8.054800 2.113400
8.095800 1.795200
8.136800 1.780600
8.177800 1.758800
8.218800 1.652200
8.259800 1.309100
8.300700 1.094600
8.341700 1.032800
8.382700 1.243600
8.423700 1.473600
8.464700 1.792100
8.505700 1.991900
8.546700 1.650500
8.587600 1.683400
8.628600 2.149700
8.669600 1.926400
8.710600 1.343000
8.751600 1.280400
8.792600 1.557100
8.833500 1.704700
8.874500 1.395600
8.915500 1.321900
8.956500 1.765000
8.997500 1.802200
9.038500 1.570000
9.079500 1.440300
9.120400 1.529200
9.161400 1.606100
9.202400 1.341100
9.243400 1.057200
9.284400 1.263500
9.325400 1.724800
9.366400 1.894000
9.407300 1.575600
9.448300 1.501200
9.489300 1.461600
9.530300 1.142200
9.571300 1.187300
9.612300 1.353000
9.653200 1.335900
9.694200 1.389000
9.735200 1.257900
9.776200 0.909000
9.817200 0.754400
9.858200 1.432400
9.899200 2.646200
9.940100 2.804300
9.981100 2.118700
10.022100 1.454800
10.063100 1.319200
10.104100 1.415500
10.145100 1.598200
10.186000 1.604600
10.227000 1.344500
10.268000 1.118600
10.309000 1.018800
10.350000 1.155200
10.391000 1.121200
10.432000 1.052200
10.472900 1.779400
10.513900 2.766400
10.554900 2.682000
10.595900 1.526200
10.636900 0.739100
10.677900 0.882800
10.718900 1.106600
10.759800 1.088700
10.800800 0.920300
10.841800 1.167900
10.882800 1.681100
10.923800 1.935600
10.964800 2.487600
11.005700 2.451900
11.046700 2.066300
11.087700 1.822200
11.128700 1.445500
11.169700 1.149200
11.210700 0.969200
11.251700 1.065400
11.292600 1.371500
11.333600 1.337000
11.374600 1.136600
11.415600 1.268500
11.456600 1.339100
11.497600 1.508900
11.538600 1.857000
11.579500 1.922200
11.620500 1.630200
11.661500 1.436300
11.702500 1.368100
11.743500 1.077800
11.784500 1.202300
11.825400 1.509500
11.866400 1.654500
11.907400 1.730000
11.948400 1.452400
11.989400 1.219200
12.030400 1.283000
12.071400 1.490000
12.112300 1.607000
12.153300 1.682100
12.194300 1.512500
12.235300 1.029200
12.276300 0.747800
12.317300 0.909600
12.358300 1.099300
12.399200 1.175200
12.440200 1.473900
12.481200 1.588500
12.522200 1.433100
12.563200 1.692500
12.604200 1.908600
12.645100 1.593600
12.686100 1.538200
12.727100 1.945200
12.768100 2.528300
12.809100 2.808900
12.850100 2.831900
12.891100 2.676700
12.932000 1.998000
12.973000 1.440900
13.014000 1.081800
13.055000 1.027000
13.096000 1.202400
13.137000 1.178600
13.178000 1.335500
13.218900 1.782900
13.259900 1.880800
13.300900 1.398400
13.341900 1.165800
13.382900 1.290600
13.423900 1.468600
13.464800 1.811600
13.505800 2.053100
13.546800 2.009600
13.587800 1.962100
13.628800 1.740400
13.669800 1.450900
13.710800 1.121200
13.751700 1.061400
13.792700 1.654600
13.833700 2.119900
13.874700 2.010400
13.915700 1.911300
13.956700 1.978200
13.997600 1.861000
14.038600 1.608300
14.079600 1.609500
14.120600 2.177800
14.161600 2.971400
14.202600 3.002100
14.243600 2.180500
14.284500 1.853900
14.325500 1.544900
14.366500 1.471200
14.407500 1.623200
14.448500 1.560700
14.489500 1.712600
14.530500 1.747200
14.571400 1.419200
14.612400 1.509000
14.653400 1.460200
14.694400 1.369300
14.735400 2.163500
14.776400 2.782800
14.817300 2.486400
14.858300 2.222100
14.899300 2.443500
14.940300 2.252700
14.981300 2.186800
15.022300 2.293900
15.063300 1.837300
15.104200 1.422900
15.145200 1.590300
15.186200 1.641600
15.227200 1.222500
15.268200 1.289500
15.309200 1.643400
15.350200 1.755000
15.391100 2.012600
15.432100 2.115200
15.473100 1.797600
15.514100 1.727300
15.555100 2.175400
15.596100 2.661400
15.637000 2.368100
15.678000 1.897500
15.719000 1.343900
15.760000 1.091700
15.801000 1.148000
15.842000 1.284000
15.883000 1.551600
15.923900 1.851400
15.964900 1.830800
16.005900 1.619800
16.046900 1.541000
16.087900 1.754800
16.128900 2.241200
16.169900 2.373600
16.210800 2.297100
16.251800 2.239400
16.292800 1.537500
16.333800 1.289600
16.374800 1.882700
16.415800 2.020700
16.456700 1.645300
16.497700 1.542500
16.538700 1.609000
16.579700 1.463200
16.620700 1.329500
16.661700 1.149300
16.702700 0.985000
16.743600 1.176800
16.784600 1.667500
16.825600 1.794600
16.866600 1.710200
16.907600 1.469100
16.948600 1.299600
16.989500 1.520100
17.030500 1.742200
17.071500 1.741700
17.112500 1.786900
17.153500 2.248600
17.194500 2.522200
17.235500 2.298600
17.276400 2.196700
17.317400 2.344100
17.358400 2.530400
17.399400 2.425000
17.440400 2.346500
17.481400 2.260800
17.522400 2.123100
17.563300 1.558500
17.604300 1.108400
17.645300 0.998400
17.686300 0.918900
17.727300 1.204500
17.768300 1.643500
17.809200 1.992400
17.850200 2.207000
17.891200 2.015700
17.932200 1.331700
17.973200 1.203100
18.014200 1.654400
18.055200 1.771100
18.096100 1.405800
18.137100 1.225800
18.178100 1.042900
18.219100 0.775400
18.260100 0.998400
18.301100 1.677500
18.342100 2.155200
18.383000 2.223500
18.424000 2.094200
18.465000 1.633000
18.506000 1.364500
18.547000 1.556900
18.588000 1.516900
18.628900 1.383800
18.669900 1.427900
18.710900 1.329400
18.751900 1.584100
18.792900 1.808500
18.833900 1.606300
18.874900 1.397400
18.915800 1.191300
18.956800 1.058500
18.997800 1.021400
19.038800 1.112600
19.079800 1.140100
19.120800 1.156500
19.161800 1.072000
19.202700 0.772900
19.243700 1.096600
19.284700 1.725300
19.325700 1.876000
19.366700 1.806000
19.407700 1.616200
19.448600 1.490700
19.489600 1.172300
19.530600 1.191600
19.571600 1.423700
19.612600 1.535300
19.653600 1.868900
19.694600 1.762800
19.735500 1.530000
19.776500 1.811500
19.817500 1.753800
19.858500 1.240500
19.899500 1.312900
19.940500 1.662500
19.981400 1.780800
20.022400 1.957700
20.063400 2.207700
20.104400 2.230500
20.145400 2.296700
20.186400 2.281100
20.227400 2.054800
20.268300 1.620500
20.309300 1.249100
20.350300 1.385600
20.391300 1.682500
20.432300 1.632300
20.473300 1.561700
20.514300 1.870300
20.555200 1.879500
20.596200 1.758200
20.637200 1.797100
20.678200 1.710200
20.719200 1.462300
20.760200 1.768100
20.801100 2.227300
20.842100 2.082300
20.883100 2.097300
20.924100 2.414300
20.965100 2.147600
21.006100 1.967700
21.047100 1.970200
21.088000 2.037000
21.129000 2.782000
21.170000 3.040600
21.211000 2.237800
21.252000 1.675300
21.293000 1.995800
21.334000 2.449400
21.374900 2.435500
21.415900 2.056400
21.456900 1.841600
21.497900 1.893400
21.538900 1.648800
21.579900 1.474400
21.620800 1.927000
21.661800 2.495500
21.702800 2.600100
21.743800 2.210900
21.784800 1.721100
21.825800 1.484400
21.866800 1.941400
21.907700 2.259000
21.948700 1.891500
21.989700 1.704600
22.030700 1.893400
22.071700 2.280200
22.112700 2.284200
22.153700 1.904100
22.194600 2.119000
22.235600 2.519000
22.276600 2.387000
22.317600 2.169700
22.358600 1.996500
22.399600 1.995800
22.440500 2.576200
22.481500 2.836200
22.522500 2.641700
22.563500 2.373400
22.604500 2.199100
22.645500 2.327300
22.686500 2.018400
22.727400 2.105600
22.768400 2.590400
22.809400 2.109100
22.850400 1.814700
22.891400 2.021100
22.932400 2.139800
22.973300 2.337700
23.014300 2.197900
23.055300 1.816100
23.096300 1.857400
23.137300 2.237500
23.178300 2.308300
23.219300 2.030800
23.260200 2.130800
23.301200 2.164700
23.342200 1.924600
23.383200 1.852700
23.424200 1.828100
23.465200 1.741700
23.506200 1.611200
23.547100 1.759400
23.588100 1.755100
23.629100 1.594300
23.670100 1.657200
23.711100 1.974100
23.752100 2.517100
23.793000 2.731400
23.834000 2.152200
23.875000 1.931100
23.916000 1.915900
23.957000 1.542600
23.998000 1.336900
24.039000 1.594600
24.079900 2.060300
24.120900 2.431700
24.161900 2.355100
24.202900 2.149200
24.243900 2.130300
24.284900 2.374300
24.325900 3.188500
24.366800 3.402400
24.407800 2.374800
24.448800 1.506700
24.489800 1.370000
24.530800 1.699500
24.571800 2.148000
24.612700 2.343100
24.653700 2.164900
24.694700 2.029200
24.735700 2.159000
24.776700 2.498000
24.817700 2.558500
24.858700 2.248900
24.899600 2.299100
24.940600 2.896000
24.981600 2.955300
25.022600 2.153800
25.063600 1.739400
25.104600 2.009100
25.145600 1.925400
25.186500 1.670800
25.227500 1.495600
25.268500 1.617000
25.309500 1.628900
25.350500 1.634700
25.391500 2.145500
25.432400 2.298300
25.473400 2.106300
25.514400 2.069500
25.555400 1.923000
25.596400 2.044600
25.637400 1.923700
25.678400 1.948900
25.719300 2.761700
25.760300 2.853800
25.801300 1.961000
25.842300 1.627600
25.883300 1.943700
25.924300 2.237100
25.965200 2.430400
26.006200 2.185800
26.047200 1.873300
26.088200 2.199300
26.129200 2.751100
26.170200 2.770600
26.211200 2.240700
26.252100 1.644900
26.293100 1.787200
26.334100 1.992400
26.375100 2.044000
26.416100 2.032200
26.457100 1.886200
26.498100 1.852400
26.539000 2.028000
26.580000 2.268500
26.621000 2.170600
26.662000 2.372900
26.703000 2.736000
26.744000 2.264700
26.784900 1.651600
26.825900 1.678400
26.866900 1.979900
26.907900 2.607800
26.948900 2.476400
26.989900 2.095300
27.030900 1.806600
27.071800 1.916000
27.112800 2.364300
27.153800 2.659500
27.194800 2.380700
27.235800 1.898100
27.276800 2.040300
27.317800 2.191200
27.358700 1.969200
27.399700 1.670300
27.440700 1.656800
27.481700 1.894300
27.522700 2.345700
27.563700 2.528700
27.604600 2.329400
27.645600 2.333400
27.686600 2.469900
27.727600 2.459000
27.768600 2.494700
27.809600 2.301000
27.850600 1.755700
27.891500 1.163400
27.932500 0.993400
27.973500 1.062000
28.014500 1.521300
28.055500 2.210800
28.096500 3.131800
28.137500 3.517700
28.178400 3.183200
28.219400 2.522100
28.260400 2.197500
28.301400 2.084500
28.342400 1.762100
28.383400 1.930700
28.424300 2.250800
28.465300 2.075500
28.506300 1.615400
28.547300 1.408400
28.588300 1.517700
28.629300 1.652300
28.670300 1.779100
28.711200 1.680400
28.752200 1.314100
28.793200 1.300400
28.834200 1.762800
28.875200 1.916000
28.916200 1.953500
28.957100 2.257400
28.998100 1.926700
29.039100 1.662400
29.080100 2.251200
29.121100 2.591600
29.162100 2.336700
29.203100 1.879000
29.244000 1.858300
29.285000 2.184800
29.326000 2.460200
29.367000 2.424600
29.408000 2.204300
29.449000 1.832900
29.490000 1.107500
29.530900 0.965300
29.571900 1.587300
29.612900 1.993400
29.653900 1.855200
29.694900 1.451200
29.735900 1.267700
29.776800 1.484100
29.817800 1.650200
29.858800 1.743300
29.899800 1.704100
29.940800 1.487200
29.981800 1.128900
30.022800 1.180400
30.063700 1.676500
30.104700 1.785800
30.145700 1.575700
30.186700 1.431200
30.227700 1.271900
30.268700 1.179200
30.309700 1.557200
30.350600 1.835100
30.391600 1.885300
30.432600 1.725600
30.473600 1.108100
30.514600 0.782200
30.555600 0.709300
30.596500 0.742800
30.637500 0.579400
30.678500 0.265400
30.719500 0.279800
30.760500 0.859200
30.801500 1.457300
30.842500 1.031700
30.883400 0.691700
30.924400 0.963800
30.965400 0.937000
31.006400 0.748800
31.047400 0.731800
31.088400 0.438900
31.129400 0.248000
31.170300 0.176200
31.211300 0.112500
31.252300 0.237500
31.293300 0.267000
31.334300 0.107100
31.375300 0.081600
31.416200 0.185300
31.457200 0.243400
31.498200 0.142100
31.539200 0.060800
31.580200 0.094800
31.621200 0.091200
31.662200 0.120100
31.703100 0.198800
31.744100 0.115400
31.785100 0.021500
31.826100 0.020100
31.867100 0.076600
31.908100 0.092000
31.949000 0.033400
31.990000 0.008600
32.031000 0.043800
32.072000 0.115300
32.113000 0.093600
32.154000 0.028100
32.195000 0.047300
32.235900 0.141200
32.276900 0.167700
32.317900 0.078400
32.358900 0.014500
32.399900 0.020000
32.440900 0.076900
32.481900 0.091800
32.522800 0.032900
32.563800 0.003500
32.604800 0.000600
32.645800 0.009800
32.686800 0.057000
32.727800 0.098800
32.768700 0.051600
32.809700 0.011000
32.850700 0.030700
32.891700 0.089900
32.932700 0.080000
32.973700 0.027500
33.014700 0.047500
33.055600 0.097900
33.096600 0.062900
33.137600 0.012500
33.178600 0.006200
33.219600 0.020300
33.260600 0.022200
33.301600 0.007300
33.342500 0.000700
33.383500 0.000000
33.424500 0.000100
33.465500 0.002700
33.506500 0.021200
33.547500 0.048400
33.588400 0.033700
33.629400 0.012200
33.670400 0.020500
33.711400 0.022400
33.752400 0.007500
33.793400 0.000700
33.834400 0.000000
33.875300 0.000000
33.916300 0.000000
33.957300 0.000000
33.998300 0.000000
34.039300 0.000000
34.080300 0.000000
34.121300 0.000000
34.162200 0.000000
34.203200 0.000000
34.244200 0.000000
34.285200 0.000000
34.326200 0.000000
34.367200 0.000000
34.408100 0.000000
34.449100 0.000000
34.490100 0.000000
34.531100 0.000000
34.572100 0.000000
34.613100 0.000000
34.654100 0.000000
34.695000 0.000000
34.736000 0.000000
34.777000 0.000000
34.818000 0.000000
34.859000 0.000000
34.900000 0.000000
34.940900 0.000000
34.981900 0.000000
35.022900 0.000000
35.063900 0.000000
35.104900 0.000000
35.145900 0.000000
35.186900 0.000000
35.227800 0.000000
35.268800 0.000000
35.309800 0.000000
35.350800 0.000000
35.391800 0.000000
35.432800 0.000000
35.473800 0.000000
35.514700 0.000000
35.555700 0.000000
35.596700 0.000000
35.637700 0.000000
35.678700 0.000000
35.719700 0.000000
35.760600 0.000000
35.801600 0.000000
35.842600 0.000000
35.883600 0.000000
35.924600 0.000000
35.965600 0.000000
36.006600 0.000000
36.047500 0.000000
36.088500 0.000000
36.129500 0.000000
36.170500 0.000000
36.211500 0.000000
36.252500 0.000000
36.293500 0.000000
36.334400 0.000000
36.375400 0.000000
36.416400 0.000000
36.457400 0.000000
36.498400 0.000000
36.539400 0.000000
36.580300 0.000000
36.621300 0.000000
36.662300 0.000000
36.703300 0.000000
36.744300 0.000000
36.785300 0.000000
36.826300 0.000000
36.867200 0.000000
36.908200 0.000000
36.949200 0.000000
36.990200 0.000000
37.031200 0.000000
37.072200 0.000000
37.113200 0.000000
37.154100 0.000000
37.195100 0.000000
37.236100 0.000000
37.277100 0.000000
37.318100 0.000000
37.359100 0.000000
37.400000 0.000000
e
