set title 'mp-669334 - Density of States'
set xlabel 'Energy (eV)'
set ylabel 'DOS (states/eV)'
set grid
set xrange [-10:10]
set yrange [0:1399.584]
set xzeroaxis lt -1
set terminal png size 800,600
set output 'mp-669334_dos_gnuplot.png'
plot '-' using 1:2 with lines title 'DOS'
-11.918200 0.000000
-11.905700 0.000000
-11.893100 0.000000
-11.880600 0.000000
-11.868100 0.000000
-11.855500 0.000000
-11.843000 0.000000
-11.830400 0.000000
-11.817900 0.000000
-11.805300 0.000000
-11.792800 0.000000
-11.780200 0.000000
-11.767700 0.000000
-11.755100 0.000000
-11.742600 0.000000
-11.730000 0.000000
-11.717500 0.000000
-11.704900 0.000000
-11.692400 0.000000
-11.679900 0.000000
-11.667300 0.000000
-11.654800 0.000000
-11.642200 0.000000
-11.629700 0.000000
-11.617100 0.000000
-11.604600 0.000000
-11.592000 0.000000
-11.579500 0.000000
-11.566900 0.000000
-11.554400 0.000000
-11.541800 0.000000
-11.529300 0.000000
-11.516800 0.000000
-11.504200 0.000000
-11.491700 0.000000
-11.479100 0.000000
-11.466600 0.000000
-11.454000 0.000000
-11.441500 0.000000
-11.428900 0.000000
-11.416400 0.000000
-11.403800 0.000000
-11.391300 0.000000
-11.378700 0.000000
-11.366200 0.000000
-11.353600 0.000000
-11.341100 0.000000
-11.328600 0.000000
-11.316000 0.000000
-11.303500 0.000000
-11.290900 0.000000
-11.278400 0.000000
-11.265800 0.000000
-11.253300 0.000000
-11.240700 0.000000
-11.228200 0.000000
-11.215600 0.000000
-11.203100 0.000000
-11.190500 0.000000
-11.178000 0.000000
-11.165500 0.000000
-11.152900 0.000000
-11.140400 0.000000
-11.127800 0.000000
-11.115300 0.000000
-11.102700 0.000000
-11.090200 0.000000
-11.077600 0.000000
-11.065100 0.000000
-11.052500 0.000000
-11.040000 0.000000
-11.027400 0.000000
-11.014900 0.000000
-11.002300 0.000000
-10.989800 0.000000
-10.977300 0.000000
-10.964700 0.000000
-10.952200 0.000000
-10.939600 0.000000
-10.927100 0.000000
-10.914500 0.000000
-10.902000 0.000000
-10.889400 0.000000
-10.876900 0.000000
-10.864300 0.000000
-10.851800 0.000000
-10.839200 0.000000
-10.826700 0.000000
-10.814200 0.000000
-10.801600 0.000000
-10.789100 0.000000
-10.776500 0.041400
-10.764000 1.020300
-10.751400 3.173600
-10.738900 6.363800
-10.726300 10.408700
-10.713800 15.273100
-10.701200 21.299000
-10.688700 25.445700
-10.676100 27.417800
-10.663600 29.666300
-10.651100 31.111700
-10.638500 31.787600
-10.626000 31.518400
-10.613400 30.242500
-10.600900 31.258100
-10.588300 32.273700
-10.575800 33.289300
-10.563200 34.304800
-10.550700 35.325500
-10.538100 36.409800
-10.525600 37.578500
-10.513000 38.820800
-10.500500 40.147400
-10.487900 41.605500
-10.475400 43.149400
-10.462900 44.706700
-10.450300 46.253000
-10.437800 47.778100
-10.425200 49.277900
-10.412700 50.770400
-10.400100 52.262900
-10.387600 53.755400
-10.375000 55.247900
-10.362500 56.740400
-10.349900 60.139100
-10.337400 70.326900
-10.324800 96.592000
-10.312300 122.973000
-10.299800 159.664400
-10.287200 199.210200
-10.274700 225.990900
-10.262100 254.759100
-10.249600 280.350500
-10.237000 334.600300
-10.224500 475.308600
-10.211900 510.341200
-10.199400 587.031100
-10.186800 373.107200
-10.174300 0.000000
-10.161700 0.000000
-10.149200 0.000000
-10.136600 0.000000
-10.124100 0.000000
-10.111600 0.000000
-10.099000 0.000000
-10.086500 0.000000
-10.073900 0.000000
-10.061400 0.000000
-10.048800 0.000000
-10.036300 0.000000
-10.023700 0.000000
-10.011200 0.000000
-9.998600 0.000000
-9.986100 0.000000
-9.973500 0.000000
-9.961000 0.000000
-9.948500 0.000000
-9.935900 0.000000
-9.923400 0.000000
-9.910800 0.000000
-9.898300 0.000000
-9.885700 0.000000
-9.873200 0.000000
-9.860600 0.000000
-9.848100 0.000000
-9.835500 0.000000
-9.823000 0.000000
-9.810400 0.000000
-9.797900 0.000000
-9.785300 0.000000
-9.772800 0.000000
-9.760300 0.000000
-9.747700 0.000000
-9.735200 0.000000
-9.722600 0.000000
-9.710100 0.000000
-9.697500 0.000000
-9.685000 0.000000
-9.672400 0.000000
-9.659900 0.000000
-9.647300 0.000000
-9.634800 0.000000
-9.622200 0.000000
-9.609700 0.000000
-9.597200 0.000000
-9.584600 0.000000
-9.572100 0.000000
-9.559500 0.000000
-9.547000 0.000000
-9.534400 0.000000
-9.521900 0.000000
-9.509300 0.000000
-9.496800 0.000000
-9.484200 0.000000
-9.471700 0.000000
-9.459100 0.000000
-9.446600 0.000000
-9.434000 0.000000
-9.421500 0.000000
-9.409000 0.000000
-9.396400 0.000000
-9.383900 0.000000
-9.371300 0.000000
-9.358800 0.000000
-9.346200 0.000000
-9.333700 0.000000
-9.321100 0.000000
-9.308600 0.000000
-9.296000 0.000000
-9.283500 0.000000
-9.270900 0.000000
-9.258400 0.000000
-9.245900 0.000000
-9.233300 0.000000
-9.220800 0.000000
-9.208200 0.000000
-9.195700 0.000000
-9.183100 0.000000
-9.170600 0.000000
-9.158000 0.000000
-9.145500 0.000000
-9.132900 0.000000
-9.120400 0.000000
-9.107800 0.000000
-9.095300 0.000000
-9.082700 0.000000
-9.070200 0.000000
-9.057700 0.000000
-9.045100 0.000000
-9.032600 0.000000
-9.020000 0.000000
-9.007500 0.000000
-8.994900 0.000000
-8.982400 0.000000
-8.969800 0.000000
-8.957300 0.000000
-8.944700 0.000000
-8.932200 0.000000
-8.919600 0.000000
-8.907100 0.000000
-8.894600 0.000000
-8.882000 0.000000
-8.869500 0.000000
-8.856900 0.000000
-8.844400 0.000000
-8.831800 0.000000
-8.819300 0.000000
-8.806700 0.000000
-8.794200 0.000000
-8.781600 0.000000
-8.769100 0.000000
-8.756500 0.000000
-8.744000 0.000000
-8.731500 0.000000
-8.718900 0.000000
-8.706400 0.000000
-8.693800 0.000000
-8.681300 0.000000
-8.668700 0.000000
-8.656200 0.000000
-8.643600 0.000000
-8.631100 0.000000
-8.618500 0.000000
-8.606000 0.000000
-8.593400 0.000000
-8.580900 0.000000
-8.568300 0.000000
-8.555800 0.000000
-8.543300 0.000000
-8.530700 0.000000
-8.518200 0.000000
-8.505600 0.000000
-8.493100 0.000000
-8.480500 0.000000
-8.468000 0.000000
-8.455400 0.000000
-8.442900 0.000000
-8.430300 0.000000
-8.417800 0.000000
-8.405200 0.000000
-8.392700 0.000000
-8.380200 0.000000
-8.367600 0.000000
-8.355100 0.000000
-8.342500 0.000000
-8.330000 0.000000
-8.317400 0.000000
-8.304900 0.000000
-8.292300 0.000000
-8.279800 0.000000
-8.267200 0.000000
-8.254700 0.000000
-8.242100 0.000000
-8.229600 0.000000
-8.217000 0.000000
-8.204500 0.000000
-8.192000 0.000000
-8.179400 0.000000
-8.166900 0.000000
-8.154300 0.000000
-8.141800 0.000000
-8.129200 0.000000
-8.116700 0.000000
-8.104100 0.000000
-8.091600 0.000000
-8.079000 0.000000
-8.066500 0.000000
-8.053900 0.000000
-8.041400 0.000000
-8.028900 0.000000
-8.016300 0.000000
-8.003800 0.000000
-7.991200 0.000000
-7.978700 0.000000
-7.966100 0.000000
-7.953600 0.000000
-7.941000 0.000000
-7.928500 0.000000
-7.915900 0.000000
-7.903400 0.000000
-7.890800 0.000000
-7.878300 0.000000
-7.865700 0.000000
-7.853200 0.000000
-7.840700 0.000000
-7.828100 0.000000
-7.815600 0.000000
-7.803000 0.000000
-7.790500 0.000000
-7.777900 0.000000
-7.765400 0.000000
-7.752800 0.000000
-7.740300 0.000000
-7.727700 0.000000
-7.715200 0.000000
-7.702600 0.000000
-7.690100 0.000000
-7.677600 0.000000
-7.665000 0.000000
-7.652500 0.000000
-7.639900 0.000000
-7.627400 0.000000
-7.614800 0.000000
-7.602300 0.000000
-7.589700 0.000000
-7.577200 0.000000
-7.564600 0.000000
-7.552100 0.000000
-7.539500 0.000000
-7.527000 0.000000
-7.514400 0.000000
-7.501900 0.000000
-7.489400 0.000000
-7.476800 0.000000
-7.464300 0.000000
-7.451700 0.000000
-7.439200 0.000000
-7.426600 0.000000
-7.414100 0.000000
-7.401500 0.000000
-7.389000 0.000000
-7.376400 0.000000
-7.363900 0.000000
-7.351300 0.000000
-7.338800 0.000000
-7.326300 0.000000
-7.313700 0.000000
-7.301200 0.000000
-7.288600 0.000000
-7.276100 0.000000
-7.263500 0.000000
-7.251000 0.000000
-7.238400 0.000000
-7.225900 0.000000
-7.213300 0.000000
-7.200800 0.000000
-7.188200 0.000000
-7.175700 0.000000
-7.163100 0.000000
-7.150600 0.000000
-7.138100 0.000000
-7.125500 0.000000
-7.113000 0.000000
-7.100400 0.000000
-7.087900 0.000000
-7.075300 0.000000
-7.062800 0.000000
-7.050200 0.000000
-7.037700 0.000000
-7.025100 0.000000
-7.012600 0.000000
-7.000000 0.000000
-6.987500 0.000000
-6.975000 0.000000
-6.962400 0.000000
-6.949900 0.000000
-6.937300 0.000000
-6.924800 0.000000
-6.912200 0.000000
-6.899700 0.000000
-6.887100 0.000000
-6.874600 0.000000
-6.862000 0.000000
-6.849500 0.000000
-6.836900 0.000000
-6.824400 0.000000
-6.811900 0.000000
-6.799300 0.000000
-6.786800 0.000000
-6.774200 0.000000
-6.761700 0.000000
-6.749100 0.000000
-6.736600 0.000000
-6.724000 0.000000
-6.711500 0.000000
-6.698900 0.000000
-6.686400 0.000000
-6.673800 0.000000
-6.661300 0.000000
-6.648700 0.000000
-6.636200 0.000000
-6.623700 0.000000
-6.611100 0.000000
-6.598600 0.000000
-6.586000 0.000000
-6.573500 0.000000
-6.560900 0.000000
-6.548400 0.000000
-6.535800 0.000000
-6.523300 0.000000
-6.510700 0.000000
-6.498200 36.393500
-6.485600 201.149100
-6.473100 383.291100
-6.460600 655.541400
-6.448000 559.767600
-6.435500 338.481900
-6.422900 250.022900
-6.410400 230.864100
-6.397800 473.262700
-6.385300 710.406500
-6.372700 660.654600
-6.360200 459.597600
-6.347600 273.037700
-6.335100 582.892100
-6.322500 1272.349400
-6.310000 1253.282600
-6.297400 748.063900
-6.284900 1026.370100
-6.272400 501.083500
-6.259800 313.140200
-6.247300 270.698800
-6.234700 206.717000
-6.222200 171.651400
-6.209600 139.036900
-6.197100 55.163000
-6.184500 0.000000
-6.172000 0.000000
-6.159400 0.000000
-6.146900 0.000000
-6.134300 0.000000
-6.121800 0.000000
-6.109300 0.000000
-6.096700 0.000000
-6.084200 0.000000
-6.071600 0.000000
-6.059100 0.000000
-6.046500 0.000000
-6.034000 0.000000
-6.021400 0.000000
-6.008900 0.000000
-5.996300 0.000000
-5.983800 0.000000
-5.971200 0.000000
-5.958700 0.000000
-5.946100 0.000000
-5.933600 0.000000
-5.921100 0.000000
-5.908500 0.000000
-5.896000 0.000000
-5.883400 0.000000
-5.870900 0.000000
-5.858300 0.000000
-5.845800 0.000000
-5.833200 0.000000
-5.820700 0.000000
-5.808100 0.000000
-5.795600 0.000000
-5.783000 0.000000
-5.770500 0.000000
-5.758000 0.000000
-5.745400 0.000000
-5.732900 0.000000
-5.720300 0.000000
-5.707800 0.000000
-5.695200 0.000000
-5.682700 0.000000
-5.670100 0.000000
-5.657600 0.000000
-5.645000 0.000000
-5.632500 0.000000
-5.619900 0.000000
-5.607400 0.000000
-5.594800 0.000000
-5.582300 0.000000
-5.569800 0.000000
-5.557200 0.000000
-5.544700 0.000000
-5.532100 0.000000
-5.519600 0.000000
-5.507000 0.000000
-5.494500 0.000000
-5.481900 0.000000
-5.469400 0.000000
-5.456800 0.000000
-5.444300 0.000000
-5.431700 0.000000
-5.419200 0.000000
-5.406700 0.000000
-5.394100 0.000000
-5.381600 0.000000
-5.369000 0.000000
-5.356500 0.000000
-5.343900 0.000000
-5.331400 0.000000
-5.318800 0.000000
-5.306300 0.000000
-5.293700 0.000000
-5.281200 0.000000
-5.268600 0.000000
-5.256100 0.000000
-5.243600 0.000000
-5.231000 0.000000
-5.218500 0.000000
-5.205900 0.000000
-5.193400 0.000000
-5.180800 0.000000
-5.168300 0.000000
-5.155700 0.000000
-5.143200 0.000000
-5.130600 0.000000
-5.118100 0.000000
-5.105500 0.000000
-5.093000 0.000000
-5.080400 0.000000
-5.067900 0.000000
-5.055400 0.000000
-5.042800 0.000000
-5.030300 0.000000
-5.017700 0.000000
-5.005200 0.000000
-4.992600 0.000000
-4.980100 0.000000
-4.967500 0.000000
-4.955000 0.000000
-4.942400 0.000000
-4.929900 0.000000
-4.917300 0.000000
-4.904800 0.000000
-4.892300 0.000000
-4.879700 0.000000
-4.867200 0.000000
-4.854600 0.000000
-4.842100 0.000000
-4.829500 0.000000
-4.817000 0.000000
-4.804400 0.000000
-4.791900 0.000000
-4.779300 0.000000
-4.766800 0.000000
-4.754200 0.000000
-4.741700 0.000000
-4.729100 0.000000
-4.716600 0.000000
-4.704100 0.000000
-4.691500 0.000000
-4.679000 0.000000
-4.666400 0.000000
-4.653900 0.000000
-4.641300 0.000000
-4.628800 0.000000
-4.616200 0.000000
-4.603700 0.000000
-4.591100 0.000000
-4.578600 0.000000
-4.566000 0.000000
-4.553500 0.000000
-4.541000 0.000000
-4.528400 0.000000
-4.515900 0.000000
-4.503300 0.000000
-4.490800 0.000000
-4.478200 0.000000
-4.465700 0.000000
-4.453100 0.000000
-4.440600 0.000000
-4.428000 0.000000
-4.415500 0.000000
-4.402900 0.000000
-4.390400 0.000000
-4.377800 0.000000
-4.365300 0.000000
-4.352800 0.000000
-4.340200 0.000000
-4.327700 0.000000
-4.315100 0.000000
-4.302600 0.000000
-4.290000 0.000000
-4.277500 0.000000
-4.264900 0.000000
-4.252400 0.000000
-4.239800 0.000000
-4.227300 0.000000
-4.214700 0.000000
-4.202200 0.000000
-4.189700 0.000000
-4.177100 0.000000
-4.164600 0.000000
-4.152000 0.000000
-4.139500 0.000000
-4.126900 0.000000
-4.114400 0.000000
-4.101800 0.000000
-4.089300 0.000000
-4.076700 0.000000
-4.064200 0.000000
-4.051600 0.000000
-4.039100 0.000000
-4.026500 0.000000
-4.014000 0.000000
-4.001500 0.000000
-3.988900 0.000000
-3.976400 0.000000
-3.963800 0.000000
-3.951300 0.000000
-3.938700 0.000000
-3.926200 0.000000
-3.913600 0.000000
-3.901100 0.000000
-3.888500 0.000000
-3.876000 0.000000
-3.863400 0.000000
-3.850900 0.000000
-3.838400 0.000000
-3.825800 0.000000
-3.813300 0.000000
-3.800700 0.000000
-3.788200 0.000000
-3.775600 0.000000
-3.763100 0.000000
-3.750500 0.000000
-3.738000 0.000000
-3.725400 0.000000
-3.712900 0.000000
-3.700300 0.000000
-3.687800 0.000000
-3.675200 0.000000
-3.662700 0.000000
-3.650200 0.000000
-3.637600 0.000000
-3.625100 0.000000
-3.612500 0.000000
-3.600000 0.000000
-3.587400 0.000000
-3.574900 0.000000
-3.562300 0.000000
-3.549800 0.000000
-3.537200 0.000000
-3.524700 0.000000
-3.512100 0.000000
-3.499600 0.000000
-3.487100 0.000000
-3.474500 0.000000
-3.462000 0.000000
-3.449400 0.000000
-3.436900 0.000000
-3.424300 0.000000
-3.411800 0.000000
-3.399200 0.000000
-3.386700 0.000000
-3.374100 0.000000
-3.361600 0.000000
-3.349000 0.000000
-3.336500 0.000000
-3.324000 0.000000
-3.311400 0.000000
-3.298900 0.000000
-3.286300 0.000000
-3.273800 0.000000
-3.261200 0.000000
-3.248700 0.000000
-3.236100 0.000000
-3.223600 0.000000
-3.211000 0.000000
-3.198500 0.000000
-3.185900 0.000000
-3.173400 0.000000
-3.160800 0.000000
-3.148300 0.000000
-3.135800 0.000000
-3.123200 0.000000
-3.110700 0.000000
-3.098100 0.000000
-3.085600 0.000000
-3.073000 0.000000
-3.060500 0.000000
-3.047900 0.000000
-3.035400 0.000000
-3.022800 0.000000
-3.010300 0.000000
-2.997700 0.000000
-2.985200 0.000000
-2.972700 0.000000
-2.960100 0.000000
-2.947600 0.000000
-2.935000 0.000000
-2.922500 0.000000
-2.909900 0.000000
-2.897400 0.000000
-2.884800 0.000000
-2.872300 0.000000
-2.859700 0.000000
-2.847200 0.000000
-2.834600 0.000000
-2.822100 0.000000
-2.809500 0.000000
-2.797000 0.000000
-2.784500 0.000000
-2.771900 0.000000
-2.759400 0.000000
-2.746800 0.000000
-2.734300 0.000000
-2.721700 0.000000
-2.709200 0.000000
-2.696600 0.000000
-2.684100 0.000000
-2.671500 0.000000
-2.659000 0.000000
-2.646400 0.000000
-2.633900 0.000000
-2.621400 0.000000
-2.608800 0.000000
-2.596300 0.000000
-2.583700 0.000000
-2.571200 0.000000
-2.558600 0.000000
-2.546100 24.175100
-2.533500 47.592800
-2.521000 39.588700
-2.508400 68.966200
-2.495900 92.865900
-2.483300 93.259700
-2.470800 100.000400
-2.458200 105.569700
-2.445700 98.467300
-2.433200 90.777800
-2.420600 82.294700
-2.408100 78.145900
-2.395500 71.345200
-2.383000 64.991300
-2.370400 59.131400
-2.357900 54.010800
-2.345300 49.664400
-2.332800 42.837600
-2.320200 41.061200
-2.307700 40.883200
-2.295100 41.181200
-2.282600 42.350100
-2.270100 45.030200
-2.257500 49.220400
-2.245000 59.516900
-2.232400 74.584100
-2.219900 76.030500
-2.207300 69.593100
-2.194800 68.590900
-2.182200 40.470400
-2.169700 40.612500
-2.157100 62.821100
-2.144600 23.220400
-2.132000 23.531900
-2.119500 23.742900
-2.106900 23.854500
-2.094400 30.844700
-2.081900 14.213800
-2.069300 13.957000
-2.056800 13.700100
-2.044200 13.443300
-2.031700 22.413900
-2.019100 11.724900
-2.006600 7.608900
-1.994000 7.424000
-1.981500 11.112700
-1.968900 11.926400
-1.956400 7.648500
-1.943800 7.993000
-1.931300 5.672300
-1.918800 3.529300
-1.906200 1.386200
-1.893700 0.000000
-1.881100 0.000000
-1.868600 0.000000
-1.856000 0.000000
-1.843500 0.000000
-1.830900 0.000000
-1.818400 0.000000
-1.805800 0.000000
-1.793300 0.000000
-1.780700 0.000000
-1.768200 0.000000
-1.755600 0.000000
-1.743100 0.000000
-1.730600 0.000000
-1.718000 0.000000
-1.705500 0.000000
-1.692900 0.000000
-1.680400 0.000000
-1.667800 0.000000
-1.655300 0.000000
-1.642700 5.682500
-1.630200 4.328600
-1.617600 13.578300
-1.605100 14.988200
-1.592500 16.148500
-1.580000 17.543200
-1.567500 19.790500
-1.554900 28.792500
-1.542400 31.955300
-1.529800 26.036200
-1.517300 28.447700
-1.504700 25.810400
-1.492200 37.444400
-1.479600 48.510800
-1.467100 42.215200
-1.454500 37.998300
-1.442000 36.970600
-1.429400 38.352300
-1.416900 39.734000
-1.404400 41.115700
-1.391800 42.497300
-1.379300 43.879000
-1.366700 45.260700
-1.354200 52.369800
-1.341600 42.578200
-1.329100 38.187400
-1.316500 47.940600
-1.304000 34.315600
-1.291400 34.952700
-1.278900 30.298100
-1.266300 30.705900
-1.253800 38.246300
-1.241200 26.692500
-1.228700 34.770800
-1.216200 30.925600
-1.203600 35.723600
-1.191100 29.427300
-1.178500 38.821700
-1.166000 26.660900
-1.153400 19.201200
-1.140900 16.141700
-1.128300 16.521600
-1.115800 16.946100
-1.103200 18.014400
-1.090700 17.995700
-1.078100 18.609200
-1.065600 19.267000
-1.053100 20.599800
-1.040500 22.647300
-1.028000 22.881000
-1.015400 23.778800
-1.002900 24.712400
-0.990300 26.360300
-0.977800 26.701300
-0.965200 27.040000
-0.952700 27.378300
-0.940100 27.712800
-0.927600 28.045000
-0.915000 28.371700
-0.902500 28.695500
-0.889900 29.010900
-0.877400 29.314800
-0.864900 29.597200
-0.852300 29.875800
-0.839800 30.154500
-0.827200 30.433100
-0.814700 30.711800
-0.802100 30.990500
-0.789600 31.269100
-0.777000 31.547800
-0.764500 31.826500
-0.751900 32.105100
-0.739400 33.114100
-0.726800 34.619500
-0.714300 36.491300
-0.701800 39.211900
-0.689200 42.668100
-0.676700 44.893500
-0.664100 49.480200
-0.651600 51.863800
-0.639000 55.452100
-0.626500 57.564400
-0.613900 61.277500
-0.601400 62.192600
-0.588800 66.346500
-0.576300 65.598600
-0.563700 68.969300
-0.551200 68.315400
-0.538600 70.174800
-0.526100 72.378200
-0.513600 71.858700
-0.501000 72.010900
-0.488500 70.588400
-0.475900 70.587400
-0.463400 70.543200
-0.450800 69.329700
-0.438300 69.302800
-0.425700 68.164900
-0.413200 68.170500
-0.400600 68.572600
-0.388100 68.353700
-0.375500 68.894000
-0.363000 68.610900
-0.350500 69.760000
-0.337900 71.383100
-0.325400 72.147400
-0.312800 73.750800
-0.300300 75.585200
-0.287700 76.569400
-0.275200 78.069800
-0.262600 78.281100
-0.250100 75.804600
-0.237500 73.851600
-0.225000 73.064000
-0.212400 67.968200
-0.199900 66.124200
-0.187300 69.082600
-0.174800 69.900700
-0.162300 61.387500
-0.149700 54.150000
-0.137200 55.471700
-0.124600 53.030200
-0.112100 51.547500
-0.099500 49.059000
-0.087000 47.023100
-0.074400 45.027200
-0.061900 43.612400
-0.049300 42.383200
-0.036800 41.033800
-0.024200 39.695200
-0.011700 38.382000
0.000800 37.073900
0.013400 35.771900
0.025900 34.592600
0.038500 33.494500
0.051000 32.498000
0.063600 31.553800
0.076100 30.859700
0.088700 30.297500
0.101200 29.874300
0.113800 30.344100
0.126300 30.209600
0.138900 31.015900
0.151400 32.207300
0.164000 32.454000
0.176500 33.793200
0.189000 35.378200
0.201600 36.317400
0.214100 37.268900
0.226700 38.063300
0.239200 38.873500
0.251800 41.543900
0.264300 47.075200
0.276900 49.904300
0.289400 54.015400
0.302000 57.150100
0.314500 64.470300
0.327100 68.634600
0.339600 71.406600
0.352100 74.955300
0.364700 78.249600
0.377200 85.769500
0.389800 90.097200
0.402300 93.123600
0.414900 101.167300
0.427400 107.532800
0.440000 109.100500
0.452500 104.118400
0.465100 108.698400
0.477600 118.800900
0.490200 112.517700
0.502700 138.662200
0.515200 134.672400
0.527800 104.761300
0.540300 149.941000
0.552900 94.694700
0.565400 91.751600
0.578000 93.425100
0.590500 102.090800
0.603100 89.166600
0.615600 92.458700
0.628200 113.175400
0.640700 107.260100
0.653300 117.078900
0.665800 108.792400
0.678400 127.066300
0.690900 133.994700
0.703400 125.762100
0.716000 125.364800
0.728500 119.038800
0.741100 120.937400
0.753600 118.989500
0.766200 116.344100
0.778700 111.207100
0.791300 104.701900
0.803800 98.606800
0.816400 91.971600
0.828900 85.628200
0.841500 78.374500
0.854000 68.985300
0.866500 60.920100
0.879100 54.863200
0.891600 53.753200
0.904200 57.336900
0.916700 56.963600
0.929300 44.345700
0.941800 43.587200
0.954400 72.704800
0.966900 38.944800
0.979500 9.697800
0.992000 0.000000
1.004600 0.000000
1.017100 0.000000
1.029700 0.000000
1.042200 0.000000
1.054700 0.000000
1.067300 0.000000
1.079800 0.000000
1.092400 0.000000
1.104900 0.000000
1.117500 0.000000
1.130000 0.000000
1.142600 0.000000
1.155100 0.000000
1.167700 0.000000
1.180200 0.000000
1.192800 0.000000
1.205300 0.000000
1.217800 0.000000
1.230400 0.000000
1.242900 0.000000
1.255500 0.000000
1.268000 0.000000
1.280600 0.000000
1.293100 0.000000
1.305700 0.000000
1.318200 0.000000
1.330800 0.000000
1.343300 0.000000
1.355900 0.000000
1.368400 0.000000
1.381000 0.000000
1.393500 0.000000
1.406000 0.000000
1.418600 0.000000
1.431100 0.000000
1.443700 0.000000
1.456200 0.000000
1.468800 0.000000
1.481300 0.000000
1.493900 0.000000
1.506400 0.000000
1.519000 0.000000
1.531500 0.000000
1.544100 0.000000
1.556600 0.000000
1.569100 0.000000
1.581700 0.000000
1.594200 0.000000
1.606800 0.000000
1.619300 0.000000
1.631900 0.000000
1.644400 0.000000
1.657000 0.000000
1.669500 0.000000
1.682100 0.000000
1.694600 0.000000
1.707200 0.000000
1.719700 0.000000
1.732300 0.000000
1.744800 0.000000
1.757300 0.000000
1.769900 0.000000
1.782400 0.000000
1.795000 0.000000
1.807500 0.000000
1.820100 0.000000
1.832600 0.000000
1.845200 0.000000
1.857700 0.000000
1.870300 0.000000
1.882800 0.000000
1.895400 0.000000
1.907900 0.000000
1.920400 0.000000
1.933000 0.000000
1.945500 0.000000
1.958100 0.000000
1.970600 0.000000
1.983200 0.000000
1.995700 0.000000
2.008300 0.000000
2.020800 0.000000
2.033400 0.000000
2.045900 0.000000
2.058500 0.000000
2.071000 0.000000
2.083600 0.000000
2.096100 0.000000
2.108600 0.000000
2.121200 0.000000
2.133700 0.000000
2.146300 0.000000
2.158800 0.000000
2.171400 0.000000
2.183900 0.000000
2.196500 0.000000
2.209000 0.000000
2.221600 0.000000
2.234100 0.000000
2.246700 0.000000
2.259200 0.000000
2.271700 0.000000
2.284300 0.000000
2.296800 0.000000
2.309400 0.000000
2.321900 0.000000
2.334500 0.000000
2.347000 0.000000
2.359600 0.000000
2.372100 0.000000
2.384700 0.000000
2.397200 0.000000
2.409800 0.000000
2.422300 0.000000
2.434800 0.000000
2.447400 0.000000
2.459900 0.000000
2.472500 0.000000
2.485000 0.000000
2.497600 0.000000
2.510100 0.000000
2.522700 0.000000
2.535200 0.000000
2.547800 0.000000
2.560300 0.000000
2.572900 0.000000
2.585400 0.000000
2.598000 0.000000
2.610500 0.000000
2.623000 0.000000
2.635600 0.000000
2.648100 0.000000
2.660700 0.000000
2.673200 0.000000
2.685800 0.000000
2.698300 0.000000
2.710900 0.000000
2.723400 0.000000
2.736000 0.000000
2.748500 0.000000
2.761100 0.000000
2.773600 0.000000
2.786100 0.000000
2.798700 0.000000
2.811200 0.000000
2.823800 0.000000
2.836300 0.000000
2.848900 0.000000
2.861400 0.000000
2.874000 0.000000
2.886500 0.000000
2.899100 0.000000
2.911600 0.000000
2.924200 0.000000
2.936700 0.000000
2.949300 0.000000
2.961800 0.000000
2.974300 0.000000
2.986900 0.000000
2.999400 0.000000
3.012000 0.000000
3.024500 0.000000
3.037100 0.000000
3.049600 0.000000
3.062200 0.000000
3.074700 0.000000
3.087300 0.000000
3.099800 0.000000
3.112400 0.000000
3.124900 0.000000
3.137400 0.000000
3.150000 0.000000
3.162500 0.000000
3.175100 0.000000
3.187600 0.000000
3.200200 0.000000
3.212700 0.000000
3.225300 0.000000
3.237800 0.000000
3.250400 0.000000
3.262900 0.000000
3.275500 0.000000
3.288000 0.000000
3.300600 0.000000
3.313100 0.000000
3.325600 0.000000
3.338200 0.000000
3.350700 0.000000
3.363300 0.000600
3.375800 0.009800
3.388400 0.880700
3.400900 1.788200
3.413500 2.774300
3.426000 2.913400
3.438600 4.906500
3.451100 5.118600
3.463700 5.330700
3.476200 6.505800
3.488700 7.731200
3.501300 8.016400
3.513800 8.302000
3.526400 10.846900
3.538900 11.220800
3.551500 11.594800
3.564000 14.407200
3.576600 14.834200
3.589100 16.520100
3.601700 19.541400
3.614200 21.349300
3.626800 21.861200
3.639300 22.373100
3.651900 22.885100
3.664400 23.397000
3.676900 23.983700
3.689500 24.719900
3.702000 25.672000
3.714600 26.753800
3.727100 27.859000
3.739700 29.053800
3.752200 30.473700
3.764800 32.000900
3.777300 33.560400
3.789900 35.255700
3.802400 37.093800
3.815000 38.960800
3.827500 40.827800
3.840000 42.834000
3.852600 45.045300
3.865100 55.045800
3.877700 61.695500
3.890200 60.080900
3.902800 61.856700
3.915300 62.369000
3.927900 57.802600
3.940400 59.161700
3.953000 62.696300
3.965500 61.294900
3.978100 63.169800
3.990600 63.466100
4.003200 64.428600
4.015700 58.904900
4.028200 61.014800
4.040800 60.297500
4.053300 57.242400
4.065900 54.960400
4.078400 51.192000
4.091000 46.633300
4.103500 43.634800
4.116100 39.635600
4.128600 37.902100
4.141200 37.881500
4.153700 35.350400
4.166300 32.819300
4.178800 32.936900
4.191300 29.271200
4.203900 25.705700
4.216400 26.847300
4.229000 20.128400
4.241500 59.035500
4.254100 19.514500
4.266600 14.022100
4.279200 17.512200
4.291700 12.362100
4.304300 6.364100
4.316800 0.000000
4.329400 0.000000
4.341900 0.000000
4.354400 0.000000
4.367000 0.000000
4.379500 0.000000
4.392100 0.000000
4.404600 0.000000
4.417200 0.000000
4.429700 0.000000
4.442300 0.000000
4.454800 0.000000
4.467400 0.000000
4.479900 0.000000
4.492500 0.000000
4.505000 0.000000
4.517600 0.000000
4.530100 0.000000
4.542600 0.000000
4.555200 0.000000
4.567700 0.000000
4.580300 0.000000
4.592800 0.000000
4.605400 0.000000
4.617900 0.000000
4.630500 0.000000
4.643000 0.000000
4.655600 0.000000
4.668100 0.000000
4.680700 0.000000
4.693200 0.000000
4.705700 0.000000
4.718300 0.000000
4.730800 0.000000
4.743400 0.000000
4.755900 0.000000
4.768500 0.000000
4.781000 0.000000
4.793600 0.000000
4.806100 0.000000
4.818700 0.000000
4.831200 0.000000
4.843800 0.000000
4.856300 0.000000
4.868900 0.000000
4.881400 0.000000
4.893900 0.000000
4.906500 0.000000
4.919000 0.000000
4.931600 0.000000
4.944100 0.000000
4.956700 0.000000
4.969200 0.000000
4.981800 0.000000
4.994300 0.000000
5.006900 0.000000
5.019400 0.000000
5.032000 0.000000
5.044500 0.000000
5.057000 0.000000
5.069600 0.000000
5.082100 0.000000
5.094700 0.000000
5.107200 0.000000
5.119800 0.000000
5.132300 0.000000
5.144900 0.000000
5.157400 0.000000
5.170000 0.000000
5.182500 0.000000
5.195100 0.000000
5.207600 0.000000
5.220200 0.000000
5.232700 0.000000
5.245200 0.000000
5.257800 0.000000
5.270300 0.000000
5.282900 0.000000
5.295400 0.000000
5.308000 0.000000
5.320500 0.000000
5.333100 0.000000
5.345600 0.000000
5.358200 0.000000
5.370700 0.000000
5.383300 0.000000
5.395800 0.000000
5.408300 0.000000
5.420900 0.000000
5.433400 0.000000
5.446000 0.000000
5.458500 0.000000
5.471100 0.000000
5.483600 0.006100
5.496200 0.061600
5.508700 0.177700
5.521300 0.311600
5.533800 0.447600
5.546400 0.583600
5.558900 0.719500
5.571500 0.855500
5.584000 0.991400
5.596500 1.127400
5.609100 1.263400
5.621600 1.399300
5.634200 1.535300
5.646700 1.671200
5.659300 1.807200
5.671800 1.943200
5.684400 2.079100
5.696900 2.215100
5.709500 2.351000
5.722000 2.487000
5.734600 2.622900
5.747100 2.758900
5.759600 2.894900
5.772200 3.030800
5.784700 3.166800
5.797300 3.302700
5.809800 3.438700
5.822400 3.574700
5.834900 3.710600
5.847500 3.846600
5.860000 3.982500
5.872600 4.118500
5.885100 4.254500
5.897700 4.390400
5.910200 4.526400
5.922800 4.662300
5.935300 4.798300
5.947800 4.934300
5.960400 5.070200
5.972900 6.512400
5.985500 9.258800
5.998000 11.642700
6.010600 13.287400
6.023100 15.297600
6.035700 17.051300
6.048200 18.103300
6.060800 19.975900
6.073300 21.018300
6.085900 21.848300
6.098400 22.705700
6.110900 24.674600
6.123500 25.442800
6.136000 26.130200
6.148600 27.314600
6.161100 27.750000
6.173700 28.135900
6.186200 28.521800
6.198800 29.476900
6.211300 29.931900
6.223900 30.792800
6.236400 31.091200
6.249000 31.974900
6.261500 32.916900
6.274000 33.754600
6.286600 34.056700
6.299100 34.358900
6.311700 34.661000
6.324200 34.905100
6.336800 35.080300
6.349300 35.255500
6.361900 35.430700
6.374400 35.569800
6.387000 35.633400
6.399500 39.432900
6.412100 39.317800
6.424600 43.118200
6.437200 46.975700
6.449700 50.430400
6.462200 48.332000
6.474800 45.943200
6.487300 48.938800
6.499900 44.572200
6.512400 41.228000
6.525000 45.700200
6.537500 42.884000
6.550100 39.227900
6.562600 35.869400
6.575200 50.424100
6.587700 34.769300
6.600300 42.290500
6.612800 30.136500
6.625300 29.950800
6.637900 28.469600
6.650400 28.442000
6.663000 30.697800
6.675500 29.488100
6.688100 24.648600
6.700600 24.524900
6.713200 24.522100
6.725700 25.695100
6.738300 29.289100
6.750800 29.260200
6.763400 29.723800
6.775900 31.740500
6.788500 31.057300
6.801000 29.437500
6.813500 31.425200
6.826100 29.493000
6.838600 30.987200
6.851200 28.498300
6.863700 26.382100
6.876300 25.422800
6.888800 28.221700
6.901400 27.006200
6.913900 29.645000
6.926500 28.046000
6.939000 25.915400
6.951600 24.712800
6.964100 22.772100
6.976600 25.620800
6.989200 24.695200
7.001700 27.925500
7.014300 26.544900
7.026800 24.504800
7.039400 22.585000
7.051900 21.065800
7.064500 24.607500
7.077000 30.858700
7.089600 38.469900
7.102100 40.901400
7.114700 46.845000
7.127200 52.903600
7.139800 65.779700
7.152300 66.339700
7.164800 64.781400
7.177400 62.980100
7.189900 57.074100
7.202500 60.816700
7.215000 54.417300
7.227600 58.654400
7.240100 76.059700
7.252700 54.291700
7.265200 45.419200
7.277800 60.741900
7.290300 72.002400
7.302900 44.961100
7.315400 45.269200
7.327900 47.023100
7.340500 50.115300
7.353000 58.891100
7.365600 63.212300
7.378100 56.908800
7.390700 57.092300
7.403200 58.960100
7.415800 49.633900
7.428300 59.602500
7.440900 67.251700
7.453400 56.253000
7.466000 54.897600
7.478500 52.761400
7.491100 53.252000
7.503600 56.543800
7.516100 58.054500
7.528700 58.550900
7.541200 61.188900
7.553800 64.816300
7.566300 66.192400
7.578900 68.211400
7.591400 71.534300
7.604000 66.969500
7.616500 63.465700
7.629100 64.596200
7.641600 67.994700
7.654200 70.454000
7.666700 71.609300
7.679200 72.944600
7.691800 73.985600
7.704300 82.475400
7.716900 79.270100
7.729400 79.212200
7.742000 72.691900
7.754500 75.661800
7.767100 72.607200
7.779600 66.026700
7.792200 60.262300
7.804700 60.595500
7.817300 64.246300
7.829800 60.165200
7.842300 64.977900
7.854900 60.143100
7.867400 67.588100
7.880000 69.745100
7.892500 64.828700
7.905100 57.306600
7.917600 52.009100
7.930200 44.914600
7.942700 43.411200
7.955300 50.576200
7.967800 53.180500
7.980400 52.845700
7.992900 54.578200
8.005500 54.295000
8.018000 53.950200
8.030500 55.403000
8.043100 57.007100
8.055600 54.948800
8.068200 58.744800
8.080700 58.954700
8.093300 58.367500
8.105800 57.713700
8.118400 57.059900
8.130900 56.406200
8.143500 55.735300
8.156000 56.562600
8.168600 57.346800
8.181100 56.070200
8.193600 54.370100
8.206200 52.630600
8.218700 53.403500
8.231300 51.929700
8.243800 98.130000
8.256400 48.691500
8.268900 50.397800
8.281500 52.955000
8.294000 52.070800
8.306600 52.208200
8.319100 49.654100
8.331700 49.420500
8.344200 46.227200
8.356800 38.761900
8.369300 30.810600
8.381800 26.220800
8.394400 24.044700
8.406900 23.672200
8.419500 22.833900
8.432000 22.495500
8.444600 21.352600
8.457100 20.954100
8.469700 20.555500
8.482200 20.157000
8.494800 18.741700
8.507300 18.298100
8.519900 17.854600
8.532400 17.411000
8.544900 16.967500
8.557500 16.523900
8.570000 16.080300
8.582600 15.636800
8.595100 15.128500
8.607700 14.826200
8.620200 15.388900
8.632800 15.175600
8.645300 15.070500
8.657900 14.992300
8.670400 14.803300
8.683000 14.241300
8.695500 14.486200
8.708100 19.516400
8.720600 18.569200
8.733100 17.496700
8.745700 23.330300
8.758200 20.249200
8.770800 17.311600
8.783300 15.010600
8.795900 36.077800
8.808400 19.025000
8.821000 22.731300
8.833500 20.121700
8.846100 22.200700
8.858600 17.929800
8.871200 17.978800
8.883700 17.994100
8.896200 21.212100
8.908800 21.980500
8.921300 22.119900
8.933900 22.167000
8.946400 23.548200
8.959000 23.930100
8.971500 24.771900
8.984100 28.772200
8.996600 28.570400
9.009200 29.254000
9.021700 29.005800
9.034300 29.849100
9.046800 37.934800
9.059400 36.494500
9.071900 38.146100
9.084400 35.538900
9.097000 33.105100
9.109500 53.339700
9.122100 37.856900
9.134600 36.288600
9.147200 37.661300
9.159700 38.214000
9.172300 40.530900
9.184800 37.728600
9.197400 42.225500
9.209900 39.769800
9.222500 41.590800
9.235000 45.115000
9.247500 65.797300
9.260100 51.784100
9.272600 53.498800
9.285200 52.069000
9.297700 51.547700
9.310300 50.369400
9.322800 48.496800
9.335400 47.313000
9.347900 43.046300
9.360500 41.997200
9.373000 45.524100
9.385600 53.793700
9.398100 54.392700
9.410700 57.128000
9.423200 58.833800
9.435700 54.251400
9.448300 50.210100
9.460800 52.939000
9.473400 56.771300
9.485900 50.438000
9.498500 50.886700
9.511000 46.519900
9.523600 44.942000
9.536100 46.145900
9.548700 73.327300
9.561200 48.789900
9.573800 53.316100
9.586300 54.920500
9.598800 49.635700
9.611400 48.614400
9.623900 47.413900
9.636500 46.234200
9.649000 49.204000
9.661600 55.965000
9.674100 84.768000
9.686700 50.787300
9.699200 53.801900
9.711800 52.047200
9.724300 45.316500
9.736900 45.325800
9.749400 44.724200
9.761900 45.642700
9.774500 47.152300
9.787000 47.228900
9.799600 45.068300
9.812100 43.756200
9.824700 53.193300
9.837200 43.307600
9.849800 45.264100
9.862300 47.670600
9.874900 50.259200
9.887400 49.855800
9.900000 52.932700
9.912500 53.619200
9.925100 55.306500
9.937600 58.525000
9.950100 54.579800
9.962700 52.103100
9.975200 46.907500
9.987800 42.302000
10.000300 36.482900
10.012900 37.943600
10.025400 41.120700
10.038000 43.068900
10.050500 42.241300
10.063100 47.070300
10.075600 44.558100
10.088200 39.006700
10.100700 41.649400
10.113200 56.177000
10.125800 41.442700
10.138300 40.469200
10.150900 42.258400
10.163400 44.047700
10.176000 36.421700
10.188500 36.855200
10.201100 44.326800
10.213600 38.899500
10.226200 36.228400
10.238700 36.905800
10.251300 36.214500
10.263800 40.780300
10.276400 35.136500
10.288900 35.592500
10.301400 36.747500
10.314000 38.554200
10.326500 41.032500
10.339100 39.211700
10.351600 38.395200
10.364200 33.915300
10.376700 34.476300
10.389300 35.098100
10.401800 35.719900
10.414400 33.379600
10.426900 33.701300
10.439500 34.023000
10.452000 34.345000
10.464500 34.704400
10.477100 34.390000
10.489600 32.607700
10.502200 32.725400
10.514700 32.843200
10.527300 32.961100
10.539800 31.523600
10.552400 29.800700
10.564900 29.712700
10.577500 29.631800
10.590000 29.579600
10.602600 29.541100
10.615100 29.531100
10.627700 29.531100
10.640200 27.994800
10.652700 27.866800
10.665300 26.566300
10.677800 26.424900
10.690400 26.290300
10.702900 26.176800
10.715500 25.090400
10.728000 25.535700
10.740600 26.100900
10.753100 26.697900
10.765700 25.736900
10.778200 25.990700
10.790800 26.925500
10.803300 26.819700
10.815800 23.830400
10.828400 23.928000
10.840900 24.566800
10.853500 25.187100
10.866000 25.806400
10.878600 23.417300
10.891100 23.604500
10.903700 23.773600
10.916200 23.916000
10.928800 21.107200
10.941300 23.492100
10.953900 22.908700
10.966400 22.325300
10.979000 21.741900
10.991500 21.132200
11.004000 20.512700
11.016600 19.899900
11.029100 20.035300
11.041700 19.732200
11.054200 19.429100
11.066800 19.730100
11.079300 19.432400
11.091900 19.134600
11.104400 19.456700
11.117000 19.158100
11.129500 18.859500
11.142100 18.561000
11.154600 18.262400
11.167100 18.789800
11.179700 18.477800
11.192200 18.173100
11.204800 17.869700
11.217300 17.582900
11.229900 18.104000
11.242400 17.816100
11.255000 17.530500
11.267500 17.244800
11.280100 17.505300
11.292600 17.208700
11.305200 16.912700
11.317700 18.063600
11.330300 17.337400
11.342800 17.150000
11.355300 16.839300
11.367900 16.528500
11.380400 15.829800
11.393000 15.525400
11.405500 15.454800
11.418100 15.172300
11.430600 14.889800
11.443200 14.626900
11.455700 14.370000
11.468300 13.380900
11.480800 13.138700
11.493400 13.102000
11.505900 12.864500
11.518400 12.241900
11.531000 11.562200
11.543500 11.343100
11.556100 11.160500
11.568600 10.988500
11.581200 10.386800
11.593700 9.633200
11.606300 9.479900
11.618800 9.326600
11.631400 9.173200
11.643900 9.019900
11.656500 8.866500
11.669000 8.174700
11.681500 7.173400
11.694100 7.027100
11.706600 5.965200
11.719200 5.814700
11.731700 5.794900
11.744300 5.798400
11.756800 5.801900
11.769400 4.826900
11.781900 5.135800
11.794500 5.462600
11.807000 5.881700
11.819600 6.345200
11.832100 6.855400
11.844700 7.365600
11.857200 2.966600
11.869700 3.060900
11.882300 3.155100
11.894800 3.249300
11.907400 3.403800
11.919900 3.638600
11.932500 3.873500
11.945000 2.434500
11.957600 2.590800
11.970100 2.747100
11.982700 1.434000
11.995200 1.537100
12.007800 1.640100
12.020300 1.743100
12.032800 1.846100
12.045400 0.000000
12.057900 0.000000
12.070500 0.000000
12.083000 0.000000
12.095600 0.000000
12.108100 0.000000
12.120700 0.000000
12.133200 0.000000
12.145800 0.000000
12.158300 0.000000
12.170900 0.000000
12.183400 0.000000
12.196000 0.000000
12.208500 0.000000
12.221000 0.000000
12.233600 0.000000
12.246100 0.000000
12.258700 0.000000
12.271200 0.000000
12.283800 0.000000
12.296300 0.000000
12.308900 0.000000
12.321400 0.000000
12.334000 0.000000
12.346500 0.000000
12.359100 0.000000
12.371600 0.000000
12.384100 0.000000
12.396700 0.000000
12.409200 0.000000
12.421800 0.000000
12.434300 0.000000
12.446900 0.000000
12.459400 0.000000
12.472000 0.000000
12.484500 0.000000
12.497100 0.000000
12.509600 0.000000
12.522200 0.000000
12.534700 0.000000
12.547300 0.000000
12.559800 0.000000
12.572300 0.000000
12.584900 0.000000
12.597400 0.000000
12.610000 0.000000
12.622500 0.000000
12.635100 0.000000
12.647600 0.000000
12.660200 0.000000
12.672700 0.000000
12.685300 0.000000
12.697800 0.000000
12.710400 0.000000
12.722900 0.000000
12.735400 0.000000
12.748000 0.000000
12.760500 0.000000
12.773100 0.000000
12.785600 0.000000
12.798200 0.000000
12.810700 0.000000
12.823300 0.000000
12.835800 0.000000
12.848400 0.000000
12.860900 0.000000
12.873500 0.000000
12.886000 0.000000
12.898600 0.000000
12.911100 0.000000
12.923600 0.000000
12.936200 0.000000
12.948700 0.000000
12.961300 0.000000
12.973800 0.000000
12.986400 0.000000
12.998900 0.000000
13.011500 0.000000
13.024000 0.000000
13.036600 0.000000
13.049100 0.000000
13.061700 0.000000
13.074200 0.000000
13.086700 0.000000
13.099300 0.000000
13.111800 0.000000
13.124400 0.000000
13.136900 0.000000
13.149500 0.000000
13.162000 0.000000
13.174600 0.000000
e
