set title 'mp-1187637 - Density of States'
set xlabel 'Energy (eV)'
set ylabel 'DOS (states/eV)'
set grid
set xrange [-10:10]
set yrange [0:5.878]
set xzeroaxis lt -1
set terminal png size 800,600
set output 'mp-1187637_dos_gnuplot.png'
plot '-' using 1:2 with lines title 'DOS'
-26.157400 0.000000
-26.118300 0.000000
-26.079200 0.000000
-26.040100 0.000000
-26.001000 0.000000
-25.961900 0.000000
-25.922800 0.000000
-25.883700 0.000000
-25.844600 0.000000
-25.805500 0.000000
-25.766400 0.000000
-25.727200 0.000000
-25.688100 0.000000
-25.649000 0.000000
-25.609900 0.000000
-25.570800 0.000000
-25.531700 0.000000
-25.492600 0.000000
-25.453500 0.000000
-25.414400 0.000000
-25.375300 0.000000
-25.336200 0.000000
-25.297100 0.000000
-25.257900 0.000000
-25.218800 0.000000
-25.179700 0.000000
-25.140600 0.000000
-25.101500 0.000000
-25.062400 0.000000
-25.023300 0.000000
-24.984200 0.000000
-24.945100 0.000000
-24.906000 0.000000
-24.866900 0.000000
-24.827700 0.000000
-24.788600 0.000000
-24.749500 0.000000
-24.710400 0.000000
-24.671300 0.000000
-24.632200 0.000000
-24.593100 0.000000
-24.554000 0.000000
-24.514900 0.000000
-24.475800 0.000000
-24.436700 0.000000
-24.397600 0.000000
-24.358400 0.000000
-24.319300 0.000000
-24.280200 0.000000
-24.241100 0.000000
-24.202000 0.000000
-24.162900 0.000000
-24.123800 0.000000
-24.084700 0.000000
-24.045600 0.000000
-24.006500 0.000000
-23.967400 0.000000
-23.928300 0.000000
-23.889100 0.000000
-23.850000 0.000000
-23.810900 0.000000
-23.771800 0.000000
-23.732700 0.000000
-23.693600 0.000000
-23.654500 0.000000
-23.615400 0.000000
-23.576300 0.000000
-23.537200 0.000000
-23.498100 0.000000
-23.459000 0.000000
-23.419800 0.000000
-23.380700 0.000000
-23.341600 0.000000
-23.302500 0.000000
-23.263400 0.000000
-23.224300 0.000000
-23.185200 0.000000
-23.146100 0.000000
-23.107000 0.000000
-23.067900 0.000000
-23.028800 0.000000
-22.989700 0.000000
-22.950500 0.000000
-22.911400 0.000000
-22.872300 0.000000
-22.833200 0.000000
-22.794100 0.000000
-22.755000 0.000000
-22.715900 0.000200
-22.676800 0.007200
-22.637700 0.092500
-22.598600 0.462300
-22.559500 1.062900
-22.520400 1.469200
-22.481200 1.673000
-22.442100 1.879800
-22.403000 2.051700
-22.363900 2.071800
-22.324800 1.920100
-22.285700 1.796400
-22.246600 1.693300
-22.207500 1.496100
-22.168400 1.492900
-22.129300 1.353100
-22.090200 1.203700
-22.051100 1.198400
-22.011900 0.983000
-21.972800 0.793400
-21.933700 0.617000
-21.894600 0.388500
-21.855500 0.261000
-21.816400 0.210400
-21.777300 0.216100
-21.738200 0.254500
-21.699100 0.307200
-21.660000 0.380100
-21.620900 0.434300
-21.581800 0.568600
-21.542600 0.750800
-21.503500 0.869800
-21.464400 0.989000
-21.425300 1.238500
-21.386200 1.507600
-21.347100 1.737400
-21.308000 2.073300
-21.268900 2.539900
-21.229800 3.083000
-21.190700 3.193600
-21.151600 3.182600
-21.112500 3.530900
-21.073300 3.624200
-21.034200 3.616400
-20.995100 3.420800
-20.956000 2.889700
-20.916900 2.273100
-20.877800 1.965300
-20.838700 1.710900
-20.799600 1.410500
-20.760500 1.132000
-20.721400 0.813300
-20.682300 0.514500
-20.643200 0.237600
-20.604000 0.059700
-20.564900 0.006600
-20.525800 0.000300
-20.486700 0.000000
-20.447600 0.000000
-20.408500 0.000000
-20.369400 0.000000
-20.330300 0.000000
-20.291200 0.000000
-20.252100 0.000000
-20.213000 0.000000
-20.173900 0.000000
-20.134700 0.000000
-20.095600 0.000000
-20.056500 0.000000
-20.017400 0.000000
-19.978300 0.000000
-19.939200 0.000000
-19.900100 0.000000
-19.861000 0.000000
-19.821900 0.000000
-19.782800 0.000000
-19.743700 0.000000
-19.704600 0.000000
-19.665400 0.000000
-19.626300 0.000000
-19.587200 0.000000
-19.548100 0.000000
-19.509000 0.000000
-19.469900 0.000000
-19.430800 0.000000
-19.391700 0.000000
-19.352600 0.000000
-19.313500 0.000000
-19.274400 0.000000
-19.235300 0.000000
-19.196100 0.000000
-19.157000 0.000000
-19.117900 0.000000
-19.078800 0.000000
-19.039700 0.000000
-19.000600 0.000000
-18.961500 0.000000
-18.922400 0.000000
-18.883300 0.000000
-18.844200 0.000000
-18.805100 0.000000
-18.766000 0.000000
-18.726800 0.000000
-18.687700 0.000000
-18.648600 0.000000
-18.609500 0.000000
-18.570400 0.000000
-18.531300 0.000000
-18.492200 0.000000
-18.453100 0.000000
-18.414000 0.000000
-18.374900 0.000000
-18.335800 0.000000
-18.296700 0.000000
-18.257500 0.001000
-18.218400 0.015500
-18.179300 0.097400
-18.140200 0.308700
-18.101100 0.655900
-18.062000 1.278400
-18.022900 2.572500
-17.983800 4.801300
-17.944700 7.958700
-17.905600 10.213000
-17.866500 8.531700
-17.827400 5.176100
-17.788200 3.372600
-17.749100 2.652600
-17.710000 2.217400
-17.670900 2.032100
-17.631800 2.000100
-17.592700 2.211200
-17.553600 2.934500
-17.514500 3.699700
-17.475400 3.868200
-17.436300 3.265700
-17.397200 2.506200
-17.358100 1.660500
-17.318900 0.876600
-17.279800 0.513500
-17.240700 0.376200
-17.201600 0.308800
-17.162500 0.248200
-17.123400 0.183600
-17.084300 0.114700
-17.045200 0.046600
-17.006100 0.009800
-16.967000 0.000900
-16.927900 0.000000
-16.888800 0.000000
-16.849600 0.000000
-16.810500 0.000000
-16.771400 0.000000
-16.732300 0.000000
-16.693200 0.000000
-16.654100 0.000000
-16.615000 0.000000
-16.575900 0.000000
-16.536800 0.000000
-16.497700 0.000000
-16.458600 0.000000
-16.419500 0.000000
-16.380300 0.000000
-16.341200 0.000000
-16.302100 0.000000
-16.263000 0.000000
-16.223900 0.000000
-16.184800 0.000000
-16.145700 0.000000
-16.106600 0.000000
-16.067500 0.000000
-16.028400 0.000000
-15.989300 0.000000
-15.950200 0.000000
-15.911000 0.000000
-15.871900 0.000000
-15.832800 0.000000
-15.793700 0.000000
-15.754600 0.000000
-15.715500 0.000000
-15.676400 0.000000
-15.637300 0.000000
-15.598200 0.000000
-15.559100 0.000000
-15.520000 0.000000
-15.480900 0.000000
-15.441700 0.000000
-15.402600 0.000000
-15.363500 0.000000
-15.324400 0.000000
-15.285300 0.000000
-15.246200 0.000000
-15.207100 0.000000
-15.168000 0.000000
-15.128900 0.000000
-15.089800 0.000000
-15.050700 0.000000
-15.011600 0.000000
-14.972400 0.000000
-14.933300 0.000000
-14.894200 0.000000
-14.855100 0.000000
-14.816000 0.000000
-14.776900 0.000000
-14.737800 0.000000
-14.698700 0.000000
-14.659600 0.000000
-14.620500 0.000000
-14.581400 0.000000
-14.542300 0.000000
-14.503100 0.000000
-14.464000 0.000000
-14.424900 0.000000
-14.385800 0.000000
-14.346700 0.000000
-14.307600 0.000000
-14.268500 0.000000
-14.229400 0.000000
-14.190300 0.000000
-14.151200 0.000000
-14.112100 0.000000
-14.073000 0.000000
-14.033800 0.000000
-13.994700 0.000000
-13.955600 0.000000
-13.916500 0.000000
-13.877400 0.000000
-13.838300 0.000000
-13.799200 0.000000
-13.760100 0.000000
-13.721000 0.000000
-13.681900 0.000000
-13.642800 0.000000
-13.603700 0.000000
-13.564500 0.000000
-13.525400 0.000000
-13.486300 0.000000
-13.447200 0.000000
-13.408100 0.000000
-13.369000 0.000000
-13.329900 0.000000
-13.290800 0.000000
-13.251700 0.000000
-13.212600 0.000000
-13.173500 0.000000
-13.134400 0.000000
-13.095200 0.000000
-13.056100 0.000000
-13.017000 0.000000
-12.977900 0.000000
-12.938800 0.000000
-12.899700 0.000000
-12.860600 0.000000
-12.821500 0.000000
-12.782400 0.000000
-12.743300 0.000000
-12.704200 0.000000
-12.665100 0.000000
-12.625900 0.000000
-12.586800 0.000000
-12.547700 0.000000
-12.508600 0.000000
-12.469500 0.000000
-12.430400 0.000000
-12.391300 0.000000
-12.352200 0.000000
-12.313100 0.000000
-12.274000 0.000000
-12.234900 0.000000
-12.195800 0.000000
-12.156600 0.000000
-12.117500 0.000000
-12.078400 0.000000
-12.039300 0.000000
-12.000200 0.000000
-11.961100 0.000000
-11.922000 0.000000
-11.882900 0.000000
-11.843800 0.000000
-11.804700 0.000000
-11.765600 0.000000
-11.726500 0.000000
-11.687300 0.000000
-11.648200 0.000000
-11.609100 0.000000
-11.570000 0.000000
-11.530900 0.000000
-11.491800 0.000000
-11.452700 0.000000
-11.413600 0.000000
-11.374500 0.000000
-11.335400 0.000000
-11.296300 0.000000
-11.257200 0.000000
-11.218000 0.000000
-11.178900 0.000000
-11.139800 0.000000
-11.100700 0.000000
-11.061600 0.000000
-11.022500 0.000000
-10.983400 0.000000
-10.944300 0.000000
-10.905200 0.000000
-10.866100 0.000000
-10.827000 0.000000
-10.787900 0.000000
-10.748700 0.000000
-10.709600 0.000000
-10.670500 0.000000
-10.631400 0.000000
-10.592300 0.000000
-10.553200 0.000000
-10.514100 0.000000
-10.475000 0.000000
-10.435900 0.000000
-10.396800 0.000000
-10.357700 0.000000
-10.318600 0.000000
-10.279400 0.000000
-10.240300 0.000000
-10.201200 0.000000
-10.162100 0.000000
-10.123000 0.000000
-10.083900 0.000000
-10.044800 0.000000
-10.005700 0.000000
-9.966600 0.000000
-9.927500 0.000000
-9.888400 0.000000
-9.849300 0.000000
-9.810100 0.000000
-9.771000 0.000000
-9.731900 0.000000
-9.692800 0.000000
-9.653700 0.000000
-9.614600 0.000000
-9.575500 0.000000
-9.536400 0.000000
-9.497300 0.000000
-9.458200 0.000000
-9.419100 0.000000
-9.380000 0.000000
-9.340800 0.000000
-9.301700 0.000000
-9.262600 0.000000
-9.223500 0.000000
-9.184400 0.000000
-9.145300 0.000000
-9.106200 0.000000
-9.067100 0.000000
-9.028000 0.000000
-8.988900 0.000000
-8.949800 0.000000
-8.910700 0.000000
-8.871500 0.000000
-8.832400 0.000000
-8.793300 0.000000
-8.754200 0.000000
-8.715100 0.000000
-8.676000 0.000000
-8.636900 0.000000
-8.597800 0.000000
-8.558700 0.000000
-8.519600 0.000000
-8.480500 0.000000
-8.441400 0.000000
-8.402200 0.000000
-8.363100 0.000000
-8.324000 0.000000
-8.284900 0.000000
-8.245800 0.000000
-8.206700 0.000000
-8.167600 0.000000
-8.128500 0.000000
-8.089400 0.000000
-8.050300 0.000000
-8.011200 0.000000
-7.972100 0.000000
-7.932900 0.000000
-7.893800 0.000000
-7.854700 0.000000
-7.815600 0.000000
-7.776500 0.000000
-7.737400 0.000000
-7.698300 0.000000
-7.659200 0.000000
-7.620100 0.000000
-7.581000 0.000000
-7.541900 0.000000
-7.502800 0.000000
-7.463600 0.000000
-7.424500 0.000000
-7.385400 0.000000
-7.346300 0.000000
-7.307200 0.000000
-7.268100 0.000000
-7.229000 0.000000
-7.189900 0.000000
-7.150800 0.000000
-7.111700 0.000000
-7.072600 0.000000
-7.033500 0.000000
-6.994300 0.000000
-6.955200 0.000000
-6.916100 0.000000
-6.877000 0.000000
-6.837900 0.000000
-6.798800 0.000000
-6.759700 0.000000
-6.720600 0.000000
-6.681500 0.000000
-6.642400 0.000000
-6.603300 0.000000
-6.564200 0.000000
-6.525000 0.000000
-6.485900 0.000000
-6.446800 0.000000
-6.407700 0.000000
-6.368600 0.000000
-6.329500 0.000000
-6.290400 0.000000
-6.251300 0.000000
-6.212200 0.000000
-6.173100 0.000000
-6.134000 0.000000
-6.094800 0.000000
-6.055700 0.000000
-6.016600 0.000000
-5.977500 0.000000
-5.938400 0.000000
-5.899300 0.000000
-5.860200 0.000000
-5.821100 0.000000
-5.782000 0.000000
-5.742900 0.000000
-5.703800 0.000000
-5.664700 0.000000
-5.625500 0.000000
-5.586400 0.000000
-5.547300 0.000000
-5.508200 0.000000
-5.469100 0.000100
-5.430000 0.001600
-5.390900 0.012600
-5.351800 0.054800
-5.312700 0.117800
-5.273600 0.149600
-5.234500 0.221500
-5.195400 0.312400
-5.156200 0.307400
-5.117100 0.338100
-5.078000 0.524500
-5.038900 0.777400
-4.999800 0.924200
-4.960700 0.980900
-4.921600 1.181100
-4.882500 1.354200
-4.843400 1.439400
-4.804300 1.834500
-4.765200 2.289200
-4.726100 2.093700
-4.686900 1.687300
-4.647800 1.491900
-4.608700 1.540000
-4.569600 1.642200
-4.530500 1.432500
-4.491400 1.327400
-4.452300 1.564000
-4.413200 1.694800
-4.374100 1.536800
-4.335000 1.496900
-4.295900 1.734900
-4.256800 2.038400
-4.217600 1.939700
-4.178500 1.560700
-4.139400 1.449900
-4.100300 1.529500
-4.061200 1.724100
-4.022100 2.378500
-3.983000 2.755200
-3.943900 2.585700
-3.904800 2.689600
-3.865700 2.836800
-3.826600 2.528200
-3.787500 2.215300
-3.748300 2.379800
-3.709200 2.525300
-3.670100 2.290100
-3.631000 1.895700
-3.591900 1.680700
-3.552800 1.513200
-3.513700 1.193600
-3.474600 0.883700
-3.435500 0.748000
-3.396400 0.709800
-3.357300 0.656900
-3.318200 0.709400
-3.279000 0.911600
-3.239900 0.961000
-3.200800 0.868900
-3.161700 0.943200
-3.122600 1.158700
-3.083500 1.535600
-3.044400 1.698100
-3.005300 1.609500
-2.966200 1.887800
-2.927100 2.299200
-2.888000 2.345900
-2.848900 2.080900
-2.809700 1.907300
-2.770600 1.971000
-2.731500 1.876200
-2.692400 1.695500
-2.653300 1.812400
-2.614200 1.983400
-2.575100 2.001900
-2.536000 2.166700
-2.496900 2.411600
-2.457800 2.456500
-2.418700 2.528500
-2.379600 2.901900
-2.340400 3.093000
-2.301300 2.961300
-2.262200 3.175600
-2.223100 3.522200
-2.184000 3.397300
-2.144900 3.126900
-2.105800 2.815100
-2.066700 2.391700
-2.027600 2.021200
-1.988500 1.967900
-1.949400 1.923300
-1.910300 1.871900
-1.871100 1.897200
-1.832000 2.070300
-1.792900 2.766900
-1.753800 3.576000
-1.714700 3.886400
-1.675600 4.071200
-1.636500 4.181800
-1.597400 4.378800
-1.558300 4.572500
-1.519200 4.557300
-1.480100 4.555700
-1.441000 4.937800
-1.401800 5.343200
-1.362700 5.117100
-1.323600 4.197500
-1.284500 3.611300
-1.245400 3.448000
-1.206300 3.197000
-1.167200 2.619700
-1.128100 1.755500
-1.089000 0.952800
-1.049900 0.462400
-1.010800 0.171100
-0.971700 0.036300
-0.932500 0.003500
-0.893400 0.000100
-0.854300 0.000000
-0.815200 0.000000
-0.776100 0.000000
-0.737000 0.000000
-0.697900 0.000000
-0.658800 0.000000
-0.619700 0.000000
-0.580600 0.000000
-0.541500 0.000000
-0.502400 0.000000
-0.463200 0.000000
-0.424100 0.000000
-0.385000 0.000000
-0.345900 0.000000
-0.306800 0.000000
-0.267700 0.000000
-0.228600 0.000000
-0.189500 0.000000
-0.150400 0.000000
-0.111300 0.000000
-0.072200 0.000000
-0.033100 0.000000
0.006100 0.000000
0.045200 0.000000
0.084300 0.000000
0.123400 0.000000
0.162500 0.000000
0.201600 0.000000
0.240700 0.000000
0.279800 0.000000
0.318900 0.000000
0.358000 0.000000
0.397100 0.000000
0.436200 0.000000
0.475400 0.000000
0.514500 0.000000
0.553600 0.000000
0.592700 0.000000
0.631800 0.000000
0.670900 0.000000
0.710000 0.000000
0.749100 0.000000
0.788200 0.000000
0.827300 0.000000
0.866400 0.000000
0.905500 0.000000
0.944700 0.000000
0.983800 0.000000
1.022900 0.000000
1.062000 0.000000
1.101100 0.000000
1.140200 0.000000
1.179300 0.000000
1.218400 0.000000
1.257500 0.000000
1.296600 0.000000
1.335700 0.000000
1.374800 0.000000
1.414000 0.000000
1.453100 0.000000
1.492200 0.000000
1.531300 0.000000
1.570400 0.000000
1.609500 0.000000
1.648600 0.000000
1.687700 0.000000
1.726800 0.000000
1.765900 0.000000
1.805000 0.000000
1.844100 0.000000
1.883300 0.000000
1.922400 0.000000
1.961500 0.000000
2.000600 0.000000
2.039700 0.000000
2.078800 0.000000
2.117900 0.000000
2.157000 0.000000
2.196100 0.000000
2.235200 0.000000
2.274300 0.000000
2.313400 0.000000
2.352600 0.000000
2.391700 0.000000
2.430800 0.000000
2.469900 0.000000
2.509000 0.000000
2.548100 0.000000
2.587200 0.000000
2.626300 0.000000
2.665400 0.000000
2.704500 0.000000
2.743600 0.000000
2.782700 0.000000
2.821900 0.000000
2.861000 0.000000
2.900100 0.000000
2.939200 0.000000
2.978300 0.000000
3.017400 0.000000
3.056500 0.000000
3.095600 0.000000
3.134700 0.000000
3.173800 0.000000
3.212900 0.000000
3.252000 0.000000
3.291200 0.000000
3.330300 0.000000
3.369400 0.000000
3.408500 0.000000
3.447600 0.000000
3.486700 0.000000
3.525800 0.000000
3.564900 0.000000
3.604000 0.000000
3.643100 0.000000
3.682200 0.000000
3.721300 0.000000
3.760500 0.000000
3.799600 0.000000
3.838700 0.000000
3.877800 0.000000
3.916900 0.000000
3.956000 0.000000
3.995100 0.000000
4.034200 0.000000
4.073300 0.000000
4.112400 0.000000
4.151500 0.000000
4.190600 0.000000
4.229800 0.000000
4.268900 0.000000
4.308000 0.000000
4.347100 0.000000
4.386200 0.000000
4.425300 0.000000
4.464400 0.000000
4.503500 0.000000
4.542600 0.000000
4.581700 0.000000
4.620800 0.000000
4.659900 0.000000
4.699100 0.000000
4.738200 0.000000
4.777300 0.000000
4.816400 0.000000
4.855500 0.000000
4.894600 0.000000
4.933700 0.000000
4.972800 0.000000
5.011900 0.000000
5.051000 0.000000
5.090100 0.000000
5.129200 0.000000
5.168400 0.000000
5.207500 0.000000
5.246600 0.000000
5.285700 0.000000
5.324800 0.000000
5.363900 0.000000
5.403000 0.000000
5.442100 0.000000
5.481200 0.000000
5.520300 0.000000
5.559400 0.000000
5.598500 0.000000
5.637700 0.000000
5.676800 0.000000
5.715900 0.000000
5.755000 0.000000
5.794100 0.000000
5.833200 0.000000
5.872300 0.000000
5.911400 0.000000
5.950500 0.000000
5.989600 0.000000
6.028700 0.000000
6.067800 0.000000
6.107000 0.000000
6.146100 0.000000
6.185200 0.000000
6.224300 0.000000
6.263400 0.000000
6.302500 0.000000
6.341600 0.000000
6.380700 0.000000
6.419800 0.000000
6.458900 0.000000
6.498000 0.000000
6.537100 0.000000
6.576300 0.000000
6.615400 0.000000
6.654500 0.000000
6.693600 0.000000
6.732700 0.000000
6.771800 0.000000
6.810900 0.000000
6.850000 0.000000
6.889100 0.000000
6.928200 0.000000
6.967300 0.000000
7.006400 0.000000
7.045600 0.000000
7.084700 0.000000
7.123800 0.000000
7.162900 0.000000
7.202000 0.000000
7.241100 0.000000
7.280200 0.000000
7.319300 0.000000
7.358400 0.000000
7.397500 0.000000
7.436600 0.000000
7.475700 0.000000
7.514900 0.000000
7.554000 0.000000
7.593100 0.000000
7.632200 0.000000
7.671300 0.000000
7.710400 0.000000
7.749500 0.000000
7.788600 0.000000
7.827700 0.000000
7.866800 0.000000
7.905900 0.000000
7.945000 0.000000
7.984200 0.000000
8.023300 0.000300
8.062400 0.002700
8.101500 0.007500
8.140600 0.009700
8.179700 0.014100
8.218800 0.015700
8.257900 0.015200
8.297000 0.041400
8.336100 0.067300
8.375200 0.046700
8.414300 0.024000
8.453500 0.021500
8.492600 0.028000
8.531700 0.078000
8.570800 0.142000
8.609900 0.130000
8.649000 0.086700
8.688100 0.090400
8.727200 0.141300
8.766300 0.139300
8.805400 0.096000
8.844500 0.096400
8.883600 0.154300
8.922800 0.206300
8.961900 0.189600
9.001000 0.151300
9.040100 0.166000
9.079200 0.202800
9.118300 0.300500
9.157400 0.357600
9.196500 0.350300
9.235600 0.399200
9.274700 0.469100
9.313800 0.450000
9.352900 0.356400
9.392100 0.352700
9.431200 0.482300
9.470300 0.567500
9.509400 0.482900
9.548500 0.461800
9.587600 0.568600
9.626700 0.612200
9.665800 0.541600
9.704900 0.579900
9.744000 0.742700
9.783100 0.717100
9.822200 0.655600
9.861400 0.699400
9.900500 0.696600
9.939600 0.746500
9.978700 0.859400
10.017800 0.826200
10.056900 0.818300
10.096000 1.062900
10.135100 1.461600
10.174200 1.699200
10.213300 1.762800
10.252400 1.694900
10.291500 1.630600
10.330700 1.706100
10.369800 1.778400
10.408900 1.627800
10.448000 1.350900
10.487100 1.135900
10.526200 1.140400
10.565300 1.447900
10.604400 1.591700
10.643500 1.335400
10.682600 1.137500
10.721700 1.253300
10.760800 1.347400
10.800000 1.337600
10.839100 1.386700
10.878200 1.685400
10.917300 2.222700
10.956400 2.558500
10.995500 2.520500
11.034600 2.295900
11.073700 2.320300
11.112800 2.519300
11.151900 2.537200
11.191000 2.176800
11.230100 1.771900
11.269300 1.682000
11.308400 1.795600
11.347500 1.876900
11.386600 1.890100
11.425700 1.809600
11.464800 1.748500
11.503900 1.803300
11.543000 1.871900
11.582100 1.976500
11.621200 2.223300
11.660300 2.263900
11.699400 1.726300
11.738600 1.159200
11.777700 1.031600
11.816800 1.265200
11.855900 1.368300
11.895000 1.224900
11.934100 1.052600
11.973200 1.064500
12.012300 1.059400
12.051400 0.967000
12.090500 0.946800
12.129600 0.986200
12.168700 1.132600
12.207900 1.338500
12.247000 1.531400
12.286100 1.921200
12.325200 2.376400
12.364300 2.444900
12.403400 2.204900
12.442500 2.039100
12.481600 2.107900
12.520700 2.217100
12.559800 2.197200
12.598900 1.989000
12.638100 1.726900
12.677200 1.703400
12.716300 1.714000
12.755400 1.649400
12.794500 1.450100
12.833600 1.141000
12.872700 0.916100
12.911800 0.769000
12.950900 0.662500
12.990000 0.523900
13.029100 0.429500
13.068200 0.460700
13.107400 0.469500
13.146500 0.468800
13.185600 0.559200
13.224700 0.534700
13.263800 0.416000
13.302900 0.372300
13.342000 0.419500
13.381100 0.368000
13.420200 0.232400
13.459300 0.186400
13.498400 0.256600
13.537500 0.411900
13.576700 0.536700
13.615800 0.448100
13.654900 0.273100
13.694000 0.228600
13.733100 0.324400
13.772200 0.496400
13.811300 0.604900
13.850400 0.690900
13.889500 0.907800
13.928600 1.142400
13.967700 1.273800
14.006800 1.179800
14.046000 0.776100
14.085100 0.307400
14.124200 0.098400
14.163300 0.032900
14.202400 0.005900
14.241500 0.000400
14.280600 0.000000
14.319700 0.000200
14.358800 0.002000
14.397900 0.007000
14.437000 0.011500
14.476100 0.016500
14.515300 0.019100
14.554400 0.026700
14.593500 0.037600
14.632600 0.056000
14.671700 0.092900
14.710800 0.068500
14.749900 0.022900
14.789000 0.008800
14.828100 0.006000
14.867200 0.018800
14.906300 0.045300
14.945400 0.089700
14.984600 0.127800
15.023700 0.083100
15.062800 0.070300
15.101900 0.128000
15.141000 0.123600
15.180100 0.073000
15.219200 0.073000
15.258300 0.074000
15.297400 0.085400
15.336500 0.145400
15.375600 0.189700
15.414700 0.162600
15.453900 0.119700
15.493000 0.190500
15.532100 0.274500
15.571200 0.264600
15.610300 0.294600
15.649400 0.261900
15.688500 0.175400
15.727600 0.162100
15.766700 0.194000
15.805800 0.254500
15.844900 0.327700
15.884000 0.333800
15.923200 0.373700
15.962300 0.503700
16.001400 0.505500
16.040500 0.369600
16.079600 0.356700
16.118700 0.460200
16.157800 0.538000
16.196900 0.553000
16.236000 0.469300
16.275100 0.417300
16.314200 0.450900
16.353300 0.546300
16.392500 0.704400
16.431600 0.677500
16.470700 0.502300
16.509800 0.389100
16.548900 0.426400
16.588000 0.544900
16.627100 0.559200
16.666200 0.564000
16.705300 0.611000
16.744400 0.607400
16.783500 0.675600
16.822600 0.721300
16.861800 0.592500
16.900900 0.383900
16.940000 0.247900
16.979100 0.247500
17.018200 0.279800
17.057300 0.368100
17.096400 0.427300
17.135500 0.445700
17.174600 0.444700
17.213700 0.354100
17.252800 0.241000
17.291900 0.230400
17.331100 0.324500
17.370200 0.342200
17.409300 0.349700
17.448400 0.481000
17.487500 0.639100
17.526600 0.639400
17.565700 0.462900
17.604800 0.383500
17.643900 0.499900
17.683000 0.530600
17.722100 0.416800
17.761200 0.407400
17.800400 0.589600
17.839500 0.702200
17.878600 0.679200
17.917700 0.575000
17.956800 0.451500
17.995900 0.512000
18.035000 0.675100
18.074100 0.680500
18.113200 0.620100
18.152300 0.619400
18.191400 0.654700
18.230500 0.752000
18.269700 0.779800
18.308800 0.806100
18.347900 0.842200
18.387000 0.699200
18.426100 0.520800
18.465200 0.554600
18.504300 0.687400
18.543400 0.738500
18.582500 0.690900
18.621600 0.595000
18.660700 0.529100
18.699800 0.461500
18.739000 0.355400
18.778100 0.363100
18.817200 0.507000
18.856300 0.453500
18.895400 0.350100
18.934500 0.369100
18.973600 0.345500
19.012700 0.301800
19.051800 0.303600
19.090900 0.315200
19.130000 0.313800
19.169100 0.314100
19.208300 0.359200
19.247400 0.372900
19.286500 0.357000
19.325600 0.448000
19.364700 0.682600
19.403800 0.740800
19.442900 0.498300
19.482000 0.322800
19.521100 0.253400
19.560200 0.163900
19.599300 0.115800
19.638400 0.124600
19.677600 0.138200
19.716700 0.224100
19.755800 0.319800
19.794900 0.320300
19.834000 0.306100
19.873100 0.422100
19.912200 0.591900
19.951300 0.724200
19.990400 0.781400
20.029500 0.724900
20.068600 0.667000
20.107700 0.596200
20.146900 0.446500
20.186000 0.363400
20.225100 0.337500
20.264200 0.397700
20.303300 0.501100
20.342400 0.678800
20.381500 0.891900
20.420600 1.072700
20.459700 1.303200
20.498800 1.294700
20.537900 1.013900
20.577000 0.924900
20.616200 1.029700
20.655300 0.975100
20.694400 0.883700
20.733500 1.042300
20.772600 1.188600
20.811700 1.228200
20.850800 1.232100
20.889900 1.094900
20.929000 0.995800
20.968100 1.266500
21.007200 1.586200
21.046300 1.563100
21.085500 1.454100
21.124600 1.519500
21.163700 1.649400
21.202800 1.625400
21.241900 1.394500
21.281000 1.066200
21.320100 0.871900
21.359200 0.769100
21.398300 0.800700
21.437400 0.951700
21.476500 1.008500
21.515600 0.997200
21.554800 1.051000
21.593900 0.965200
21.633000 0.861200
21.672100 0.914000
21.711200 0.971800
21.750300 0.823000
21.789400 0.569300
21.828500 0.555700
21.867600 0.696700
21.906700 0.783600
21.945800 0.915500
21.984900 0.983300
22.024100 0.967300
22.063200 0.916000
22.102300 0.843300
22.141400 0.788900
22.180500 0.863500
22.219600 0.778200
22.258700 0.544600
22.297800 0.639800
22.336900 0.791100
22.376000 0.738500
22.415100 0.775100
22.454200 0.975300
22.493400 1.202400
22.532500 1.348100
22.571600 1.327300
22.610700 1.253800
22.649800 1.318200
22.688900 1.424500
22.728000 1.599700
22.767100 1.649100
22.806200 1.443200
22.845300 1.379500
22.884400 1.395000
22.923500 1.323500
22.962700 1.216400
23.001800 0.946800
23.040900 0.848700
23.080000 1.043600
23.119100 1.159800
23.158200 1.019500
23.197300 0.777300
23.236400 0.749400
23.275500 0.708600
23.314600 0.581300
23.353700 0.649900
23.392800 0.744300
23.432000 0.663700
23.471100 0.535400
23.510200 0.487400
23.549300 0.567200
23.588400 0.612000
23.627500 0.635600
23.666600 0.713000
23.705700 0.648600
23.744800 0.544800
23.783900 0.580800
23.823000 0.513500
23.862100 0.406800
23.901300 0.331700
23.940400 0.269700
23.979500 0.331900
24.018600 0.490700
24.057700 0.551100
24.096800 0.528100
24.135900 0.574100
24.175000 0.703000
24.214100 0.694200
24.253200 0.629400
24.292300 0.660100
24.331400 0.584200
24.370600 0.639200
24.409700 0.779700
24.448800 0.784500
24.487900 0.750200
24.527000 0.808500
24.566100 0.960800
24.605200 1.138700
24.644300 1.038500
24.683400 0.791700
24.722500 0.776400
24.761600 0.857500
24.800700 0.876000
24.839900 0.878100
24.879000 0.835100
24.918100 0.722700
24.957200 0.714300
24.996300 0.738600
25.035400 0.716800
25.074500 0.704000
25.113600 0.658300
25.152700 0.566300
25.191800 0.491500
25.230900 0.557800
25.270000 0.664100
25.309200 0.683800
25.348300 0.676000
25.387400 0.682700
25.426500 0.657200
25.465600 0.623900
25.504700 0.658900
25.543800 0.758900
25.582900 0.897200
25.622000 0.954900
25.661100 0.818300
25.700200 0.743800
25.739300 0.782900
25.778500 0.770200
25.817600 0.623700
25.856700 0.513800
25.895800 0.677100
25.934900 0.927200
25.974000 1.061500
26.013100 1.081600
26.052200 0.980500
26.091300 0.851000
26.130400 0.866000
26.169500 0.929200
26.208600 0.822800
26.247800 0.646000
26.286900 0.653400
26.326000 0.800000
26.365100 0.969200
26.404200 1.129900
26.443300 1.147200
26.482400 0.979800
26.521500 0.968700
26.560600 0.835400
26.599700 0.661200
26.638800 0.671700
26.677900 0.981800
26.717100 1.438700
26.756200 1.562100
26.795300 1.324500
26.834400 1.002900
26.873500 0.814900
26.912600 0.720300
26.951700 0.795200
26.990800 0.932600
27.029900 1.030400
27.069000 1.083700
27.108100 1.047300
27.147200 1.004000
27.186400 0.974300
27.225500 0.859100
27.264600 0.643200
27.303700 0.530300
27.342800 0.622700
27.381900 0.736600
27.421000 0.761900
27.460100 0.866400
27.499200 0.887100
27.538300 0.762600
27.577400 0.637100
27.616500 0.555800
27.655700 0.482200
27.694800 0.448700
27.733900 0.514800
27.773000 0.562000
27.812100 0.626800
27.851200 0.741100
27.890300 0.826700
27.929400 0.802600
27.968500 0.645000
28.007600 0.552700
28.046700 0.468100
28.085800 0.420100
28.125000 0.505800
28.164100 0.651100
28.203200 0.728100
28.242300 0.681900
28.281400 0.569800
28.320500 0.642000
28.359600 0.718600
28.398700 0.622800
28.437800 0.662300
28.476900 0.741100
28.516000 0.649500
28.555100 0.545000
28.594300 0.438100
28.633400 0.471900
28.672500 0.607100
28.711600 0.650400
28.750700 0.539900
28.789800 0.474300
28.828900 0.434200
28.868000 0.399600
28.907100 0.481100
28.946200 0.528900
28.985300 0.485400
29.024400 0.440400
29.063600 0.477700
29.102700 0.564700
29.141800 0.651900
29.180900 0.718400
29.220000 0.726500
29.259100 0.677600
29.298200 0.635200
29.337300 0.687600
29.376400 0.703100
29.415500 0.771600
29.454600 0.857800
29.493700 0.903200
29.532900 0.898200
29.572000 0.750900
29.611100 0.513400
29.650200 0.456500
29.689300 0.477600
29.728400 0.512700
29.767500 0.738800
29.806600 1.059600
29.845700 1.232200
29.884800 1.309100
29.923900 1.352400
29.963000 1.262700
30.002200 1.033700
30.041300 0.923300
30.080400 1.005600
30.119500 1.105600
30.158600 1.159600
30.197700 1.209100
30.236800 1.202100
30.275900 1.052900
30.315000 0.869900
30.354100 0.837500
30.393200 0.926400
30.432300 1.159100
30.471500 1.365500
30.510600 1.235900
30.549700 1.035000
30.588800 0.958100
30.627900 0.949100
30.667000 0.961300
30.706100 0.945600
30.745200 1.008100
30.784300 1.055600
30.823400 1.015100
30.862500 1.015500
30.901600 0.922000
30.940800 0.841300
30.979900 0.856100
31.019000 0.788300
31.058100 0.564700
31.097200 0.485600
31.136300 0.676100
31.175400 0.818300
31.214500 0.843900
31.253600 0.823400
31.292700 0.736100
31.331800 0.640800
31.371000 0.591500
31.410100 0.597500
31.449200 0.658900
31.488300 0.590100
31.527400 0.502700
31.566500 0.607500
31.605600 0.709600
31.644700 0.656500
31.683800 0.628100
31.722900 0.767700
31.762000 0.944800
31.801100 0.978300
31.840300 0.847600
31.879400 0.682100
31.918500 0.644900
31.957600 0.825600
31.996700 1.008700
32.035800 1.011600
32.074900 0.928000
32.114000 0.835500
32.153100 0.968200
32.192200 1.284600
32.231300 1.426900
32.270400 1.336700
32.309600 1.220600
32.348700 1.262400
32.387800 1.228000
32.426900 1.157100
32.466000 1.133900
32.505100 1.150500
32.544200 1.022300
32.583300 0.740400
32.622400 0.680100
32.661500 0.871100
32.700600 1.011700
32.739700 0.941200
32.778900 0.849000
32.818000 0.711400
32.857100 0.620100
32.896200 0.839800
32.935300 1.160400
32.974400 1.102900
33.013500 0.954300
33.052600 1.000200
33.091700 0.940100
33.130800 0.860700
33.169900 0.860400
33.209000 0.904900
33.248200 0.897100
33.287300 0.815200
33.326400 0.765300
33.365500 0.748200
33.404600 0.775500
33.443700 0.811800
33.482800 0.791400
33.521900 0.655700
33.561000 0.548100
33.600100 0.602700
33.639200 0.668800
33.678300 0.604400
33.717500 0.504700
33.756600 0.483600
33.795700 0.584800
33.834800 0.686100
33.873900 0.731800
33.913000 0.819200
33.952100 0.822200
33.991200 0.756900
34.030300 0.695500
34.069400 0.718600
34.108500 0.713600
34.147600 0.713300
34.186800 0.849700
34.225900 0.808300
34.265000 0.790100
34.304100 0.868800
34.343200 0.774100
34.382300 0.690800
34.421400 0.762800
34.460500 0.927200
34.499600 1.080200
34.538700 1.055900
34.577800 0.887500
34.616900 0.854500
34.656100 1.022600
34.695200 0.992500
34.734300 0.842700
34.773400 0.825000
34.812500 0.783900
34.851600 0.716500
34.890700 0.796100
34.929800 0.865400
34.968900 0.850600
35.008000 0.859300
35.047100 0.824400
35.086200 0.748200
35.125400 0.808900
35.164500 0.935600
35.203600 0.907800
35.242700 0.749000
35.281800 0.842000
35.320900 0.948700
35.360000 0.908100
35.399100 0.940800
35.438200 0.895700
35.477300 0.799200
35.516400 0.837400
35.555500 1.021100
35.594700 1.124900
35.633800 0.941200
35.672900 0.735400
35.712000 0.708900
35.751100 0.834700
35.790200 0.920900
35.829300 1.044600
35.868400 1.072700
35.907500 1.030900
35.946600 0.900300
35.985700 0.785200
36.024800 0.694400
36.064000 0.567400
36.103100 0.577500
36.142200 0.735100
36.181300 0.884400
36.220400 0.849900
36.259500 0.759400
36.298600 0.789700
36.337700 0.809500
36.376800 0.788600
36.415900 0.824100
36.455000 0.795900
36.494100 0.739900
36.533300 0.806200
36.572400 0.974000
36.611500 0.988900
36.650600 0.792400
36.689700 0.647300
36.728800 0.637200
36.767900 0.814000
36.807000 1.046100
36.846100 1.060800
36.885200 0.912600
36.924300 0.802400
36.963400 0.757800
37.002600 0.773500
37.041700 0.872100
37.080800 0.852700
37.119900 0.740700
37.159000 0.689900
37.198100 0.679700
37.237200 0.902600
37.276300 1.227500
37.315400 1.084000
37.354500 0.767100
37.393600 0.773000
37.432700 0.904200
37.471900 1.021000
37.511000 1.132100
37.550100 0.994100
37.589200 0.918700
37.628300 0.984900
37.667400 0.983100
37.706500 0.955600
37.745600 0.835200
37.784700 0.748900
37.823800 0.804500
37.862900 0.770200
37.902000 0.679800
37.941200 0.711200
37.980300 0.789800
38.019400 0.846600
38.058500 0.959000
38.097600 1.057600
38.136700 1.020400
38.175800 0.828800
38.214900 0.732700
38.254000 0.909600
38.293100 1.092300
38.332200 1.090600
38.371300 0.975300
38.410500 0.954300
38.449600 0.835500
38.488700 0.647300
38.527800 0.630400
38.566900 0.698800
38.606000 0.684500
38.645100 0.659900
38.684200 0.789000
38.723300 0.963600
38.762400 1.025500
38.801500 0.957300
38.840600 0.733500
38.879800 0.612100
38.918900 0.603700
38.958000 0.681100
38.997100 0.835500
39.036200 0.898100
39.075300 0.960200
39.114400 1.060400
39.153500 1.195000
39.192600 1.236700
39.231700 1.100600
39.270800 1.123400
39.309900 1.060000
39.349100 0.887500
39.388200 0.804400
39.427300 0.731200
39.466400 0.690500
39.505500 0.752600
39.544600 0.851600
39.583700 0.973300
39.622800 1.105400
39.661900 1.143500
39.701000 1.017100
39.740100 0.892400
39.779200 0.969100
39.818400 1.084600
39.857500 1.150000
39.896600 1.125100
39.935700 1.072000
39.974800 1.070800
40.013900 1.039400
40.053000 0.953800
40.092100 0.916100
40.131200 0.920800
40.170300 0.934000
40.209400 0.955000
40.248500 1.046000
40.287700 1.011600
40.326800 0.927100
40.365900 0.980500
40.405000 0.952200
40.444100 0.897400
40.483200 0.906400
40.522300 0.830200
40.561400 0.752700
40.600500 0.754700
40.639600 0.988500
40.678700 1.196700
40.717800 1.130500
40.757000 1.190200
40.796100 1.187400
40.835200 1.007700
40.874300 0.936000
40.913400 1.000500
40.952500 1.130000
40.991600 1.228700
41.030700 1.163700
41.069800 1.014700
41.108900 0.865500
41.148000 0.800200
41.187100 0.909300
41.226300 1.046500
41.265400 1.049200
41.304500 1.104500
41.343600 1.184500
41.382700 1.229500
41.421800 1.190300
41.460900 1.057000
41.500000 1.111400
41.539100 1.213400
41.578200 1.108900
41.617300 0.935700
41.656400 0.823000
41.695600 0.814200
41.734700 0.981800
41.773800 1.121600
41.812900 1.209600
41.852000 1.298900
41.891100 1.269700
41.930200 1.248900
41.969300 1.220400
42.008400 1.103900
42.047500 1.048500
42.086600 1.301900
42.125700 1.474000
42.164900 1.399100
42.204000 1.185300
42.243100 1.033200
42.282200 1.066200
42.321300 1.043200
42.360400 0.902100
42.399500 0.829000
42.438600 1.040700
42.477700 1.290600
42.516800 1.298700
42.555900 1.065600
42.595000 0.915800
42.634200 0.868800
42.673300 0.745000
42.712400 0.659000
42.751500 0.694600
42.790600 0.931900
42.829700 1.217800
42.868800 1.421100
42.907900 1.371400
42.947000 1.192000
42.986100 1.139200
43.025200 0.973300
43.064300 0.699100
43.103500 0.661900
43.142600 0.845900
43.181700 0.953300
43.220800 1.006700
43.259900 1.164600
43.299000 1.202900
43.338100 1.150700
43.377200 1.173300
43.416300 1.202100
43.455400 1.237200
43.494500 1.212200
43.533600 1.083300
43.572800 0.822400
43.611900 0.715700
43.651000 0.774700
43.690100 0.777300
43.729200 0.914500
43.768300 1.048700
43.807400 1.010000
43.846500 1.059800
43.885600 1.294800
43.924700 1.441600
43.963800 1.468000
44.002900 1.563000
44.042100 1.448300
44.081200 1.223600
44.120300 1.215700
44.159400 1.272800
44.198500 1.225100
44.237600 1.196600
44.276700 1.278600
44.315800 1.240600
44.354900 1.173200
44.394000 1.245000
44.433100 1.312300
44.472200 1.236000
44.511400 1.244200
44.550500 1.365800
44.589600 1.471800
44.628700 1.513700
44.667800 1.588900
44.706900 1.600800
44.746000 1.443100
44.785100 1.127800
44.824200 0.989100
44.863300 1.167800
44.902400 1.299800
44.941500 1.321500
44.980700 1.361500
45.019800 1.183300
45.058900 0.948700
45.098000 1.104400
45.137100 1.498100
45.176200 1.610600
45.215300 1.459300
45.254400 1.244700
45.293500 1.069300
45.332600 1.213600
45.371700 1.372500
45.410800 1.197000
45.450000 0.997900
45.489100 1.202000
45.528200 1.445000
45.567300 1.360800
45.606400 1.102400
45.645500 0.892200
45.684600 0.694000
45.723700 0.776600
45.762800 1.111600
45.801900 1.295600
45.841000 1.304300
45.880100 1.109900
45.919300 0.832700
45.958400 0.744800
45.997500 0.766200
46.036600 0.838400
46.075700 1.030500
46.114800 1.053500
46.153900 0.969600
46.193000 0.902300
46.232100 0.917400
46.271200 0.980300
46.310300 0.907400
46.349400 0.752800
46.388600 0.713100
46.427700 0.745400
46.466800 0.832200
46.505900 0.913400
46.545000 0.990100
46.584100 1.098700
46.623200 1.032800
46.662300 0.941500
46.701400 0.841900
46.740500 0.678100
46.779600 0.529800
46.818700 0.536100
46.857900 0.845000
46.897000 0.886800
46.936100 0.628400
46.975200 0.691800
47.014300 0.906000
47.053400 0.827200
47.092500 0.666700
47.131600 0.584300
47.170700 0.598600
47.209800 0.613100
47.248900 0.565300
47.288000 0.607100
47.327200 0.542100
47.366300 0.427200
47.405400 0.440400
47.444500 0.399200
47.483600 0.309900
47.522700 0.288800
47.561800 0.241500
47.600900 0.246200
47.640000 0.298600
47.679100 0.274900
47.718200 0.193100
47.757300 0.130800
47.796500 0.079700
47.835600 0.080400
47.874700 0.108600
47.913800 0.126900
47.952900 0.149900
47.992000 0.253200
48.031100 0.276400
48.070200 0.197600
48.109300 0.169000
48.148400 0.121700
48.187500 0.069200
48.226600 0.036400
48.265800 0.024500
48.304900 0.031800
48.344000 0.056100
48.383100 0.060800
48.422200 0.038900
48.461300 0.034200
48.500400 0.024700
48.539500 0.006700
48.578600 0.000600
48.617700 0.000000
48.656800 0.000000
48.695900 0.000000
48.735100 0.000000
48.774200 0.000000
48.813300 0.000000
48.852400 0.000000
48.891500 0.000000
48.930600 0.000000
48.969700 0.000000
49.008800 0.000000
49.047900 0.000000
49.087000 0.000000
49.126100 0.000000
49.165200 0.000000
49.204400 0.000000
49.243500 0.000000
49.282600 0.000000
49.321700 0.000000
49.360800 0.000000
49.399900 0.000000
49.439000 0.000000
49.478100 0.000000
49.517200 0.000000
49.556300 0.000000
49.595400 0.000000
49.634600 0.000000
49.673700 0.000000
49.712800 0.000000
49.751900 0.000000
49.791000 0.000000
49.830100 0.000000
49.869200 0.000000
49.908300 0.000000
49.947400 0.000000
49.986500 0.000000
50.025600 0.000000
50.064700 0.000000
50.103900 0.000000
50.143000 0.000000
50.182100 0.000000
50.221200 0.000000
50.260300 0.000000
50.299400 0.000000
50.338500 0.000000
50.377600 0.000000
50.416700 0.000000
50.455800 0.000000
50.494900 0.000000
50.534000 0.000000
50.573200 0.000000
50.612300 0.000000
50.651400 0.000000
50.690500 0.000000
50.729600 0.000000
50.768700 0.000000
50.807800 0.000000
50.846900 0.000000
50.886000 0.000000
50.925100 0.000000
50.964200 0.000000
51.003300 0.000000
51.042500 0.000000
51.081600 0.000000
51.120700 0.000000
51.159800 0.000000
51.198900 0.000000
51.238000 0.000000
51.277100 0.000000
51.316200 0.000000
51.355300 0.000000
51.394400 0.000000
51.433500 0.000000
51.472600 0.000000
51.511800 0.000000
51.550900 0.000000
51.590000 0.000000
51.629100 0.000000
51.668200 0.000000
51.707300 0.000000
51.746400 0.000000
51.785500 0.000000
51.824600 0.000000
51.863700 0.000000
51.902800 0.000000
51.941900 0.000000
51.981100 0.000000
52.020200 0.000000
52.059300 0.000000
e
