set title 'mp-7715 - Density of States'
set xlabel 'Energy (eV)'
set ylabel 'DOS (states/eV)'
set grid
set xrange [-10:10]
set yrange [0:20.140]
set xzeroaxis lt -1
set terminal png size 800,600
set output 'mp-7715_dos_gnuplot.png'
plot '-' using 1:2 with lines title 'DOS'
-25.467300 0.000000
-25.444000 0.000000
-25.420800 0.000000
-25.397500 0.000000
-25.374200 0.000000
-25.350900 0.000000
-25.327600 0.000000
-25.304300 0.000000
-25.281100 0.000000
-25.257800 0.000000
-25.234500 0.000000
-25.211200 0.000000
-25.187900 0.000000
-25.164600 0.000000
-25.141300 0.000000
-25.118100 0.000000
-25.094800 0.000000
-25.071500 0.000000
-25.048200 0.000000
-25.024900 0.000000
-25.001600 0.000000
-24.978400 0.000000
-24.955100 0.000000
-24.931800 0.000000
-24.908500 0.000000
-24.885200 0.000000
-24.861900 0.000000
-24.838600 0.000000
-24.815400 0.000000
-24.792100 0.000000
-24.768800 0.000000
-24.745500 0.000000
-24.722200 0.000000
-24.698900 0.000000
-24.675600 0.000000
-24.652400 0.000000
-24.629100 0.000000
-24.605800 0.000000
-24.582500 0.000000
-24.559200 0.000000
-24.535900 0.000000
-24.512700 0.000000
-24.489400 0.000000
-24.466100 0.000000
-24.442800 0.000000
-24.419500 0.000000
-24.396200 0.000000
-24.372900 0.000000
-24.349700 0.000000
-24.326400 0.000000
-24.303100 0.000000
-24.279800 0.000000
-24.256500 0.000000
-24.233200 0.000000
-24.210000 0.000000
-24.186700 0.000000
-24.163400 0.000000
-24.140100 0.000000
-24.116800 0.000000
-24.093500 0.000000
-24.070200 0.000000
-24.047000 0.000000
-24.023700 0.000000
-24.000400 0.000000
-23.977100 0.000000
-23.953800 0.000000
-23.930500 0.000000
-23.907300 0.000000
-23.884000 0.000000
-23.860700 0.000000
-23.837400 0.000000
-23.814100 0.000000
-23.790800 0.000000
-23.767500 0.000000
-23.744300 0.000000
-23.721000 0.000000
-23.697700 0.000000
-23.674400 0.000000
-23.651100 0.000000
-23.627800 0.000000
-23.604600 0.000000
-23.581300 0.000000
-23.558000 0.000000
-23.534700 0.000000
-23.511400 0.000000
-23.488100 0.000000
-23.464800 0.000000
-23.441600 0.000000
-23.418300 0.000000
-23.395000 0.000000
-23.371700 0.000000
-23.348400 0.717000
-23.325100 2.591800
-23.301900 3.923600
-23.278600 5.318100
-23.255300 6.949300
-23.232000 9.015800
-23.208700 12.067500
-23.185400 17.174200
-23.162100 25.265000
-23.138900 21.860800
-23.115600 22.566900
-23.092300 17.409800
-23.069000 18.488200
-23.045700 50.504000
-23.022400 119.014200
-22.999200 23.822700
-22.975900 0.000000
-22.952600 0.000000
-22.929300 0.000000
-22.906000 0.000000
-22.882700 0.000000
-22.859400 0.000000
-22.836200 0.000000
-22.812900 0.000000
-22.789600 0.000000
-22.766300 0.000000
-22.743000 0.000000
-22.719700 0.000000
-22.696500 0.000000
-22.673200 0.000000
-22.649900 0.000000
-22.626600 0.000000
-22.603300 0.000000
-22.580000 0.000000
-22.556700 0.000000
-22.533500 0.000000
-22.510200 0.000000
-22.486900 0.000000
-22.463600 0.000000
-22.440300 0.000000
-22.417000 0.000000
-22.393800 0.000000
-22.370500 0.000000
-22.347200 0.000000
-22.323900 0.000000
-22.300600 0.000000
-22.277300 0.000000
-22.254000 0.000000
-22.230800 0.000000
-22.207500 0.000000
-22.184200 0.000000
-22.160900 0.000000
-22.137600 0.000000
-22.114300 0.000000
-22.091000 0.000000
-22.067800 0.000000
-22.044500 0.000000
-22.021200 0.000000
-21.997900 0.000000
-21.974600 0.000000
-21.951300 0.000000
-21.928100 0.000000
-21.904800 0.000000
-21.881500 0.000000
-21.858200 0.000000
-21.834900 0.000000
-21.811600 0.000000
-21.788300 0.000000
-21.765100 0.000000
-21.741800 0.000000
-21.718500 0.000000
-21.695200 0.000000
-21.671900 0.000000
-21.648600 0.000000
-21.625400 0.000000
-21.602100 0.000000
-21.578800 0.000000
-21.555500 0.000000
-21.532200 0.000000
-21.508900 0.000000
-21.485600 0.000000
-21.462400 0.000000
-21.439100 0.000000
-21.415800 0.000000
-21.392500 0.000000
-21.369200 0.000000
-21.345900 0.000000
-21.322700 0.000000
-21.299400 0.000000
-21.276100 0.000000
-21.252800 0.000000
-21.229500 0.000000
-21.206200 0.000000
-21.182900 0.000000
-21.159700 0.000000
-21.136400 0.000000
-21.113100 0.000000
-21.089800 0.000000
-21.066500 0.000000
-21.043200 0.000000
-21.020000 0.000000
-20.996700 0.000000
-20.973400 0.000000
-20.950100 0.000000
-20.926800 0.000000
-20.903500 0.000000
-20.880200 0.000000
-20.857000 0.000000
-20.833700 0.000000
-20.810400 0.000000
-20.787100 0.000000
-20.763800 0.000000
-20.740500 0.000000
-20.717300 0.000000
-20.694000 0.000000
-20.670700 0.000000
-20.647400 0.000000
-20.624100 0.000000
-20.600800 0.000000
-20.577500 0.000000
-20.554300 0.000000
-20.531000 0.000000
-20.507700 0.000000
-20.484400 0.000000
-20.461100 0.000000
-20.437800 0.000000
-20.414600 0.000000
-20.391300 0.000000
-20.368000 0.000000
-20.344700 0.000000
-20.321400 0.000000
-20.298100 0.000000
-20.274800 0.000000
-20.251600 0.000000
-20.228300 0.000000
-20.205000 0.000000
-20.181700 0.000000
-20.158400 0.000000
-20.135100 0.000000
-20.111900 0.000000
-20.088600 0.000000
-20.065300 0.000000
-20.042000 0.000000
-20.018700 0.000000
-19.995400 0.000000
-19.972100 0.000000
-19.948900 0.000000
-19.925600 0.000000
-19.902300 0.000000
-19.879000 0.000000
-19.855700 0.000000
-19.832400 0.000000
-19.809100 0.000000
-19.785900 0.000000
-19.762600 0.000000
-19.739300 0.000000
-19.716000 0.000000
-19.692700 0.000000
-19.669400 0.000000
-19.646200 0.000000
-19.622900 0.000000
-19.599600 0.000000
-19.576300 0.000000
-19.553000 0.000000
-19.529700 0.000000
-19.506400 0.000000
-19.483200 0.000000
-19.459900 0.000000
-19.436600 0.000000
-19.413300 0.000000
-19.390000 0.000000
-19.366700 0.000000
-19.343500 0.000000
-19.320200 0.000000
-19.296900 0.000000
-19.273600 0.000000
-19.250300 0.000000
-19.227000 0.000000
-19.203700 0.000000
-19.180500 0.000000
-19.157200 0.000000
-19.133900 0.000000
-19.110600 0.000000
-19.087300 0.000000
-19.064000 0.000000
-19.040800 0.000000
-19.017500 0.000000
-18.994200 0.000000
-18.970900 0.000000
-18.947600 0.000000
-18.924300 0.000000
-18.901000 0.000000
-18.877800 0.000000
-18.854500 0.000000
-18.831200 0.000000
-18.807900 0.000000
-18.784600 0.000000
-18.761300 0.000000
-18.738100 0.000000
-18.714800 0.000000
-18.691500 0.000000
-18.668200 0.000000
-18.644900 0.000000
-18.621600 0.000000
-18.598300 0.000000
-18.575100 0.000000
-18.551800 0.000000
-18.528500 0.000000
-18.505200 0.000000
-18.481900 0.000000
-18.458600 0.000000
-18.435400 0.000000
-18.412100 0.000000
-18.388800 0.000000
-18.365500 0.000000
-18.342200 0.000000
-18.318900 0.000000
-18.295600 0.000000
-18.272400 0.000000
-18.249100 0.000000
-18.225800 0.000000
-18.202500 0.000000
-18.179200 0.000000
-18.155900 0.000000
-18.132700 0.000000
-18.109400 0.000000
-18.086100 0.000000
-18.062800 0.000000
-18.039500 0.000000
-18.016200 0.000000
-17.992900 0.000000
-17.969700 0.000000
-17.946400 0.000000
-17.923100 0.000000
-17.899800 0.000000
-17.876500 0.000000
-17.853200 0.000000
-17.830000 0.000000
-17.806700 0.000000
-17.783400 0.000000
-17.760100 0.000000
-17.736800 0.000000
-17.713500 0.000000
-17.690200 0.000000
-17.667000 0.000000
-17.643700 0.000000
-17.620400 0.000000
-17.597100 0.000000
-17.573800 0.000000
-17.550500 0.000000
-17.527300 0.000000
-17.504000 0.000000
-17.480700 0.000000
-17.457400 0.000000
-17.434100 0.000000
-17.410800 0.000000
-17.387500 0.000000
-17.364300 0.000000
-17.341000 0.000000
-17.317700 0.000000
-17.294400 0.000000
-17.271100 0.000000
-17.247800 0.000000
-17.224500 0.000000
-17.201300 0.000000
-17.178000 0.000000
-17.154700 0.000000
-17.131400 0.000000
-17.108100 0.000000
-17.084800 0.000000
-17.061600 0.000000
-17.038300 0.000000
-17.015000 0.000000
-16.991700 0.000000
-16.968400 0.000000
-16.945100 0.000000
-16.921800 0.000000
-16.898600 0.000000
-16.875300 0.000000
-16.852000 0.000000
-16.828700 0.000000
-16.805400 0.000000
-16.782100 0.000000
-16.758900 0.000000
-16.735600 0.000000
-16.712300 0.000000
-16.689000 0.000000
-16.665700 0.000000
-16.642400 0.000000
-16.619100 0.000000
-16.595900 0.000000
-16.572600 0.000000
-16.549300 0.000000
-16.526000 0.000000
-16.502700 0.000000
-16.479400 0.000000
-16.456200 0.000000
-16.432900 0.000000
-16.409600 0.000000
-16.386300 0.000000
-16.363000 0.000000
-16.339700 0.000000
-16.316400 0.000000
-16.293200 0.000000
-16.269900 0.000000
-16.246600 0.000000
-16.223300 0.000000
-16.200000 0.000000
-16.176700 0.000000
-16.153500 0.000000
-16.130200 0.000000
-16.106900 0.000000
-16.083600 0.000000
-16.060300 0.000000
-16.037000 0.000000
-16.013700 0.000000
-15.990500 0.000000
-15.967200 0.000000
-15.943900 0.000000
-15.920600 0.000000
-15.897300 0.000000
-15.874000 0.000000
-15.850800 0.000000
-15.827500 0.000000
-15.804200 0.000000
-15.780900 0.000000
-15.757600 0.000000
-15.734300 0.000000
-15.711000 0.000000
-15.687800 0.000000
-15.664500 0.000000
-15.641200 0.000000
-15.617900 0.000000
-15.594600 0.000000
-15.571300 0.000000
-15.548100 0.000000
-15.524800 0.000000
-15.501500 0.000000
-15.478200 0.000000
-15.454900 0.000000
-15.431600 0.000000
-15.408300 0.000000
-15.385100 0.000000
-15.361800 0.000000
-15.338500 0.000000
-15.315200 0.000000
-15.291900 0.000000
-15.268600 0.000000
-15.245400 0.000000
-15.222100 0.000000
-15.198800 0.000000
-15.175500 0.000000
-15.152200 0.000000
-15.128900 0.000000
-15.105600 0.000000
-15.082400 0.000000
-15.059100 0.000000
-15.035800 0.000000
-15.012500 0.000000
-14.989200 0.000000
-14.965900 0.000000
-14.942700 0.000000
-14.919400 0.000000
-14.896100 0.000000
-14.872800 0.000000
-14.849500 0.000000
-14.826200 0.000000
-14.802900 0.000000
-14.779700 0.000000
-14.756400 0.000000
-14.733100 0.000000
-14.709800 0.000000
-14.686500 0.000000
-14.663200 0.000000
-14.639900 0.000000
-14.616700 0.000000
-14.593400 0.000000
-14.570100 0.000000
-14.546800 0.000000
-14.523500 0.000000
-14.500200 0.000000
-14.477000 0.000000
-14.453700 0.000000
-14.430400 0.000000
-14.407100 0.000000
-14.383800 0.000000
-14.360500 0.000000
-14.337200 0.000000
-14.314000 0.000000
-14.290700 0.000000
-14.267400 0.000000
-14.244100 0.000000
-14.220800 0.000000
-14.197500 0.000000
-14.174300 0.000000
-14.151000 0.000000
-14.127700 0.000000
-14.104400 0.000000
-14.081100 0.000000
-14.057800 0.000000
-14.034500 0.000000
-14.011300 0.000000
-13.988000 0.000000
-13.964700 0.000000
-13.941400 0.000000
-13.918100 0.000000
-13.894800 0.000000
-13.871600 0.000000
-13.848300 0.000000
-13.825000 0.000000
-13.801700 0.000000
-13.778400 0.000000
-13.755100 0.000000
-13.731800 0.000000
-13.708600 0.000000
-13.685300 0.000000
-13.662000 0.000000
-13.638700 0.000000
-13.615400 0.000000
-13.592100 0.000000
-13.568900 0.000000
-13.545600 0.000000
-13.522300 0.000000
-13.499000 0.000000
-13.475700 0.000000
-13.452400 0.000000
-13.429100 0.000000
-13.405900 0.000000
-13.382600 0.000000
-13.359300 0.000000
-13.336000 0.000000
-13.312700 0.000000
-13.289400 0.000000
-13.266200 0.000000
-13.242900 0.000000
-13.219600 0.000000
-13.196300 0.000000
-13.173000 0.000000
-13.149700 0.000000
-13.126400 0.000000
-13.103200 0.000000
-13.079900 0.000000
-13.056600 0.000000
-13.033300 0.000000
-13.010000 0.000000
-12.986700 0.000000
-12.963500 0.000000
-12.940200 0.000000
-12.916900 0.000000
-12.893600 0.000000
-12.870300 0.000000
-12.847000 0.000000
-12.823700 0.000000
-12.800500 0.000000
-12.777200 0.000000
-12.753900 0.000000
-12.730600 0.000000
-12.707300 0.000000
-12.684000 0.000000
-12.660800 0.000000
-12.637500 0.000000
-12.614200 0.000000
-12.590900 0.000000
-12.567600 0.000000
-12.544300 0.000000
-12.521000 0.000000
-12.497800 0.000000
-12.474500 0.000000
-12.451200 0.000000
-12.427900 0.000000
-12.404600 0.000000
-12.381300 0.000000
-12.358000 0.000000
-12.334800 0.000000
-12.311500 0.000000
-12.288200 0.000000
-12.264900 0.000000
-12.241600 0.000000
-12.218300 0.000000
-12.195100 0.000000
-12.171800 0.000000
-12.148500 0.000000
-12.125200 0.000000
-12.101900 0.000000
-12.078600 0.000000
-12.055300 0.000000
-12.032100 0.000000
-12.008800 0.000000
-11.985500 0.000000
-11.962200 0.000000
-11.938900 0.000000
-11.915600 0.000000
-11.892400 0.000000
-11.869100 0.000000
-11.845800 0.000000
-11.822500 0.000000
-11.799200 0.000000
-11.775900 0.000000
-11.752600 0.000000
-11.729400 0.000000
-11.706100 0.000000
-11.682800 0.000000
-11.659500 0.000000
-11.636200 0.000000
-11.612900 0.000000
-11.589700 0.000000
-11.566400 0.000000
-11.543100 0.000000
-11.519800 0.000000
-11.496500 0.000000
-11.473200 0.000000
-11.449900 0.000000
-11.426700 0.000000
-11.403400 0.000000
-11.380100 0.000000
-11.356800 0.000000
-11.333500 0.000000
-11.310200 0.000000
-11.287000 0.000000
-11.263700 0.000000
-11.240400 0.000000
-11.217100 0.000000
-11.193800 0.000000
-11.170500 0.000000
-11.147200 0.000000
-11.124000 0.000000
-11.100700 0.000000
-11.077400 0.000000
-11.054100 0.000000
-11.030800 0.000000
-11.007500 0.000000
-10.984300 0.000000
-10.961000 0.000000
-10.937700 0.000000
-10.914400 0.000000
-10.891100 0.000000
-10.867800 0.000000
-10.844500 0.000000
-10.821300 0.000000
-10.798000 0.000000
-10.774700 0.000000
-10.751400 0.000000
-10.728100 0.000000
-10.704800 0.000000
-10.681600 0.000000
-10.658300 0.000000
-10.635000 0.000000
-10.611700 0.000000
-10.588400 0.000000
-10.565100 0.000000
-10.541800 0.000000
-10.518600 0.000000
-10.495300 0.000000
-10.472000 0.000000
-10.448700 0.000000
-10.425400 0.000000
-10.402100 0.000000
-10.378900 0.000000
-10.355600 0.000000
-10.332300 0.000000
-10.309000 0.000000
-10.285700 0.000000
-10.262400 0.000000
-10.239100 0.000000
-10.215900 0.000000
-10.192600 0.000000
-10.169300 0.000000
-10.146000 0.000000
-10.122700 0.000000
-10.099400 0.000000
-10.076200 0.000000
-10.052900 0.000000
-10.029600 0.000000
-10.006300 0.000000
-9.983000 0.000000
-9.959700 0.000000
-9.936400 0.000000
-9.913200 0.000000
-9.889900 0.000000
-9.866600 0.000000
-9.843300 0.000000
-9.820000 0.000000
-9.796700 0.000000
-9.773400 0.000000
-9.750200 0.000000
-9.726900 0.000000
-9.703600 0.000000
-9.680300 0.000000
-9.657000 0.000000
-9.633700 0.000000
-9.610500 0.000000
-9.587200 0.000000
-9.563900 0.000000
-9.540600 0.000000
-9.517300 0.000000
-9.494000 0.000000
-9.470700 0.000000
-9.447500 0.000000
-9.424200 0.000000
-9.400900 0.000000
-9.377600 0.000000
-9.354300 0.000000
-9.331000 0.000000
-9.307800 0.000000
-9.284500 0.000000
-9.261200 0.000000
-9.237900 0.000000
-9.214600 0.000000
-9.191300 0.000000
-9.168000 0.000000
-9.144800 0.000000
-9.121500 0.000000
-9.098200 0.000000
-9.074900 0.000000
-9.051600 0.000000
-9.028300 0.000000
-9.005100 0.000000
-8.981800 0.000000
-8.958500 0.000000
-8.935200 0.000000
-8.911900 0.000000
-8.888600 0.000000
-8.865300 0.000000
-8.842100 0.000000
-8.818800 0.000000
-8.795500 0.000000
-8.772200 0.000000
-8.748900 0.000000
-8.725600 0.000000
-8.702400 0.000000
-8.679100 0.000000
-8.655800 0.000000
-8.632500 0.000000
-8.609200 0.000000
-8.585900 0.000000
-8.562600 0.000000
-8.539400 0.000000
-8.516100 0.000000
-8.492800 0.000000
-8.469500 0.000000
-8.446200 0.000000
-8.422900 0.000000
-8.399700 0.000000
-8.376400 0.000000
-8.353100 0.000000
-8.329800 0.000000
-8.306500 0.000000
-8.283200 0.000000
-8.259900 0.000000
-8.236700 0.000000
-8.213400 0.000000
-8.190100 0.000000
-8.166800 0.000000
-8.143500 0.000000
-8.120200 0.000000
-8.097000 0.000000
-8.073700 0.000000
-8.050400 0.000000
-8.027100 0.000000
-8.003800 0.000000
-7.980500 0.000000
-7.957200 0.000000
-7.934000 0.000000
-7.910700 0.000000
-7.887400 0.000000
-7.864100 0.000000
-7.840800 0.000000
-7.817500 0.000000
-7.794300 0.000000
-7.771000 0.000000
-7.747700 0.000000
-7.724400 0.000000
-7.701100 0.000000
-7.677800 0.000000
-7.654500 0.000000
-7.631300 0.000000
-7.608000 0.000000
-7.584700 0.000000
-7.561400 0.000000
-7.538100 0.000000
-7.514800 0.000000
-7.491500 0.000000
-7.468300 0.000000
-7.445000 0.000000
-7.421700 0.421700
-7.398400 0.928100
-7.375100 2.437200
-7.351800 4.395000
-7.328600 4.515300
-7.305300 4.548200
-7.282000 4.728100
-7.258700 5.033200
-7.235400 5.509400
-7.212100 6.266000
-7.188800 6.596700
-7.165600 6.759300
-7.142300 7.273700
-7.119000 7.812000
-7.095700 7.341500
-7.072400 6.075400
-7.049100 5.511000
-7.025900 5.168200
-7.002600 4.925800
-6.979300 4.825400
-6.956000 4.765800
-6.932700 5.054900
-6.909400 4.956300
-6.886100 4.820800
-6.862900 4.732600
-6.839600 4.542500
-6.816300 4.632000
-6.793000 4.762100
-6.769700 4.955700
-6.746400 6.041000
-6.723200 6.628800
-6.699900 5.507800
-6.676600 4.228300
-6.653300 2.609600
-6.630000 1.263500
-6.606700 0.508100
-6.583400 0.101500
-6.560200 0.022200
-6.536900 0.030700
-6.513600 0.217400
-6.490300 0.569200
-6.467000 1.332500
-6.443700 2.530200
-6.420500 4.831700
-6.397200 6.467900
-6.373900 6.025400
-6.350600 5.216500
-6.327300 4.696100
-6.304000 4.376500
-6.280700 4.211200
-6.257500 4.273000
-6.234200 4.580700
-6.210900 4.739400
-6.187600 5.126300
-6.164300 5.713700
-6.141000 6.583000
-6.117800 6.932100
-6.094500 6.660100
-6.071200 6.351600
-6.047900 6.020100
-6.024600 6.163100
-6.001300 6.598700
-5.978000 7.604200
-5.954800 10.075300
-5.931500 11.807300
-5.908200 10.588000
-5.884900 9.995900
-5.861600 9.599300
-5.838300 9.193300
-5.815100 10.672100
-5.791800 9.691800
-5.768500 9.257200
-5.745200 8.638200
-5.721900 9.275800
-5.698600 9.419400
-5.675300 9.852000
-5.652100 9.654500
-5.628800 9.883900
-5.605500 8.236900
-5.582200 8.084200
-5.558900 8.191800
-5.535600 7.159500
-5.512400 6.536200
-5.489100 6.449000
-5.465800 6.496300
-5.442500 6.121100
-5.419200 6.103900
-5.395900 6.569100
-5.372600 6.148400
-5.349400 6.047800
-5.326100 6.348700
-5.302800 6.545500
-5.279500 6.816700
-5.256200 7.004200
-5.232900 8.499400
-5.209700 9.098400
-5.186400 9.387600
-5.163100 9.257100
-5.139800 9.780300
-5.116500 9.577600
-5.093200 9.973400
-5.069900 10.231700
-5.046700 9.619000
-5.023400 11.040500
-5.000100 12.846900
-4.976800 12.048600
-4.953500 11.799800
-4.930200 11.480200
-4.906900 11.263300
-4.883700 9.606400
-4.860400 9.547800
-4.837100 10.478300
-4.813800 13.325000
-4.790500 12.352000
-4.767200 12.357700
-4.744000 9.647800
-4.720700 8.182200
-4.697400 7.534000
-4.674100 6.469000
-4.650800 5.882400
-4.627500 5.274300
-4.604200 4.838700
-4.581000 4.386500
-4.557700 4.083500
-4.534400 3.785800
-4.511100 3.505800
-4.487800 3.250200
-4.464500 3.272900
-4.441300 2.859400
-4.418000 2.556700
-4.394700 2.362900
-4.371400 2.460200
-4.348100 2.430300
-4.324800 2.490000
-4.301500 2.483500
-4.278300 2.752900
-4.255000 3.180800
-4.231700 3.829300
-4.208400 4.961400
-4.185100 7.974100
-4.161800 9.876600
-4.138600 9.723800
-4.115300 11.079400
-4.092000 12.484200
-4.068700 10.807000
-4.045400 10.756700
-4.022100 10.212400
-3.998800 10.690100
-3.975600 11.872200
-3.952300 11.635000
-3.929000 11.322400
-3.905700 9.615800
-3.882400 8.772300
-3.859100 6.231100
-3.835900 6.807600
-3.812600 6.420800
-3.789300 7.246700
-3.766000 8.208200
-3.742700 8.148700
-3.719400 9.011000
-3.696100 10.585800
-3.672900 10.930300
-3.649600 11.271100
-3.626300 11.950600
-3.603000 13.198100
-3.579700 14.612200
-3.556400 14.299500
-3.533200 14.940600
-3.509900 16.244600
-3.486600 15.514100
-3.463300 16.073000
-3.440000 15.519100
-3.416700 14.501600
-3.393400 14.713700
-3.370200 14.253700
-3.346900 14.222900
-3.323600 12.475700
-3.300300 11.694100
-3.277000 11.765200
-3.253700 12.882500
-3.230500 13.093200
-3.207200 11.198600
-3.183900 7.765900
-3.160600 7.092800
-3.137300 6.015300
-3.114000 5.682000
-3.090700 5.817800
-3.067500 6.373700
-3.044200 8.060600
-3.020900 10.340200
-2.997600 9.466300
-2.974300 7.859300
-2.951000 7.419300
-2.927800 7.821600
-2.904500 9.575400
-2.881200 9.348300
-2.857900 8.992500
-2.834600 9.262200
-2.811300 10.536700
-2.788000 11.029600
-2.764800 13.987400
-2.741500 18.309100
-2.718200 14.683000
-2.694900 12.731300
-2.671600 12.286500
-2.648300 7.992200
-2.625100 9.668700
-2.601800 11.867800
-2.578500 9.792400
-2.555200 7.618300
-2.531900 6.398700
-2.508600 5.364000
-2.485300 4.708300
-2.462100 4.707300
-2.438800 4.496000
-2.415500 4.656700
-2.392200 4.973900
-2.368900 5.116800
-2.345600 5.047800
-2.322300 5.888900
-2.299100 4.593000
-2.275800 3.780500
-2.252500 3.676500
-2.229200 3.855500
-2.205900 3.629700
-2.182600 3.369800
-2.159400 3.028400
-2.136100 2.905200
-2.112800 2.544500
-2.089500 2.115500
-2.066200 1.797000
-2.042900 1.685600
-2.019600 1.659500
-1.996400 1.557800
-1.973100 1.407200
-1.949800 1.353000
-1.926500 1.561300
-1.903200 1.777500
-1.879900 2.001300
-1.856700 2.266400
-1.833400 2.570000
-1.810100 2.957200
-1.786800 3.422700
-1.763500 4.236700
-1.740200 5.582900
-1.716900 6.411100
-1.693700 5.698500
-1.670400 4.924100
-1.647100 4.513500
-1.623800 3.966800
-1.600500 3.992200
-1.577200 3.812800
-1.554000 3.683800
-1.530700 3.383600
-1.507400 2.799200
-1.484100 2.640300
-1.460800 2.702500
-1.437500 2.269500
-1.414200 2.302800
-1.391000 2.414500
-1.367700 2.647400
-1.344400 2.986200
-1.321100 3.070300
-1.297800 3.084300
-1.274500 3.081300
-1.251300 3.182600
-1.228000 3.363500
-1.204700 3.294800
-1.181400 3.290500
-1.158100 3.294200
-1.134800 3.244400
-1.111500 3.333600
-1.088300 2.539900
-1.065000 2.344600
-1.041700 2.198200
-1.018400 2.097400
-0.995100 2.014700
-0.971800 1.942100
-0.948600 1.863300
-0.925300 1.792200
-0.902000 1.734300
-0.878700 1.688700
-0.855400 1.646300
-0.832100 1.613600
-0.808800 1.588800
-0.785600 1.562000
-0.762300 1.512600
-0.739000 1.469300
-0.715700 1.433800
-0.692400 1.415300
-0.669100 1.405300
-0.645900 1.398600
-0.622600 1.379900
-0.599300 1.323600
-0.576000 1.282200
-0.552700 1.318800
-0.529400 1.300200
-0.506100 1.249700
-0.482900 0.821400
-0.459600 0.428000
-0.436300 0.000000
-0.413000 0.000000
-0.389700 0.000000
-0.366400 0.000000
-0.343200 0.000000
-0.319900 0.000000
-0.296600 0.000000
-0.273300 0.000000
-0.250000 0.000000
-0.226700 0.000000
-0.203400 0.000000
-0.180200 0.000000
-0.156900 0.000000
-0.133600 0.000000
-0.110300 0.000000
-0.087000 0.000000
-0.063700 0.000000
-0.040400 0.000000
-0.017200 0.000000
0.006100 0.000000
0.029400 0.000000
0.052700 0.000000
0.076000 0.000000
0.099300 0.000000
0.122500 0.000000
0.145800 0.000000
0.169100 0.000000
0.192400 0.000000
0.215700 0.000000
0.239000 0.000000
0.262300 0.000000
0.285500 0.000000
0.308800 0.000000
0.332100 0.000000
0.355400 0.000000
0.378700 0.000000
0.402000 0.000000
0.425200 0.000000
0.448500 0.000000
0.471800 0.000000
0.495100 0.000000
0.518400 0.000000
0.541700 0.000000
0.565000 0.000000
0.588200 0.000000
0.611500 0.000000
0.634800 0.000000
0.658100 0.000000
0.681400 0.000000
0.704700 0.000000
0.727900 0.000000
0.751200 0.000000
0.774500 0.000000
0.797800 0.000000
0.821100 0.000000
0.844400 0.000000
0.867700 0.000000
0.890900 0.000000
0.914200 0.000000
0.937500 0.000000
0.960800 0.000000
0.984100 0.000000
1.007400 0.000000
1.030600 0.000000
1.053900 0.000000
1.077200 0.000000
1.100500 0.000000
1.123800 0.000000
1.147100 0.000000
1.170400 0.000000
1.193600 0.000000
1.216900 0.000000
1.240200 0.000000
1.263500 0.000000
1.286800 0.000000
1.310100 0.000000
1.333300 0.000000
1.356600 0.000000
1.379900 0.000000
1.403200 0.000000
1.426500 0.000000
1.449800 0.000000
1.473100 0.000000
1.496300 0.000000
1.519600 0.000000
1.542900 0.000000
1.566200 0.000000
1.589500 0.071200
1.612800 0.048600
1.636000 0.060700
1.659300 0.073800
1.682600 0.087700
1.705900 0.102600
1.729200 0.116500
1.752500 0.118400
1.775800 0.122700
1.799000 0.129100
1.822300 0.135100
1.845600 0.141200
1.868900 0.147200
1.892200 0.153600
1.915500 0.160800
1.938700 0.168700
1.962000 0.176900
1.985300 0.185400
2.008600 0.193900
2.031900 0.198600
2.055200 0.203500
2.078500 0.207800
2.101700 0.212700
2.125000 0.217600
2.148300 0.222300
2.171600 0.227600
2.194900 0.233300
2.218200 0.239300
2.241400 0.245400
2.264700 0.251500
2.288000 0.257600
2.311300 0.263900
2.334600 0.270300
2.357900 0.276800
2.381200 0.283400
2.404400 0.289900
2.427700 0.295000
2.451000 0.300100
2.474300 0.305200
2.497600 0.310600
2.520900 0.315900
2.544200 0.321200
2.567400 0.326500
2.590700 0.332000
2.614000 0.337600
2.637300 0.343200
2.660600 0.349000
2.683900 0.354800
2.707100 0.360600
2.730400 0.366500
2.753700 0.372400
2.777000 0.378300
2.800300 0.384500
2.823600 0.391100
2.846900 0.397800
2.870100 0.404500
2.893400 0.410800
2.916700 0.416700
2.940000 0.422900
2.963300 0.428500
2.986600 0.434300
3.009800 0.440000
3.033100 0.445900
3.056400 0.451700
3.079700 0.457600
3.103000 0.463600
3.126300 0.469500
3.149600 0.475500
3.172800 0.481800
3.196100 0.488400
3.219400 0.495000
3.242700 0.501800
3.266000 0.508600
3.289300 0.515400
3.312500 0.522200
3.335800 0.529100
3.359100 0.536000
3.382400 0.542900
3.405700 0.549900
3.429000 0.641000
3.452300 0.606600
3.475500 0.623400
3.498800 0.641600
3.522100 0.661000
3.545400 0.645900
3.568700 0.642000
3.592000 0.642700
3.615200 0.642300
3.638500 0.641800
3.661800 0.643300
3.685100 0.644500
3.708400 0.645300
3.731700 0.645900
3.755000 0.644800
3.778200 0.642300
3.801500 0.640400
3.824800 0.639600
3.848100 0.638800
3.871400 0.638400
3.894700 0.638000
3.917900 0.637900
3.941200 0.637700
3.964500 0.638100
3.987800 0.638800
4.011100 0.722000
4.034400 0.745000
4.057700 0.766000
4.080900 0.784500
4.104200 0.795200
4.127500 0.794200
4.150800 0.800900
4.174100 0.808800
4.197400 0.819000
4.220600 0.830000
4.243900 0.841000
4.267200 0.852300
4.290500 0.861300
4.313800 0.867900
4.337100 0.875600
4.360400 0.887000
4.383600 0.900000
4.406900 0.912200
4.430200 0.924400
4.453500 0.935700
4.476800 0.948000
4.500100 0.960100
4.523300 0.972000
4.546600 0.984500
4.569900 0.997400
4.593200 1.010300
4.616500 1.022100
4.639800 1.035300
4.663100 1.050100
4.686300 1.067500
4.709600 1.109500
4.732900 1.100400
4.756200 1.112100
4.779500 1.152900
4.802800 1.210700
4.826000 1.254900
4.849300 1.297800
4.872600 1.341100
4.895900 1.367100
4.919200 1.361200
4.942500 1.331000
4.965800 1.330500
4.989000 1.338800
5.012300 1.364800
5.035600 1.333900
5.058900 1.313500
5.082200 1.308400
5.105500 1.305400
5.128800 1.301900
5.152000 1.298100
5.175300 1.295200
5.198600 1.292900
5.221900 1.286700
5.245200 1.284700
5.268500 1.285200
5.291700 1.286300
5.315000 1.294800
5.338300 1.321100
5.361600 1.308800
5.384900 1.314500
5.408200 1.325200
5.431500 1.332400
5.454700 1.342600
5.478000 1.369900
5.501300 1.414700
5.524600 1.428900
5.547900 1.426100
5.571200 1.404500
5.594400 1.360200
5.617700 1.337000
5.641000 1.325200
5.664300 1.319100
5.687600 1.320100
5.710900 1.316200
5.734200 1.316000
5.757400 1.314800
5.780700 1.317400
5.804000 1.336600
5.827300 1.340900
5.850600 1.346800
5.873900 1.356200
5.897100 1.367100
5.920400 1.380300
5.943700 1.350600
5.967000 1.294600
5.990300 1.261000
6.013600 1.279300
6.036900 1.301900
6.060100 1.338700
6.083400 1.517000
6.106700 1.654500
6.130000 1.375800
6.153300 1.266300
6.176600 1.202400
6.199800 1.176100
6.223100 1.165200
6.246400 1.194000
6.269700 1.176300
6.293000 1.140200
6.316300 1.126800
6.339600 1.105700
6.362800 1.096400
6.386100 1.084600
6.409400 1.108300
6.432700 1.090400
6.456000 1.077800
6.479300 1.065400
6.502500 1.049400
6.525800 1.041500
6.549100 1.044500
6.572400 1.037800
6.595700 1.041000
6.619000 1.045400
6.642300 1.083100
6.665500 1.057200
6.688800 1.050200
6.712100 1.052100
6.735400 1.091200
6.758700 1.071800
6.782000 1.066400
6.805200 1.079800
6.828500 1.118400
6.851800 1.119700
6.875100 1.147500
6.898400 1.293900
6.921700 1.219000
6.945000 1.245700
6.968200 1.278200
6.991500 1.314100
7.014800 1.354800
7.038100 1.395300
7.061400 1.546300
7.084700 1.695800
7.107900 1.646500
7.131200 1.696900
7.154500 1.773600
7.177800 1.846900
7.201100 1.871300
7.224400 1.916700
7.247700 1.968500
7.270900 2.056000
7.294200 2.129400
7.317500 2.175000
7.340800 2.216600
7.364100 2.258500
7.387400 2.321900
7.410700 2.401000
7.433900 2.464300
7.457200 2.490900
7.480500 2.565500
7.503800 2.578300
7.527100 2.606300
7.550400 2.614000
7.573600 2.662300
7.596900 2.734700
7.620200 2.800500
7.643500 2.873900
7.666800 2.651900
7.690100 2.650600
7.713400 2.579200
7.736600 2.593500
7.759900 2.632000
7.783200 2.658400
7.806500 2.604400
7.829800 2.594000
7.853100 2.585400
7.876300 2.613700
7.899600 2.726800
7.922900 2.716700
7.946200 2.753100
7.969500 2.577500
7.992800 2.564500
8.016100 2.926000
8.039300 2.745900
8.062600 2.915500
8.085900 3.041400
8.109200 2.999000
8.132500 3.067000
8.155800 3.208000
8.179000 3.134900
8.202300 2.816800
8.225600 2.271800
8.248900 1.999400
8.272200 1.791700
8.295500 1.649900
8.318800 1.583100
8.342000 1.546900
8.365300 1.484900
8.388600 1.437400
8.411900 1.433600
8.435200 1.422500
8.458500 1.330600
8.481700 1.251100
8.505000 1.212900
8.528300 1.119300
8.551600 1.063400
8.574900 1.039800
8.598200 1.029400
8.621500 1.016900
8.644700 0.958700
8.668000 0.905900
8.691300 0.893000
8.714600 0.872700
8.737900 0.864800
8.761200 0.866300
8.784400 0.858200
8.807700 0.859800
8.831000 0.864800
8.854300 0.873200
8.877600 0.882400
8.900900 0.911000
8.924200 0.928700
8.947400 0.938400
8.970700 0.947900
8.994000 0.957200
9.017300 0.967400
9.040600 0.978500
9.063900 0.982700
9.087100 0.985800
9.110400 1.010200
9.133700 1.027000
9.157000 1.025200
9.180300 1.026900
9.203600 1.064300
9.226900 1.099200
9.250100 1.116000
9.273400 1.137600
9.296700 1.161100
9.320000 1.183900
9.343300 1.208500
9.366600 1.228900
9.389800 1.270100
9.413100 1.297800
9.436400 1.329800
9.459700 1.364100
9.483000 1.405200
9.506300 1.428900
9.529600 1.462400
9.552800 1.490300
9.576100 1.519500
9.599400 1.439500
9.622700 1.402600
9.646000 1.441700
9.669300 1.482000
9.692500 1.529600
9.715800 1.572400
9.739100 1.606000
9.762400 1.665600
9.785700 1.721900
9.809000 1.765200
9.832300 2.053800
9.855500 2.019900
9.878800 2.082800
9.902100 2.212100
9.925400 2.163800
9.948700 2.285100
9.972000 2.505700
9.995300 2.494200
10.018500 2.491900
10.041800 2.748800
10.065100 3.019000
10.088400 3.178700
10.111700 3.552900
10.135000 3.584600
10.158200 3.506400
10.181500 3.505400
10.204800 3.462500
10.228100 3.424200
10.251400 3.499600
10.274700 3.650600
10.298000 3.559400
10.321200 3.543700
10.344500 3.490800
10.367800 3.492400
10.391100 3.425500
10.414400 3.422000
10.437700 3.237600
10.460900 3.121200
10.484200 2.984300
10.507500 2.701200
10.530800 2.459300
10.554100 2.339700
10.577400 2.346400
10.600700 2.439400
10.623900 2.575600
10.647200 2.739700
10.670500 3.002800
10.693800 3.116100
10.717100 3.394700
10.740400 3.422700
10.763600 3.324800
10.786900 3.217800
10.810200 3.038000
10.833500 2.919100
10.856800 2.837400
10.880100 2.802600
10.903400 2.730000
10.926600 2.631600
10.949900 2.612500
10.973200 2.414100
10.996500 2.250000
11.019800 2.151800
11.043100 2.102800
11.066300 2.060100
11.089600 1.996400
11.112900 1.950000
11.136200 1.972400
11.159500 1.945000
11.182800 1.935000
11.206100 1.938700
11.229300 1.934000
11.252600 1.931600
11.275900 1.902500
11.299200 1.907100
11.322500 1.886200
11.345800 1.940200
11.369000 1.911400
11.392300 1.934600
11.415600 1.935300
11.438900 1.953500
11.462200 2.011300
11.485500 1.979300
11.508800 1.946000
11.532000 2.008300
11.555300 2.097900
11.578600 2.180200
11.601900 2.245500
11.625200 2.354200
11.648500 2.540100
11.671700 2.754000
11.695000 2.821900
11.718300 2.728900
11.741600 2.756200
11.764900 2.601300
11.788200 2.491100
11.811500 2.376600
11.834700 2.350200
11.858000 2.306700
11.881300 2.253900
11.904600 2.235800
11.927900 2.234100
11.951200 2.146000
11.974400 2.092600
11.997700 2.071300
12.021000 2.109000
12.044300 2.131300
12.067600 2.223400
12.090900 2.187700
12.114200 2.163900
12.137400 2.197500
12.160700 2.252200
12.184000 2.303200
12.207300 2.420200
12.230600 2.489500
12.253900 2.529600
12.277100 2.565400
12.300400 2.586200
12.323700 2.581700
12.347000 2.616800
12.370300 2.638300
12.393600 2.613400
12.416900 2.634500
12.440100 2.652800
12.463400 2.688000
12.486700 2.714300
12.510000 2.680500
12.533300 2.619300
12.556600 2.721900
12.579900 2.660600
12.603100 2.637100
12.626400 2.660400
12.649700 2.687300
12.673000 2.714600
12.696300 2.637900
12.719600 2.572900
12.742800 2.623500
12.766100 2.758800
12.789400 2.782000
12.812700 2.747700
12.836000 2.782100
12.859300 2.797000
12.882600 2.738900
12.905800 2.616100
12.929100 2.517300
12.952400 2.449100
12.975700 2.423000
12.999000 2.477400
13.022300 2.550000
13.045500 2.583700
13.068800 2.548700
13.092100 2.507300
13.115400 2.467200
13.138700 2.441300
13.162000 2.403200
13.185300 2.411500
13.208500 2.435900
13.231800 2.504000
13.255100 2.596900
13.278400 2.663200
13.301700 2.704000
13.325000 2.735900
13.348200 2.822400
13.371500 2.871100
13.394800 2.730100
13.418100 2.689800
13.441400 2.655800
13.464700 2.645500
13.488000 2.647700
13.511200 2.689400
13.534500 2.628400
13.557800 2.657100
13.581100 2.635600
13.604400 2.596000
13.627700 2.594100
13.650900 2.602400
13.674200 2.638100
13.697500 2.695000
13.720800 2.734700
13.744100 2.891300
13.767400 2.704500
13.790700 2.613000
13.813900 2.548200
13.837200 2.489500
13.860500 2.491700
13.883800 2.508400
13.907100 2.520300
13.930400 2.527700
13.953600 2.563000
13.976900 2.631600
14.000200 2.689000
14.023500 2.691000
14.046800 2.854800
14.070100 2.558000
14.093400 2.564200
14.116600 2.475800
14.139900 2.387500
14.163200 2.241300
14.186500 2.149900
14.209800 2.069500
14.233100 1.954300
14.256300 1.907700
14.279600 1.890500
14.302900 1.856900
14.326200 1.861300
14.349500 1.850200
14.372800 1.830900
14.396100 1.817600
14.419300 1.814500
14.442600 1.812100
14.465900 1.818600
14.489200 1.825100
14.512500 1.830800
14.535800 1.869100
14.559000 1.865500
14.582300 1.889000
14.605600 1.924500
14.628900 1.973700
14.652200 2.030700
14.675500 2.091700
14.698800 2.127200
14.722000 2.280300
14.745300 2.225300
14.768600 2.312600
14.791900 2.290300
14.815200 2.324600
14.838500 2.377700
14.861800 2.423700
14.885000 2.534900
14.908300 2.559800
14.931600 2.624600
14.954900 2.705900
14.978200 2.815300
15.001500 2.971800
15.024700 2.803600
15.048000 2.529200
15.071300 2.394000
15.094600 2.295700
15.117900 2.197900
15.141200 2.164300
15.164500 2.079400
15.187700 2.040700
15.211000 2.015100
15.234300 1.979500
15.257600 1.942800
15.280900 1.894700
15.304200 1.835000
15.327400 1.800900
15.350700 1.823100
15.374000 1.967900
15.397300 2.057100
15.420600 2.166800
15.443900 2.057700
15.467200 2.073200
15.490400 2.047600
15.513700 2.081200
15.537000 2.043900
15.560300 2.000600
15.583600 1.944000
15.606900 1.887200
15.630100 1.848600
15.653400 1.834100
15.676700 1.813300
15.700000 1.777300
15.723300 1.792100
15.746600 1.745200
15.769900 1.729300
15.793100 1.680700
15.816400 1.702800
15.839700 1.701200
15.863000 1.598900
15.886300 1.501700
15.909600 1.419000
15.932800 1.366600
15.956100 1.339900
15.979400 1.295900
16.002700 1.259500
16.026000 1.246100
16.049300 1.269200
16.072600 1.378600
16.095800 1.460400
16.119100 1.537100
16.142400 1.678600
16.165700 1.864200
16.189000 2.054400
16.212300 2.271400
16.235500 2.354800
16.258800 2.441300
16.282100 2.446200
16.305400 2.461900
16.328700 2.512200
16.352000 2.510100
16.375300 2.558700
16.398500 2.666000
16.421800 2.938500
16.445100 2.860000
16.468400 2.629600
16.491700 2.567500
16.515000 2.525300
16.538200 2.477400
16.561500 2.499900
16.584800 2.371300
16.608100 2.309100
16.631400 2.283700
16.654700 2.325700
16.678000 2.356700
16.701200 2.399400
16.724500 2.438200
16.747800 2.484700
16.771100 2.544500
16.794400 2.559500
16.817700 2.647000
16.840900 2.810200
16.864200 2.488800
16.887500 2.386000
16.910800 2.300400
16.934100 2.279800
16.957400 2.249100
16.980700 2.243800
17.003900 2.162800
17.027200 2.119700
17.050500 2.114200
17.073800 2.094600
17.097100 2.132700
17.120400 2.149200
17.143600 2.205800
17.166900 2.257200
17.190200 2.401100
17.213500 2.427700
17.236800 2.253900
17.260100 2.232800
17.283400 2.175100
17.306600 2.099200
17.329900 2.036800
17.353200 1.985700
17.376500 1.892300
17.399800 1.705100
17.423100 1.737000
17.446400 1.607100
17.469600 1.601100
17.492900 1.569100
17.516200 1.452500
17.539500 1.215000
17.562800 1.124500
17.586100 1.051500
17.609300 1.020600
17.632600 0.849800
17.655900 0.787600
17.679200 0.731900
17.702500 0.680500
17.725800 0.638700
17.749100 0.600600
17.772300 0.559900
17.795600 0.520700
17.818900 0.483100
17.842200 0.446500
17.865500 0.409600
17.888800 0.371300
17.912000 0.347800
17.935300 0.327700
17.958600 0.310300
17.981900 0.294600
18.005200 0.280100
18.028500 0.265300
18.051800 0.235500
18.075000 0.204700
18.098300 0.185200
18.121600 0.169300
18.144900 0.158300
18.168200 0.150700
18.191500 0.143500
18.214700 0.137000
18.238000 0.131000
18.261300 0.125900
18.284600 0.122000
18.307900 0.118000
18.331200 0.113300
18.354500 0.108600
18.377700 0.104400
18.401000 0.100700
18.424300 0.097300
18.447600 0.082400
18.470900 0.080600
18.494200 0.078900
18.517400 0.077300
18.540700 0.075900
18.564000 0.074600
18.587300 0.078700
18.610600 0.070000
18.633900 0.060600
18.657200 0.053500
18.680400 0.048100
18.703700 0.043200
18.727000 0.038600
18.750300 0.034400
18.773600 0.030600
18.796900 0.033800
18.820100 0.028300
18.843400 0.023100
18.866700 0.018300
18.890000 0.013900
18.913300 0.009900
18.936600 0.006300
18.959900 0.003100
18.983100 0.000200
19.006400 0.000000
19.029700 0.000000
19.053000 0.000000
19.076300 0.000000
19.099600 0.000000
19.122800 0.000000
19.146100 0.000000
19.169400 0.000000
19.192700 0.000000
19.216000 0.000000
19.239300 0.000000
19.262600 0.000000
19.285800 0.000000
19.309100 0.000000
19.332400 0.000000
19.355700 0.000000
19.379000 0.000000
19.402300 0.000000
19.425500 0.000000
19.448800 0.000000
19.472100 0.000000
19.495400 0.000000
19.518700 0.000000
19.542000 0.000000
19.565300 0.000000
19.588500 0.000000
19.611800 0.000000
19.635100 0.000000
19.658400 0.000000
19.681700 0.000000
19.705000 0.000000
19.728300 0.000000
19.751500 0.000000
19.774800 0.000000
19.798100 0.000000
19.821400 0.000000
19.844700 0.000000
19.868000 0.000000
19.891200 0.000000
19.914500 0.000000
19.937800 0.000000
19.961100 0.000000
19.984400 0.000000
20.007700 0.000000
20.031000 0.000000
20.054200 0.000000
20.077500 0.000000
20.100800 0.000000
20.124100 0.000000
20.147400 0.000000
20.170700 0.000000
20.193900 0.000000
20.217200 0.000000
20.240500 0.000000
20.263800 0.000000
20.287100 0.000000
20.310400 0.000000
20.333700 0.000000
20.356900 0.000000
20.380200 0.000000
20.403500 0.000000
20.426800 0.000000
20.450100 0.000000
20.473400 0.000000
20.496600 0.000000
20.519900 0.000000
20.543200 0.000000
20.566500 0.000000
20.589800 0.000000
20.613100 0.000000
20.636400 0.000000
20.659600 0.000000
20.682900 0.000000
20.706200 0.000000
20.729500 0.000000
20.752800 0.000000
20.776100 0.000000
20.799300 0.000000
20.822600 0.000000
20.845900 0.000000
20.869200 0.000000
20.892500 0.000000
20.915800 0.000000
20.939100 0.000000
20.962300 0.000000
20.985600 0.000000
21.008900 0.000000
21.032200 0.000000
21.055500 0.000000
21.078800 0.000000
21.102000 0.000000
e
