set title 'mp-551470 - Density of States'
set xlabel 'Energy (eV)'
set ylabel 'DOS (states/eV)'
set grid
set xrange [-10:10]
set yrange [0:160.889]
set xzeroaxis lt -1
set terminal png size 800,600
set output 'mp-551470_dos_gnuplot.png'
plot '-' using 1:2 with lines title 'DOS'
-14.741600 0.000000
-14.718400 0.000000
-14.695100 0.000000
-14.671900 0.000000
-14.648700 0.000000
-14.625500 0.000000
-14.602200 0.000000
-14.579000 0.000000
-14.555800 0.000000
-14.532600 0.000000
-14.509300 0.000000
-14.486100 0.000000
-14.462900 0.000000
-14.439600 0.000000
-14.416400 0.000000
-14.393200 0.000000
-14.370000 0.000000
-14.346700 0.000000
-14.323500 0.000000
-14.300300 0.000000
-14.277100 0.000000
-14.253800 0.000000
-14.230600 0.000000
-14.207400 0.000000
-14.184100 0.000000
-14.160900 0.000000
-14.137700 0.000000
-14.114500 0.000000
-14.091200 0.000000
-14.068000 0.000000
-14.044800 0.000000
-14.021600 0.000000
-13.998300 0.000000
-13.975100 0.000000
-13.951900 0.000000
-13.928600 0.000000
-13.905400 0.000000
-13.882200 0.000000
-13.859000 0.000000
-13.835700 0.000000
-13.812500 0.000000
-13.789300 0.000000
-13.766100 0.000000
-13.742800 0.000000
-13.719600 0.000000
-13.696400 0.000000
-13.673100 0.000000
-13.649900 0.000000
-13.626700 0.000000
-13.603500 0.000000
-13.580200 0.000000
-13.557000 0.000000
-13.533800 0.000000
-13.510500 0.000000
-13.487300 0.000000
-13.464100 0.000000
-13.440900 0.000000
-13.417600 0.000000
-13.394400 0.000000
-13.371200 0.000000
-13.348000 0.000000
-13.324700 0.000000
-13.301500 0.000000
-13.278300 0.000000
-13.255000 0.000000
-13.231800 0.000000
-13.208600 0.000000
-13.185400 0.000000
-13.162100 0.000000
-13.138900 0.000000
-13.115700 0.000000
-13.092500 0.000000
-13.069200 0.000000
-13.046000 0.000000
-13.022800 0.000000
-12.999500 0.000000
-12.976300 0.000000
-12.953100 0.000000
-12.929900 0.000000
-12.906600 0.000000
-12.883400 0.000000
-12.860200 0.000000
-12.837000 0.000000
-12.813700 0.000000
-12.790500 0.000000
-12.767300 0.000000
-12.744000 0.000000
-12.720800 0.000000
-12.697600 0.000000
-12.674400 0.000000
-12.651100 0.000000
-12.627900 7.107900
-12.604700 7.561100
-12.581500 8.838400
-12.558200 9.504400
-12.535000 10.749300
-12.511800 12.266600
-12.488500 15.258900
-12.465300 19.596800
-12.442100 30.493900
-12.418900 42.783300
-12.395600 0.000000
-12.372400 0.000000
-12.349200 0.000000
-12.326000 0.000000
-12.302700 0.000000
-12.279500 0.000000
-12.256300 0.000000
-12.233000 0.000000
-12.209800 0.000000
-12.186600 0.000000
-12.163400 0.000000
-12.140100 0.000000
-12.116900 0.000000
-12.093700 0.000000
-12.070500 0.000000
-12.047200 0.000000
-12.024000 0.000000
-12.000800 0.000000
-11.977500 0.000000
-11.954300 0.000000
-11.931100 0.000000
-11.907900 0.000000
-11.884600 0.000000
-11.861400 0.000000
-11.838200 0.000000
-11.815000 0.000000
-11.791700 0.000000
-11.768500 0.000000
-11.745300 0.000000
-11.722000 0.000000
-11.698800 0.000000
-11.675600 0.000000
-11.652400 0.000000
-11.629100 0.000000
-11.605900 0.000000
-11.582700 0.000000
-11.559500 0.000000
-11.536200 0.000000
-11.513000 0.000000
-11.489800 0.000000
-11.466500 0.000000
-11.443300 0.000000
-11.420100 0.000000
-11.396900 0.000000
-11.373600 0.000000
-11.350400 0.000000
-11.327200 0.000000
-11.304000 0.000000
-11.280700 0.000000
-11.257500 0.000000
-11.234300 0.000000
-11.211000 0.000000
-11.187800 0.000000
-11.164600 0.000000
-11.141400 0.000000
-11.118100 0.000000
-11.094900 0.000000
-11.071700 0.000000
-11.048400 0.000000
-11.025200 0.000000
-11.002000 0.000000
-10.978800 0.000000
-10.955500 0.000000
-10.932300 0.000000
-10.909100 0.000000
-10.885900 0.000000
-10.862600 0.000000
-10.839400 0.000000
-10.816200 0.000000
-10.792900 0.000000
-10.769700 0.000000
-10.746500 0.000000
-10.723300 0.000000
-10.700000 0.000000
-10.676800 0.000000
-10.653600 0.000000
-10.630400 0.000000
-10.607100 0.000000
-10.583900 0.000000
-10.560700 0.000000
-10.537400 0.000000
-10.514200 0.000000
-10.491000 0.000000
-10.467800 0.000000
-10.444500 0.000000
-10.421300 0.000000
-10.398100 0.000000
-10.374900 0.000000
-10.351600 0.000000
-10.328400 0.000000
-10.305200 0.000000
-10.281900 0.000000
-10.258700 0.000000
-10.235500 0.000000
-10.212300 0.000000
-10.189000 0.000000
-10.165800 0.000000
-10.142600 0.000000
-10.119400 0.000000
-10.096100 0.000000
-10.072900 0.000000
-10.049700 0.000000
-10.026400 0.000000
-10.003200 0.000000
-9.980000 0.000000
-9.956800 0.000000
-9.933500 0.000000
-9.910300 0.000000
-9.887100 0.000000
-9.863900 0.000000
-9.840600 0.000000
-9.817400 0.000000
-9.794200 0.000000
-9.770900 0.000000
-9.747700 0.000000
-9.724500 0.000000
-9.701300 0.000000
-9.678000 0.000000
-9.654800 0.000000
-9.631600 0.000000
-9.608400 0.000000
-9.585100 0.000000
-9.561900 0.000000
-9.538700 0.000000
-9.515400 0.000000
-9.492200 0.000000
-9.469000 0.000000
-9.445800 0.000000
-9.422500 0.000000
-9.399300 0.000000
-9.376100 0.000000
-9.352900 0.000000
-9.329600 0.000000
-9.306400 0.000000
-9.283200 0.000000
-9.259900 0.000000
-9.236700 0.000000
-9.213500 0.000000
-9.190300 0.000000
-9.167000 0.000000
-9.143800 0.000000
-9.120600 0.000000
-9.097400 0.000000
-9.074100 0.000000
-9.050900 0.000000
-9.027700 0.000000
-9.004400 0.000000
-8.981200 0.000000
-8.958000 0.000000
-8.934800 0.000000
-8.911500 0.000000
-8.888300 0.000000
-8.865100 0.000000
-8.841900 0.000000
-8.818600 0.000000
-8.795400 0.000000
-8.772200 0.000000
-8.748900 0.000000
-8.725700 0.000000
-8.702500 0.000000
-8.679300 0.000000
-8.656000 0.000000
-8.632800 0.000000
-8.609600 0.000000
-8.586300 0.000000
-8.563100 0.000000
-8.539900 0.000000
-8.516700 0.000000
-8.493400 0.000000
-8.470200 0.000000
-8.447000 0.000000
-8.423800 0.000000
-8.400500 0.000000
-8.377300 0.000000
-8.354100 0.000000
-8.330800 0.000000
-8.307600 0.000000
-8.284400 0.000000
-8.261200 0.000000
-8.237900 0.000000
-8.214700 0.000000
-8.191500 0.000000
-8.168300 0.000000
-8.145000 0.000000
-8.121800 0.000000
-8.098600 0.000000
-8.075300 0.000000
-8.052100 0.000000
-8.028900 0.000000
-8.005700 0.000000
-7.982400 0.000000
-7.959200 0.000000
-7.936000 0.000000
-7.912800 0.000000
-7.889500 0.000000
-7.866300 0.000000
-7.843100 0.000000
-7.819800 0.000000
-7.796600 0.000000
-7.773400 0.000000
-7.750200 0.000000
-7.726900 0.000000
-7.703700 0.000000
-7.680500 0.000000
-7.657300 0.000000
-7.634000 0.000000
-7.610800 0.000000
-7.587600 0.000000
-7.564300 0.000000
-7.541100 0.000000
-7.517900 0.000000
-7.494700 0.000000
-7.471400 0.000000
-7.448200 0.000000
-7.425000 0.000000
-7.401800 0.000000
-7.378500 0.000000
-7.355300 0.000000
-7.332100 0.000000
-7.308800 0.000000
-7.285600 0.000000
-7.262400 0.000000
-7.239200 0.000000
-7.215900 0.000000
-7.192700 0.000000
-7.169500 0.000000
-7.146300 0.000000
-7.123000 0.000000
-7.099800 0.000000
-7.076600 0.000000
-7.053300 0.000000
-7.030100 0.000000
-7.006900 0.000000
-6.983700 0.000000
-6.960400 0.000000
-6.937200 0.000000
-6.914000 0.000000
-6.890800 0.000000
-6.867500 0.000000
-6.844300 0.000000
-6.821100 0.000000
-6.797800 0.000000
-6.774600 0.000000
-6.751400 0.000000
-6.728200 0.000000
-6.704900 0.000000
-6.681700 0.000000
-6.658500 0.000000
-6.635300 0.000000
-6.612000 0.000000
-6.588800 0.000000
-6.565600 1.804000
-6.542300 22.975400
-6.519100 43.609800
-6.495900 54.274700
-6.472700 120.973600
-6.449400 100.996000
-6.426200 75.881300
-6.403000 80.006300
-6.379700 59.359500
-6.356500 94.091500
-6.333300 97.540200
-6.310100 30.440700
-6.286800 33.250200
-6.263600 51.893700
-6.240400 75.709800
-6.217200 89.453100
-6.193900 102.841100
-6.170700 89.737200
-6.147500 110.278500
-6.124200 146.263000
-6.101000 118.000700
-6.077800 110.532200
-6.054600 25.837800
-6.031300 23.626600
-6.008100 15.674900
-5.984900 13.711300
-5.961700 12.490300
-5.938400 2.467900
-5.915200 0.000000
-5.892000 0.000000
-5.868700 0.000000
-5.845500 0.000000
-5.822300 0.000000
-5.799100 0.000000
-5.775800 0.000000
-5.752600 0.000000
-5.729400 0.000000
-5.706200 0.000000
-5.682900 0.000000
-5.659700 0.000000
-5.636500 0.000000
-5.613200 0.000000
-5.590000 0.000000
-5.566800 0.000000
-5.543600 0.000000
-5.520300 0.000000
-5.497100 0.000000
-5.473900 0.000000
-5.450700 0.000000
-5.427400 0.000000
-5.404200 0.000000
-5.381000 0.000000
-5.357700 0.000000
-5.334500 0.000000
-5.311300 0.000000
-5.288100 0.000000
-5.264800 0.000000
-5.241600 0.000000
-5.218400 0.000000
-5.195200 0.000000
-5.171900 0.000000
-5.148700 0.000000
-5.125500 0.000000
-5.102200 0.000000
-5.079000 0.000000
-5.055800 0.000000
-5.032600 0.000000
-5.009300 0.000000
-4.986100 0.000000
-4.962900 0.000000
-4.939700 0.000000
-4.916400 0.000000
-4.893200 0.000000
-4.870000 0.000000
-4.846700 0.000000
-4.823500 0.000000
-4.800300 0.000000
-4.777100 0.000000
-4.753800 0.000000
-4.730600 0.000000
-4.707400 0.000000
-4.684200 0.000000
-4.660900 0.000000
-4.637700 0.000000
-4.614500 0.000000
-4.591200 0.000000
-4.568000 0.000000
-4.544800 0.000000
-4.521600 0.000000
-4.498300 0.000000
-4.475100 0.000000
-4.451900 0.000000
-4.428700 0.000000
-4.405400 0.000000
-4.382200 0.000000
-4.359000 0.000000
-4.335700 0.000000
-4.312500 0.000000
-4.289300 0.000000
-4.266100 0.000000
-4.242800 0.000000
-4.219600 0.000000
-4.196400 0.000000
-4.173200 0.000000
-4.149900 0.000000
-4.126700 0.000000
-4.103500 0.000000
-4.080200 0.000000
-4.057000 0.000000
-4.033800 0.000000
-4.010600 0.000000
-3.987300 0.000000
-3.964100 0.000000
-3.940900 0.000000
-3.917600 0.000000
-3.894400 0.000000
-3.871200 0.000000
-3.848000 0.000000
-3.824700 0.000000
-3.801500 0.000000
-3.778300 0.000000
-3.755100 0.000000
-3.731800 0.000000
-3.708600 0.000000
-3.685400 0.000000
-3.662100 0.000000
-3.638900 0.000000
-3.615700 0.000000
-3.592500 0.000000
-3.569200 0.000000
-3.546000 0.000000
-3.522800 0.000000
-3.499600 0.000000
-3.476300 0.000000
-3.453100 0.000000
-3.429900 0.000000
-3.406600 0.000000
-3.383400 0.000000
-3.360200 0.000000
-3.337000 0.000000
-3.313700 0.000000
-3.290500 0.000000
-3.267300 0.000000
-3.244100 0.000000
-3.220800 0.000000
-3.197600 0.000000
-3.174400 0.000000
-3.151100 0.000000
-3.127900 0.000000
-3.104700 0.000000
-3.081500 0.000000
-3.058200 0.000000
-3.035000 0.000000
-3.011800 0.000000
-2.988600 0.000000
-2.965300 0.000000
-2.942100 0.000000
-2.918900 0.000000
-2.895600 0.000000
-2.872400 0.000000
-2.849200 0.000000
-2.826000 0.000000
-2.802700 0.000000
-2.779500 0.000000
-2.756300 0.000000
-2.733100 0.000000
-2.709800 0.000000
-2.686600 0.213200
-2.663400 0.564600
-2.640100 0.547500
-2.616900 0.525800
-2.593700 0.499500
-2.570500 0.479600
-2.547200 0.488700
-2.524000 0.497800
-2.500800 0.507000
-2.477600 0.516300
-2.454300 0.525700
-2.431100 0.535100
-2.407900 0.544600
-2.384600 0.554200
-2.361400 0.620200
-2.338200 0.862100
-2.315000 1.101400
-2.291700 1.273600
-2.268500 1.274300
-2.245300 1.211100
-2.222100 1.237300
-2.198800 1.268900
-2.175600 1.302100
-2.152400 1.336000
-2.129100 1.370500
-2.105900 1.396100
-2.082700 1.408500
-2.059500 1.414000
-2.036200 1.439600
-2.013000 1.460600
-1.989800 1.485300
-1.966600 1.513700
-1.943300 1.543400
-1.920100 1.573000
-1.896900 1.602600
-1.873600 1.587600
-1.850400 1.620300
-1.827200 1.652800
-1.804000 1.684900
-1.780700 1.716700
-1.757500 1.748200
-1.734300 1.888600
-1.711100 2.068600
-1.687800 2.213900
-1.664600 2.361400
-1.641400 2.686900
-1.618100 3.094000
-1.594900 3.513600
-1.571700 4.008000
-1.548500 4.118700
-1.525200 4.447200
-1.502000 4.824200
-1.478800 5.732200
-1.455500 7.016700
-1.432300 7.411200
-1.409100 5.961000
-1.385900 6.719300
-1.362600 7.941700
-1.339400 7.814400
-1.316200 6.553600
-1.293000 6.116300
-1.269700 5.785400
-1.246500 5.406800
-1.223300 5.298000
-1.200000 9.188600
-1.176800 10.113500
-1.153600 6.363300
-1.130400 5.120000
-1.107100 4.684100
-1.083900 4.353000
-1.060700 4.137300
-1.037500 3.961200
-1.014200 3.663200
-0.991000 3.499600
-0.967800 3.303500
-0.944500 3.084300
-0.921300 2.898300
-0.898100 2.730800
-0.874900 2.568500
-0.851600 2.410000
-0.828400 2.258100
-0.805200 2.112900
-0.782000 1.974200
-0.758700 1.839000
-0.735500 1.705100
-0.712300 1.630000
-0.689000 1.558600
-0.665800 1.489600
-0.642600 1.449500
-0.619400 1.444300
-0.596100 1.447600
-0.572900 1.453000
-0.549700 1.459000
-0.526500 1.465600
-0.503200 1.472700
-0.480000 1.480500
-0.456800 1.488900
-0.433500 1.496300
-0.410300 1.501000
-0.387100 1.506000
-0.363900 1.514400
-0.340600 1.527100
-0.317400 1.650300
-0.294200 1.839100
-0.271000 2.003000
-0.247700 2.186700
-0.224500 2.338900
-0.201300 2.483800
-0.178000 2.622400
-0.154800 2.754800
-0.131600 2.894900
-0.108400 3.014900
-0.085100 3.068700
-0.061900 3.020400
-0.038700 3.043600
-0.015500 3.053400
0.007800 3.024000
0.031000 2.826200
0.054200 2.744300
0.077500 2.654600
0.100700 2.556800
0.123900 2.422600
0.147100 2.279600
0.170400 2.144700
0.193600 2.019300
0.216800 1.894000
0.240000 1.770900
0.263300 1.650000
0.286500 1.533100
0.309700 1.422500
0.333000 1.300700
0.356200 1.168000
0.379400 1.043800
0.402600 0.928200
0.425900 0.821000
0.449100 0.786900
0.472300 0.812700
0.495500 0.823300
0.518800 0.818800
0.542000 0.799100
0.565200 0.724500
0.588500 0.618200
0.611700 0.492200
0.634900 0.346500
0.658100 0.284600
0.681400 0.233400
0.704600 0.173900
0.727800 0.118600
0.751000 0.067400
0.774300 0.020300
0.797500 0.000000
0.820700 0.000000
0.844000 0.000000
0.867200 0.000000
0.890400 0.000000
0.913600 0.000000
0.936900 0.000000
0.960100 0.000000
0.983300 0.000000
1.006600 0.000000
1.029800 0.000000
1.053000 0.000000
1.076200 0.000000
1.099500 0.000000
1.122700 0.000000
1.145900 0.000000
1.169100 0.000000
1.192400 0.000000
1.215600 0.000000
1.238800 0.000000
1.262100 0.000000
1.285300 0.003600
1.308500 0.222700
1.331700 0.616800
1.355000 1.099600
1.378200 1.601000
1.401400 2.241000
1.424600 2.703900
1.447900 3.069800
1.471100 3.347300
1.494300 3.507100
1.517600 5.195200
1.540800 6.455700
1.564000 5.864800
1.587200 5.793000
1.610500 5.454400
1.633700 4.933200
1.656900 4.483000
1.680100 4.221800
1.703400 3.944200
1.726600 3.626700
1.749800 3.270600
1.773100 3.153500
1.796300 3.048000
1.819500 2.953500
1.842700 2.893600
1.866000 2.830600
1.889200 2.745600
1.912400 2.649100
1.935600 2.611900
1.958900 2.790400
1.982100 3.131900
2.005300 3.389900
2.028600 3.423900
2.051800 3.537900
2.075000 3.622100
2.098200 3.670000
2.121500 3.683000
2.144700 4.015800
2.167900 3.238700
2.191100 2.921300
2.214400 2.607700
2.237600 2.575500
2.260800 3.378000
2.284100 4.076800
2.307300 5.453500
2.330500 7.433600
2.353700 8.716900
2.377000 10.966500
2.400200 12.555500
2.423400 10.356300
2.446600 9.241300
2.469900 8.803200
2.493100 8.483900
2.516300 8.392000
2.539600 8.439900
2.562800 8.620200
2.586000 9.017100
2.609200 9.945200
2.632500 11.136900
2.655700 11.516700
2.678900 9.640500
2.702100 8.303600
2.725400 7.660200
2.748600 3.692200
2.771800 3.622900
2.795100 4.102900
2.818300 4.011800
2.841500 2.744500
2.864700 2.286900
2.888000 1.770800
2.911200 1.240600
2.934400 0.981100
2.957600 1.160900
2.980900 1.446100
3.004100 1.818900
3.027300 2.424800
3.050600 3.037400
3.073800 3.567400
3.097000 4.314200
3.120200 4.824800
3.143500 5.396100
3.166700 5.929900
3.189900 6.397800
3.213200 7.033800
3.236400 7.863100
3.259600 7.469300
3.282800 6.086200
3.306100 5.332600
3.329300 4.553700
3.352500 3.680600
3.375700 2.938100
3.399000 1.967500
3.422200 1.232000
3.445400 1.012200
3.468700 0.899700
3.491900 1.013100
3.515100 2.946300
3.538300 4.186000
3.561600 5.146700
3.584800 5.936300
3.608000 6.120500
3.631200 6.201400
3.654500 6.182000
3.677700 6.205800
3.700900 6.174900
3.724200 5.992300
3.747400 5.750600
3.770600 5.376200
3.793800 6.845200
3.817100 4.728500
3.840300 2.379800
3.863500 1.036300
3.886700 0.549800
3.910000 0.253500
3.933200 0.089000
3.956400 0.009300
3.979700 0.000000
4.002900 0.000000
4.026100 0.000000
4.049300 0.000000
4.072600 0.000000
4.095800 0.000000
4.119000 0.000000
4.142200 0.000000
4.165500 0.000000
4.188700 0.000000
4.211900 0.000000
4.235200 0.000000
4.258400 0.000000
4.281600 0.000000
4.304800 0.000000
4.328100 0.000000
4.351300 0.000000
4.374500 0.000000
4.397700 0.000000
4.421000 0.000000
4.444200 0.000000
4.467400 0.000000
4.490700 0.000000
4.513900 0.000000
4.537100 0.000000
4.560300 0.000000
4.583600 0.000000
4.606800 0.000000
4.630000 0.000000
4.653200 0.000000
4.676500 0.000000
4.699700 0.000000
4.722900 0.000000
4.746200 0.000000
4.769400 0.000000
4.792600 0.000000
4.815800 0.013100
4.839100 0.052700
4.862300 0.111300
4.885500 0.199100
4.908700 0.284500
4.932000 0.367400
4.955200 0.447900
4.978400 0.498800
5.001700 0.534000
5.024900 0.565600
5.048100 0.599000
5.071300 0.553500
5.094600 0.463400
5.117800 0.477300
5.141000 0.496500
5.164200 0.533100
5.187500 0.570000
5.210700 0.607300
5.233900 0.652600
5.257200 0.705800
5.280400 0.760500
5.303600 0.815500
5.326800 0.869200
5.350100 0.921700
5.373300 0.973000
5.396500 1.022100
5.419700 1.059200
5.443000 1.105300
5.466200 1.168700
5.489400 1.220400
5.512700 1.308100
5.535900 1.404200
5.559100 1.498900
5.582300 1.592100
5.605600 1.675400
5.628800 1.702800
5.652000 1.721700
5.675300 1.732100
5.698500 1.734000
5.721700 1.775500
5.744900 1.833600
5.768200 1.892100
5.791400 1.958100
5.814600 2.053100
5.837800 2.141500
5.861100 2.263900
5.884300 2.371500
5.907500 2.453500
5.930800 2.510200
5.954000 2.541600
5.977200 2.517000
6.000400 2.476800
6.023700 2.391000
6.046900 2.229700
6.070100 2.045400
6.093300 2.080900
6.116600 2.122700
6.139800 2.157500
6.163000 2.185400
6.186300 2.206300
6.209500 2.220300
6.232700 2.231600
6.255900 2.244900
6.279200 2.260900
6.302400 2.280800
6.325600 2.303300
6.348800 2.339400
6.372100 2.371100
6.395300 2.365700
6.418500 2.482400
6.441800 2.103500
6.465000 2.062800
6.488200 1.992500
6.511400 1.918300
6.534700 1.878100
6.557900 1.998100
6.581100 2.117900
6.604300 2.180600
6.627600 4.276900
6.650800 6.411500
6.674000 6.731300
6.697300 6.230100
6.720500 5.444800
6.743700 3.795400
6.766900 3.552000
6.790200 3.316100
6.813400 3.097200
6.836600 2.901600
6.859800 2.734000
6.883100 2.616600
6.906300 2.535500
6.929500 2.485700
6.952800 2.512800
6.976000 2.667600
6.999200 2.831200
7.022400 3.014100
7.045700 3.354300
7.068900 4.917100
7.092100 5.602400
7.115300 5.139500
7.138600 5.482200
7.161800 5.990900
7.185000 6.247300
7.208300 5.665400
7.231500 4.989600
7.254700 4.645500
7.277900 4.469400
7.301200 4.509900
7.324400 4.104700
7.347600 3.659500
7.370800 3.185700
7.394100 2.794400
7.417300 2.465200
7.440500 2.146300
7.463800 1.980000
7.487000 1.858800
7.510200 1.758200
7.533400 1.676400
7.556700 1.613400
7.579900 1.568500
7.603100 1.531100
7.626300 1.495900
7.649600 1.475500
7.672800 1.457700
7.696000 1.442400
7.719300 1.429500
7.742500 1.418800
7.765700 1.410300
7.788900 1.405200
7.812200 1.408500
7.835400 1.412900
7.858600 1.419400
7.881800 1.440100
7.905100 1.468300
7.928300 1.498300
7.951500 1.530000
7.974800 1.563300
7.998000 1.598300
8.021200 1.639100
8.044400 1.713200
8.067700 1.790800
8.090900 1.840400
8.114100 1.890200
8.137400 1.962800
8.160600 2.049500
8.183800 2.140200
8.207000 2.235800
8.230300 2.340000
8.253500 2.477600
8.276700 2.644600
8.299900 2.792500
8.323200 2.938600
8.346400 3.069500
8.369600 3.235800
8.392900 3.404500
8.416100 3.364100
8.439300 3.257800
8.462500 3.290600
8.485800 3.293100
8.509000 3.338000
8.532200 3.409100
8.555400 3.477800
8.578700 3.540600
8.601900 3.592600
8.625100 3.629100
8.648400 3.659600
8.671600 3.676600
8.694800 3.671900
8.718000 3.645500
8.741300 3.639700
8.764500 3.559100
8.787700 3.327100
8.810900 3.180200
8.834200 3.661300
8.857400 2.868600
8.880600 2.235200
8.903900 2.242000
8.927100 2.350900
8.950300 2.458500
8.973500 2.568000
8.996800 2.979600
9.020000 3.170300
9.043200 3.307500
9.066400 3.398300
9.089700 3.483300
9.112900 3.563900
9.136100 3.641000
9.159400 3.743000
9.182600 3.876200
9.205800 3.962300
9.229000 4.037200
9.252300 4.073500
9.275500 4.074000
9.298700 4.046800
9.321900 4.036400
9.345200 4.166700
9.368400 4.448500
9.391600 4.613900
9.414900 4.606600
9.438100 4.442400
9.461300 3.710300
9.484500 3.415100
9.507800 3.040400
9.531000 2.601300
9.554200 2.517500
9.577400 2.438700
9.600700 2.415000
9.623900 2.416000
9.647100 2.434700
9.670400 2.468600
9.693600 2.516300
9.716800 2.572800
9.740000 2.615100
9.763300 2.660900
9.786500 2.719000
9.809700 2.780600
9.832900 2.883500
9.856200 3.148400
9.879400 3.514000
9.902600 3.955700
9.925900 3.800000
9.949100 3.755200
9.972300 3.865000
9.995500 3.774400
10.018800 3.550100
10.042000 3.352000
10.065200 3.260500
10.088400 3.198400
10.111700 3.148600
10.134900 3.127000
10.158100 3.134500
10.181400 3.163100
10.204600 3.300000
10.227800 3.846500
10.251000 4.659400
10.274300 5.728100
10.297500 6.196700
10.320700 5.942500
10.344000 5.419200
10.367200 5.001500
10.390400 4.781100
10.413600 4.677600
10.436900 4.646000
10.460100 4.553700
10.483300 4.591300
10.506500 4.971500
10.529800 5.695500
10.553000 5.374200
10.576200 4.536600
10.599500 4.468100
10.622700 4.410700
10.645900 4.385700
10.669100 4.695800
10.692400 5.106100
10.715600 5.093700
10.738800 5.398900
10.762000 5.488500
10.785300 5.372600
10.808500 5.003400
10.831700 4.648200
10.855000 4.128300
10.878200 4.054300
10.901400 4.015600
10.924600 4.506600
10.947900 4.764600
10.971100 4.932400
10.994300 5.011300
11.017500 4.996600
11.040800 5.397200
11.064000 5.334200
11.087200 4.545600
11.110500 4.471000
11.133700 4.404300
11.156900 4.345800
11.180100 4.291800
11.203400 4.242900
11.226600 4.197800
11.249800 4.160800
11.273000 4.140900
11.296300 4.120800
11.319500 4.099900
11.342700 4.074900
11.366000 4.705300
11.389200 4.547200
11.412400 4.395700
11.435600 4.253000
11.458900 4.120100
11.482100 4.002600
11.505300 3.901900
11.528500 3.808800
11.551800 3.735200
11.575000 3.655100
11.598200 3.585200
11.621500 3.532100
11.644700 3.484500
11.667900 3.773000
11.691100 4.298000
11.714400 4.206100
11.737600 3.975300
11.760800 3.770700
11.784000 3.596000
11.807300 3.452800
11.830500 3.333900
11.853700 3.226800
11.877000 3.130100
11.900200 3.025600
11.923400 2.953500
11.946600 2.905000
11.969900 2.872500
11.993100 2.829300
12.016300 2.784200
12.039500 2.737000
12.062800 2.689600
12.086000 2.650500
12.109200 2.582600
12.132500 2.505400
12.155700 2.454500
12.178900 2.245900
12.202100 2.142300
12.225400 2.109100
12.248600 2.073500
12.271800 2.035400
12.295000 1.995500
12.318300 1.954800
12.341500 1.903300
12.364700 1.850500
12.388000 1.796400
12.411200 1.768100
12.434400 1.792600
12.457600 1.776800
12.480900 1.728000
12.504100 1.644900
12.527300 1.556500
12.550500 1.466800
12.573800 1.390500
12.597000 1.313300
12.620200 1.231800
12.643500 1.179700
12.666700 1.152900
12.689900 1.126000
12.713100 1.099300
12.736400 1.072900
12.759600 1.046700
12.782800 1.022900
12.806100 1.001000
12.829300 0.979900
12.852500 0.961700
12.875700 0.957500
12.899000 0.954800
12.922200 0.953400
12.945400 0.953300
12.968600 0.954500
12.991900 0.955300
13.015100 0.955300
13.038300 0.956100
13.061600 0.957600
13.084800 0.959800
13.108000 0.991600
13.131200 1.188700
13.154500 1.389400
13.177700 1.556100
13.200900 1.692900
13.224100 1.799500
13.247400 1.907700
13.270600 2.092500
13.293800 2.249900
13.317100 2.392200
13.340300 2.520700
13.363500 2.642500
13.386700 2.693400
13.410000 2.739300
13.433200 2.831600
13.456400 2.871400
13.479600 2.801600
13.502900 2.738400
13.526100 2.667700
13.549300 2.589100
13.572600 2.502400
13.595800 2.407800
13.619000 2.306200
13.642200 2.202300
13.665500 2.114200
13.688700 2.022000
13.711900 1.897400
13.735100 1.834900
13.758400 1.747000
13.781600 1.662400
13.804800 1.579800
13.828100 1.499200
13.851300 1.431600
13.874500 1.546300
13.897700 1.683000
13.921000 1.819600
13.944200 1.827000
13.967400 1.768900
13.990600 1.742300
14.013900 1.746200
14.037100 1.755900
14.060300 1.760900
14.083600 1.761200
14.106800 1.756600
14.130000 1.748700
14.153200 1.738800
14.176500 1.730400
14.199700 1.739400
14.222900 2.580100
14.246100 2.417400
14.269400 2.334100
14.292600 2.328000
14.315800 2.285400
14.339100 2.197700
14.362300 2.202900
14.385500 2.205500
14.408700 2.205900
14.432000 2.212900
14.455200 2.230700
14.478400 2.265700
14.501600 2.296900
14.524900 2.327100
14.548100 2.359000
14.571300 2.391700
14.594600 2.427800
14.617800 2.466100
14.641000 2.502800
14.664200 2.545400
14.687500 2.587300
14.710700 2.628200
14.733900 2.670200
14.757100 2.716600
14.780400 3.123000
14.803600 4.360000
14.826800 5.488600
14.850100 4.498200
14.873300 3.655300
14.896500 3.602900
14.919700 3.586300
14.943000 3.578900
14.966200 3.594500
14.989400 3.674300
15.012600 3.743200
15.035900 3.864400
15.059100 4.010200
15.082300 4.090800
15.105600 4.170500
15.128800 4.217300
15.152000 4.226700
15.175200 4.224900
15.198500 4.197400
15.221700 4.160700
15.244900 4.132600
15.268200 4.113400
15.291400 4.388600
15.314600 6.075700
15.337800 4.959700
15.361100 5.235400
15.384300 4.957400
15.407500 4.851800
15.430700 4.694400
15.454000 4.552300
15.477200 4.431900
15.500400 4.728200
15.523700 4.578200
15.546900 4.372000
15.570100 3.836500
15.593300 3.871700
15.616600 3.892600
15.639800 3.887900
15.663000 3.830700
15.686200 3.781700
15.709500 3.717000
15.732700 3.705400
15.755900 3.961800
15.779200 4.183700
15.802400 4.030500
15.825600 3.944200
15.848800 3.882600
15.872100 3.789400
15.895300 3.689300
15.918500 3.566900
15.941700 3.235900
15.965000 2.729500
15.988200 2.633100
16.011400 2.530600
16.034700 2.400200
16.057900 2.235800
16.081100 2.040400
16.104300 1.862200
16.127600 1.790100
16.150800 1.744300
16.174000 1.723000
16.197200 1.729900
16.220500 1.756200
16.243700 1.805700
16.266900 1.861900
16.290200 1.945400
16.313400 2.088000
16.336600 2.209200
16.359800 2.287300
16.383100 2.378500
16.406300 2.562400
16.429500 2.691400
16.452700 2.767500
16.476000 2.792900
16.499200 2.766700
16.522400 2.333800
16.545700 2.410300
16.568900 2.488300
16.592100 2.592400
16.615300 2.721000
16.638600 2.827900
16.661800 2.916900
16.685000 2.981400
16.708200 3.022800
16.731500 3.044900
16.754700 3.048700
16.777900 3.029000
16.801200 2.963300
16.824400 3.215700
16.847600 3.045500
16.870800 3.251600
16.894100 3.771800
16.917300 2.239000
16.940500 2.207800
16.963700 2.229700
16.987000 2.272900
17.010200 3.018200
17.033400 3.183700
17.056700 3.297300
17.079900 3.365800
17.103100 3.393100
17.126300 3.424300
17.149600 3.428700
17.172800 3.312800
17.196000 3.110200
17.219200 2.803400
17.242500 2.592800
17.265700 2.428500
17.288900 2.315300
17.312200 2.180500
17.335400 2.057800
17.358600 2.127000
17.381800 2.206300
17.405100 2.504500
17.428300 3.434200
17.451500 4.654600
17.474700 5.388900
17.498000 4.842900
17.521200 4.929100
17.544400 5.099500
17.567700 5.349600
17.590900 5.704500
17.614100 5.735600
17.637300 5.522200
17.660600 5.268300
17.683800 4.983800
17.707000 4.695600
17.730300 4.401700
17.753500 4.412700
17.776700 4.038700
17.799900 3.698400
17.823200 3.383000
17.846400 3.078000
17.869600 2.880800
17.892800 2.729900
17.916100 2.649700
17.939300 2.586500
17.962500 2.573900
17.985800 2.573800
18.009000 2.594000
18.032200 2.651200
18.055400 2.754300
18.078700 2.891600
18.101900 3.027700
18.125100 3.166500
18.148300 3.318100
18.171600 3.482600
18.194800 4.718500
18.218000 3.863800
18.241300 4.071500
18.264500 4.280500
18.287700 4.321200
18.310900 3.961600
18.334200 3.195900
18.357400 2.819500
18.380600 2.513200
18.403800 2.683900
18.427100 4.493900
18.450300 3.605900
18.473500 3.128200
18.496800 3.057500
18.520000 3.272600
18.543200 3.576300
18.566400 3.932300
18.589700 4.482700
18.612900 5.104300
18.636100 5.704500
18.659300 6.616400
18.682600 7.265100
18.705800 6.798600
18.729000 6.560200
18.752300 6.457900
18.775500 6.191100
18.798700 5.923000
18.821900 5.642600
18.845200 5.456500
18.868400 5.456500
18.891600 5.723500
18.914800 6.370600
18.938100 6.362800
18.961300 6.915200
18.984500 7.733700
19.007800 8.007300
19.031000 8.337200
19.054200 8.292500
19.077400 8.602400
19.100700 8.643800
19.123900 8.086300
19.147100 7.330200
19.170300 6.858700
19.193600 6.347600
19.216800 6.218600
19.240000 5.867400
19.263300 5.695600
19.286500 5.859000
19.309700 6.799700
19.332900 7.096700
19.356200 6.676600
19.379400 6.293200
19.402600 5.566200
19.425800 4.957300
19.449100 4.194100
19.472300 3.574500
19.495500 3.399800
19.518800 3.263400
19.542000 3.177500
19.565200 3.227700
19.588400 3.269600
19.611700 3.296700
19.634900 3.310600
19.658100 3.316000
19.681300 3.221600
19.704600 3.122900
19.727800 3.154500
19.751000 3.220600
19.774300 3.302400
19.797500 3.482400
19.820700 3.644300
19.843900 4.210200
19.867200 4.182500
19.890400 4.006600
19.913600 3.788400
19.936900 3.656900
19.960100 3.566600
19.983300 3.650600
20.006500 3.778200
20.029800 4.123400
20.053000 4.265200
20.076200 4.321100
20.099400 4.450400
20.122700 4.510900
20.145900 4.163500
20.169100 4.188200
20.192400 4.294000
20.215600 4.500200
20.238800 4.768100
20.262000 4.974300
20.285300 5.051700
20.308500 5.168900
20.331700 5.324500
20.354900 5.509200
20.378200 5.661200
20.401400 5.686000
20.424600 5.665100
20.447900 5.669900
20.471100 5.814500
20.494300 6.637700
20.517500 5.893500
20.540800 5.447400
20.564000 5.209100
20.587200 5.092600
20.610400 4.993900
20.633700 5.132900
20.656900 5.449300
20.680100 5.625200
20.703400 5.706300
20.726600 5.665400
20.749800 5.446000
20.773000 5.367400
20.796300 5.279000
20.819500 5.188000
20.842700 5.075100
20.865900 5.001400
20.889200 4.921500
20.912400 4.853800
20.935600 4.806300
20.958900 4.843000
20.982100 4.896400
21.005300 4.918500
21.028500 4.938800
21.051800 4.947000
21.075000 4.939900
21.098200 4.939500
21.121400 5.170800
21.144700 4.945400
21.167900 5.044200
21.191100 5.122800
21.214400 5.264200
21.237600 5.451000
21.260800 5.688300
21.284000 5.888100
21.307300 6.044300
21.330500 5.731000
21.353700 5.559800
21.376900 5.375600
21.400200 5.390100
21.423400 5.455200
21.446600 5.541500
21.469900 5.415200
21.493100 5.286100
21.516300 5.172900
21.539500 5.075300
21.562800 4.992600
21.586000 4.922300
21.609200 4.887100
21.632400 5.382300
21.655700 5.866600
21.678900 6.217200
21.702100 5.497100
21.725400 5.548400
21.748600 5.527600
21.771800 5.434500
21.795000 5.330500
21.818300 5.340600
21.841500 5.393800
21.864700 5.303700
21.887900 5.119700
21.911200 4.952700
21.934400 4.790600
21.957600 4.633500
21.980900 4.527700
22.004100 4.482900
22.027300 4.465400
22.050500 4.488000
22.073800 4.608400
22.097000 4.732100
22.120200 4.854600
22.143400 4.970700
22.166700 5.077000
22.189900 6.241500
22.213100 6.074700
22.236400 6.401400
22.259600 6.349000
22.282800 6.037000
22.306000 5.593300
22.329300 5.390300
22.352500 5.495400
22.375700 5.446400
22.399000 5.801700
22.422200 5.706900
22.445400 5.720300
22.468600 5.732000
22.491900 5.872500
22.515100 6.084100
22.538300 6.291700
22.561500 6.407000
22.584800 6.610500
22.608000 6.168500
22.631200 6.099000
22.654500 6.015000
22.677700 5.923500
22.700900 5.883300
22.724100 5.867700
22.747400 5.824100
22.770600 5.800400
22.793800 5.854500
22.817000 6.014200
22.840300 6.091500
22.863500 6.070300
22.886700 6.091400
22.910000 8.029400
22.933200 6.736900
22.956400 6.818800
22.979600 6.862200
23.002900 6.527100
23.026100 5.791800
23.049300 5.688400
23.072500 5.754500
23.095800 5.843500
23.119000 5.934800
23.142200 6.015700
23.165500 6.049100
23.188700 6.359400
23.211900 6.799300
23.235100 6.785400
23.258400 5.974600
23.281600 5.679600
23.304800 5.804800
23.328000 6.037800
23.351300 6.310500
23.374500 6.282900
23.397700 6.102800
23.421000 5.957400
23.444200 5.800900
23.467400 5.872800
23.490600 5.898800
23.513900 6.089800
23.537100 6.340800
23.560300 6.776700
23.583500 6.465500
23.606800 4.578200
23.630000 4.844800
23.653200 5.399300
23.676500 5.342400
23.699700 5.391300
23.722900 5.603300
23.746100 5.663500
23.769400 5.565000
23.792600 5.443100
23.815800 5.339900
23.839000 5.279500
23.862300 5.276400
23.885500 5.291700
23.908700 5.381500
23.932000 5.583100
23.955200 5.587000
23.978400 5.564800
24.001600 5.521600
24.024900 5.563100
24.048100 5.766000
24.071300 5.538100
24.094500 5.358400
24.117800 5.245400
24.141000 5.408900
24.164200 5.403000
24.187500 5.399900
24.210700 5.404200
24.233900 5.397400
24.257100 5.379300
24.280400 5.334900
24.303600 5.285000
24.326800 5.303100
24.350000 5.338600
24.373300 5.393000
24.396500 5.464800
24.419700 5.521400
24.443000 5.538200
24.466200 5.931400
24.489400 6.010600
24.512600 6.139500
24.535900 6.205800
24.559100 6.214300
24.582300 6.151100
24.605500 6.237400
24.628800 6.103000
24.652000 6.033400
24.675200 5.988800
24.698500 5.924800
24.721700 5.814000
24.744900 5.685900
24.768100 5.556200
24.791400 5.366600
24.814600 5.187500
24.837800 5.031900
24.861100 4.901700
24.884300 4.797000
24.907500 4.747700
24.930700 4.714400
24.954000 4.718200
24.977200 4.762300
25.000400 4.811000
25.023600 4.870900
25.046900 4.950200
25.070100 5.056200
25.093300 5.152400
25.116600 5.070400
25.139800 5.162300
25.163000 5.244100
25.186200 5.335100
25.209500 5.337900
25.232700 5.325200
25.255900 5.768700
25.279100 5.540100
25.302400 5.588700
25.325600 5.664000
25.348800 5.452000
25.372100 5.440900
25.395300 5.378500
25.418500 5.250900
25.441700 5.078900
25.465000 4.886700
25.488200 4.801700
25.511400 4.737800
25.534600 4.816200
25.557900 5.334400
25.581100 6.008500
25.604300 6.019800
25.627600 6.507800
25.650800 6.717200
25.674000 6.659300
25.697200 6.275300
25.720500 6.162800
25.743700 5.953100
25.766900 5.719700
25.790100 5.640500
25.813400 5.570500
25.836600 5.509100
25.859800 5.428600
25.883100 5.316100
25.906300 5.188400
25.929500 5.036400
25.952700 4.949400
25.976000 5.391700
25.999200 5.702200
26.022400 5.979600
26.045600 6.165800
26.068900 6.259100
26.092100 6.216300
26.115300 6.335800
26.138600 6.585300
26.161800 6.761400
26.185000 5.850100
26.208200 5.584100
26.231500 5.610800
26.254700 5.699200
26.277900 5.620000
26.301100 5.371400
26.324400 5.149200
26.347600 5.125500
26.370800 5.148100
26.394100 5.177200
26.417300 9.134700
26.440500 5.293300
26.463700 5.268400
26.487000 5.222400
26.510200 5.990200
26.533400 6.344900
26.556600 5.968800
26.579900 5.528900
26.603100 5.601000
26.626300 5.654100
26.649600 5.704600
26.672800 6.021200
26.696000 6.329400
26.719200 5.918200
26.742500 6.081500
26.765700 6.047500
26.788900 5.836900
26.812100 5.547300
26.835400 5.477600
26.858600 5.389200
26.881800 5.282300
26.905100 5.175600
26.928300 5.095700
26.951500 5.044100
26.974700 5.039300
26.998000 5.046000
27.021200 5.048500
27.044400 5.048700
27.067600 5.021300
27.090900 5.117900
27.114100 5.232900
27.137300 5.358200
27.160600 5.471200
27.183800 5.477900
27.207000 5.541000
27.230200 5.609200
27.253500 5.666800
27.276700 5.613200
27.299900 5.558900
27.323200 5.552900
27.346400 5.483200
27.369600 5.358300
27.392800 5.262300
27.416100 5.057500
27.439300 4.703100
27.462500 4.354400
27.485700 4.309500
27.509000 4.333500
27.532200 4.303500
27.555400 4.163800
27.578700 4.082400
27.601900 4.131800
27.625100 4.324700
27.648300 4.587000
27.671600 4.680000
27.694800 4.752300
27.718000 4.806800
27.741200 4.843900
27.764500 4.863500
27.787700 4.942500
27.810900 4.947600
27.834200 4.810000
27.857400 4.561300
27.880600 4.450900
27.903800 4.544000
27.927100 4.524400
27.950300 4.289800
27.973500 4.134300
27.996700 4.076200
28.020000 4.182800
28.043200 4.344600
28.066400 4.500400
28.089700 4.664300
28.112900 4.479400
28.136100 4.239800
28.159300 4.037700
28.182600 3.833300
28.205800 3.634200
28.229000 3.477600
28.252200 3.398600
28.275500 3.366800
28.298700 3.334700
28.321900 3.307000
28.345200 3.344000
28.368400 3.385400
28.391600 3.424900
28.414800 3.462000
28.438100 3.682200
28.461300 3.507600
28.484500 3.589000
28.507700 3.571200
28.531000 3.534600
28.554200 3.655600
28.577400 3.714900
28.600700 3.778500
28.623900 3.843300
28.647100 3.901300
28.670300 3.950400
28.693600 3.859100
28.716800 3.547800
28.740000 3.195800
28.763200 3.071000
28.786500 2.979900
28.809700 3.009800
28.832900 3.363000
28.856200 3.476100
28.879400 3.568400
28.902600 3.644300
28.925800 3.405400
28.949100 3.011000
28.972300 2.680600
28.995500 2.433300
29.018700 2.238000
29.042000 2.172000
29.065200 2.192600
29.088400 2.484700
29.111700 2.612200
29.134900 2.731500
29.158100 2.538100
29.181300 2.361600
29.204600 2.259500
29.227800 2.253800
29.251000 2.203700
29.274200 2.056300
29.297500 1.784900
29.320700 1.639400
29.343900 1.587100
29.367200 1.526400
29.390400 1.457400
29.413600 2.211800
29.436800 1.958900
29.460100 1.693800
29.483300 1.442000
29.506500 1.003400
29.529800 0.712700
29.553000 0.431500
29.576200 0.183100
29.599400 0.005300
29.622700 0.000000
29.645900 0.000000
29.669100 0.000000
29.692300 0.000000
29.715600 0.000000
29.738800 0.000000
29.762000 0.000000
29.785300 0.000000
29.808500 0.000000
29.831700 0.000000
29.854900 0.000000
29.878200 0.000000
29.901400 0.000000
29.924600 0.000000
29.947800 0.000000
29.971100 0.000000
29.994300 0.000000
30.017500 0.000000
30.040800 0.000000
30.064000 0.000000
30.087200 0.000000
30.110400 0.000000
30.133700 0.000000
30.156900 0.000000
30.180100 0.000000
30.203300 0.000000
30.226600 0.000000
30.249800 0.000000
30.273000 0.000000
30.296300 0.000000
30.319500 0.000000
30.342700 0.000000
30.365900 0.000000
30.389200 0.000000
30.412400 0.000000
30.435600 0.000000
30.458800 0.000000
30.482100 0.000000
30.505300 0.000000
30.528500 0.000000
30.551800 0.000000
30.575000 0.000000
30.598200 0.000000
30.621400 0.000000
30.644700 0.000000
30.667900 0.000000
30.691100 0.000000
30.714300 0.000000
30.737600 0.000000
30.760800 0.000000
30.784000 0.000000
30.807300 0.000000
30.830500 0.000000
30.853700 0.000000
30.876900 0.000000
30.900200 0.000000
30.923400 0.000000
30.946600 0.000000
30.969800 0.000000
30.993100 0.000000
31.016300 0.000000
31.039500 0.000000
31.062800 0.000000
31.086000 0.000000
31.109200 0.000000
31.132400 0.000000
31.155700 0.000000
31.178900 0.000000
31.202100 0.000000
31.225300 0.000000
31.248600 0.000000
31.271800 0.000000
31.295000 0.000000
31.318300 0.000000
31.341500 0.000000
31.364700 0.000000
31.387900 0.000000
31.411200 0.000000
31.434400 0.000000
31.457600 0.000000
31.480800 0.000000
31.504100 0.000000
31.527300 0.000000
31.550500 0.000000
31.573800 0.000000
31.597000 0.000000
31.620200 0.000000
31.643400 0.000000
31.666700 0.000000
31.689900 0.000000
31.713100 0.000000
e
