set title 'mp-38238 - Density of States'
set xlabel 'Energy (eV)'
set ylabel 'DOS (states/eV)'
set grid
set xrange [-10:10]
set yrange [0:41.459]
set xzeroaxis lt -1
set terminal png size 800,600
set output 'mp-38238_dos_gnuplot.png'
plot '-' using 1:2 with lines title 'DOS'
-19.075000 0.000000
-19.053600 0.000000
-19.032100 0.000000
-19.010700 0.000000
-18.989300 0.000000
-18.967900 0.000000
-18.946400 0.000000
-18.925000 0.000000
-18.903600 0.000000
-18.882100 0.000000
-18.860700 0.000000
-18.839300 0.000000
-18.817900 0.000000
-18.796400 0.000000
-18.775000 0.000000
-18.753600 0.000000
-18.732200 0.000000
-18.710700 0.000000
-18.689300 0.000000
-18.667900 0.000000
-18.646400 0.000000
-18.625000 0.000000
-18.603600 0.000000
-18.582200 0.000000
-18.560700 0.000000
-18.539300 0.000000
-18.517900 0.000000
-18.496500 0.000000
-18.475000 0.000000
-18.453600 0.000000
-18.432200 0.000000
-18.410700 0.000000
-18.389300 0.000000
-18.367900 0.000000
-18.346500 0.000000
-18.325000 0.000000
-18.303600 0.000000
-18.282200 0.000000
-18.260800 0.000000
-18.239300 0.000000
-18.217900 0.000000
-18.196500 0.000000
-18.175000 0.000000
-18.153600 0.000000
-18.132200 0.000000
-18.110800 0.000000
-18.089300 0.000000
-18.067900 0.000000
-18.046500 0.000000
-18.025100 0.000000
-18.003600 0.000000
-17.982200 0.000000
-17.960800 0.000000
-17.939300 0.000000
-17.917900 0.000000
-17.896500 0.000000
-17.875100 0.000000
-17.853600 0.000000
-17.832200 0.000000
-17.810800 0.000000
-17.789400 0.000000
-17.767900 0.000000
-17.746500 0.000000
-17.725100 0.000000
-17.703600 0.000000
-17.682200 0.000000
-17.660800 0.000000
-17.639400 0.000000
-17.617900 0.000000
-17.596500 0.000000
-17.575100 0.000000
-17.553700 0.000000
-17.532200 0.000000
-17.510800 0.000000
-17.489400 0.000000
-17.468000 0.000000
-17.446500 0.000000
-17.425100 0.000000
-17.403700 0.000000
-17.382200 0.000000
-17.360800 0.000000
-17.339400 0.000000
-17.318000 0.000000
-17.296500 0.000000
-17.275100 0.000000
-17.253700 0.000000
-17.232300 0.000000
-17.210800 0.000000
-17.189400 0.000000
-17.168000 0.000000
-17.146500 0.000000
-17.125100 0.782300
-17.103700 24.468500
-17.082300 13.348900
-17.060800 11.013000
-17.039400 10.935100
-17.018000 13.830100
-16.996600 36.180000
-16.975100 0.000000
-16.953700 0.000000
-16.932300 0.000000
-16.910800 0.359900
-16.889400 26.044300
-16.868000 11.754100
-16.846600 8.698900
-16.825100 8.702000
-16.803700 8.556500
-16.782300 10.237100
-16.760900 11.530400
-16.739400 0.000000
-16.718000 0.000000
-16.696600 0.000000
-16.675100 0.000000
-16.653700 0.000000
-16.632300 0.000000
-16.610900 0.000000
-16.589400 0.000000
-16.568000 0.000000
-16.546600 0.000000
-16.525200 0.000000
-16.503700 0.000000
-16.482300 0.000000
-16.460900 0.000000
-16.439400 0.000000
-16.418000 0.000000
-16.396600 0.000000
-16.375200 0.000000
-16.353700 0.000000
-16.332300 27.161800
-16.310900 11.404700
-16.289500 8.244100
-16.268000 8.246500
-16.246600 8.117900
-16.225200 8.120100
-16.203700 10.941200
-16.182300 29.821400
-16.160900 0.000000
-16.139500 0.000000
-16.118000 0.000000
-16.096600 0.000000
-16.075200 0.000000
-16.053800 0.000000
-16.032300 0.000000
-16.010900 0.000000
-15.989500 0.000000
-15.968000 0.000000
-15.946600 0.000000
-15.925200 0.000000
-15.903800 0.000000
-15.882300 0.000000
-15.860900 0.000000
-15.839500 0.000000
-15.818100 0.000000
-15.796600 0.000000
-15.775200 0.000000
-15.753800 0.000000
-15.732300 0.000000
-15.710900 0.000000
-15.689500 0.000000
-15.668100 0.000000
-15.646600 0.000000
-15.625200 0.000000
-15.603800 0.000000
-15.582400 0.000000
-15.560900 0.000000
-15.539500 0.000000
-15.518100 0.000000
-15.496600 0.000000
-15.475200 0.000000
-15.453800 0.000000
-15.432400 0.000000
-15.410900 0.000000
-15.389500 0.000000
-15.368100 0.000000
-15.346700 0.000000
-15.325200 0.000000
-15.303800 0.000000
-15.282400 0.000000
-15.260900 0.000000
-15.239500 0.000000
-15.218100 0.000000
-15.196700 0.000000
-15.175200 0.000000
-15.153800 0.000000
-15.132400 0.000000
-15.111000 0.000000
-15.089500 0.000000
-15.068100 0.000000
-15.046700 0.000000
-15.025200 0.000000
-15.003800 0.000000
-14.982400 0.000000
-14.961000 0.000000
-14.939500 0.000000
-14.918100 0.000000
-14.896700 0.000000
-14.875300 0.000000
-14.853800 0.000000
-14.832400 0.000000
-14.811000 0.000000
-14.789500 0.000000
-14.768100 0.000000
-14.746700 0.000000
-14.725300 0.000000
-14.703800 0.000000
-14.682400 0.000000
-14.661000 0.000000
-14.639600 0.000000
-14.618100 0.000000
-14.596700 0.000000
-14.575300 0.000000
-14.553900 0.000000
-14.532400 0.000000
-14.511000 0.000000
-14.489600 0.000000
-14.468100 0.000000
-14.446700 0.000000
-14.425300 0.000000
-14.403900 0.000000
-14.382400 0.000000
-14.361000 0.000000
-14.339600 0.000000
-14.318200 0.000000
-14.296700 0.000000
-14.275300 0.000000
-14.253900 0.000000
-14.232400 0.000000
-14.211000 0.000000
-14.189600 0.000000
-14.168200 0.000000
-14.146700 0.000000
-14.125300 0.000000
-14.103900 0.000000
-14.082500 0.000000
-14.061000 0.000000
-14.039600 0.000000
-14.018200 0.000000
-13.996700 0.000000
-13.975300 0.000000
-13.953900 0.000000
-13.932500 0.000000
-13.911000 0.000000
-13.889600 0.000000
-13.868200 0.000000
-13.846800 0.000000
-13.825300 0.000000
-13.803900 0.000000
-13.782500 0.000000
-13.761000 0.000000
-13.739600 0.000000
-13.718200 0.000000
-13.696800 0.000000
-13.675300 0.000000
-13.653900 0.000000
-13.632500 0.000000
-13.611100 0.000000
-13.589600 0.000000
-13.568200 0.000000
-13.546800 0.000000
-13.525300 0.000000
-13.503900 0.000000
-13.482500 0.000000
-13.461100 0.000000
-13.439600 0.000000
-13.418200 0.000000
-13.396800 0.000000
-13.375400 0.000000
-13.353900 0.000000
-13.332500 0.000000
-13.311100 0.000000
-13.289600 0.000000
-13.268200 0.000000
-13.246800 0.000000
-13.225400 0.000000
-13.203900 0.000000
-13.182500 0.000000
-13.161100 0.000000
-13.139700 0.000000
-13.118200 0.000000
-13.096800 0.000000
-13.075400 0.000000
-13.053900 0.000000
-13.032500 0.000000
-13.011100 0.000000
-12.989700 0.000000
-12.968200 0.000000
-12.946800 0.000000
-12.925400 0.000000
-12.904000 0.000000
-12.882500 0.000000
-12.861100 0.000000
-12.839700 0.000000
-12.818200 0.000000
-12.796800 0.000000
-12.775400 0.000000
-12.754000 0.000000
-12.732500 0.000000
-12.711100 0.000000
-12.689700 0.000000
-12.668300 0.000000
-12.646800 0.000000
-12.625400 0.000000
-12.604000 0.000000
-12.582500 0.000000
-12.561100 0.000000
-12.539700 0.000000
-12.518300 0.000000
-12.496800 0.000000
-12.475400 0.000000
-12.454000 0.000000
-12.432600 0.000000
-12.411100 0.000000
-12.389700 0.000000
-12.368300 0.000000
-12.346800 0.000000
-12.325400 0.000000
-12.304000 0.000000
-12.282600 0.000000
-12.261100 0.000000
-12.239700 0.000000
-12.218300 0.000000
-12.196900 0.000000
-12.175400 0.000000
-12.154000 0.000000
-12.132600 0.000000
-12.111100 0.000000
-12.089700 0.000000
-12.068300 0.000000
-12.046900 0.000000
-12.025400 0.000000
-12.004000 0.000000
-11.982600 0.000000
-11.961200 0.000000
-11.939700 0.000000
-11.918300 0.000000
-11.896900 0.000000
-11.875400 0.000000
-11.854000 0.000000
-11.832600 0.000000
-11.811200 0.000000
-11.789700 0.000000
-11.768300 0.000000
-11.746900 0.000000
-11.725500 0.000000
-11.704000 0.000000
-11.682600 0.000000
-11.661200 0.000000
-11.639800 0.000000
-11.618300 0.000000
-11.596900 0.000000
-11.575500 0.000000
-11.554000 0.000000
-11.532600 0.000000
-11.511200 0.000000
-11.489800 0.000000
-11.468300 0.000000
-11.446900 0.000000
-11.425500 0.000000
-11.404100 0.000000
-11.382600 0.000000
-11.361200 0.000000
-11.339800 0.000000
-11.318300 0.000000
-11.296900 0.000000
-11.275500 0.000000
-11.254100 0.000000
-11.232600 0.000000
-11.211200 0.000000
-11.189800 0.000000
-11.168400 0.000000
-11.146900 0.000000
-11.125500 0.000000
-11.104100 0.000000
-11.082600 0.000000
-11.061200 0.000000
-11.039800 0.000000
-11.018400 0.000000
-10.996900 0.000000
-10.975500 0.000000
-10.954100 0.000000
-10.932700 0.000000
-10.911200 0.000000
-10.889800 0.000000
-10.868400 0.000000
-10.846900 0.000000
-10.825500 0.000000
-10.804100 0.000000
-10.782700 0.000000
-10.761200 0.000000
-10.739800 0.000000
-10.718400 0.000000
-10.697000 0.000000
-10.675500 0.000000
-10.654100 0.000000
-10.632700 0.000000
-10.611200 0.000000
-10.589800 0.000000
-10.568400 0.000000
-10.547000 0.000000
-10.525500 0.000000
-10.504100 0.000000
-10.482700 0.000000
-10.461300 0.000000
-10.439800 0.000000
-10.418400 0.000000
-10.397000 0.000000
-10.375500 0.000000
-10.354100 0.000000
-10.332700 0.000000
-10.311300 0.000000
-10.289800 0.000000
-10.268400 0.000000
-10.247000 0.000000
-10.225600 0.000000
-10.204100 0.000000
-10.182700 0.000000
-10.161300 0.000000
-10.139800 0.000000
-10.118400 0.000000
-10.097000 0.000000
-10.075600 0.000000
-10.054100 0.000000
-10.032700 0.000000
-10.011300 0.000000
-9.989900 0.000000
-9.968400 0.000000
-9.947000 0.000000
-9.925600 0.000000
-9.904100 0.000000
-9.882700 0.000000
-9.861300 0.000000
-9.839900 0.000000
-9.818400 0.000000
-9.797000 0.000000
-9.775600 0.000000
-9.754200 0.000000
-9.732700 0.000000
-9.711300 0.000000
-9.689900 0.000000
-9.668400 0.000000
-9.647000 0.000000
-9.625600 0.000000
-9.604200 0.000000
-9.582700 0.000000
-9.561300 0.000000
-9.539900 0.000000
-9.518500 0.000000
-9.497000 0.000000
-9.475600 0.000000
-9.454200 0.000000
-9.432700 0.000000
-9.411300 0.000000
-9.389900 0.000000
-9.368500 0.000000
-9.347000 0.000000
-9.325600 0.000000
-9.304200 0.000000
-9.282800 0.000000
-9.261300 0.000000
-9.239900 0.000000
-9.218500 0.000000
-9.197000 0.000000
-9.175600 0.000000
-9.154200 0.000000
-9.132800 0.000000
-9.111300 0.000000
-9.089900 0.000000
-9.068500 0.000000
-9.047100 0.000000
-9.025600 0.000000
-9.004200 0.000000
-8.982800 0.000000
-8.961300 0.000000
-8.939900 0.000000
-8.918500 0.000000
-8.897100 0.000000
-8.875600 0.000000
-8.854200 0.000000
-8.832800 0.000000
-8.811400 0.000000
-8.789900 0.000000
-8.768500 0.000000
-8.747100 0.000000
-8.725700 0.000000
-8.704200 0.000000
-8.682800 0.000000
-8.661400 0.000000
-8.639900 0.000000
-8.618500 0.000000
-8.597100 0.000000
-8.575700 0.000000
-8.554200 0.000000
-8.532800 0.000000
-8.511400 0.000000
-8.490000 0.000000
-8.468500 0.000000
-8.447100 0.000000
-8.425700 0.000000
-8.404200 0.000000
-8.382800 0.000000
-8.361400 0.000000
-8.340000 0.000000
-8.318500 0.000000
-8.297100 0.000000
-8.275700 0.000000
-8.254300 0.000000
-8.232800 0.000000
-8.211400 0.000000
-8.190000 0.000000
-8.168500 0.000000
-8.147100 0.000000
-8.125700 0.000000
-8.104300 0.000000
-8.082800 0.000000
-8.061400 0.000000
-8.040000 0.000000
-8.018600 0.000000
-7.997100 0.000000
-7.975700 0.000000
-7.954300 0.000000
-7.932800 0.000000
-7.911400 0.000000
-7.890000 0.000000
-7.868600 0.000000
-7.847100 0.000000
-7.825700 0.000000
-7.804300 0.000000
-7.782900 0.000000
-7.761400 0.000000
-7.740000 0.000000
-7.718600 0.000000
-7.697100 0.000000
-7.675700 0.000000
-7.654300 0.000000
-7.632900 0.000000
-7.611400 0.000000
-7.590000 0.000000
-7.568600 0.000000
-7.547200 0.000000
-7.525700 0.000000
-7.504300 0.000000
-7.482900 0.000000
-7.461400 0.000000
-7.440000 0.000000
-7.418600 0.000000
-7.397200 0.000000
-7.375700 0.000000
-7.354300 0.000000
-7.332900 0.000000
-7.311500 0.000000
-7.290000 0.000000
-7.268600 0.000000
-7.247200 0.000000
-7.225700 0.000000
-7.204300 0.000000
-7.182900 0.000000
-7.161500 0.000000
-7.140000 0.000000
-7.118600 0.000000
-7.097200 0.000000
-7.075800 0.000000
-7.054300 0.000000
-7.032900 0.000000
-7.011500 0.000000
-6.990000 0.000000
-6.968600 0.000000
-6.947200 0.000000
-6.925800 0.000000
-6.904300 0.000000
-6.882900 0.000000
-6.861500 0.000000
-6.840100 0.000000
-6.818600 0.000000
-6.797200 0.000000
-6.775800 0.000000
-6.754300 0.000000
-6.732900 0.000000
-6.711500 0.000000
-6.690100 0.000000
-6.668600 0.000000
-6.647200 0.000000
-6.625800 0.000000
-6.604400 0.000000
-6.582900 0.000000
-6.561500 0.000000
-6.540100 0.000000
-6.518600 0.000000
-6.497200 0.000000
-6.475800 0.000000
-6.454400 0.000000
-6.432900 0.000000
-6.411500 0.000000
-6.390100 0.000000
-6.368700 0.000000
-6.347200 0.000000
-6.325800 0.000000
-6.304400 0.000000
-6.282900 0.000000
-6.261500 0.000000
-6.240100 0.000000
-6.218700 0.000000
-6.197200 0.000000
-6.175800 0.000000
-6.154400 0.000000
-6.133000 0.000000
-6.111500 0.000000
-6.090100 0.000000
-6.068700 0.000000
-6.047200 0.000000
-6.025800 0.000000
-6.004400 0.000000
-5.983000 0.000000
-5.961500 0.000000
-5.940100 0.000000
-5.918700 0.000000
-5.897300 0.000000
-5.875800 0.000000
-5.854400 0.000000
-5.833000 0.000000
-5.811600 0.000000
-5.790100 0.000000
-5.768700 0.000000
-5.747300 0.000000
-5.725800 0.000000
-5.704400 0.000000
-5.683000 0.000000
-5.661600 0.000000
-5.640100 0.000000
-5.618700 0.000000
-5.597300 0.000000
-5.575900 0.000000
-5.554400 0.000000
-5.533000 0.000000
-5.511600 0.000000
-5.490100 0.000000
-5.468700 0.000000
-5.447300 0.000000
-5.425900 0.000000
-5.404400 0.000000
-5.383000 0.000000
-5.361600 0.000000
-5.340200 0.000000
-5.318700 0.000000
-5.297300 0.000000
-5.275900 0.000000
-5.254400 0.000000
-5.233000 0.000000
-5.211600 0.000000
-5.190200 1.776500
-5.168700 6.047500
-5.147300 8.491800
-5.125900 6.462900
-5.104500 5.410400
-5.083000 6.064800
-5.061600 8.310000
-5.040200 10.897600
-5.018700 13.447300
-4.997300 15.508400
-4.975900 17.279200
-4.954500 14.274900
-4.933000 12.784400
-4.911600 9.379300
-4.890200 3.375400
-4.868800 4.504200
-4.847300 6.797400
-4.825900 8.230100
-4.804500 8.041600
-4.783000 7.423100
-4.761600 6.373900
-4.740200 6.488600
-4.718800 6.476500
-4.697300 9.583200
-4.675900 11.067200
-4.654500 12.759700
-4.633100 15.675600
-4.611600 16.764300
-4.590200 14.670100
-4.568800 9.742200
-4.547300 10.155600
-4.525900 13.264600
-4.504500 28.906100
-4.483100 9.526500
-4.461600 6.940400
-4.440200 6.231600
-4.418800 5.888600
-4.397400 5.712800
-4.375900 5.610900
-4.354500 5.499600
-4.333100 5.428900
-4.311600 5.392400
-4.290200 5.546100
-4.268800 5.749600
-4.247400 5.718600
-4.225900 5.613500
-4.204500 5.598500
-4.183100 6.215700
-4.161700 7.069700
-4.140200 7.547500
-4.118800 6.907800
-4.097400 5.973300
-4.075900 9.407800
-4.054500 10.813400
-4.033100 9.026400
-4.011700 8.546300
-3.990200 5.956400
-3.968800 5.453700
-3.947400 6.030600
-3.926000 7.518400
-3.904500 10.384500
-3.883100 14.319700
-3.861700 15.548200
-3.840200 14.177500
-3.818800 11.834500
-3.797400 11.773000
-3.776000 9.788900
-3.754500 8.892700
-3.733100 9.096500
-3.711700 7.777600
-3.690300 11.397600
-3.668800 19.076300
-3.647400 17.157800
-3.626000 13.268500
-3.604500 11.494600
-3.583100 12.028100
-3.561700 15.244900
-3.540300 16.854200
-3.518800 4.109600
-3.497400 3.868700
-3.476000 6.626500
-3.454600 16.174000
-3.433100 22.848100
-3.411700 31.151700
-3.390300 17.637200
-3.368800 10.056400
-3.347400 19.495700
-3.326000 28.618400
-3.304600 33.357000
-3.283100 16.134900
-3.261700 35.618000
-3.240300 32.736100
-3.218900 20.389100
-3.197400 19.506600
-3.176000 24.118500
-3.154600 17.821700
-3.133100 18.304500
-3.111700 27.765800
-3.090300 19.843000
-3.068900 15.047200
-3.047400 21.242100
-3.026000 18.816600
-3.004600 13.554300
-2.983200 14.159000
-2.961700 16.592400
-2.940300 16.032400
-2.918900 16.264600
-2.897500 13.724900
-2.876000 18.043600
-2.854600 22.114700
-2.833200 20.287500
-2.811700 14.878400
-2.790300 21.805700
-2.768900 25.371000
-2.747500 28.687200
-2.726000 22.938900
-2.704600 18.005000
-2.683200 20.824600
-2.661800 30.486500
-2.640300 25.836300
-2.618900 23.449500
-2.597500 21.745300
-2.576000 25.141500
-2.554600 20.295900
-2.533200 12.652800
-2.511800 12.017700
-2.490300 19.924300
-2.468900 25.553100
-2.447500 35.339900
-2.426100 27.063700
-2.404600 16.891900
-2.383200 23.630200
-2.361800 30.998700
-2.340300 24.080000
-2.318900 15.512500
-2.297500 23.782000
-2.276100 37.689800
-2.254600 25.292200
-2.233200 30.919500
-2.211800 35.982600
-2.190400 26.844500
-2.168900 25.080800
-2.147500 36.341000
-2.126100 27.963500
-2.104600 25.158600
-2.083200 26.351200
-2.061800 26.339800
-2.040400 28.602500
-2.018900 23.930600
-1.997500 25.991200
-1.976100 31.462300
-1.954700 24.852600
-1.933200 15.628800
-1.911800 26.883500
-1.890400 32.198300
-1.868900 17.494900
-1.847500 17.614800
-1.826100 21.456000
-1.804700 29.736000
-1.783200 23.962300
-1.761800 25.165700
-1.740400 27.232300
-1.719000 26.812300
-1.697500 28.926800
-1.676100 18.593300
-1.654700 26.737800
-1.633200 21.387300
-1.611800 22.769900
-1.590400 18.189600
-1.569000 21.245400
-1.547500 14.678200
-1.526100 11.910200
-1.504700 10.338100
-1.483300 6.856300
-1.461800 7.896200
-1.440400 9.594300
-1.419000 8.558900
-1.397500 7.809900
-1.376100 8.261500
-1.354700 8.592600
-1.333300 9.688500
-1.311800 10.597600
-1.290400 10.024200
-1.269000 10.074700
-1.247600 9.773100
-1.226100 9.540200
-1.204700 9.256100
-1.183300 9.570100
-1.161800 9.645200
-1.140400 9.231300
-1.119000 10.103200
-1.097600 10.355800
-1.076100 10.468000
-1.054700 9.266900
-1.033300 8.615200
-1.011900 7.917200
-0.990400 8.144100
-0.969000 9.276000
-0.947600 9.850100
-0.926100 10.339800
-0.904700 10.420300
-0.883300 9.682500
-0.861900 9.054200
-0.840400 8.718400
-0.819000 9.097900
-0.797600 9.927500
-0.776200 8.933800
-0.754700 7.963800
-0.733300 8.426000
-0.711900 9.476700
-0.690400 9.368700
-0.669000 9.290600
-0.647600 9.391500
-0.626200 8.799600
-0.604700 7.983100
-0.583300 7.190000
-0.561900 6.358600
-0.540500 5.353200
-0.519000 5.516200
-0.497600 5.847100
-0.476200 6.779600
-0.454700 8.083800
-0.433300 8.790400
-0.411900 7.986000
-0.390500 7.009500
-0.369000 6.744900
-0.347600 6.217300
-0.326200 6.751600
-0.304800 7.170100
-0.283300 9.225800
-0.261900 7.983500
-0.240500 6.343100
-0.219000 6.234500
-0.197600 6.312800
-0.176200 6.768100
-0.154800 7.613300
-0.133300 7.696700
-0.111900 7.310700
-0.090500 7.188500
-0.069100 7.372800
-0.047600 7.302200
-0.026200 7.703100
-0.004800 7.743100
0.016600 8.440100
0.038100 8.744900
0.059500 8.058900
0.080900 7.318200
0.102400 5.696900
0.123800 5.760200
0.145200 5.868700
0.166600 6.233600
0.188100 6.430900
0.209500 6.522000
0.230900 7.602400
0.252300 8.576700
0.273800 9.101300
0.295200 9.653600
0.316600 7.848600
0.338100 6.508200
0.359500 6.421900
0.380900 5.706700
0.402300 4.673000
0.423800 2.152200
0.445200 2.072100
0.466600 2.441400
0.488000 3.767200
0.509500 5.708000
0.530900 8.429500
0.552300 7.450700
0.573800 6.474500
0.595200 6.202700
0.616600 6.029500
0.638000 5.939900
0.659500 5.879200
0.680900 5.096900
0.702300 3.599200
0.723700 2.931500
0.745200 1.524200
0.766600 0.336200
0.788000 0.342700
0.809500 0.364400
0.830900 0.389900
0.852300 0.418800
0.873700 0.451000
0.895200 0.485800
0.916600 0.522400
0.938000 0.551200
0.959400 0.578100
0.980900 0.599500
1.002300 0.615200
1.023700 0.624600
1.045200 0.616800
1.066600 0.631200
1.088000 0.647400
1.109400 0.663800
1.130900 0.680400
1.152300 0.691700
1.173700 0.704500
1.195100 0.717500
1.216600 0.731200
1.238000 0.745800
1.259400 0.760900
1.280900 0.776700
1.302300 0.792700
1.323700 0.808600
1.345100 0.824400
1.366600 0.840500
1.388000 0.856700
1.409400 0.873100
1.430800 0.889700
1.452300 0.906600
1.473700 0.923800
1.495100 0.941500
1.516600 0.961100
1.538000 0.983100
1.559400 1.007400
1.580800 1.042300
1.602300 1.111200
1.623700 1.244600
1.645100 1.367400
1.666500 1.460200
1.688000 1.526700
1.709400 1.572900
1.730800 1.598500
1.752300 1.611600
1.773700 1.631600
1.795100 1.665700
1.816500 1.673300
1.838000 1.661500
1.859400 1.646800
1.880800 1.637900
1.902200 1.634400
1.923700 1.641700
1.945100 1.671000
1.966500 1.704700
1.988000 1.739100
2.009400 1.778200
2.030800 1.821200
2.052200 1.863800
2.073700 1.908000
2.095100 1.955200
2.116500 2.007200
2.137900 2.065200
2.159400 2.138000
2.180800 2.208900
2.202200 2.273800
2.223700 2.328500
2.245100 2.363000
2.266500 2.512300
2.287900 2.735400
2.309400 3.142200
2.330800 3.678800
2.352200 4.035100
2.373600 4.077800
2.395100 3.979000
2.416500 3.419100
2.437900 2.797200
2.459400 2.343300
2.480800 2.035100
2.502200 1.858400
2.523600 1.698500
2.545100 1.444200
2.566500 1.203700
2.587900 1.232800
2.609300 1.264900
2.630800 1.310900
2.652200 1.362400
2.673600 1.399800
2.695100 1.424900
2.716500 1.455500
2.737900 1.488500
2.759300 1.502300
2.780800 1.481800
2.802200 1.499900
2.823600 1.538200
2.845000 1.667100
2.866500 2.029000
2.887900 2.233200
2.909300 2.295200
2.930800 2.327900
2.952200 2.312000
2.973600 2.324700
2.995000 2.340000
3.016500 2.399700
3.037900 2.475100
3.059300 2.556800
3.080700 2.712900
3.102200 2.979800
3.123600 3.329600
3.145000 3.997800
3.166400 4.220600
3.187900 4.506000
3.209300 3.934200
3.230700 3.723400
3.252200 3.741100
3.273600 3.368500
3.295000 3.436400
3.316400 3.586600
3.337900 3.637800
3.359300 4.051500
3.380700 3.848300
3.402100 4.127400
3.423600 3.886300
3.445000 3.671200
3.466400 3.511600
3.487900 3.502900
3.509300 3.515500
3.530700 3.557900
3.552100 3.932600
3.573600 3.919300
3.595000 4.052800
3.616400 4.500800
3.637800 4.185800
3.659300 3.796100
3.680700 3.260700
3.702100 2.480100
3.723600 2.339800
3.745000 2.246900
3.766400 2.231400
3.787800 2.074800
3.809300 2.068400
3.830700 2.285400
3.852100 2.908800
3.873500 3.474400
3.895000 3.105200
3.916400 2.873500
3.937800 2.624700
3.959300 2.322200
3.980700 2.201600
4.002100 2.141900
4.023500 2.125100
4.045000 2.112700
4.066400 2.103600
4.087800 2.135900
4.109200 2.189700
4.130700 2.253500
4.152100 2.263700
4.173500 2.291200
4.195000 2.206800
4.216400 2.203200
4.237800 2.258100
4.259200 2.285200
4.280700 2.325800
4.302100 2.433300
4.323500 2.627300
4.344900 3.002400
4.366400 2.821000
4.387800 2.956700
4.409200 3.144800
4.430700 3.071500
4.452100 2.994500
4.473500 3.041200
4.494900 3.153600
4.516400 3.180600
4.537800 3.244300
4.559200 3.317100
4.580600 3.323300
4.602100 3.335400
4.623500 3.401300
4.644900 3.361600
4.666400 3.314100
4.687800 3.308000
4.709200 3.138600
4.730600 2.946100
4.752100 2.782500
4.773500 2.674400
4.794900 2.584000
4.816300 2.541100
4.837800 2.557200
4.859200 2.586600
4.880600 2.660000
4.902100 2.763500
4.923500 2.814900
4.944900 2.773700
4.966300 2.723100
4.987800 2.667900
5.009200 2.652900
5.030600 2.633000
5.052000 2.581000
5.073500 2.566200
5.094900 2.600000
5.116300 2.644600
5.137800 2.715600
5.159200 2.633400
5.180600 2.454200
5.202000 2.362700
5.223500 2.315800
5.244900 2.298100
5.266300 2.302500
5.287700 2.294900
5.309200 2.279000
5.330600 2.225700
5.352000 2.271400
5.373500 2.304500
5.394900 2.327400
5.416300 2.352500
5.437700 2.448000
5.459200 2.552900
5.480600 2.725700
5.502000 2.953600
5.523400 3.163800
5.544900 3.096900
5.566300 3.014700
5.587700 2.925400
5.609200 2.883400
5.630600 2.899100
5.652000 3.010500
5.673400 2.952000
5.694900 2.917000
5.716300 2.920200
5.737700 2.965000
5.759100 2.897300
5.780600 2.903400
5.802000 2.885500
5.823400 2.847700
5.844900 2.740800
5.866300 2.667500
5.887700 2.636100
5.909100 2.591700
5.930600 2.552000
5.952000 2.545500
5.973400 2.518300
5.994800 2.516800
6.016300 2.506300
6.037700 2.502400
6.059100 2.516600
6.080500 2.610800
6.102000 2.716100
6.123400 2.634000
6.144800 2.663100
6.166300 2.679600
6.187700 2.670200
6.209100 2.659100
6.230500 2.642400
6.252000 2.634500
6.273400 2.657700
6.294800 2.717600
6.316200 2.796400
6.337700 2.844300
6.359100 2.852000
6.380500 2.871600
6.402000 2.896700
6.423400 2.921700
6.444800 2.923500
6.466200 2.925800
6.487700 2.951100
6.509100 3.019000
6.530500 2.982000
6.551900 2.962700
6.573400 2.993100
6.594800 3.064800
6.616200 3.079300
6.637700 3.115800
6.659100 3.147600
6.680500 3.193900
6.701900 3.253900
6.723400 3.392900
6.744800 3.611300
6.766200 3.601800
6.787600 3.684800
6.809100 3.325900
6.830500 2.956900
6.851900 2.680600
6.873400 2.540100
6.894800 2.415200
6.916200 2.405400
6.937600 2.420600
6.959100 2.450500
6.980500 2.431800
7.001900 2.403300
7.023300 2.421700
7.044800 2.485800
7.066200 2.559800
7.087600 2.761800
7.109100 2.426300
7.130500 2.273500
7.151900 2.203700
7.173300 2.214700
7.194800 2.234800
7.216200 2.249600
7.237600 2.248000
7.259000 2.191300
7.280500 2.195700
7.301900 2.324300
7.323300 2.438600
7.344800 2.394200
7.366200 2.438400
7.387600 2.507000
7.409000 2.625700
7.430500 2.623600
7.451900 2.677100
7.473300 2.761600
7.494700 2.718000
7.516200 2.786200
7.537600 2.858800
7.559000 2.935400
7.580500 3.158700
7.601900 3.435600
7.623300 3.428900
7.644700 3.394100
7.666200 3.538300
7.687600 3.638000
7.709000 3.549200
7.730400 3.182200
7.751900 3.022200
7.773300 2.942500
7.794700 2.890000
7.816200 2.842100
7.837600 2.849900
7.859000 2.891000
7.880400 2.970300
7.901900 2.975400
7.923300 2.978200
7.944700 3.172400
7.966100 3.167200
7.987600 3.186300
8.009000 3.213100
8.030400 3.282600
8.051900 3.371600
8.073300 3.626100
8.094700 3.654100
8.116100 3.616600
8.137600 3.532600
8.159000 3.495000
8.180400 3.537100
8.201800 3.503300
8.223300 3.386900
8.244700 3.355800
8.266100 3.439000
8.287600 3.491800
8.309000 3.519200
8.330400 3.704400
8.351800 3.587100
8.373300 3.485000
8.394700 3.465300
8.416100 3.481000
8.437500 3.384800
8.459000 3.337100
8.480400 3.398000
8.501800 3.501900
8.523300 3.624700
8.544700 3.602000
8.566100 3.370900
8.587500 3.201100
8.609000 3.121600
8.630400 3.154500
8.651800 3.175700
8.673200 3.263300
8.694700 3.376400
8.716100 3.436300
8.737500 3.437900
8.759000 3.334600
8.780400 3.273900
8.801800 3.246900
8.823200 3.245700
8.844700 3.274800
8.866100 3.320300
8.887500 3.359400
8.908900 3.459000
8.930400 3.579800
8.951800 3.707100
8.973200 3.884700
8.994600 4.149700
9.016100 4.116800
9.037500 4.155800
9.058900 3.950300
9.080400 3.874600
9.101800 3.699000
9.123200 3.624100
9.144600 3.590400
9.166100 3.539900
9.187500 3.509400
9.208900 3.455500
9.230300 3.405900
9.251800 3.355500
9.273200 3.320100
9.294600 3.264300
9.316100 3.169000
9.337500 3.127300
9.358900 3.079400
9.380300 3.015900
9.401800 2.955200
9.423200 2.907200
9.444600 2.892500
9.466000 2.875300
9.487500 2.816100
9.508900 2.808600
9.530300 2.856400
9.551800 2.935600
9.573200 3.030600
9.594600 3.280400
9.616000 3.313000
9.637500 3.321100
9.658900 3.421700
9.680300 3.640700
9.701700 3.777500
9.723200 3.874500
9.744600 4.065000
9.766000 4.254800
9.787500 4.091000
9.808900 3.974200
9.830300 3.783600
9.851700 3.600600
9.873200 3.465800
9.894600 3.437600
9.916000 3.291200
9.937400 3.209100
9.958900 3.108500
9.980300 3.024700
10.001700 2.923500
10.023200 2.854700
10.044600 2.776500
10.066000 2.729300
10.087400 2.642000
10.108900 2.683900
10.130300 2.791000
10.151700 2.893900
10.173100 3.043800
10.194600 3.213000
10.216000 3.388200
10.237400 3.622900
10.258900 3.572100
10.280300 3.668500
10.301700 3.774500
10.323100 3.910900
10.344600 4.114600
10.366000 4.157600
10.387400 4.172700
10.408800 4.339300
10.430300 4.117900
10.451700 4.045300
10.473100 3.999700
10.494600 3.962700
10.516000 3.931000
10.537400 3.845000
10.558800 3.730100
10.580300 3.651500
10.601700 3.628300
10.623100 3.615200
10.644500 3.575400
10.666000 3.544400
10.687400 3.538800
10.708800 3.559800
10.730300 3.597300
10.751700 3.647500
10.773100 3.703200
10.794500 3.789000
10.816000 3.792100
10.837400 3.731300
10.858800 3.655400
10.880200 3.588700
10.901700 3.667400
10.923100 3.622000
10.944500 3.486900
10.966000 3.414200
10.987400 3.372500
11.008800 3.358000
11.030200 3.383100
11.051700 3.480900
11.073100 3.491200
11.094500 3.560900
11.115900 3.626100
11.137400 3.713500
11.158800 3.855200
11.180200 4.075100
11.201700 4.202700
11.223100 4.237700
11.244500 4.388000
11.265900 4.381700
11.287400 4.167700
11.308800 3.909300
11.330200 3.745900
11.351600 3.625200
11.373100 3.525100
11.394500 3.440600
11.415900 3.389200
11.437400 3.341400
11.458800 3.317300
11.480200 3.357300
11.501600 3.453100
11.523100 3.524800
11.544500 3.500300
11.565900 3.578900
11.587300 3.675200
11.608800 3.689800
11.630200 3.754500
11.651600 3.774100
11.673100 3.704200
11.694500 3.601200
11.715900 3.470700
11.737300 3.386400
11.758800 3.312800
11.780200 3.287500
11.801600 3.306700
11.823000 3.398500
11.844500 3.549400
11.865900 3.820700
11.887300 3.909900
11.908700 3.824300
11.930200 3.715800
11.951600 3.727800
11.973000 3.809200
11.994500 3.918400
12.015900 3.928400
12.037300 3.857600
12.058700 3.767700
12.080200 3.677400
12.101600 3.727100
12.123000 3.878400
12.144400 3.849600
12.165900 4.018400
12.187300 4.206100
12.208700 4.335400
12.230200 4.325100
12.251600 4.290200
12.273000 4.290200
12.294400 4.285000
12.315900 4.343000
12.337300 4.339000
12.358700 4.109300
12.380100 3.990600
12.401600 3.989900
12.423000 4.077900
12.444400 4.187800
12.465900 4.233900
12.487300 4.248900
12.508700 4.269800
12.530100 4.309400
12.551600 4.369800
12.573000 4.402100
12.594400 4.412500
12.615800 4.343700
12.637300 4.184400
12.658700 4.106400
12.680100 4.199900
12.701600 4.350500
12.723000 4.368600
12.744400 4.430900
12.765800 4.484500
12.787300 4.610100
12.808700 4.642500
12.830100 4.741100
12.851500 4.794100
12.873000 4.949500
12.894400 4.954600
12.915800 4.818400
12.937300 4.794300
12.958700 4.710600
12.980100 4.519900
13.001500 4.487000
13.023000 4.537000
13.044400 4.683300
13.065800 5.049500
13.087200 4.946100
13.108700 4.782700
13.130100 4.744700
13.151500 4.673200
13.173000 4.605100
13.194400 4.780700
13.215800 4.419600
13.237200 4.290900
13.258700 4.334500
13.280100 4.598500
13.301500 4.926200
13.322900 5.362200
13.344400 5.230900
13.365800 5.098200
13.387200 4.775300
13.408700 4.538000
13.430100 4.343300
13.451500 4.180900
13.472900 4.001400
13.494400 3.933600
13.515800 3.896800
13.537200 3.832700
13.558600 3.792200
13.580100 3.702900
13.601500 3.612900
13.622900 3.679200
13.644400 3.842700
13.665800 4.065400
13.687200 4.232700
13.708600 4.511100
13.730100 4.468400
13.751500 4.531400
13.772900 4.439100
13.794300 4.231300
13.815800 4.050100
13.837200 3.998900
13.858600 4.007400
13.880100 4.037000
13.901500 4.137800
13.922900 4.306000
13.944300 3.890600
13.965800 3.672600
13.987200 3.563200
14.008600 3.507200
14.030000 3.486900
14.051500 3.585600
14.072900 3.689200
14.094300 3.767600
14.115800 3.899900
14.137200 4.002100
14.158600 4.217700
14.180000 4.429500
14.201500 4.550700
14.222900 4.634800
14.244300 4.721300
14.265700 4.685900
14.287200 4.626400
14.308600 4.549700
14.330000 4.575600
14.351500 4.463500
14.372900 4.803800
14.394300 4.476200
14.415700 4.253700
14.437200 4.193400
14.458600 4.093400
14.480000 3.939100
14.501400 3.870800
14.522900 3.864100
14.544300 3.985500
14.565700 4.080300
14.587200 4.177600
14.608600 4.213800
14.630000 4.308300
14.651400 4.486500
14.672900 4.505700
14.694300 4.540300
14.715700 4.654200
14.737100 4.747200
14.758600 4.841700
14.780000 5.076900
14.801400 5.352900
14.822800 5.394400
14.844300 5.439200
14.865700 5.420100
14.887100 5.128200
14.908600 4.703800
14.930000 4.300200
14.951400 4.506300
14.972800 4.405300
14.994300 4.321200
15.015700 4.268300
15.037100 4.306400
15.058500 4.800600
15.080000 5.012200
15.101400 5.259300
15.122800 5.538300
15.144300 5.639400
15.165700 5.447200
15.187100 5.216800
15.208500 5.060400
15.230000 5.015500
15.251400 5.028000
15.272800 4.940800
15.294200 4.776200
15.315700 4.683400
15.337100 4.554600
15.358500 4.510100
15.380000 4.475600
15.401400 4.425500
15.422800 4.315900
15.444200 4.311300
15.465700 4.347300
15.487100 4.334300
15.508500 4.531700
15.529900 4.342500
15.551400 4.335300
15.572800 4.392900
15.594200 4.608800
15.615700 5.054700
15.637100 5.094700
15.658500 4.881600
15.679900 4.725700
15.701400 4.522300
15.722800 4.366900
15.744200 4.192800
15.765600 4.049500
15.787100 4.025000
15.808500 4.043600
15.829900 4.059200
15.851400 4.210200
15.872800 4.516100
15.894200 4.602300
15.915600 4.597700
15.937100 4.527900
15.958500 4.614800
15.979900 4.807900
16.001300 4.987500
16.022800 4.957300
16.044200 4.889100
16.065600 4.836300
16.087100 4.683900
16.108500 4.572000
16.129900 4.445000
16.151300 4.377300
16.172800 4.360600
16.194200 4.419300
16.215600 4.566700
16.237000 4.438000
16.258500 4.381800
16.279900 4.409700
16.301300 4.530300
16.322800 4.525900
16.344200 4.502700
16.365600 4.389600
16.387000 4.276000
16.408500 4.253700
16.429900 4.201300
16.451300 4.162600
16.472700 4.082600
16.494200 4.033700
16.515600 4.010600
16.537000 4.040800
16.558500 4.134800
16.579900 4.289500
16.601300 4.519800
16.622700 4.537300
16.644200 4.529700
16.665600 4.619300
16.687000 4.874000
16.708400 4.784700
16.729900 4.613300
16.751300 4.607700
16.772700 4.652900
16.794200 4.795500
16.815600 4.714400
16.837000 4.547900
16.858400 4.484400
16.879900 4.403300
16.901300 4.229900
16.922700 4.174800
16.944100 4.147900
16.965600 4.094700
16.987000 4.195900
17.008400 4.278600
17.029900 4.370400
17.051300 4.507000
17.072700 4.572500
17.094100 4.719600
17.115600 4.876500
17.137000 5.164400
17.158400 4.852800
17.179800 4.828700
17.201300 4.859000
17.222700 4.796700
17.244100 4.754200
17.265600 4.578700
17.287000 4.570700
17.308400 4.628800
17.329800 4.692500
17.351300 4.771000
17.372700 4.682600
17.394100 4.470700
17.415500 4.433000
17.437000 4.349000
17.458400 4.324600
17.479800 4.309300
17.501300 4.237700
17.522700 4.204700
17.544100 4.197900
17.565500 4.198400
17.587000 4.209300
17.608400 4.243500
17.629800 4.378200
17.651200 4.437200
17.672700 4.640800
17.694100 4.772400
17.715500 4.874700
17.736900 4.992900
17.758400 4.993600
17.779800 5.003000
17.801200 4.910300
17.822700 4.936900
17.844100 5.107900
17.865500 5.097600
17.886900 5.069500
17.908400 5.142700
17.929800 4.789700
17.951200 4.685200
17.972600 4.606200
17.994100 4.596800
18.015500 4.512400
18.036900 4.410800
18.058400 4.372500
18.079800 4.312400
18.101200 4.303500
18.122600 4.314500
18.144100 4.332100
18.165500 4.369100
18.186900 4.382200
18.208300 4.473200
18.229800 4.588800
18.251200 4.673500
18.272600 4.652700
18.294100 4.646500
18.315500 4.728500
18.336900 4.804900
18.358300 4.940700
18.379800 5.122200
18.401200 5.171200
18.422600 5.119600
18.444000 5.151000
18.465500 5.269700
18.486900 5.292700
18.508300 5.338100
18.529800 5.342300
18.551200 5.276200
18.572600 5.110800
18.594000 4.943600
18.615500 4.945700
18.636900 5.001100
18.658300 4.971000
18.679700 5.038600
18.701200 5.027100
18.722600 5.078700
18.744000 5.086400
18.765500 5.079200
18.786900 5.129400
18.808300 5.250200
18.829700 5.411300
18.851200 5.494500
18.872600 5.537100
18.894000 5.506000
18.915400 5.382800
18.936900 5.319500
18.958300 5.269000
18.979700 5.222700
19.001200 5.176400
19.022600 5.171700
19.044000 5.307400
19.065400 5.508700
19.086900 5.782800
19.108300 5.926200
19.129700 6.112400
19.151100 6.228500
19.172600 5.978500
19.194000 5.909200
19.215400 5.852300
19.236900 5.738900
19.258300 5.553500
19.279700 5.383500
19.301100 5.356700
19.322600 5.327600
19.344000 5.397900
19.365400 5.819800
19.386800 5.937600
19.408300 6.034300
19.429700 6.138300
19.451100 6.298500
19.472600 6.526200
19.494000 6.367300
19.515400 6.110900
19.536800 5.752200
19.558300 5.618000
19.579700 5.588700
19.601100 5.564600
19.622500 5.616100
19.644000 5.781500
19.665400 6.039200
19.686800 6.106900
19.708300 5.807500
19.729700 5.649000
19.751100 5.477400
19.772500 5.346900
19.794000 5.322900
19.815400 5.461300
19.836800 5.534400
19.858200 5.585000
19.879700 5.473400
19.901100 5.392300
19.922500 5.408000
19.944000 5.543300
19.965400 5.812400
19.986800 6.059800
20.008200 6.219800
20.029700 6.113700
20.051100 5.857900
20.072500 5.540300
20.093900 5.232600
20.115400 5.021600
20.136800 4.953100
20.158200 4.908900
20.179700 4.923500
20.201100 4.966200
20.222500 5.050500
20.243900 5.079300
20.265400 5.172200
20.286800 5.320200
20.308200 5.474800
20.329600 5.861200
20.351100 5.906800
20.372500 5.666700
20.393900 5.683800
20.415400 5.728500
20.436800 5.274100
20.458200 4.957400
20.479600 4.951100
20.501100 5.176100
20.522500 5.274300
20.543900 5.407600
20.565300 5.639300
20.586800 5.577400
20.608200 5.466400
20.629600 5.334600
20.651000 5.152900
20.672500 5.084600
20.693900 5.018900
20.715300 5.073000
20.736800 5.006000
20.758200 4.957200
20.779600 4.835700
20.801000 4.748700
20.822500 4.581500
20.843900 4.430400
20.865300 4.397600
20.886700 4.473500
20.908200 4.619700
20.929600 4.669900
20.951000 4.657900
20.972500 4.734900
20.993900 4.818400
21.015300 4.780000
21.036700 4.793800
21.058200 4.672500
21.079600 4.369200
21.101000 4.218300
21.122400 4.058300
21.143900 3.864600
21.165300 3.508700
21.186700 3.281700
21.208200 3.267600
21.229600 3.099100
21.251000 2.979600
21.272400 2.809300
21.293900 2.570800
21.315300 2.317800
21.336700 2.153300
21.358100 2.097600
21.379600 2.062500
21.401000 1.998800
21.422400 1.906700
21.443900 1.753200
21.465300 1.590700
21.486700 1.880200
21.508100 1.076100
21.529600 0.749600
21.551000 0.528400
21.572400 0.402800
21.593800 0.323100
21.615300 0.254500
21.636700 0.180000
21.658100 0.128000
21.679600 0.089300
21.701000 0.063400
21.722400 0.044300
21.743800 0.028600
21.765300 0.016300
21.786700 0.007500
21.808100 0.002000
21.829500 0.000000
21.851000 0.000000
21.872400 0.000000
21.893800 0.000000
21.915300 0.000000
21.936700 0.000000
21.958100 0.000000
21.979500 0.000000
22.001000 0.000000
22.022400 0.000000
22.043800 0.000000
22.065200 0.000000
22.086700 0.000000
22.108100 0.000000
22.129500 0.000000
22.151000 0.000000
22.172400 0.000000
22.193800 0.000000
22.215200 0.000000
22.236700 0.000000
22.258100 0.000000
22.279500 0.000000
22.300900 0.000000
22.322400 0.000000
22.343800 0.000000
22.365200 0.000000
22.386700 0.000000
22.408100 0.000000
22.429500 0.000000
22.450900 0.000000
22.472400 0.000000
22.493800 0.000000
22.515200 0.000000
22.536600 0.000000
22.558100 0.000000
22.579500 0.000000
22.600900 0.000000
22.622400 0.000000
22.643800 0.000000
22.665200 0.000000
22.686600 0.000000
22.708100 0.000000
22.729500 0.000000
22.750900 0.000000
22.772300 0.000000
22.793800 0.000000
22.815200 0.000000
22.836600 0.000000
22.858100 0.000000
22.879500 0.000000
22.900900 0.000000
22.922300 0.000000
22.943800 0.000000
22.965200 0.000000
22.986600 0.000000
23.008000 0.000000
23.029500 0.000000
23.050900 0.000000
23.072300 0.000000
23.093800 0.000000
23.115200 0.000000
23.136600 0.000000
23.158000 0.000000
23.179500 0.000000
23.200900 0.000000
23.222300 0.000000
23.243700 0.000000
23.265200 0.000000
23.286600 0.000000
23.308000 0.000000
23.329500 0.000000
23.350900 0.000000
23.372300 0.000000
23.393700 0.000000
23.415200 0.000000
23.436600 0.000000
23.458000 0.000000
23.479400 0.000000
23.500900 0.000000
23.522300 0.000000
23.543700 0.000000
23.565100 0.000000
23.586600 0.000000
23.608000 0.000000
23.629400 0.000000
23.650900 0.000000
23.672300 0.000000
23.693700 0.000000
23.715100 0.000000
23.736600 0.000000
23.758000 0.000000
23.779400 0.000000
e
