set title 'mp-1022728 - Density of States'
set xlabel 'Energy (eV)'
set ylabel 'DOS (states/eV)'
set grid
set xrange [-10:10]
set yrange [0:25.417]
set xzeroaxis lt -1
set terminal png size 800,600
set output 'mp-1022728_dos_gnuplot.png'
plot '-' using 1:2 with lines title 'DOS'
-71.528300 0.000000
-71.465600 0.000000
-71.402900 0.000000
-71.340200 0.000000
-71.277500 0.000000
-71.214800 0.000000
-71.152100 0.000000
-71.089300 0.000000
-71.026600 0.000000
-70.963900 0.000000
-70.901200 0.000000
-70.838500 0.000000
-70.775800 0.000000
-70.713100 0.000000
-70.650300 0.000000
-70.587600 0.000000
-70.524900 0.000000
-70.462200 0.000000
-70.399500 0.000000
-70.336800 0.000000
-70.274100 0.000000
-70.211300 0.000000
-70.148600 0.000000
-70.085900 0.000000
-70.023200 0.000000
-69.960500 0.000000
-69.897800 0.000000
-69.835000 0.000000
-69.772300 0.000000
-69.709600 0.000000
-69.646900 0.000000
-69.584200 0.000000
-69.521500 0.000000
-69.458800 0.000000
-69.396000 0.000000
-69.333300 0.000000
-69.270600 0.000000
-69.207900 0.000000
-69.145200 0.000000
-69.082500 0.000000
-69.019800 0.000000
-68.957000 0.000000
-68.894300 0.000000
-68.831600 0.000000
-68.768900 0.000000
-68.706200 0.000000
-68.643500 0.000000
-68.580800 0.000000
-68.518000 0.000000
-68.455300 0.000000
-68.392600 0.000000
-68.329900 0.000000
-68.267200 0.000000
-68.204500 0.000000
-68.141700 0.000000
-68.079000 0.000000
-68.016300 0.000000
-67.953600 0.000000
-67.890900 0.000000
-67.828200 0.000000
-67.765500 0.000000
-67.702700 0.000000
-67.640000 0.000000
-67.577300 0.000000
-67.514600 0.000000
-67.451900 0.000000
-67.389200 0.000000
-67.326500 0.000000
-67.263700 0.000000
-67.201000 0.000000
-67.138300 0.000000
-67.075600 0.000000
-67.012900 0.000000
-66.950200 0.000000
-66.887500 0.000000
-66.824700 0.000000
-66.762000 0.000000
-66.699300 0.000000
-66.636600 0.000000
-66.573900 0.000000
-66.511200 0.000000
-66.448400 0.000000
-66.385700 0.000000
-66.323000 0.000000
-66.260300 0.000000
-66.197600 0.000000
-66.134900 0.000000
-66.072200 0.000000
-66.009400 0.000000
-65.946700 0.020200
-65.884000 3.234700
-65.821300 36.026200
-65.758600 46.803800
-65.695900 26.914700
-65.633200 38.838800
-65.570400 7.513500
-65.507700 0.611400
-65.445000 23.215300
-65.382300 79.168800
-65.319600 24.112100
-65.256900 0.553300
-65.194200 0.000700
-65.131400 0.000000
-65.068700 0.000000
-65.006000 0.000000
-64.943300 0.000000
-64.880600 0.000000
-64.817900 0.000000
-64.755100 0.000000
-64.692400 0.000000
-64.629700 0.000000
-64.567000 0.000000
-64.504300 0.000000
-64.441600 0.000000
-64.378900 0.000000
-64.316100 0.000000
-64.253400 0.000000
-64.190700 0.000000
-64.128000 0.000000
-64.065300 0.000000
-64.002600 0.000000
-63.939900 0.000000
-63.877100 0.000000
-63.814400 0.000000
-63.751700 0.000000
-63.689000 0.000000
-63.626300 0.000000
-63.563600 0.000000
-63.500900 0.000000
-63.438100 0.000000
-63.375400 0.000000
-63.312700 0.000000
-63.250000 0.000000
-63.187300 0.000000
-63.124600 0.000000
-63.061800 0.000000
-62.999100 0.000000
-62.936400 0.000000
-62.873700 0.000000
-62.811000 0.000000
-62.748300 0.000000
-62.685600 0.000000
-62.622800 0.000000
-62.560100 0.000000
-62.497400 0.000000
-62.434700 0.000000
-62.372000 0.000000
-62.309300 0.000000
-62.246600 0.000000
-62.183800 0.000000
-62.121100 0.000000
-62.058400 0.000000
-61.995700 0.000000
-61.933000 0.000000
-61.870300 0.000000
-61.807600 0.000000
-61.744800 0.000000
-61.682100 0.000000
-61.619400 0.000000
-61.556700 0.000000
-61.494000 0.000000
-61.431300 0.000000
-61.368500 0.000000
-61.305800 0.000000
-61.243100 0.000000
-61.180400 0.000000
-61.117700 0.000000
-61.055000 0.000000
-60.992300 0.000000
-60.929500 0.000000
-60.866800 0.000000
-60.804100 0.000000
-60.741400 0.000000
-60.678700 0.000000
-60.616000 0.000000
-60.553300 0.000000
-60.490500 0.000000
-60.427800 0.000000
-60.365100 0.000000
-60.302400 0.000000
-60.239700 0.000000
-60.177000 0.000000
-60.114200 0.000000
-60.051500 0.000000
-59.988800 0.000000
-59.926100 0.000000
-59.863400 0.000000
-59.800700 0.000000
-59.738000 0.000000
-59.675200 0.000000
-59.612500 0.000000
-59.549800 0.000000
-59.487100 0.000000
-59.424400 0.000000
-59.361700 0.000000
-59.299000 0.000000
-59.236200 0.000000
-59.173500 0.000000
-59.110800 0.000000
-59.048100 0.000000
-58.985400 0.000000
-58.922700 0.000000
-58.860000 0.000000
-58.797200 0.000000
-58.734500 0.000000
-58.671800 0.000000
-58.609100 0.000000
-58.546400 0.000000
-58.483700 0.000000
-58.420900 0.000000
-58.358200 0.000000
-58.295500 0.000000
-58.232800 0.000000
-58.170100 0.000000
-58.107400 0.000000
-58.044700 0.000000
-57.981900 0.000000
-57.919200 0.000000
-57.856500 0.000000
-57.793800 0.000000
-57.731100 0.000000
-57.668400 0.000000
-57.605700 0.000000
-57.542900 0.000000
-57.480200 0.000000
-57.417500 0.000000
-57.354800 0.000000
-57.292100 0.000000
-57.229400 0.000000
-57.166700 0.000000
-57.103900 0.000000
-57.041200 0.000000
-56.978500 0.000000
-56.915800 0.000000
-56.853100 0.000000
-56.790400 0.000000
-56.727600 0.000000
-56.664900 0.000000
-56.602200 0.000000
-56.539500 0.000000
-56.476800 0.000000
-56.414100 0.000000
-56.351400 0.000000
-56.288600 0.000000
-56.225900 0.000000
-56.163200 0.000000
-56.100500 0.000000
-56.037800 0.000000
-55.975100 0.000000
-55.912400 0.000000
-55.849600 0.000000
-55.786900 0.000000
-55.724200 0.000000
-55.661500 0.000000
-55.598800 0.000000
-55.536100 0.000000
-55.473400 0.000000
-55.410600 0.000000
-55.347900 0.000000
-55.285200 0.000000
-55.222500 0.000000
-55.159800 0.000000
-55.097100 0.000000
-55.034300 0.000000
-54.971600 0.000000
-54.908900 0.000000
-54.846200 0.000000
-54.783500 0.000000
-54.720800 0.000000
-54.658100 0.000000
-54.595300 0.000000
-54.532600 0.000000
-54.469900 0.000000
-54.407200 0.000000
-54.344500 0.000000
-54.281800 0.000000
-54.219100 0.000000
-54.156300 0.000000
-54.093600 0.000000
-54.030900 0.000000
-53.968200 0.000000
-53.905500 0.000000
-53.842800 0.000000
-53.780100 0.000000
-53.717300 0.000000
-53.654600 0.000000
-53.591900 0.000000
-53.529200 0.000000
-53.466500 0.000000
-53.403800 0.000000
-53.341000 0.000000
-53.278300 0.000000
-53.215600 0.000000
-53.152900 0.000000
-53.090200 0.000000
-53.027500 0.000000
-52.964800 0.000000
-52.902000 0.000000
-52.839300 0.000000
-52.776600 0.000000
-52.713900 0.000000
-52.651200 0.000000
-52.588500 0.000000
-52.525800 0.000000
-52.463000 0.000000
-52.400300 0.000000
-52.337600 0.000000
-52.274900 0.000000
-52.212200 0.000000
-52.149500 0.000000
-52.086800 0.000000
-52.024000 0.000000
-51.961300 0.000000
-51.898600 0.000000
-51.835900 0.000000
-51.773200 0.000000
-51.710500 0.000000
-51.647700 0.000000
-51.585000 0.000000
-51.522300 0.000000
-51.459600 0.000000
-51.396900 0.000000
-51.334200 0.000000
-51.271500 0.000000
-51.208700 0.000000
-51.146000 0.000000
-51.083300 0.000000
-51.020600 0.000000
-50.957900 0.000000
-50.895200 0.000000
-50.832500 0.000000
-50.769700 0.000000
-50.707000 0.000000
-50.644300 0.000000
-50.581600 0.000000
-50.518900 0.000000
-50.456200 0.000000
-50.393500 0.000000
-50.330700 0.000000
-50.268000 0.000000
-50.205300 0.000000
-50.142600 0.000000
-50.079900 0.000000
-50.017200 0.000000
-49.954400 0.000000
-49.891700 0.000000
-49.829000 0.000000
-49.766300 0.000000
-49.703600 0.000000
-49.640900 0.000000
-49.578200 0.000000
-49.515400 0.000000
-49.452700 0.000000
-49.390000 0.000000
-49.327300 0.000000
-49.264600 0.000000
-49.201900 0.000000
-49.139200 0.000000
-49.076400 0.000000
-49.013700 0.000000
-48.951000 0.000000
-48.888300 0.000000
-48.825600 0.000000
-48.762900 0.000000
-48.700200 0.000000
-48.637400 0.000000
-48.574700 0.000000
-48.512000 0.000000
-48.449300 0.000000
-48.386600 0.000000
-48.323900 0.000000
-48.261100 0.000000
-48.198400 0.000000
-48.135700 0.000000
-48.073000 0.000000
-48.010300 0.000000
-47.947600 0.000000
-47.884900 0.000000
-47.822100 0.000000
-47.759400 0.000000
-47.696700 0.000000
-47.634000 0.000000
-47.571300 0.000000
-47.508600 0.000000
-47.445900 0.000000
-47.383100 0.000000
-47.320400 0.000000
-47.257700 0.000000
-47.195000 0.000000
-47.132300 0.000000
-47.069600 0.000000
-47.006800 0.000000
-46.944100 0.000000
-46.881400 0.000000
-46.818700 0.000000
-46.756000 0.000000
-46.693300 0.000000
-46.630600 0.000000
-46.567800 0.000000
-46.505100 0.000000
-46.442400 0.000000
-46.379700 0.000000
-46.317000 0.000000
-46.254300 0.000000
-46.191600 0.000000
-46.128800 0.000000
-46.066100 0.000000
-46.003400 0.000000
-45.940700 0.000000
-45.878000 0.000000
-45.815300 0.000000
-45.752600 0.000000
-45.689800 0.000000
-45.627100 0.000000
-45.564400 0.000000
-45.501700 0.000000
-45.439000 0.000000
-45.376300 0.000000
-45.313500 0.000000
-45.250800 0.000000
-45.188100 0.000000
-45.125400 0.000000
-45.062700 0.000000
-45.000000 0.000000
-44.937300 0.000000
-44.874500 0.000000
-44.811800 0.000000
-44.749100 0.000000
-44.686400 0.000000
-44.623700 0.000000
-44.561000 0.000000
-44.498300 0.000000
-44.435500 0.000000
-44.372800 0.000000
-44.310100 0.000000
-44.247400 0.000000
-44.184700 0.000000
-44.122000 0.000000
-44.059300 0.000000
-43.996500 0.000000
-43.933800 0.000000
-43.871100 0.000000
-43.808400 0.000000
-43.745700 0.000000
-43.683000 0.000000
-43.620200 0.000000
-43.557500 0.000000
-43.494800 0.000000
-43.432100 0.000000
-43.369400 0.000000
-43.306700 0.000000
-43.244000 0.000000
-43.181200 0.000000
-43.118500 0.000000
-43.055800 0.000000
-42.993100 0.000000
-42.930400 0.000000
-42.867700 0.000000
-42.805000 0.000000
-42.742200 0.000000
-42.679500 0.000000
-42.616800 0.000000
-42.554100 0.000000
-42.491400 0.000000
-42.428700 0.000000
-42.366000 0.000000
-42.303200 0.000000
-42.240500 0.000000
-42.177800 0.000000
-42.115100 0.000000
-42.052400 0.000000
-41.989700 0.000000
-41.926900 0.000000
-41.864200 0.000000
-41.801500 0.000000
-41.738800 0.000000
-41.676100 0.000000
-41.613400 0.000000
-41.550700 0.000000
-41.487900 0.000000
-41.425200 0.000000
-41.362500 0.000000
-41.299800 0.000000
-41.237100 0.000000
-41.174400 0.000000
-41.111700 0.000000
-41.048900 0.000000
-40.986200 0.000000
-40.923500 0.000000
-40.860800 0.000000
-40.798100 0.000000
-40.735400 0.000000
-40.672700 0.000000
-40.609900 0.000000
-40.547200 0.000000
-40.484500 0.000000
-40.421800 0.000000
-40.359100 0.000000
-40.296400 0.000000
-40.233600 0.000000
-40.170900 0.000000
-40.108200 0.000000
-40.045500 0.000000
-39.982800 0.000000
-39.920100 0.000000
-39.857400 0.000000
-39.794600 0.000000
-39.731900 0.000000
-39.669200 0.000000
-39.606500 0.000000
-39.543800 0.000000
-39.481100 0.000000
-39.418400 0.000000
-39.355600 0.000000
-39.292900 0.000000
-39.230200 0.000000
-39.167500 0.000000
-39.104800 0.000000
-39.042100 0.000000
-38.979400 0.000000
-38.916600 0.000000
-38.853900 0.000000
-38.791200 0.000000
-38.728500 0.000000
-38.665800 0.000000
-38.603100 0.000000
-38.540300 0.000000
-38.477600 0.000000
-38.414900 0.000000
-38.352200 0.000000
-38.289500 0.000000
-38.226800 0.000000
-38.164100 0.000000
-38.101300 0.000000
-38.038600 0.000000
-37.975900 0.000000
-37.913200 0.000000
-37.850500 0.000000
-37.787800 0.000000
-37.725100 0.000000
-37.662300 0.000000
-37.599600 0.000000
-37.536900 0.000000
-37.474200 0.000000
-37.411500 0.000000
-37.348800 0.000000
-37.286100 0.000000
-37.223300 0.000000
-37.160600 0.000000
-37.097900 0.000000
-37.035200 0.000000
-36.972500 0.000000
-36.909800 0.000000
-36.847000 0.000000
-36.784300 0.000000
-36.721600 0.000000
-36.658900 0.000000
-36.596200 0.000000
-36.533500 0.000000
-36.470800 0.000000
-36.408000 0.000000
-36.345300 0.000000
-36.282600 0.000000
-36.219900 0.000000
-36.157200 0.000000
-36.094500 0.000000
-36.031800 0.000000
-35.969000 0.000000
-35.906300 0.000000
-35.843600 0.000000
-35.780900 0.000000
-35.718200 0.000000
-35.655500 0.000000
-35.592800 0.000000
-35.530000 0.000000
-35.467300 0.000000
-35.404600 0.000000
-35.341900 0.000000
-35.279200 0.000000
-35.216500 0.000000
-35.153700 0.000000
-35.091000 0.000000
-35.028300 0.000000
-34.965600 0.000000
-34.902900 0.000000
-34.840200 0.000000
-34.777500 0.000000
-34.714700 0.000000
-34.652000 0.000000
-34.589300 0.000000
-34.526600 0.000000
-34.463900 0.000000
-34.401200 0.000000
-34.338500 0.000000
-34.275700 0.000000
-34.213000 0.000000
-34.150300 0.000000
-34.087600 0.000000
-34.024900 0.000000
-33.962200 0.000000
-33.899500 0.000000
-33.836700 0.000000
-33.774000 0.000000
-33.711300 0.000000
-33.648600 0.000000
-33.585900 0.000000
-33.523200 0.000000
-33.460400 0.000000
-33.397700 0.000000
-33.335000 0.000000
-33.272300 0.000000
-33.209600 0.000000
-33.146900 0.000000
-33.084200 0.000000
-33.021400 0.000000
-32.958700 0.000000
-32.896000 0.000000
-32.833300 0.000000
-32.770600 0.000000
-32.707900 0.000000
-32.645200 0.000000
-32.582400 0.000000
-32.519700 0.000000
-32.457000 0.000000
-32.394300 0.000000
-32.331600 0.000000
-32.268900 0.000000
-32.206100 0.000000
-32.143400 0.000000
-32.080700 0.000000
-32.018000 0.000000
-31.955300 0.000000
-31.892600 0.000000
-31.829900 0.000000
-31.767100 0.000000
-31.704400 0.000000
-31.641700 0.000000
-31.579000 0.000000
-31.516300 0.000000
-31.453600 0.000000
-31.390900 0.000000
-31.328100 0.000000
-31.265400 0.000000
-31.202700 0.000000
-31.140000 0.000000
-31.077300 0.000000
-31.014600 0.000000
-30.951900 0.000000
-30.889100 0.000000
-30.826400 0.000000
-30.763700 0.000000
-30.701000 0.000000
-30.638300 0.000000
-30.575600 0.000000
-30.512800 0.000000
-30.450100 0.000000
-30.387400 0.000000
-30.324700 0.000000
-30.262000 0.000000
-30.199300 0.000000
-30.136600 0.000000
-30.073800 0.000000
-30.011100 0.000000
-29.948400 0.000000
-29.885700 0.000000
-29.823000 0.000000
-29.760300 0.000000
-29.697600 0.000000
-29.634800 0.000000
-29.572100 0.000000
-29.509400 0.000000
-29.446700 0.000000
-29.384000 0.000000
-29.321300 0.000000
-29.258600 0.000000
-29.195800 0.000000
-29.133100 0.000000
-29.070400 0.000000
-29.007700 0.000000
-28.945000 0.000000
-28.882300 0.000000
-28.819500 0.000000
-28.756800 0.000000
-28.694100 0.000000
-28.631400 0.000000
-28.568700 0.000000
-28.506000 0.000000
-28.443300 0.000000
-28.380500 0.000000
-28.317800 0.000000
-28.255100 0.000000
-28.192400 0.000000
-28.129700 0.000000
-28.067000 0.000000
-28.004300 0.000000
-27.941500 0.000000
-27.878800 0.000000
-27.816100 0.000000
-27.753400 0.000000
-27.690700 0.000000
-27.628000 0.000000
-27.565300 0.000000
-27.502500 0.000000
-27.439800 0.000000
-27.377100 0.000000
-27.314400 0.000000
-27.251700 0.000000
-27.189000 0.000000
-27.126200 0.000000
-27.063500 0.000000
-27.000800 0.000000
-26.938100 0.000000
-26.875400 0.000000
-26.812700 0.000000
-26.750000 0.000000
-26.687200 0.000000
-26.624500 0.000000
-26.561800 0.000000
-26.499100 0.000000
-26.436400 0.000000
-26.373700 0.000000
-26.311000 0.000000
-26.248200 0.000000
-26.185500 0.000000
-26.122800 0.000000
-26.060100 0.000000
-25.997400 0.000000
-25.934700 0.000000
-25.872000 0.000000
-25.809200 0.000000
-25.746500 0.000000
-25.683800 0.000000
-25.621100 0.000000
-25.558400 0.000000
-25.495700 0.000000
-25.432900 0.000000
-25.370200 0.000000
-25.307500 0.000000
-25.244800 0.000000
-25.182100 0.000000
-25.119400 0.000000
-25.056700 0.000000
-24.993900 0.000000
-24.931200 0.000000
-24.868500 0.000000
-24.805800 0.000000
-24.743100 0.000000
-24.680400 0.000000
-24.617700 0.000000
-24.554900 0.000000
-24.492200 0.000000
-24.429500 0.000000
-24.366800 0.000000
-24.304100 0.000000
-24.241400 0.000000
-24.178700 0.000000
-24.115900 0.000000
-24.053200 0.000000
-23.990500 0.000000
-23.927800 0.000000
-23.865100 0.000000
-23.802400 0.000000
-23.739600 0.000000
-23.676900 0.000000
-23.614200 0.000000
-23.551500 0.000000
-23.488800 0.000000
-23.426100 0.000000
-23.363400 0.000000
-23.300600 0.000000
-23.237900 0.000000
-23.175200 0.000000
-23.112500 0.000000
-23.049800 0.000000
-22.987100 0.000000
-22.924400 0.000000
-22.861600 0.000000
-22.798900 0.000000
-22.736200 0.000000
-22.673500 0.000000
-22.610800 0.000000
-22.548100 0.000000
-22.485400 0.000000
-22.422600 0.000000
-22.359900 0.000000
-22.297200 0.000000
-22.234500 0.000000
-22.171800 0.000000
-22.109100 0.000000
-22.046300 0.000000
-21.983600 0.000000
-21.920900 0.000000
-21.858200 0.000000
-21.795500 0.000000
-21.732800 0.000000
-21.670100 0.000000
-21.607300 0.000000
-21.544600 0.000000
-21.481900 0.000000
-21.419200 0.000000
-21.356500 0.000000
-21.293800 0.000000
-21.231100 0.000000
-21.168300 0.000000
-21.105600 0.000000
-21.042900 0.000000
-20.980200 0.000000
-20.917500 0.000000
-20.854800 0.000000
-20.792100 0.000000
-20.729300 0.000000
-20.666600 0.000000
-20.603900 0.000000
-20.541200 0.000000
-20.478500 0.000000
-20.415800 0.000000
-20.353000 0.000000
-20.290300 0.000000
-20.227600 0.000000
-20.164900 0.000000
-20.102200 0.000000
-20.039500 0.000000
-19.976800 0.000000
-19.914000 0.000000
-19.851300 0.000000
-19.788600 0.000000
-19.725900 0.000000
-19.663200 0.000000
-19.600500 0.000000
-19.537800 0.000000
-19.475000 0.000000
-19.412300 0.000000
-19.349600 0.000000
-19.286900 0.000000
-19.224200 0.000000
-19.161500 0.000000
-19.098800 0.000000
-19.036000 0.000000
-18.973300 0.000000
-18.910600 0.000000
-18.847900 0.000000
-18.785200 0.000000
-18.722500 0.000000
-18.659700 0.000000
-18.597000 0.000000
-18.534300 0.000000
-18.471600 0.000000
-18.408900 0.000000
-18.346200 0.000000
-18.283500 0.000000
-18.220700 0.000000
-18.158000 0.000000
-18.095300 0.000000
-18.032600 0.000000
-17.969900 0.000000
-17.907200 0.000000
-17.844500 0.000000
-17.781700 0.000000
-17.719000 0.000000
-17.656300 0.000000
-17.593600 0.000000
-17.530900 0.000000
-17.468200 0.000000
-17.405400 0.000000
-17.342700 0.000000
-17.280000 0.000000
-17.217300 0.000000
-17.154600 0.000000
-17.091900 0.000000
-17.029200 0.000000
-16.966400 0.000000
-16.903700 0.000000
-16.841000 0.000000
-16.778300 0.000000
-16.715600 0.000000
-16.652900 0.000000
-16.590200 0.000000
-16.527400 0.000000
-16.464700 0.000000
-16.402000 0.000000
-16.339300 0.000000
-16.276600 0.000000
-16.213900 0.000000
-16.151200 0.000000
-16.088400 0.000000
-16.025700 0.000000
-15.963000 0.000000
-15.900300 0.000000
-15.837600 0.000000
-15.774900 0.000000
-15.712100 0.000000
-15.649400 0.000000
-15.586700 0.000000
-15.524000 0.000000
-15.461300 0.000000
-15.398600 0.000000
-15.335900 0.000000
-15.273100 0.000200
-15.210400 0.018200
-15.147700 0.221300
-15.085000 0.650900
-15.022300 1.012300
-14.959600 1.388300
-14.896900 1.735500
-14.834100 2.213900
-14.771400 2.872200
-14.708700 3.436300
-14.646000 4.105600
-14.583300 5.235100
-14.520600 5.391500
-14.457900 4.108600
-14.395100 5.770700
-14.332400 6.314400
-14.269700 5.743800
-14.207000 4.812100
-14.144300 3.574400
-14.081600 2.495200
-14.018800 1.679000
-13.956100 0.839200
-13.893400 0.157300
-13.830700 0.004800
-13.768000 0.000000
-13.705300 0.000000
-13.642600 0.000000
-13.579800 0.000000
-13.517100 0.000000
-13.454400 0.000000
-13.391700 0.000000
-13.329000 0.000000
-13.266300 0.000000
-13.203600 0.000000
-13.140800 0.000000
-13.078100 0.000000
-13.015400 0.000000
-12.952700 0.000000
-12.890000 0.000000
-12.827300 0.000000
-12.764600 0.000000
-12.701800 0.000000
-12.639100 0.000000
-12.576400 0.000000
-12.513700 0.000000
-12.451000 0.000000
-12.388300 0.000000
-12.325500 0.000000
-12.262800 0.000000
-12.200100 0.000000
-12.137400 0.000000
-12.074700 0.000000
-12.012000 0.000000
-11.949300 0.000000
-11.886500 0.000000
-11.823800 0.000000
-11.761100 0.000000
-11.698400 0.000000
-11.635700 0.000000
-11.573000 0.000000
-11.510300 0.000000
-11.447500 0.000000
-11.384800 0.000000
-11.322100 0.000000
-11.259400 0.000000
-11.196700 0.000000
-11.134000 0.000000
-11.071300 0.000000
-11.008500 0.000000
-10.945800 0.000000
-10.883100 0.000000
-10.820400 0.000000
-10.757700 0.000000
-10.695000 0.000000
-10.632200 0.000000
-10.569500 0.000000
-10.506800 0.000000
-10.444100 0.000000
-10.381400 0.000000
-10.318700 0.000000
-10.256000 0.000000
-10.193200 0.000000
-10.130500 0.000000
-10.067800 0.000000
-10.005100 0.000000
-9.942400 0.000000
-9.879700 0.000000
-9.817000 0.000000
-9.754200 0.000000
-9.691500 0.000000
-9.628800 0.000000
-9.566100 0.000000
-9.503400 0.000000
-9.440700 0.000000
-9.378000 0.000000
-9.315200 0.000000
-9.252500 0.000000
-9.189800 0.000000
-9.127100 0.000000
-9.064400 0.000000
-9.001700 0.000000
-8.938900 0.000000
-8.876200 0.000000
-8.813500 0.000000
-8.750800 0.000000
-8.688100 0.000000
-8.625400 0.000000
-8.562700 0.000000
-8.499900 0.000000
-8.437200 0.000000
-8.374500 0.000000
-8.311800 0.000000
-8.249100 0.000000
-8.186400 0.000000
-8.123700 0.000000
-8.060900 0.000000
-7.998200 0.000000
-7.935500 0.000000
-7.872800 0.000000
-7.810100 0.000000
-7.747400 0.000000
-7.684700 0.000000
-7.621900 0.000000
-7.559200 0.000000
-7.496500 0.000000
-7.433800 0.000000
-7.371100 0.000000
-7.308400 0.000000
-7.245600 0.000000
-7.182900 0.000000
-7.120200 0.000000
-7.057500 0.000000
-6.994800 0.000000
-6.932100 0.000000
-6.869400 0.000000
-6.806600 0.000000
-6.743900 0.000000
-6.681200 0.000000
-6.618500 0.000000
-6.555800 0.000000
-6.493100 0.000000
-6.430400 0.000000
-6.367600 0.000000
-6.304900 0.000000
-6.242200 0.000000
-6.179500 0.000000
-6.116800 0.000000
-6.054100 0.000000
-5.991400 0.000000
-5.928600 0.000000
-5.865900 0.000000
-5.803200 0.000000
-5.740500 0.000000
-5.677800 0.000000
-5.615100 0.000000
-5.552300 0.000000
-5.489600 0.000000
-5.426900 0.000000
-5.364200 0.000000
-5.301500 0.000000
-5.238800 0.000000
-5.176100 0.000000
-5.113300 0.000000
-5.050600 0.000000
-4.987900 0.000000
-4.925200 0.000000
-4.862500 0.000000
-4.799800 0.000000
-4.737100 0.000000
-4.674300 0.000000
-4.611600 0.000000
-4.548900 0.000000
-4.486200 0.000000
-4.423500 0.000000
-4.360800 0.000000
-4.298000 0.000000
-4.235300 0.000000
-4.172600 0.000000
-4.109900 0.000000
-4.047200 0.000000
-3.984500 0.000000
-3.921800 0.000000
-3.859000 0.000000
-3.796300 0.000000
-3.733600 0.006500
-3.670900 0.078900
-3.608200 0.246300
-3.545500 0.356100
-3.482800 0.528500
-3.420000 0.562100
-3.357300 0.775900
-3.294600 0.938600
-3.231900 1.430800
-3.169200 2.065100
-3.106500 2.500500
-3.043800 2.218500
-2.981000 3.003600
-2.918300 2.579500
-2.855600 2.227200
-2.792900 2.925600
-2.730200 3.218100
-2.667500 2.454400
-2.604700 2.917700
-2.542000 3.517300
-2.479300 3.624400
-2.416600 3.821600
-2.353900 3.265300
-2.291200 2.755400
-2.228500 2.738700
-2.165700 2.714000
-2.103000 1.714900
-2.040300 1.613200
-1.977600 2.192900
-1.914900 2.110800
-1.852200 2.307500
-1.789500 1.968800
-1.726700 1.566300
-1.664000 1.834500
-1.601300 3.513700
-1.538600 5.306700
-1.475900 6.047100
-1.413200 6.679400
-1.350500 5.128000
-1.287700 6.000500
-1.225000 5.959000
-1.162300 4.160700
-1.099600 4.874300
-1.036900 5.855600
-0.974200 4.382400
-0.911400 3.668200
-0.848700 2.351200
-0.786000 2.285500
-0.723300 2.339800
-0.660600 2.146500
-0.597900 1.678400
-0.535200 1.482800
-0.472400 2.659700
-0.409700 3.272800
-0.347000 2.180100
-0.284300 1.606300
-0.221600 1.464900
-0.158900 1.657800
-0.096200 1.650300
-0.033400 1.283100
0.029300 1.133600
0.092000 1.103600
0.154700 0.990200
0.217400 2.675500
0.280100 4.083200
0.342800 3.639200
0.405600 3.193900
0.468300 3.878000
0.531000 4.984300
0.593700 6.109400
0.656400 6.512200
0.719100 7.908800
0.781900 9.431700
0.844600 12.193100
0.907300 13.838000
0.970000 11.472700
1.032700 8.180900
1.095400 8.122700
1.158100 10.837400
1.220900 13.437700
1.283600 10.683800
1.346300 8.909300
1.409000 7.282700
1.471700 5.934700
1.534400 5.395600
1.597100 5.488800
1.659900 7.231800
1.722600 9.389400
1.785300 13.749200
1.848000 17.771900
1.910700 19.617300
1.973400 23.106700
2.036100 20.649800
2.098900 16.881300
2.161600 14.061200
2.224300 14.924700
2.287000 11.858400
2.349700 8.926900
2.412400 8.585000
2.475200 8.563100
2.537900 7.483300
2.600600 5.409900
2.663300 3.542600
2.726000 2.950800
2.788700 3.148400
2.851400 3.353700
2.914200 3.439900
2.976900 3.907900
3.039600 4.789300
3.102300 6.403300
3.165000 7.346600
3.227700 7.073300
3.290400 7.552300
3.353200 6.768600
3.415900 8.362400
3.478600 8.868900
3.541300 8.024800
3.604000 5.493100
3.666700 3.400000
3.729400 3.376900
3.792200 3.652900
3.854900 3.512100
3.917600 2.714700
3.980300 1.710600
4.043000 1.850900
4.105700 2.142300
4.168500 1.381100
4.231200 0.840400
4.293900 0.844200
4.356600 0.623100
4.419300 1.143200
4.482000 1.273200
4.544700 0.827100
4.607500 0.500200
4.670200 0.344600
4.732900 0.404800
4.795600 1.146000
4.858300 1.235900
4.921000 0.751800
4.983700 0.445000
5.046500 0.730100
5.109200 1.088600
5.171900 0.958500
5.234600 0.474200
5.297300 0.432900
5.360000 0.634000
5.422700 0.456000
5.485500 0.738500
5.548200 0.754000
5.610900 0.684700
5.673600 0.443200
5.736300 0.673600
5.799000 1.007500
5.861800 1.173600
5.924500 0.830700
5.987200 0.630900
6.049900 0.669200
6.112600 1.266100
6.175300 1.355600
6.238000 1.077500
6.300800 1.290100
6.363500 1.587900
6.426200 1.142800
6.488900 0.580200
6.551600 0.899400
6.614300 1.589400
6.677000 1.773800
6.739800 1.779000
6.802500 1.515300
6.865200 1.238900
6.927900 1.602000
6.990600 1.693100
7.053300 1.692600
7.116000 1.707400
7.178800 2.074900
7.241500 2.075500
7.304200 2.721700
7.366900 2.455800
7.429600 1.804000
7.492300 1.540400
7.555100 1.899400
7.617800 1.813800
7.680500 1.324200
7.743200 1.152600
7.805900 1.563400
7.868600 1.341300
7.931300 0.510500
7.994100 0.533500
8.056800 0.568300
8.119500 0.466900
8.182200 0.550900
8.244900 0.630600
8.307600 0.983900
8.370300 0.726400
8.433100 0.451400
8.495800 0.573900
8.558500 0.407700
8.621200 0.697200
8.683900 0.518300
8.746600 0.371600
8.809300 0.548600
8.872100 0.550200
8.934800 0.436100
8.997500 0.444800
9.060200 0.594600
9.122900 0.593000
9.185600 0.572700
9.248400 0.761800
9.311100 0.796600
9.373800 1.004100
9.436500 0.879500
9.499200 0.542400
9.561900 0.933800
9.624600 0.858800
9.687400 1.241800
9.750100 1.205700
9.812800 1.542300
9.875500 1.881800
9.938200 1.439900
10.000900 1.535600
10.063600 1.280100
10.126400 1.800100
10.189100 1.551000
10.251800 1.214000
10.314500 1.031700
10.377200 1.238500
10.439900 1.469500
10.502700 1.789900
10.565400 2.054100
10.628100 2.321200
10.690800 1.841900
10.753500 1.674800
10.816200 1.155900
10.878900 0.664300
10.941700 1.172000
11.004400 1.628000
11.067100 1.182900
11.129800 1.631400
11.192500 2.075600
11.255200 1.988200
11.317900 1.423700
11.380700 1.241600
11.443400 1.011200
11.506100 1.141800
11.568800 1.210200
11.631500 0.893300
11.694200 0.845200
11.756900 0.851200
11.819700 1.003000
11.882400 1.338500
11.945100 1.188100
12.007800 0.876400
12.070500 0.876400
12.133200 0.980600
12.196000 0.885000
12.258700 1.161900
12.321400 1.844900
12.384100 1.720100
12.446800 1.215900
12.509500 1.508100
12.572200 1.478700
12.635000 1.930400
12.697700 1.766100
12.760400 1.550500
12.823100 1.497400
12.885800 1.131000
12.948500 1.700400
13.011200 1.781500
13.074000 1.767900
13.136700 1.639000
13.199400 1.449400
13.262100 1.188000
13.324800 0.675200
13.387500 0.450300
13.450200 1.175900
13.513000 1.187300
13.575700 0.881000
13.638400 0.765700
13.701100 0.844000
13.763800 0.667200
13.826500 0.678600
13.889300 1.304700
13.952000 1.861500
14.014700 2.170400
14.077400 1.972100
14.140100 2.412300
14.202800 1.914400
14.265500 1.560300
14.328300 2.039800
14.391000 2.613400
14.453700 2.334000
14.516400 2.110100
14.579100 1.707400
14.641800 1.115500
14.704500 1.207900
14.767300 1.697300
14.830000 1.563700
14.892700 0.888600
14.955400 1.597500
15.018100 2.263000
15.080800 1.633700
15.143500 0.830500
15.206300 0.833800
15.269000 1.374400
15.331700 1.420500
15.394400 0.970600
15.457100 1.626000
15.519800 1.739800
15.582600 1.375000
15.645300 1.450000
15.708000 1.483200
15.770700 1.611600
15.833400 2.153200
15.896100 2.213600
15.958800 1.797700
16.021600 1.208300
16.084300 1.637000
16.147000 2.080900
16.209700 2.627100
16.272400 2.130800
16.335100 0.921100
16.397800 1.482900
16.460600 2.216800
16.523300 2.161500
16.586000 1.882300
16.648700 2.133700
16.711400 2.212600
16.774100 1.649100
16.836800 1.733200
16.899600 1.037200
16.962300 1.700400
17.025000 1.824500
17.087700 1.985100
17.150400 2.421700
17.213100 3.047100
17.275900 1.977700
17.338600 1.368600
17.401300 1.695900
17.464000 2.082200
17.526700 1.975000
17.589400 1.970200
17.652100 2.268200
17.714900 2.499700
17.777600 2.166600
17.840300 2.189000
17.903000 1.848700
17.965700 1.295300
18.028400 1.718200
18.091100 1.487500
18.153900 1.109300
18.216600 1.404300
18.279300 1.232700
18.342000 1.270600
18.404700 1.967400
18.467400 2.052900
18.530100 1.657500
18.592900 3.304000
18.655600 3.386900
18.718300 2.578800
18.781000 2.848200
18.843700 2.177600
18.906400 2.444300
18.969200 2.485100
19.031900 1.832300
19.094600 1.763200
19.157300 2.077000
19.220000 2.005200
19.282700 1.639700
19.345400 1.695500
19.408200 2.423600
19.470900 2.603800
19.533600 1.578000
19.596300 1.826100
19.659000 2.218600
19.721700 2.065400
19.784400 1.715700
19.847200 1.725400
19.909900 2.692000
19.972600 2.914600
20.035300 1.661500
20.098000 1.696600
20.160700 2.412000
20.223400 1.938700
20.286200 1.941200
20.348900 2.605600
20.411600 2.648700
20.474300 2.987300
20.537000 2.958100
20.599700 1.823000
20.662500 2.198900
20.725200 2.554200
20.787900 1.764400
20.850600 1.776300
20.913300 2.064800
20.976000 1.949000
21.038700 2.190400
21.101500 2.834000
21.164200 2.505600
21.226900 1.495400
21.289600 1.306400
21.352300 1.843000
21.415000 2.056300
21.477700 2.074200
21.540500 2.582700
21.603200 2.248500
21.665900 1.805500
21.728600 1.782000
21.791300 1.651700
21.854000 1.575200
21.916700 2.326800
21.979500 2.469300
22.042200 2.211600
22.104900 1.704400
22.167600 1.400600
22.230300 1.945200
22.293000 1.647200
22.355800 2.082600
22.418500 2.094400
22.481200 1.566900
22.543900 1.443900
22.606600 1.996900
22.669300 2.150700
22.732000 1.481400
22.794800 1.013300
22.857500 1.850800
22.920200 2.068300
22.982900 1.834600
23.045600 1.611900
23.108300 1.418900
23.171000 2.134900
23.233800 2.087700
23.296500 2.727800
23.359200 3.640800
23.421900 3.102200
23.484600 2.472800
23.547300 2.343200
23.610100 3.484900
23.672800 3.679700
23.735500 3.426100
23.798200 2.983200
23.860900 2.691800
23.923600 2.661200
23.986300 2.946700
24.049100 3.504800
24.111800 2.407500
24.174500 2.167900
24.237200 1.783900
24.299900 1.841700
24.362600 1.045400
24.425300 1.475400
24.488100 1.935600
24.550800 1.626100
24.613500 2.038000
24.676200 2.017400
24.738900 1.794000
24.801600 1.945200
24.864300 1.787100
24.927100 1.853600
24.989800 1.601900
25.052500 1.444700
25.115200 1.841200
25.177900 2.055100
25.240600 1.844500
25.303400 1.239800
25.366100 1.434600
25.428800 2.926500
25.491500 2.721900
25.554200 2.194800
25.616900 1.667700
25.679600 1.128600
25.742400 1.845200
25.805100 1.899700
25.867800 1.407400
25.930500 1.287500
25.993200 1.483100
26.055900 2.529200
26.118600 2.805500
26.181400 2.448200
26.244100 1.906100
26.306800 2.184400
26.369500 2.065200
26.432200 2.180200
26.494900 2.227600
26.557600 1.471700
26.620400 1.600900
26.683100 1.817100
26.745800 1.768000
26.808500 1.782900
26.871200 2.113700
26.933900 1.990000
26.996700 1.208800
27.059400 1.314400
27.122100 2.243900
27.184800 2.488200
27.247500 1.832900
27.310200 1.839000
27.372900 2.625500
27.435700 2.521400
27.498400 2.023600
27.561100 2.349300
27.623800 2.640700
27.686500 2.494300
27.749200 1.847500
27.811900 2.063700
27.874700 2.952900
27.937400 2.488300
28.000100 2.404700
28.062800 2.657800
28.125500 2.337400
28.188200 2.009500
28.250900 2.159700
28.313700 2.165100
28.376400 2.136300
28.439100 1.851200
28.501800 2.223500
28.564500 2.119900
28.627200 1.620200
28.690000 1.564200
28.752700 1.517100
28.815400 1.632500
28.878100 1.376200
28.940800 1.170700
29.003500 1.447200
29.066200 2.125200
29.129000 2.406000
29.191700 2.030900
29.254400 2.425900
29.317100 2.566000
29.379800 1.549400
29.442500 1.525000
29.505200 1.752300
29.568000 2.028000
29.630700 2.185800
29.693400 2.238800
29.756100 2.013500
29.818800 1.598700
29.881500 1.754300
29.944200 1.457700
30.007000 2.313000
30.069700 2.149800
30.132400 1.359300
30.195100 1.608300
30.257800 1.717500
30.320500 1.956500
30.383300 2.594300
30.446000 2.308000
30.508700 1.901500
30.571400 2.591700
30.634100 2.104600
30.696800 1.797000
30.759500 2.144200
30.822300 1.994600
30.885000 2.045100
30.947700 1.980800
31.010400 1.946200
31.073100 1.872300
31.135800 2.108800
31.198500 2.431000
31.261300 2.502500
31.324000 2.355700
31.386700 2.338900
31.449400 2.359400
31.512100 2.031900
31.574800 1.518600
31.637500 1.685200
31.700300 2.026600
31.763000 1.970200
31.825700 2.159600
31.888400 2.151800
31.951100 2.738800
32.013800 3.079400
32.076600 2.793700
32.139300 3.013700
32.202000 2.782400
32.264700 2.320800
32.327400 2.709300
32.390100 2.533900
32.452800 2.366800
32.515600 2.828500
32.578300 2.806000
32.641000 2.489600
32.703700 2.387700
32.766400 2.869900
32.829100 2.781100
32.891800 2.548300
32.954600 2.639600
33.017300 2.034100
33.080000 2.100900
33.142700 2.741500
33.205400 2.340900
33.268100 2.187300
33.330800 2.252700
33.393600 2.553700
33.456300 3.097100
33.519000 3.838200
33.581700 3.280700
33.644400 2.537000
33.707100 2.167800
33.769900 2.109500
33.832600 1.892700
33.895300 2.328600
33.958000 2.883700
34.020700 3.342700
34.083400 2.273700
34.146100 2.398600
34.208900 2.726700
34.271600 2.132300
34.334300 2.433100
34.397000 2.087800
34.459700 2.964200
34.522400 3.627400
34.585100 3.026800
34.647900 2.351100
34.710600 2.394400
34.773300 2.658700
34.836000 2.401000
34.898700 2.559300
34.961400 3.060700
35.024100 2.397900
35.086900 2.142700
35.149600 2.845800
35.212300 2.584900
35.275000 2.384500
35.337700 2.643700
35.400400 2.905200
35.463200 3.407100
35.525900 3.016500
35.588600 3.163800
35.651300 3.050800
35.714000 2.678300
35.776700 1.628300
35.839400 2.176900
35.902200 2.660200
35.964900 2.356000
36.027600 3.687100
36.090300 3.988900
36.153000 3.152400
36.215700 3.136200
36.278400 3.183100
36.341200 1.981900
36.403900 2.134100
36.466600 2.855300
36.529300 3.085800
36.592000 3.384200
36.654700 2.699300
36.717400 2.969700
36.780200 3.290500
36.842900 3.119500
36.905600 3.753000
36.968300 4.024000
37.031000 4.242800
37.093700 4.248000
37.156500 4.321200
37.219200 6.248100
37.281900 9.970900
37.344600 12.577000
37.407300 9.666900
37.470000 7.065800
37.532700 7.106700
37.595500 7.798700
37.658200 11.993300
37.720900 17.221300
37.783600 13.226800
37.846300 7.467600
37.909000 5.525200
37.971700 5.204800
38.034500 4.660400
38.097200 3.797300
38.159900 3.628500
38.222600 3.306600
38.285300 3.128000
38.348000 2.566100
38.410800 3.294600
38.473500 3.183600
38.536200 2.563000
38.598900 2.884100
38.661600 2.470400
38.724300 2.832200
38.787000 2.710800
38.849800 2.729800
38.912500 3.078600
38.975200 3.538800
39.037900 2.354000
39.100600 2.374200
39.163300 2.787000
39.226000 3.047100
39.288800 2.830400
39.351500 2.187800
39.414200 2.771000
39.476900 3.056100
39.539600 2.504800
39.602300 3.026400
39.665000 3.367700
39.727800 3.005300
39.790500 1.919600
39.853200 1.917200
39.915900 2.787000
39.978600 2.859300
40.041300 3.053500
40.104100 3.111300
40.166800 3.294500
40.229500 3.375100
40.292200 3.118000
40.354900 2.860400
40.417600 3.191400
40.480300 2.299600
40.543100 2.564900
40.605800 3.524100
40.668500 2.605900
40.731200 2.530600
40.793900 3.379900
40.856600 2.783100
40.919300 2.274600
40.982100 2.417200
41.044800 2.935000
41.107500 3.472000
41.170200 3.120000
41.232900 3.045600
41.295600 3.610000
41.358300 2.710200
41.421100 2.615800
41.483800 3.143700
41.546500 3.476200
41.609200 2.275000
41.671900 2.932900
41.734600 3.560600
41.797400 3.839800
41.860100 3.712900
41.922800 2.575900
41.985500 2.499600
42.048200 3.264400
42.110900 3.331800
42.173600 2.947000
42.236400 2.928500
42.299100 3.431200
42.361800 4.083700
42.424500 4.036900
42.487200 4.024200
42.549900 3.365600
42.612600 2.632800
42.675400 2.915500
42.738100 3.089700
42.800800 3.201100
42.863500 2.677400
42.926200 2.919100
42.988900 3.411700
43.051600 2.725900
43.114400 2.257200
43.177100 2.902100
43.239800 3.119600
43.302500 2.619700
43.365200 2.327000
43.427900 2.950800
43.490700 3.104400
43.553400 2.241400
43.616100 3.194400
43.678800 3.364300
43.741500 2.692900
43.804200 2.932300
43.866900 3.076800
43.929700 2.939200
43.992400 2.676200
44.055100 2.933400
44.117800 4.034700
44.180500 4.623100
44.243200 3.913100
44.305900 3.281300
44.368700 3.692300
44.431400 3.327200
44.494100 3.603300
44.556800 2.684200
44.619500 3.121500
44.682200 3.346400
44.744900 3.384200
44.807700 3.947700
44.870400 3.317300
44.933100 2.829900
44.995800 2.504700
45.058500 2.502700
45.121200 1.864400
45.184000 2.038800
45.246700 2.532600
45.309400 3.554800
45.372100 2.977100
45.434800 2.012900
45.497500 2.535400
45.560200 3.184000
45.623000 3.276300
45.685700 1.726200
45.748400 1.636500
45.811100 2.729500
45.873800 2.773600
45.936500 2.851000
45.999200 2.804200
46.062000 2.446500
46.124700 2.807900
46.187400 3.098400
46.250100 3.598000
46.312800 3.450500
46.375500 2.971600
46.438200 2.648500
46.501000 2.747200
46.563700 2.986400
46.626400 3.694200
46.689100 3.503800
46.751800 1.806200
46.814500 1.662100
46.877300 2.060300
46.940000 2.141600
47.002700 1.573800
47.065400 1.471000
47.128100 1.433100
47.190800 0.891200
47.253500 0.701700
47.316300 0.730100
47.379000 0.606500
47.441700 1.029100
47.504400 0.757000
47.567100 0.580300
47.629800 0.324500
47.692500 0.442400
47.755300 0.411900
47.818000 0.325000
47.880700 0.435900
47.943400 0.453600
48.006100 0.302600
48.068800 0.315400
48.131500 0.314700
48.194300 0.173700
48.257000 0.047400
48.319700 0.004000
48.382400 0.000000
48.445100 0.000000
48.507800 0.000000
48.570600 0.000000
48.633300 0.000000
48.696000 0.000000
48.758700 0.000000
48.821400 0.000000
48.884100 0.000000
48.946800 0.000000
49.009600 0.000000
49.072300 0.000000
49.135000 0.000000
49.197700 0.000000
49.260400 0.000000
49.323100 0.000000
49.385800 0.000000
49.448600 0.000000
49.511300 0.000000
49.574000 0.000000
49.636700 0.000000
49.699400 0.000000
49.762100 0.000000
49.824800 0.000000
49.887600 0.000000
49.950300 0.000000
50.013000 0.000000
50.075700 0.000000
50.138400 0.000000
50.201100 0.000000
50.263900 0.000000
50.326600 0.000000
50.389300 0.000000
50.452000 0.000000
50.514700 0.000000
50.577400 0.000000
50.640100 0.000000
50.702900 0.000000
50.765600 0.000000
50.828300 0.000000
50.891000 0.000000
50.953700 0.000000
51.016400 0.000000
51.079100 0.000000
51.141900 0.000000
51.204600 0.000000
51.267300 0.000000
51.330000 0.000000
51.392700 0.000000
51.455400 0.000000
51.518200 0.000000
51.580900 0.000000
51.643600 0.000000
51.706300 0.000000
51.769000 0.000000
51.831700 0.000000
51.894400 0.000000
51.957200 0.000000
52.019900 0.000000
52.082600 0.000000
52.145300 0.000000
52.208000 0.000000
52.270700 0.000000
52.333400 0.000000
52.396200 0.000000
52.458900 0.000000
52.521600 0.000000
52.584300 0.000000
52.647000 0.000000
52.709700 0.000000
52.772400 0.000000
52.835200 0.000000
52.897900 0.000000
52.960600 0.000000
53.023300 0.000000
53.086000 0.000000
53.148700 0.000000
53.211500 0.000000
53.274200 0.000000
53.336900 0.000000
53.399600 0.000000
53.462300 0.000000
53.525000 0.000000
53.587700 0.000000
53.650500 0.000000
53.713200 0.000000
53.775900 0.000000
53.838600 0.000000
53.901300 0.000000
e
