set title 'mp-1184133 - Density of States'
set xlabel 'Energy (eV)'
set ylabel 'DOS (states/eV)'
set grid
set xrange [-10:10]
set yrange [0:12.080]
set xzeroaxis lt -1
set terminal png size 800,600
set output 'mp-1184133_dos_gnuplot.png'
plot '-' using 1:2 with lines title 'DOS'
-21.553300 0.000000
-21.530000 0.000000
-21.506700 0.000000
-21.483400 0.000000
-21.460100 0.000000
-21.436700 0.000000
-21.413400 0.000000
-21.390100 0.000000
-21.366800 0.000000
-21.343500 0.000000
-21.320200 0.000000
-21.296900 0.000000
-21.273500 0.000000
-21.250200 0.000000
-21.226900 0.000000
-21.203600 0.000000
-21.180300 0.000000
-21.157000 0.000000
-21.133700 0.000000
-21.110300 0.000000
-21.087000 0.000000
-21.063700 0.000000
-21.040400 0.000000
-21.017100 0.000000
-20.993800 0.000000
-20.970500 0.000000
-20.947200 0.000000
-20.923800 0.000000
-20.900500 0.000000
-20.877200 0.000000
-20.853900 0.000000
-20.830600 0.000000
-20.807300 0.000000
-20.784000 0.000000
-20.760600 0.000000
-20.737300 0.000000
-20.714000 0.000000
-20.690700 0.000000
-20.667400 0.000000
-20.644100 0.000000
-20.620800 0.000000
-20.597400 0.000000
-20.574100 0.000000
-20.550800 0.000000
-20.527500 0.000000
-20.504200 0.000000
-20.480900 0.000000
-20.457600 0.000000
-20.434200 0.000000
-20.410900 0.000000
-20.387600 0.000000
-20.364300 0.000000
-20.341000 0.000000
-20.317700 0.000000
-20.294400 0.000000
-20.271100 0.000000
-20.247700 0.000000
-20.224400 0.000000
-20.201100 0.000000
-20.177800 0.000000
-20.154500 0.000000
-20.131200 0.000000
-20.107900 0.000000
-20.084500 0.000000
-20.061200 0.000000
-20.037900 0.000000
-20.014600 0.000000
-19.991300 0.000000
-19.968000 0.000000
-19.944700 0.000000
-19.921300 0.000000
-19.898000 0.000000
-19.874700 0.000000
-19.851400 0.000000
-19.828100 0.000000
-19.804800 0.000000
-19.781500 0.000000
-19.758100 0.000000
-19.734800 0.000000
-19.711500 0.000000
-19.688200 0.000000
-19.664900 0.000000
-19.641600 0.000000
-19.618300 0.000000
-19.595000 0.000000
-19.571600 0.000000
-19.548300 0.000600
-19.525000 0.006000
-19.501700 0.038700
-19.478400 0.174000
-19.455100 0.551800
-19.431800 1.263500
-19.408400 2.196100
-19.385100 3.184500
-19.361800 4.351200
-19.338500 5.995400
-19.315200 8.145100
-19.291900 10.479200
-19.268600 12.626900
-19.245200 14.407800
-19.221900 16.153400
-19.198600 18.677100
-19.175300 21.873300
-19.152000 24.070500
-19.128700 24.027400
-19.105400 22.412500
-19.082100 20.715600
-19.058700 19.592800
-19.035400 18.589600
-19.012100 17.218500
-18.988800 15.685500
-18.965500 14.536500
-18.942200 14.263300
-18.918900 15.087300
-18.895500 16.735500
-18.872200 18.561300
-18.848900 19.907900
-18.825600 20.477100
-18.802300 20.586400
-18.779000 20.899600
-18.755700 21.554100
-18.732300 22.015900
-18.709000 21.749800
-18.685700 20.341800
-18.662400 18.008700
-18.639100 16.090900
-18.615800 15.589300
-18.592500 15.871900
-18.569100 15.806800
-18.545800 15.182100
-18.522500 14.359600
-18.499200 13.466200
-18.475900 12.421900
-18.452600 11.187800
-18.429300 9.986100
-18.406000 9.493700
-18.382600 10.266000
-18.359300 11.831600
-18.336000 12.859200
-18.312700 12.462900
-18.289400 10.787600
-18.266100 8.228600
-18.242800 5.219400
-18.219400 2.571500
-18.196100 0.936500
-18.172800 0.244300
-18.149500 0.044700
-18.126200 0.005600
-18.102900 0.000500
-18.079600 0.000000
-18.056200 0.000000
-18.032900 0.000000
-18.009600 0.000000
-17.986300 0.000000
-17.963000 0.000000
-17.939700 0.000000
-17.916400 0.000000
-17.893100 0.000000
-17.869700 0.000000
-17.846400 0.000000
-17.823100 0.000000
-17.799800 0.000000
-17.776500 0.000000
-17.753200 0.000000
-17.729900 0.000000
-17.706500 0.000000
-17.683200 0.000000
-17.659900 0.000000
-17.636600 0.000000
-17.613300 0.000000
-17.590000 0.000000
-17.566700 0.000000
-17.543300 0.000000
-17.520000 0.000000
-17.496700 0.000000
-17.473400 0.000000
-17.450100 0.000000
-17.426800 0.000000
-17.403500 0.000000
-17.380100 0.000000
-17.356800 0.000000
-17.333500 0.000000
-17.310200 0.000000
-17.286900 0.000000
-17.263600 0.000000
-17.240300 0.000000
-17.217000 0.000000
-17.193600 0.000000
-17.170300 0.000000
-17.147000 0.000000
-17.123700 0.000000
-17.100400 0.000000
-17.077100 0.000000
-17.053800 0.000000
-17.030400 0.000000
-17.007100 0.000000
-16.983800 0.000000
-16.960500 0.000000
-16.937200 0.000000
-16.913900 0.000000
-16.890600 0.000000
-16.867200 0.000000
-16.843900 0.000000
-16.820600 0.000000
-16.797300 0.000000
-16.774000 0.000000
-16.750700 0.000000
-16.727400 0.000000
-16.704000 0.000000
-16.680700 0.000000
-16.657400 0.000000
-16.634100 0.000000
-16.610800 0.000000
-16.587500 0.000000
-16.564200 0.000000
-16.540900 0.000000
-16.517500 0.000000
-16.494200 0.000000
-16.470900 0.000000
-16.447600 0.000000
-16.424300 0.000000
-16.401000 0.000000
-16.377700 0.000000
-16.354300 0.000000
-16.331000 0.000000
-16.307700 0.000000
-16.284400 0.000000
-16.261100 0.000000
-16.237800 0.000000
-16.214500 0.000000
-16.191100 0.000000
-16.167800 0.000000
-16.144500 0.000000
-16.121200 0.000000
-16.097900 0.000000
-16.074600 0.000000
-16.051300 0.000000
-16.028000 0.000000
-16.004600 0.000000
-15.981300 0.000000
-15.958000 0.000000
-15.934700 0.000000
-15.911400 0.000000
-15.888100 0.000000
-15.864800 0.000000
-15.841400 0.000000
-15.818100 0.000000
-15.794800 0.000000
-15.771500 0.000000
-15.748200 0.000000
-15.724900 0.000000
-15.701600 0.000000
-15.678200 0.000000
-15.654900 0.000000
-15.631600 0.000000
-15.608300 0.000000
-15.585000 0.000000
-15.561700 0.000000
-15.538400 0.000000
-15.515000 0.000000
-15.491700 0.000000
-15.468400 0.000000
-15.445100 0.000000
-15.421800 0.000000
-15.398500 0.000000
-15.375200 0.000000
-15.351900 0.000000
-15.328500 0.000000
-15.305200 0.000000
-15.281900 0.000000
-15.258600 0.000000
-15.235300 0.000000
-15.212000 0.000000
-15.188700 0.000000
-15.165300 0.000000
-15.142000 0.000000
-15.118700 0.000000
-15.095400 0.000000
-15.072100 0.000000
-15.048800 0.000000
-15.025500 0.000000
-15.002100 0.000000
-14.978800 0.000000
-14.955500 0.000000
-14.932200 0.000000
-14.908900 0.000000
-14.885600 0.000000
-14.862300 0.000000
-14.839000 0.000000
-14.815600 0.000000
-14.792300 0.000000
-14.769000 0.000000
-14.745700 0.000000
-14.722400 0.000000
-14.699100 0.000000
-14.675800 0.000000
-14.652400 0.000000
-14.629100 0.000000
-14.605800 0.000000
-14.582500 0.000000
-14.559200 0.000000
-14.535900 0.000000
-14.512600 0.000000
-14.489200 0.000000
-14.465900 0.000000
-14.442600 0.000000
-14.419300 0.000000
-14.396000 0.000000
-14.372700 0.000000
-14.349400 0.000000
-14.326000 0.000000
-14.302700 0.000000
-14.279400 0.000000
-14.256100 0.000000
-14.232800 0.000000
-14.209500 0.000000
-14.186200 0.000000
-14.162900 0.000000
-14.139500 0.000000
-14.116200 0.000000
-14.092900 0.000000
-14.069600 0.000000
-14.046300 0.000000
-14.023000 0.000000
-13.999700 0.000000
-13.976300 0.000000
-13.953000 0.000000
-13.929700 0.000000
-13.906400 0.000000
-13.883100 0.000000
-13.859800 0.000000
-13.836500 0.000000
-13.813100 0.000000
-13.789800 0.000000
-13.766500 0.000000
-13.743200 0.000000
-13.719900 0.000000
-13.696600 0.000000
-13.673300 0.000000
-13.649900 0.000000
-13.626600 0.000000
-13.603300 0.000000
-13.580000 0.000000
-13.556700 0.000000
-13.533400 0.000000
-13.510100 0.000000
-13.486800 0.000000
-13.463400 0.000000
-13.440100 0.000000
-13.416800 0.000000
-13.393500 0.000000
-13.370200 0.000000
-13.346900 0.000000
-13.323600 0.000000
-13.300200 0.000000
-13.276900 0.000000
-13.253600 0.000000
-13.230300 0.000000
-13.207000 0.000000
-13.183700 0.000000
-13.160400 0.000000
-13.137000 0.000000
-13.113700 0.000000
-13.090400 0.000000
-13.067100 0.000000
-13.043800 0.000000
-13.020500 0.000000
-12.997200 0.000000
-12.973900 0.000000
-12.950500 0.000000
-12.927200 0.000000
-12.903900 0.000000
-12.880600 0.000000
-12.857300 0.000000
-12.834000 0.000000
-12.810700 0.000000
-12.787300 0.000000
-12.764000 0.000000
-12.740700 0.000000
-12.717400 0.000000
-12.694100 0.000000
-12.670800 0.000000
-12.647500 0.000000
-12.624100 0.000000
-12.600800 0.000000
-12.577500 0.000000
-12.554200 0.000000
-12.530900 0.000000
-12.507600 0.000000
-12.484300 0.000000
-12.460900 0.000000
-12.437600 0.000000
-12.414300 0.000000
-12.391000 0.000000
-12.367700 0.000000
-12.344400 0.000000
-12.321100 0.000000
-12.297800 0.000000
-12.274400 0.000000
-12.251100 0.000000
-12.227800 0.000000
-12.204500 0.000000
-12.181200 0.000000
-12.157900 0.000000
-12.134600 0.000000
-12.111200 0.000000
-12.087900 0.000000
-12.064600 0.000000
-12.041300 0.000000
-12.018000 0.000000
-11.994700 0.000000
-11.971400 0.000000
-11.948000 0.000000
-11.924700 0.000000
-11.901400 0.000000
-11.878100 0.000000
-11.854800 0.000000
-11.831500 0.000000
-11.808200 0.000000
-11.784900 0.000000
-11.761500 0.000000
-11.738200 0.000000
-11.714900 0.000000
-11.691600 0.000000
-11.668300 0.000000
-11.645000 0.000000
-11.621700 0.000000
-11.598300 0.000000
-11.575000 0.000000
-11.551700 0.000000
-11.528400 0.000000
-11.505100 0.000000
-11.481800 0.000000
-11.458500 0.000000
-11.435100 0.000000
-11.411800 0.000000
-11.388500 0.000000
-11.365200 0.000000
-11.341900 0.000000
-11.318600 0.000000
-11.295300 0.000000
-11.271900 0.000000
-11.248600 0.000000
-11.225300 0.000000
-11.202000 0.000000
-11.178700 0.000000
-11.155400 0.000000
-11.132100 0.000000
-11.108800 0.000000
-11.085400 0.000000
-11.062100 0.000000
-11.038800 0.000000
-11.015500 0.000000
-10.992200 0.000000
-10.968900 0.000000
-10.945600 0.000000
-10.922200 0.000000
-10.898900 0.000000
-10.875600 0.000000
-10.852300 0.000000
-10.829000 0.000000
-10.805700 0.000000
-10.782400 0.000000
-10.759000 0.000000
-10.735700 0.000000
-10.712400 0.000000
-10.689100 0.000000
-10.665800 0.000000
-10.642500 0.000000
-10.619200 0.000000
-10.595800 0.000000
-10.572500 0.000000
-10.549200 0.000000
-10.525900 0.000000
-10.502600 0.000000
-10.479300 0.000000
-10.456000 0.000000
-10.432700 0.000000
-10.409300 0.000000
-10.386000 0.000000
-10.362700 0.000000
-10.339400 0.000000
-10.316100 0.000000
-10.292800 0.000000
-10.269500 0.000000
-10.246100 0.000000
-10.222800 0.000000
-10.199500 0.000000
-10.176200 0.000000
-10.152900 0.000000
-10.129600 0.000000
-10.106300 0.000000
-10.082900 0.000000
-10.059600 0.000000
-10.036300 0.000000
-10.013000 0.000000
-9.989700 0.000000
-9.966400 0.000000
-9.943100 0.000000
-9.919800 0.000000
-9.896400 0.000000
-9.873100 0.000000
-9.849800 0.000000
-9.826500 0.000000
-9.803200 0.000000
-9.779900 0.000000
-9.756600 0.000000
-9.733200 0.000000
-9.709900 0.000000
-9.686600 0.000000
-9.663300 0.000000
-9.640000 0.000000
-9.616700 0.000000
-9.593400 0.000000
-9.570000 0.000000
-9.546700 0.000000
-9.523400 0.000000
-9.500100 0.000000
-9.476800 0.000000
-9.453500 0.000000
-9.430200 0.000000
-9.406800 0.000000
-9.383500 0.000000
-9.360200 0.000000
-9.336900 0.000000
-9.313600 0.000000
-9.290300 0.000000
-9.267000 0.000000
-9.243700 0.000000
-9.220300 0.000000
-9.197000 0.000000
-9.173700 0.000000
-9.150400 0.000000
-9.127100 0.000000
-9.103800 0.000000
-9.080500 0.000000
-9.057100 0.000000
-9.033800 0.000000
-9.010500 0.000000
-8.987200 0.000000
-8.963900 0.000000
-8.940600 0.000000
-8.917300 0.000000
-8.893900 0.000000
-8.870600 0.000000
-8.847300 0.000000
-8.824000 0.000000
-8.800700 0.000000
-8.777400 0.000000
-8.754100 0.000000
-8.730700 0.000000
-8.707400 0.000000
-8.684100 0.000000
-8.660800 0.000000
-8.637500 0.000000
-8.614200 0.000000
-8.590900 0.000000
-8.567600 0.000000
-8.544200 0.000000
-8.520900 0.000000
-8.497600 0.000000
-8.474300 0.000000
-8.451000 0.000000
-8.427700 0.000000
-8.404400 0.000000
-8.381000 0.000000
-8.357700 0.000000
-8.334400 0.000000
-8.311100 0.000000
-8.287800 0.000000
-8.264500 0.000000
-8.241200 0.000000
-8.217800 0.000000
-8.194500 0.000000
-8.171200 0.000000
-8.147900 0.000000
-8.124600 0.000000
-8.101300 0.000000
-8.078000 0.000000
-8.054700 0.000000
-8.031300 0.000000
-8.008000 0.000000
-7.984700 0.000000
-7.961400 0.000000
-7.938100 0.000000
-7.914800 0.000000
-7.891500 0.000000
-7.868100 0.000000
-7.844800 0.000000
-7.821500 0.000000
-7.798200 0.000000
-7.774900 0.000000
-7.751600 0.000000
-7.728300 0.000000
-7.704900 0.000000
-7.681600 0.000000
-7.658300 0.000000
-7.635000 0.000000
-7.611700 0.000000
-7.588400 0.000000
-7.565100 0.000000
-7.541700 0.000000
-7.518400 0.000000
-7.495100 0.000000
-7.471800 0.000000
-7.448500 0.000000
-7.425200 0.000000
-7.401900 0.000000
-7.378600 0.000000
-7.355200 0.000000
-7.331900 0.000000
-7.308600 0.000000
-7.285300 0.000000
-7.262000 0.000000
-7.238700 0.000000
-7.215400 0.000000
-7.192000 0.000000
-7.168700 0.000000
-7.145400 0.000000
-7.122100 0.000000
-7.098800 0.000000
-7.075500 0.000000
-7.052200 0.000000
-7.028800 0.000000
-7.005500 0.000000
-6.982200 0.000000
-6.958900 0.000000
-6.935600 0.000000
-6.912300 0.000000
-6.889000 0.000000
-6.865700 0.000000
-6.842300 0.000000
-6.819000 0.000000
-6.795700 0.000100
-6.772400 0.000700
-6.749100 0.003900
-6.725800 0.015800
-6.702500 0.047700
-6.679100 0.115100
-6.655800 0.229400
-6.632500 0.377800
-6.609200 0.516400
-6.585900 0.615100
-6.562600 0.687800
-6.539300 0.775700
-6.515900 0.949200
-6.492600 1.229900
-6.469300 1.488300
-6.446000 1.623100
-6.422700 1.725500
-6.399400 1.884200
-6.376100 2.112000
-6.352700 2.443100
-6.329400 2.851700
-6.306100 3.211300
-6.282800 3.467000
-6.259500 3.885100
-6.236200 5.067500
-6.212900 7.347500
-6.189600 9.894000
-6.166200 10.982100
-6.142900 9.691500
-6.119600 6.764400
-6.096300 3.687500
-6.073000 1.523100
-6.049700 0.459100
-6.026400 0.097800
-6.003000 0.014400
-5.979700 0.001400
-5.956400 0.000100
-5.933100 0.000000
-5.909800 0.000000
-5.886500 0.000000
-5.863200 0.000000
-5.839800 0.000000
-5.816500 0.000000
-5.793200 0.000000
-5.769900 0.000000
-5.746600 0.000000
-5.723300 0.000000
-5.700000 0.000000
-5.676600 0.000000
-5.653300 0.000000
-5.630000 0.000000
-5.606700 0.000000
-5.583400 0.000000
-5.560100 0.000000
-5.536800 0.000000
-5.513500 0.000000
-5.490100 0.000000
-5.466800 0.000000
-5.443500 0.000000
-5.420200 0.000000
-5.396900 0.000000
-5.373600 0.000000
-5.350300 0.000000
-5.326900 0.000000
-5.303600 0.000000
-5.280300 0.000000
-5.257000 0.000000
-5.233700 0.000000
-5.210400 0.000000
-5.187100 0.000000
-5.163700 0.000000
-5.140400 0.000000
-5.117100 0.000000
-5.093800 0.000000
-5.070500 0.000000
-5.047200 0.000000
-5.023900 0.000000
-5.000600 0.000000
-4.977200 0.000000
-4.953900 0.000000
-4.930600 0.000000
-4.907300 0.000000
-4.884000 0.000000
-4.860700 0.000000
-4.837400 0.000000
-4.814000 0.000000
-4.790700 0.000000
-4.767400 0.000000
-4.744100 0.000000
-4.720800 0.000000
-4.697500 0.000000
-4.674200 0.000000
-4.650800 0.000000
-4.627500 0.000000
-4.604200 0.000000
-4.580900 0.000000
-4.557600 0.000000
-4.534300 0.000000
-4.511000 0.000000
-4.487600 0.000000
-4.464300 0.000000
-4.441000 0.000000
-4.417700 0.000000
-4.394400 0.000000
-4.371100 0.000000
-4.347800 0.000000
-4.324500 0.000000
-4.301100 0.000000
-4.277800 0.000000
-4.254500 0.000000
-4.231200 0.000000
-4.207900 0.000000
-4.184600 0.000000
-4.161300 0.000000
-4.137900 0.000000
-4.114600 0.000000
-4.091300 0.000000
-4.068000 0.000000
-4.044700 0.000000
-4.021400 0.000000
-3.998100 0.000000
-3.974700 0.000000
-3.951400 0.000000
-3.928100 0.000000
-3.904800 0.000000
-3.881500 0.000000
-3.858200 0.000000
-3.834900 0.000000
-3.811600 0.000000
-3.788200 0.000000
-3.764900 0.000000
-3.741600 0.000000
-3.718300 0.000000
-3.695000 0.000000
-3.671700 0.000000
-3.648400 0.000000
-3.625000 0.000000
-3.601700 0.000000
-3.578400 0.000000
-3.555100 0.000000
-3.531800 0.000000
-3.508500 0.000000
-3.485200 0.000000
-3.461800 0.000000
-3.438500 0.000000
-3.415200 0.000000
-3.391900 0.000000
-3.368600 0.000000
-3.345300 0.000000
-3.322000 0.000000
-3.298600 0.000000
-3.275300 0.000000
-3.252000 0.000000
-3.228700 0.000000
-3.205400 0.000000
-3.182100 0.000000
-3.158800 0.000000
-3.135500 0.000000
-3.112100 0.000000
-3.088800 0.000000
-3.065500 0.000000
-3.042200 0.000000
-3.018900 0.000000
-2.995600 0.000000
-2.972300 0.000000
-2.948900 0.000000
-2.925600 0.000000
-2.902300 0.000000
-2.879000 0.000000
-2.855700 0.000000
-2.832400 0.000000
-2.809100 0.000000
-2.785700 0.000000
-2.762400 0.000000
-2.739100 0.000000
-2.715800 0.000000
-2.692500 0.000000
-2.669200 0.000000
-2.645900 0.000000
-2.622500 0.000000
-2.599200 0.000000
-2.575900 0.000000
-2.552600 0.000000
-2.529300 0.000000
-2.506000 0.000000
-2.482700 0.000000
-2.459400 0.000000
-2.436000 0.000000
-2.412700 0.000000
-2.389400 0.000000
-2.366100 0.000000
-2.342800 0.000000
-2.319500 0.000000
-2.296200 0.000000
-2.272800 0.000000
-2.249500 0.000000
-2.226200 0.000000
-2.202900 0.000000
-2.179600 0.000000
-2.156300 0.000000
-2.133000 0.000000
-2.109600 0.000000
-2.086300 0.000000
-2.063000 0.000000
-2.039700 0.000000
-2.016400 0.000000
-1.993100 0.000000
-1.969800 0.000000
-1.946500 0.000000
-1.923100 0.000000
-1.899800 0.000000
-1.876500 0.000000
-1.853200 0.000000
-1.829900 0.000000
-1.806600 0.000000
-1.783300 0.000000
-1.759900 0.000000
-1.736600 0.000000
-1.713300 0.000000
-1.690000 0.000000
-1.666700 0.000000
-1.643400 0.000000
-1.620100 0.000000
-1.596700 0.000000
-1.573400 0.000000
-1.550100 0.000000
-1.526800 0.000000
-1.503500 0.000000
-1.480200 0.000000
-1.456900 0.000000
-1.433500 0.000000
-1.410200 0.000000
-1.386900 0.000000
-1.363600 0.000000
-1.340300 0.000000
-1.317000 0.000000
-1.293700 0.000000
-1.270400 0.000000
-1.247000 0.000000
-1.223700 0.000000
-1.200400 0.000000
-1.177100 0.000000
-1.153800 0.000000
-1.130500 0.000000
-1.107200 0.000000
-1.083800 0.000000
-1.060500 0.000000
-1.037200 0.000000
-1.013900 0.000000
-0.990600 0.000000
-0.967300 0.000000
-0.944000 0.000000
-0.920600 0.000000
-0.897300 0.000000
-0.874000 0.000000
-0.850700 0.000000
-0.827400 0.000000
-0.804100 0.000000
-0.780800 0.000000
-0.757500 0.000000
-0.734100 0.000000
-0.710800 0.000000
-0.687500 0.000000
-0.664200 0.000000
-0.640900 0.000000
-0.617600 0.000000
-0.594300 0.000000
-0.570900 0.000000
-0.547600 0.000000
-0.524300 0.000000
-0.501000 0.000000
-0.477700 0.000000
-0.454400 0.000000
-0.431100 0.000000
-0.407700 0.000100
-0.384400 0.000600
-0.361100 0.003400
-0.337800 0.013500
-0.314500 0.039600
-0.291200 0.095700
-0.267900 0.202100
-0.244500 0.370300
-0.221200 0.579900
-0.197900 0.809500
-0.174600 1.084100
-0.151300 1.424800
-0.128000 1.754300
-0.104700 1.949300
-0.081400 1.993200
-0.058000 1.943400
-0.034700 1.831300
-0.011400 1.718000
0.011900 1.703400
0.035200 1.874000
0.058500 2.266800
0.081800 2.703500
0.105200 2.846700
0.128500 2.699400
0.151800 2.699400
0.175100 3.112800
0.198400 3.674100
0.221700 3.907200
0.245000 3.592200
0.268400 2.887400
0.291700 2.186200
0.315000 1.902400
0.338300 2.161800
0.361600 2.606100
0.384900 2.732000
0.408200 2.457500
0.431600 2.045300
0.454900 1.658700
0.478200 1.357800
0.501500 1.225300
0.524800 1.230200
0.548100 1.238200
0.571400 1.289600
0.594700 1.572400
0.618100 2.036300
0.641400 2.306100
0.664700 2.123800
0.688000 1.696200
0.711300 1.440600
0.734600 1.527100
0.757900 1.813300
0.781300 2.072000
0.804600 2.088900
0.827900 1.747900
0.851200 1.259500
0.874500 1.081600
0.897800 1.451100
0.921100 2.142500
0.944500 2.696800
0.967800 2.825500
0.991100 2.627300
1.014400 2.392800
1.037700 2.304500
1.061000 2.455000
1.084300 2.891400
1.107600 3.455400
1.131000 3.842800
1.154300 4.013200
1.177600 4.235600
1.200900 4.594300
1.224200 4.858200
1.247500 4.820100
1.270800 4.548400
1.294200 4.369100
1.317500 4.463700
1.340800 4.578400
1.364100 4.458200
1.387400 4.236700
1.410700 4.127300
1.434000 4.131900
1.457400 4.045500
1.480700 3.678100
1.504000 3.279000
1.527300 3.368000
1.550600 3.945800
1.573900 4.364300
1.597200 4.134100
1.620600 3.512800
1.643900 3.110500
1.667200 3.127200
1.690500 3.191000
1.713800 2.889600
1.737100 2.277200
1.760400 1.700500
1.783700 1.392500
1.807100 1.457200
1.830400 1.890000
1.853700 2.431800
1.877000 2.680500
1.900300 2.531900
1.923600 2.265500
1.946900 2.059500
1.970300 1.835200
1.993600 1.594000
2.016900 1.450900
2.040200 1.384400
2.063500 1.241600
2.086800 0.957300
2.110100 0.657700
2.133500 0.506500
2.156800 0.503600
2.180100 0.533900
2.203400 0.559100
2.226700 0.630100
2.250000 0.760900
2.273300 0.917900
2.296700 1.029900
2.320000 0.999800
2.343300 0.842100
2.366600 0.701900
2.389900 0.694600
2.413200 0.830900
2.436500 1.000700
2.459800 1.045600
2.483200 0.965200
2.506500 0.911900
2.529800 0.927300
2.553100 0.878300
2.576400 0.720000
2.599700 0.651900
2.623000 0.877100
2.646400 1.295500
2.669700 1.604600
2.693000 1.646700
2.716300 1.493000
2.739600 1.287200
2.762900 1.135100
2.786200 1.098000
2.809600 1.232100
2.832900 1.552200
2.856200 1.936900
2.879500 2.136500
2.902800 2.044500
2.926100 1.932900
2.949400 2.136500
2.972700 2.589100
2.996100 2.971900
3.019400 3.221500
3.042700 3.513500
3.066000 3.833400
3.089300 4.100900
3.112600 4.477800
3.135900 5.031300
3.159300 5.443900
3.182600 5.341500
3.205900 4.733400
3.229200 4.060600
3.252500 3.729800
3.275800 3.688800
3.299100 3.626300
3.322500 3.408100
3.345800 3.160100
3.369100 3.012200
3.392400 2.895200
3.415700 2.691900
3.439000 2.513000
3.462300 2.552100
3.485700 2.699500
3.509000 2.631000
3.532300 2.307900
3.555600 2.046300
3.578900 2.045200
3.602200 2.211200
3.625500 2.504200
3.648800 3.113700
3.672200 4.018000
3.695500 4.657700
3.718800 4.525200
3.742100 3.835500
3.765400 3.309500
3.788700 3.371500
3.812000 3.649800
3.835400 3.538900
3.858700 3.064500
3.882000 2.686200
3.905300 2.626200
3.928600 2.830900
3.951900 3.190500
3.975200 3.565000
3.998600 3.800500
4.021900 3.879600
4.045200 3.988100
4.068500 4.189700
4.091800 4.260300
4.115100 4.112500
4.138400 3.926400
4.161700 3.764200
4.185100 3.551300
4.208400 3.379800
4.231700 3.443200
4.255000 3.678900
4.278300 3.793300
4.301600 3.675300
4.324900 3.556800
4.348300 3.666400
4.371600 3.844500
4.394900 3.717100
4.418200 3.223100
4.441500 2.747500
4.464800 2.678100
4.488100 3.000500
4.511500 3.453000
4.534800 3.861600
4.558100 4.176000
4.581400 4.466400
4.604700 4.953900
4.628000 5.704300
4.651300 6.329600
4.674700 6.384500
4.698000 5.904100
4.721300 5.264600
4.744600 4.721600
4.767900 4.282500
4.791200 3.949000
4.814500 3.804100
4.837800 3.767800
4.861200 3.621100
4.884500 3.411400
4.907800 3.455200
4.931100 3.785800
4.954400 3.953200
4.977700 3.585400
5.001000 2.913800
5.024400 2.476600
5.047700 2.508200
5.071000 2.820700
5.094300 3.091800
5.117600 3.224800
5.140900 3.460000
5.164200 4.055400
5.187600 4.978100
5.210900 5.930000
5.234200 6.551100
5.257500 6.699500
5.280800 6.509400
5.304100 6.193700
5.327400 6.048900
5.350800 6.289100
5.374100 6.521400
5.397400 6.096100
5.420700 5.185000
5.444000 4.539100
5.467300 4.369300
5.490600 4.427000
5.513900 4.564600
5.537300 4.635400
5.560600 4.523800
5.583900 4.399100
5.607200 4.541400
5.630500 5.002800
5.653800 5.521600
5.677100 5.772800
5.700500 5.655800
5.723800 5.192800
5.747100 4.417600
5.770400 3.589100
5.793700 3.144400
5.817000 3.182700
5.840300 3.300100
5.863700 3.202300
5.887000 3.149900
5.910300 3.451400
5.933600 3.907800
5.956900 4.103000
5.980200 3.906400
6.003500 3.661900
6.026800 3.895400
6.050200 4.541900
6.073500 4.885800
6.096800 4.515200
6.120100 3.713600
6.143400 2.970900
6.166700 2.619000
6.190000 2.709800
6.213400 2.975900
6.236700 3.048700
6.260000 2.789000
6.283300 2.361400
6.306600 2.045100
6.329900 2.004100
6.353200 2.150300
6.376600 2.229000
6.399900 2.069600
6.423200 1.765500
6.446500 1.621600
6.469800 1.888400
6.493100 2.499500
6.516400 3.073300
6.539800 3.276200
6.563100 3.219600
6.586400 3.320600
6.609700 3.704300
6.633000 4.053100
6.656300 4.161700
6.679600 4.177300
6.702900 4.136800
6.726300 3.917300
6.749600 3.704100
6.772900 3.788500
6.796200 4.056000
6.819500 4.272900
6.842800 4.546700
6.866100 4.990700
6.889500 5.449100
6.912800 5.873900
6.936100 6.226200
6.959400 6.164500
6.982700 5.545200
7.006000 4.712700
7.029300 4.105200
7.052700 4.035100
7.076000 4.592400
7.099300 5.483000
7.122600 6.258200
7.145900 6.608000
7.169200 6.264400
7.192500 5.272000
7.215800 4.238200
7.239200 3.663500
7.262500 3.506200
7.285800 3.585700
7.309100 3.837500
7.332400 4.135100
7.355700 4.243500
7.379000 4.091400
7.402400 3.961600
7.425700 4.186100
7.449000 4.612300
7.472300 4.733600
7.495600 4.450700
7.518900 4.172100
7.542200 4.199200
7.565600 4.460500
7.588900 4.697300
7.612200 4.693700
7.635500 4.459500
7.658800 4.198700
7.682100 4.005800
7.705400 3.822700
7.728800 3.730800
7.752100 3.858500
7.775400 4.040800
7.798700 3.972700
7.822000 3.640200
7.845300 3.310600
7.868600 3.165200
7.891900 3.130600
7.915300 3.113900
7.938600 3.297500
7.961900 3.951300
7.985200 5.000700
8.008500 5.989000
8.031800 6.459500
8.055100 6.339800
8.078500 5.889900
8.101800 5.401100
8.125100 5.047900
8.148400 4.801500
8.171700 4.492200
8.195000 4.098700
8.218300 3.791000
8.241700 3.677500
8.265000 3.731100
8.288300 3.896200
8.311600 4.160800
8.334900 4.502100
8.358200 4.767200
8.381500 4.844200
8.404900 4.863800
8.428200 4.984800
8.451500 5.228200
8.474800 5.509500
8.498100 5.573700
8.521400 5.081200
8.544700 4.065900
8.568000 3.177200
8.591400 3.000400
8.614700 3.380900
8.638000 3.901200
8.661300 4.410100
8.684600 4.813300
8.707900 5.084800
8.731200 5.399400
8.754600 5.804500
8.777900 6.063900
8.801200 6.031100
8.824500 5.849600
8.847800 5.652700
8.871100 5.463700
8.894400 5.357900
8.917800 5.347200
8.941100 5.357100
8.964400 5.384100
8.987700 5.374600
9.011000 5.226300
9.034300 5.037700
9.057600 5.033200
9.080900 5.299300
9.104300 5.695300
9.127600 5.951700
9.150900 5.892500
9.174200 5.553100
9.197500 5.212800
9.220800 5.222000
9.244100 5.480900
9.267500 5.391900
9.290800 4.687300
9.314100 3.898500
9.337400 3.651400
9.360700 3.862400
9.384000 4.083300
9.407300 4.214300
9.430700 4.354500
9.454000 4.460400
9.477300 4.490200
9.500600 4.483700
9.523900 4.441700
9.547200 4.452200
9.570500 4.720200
9.593900 5.133700
9.617200 5.229700
9.640500 4.803700
9.663800 4.053200
9.687100 3.208100
9.710400 2.481800
9.733700 2.135100
9.757000 2.283900
9.780400 2.767800
9.803700 3.260900
9.827000 3.468900
9.850300 3.291200
9.873600 2.893000
9.896900 2.578400
9.920200 2.491500
9.943600 2.534800
9.966900 2.677100
9.990200 3.038700
10.013500 3.569300
10.036800 4.078100
10.060100 4.618000
10.083400 5.344400
10.106800 6.057700
10.130100 6.364400
10.153400 6.208400
10.176700 5.933000
10.200000 5.726600
10.223300 5.279700
10.246600 4.451600
10.269900 3.725900
10.293300 3.394600
10.316600 3.092000
10.339900 2.541400
10.363200 2.003500
10.386500 1.871600
10.409800 2.362400
10.433100 3.402900
10.456500 4.532600
10.479800 5.245300
10.503100 5.435600
10.526400 5.316700
10.549700 5.136500
10.573000 4.972500
10.596300 4.673500
10.619700 4.105400
10.643000 3.407500
10.666300 2.901200
10.689600 2.828100
10.712900 3.200500
10.736200 3.670700
10.759500 3.727900
10.782900 3.337200
10.806200 2.988900
10.829500 3.021200
10.852800 3.282700
10.876100 3.414100
10.899400 3.242400
10.922700 2.822500
10.946000 2.324100
10.969400 2.078900
10.992700 2.293600
11.016000 2.632200
11.039300 2.627800
11.062600 2.334500
11.085900 2.145000
11.109200 2.231000
11.132600 2.430800
11.155900 2.549600
11.179200 2.557200
11.202500 2.479300
11.225800 2.305700
11.249100 2.052200
11.272400 1.734500
11.295800 1.344900
11.319100 1.025900
11.342400 1.066200
11.365700 1.539400
11.389000 2.122200
11.412300 2.407700
11.435600 2.290200
11.459000 1.976100
11.482300 1.695800
11.505600 1.473000
11.528900 1.235600
11.552200 1.024600
11.575500 0.932300
11.598800 0.981300
11.622100 1.135000
11.645500 1.352300
11.668800 1.561700
11.692100 1.626800
11.715400 1.495400
11.738700 1.310700
11.762000 1.253800
11.785300 1.377900
11.808700 1.568300
11.832000 1.617600
11.855300 1.453300
11.878600 1.229500
11.901900 1.173300
11.925200 1.409600
11.948500 1.819200
11.971900 2.095800
11.995200 2.113500
12.018500 2.044400
12.041800 2.033100
12.065100 2.060600
12.088400 2.045600
12.111700 1.876600
12.135000 1.592200
12.158400 1.476500
12.181700 1.700400
12.205000 2.078400
12.228300 2.302200
12.251600 2.239800
12.274900 2.025400
12.298200 1.895000
12.321600 1.901700
12.344900 1.933400
12.368200 2.023100
12.391500 2.367600
12.414800 2.990700
12.438100 3.620800
12.461400 3.946300
12.484800 3.817500
12.508100 3.274700
12.531400 2.597600
12.554700 2.209100
12.578000 2.296500
12.601300 2.656100
12.624600 3.000000
12.648000 3.168000
12.671300 3.083700
12.694600 2.738800
12.717900 2.195400
12.741200 1.591800
12.764500 1.159400
12.787800 1.071900
12.811100 1.305000
12.834500 1.712800
12.857800 2.100800
12.881100 2.342100
12.904400 2.548000
12.927700 2.811800
12.951000 2.835600
12.974300 2.336000
12.997700 1.609200
13.021000 1.164900
13.044300 1.156300
13.067600 1.463500
13.090900 1.884200
13.114200 2.122200
13.137500 1.981900
13.160900 1.594400
13.184200 1.263600
13.207500 1.155100
13.230800 1.211500
13.254100 1.343800
13.277400 1.566800
13.300700 1.929800
13.324000 2.470000
13.347400 3.118400
13.370700 3.597600
13.394000 3.673600
13.417300 3.434900
13.440600 3.144300
13.463900 2.955200
13.487200 2.906000
13.510600 3.082400
13.533900 3.509900
13.557200 3.982600
13.580500 4.233000
13.603800 4.103200
13.627100 3.603800
13.650400 3.009000
13.673800 2.696900
13.697100 2.782000
13.720400 3.024300
13.743700 3.202500
13.767000 3.411800
13.790300 3.686100
13.813600 3.751300
13.837000 3.525900
13.860300 3.282100
13.883600 3.245400
13.906900 3.469400
13.930200 3.859000
13.953500 4.128600
13.976800 4.054800
14.000100 3.862400
14.023500 3.950600
14.046800 4.378800
14.070100 5.021200
14.093400 5.779300
14.116700 6.406600
14.140000 6.525200
14.163300 5.996600
14.186700 5.133800
14.210000 4.455600
14.233300 4.223400
14.256600 4.225100
14.279900 4.084300
14.303200 3.724600
14.326500 3.330400
14.349900 2.964900
14.373200 2.543400
14.396500 2.078800
14.419800 1.651400
14.443100 1.310900
14.466400 1.152100
14.489700 1.273800
14.513100 1.611800
14.536400 1.928200
14.559700 2.035800
14.583000 1.943900
14.606300 1.741700
14.629600 1.502100
14.652900 1.327900
14.676200 1.323400
14.699600 1.531900
14.722900 1.991100
14.746200 2.657700
14.769500 3.244000
14.792800 3.450500
14.816100 3.365900
14.839400 3.276400
14.862800 3.210700
14.886100 3.097700
14.909400 3.026700
14.932700 3.030000
14.956000 3.013700
14.979300 3.026600
15.002600 3.318700
15.026000 3.973700
15.049300 4.648300
15.072600 4.836100
15.095900 4.302000
15.119200 3.370300
15.142500 2.718000
15.165800 2.658600
15.189100 2.896700
15.212500 2.979000
15.235800 2.671800
15.259100 2.113400
15.282400 1.723400
15.305700 1.789500
15.329000 2.177200
15.352300 2.501200
15.375700 2.563900
15.399000 2.537900
15.422300 2.677500
15.445600 3.070300
15.468900 3.659000
15.492200 4.190000
15.515500 4.308100
15.538900 4.011400
15.562200 3.693200
15.585500 3.515400
15.608800 3.240000
15.632100 2.825000
15.655400 2.634300
15.678700 2.904000
15.702100 3.385000
15.725400 3.552600
15.748700 3.140700
15.772000 2.546900
15.795300 2.400100
15.818600 2.740700
15.841900 3.074700
15.865200 3.057600
15.888600 2.726200
15.911900 2.335000
15.935200 2.189400
15.958500 2.419600
15.981800 2.871200
16.005100 3.260400
16.028400 3.374000
16.051800 3.199700
16.075100 2.955800
16.098400 2.922000
16.121700 3.230800
16.145000 3.789700
16.168300 4.342900
16.191600 4.670000
16.215000 4.692900
16.238300 4.442600
16.261600 4.044400
16.284900 3.602200
16.308200 3.131500
16.331500 2.732100
16.354800 2.583100
16.378200 2.716600
16.401500 2.997800
16.424800 3.252300
16.448100 3.422000
16.471400 3.589400
16.494700 3.687400
16.518000 3.486300
16.541300 3.054700
16.564700 2.767500
16.588000 2.745300
16.611300 2.733100
16.634600 2.574600
16.657900 2.433100
16.681200 2.475500
16.704500 2.592400
16.727900 2.634400
16.751200 2.738900
16.774500 3.021200
16.797800 3.192400
16.821100 2.958700
16.844400 2.531000
16.867700 2.316000
16.891100 2.332300
16.914400 2.378700
16.937700 2.490900
16.961000 2.703000
16.984300 2.792300
17.007600 2.639800
17.030900 2.401400
17.054200 2.287700
17.077600 2.426500
17.100900 2.794600
17.124200 3.243300
17.147500 3.642900
17.170800 3.977000
17.194100 4.281100
17.217400 4.542000
17.240800 4.815400
17.264100 5.139600
17.287400 5.298400
17.310700 5.132400
17.334000 4.757900
17.357300 4.288600
17.380600 3.775300
17.404000 3.328200
17.427300 3.045900
17.450600 2.914100
17.473900 2.854500
17.497200 2.861200
17.520500 2.949900
17.543800 2.982600
17.567200 2.850000
17.590500 2.728400
17.613800 2.861100
17.637100 3.217900
17.660400 3.454700
17.683700 3.286100
17.707000 2.907700
17.730300 2.724300
17.753700 2.828100
17.777000 3.052100
17.800300 3.291600
17.823600 3.615600
17.846900 4.066000
17.870200 4.454300
17.893500 4.565100
17.916900 4.413900
17.940200 4.108700
17.963500 3.664100
17.986800 3.158600
18.010100 2.876800
18.033400 2.977100
18.056700 3.177000
18.080100 3.121800
18.103400 2.850600
18.126700 2.608400
18.150000 2.504900
18.173300 2.525300
18.196600 2.616600
18.219900 2.694000
18.243200 2.730700
18.266600 2.843200
18.289900 3.156100
18.313200 3.587700
18.336500 3.903200
18.359800 4.004500
18.383100 3.928700
18.406400 3.666000
18.429800 3.309900
18.453100 3.077800
18.476400 3.018600
18.499700 3.072000
18.523000 3.294200
18.546300 3.605300
18.569600 3.666400
18.593000 3.399700
18.616300 3.181400
18.639600 3.291200
18.662900 3.530500
18.686200 3.563100
18.709500 3.412000
18.732800 3.294000
18.756200 3.185000
18.779500 3.000800
18.802800 2.880000
18.826100 2.935700
18.849400 3.083700
18.872700 3.244200
18.896000 3.472000
18.919300 3.859900
18.942700 4.282900
18.966000 4.334300
18.989300 3.913000
19.012600 3.563800
19.035900 3.661100
19.059200 3.854200
19.082500 3.810400
19.105900 3.724800
19.129200 3.724200
19.152500 3.577300
19.175800 3.291700
19.199100 3.257900
19.222400 3.642100
19.245700 4.137600
19.269100 4.403900
19.292400 4.418700
19.315700 4.275600
19.339000 4.083300
19.362300 3.995800
19.385600 3.962900
19.408900 3.740500
19.432300 3.259000
19.455600 2.857000
19.478900 2.996500
19.502200 3.613600
19.525500 4.125600
19.548800 4.231400
19.572100 4.267500
19.595400 4.601300
19.618800 4.995300
19.642100 4.952300
19.665400 4.532900
19.688700 4.318100
19.712000 4.551900
19.735300 4.698100
19.758600 4.192700
19.782000 3.385200
19.805300 3.076900
19.828600 3.502800
19.851900 4.296300
19.875200 5.027600
19.898500 5.433700
19.921800 5.333800
19.945200 4.764000
19.968500 4.164500
19.991800 4.021900
20.015100 4.322300
20.038400 4.522700
20.061700 4.250400
20.085000 3.805900
20.108300 3.633700
20.131700 3.725100
20.155000 3.740500
20.178300 3.465600
20.201600 3.039600
20.224900 2.698300
20.248200 2.494600
20.271500 2.390900
20.294900 2.437400
20.318200 2.790200
20.341500 3.480500
20.364800 4.123700
20.388100 4.226300
20.411400 3.813800
20.434700 3.316100
20.458100 3.043700
20.481400 3.107400
20.504700 3.559200
20.528000 4.327400
20.551300 5.044900
20.574600 5.221600
20.597900 4.705000
20.621300 3.847100
20.644600 3.195300
20.667900 3.013000
20.691200 3.171000
20.714500 3.439700
20.737800 3.663100
20.761100 3.757400
20.784400 3.737300
20.807800 3.718200
20.831100 3.828100
20.854400 4.005700
20.877700 3.953400
20.901000 3.555100
20.924300 3.157500
20.947600 3.103400
20.971000 3.271900
20.994300 3.332100
21.017600 3.211500
21.040900 3.059500
21.064200 2.930700
21.087500 2.825900
21.110800 2.823800
21.134200 2.978400
21.157500 3.352900
21.180800 4.027600
21.204100 4.724300
21.227400 4.818300
21.250700 4.156700
21.274000 3.402400
21.297300 3.257100
21.320700 3.774000
21.344000 4.521000
21.367300 5.008500
21.390600 4.957100
21.413900 4.449600
21.437200 3.829000
21.460500 3.395000
21.483900 3.239100
21.507200 3.219300
21.530500 3.083900
21.553800 2.827700
21.577100 2.731400
21.600400 2.853400
21.623700 2.881800
21.647100 2.642800
21.670400 2.313300
21.693700 2.160900
21.717000 2.357400
21.740300 2.875400
21.763600 3.447000
21.786900 3.736000
21.810300 3.579000
21.833600 3.140600
21.856900 2.845800
21.880200 2.967600
21.903500 3.333300
21.926800 3.644600
21.950100 3.843700
21.973400 3.987900
21.996800 4.104500
22.020100 4.162900
22.043400 4.076400
22.066700 3.878600
22.090000 3.731300
22.113300 3.638800
22.136600 3.468100
22.160000 3.354600
22.183300 3.573600
22.206600 3.924200
22.229900 3.949500
22.253200 3.609000
22.276500 3.099100
22.299800 2.565900
22.323200 2.300300
22.346500 2.475500
22.369800 2.748700
22.393100 2.681000
22.416400 2.282900
22.439700 1.913400
22.463000 1.870500
22.486400 2.102700
22.509700 2.371600
22.533000 2.583400
22.556300 2.661300
22.579600 2.427000
22.602900 1.913500
22.626200 1.398100
22.649500 1.022800
22.672900 0.733800
22.696200 0.544400
22.719500 0.530900
22.742800 0.667500
22.766100 0.858100
22.789400 1.011200
22.812700 1.036400
22.836100 0.910000
22.859400 0.725300
22.882700 0.579400
22.906000 0.500000
22.929300 0.509700
22.952600 0.567900
22.975900 0.529500
22.999300 0.349700
23.022600 0.154800
23.045900 0.045200
23.069200 0.008700
23.092500 0.001100
23.115800 0.000100
23.139100 0.000000
23.162400 0.000000
23.185800 0.000000
23.209100 0.000000
23.232400 0.000000
23.255700 0.000000
23.279000 0.000000
23.302300 0.000000
23.325600 0.000000
23.349000 0.000000
23.372300 0.000000
23.395600 0.000000
23.418900 0.000000
23.442200 0.000000
23.465500 0.000000
23.488800 0.000000
23.512200 0.000000
23.535500 0.000000
23.558800 0.000000
23.582100 0.000000
23.605400 0.000000
23.628700 0.000000
23.652000 0.000000
23.675400 0.000000
23.698700 0.000000
23.722000 0.000000
23.745300 0.000000
23.768600 0.000000
23.791900 0.000000
23.815200 0.000000
23.838500 0.000000
23.861900 0.000000
23.885200 0.000000
23.908500 0.000000
23.931800 0.000000
23.955100 0.000000
23.978400 0.000000
24.001700 0.000000
24.025100 0.000000
24.048400 0.000000
24.071700 0.000000
24.095000 0.000000
24.118300 0.000000
24.141600 0.000000
24.164900 0.000000
24.188300 0.000000
24.211600 0.000000
24.234900 0.000000
24.258200 0.000000
24.281500 0.000000
24.304800 0.000000
24.328100 0.000000
24.351400 0.000000
24.374800 0.000000
24.398100 0.000000
24.421400 0.000000
24.444700 0.000000
24.468000 0.000000
24.491300 0.000000
24.514600 0.000000
24.538000 0.000000
24.561300 0.000000
24.584600 0.000000
24.607900 0.000000
24.631200 0.000000
24.654500 0.000000
24.677800 0.000000
24.701200 0.000000
24.724500 0.000000
24.747800 0.000000
24.771100 0.000000
24.794400 0.000000
24.817700 0.000000
24.841000 0.000000
24.864400 0.000000
24.887700 0.000000
24.911000 0.000000
24.934300 0.000000
24.957600 0.000000
24.980900 0.000000
25.004200 0.000000
25.027500 0.000000
25.050900 0.000000
25.074200 0.000000
e
