set title 'mp-975519 - Density of States'
set xlabel 'Energy (eV)'
set ylabel 'DOS (states/eV)'
set grid
set xrange [-10:10]
set yrange [0:7.531]
set xzeroaxis lt -1
set terminal png size 800,600
set output 'mp-975519_dos_gnuplot.png'
plot '-' using 1:2 with lines title 'DOS'
-31.868100 0.000000
-31.834600 0.000000
-31.801000 0.000000
-31.767400 0.000000
-31.733900 0.000000
-31.700300 0.000000
-31.666700 0.000000
-31.633100 0.000000
-31.599600 0.000000
-31.566000 0.000000
-31.532400 0.000000
-31.498900 0.000000
-31.465300 0.000000
-31.431700 0.000000
-31.398200 0.000000
-31.364600 0.000000
-31.331000 0.000000
-31.297500 0.000000
-31.263900 0.000000
-31.230300 0.000000
-31.196700 0.000000
-31.163200 0.000000
-31.129600 0.000000
-31.096000 0.000000
-31.062500 0.000000
-31.028900 0.000000
-30.995300 0.000000
-30.961800 0.000000
-30.928200 0.000000
-30.894600 0.000000
-30.861000 0.000000
-30.827500 0.000000
-30.793900 0.000000
-30.760300 0.000000
-30.726800 0.000000
-30.693200 0.000000
-30.659600 0.000000
-30.626100 0.000000
-30.592500 0.000000
-30.558900 0.000000
-30.525300 0.000000
-30.491800 0.000000
-30.458200 0.000000
-30.424600 0.000000
-30.391100 0.000000
-30.357500 0.000000
-30.323900 0.000000
-30.290400 0.000000
-30.256800 0.000000
-30.223200 0.000000
-30.189600 0.000000
-30.156100 0.000000
-30.122500 0.000000
-30.088900 0.000000
-30.055400 0.000000
-30.021800 0.000000
-29.988200 0.000000
-29.954700 0.000000
-29.921100 0.000000
-29.887500 0.000000
-29.854000 0.000000
-29.820400 0.000000
-29.786800 0.000000
-29.753200 0.000000
-29.719700 0.000000
-29.686100 0.000000
-29.652500 0.000000
-29.619000 0.000000
-29.585400 0.000000
-29.551800 0.000000
-29.518300 0.000000
-29.484700 0.000000
-29.451100 0.000000
-29.417500 0.000000
-29.384000 0.000000
-29.350400 0.000000
-29.316800 0.000000
-29.283300 0.000000
-29.249700 0.000000
-29.216100 0.000000
-29.182600 0.000000
-29.149000 0.000000
-29.115400 0.000000
-29.081800 0.000000
-29.048300 0.000000
-29.014700 0.000000
-28.981100 0.000000
-28.947600 0.000000
-28.914000 0.000000
-28.880400 0.000000
-28.846900 0.000000
-28.813300 312.689500
-28.779700 0.000000
-28.746100 0.000000
-28.712600 0.000000
-28.679000 0.000000
-28.645400 0.000000
-28.611900 0.000000
-28.578300 0.000000
-28.544700 0.000000
-28.511200 0.000000
-28.477600 0.000000
-28.444000 0.000000
-28.410500 0.000000
-28.376900 0.000000
-28.343300 0.000000
-28.309700 0.000000
-28.276200 0.000000
-28.242600 0.000000
-28.209000 0.000000
-28.175500 0.000000
-28.141900 0.000000
-28.108300 0.000000
-28.074800 0.000000
-28.041200 0.000000
-28.007600 0.000000
-27.974000 0.000000
-27.940500 0.000000
-27.906900 0.000000
-27.873300 0.000000
-27.839800 0.000000
-27.806200 0.000000
-27.772600 0.000000
-27.739100 0.000000
-27.705500 0.000000
-27.671900 0.000000
-27.638300 0.000000
-27.604800 0.000000
-27.571200 0.000000
-27.537600 0.000000
-27.504100 0.000000
-27.470500 0.000000
-27.436900 0.000000
-27.403400 0.000000
-27.369800 0.000000
-27.336200 0.000000
-27.302700 0.000000
-27.269100 0.000000
-27.235500 0.000000
-27.201900 0.000000
-27.168400 0.000000
-27.134800 0.000000
-27.101200 0.000000
-27.067700 0.000000
-27.034100 0.000000
-27.000500 0.000000
-26.967000 0.000000
-26.933400 0.000000
-26.899800 0.000000
-26.866200 0.000000
-26.832700 0.000000
-26.799100 0.000000
-26.765500 0.000000
-26.732000 0.000000
-26.698400 0.000000
-26.664800 0.000000
-26.631300 0.000000
-26.597700 0.000000
-26.564100 0.000000
-26.530500 0.000000
-26.497000 0.000000
-26.463400 0.000000
-26.429800 0.000000
-26.396300 0.000000
-26.362700 0.000000
-26.329100 0.000000
-26.295600 0.000000
-26.262000 0.000000
-26.228400 0.000000
-26.194800 0.000000
-26.161300 0.000000
-26.127700 0.000000
-26.094100 0.000000
-26.060600 0.000000
-26.027000 0.000000
-25.993400 0.000000
-25.959900 0.000000
-25.926300 0.000000
-25.892700 0.000000
-25.859200 0.000000
-25.825600 0.000000
-25.792000 0.000000
-25.758400 0.000000
-25.724900 0.000000
-25.691300 0.000000
-25.657700 0.000000
-25.624200 0.000000
-25.590600 0.000000
-25.557000 0.000000
-25.523500 0.000000
-25.489900 0.000000
-25.456300 0.000000
-25.422700 0.000000
-25.389200 0.000000
-25.355600 0.000000
-25.322000 0.000000
-25.288500 0.000000
-25.254900 0.000000
-25.221300 0.000000
-25.187800 0.000000
-25.154200 0.000000
-25.120600 0.000000
-25.087000 0.000000
-25.053500 0.000000
-25.019900 0.000000
-24.986300 0.000000
-24.952800 0.000000
-24.919200 0.000000
-24.885600 0.000000
-24.852100 0.000000
-24.818500 0.000000
-24.784900 0.000000
-24.751400 0.000000
-24.717800 0.000000
-24.684200 0.000000
-24.650600 0.000000
-24.617100 0.000000
-24.583500 0.000000
-24.549900 0.000000
-24.516400 0.000000
-24.482800 0.000000
-24.449200 0.000000
-24.415700 0.000000
-24.382100 0.000000
-24.348500 0.000000
-24.314900 0.000000
-24.281400 0.000000
-24.247800 0.000000
-24.214200 0.000000
-24.180700 0.000000
-24.147100 0.000000
-24.113500 0.000000
-24.080000 0.000000
-24.046400 0.000000
-24.012800 0.000000
-23.979200 0.000000
-23.945700 0.000000
-23.912100 0.000000
-23.878500 0.000000
-23.845000 0.000000
-23.811400 0.000000
-23.777800 0.000000
-23.744300 0.000000
-23.710700 0.000000
-23.677100 0.000000
-23.643500 0.000000
-23.610000 0.000000
-23.576400 0.000000
-23.542800 0.000000
-23.509300 0.000000
-23.475700 0.000000
-23.442100 0.000000
-23.408600 0.000000
-23.375000 0.000000
-23.341400 0.000000
-23.307900 0.000000
-23.274300 0.000000
-23.240700 0.000000
-23.207100 0.000000
-23.173600 0.000000
-23.140000 0.000000
-23.106400 0.000000
-23.072900 0.000000
-23.039300 0.000000
-23.005700 0.000000
-22.972200 0.000000
-22.938600 0.000000
-22.905000 0.000000
-22.871400 0.000000
-22.837900 0.000000
-22.804300 0.000000
-22.770700 0.000000
-22.737200 0.000000
-22.703600 0.000000
-22.670000 0.000000
-22.636500 0.000000
-22.602900 0.000000
-22.569300 0.000000
-22.535700 0.000000
-22.502200 0.000000
-22.468600 0.000000
-22.435000 0.000000
-22.401500 0.000000
-22.367900 0.000000
-22.334300 0.000000
-22.300800 0.000000
-22.267200 0.000000
-22.233600 0.000000
-22.200000 0.000000
-22.166500 0.000000
-22.132900 0.000000
-22.099300 0.000000
-22.065800 0.000000
-22.032200 0.000000
-21.998600 0.000000
-21.965100 0.000000
-21.931500 0.000000
-21.897900 0.000000
-21.864400 0.000000
-21.830800 0.000000
-21.797200 0.000000
-21.763600 0.000000
-21.730100 0.000000
-21.696500 0.000000
-21.662900 0.000000
-21.629400 0.000000
-21.595800 0.000000
-21.562200 0.000000
-21.528700 0.000000
-21.495100 0.000000
-21.461500 0.000000
-21.427900 0.000000
-21.394400 0.000000
-21.360800 0.000000
-21.327200 0.000000
-21.293700 0.000000
-21.260100 0.000000
-21.226500 0.000000
-21.193000 0.000000
-21.159400 0.000000
-21.125800 0.000000
-21.092200 0.000000
-21.058700 0.000000
-21.025100 0.000000
-20.991500 0.000000
-20.958000 0.000000
-20.924400 0.000000
-20.890800 0.000000
-20.857300 0.000000
-20.823700 0.000000
-20.790100 0.000000
-20.756600 0.000000
-20.723000 0.000000
-20.689400 0.000000
-20.655800 0.000000
-20.622300 0.000000
-20.588700 0.000000
-20.555100 0.000000
-20.521600 0.000000
-20.488000 0.000000
-20.454400 0.000000
-20.420900 0.000000
-20.387300 0.000000
-20.353700 0.000000
-20.320100 0.000000
-20.286600 0.000000
-20.253000 0.000000
-20.219400 0.000000
-20.185900 0.000000
-20.152300 0.000000
-20.118700 0.000000
-20.085200 0.000000
-20.051600 0.000000
-20.018000 0.000000
-19.984400 0.000000
-19.950900 0.000000
-19.917300 0.000000
-19.883700 0.000000
-19.850200 0.000000
-19.816600 0.000000
-19.783000 0.000000
-19.749500 0.000000
-19.715900 0.000000
-19.682300 0.000000
-19.648700 0.000000
-19.615200 0.000000
-19.581600 0.000000
-19.548000 0.000000
-19.514500 0.000000
-19.480900 0.000000
-19.447300 0.000000
-19.413800 0.000000
-19.380200 0.000000
-19.346600 0.000000
-19.313100 0.000000
-19.279500 0.000000
-19.245900 0.000000
-19.212300 0.000000
-19.178800 0.000000
-19.145200 0.000000
-19.111600 0.000000
-19.078100 0.000000
-19.044500 0.000000
-19.010900 0.000000
-18.977400 0.000000
-18.943800 0.000000
-18.910200 0.000000
-18.876600 0.000000
-18.843100 0.000000
-18.809500 0.000000
-18.775900 0.000000
-18.742400 0.000000
-18.708800 0.000000
-18.675200 0.000000
-18.641700 0.000000
-18.608100 0.000000
-18.574500 0.000000
-18.540900 0.000000
-18.507400 0.000000
-18.473800 0.000000
-18.440200 0.000000
-18.406700 0.000000
-18.373100 0.000000
-18.339500 0.000000
-18.306000 0.000000
-18.272400 0.000000
-18.238800 0.000000
-18.205200 0.000000
-18.171700 0.000000
-18.138100 0.000000
-18.104500 0.000000
-18.071000 0.000000
-18.037400 0.000000
-18.003800 0.000000
-17.970300 0.000000
-17.936700 0.000000
-17.903100 0.000000
-17.869600 0.000000
-17.836000 0.000000
-17.802400 0.000000
-17.768800 0.000000
-17.735300 0.000000
-17.701700 0.000000
-17.668100 0.000000
-17.634600 0.000000
-17.601000 0.000000
-17.567400 0.000000
-17.533900 0.000000
-17.500300 0.000000
-17.466700 0.000000
-17.433100 0.000000
-17.399600 0.000000
-17.366000 0.000000
-17.332400 0.000000
-17.298900 0.000000
-17.265300 0.000000
-17.231700 0.000000
-17.198200 0.000000
-17.164600 0.000000
-17.131000 0.000000
-17.097400 0.000000
-17.063900 0.000000
-17.030300 0.000000
-16.996700 0.000000
-16.963200 0.000000
-16.929600 0.000000
-16.896000 0.000000
-16.862500 0.000000
-16.828900 0.000000
-16.795300 0.000000
-16.761800 0.000000
-16.728200 0.000000
-16.694600 0.000000
-16.661000 0.000000
-16.627500 0.000000
-16.593900 0.000000
-16.560300 0.000000
-16.526800 0.000000
-16.493200 0.000000
-16.459600 0.000000
-16.426100 0.000000
-16.392500 0.000000
-16.358900 0.000000
-16.325300 0.000000
-16.291800 0.000000
-16.258200 0.000000
-16.224600 0.000000
-16.191100 0.000000
-16.157500 0.000000
-16.123900 0.000000
-16.090400 0.000000
-16.056800 0.000000
-16.023200 0.000000
-15.989600 0.000000
-15.956100 0.000000
-15.922500 0.000000
-15.888900 0.000000
-15.855400 0.000000
-15.821800 0.000000
-15.788200 0.000000
-15.754700 0.000000
-15.721100 0.000000
-15.687500 0.000000
-15.653900 0.000000
-15.620400 0.000000
-15.586800 0.000000
-15.553200 0.000000
-15.519700 0.000000
-15.486100 0.000000
-15.452500 0.000000
-15.419000 0.000000
-15.385400 0.000000
-15.351800 0.000000
-15.318300 0.000000
-15.284700 0.000000
-15.251100 0.000000
-15.217500 0.000000
-15.184000 0.000000
-15.150400 0.000000
-15.116800 0.000000
-15.083300 0.000000
-15.049700 0.000000
-15.016100 0.000000
-14.982600 0.000000
-14.949000 0.000000
-14.915400 0.000000
-14.881800 0.000000
-14.848300 0.000000
-14.814700 0.000000
-14.781100 0.000000
-14.747600 0.000000
-14.714000 0.000000
-14.680400 0.000000
-14.646900 0.000000
-14.613300 0.000000
-14.579700 0.000000
-14.546100 0.000000
-14.512600 0.000000
-14.479000 0.000000
-14.445400 0.000000
-14.411900 0.000000
-14.378300 0.000000
-14.344700 0.000000
-14.311200 0.000000
-14.277600 0.000000
-14.244000 0.000000
-14.210500 0.000000
-14.176900 0.000000
-14.143300 0.000000
-14.109700 0.000000
-14.076200 0.000000
-14.042600 0.000000
-14.009000 0.000000
-13.975500 0.000000
-13.941900 0.000000
-13.908300 0.000000
-13.874800 0.000000
-13.841200 0.000000
-13.807600 0.000000
-13.774000 0.000000
-13.740500 0.000000
-13.706900 0.000000
-13.673300 0.000000
-13.639800 0.000000
-13.606200 0.000000
-13.572600 0.000000
-13.539100 0.000000
-13.505500 0.000000
-13.471900 0.000000
-13.438300 0.000000
-13.404800 0.000000
-13.371200 0.000000
-13.337600 0.000000
-13.304100 0.000000
-13.270500 0.000000
-13.236900 0.000000
-13.203400 0.000000
-13.169800 0.000000
-13.136200 0.000000
-13.102600 0.000000
-13.069100 0.000000
-13.035500 0.000000
-13.001900 68.476100
-12.968400 55.003100
-12.934800 99.719500
-12.901200 0.000000
-12.867700 0.000000
-12.834100 0.000000
-12.800500 0.000000
-12.767000 0.000000
-12.733400 0.000000
-12.699800 0.000000
-12.666200 0.000000
-12.632700 0.000000
-12.599100 0.000000
-12.565500 0.000000
-12.532000 0.000000
-12.498400 0.000000
-12.464800 0.000000
-12.431300 0.000000
-12.397700 0.000000
-12.364100 0.000000
-12.330500 0.000000
-12.297000 0.000000
-12.263400 0.000000
-12.229800 0.000000
-12.196300 0.000000
-12.162700 0.000000
-12.129100 0.000000
-12.095600 0.000000
-12.062000 0.000000
-12.028400 0.000000
-11.994800 0.000000
-11.961300 0.000000
-11.927700 0.000000
-11.894100 0.000000
-11.860600 0.000000
-11.827000 0.000000
-11.793400 0.000000
-11.759900 0.000000
-11.726300 0.000000
-11.692700 0.000000
-11.659100 0.000000
-11.625600 0.000000
-11.592000 0.000000
-11.558400 0.000000
-11.524900 0.000000
-11.491300 0.000000
-11.457700 0.000000
-11.424200 0.000000
-11.390600 0.000000
-11.357000 0.000000
-11.323500 0.000000
-11.289900 0.000000
-11.256300 0.000000
-11.222700 0.000000
-11.189200 0.000000
-11.155600 0.000000
-11.122000 0.000000
-11.088500 0.000000
-11.054900 0.000000
-11.021300 0.000000
-10.987800 0.000000
-10.954200 0.000000
-10.920600 0.000000
-10.887000 0.000000
-10.853500 0.000000
-10.819900 0.000000
-10.786300 0.000000
-10.752800 0.000000
-10.719200 0.000000
-10.685600 0.000000
-10.652100 0.000000
-10.618500 0.000000
-10.584900 0.000000
-10.551300 0.000000
-10.517800 0.000000
-10.484200 0.000000
-10.450600 0.000000
-10.417100 0.000000
-10.383500 0.000000
-10.349900 0.000000
-10.316400 0.000000
-10.282800 0.000000
-10.249200 0.000000
-10.215700 0.000000
-10.182100 0.000000
-10.148500 0.000000
-10.114900 0.000000
-10.081400 0.000000
-10.047800 0.000000
-10.014200 0.000000
-9.980700 0.000000
-9.947100 0.000000
-9.913500 0.000000
-9.880000 0.000000
-9.846400 0.000000
-9.812800 0.000000
-9.779200 0.000000
-9.745700 0.000000
-9.712100 0.000000
-9.678500 0.000000
-9.645000 0.000000
-9.611400 0.000000
-9.577800 0.000000
-9.544300 0.000000
-9.510700 0.000000
-9.477100 0.000000
-9.443500 0.000000
-9.410000 0.000000
-9.376400 0.000000
-9.342800 0.000000
-9.309300 0.000000
-9.275700 0.000000
-9.242100 0.000000
-9.208600 0.000000
-9.175000 0.000000
-9.141400 0.000000
-9.107800 0.000000
-9.074300 0.000000
-9.040700 0.000000
-9.007100 0.000000
-8.973600 0.000000
-8.940000 0.000000
-8.906400 0.000000
-8.872900 0.000000
-8.839300 0.000000
-8.805700 0.000000
-8.772200 0.000000
-8.738600 0.000000
-8.705000 0.000000
-8.671400 0.000000
-8.637900 0.000000
-8.604300 0.000000
-8.570700 0.000000
-8.537200 0.000000
-8.503600 0.000000
-8.470000 0.000000
-8.436500 0.000000
-8.402900 0.000000
-8.369300 0.000000
-8.335700 0.000000
-8.302200 0.000000
-8.268600 0.000000
-8.235000 0.000000
-8.201500 0.000000
-8.167900 0.000000
-8.134300 0.000000
-8.100800 0.000000
-8.067200 0.000000
-8.033600 0.000000
-8.000000 0.000000
-7.966500 0.000000
-7.932900 0.000000
-7.899300 0.000000
-7.865800 0.000000
-7.832200 0.000000
-7.798600 0.000000
-7.765100 0.000000
-7.731500 0.000000
-7.697900 0.000000
-7.664400 0.000000
-7.630800 0.000000
-7.597200 0.000000
-7.563600 0.000000
-7.530100 0.000000
-7.496500 0.000000
-7.462900 0.000000
-7.429400 0.000000
-7.395800 0.000000
-7.362200 0.000000
-7.328700 0.000000
-7.295100 0.000000
-7.261500 0.000000
-7.227900 0.000000
-7.194400 0.000000
-7.160800 0.000000
-7.127200 0.000000
-7.093700 0.000000
-7.060100 0.000000
-7.026500 0.000000
-6.993000 0.000000
-6.959400 0.000000
-6.925800 0.000000
-6.892200 0.000000
-6.858700 0.000000
-6.825100 0.000000
-6.791500 0.000000
-6.758000 0.000000
-6.724400 0.000000
-6.690800 0.000000
-6.657300 0.000000
-6.623700 0.000000
-6.590100 0.000000
-6.556500 0.000000
-6.523000 0.000000
-6.489400 0.000000
-6.455800 0.000000
-6.422300 0.000000
-6.388700 0.000000
-6.355100 0.000000
-6.321600 0.000000
-6.288000 0.000000
-6.254400 0.000000
-6.220900 0.000000
-6.187300 0.000000
-6.153700 0.000000
-6.120100 0.000000
-6.086600 0.000000
-6.053000 0.000000
-6.019400 0.000000
-5.985900 0.000000
-5.952300 0.000000
-5.918700 0.000000
-5.885200 0.000000
-5.851600 0.000000
-5.818000 0.000000
-5.784400 0.000000
-5.750900 0.000000
-5.717300 0.000000
-5.683700 0.000000
-5.650200 0.000000
-5.616600 0.000000
-5.583000 0.000000
-5.549500 0.000000
-5.515900 0.000000
-5.482300 0.000000
-5.448700 0.000000
-5.415200 0.000000
-5.381600 0.000000
-5.348000 0.000000
-5.314500 0.000000
-5.280900 0.000000
-5.247300 0.000000
-5.213800 0.000000
-5.180200 0.000000
-5.146600 0.000000
-5.113000 0.000000
-5.079500 0.000000
-5.045900 0.000000
-5.012300 0.000000
-4.978800 0.000000
-4.945200 0.000000
-4.911600 0.000000
-4.878100 0.000000
-4.844500 0.000000
-4.810900 0.000000
-4.777400 0.000000
-4.743800 0.000000
-4.710200 0.000000
-4.676600 0.000000
-4.643100 0.000000
-4.609500 0.000000
-4.575900 0.000000
-4.542400 0.000000
-4.508800 0.000000
-4.475200 0.000000
-4.441700 0.000000
-4.408100 0.000000
-4.374500 0.000000
-4.340900 0.000000
-4.307400 0.000000
-4.273800 0.000000
-4.240200 0.000000
-4.206700 0.000000
-4.173100 0.000000
-4.139500 0.000000
-4.106000 0.000000
-4.072400 0.000000
-4.038800 0.000000
-4.005200 0.000000
-3.971700 0.000000
-3.938100 0.000000
-3.904500 0.000000
-3.871000 0.000000
-3.837400 0.000000
-3.803800 0.000000
-3.770300 0.000000
-3.736700 0.000000
-3.703100 0.000000
-3.669600 0.000000
-3.636000 0.000000
-3.602400 0.000000
-3.568800 0.000000
-3.535300 0.000000
-3.501700 0.000000
-3.468100 0.000000
-3.434600 0.000000
-3.401000 0.000000
-3.367400 0.000000
-3.333900 0.000000
-3.300300 0.000000
-3.266700 0.000000
-3.233100 0.000000
-3.199600 0.000000
-3.166000 0.000000
-3.132400 0.000000
-3.098900 0.000000
-3.065300 0.000000
-3.031700 0.000000
-2.998200 0.000000
-2.964600 0.000000
-2.931000 0.000000
-2.897400 0.000000
-2.863900 0.000000
-2.830300 0.000000
-2.796700 0.000000
-2.763200 0.000000
-2.729600 0.000000
-2.696000 0.000000
-2.662500 0.000000
-2.628900 0.000000
-2.595300 0.000000
-2.561700 0.000000
-2.528200 0.000000
-2.494600 0.000000
-2.461000 0.000000
-2.427500 0.000000
-2.393900 0.000000
-2.360300 0.000000
-2.326800 0.000000
-2.293200 0.000000
-2.259600 0.000000
-2.226100 0.000000
-2.192500 0.000000
-2.158900 0.000000
-2.125300 0.000000
-2.091800 0.000000
-2.058200 0.000000
-2.024600 0.000000
-1.991100 0.000000
-1.957500 0.000000
-1.923900 0.012400
-1.890400 0.056500
-1.856800 0.159500
-1.823200 0.130900
-1.789600 0.149500
-1.756100 0.172500
-1.722500 0.199700
-1.688900 0.228300
-1.655400 0.244800
-1.621800 0.249000
-1.588200 0.259600
-1.554700 0.274200
-1.521100 0.289200
-1.487500 0.304700
-1.453900 0.320800
-1.420400 0.338000
-1.386800 0.353400
-1.353200 0.365000
-1.319700 0.375800
-1.286100 0.387000
-1.252500 0.397400
-1.219000 0.407100
-1.185400 0.417700
-1.151800 0.429200
-1.118200 0.444000
-1.084700 0.458200
-1.051100 0.472800
-1.017500 0.487400
-0.984000 0.500200
-0.950400 0.511900
-0.916800 0.521500
-0.883300 0.530400
-0.849700 0.540800
-0.816100 0.552000
-0.782600 0.564000
-0.749000 0.576800
-0.715400 0.589500
-0.681800 0.602100
-0.648300 0.615000
-0.614700 0.628300
-0.581100 0.641900
-0.547600 0.655900
-0.514000 0.668300
-0.480400 0.681400
-0.446900 0.696000
-0.413300 0.708600
-0.379700 0.721400
-0.346100 0.734400
-0.312600 0.748400
-0.279000 0.763600
-0.245400 0.779200
-0.211900 0.795300
-0.178300 0.811900
-0.144700 0.829000
-0.111200 0.847500
-0.077600 0.872300
-0.044000 0.905000
-0.010400 0.943400
0.023100 0.975700
0.056700 1.003600
0.090300 1.030000
0.123800 1.054600
0.157400 1.086800
0.191000 1.147500
0.224500 1.169400
0.258100 1.096000
0.291700 1.071600
0.325200 1.045400
0.358800 1.032500
0.392400 1.029500
0.426000 1.033400
0.459500 1.048500
0.493100 1.069700
0.526700 1.076100
0.560200 1.055800
0.593800 1.068300
0.627400 1.094600
0.660900 1.065700
0.694500 1.097100
0.728100 1.157500
0.761700 1.259100
0.795200 1.315100
0.828800 1.342100
0.862400 1.323700
0.895900 1.405500
0.929500 1.428700
0.963100 1.472400
0.996600 1.409600
1.030200 1.126200
1.063800 1.029100
1.097400 0.998800
1.130900 0.990400
1.164500 1.104600
1.198100 1.239500
1.231600 1.366500
1.265200 1.811400
1.298800 1.922700
1.332300 1.970900
1.365900 1.968400
1.399500 1.938700
1.433100 1.811100
1.466600 1.702000
1.500200 1.663400
1.533800 1.751400
1.567300 1.878100
1.600900 1.964200
1.634500 2.115100
1.668000 2.561900
1.701600 2.512100
1.735200 2.724800
1.768700 2.904500
1.802300 2.685200
1.835900 2.600700
1.869500 2.545200
1.903000 2.412500
1.936600 2.426600
1.970200 2.262600
2.003700 2.162000
2.037300 2.021400
2.070900 1.954500
2.104400 1.880600
2.138000 1.834300
2.171600 1.788300
2.205200 1.740200
2.238700 1.681000
2.272300 1.625400
2.305900 1.588000
2.339400 1.557400
2.373000 1.525800
2.406600 1.496900
2.440100 1.469800
2.473700 1.426100
2.507300 1.395700
2.540900 1.359800
2.574400 1.329100
2.608000 1.299500
2.641600 1.271700
2.675100 1.253000
2.708700 1.259300
2.742300 1.307800
2.775800 1.308300
2.809400 1.314800
2.843000 1.321800
2.876500 1.328600
2.910100 1.335900
2.943700 1.318600
2.977300 1.330600
3.010800 1.352400
3.044400 1.379900
3.078000 1.414500
3.111500 1.463300
3.145100 1.540600
3.178700 1.540600
3.212200 1.436000
3.245800 1.396100
3.279400 1.397300
3.313000 1.376100
3.346500 1.472400
3.380100 1.487100
3.413700 1.549900
3.447200 2.292400
3.480800 2.916900
3.514400 3.510500
3.547900 4.040000
3.581500 4.155700
3.615100 4.056400
3.648700 3.679400
3.682200 3.702300
3.715800 4.600700
3.749400 4.070900
3.782900 3.745900
3.816500 3.392200
3.850100 2.713000
3.883600 2.172600
3.917200 1.695000
3.950800 1.457700
3.984400 1.046500
4.017900 1.008600
4.051500 1.095700
4.085100 1.223700
4.118600 1.410300
4.152200 1.664700
4.185800 1.791200
4.219300 1.925200
4.252900 2.080200
4.286500 2.196700
4.320000 2.333200
4.353600 2.433000
4.387200 2.502600
4.420800 2.585300
4.454300 2.591000
4.487900 2.594400
4.521500 2.556100
4.555000 2.507500
4.588600 2.522400
4.622200 2.502200
4.655700 2.366000
4.689300 2.243500
4.722900 2.155900
4.756500 2.066300
4.790000 1.962200
4.823600 1.839400
4.857200 1.667600
4.890700 1.651400
4.924300 1.635400
4.957900 1.547100
4.991400 1.504200
5.025000 1.465800
5.058600 1.511300
5.092200 1.554200
5.125700 1.639200
5.159300 1.757500
5.192900 1.848500
5.226400 2.024300
5.260000 2.295800
5.293600 2.619100
5.327100 3.070700
5.360700 3.246700
5.394300 3.807300
5.427900 4.092100
5.461400 4.044200
5.495000 4.268900
5.528600 4.453300
5.562100 4.825400
5.595700 4.841700
5.629300 3.732500
5.662800 1.840700
5.696400 0.848400
5.730000 0.750600
5.763500 0.938800
5.797100 1.310300
5.830700 1.626300
5.864300 2.108500
5.897800 2.918900
5.931400 4.745500
5.965000 6.426500
5.998500 6.798400
6.032100 6.846400
6.065700 5.264900
6.099200 4.062300
6.132800 3.521400
6.166400 2.590200
6.200000 2.616100
6.233500 2.293400
6.267100 2.183800
6.300700 2.067800
6.334200 1.932400
6.367800 1.908000
6.401400 2.016400
6.434900 1.962400
6.468500 2.039000
6.502100 2.128600
6.535700 2.216600
6.569200 2.421600
6.602800 2.374700
6.636400 2.519600
6.669900 2.776200
6.703500 3.015000
6.737100 2.966800
6.770600 2.933000
6.804200 2.946300
6.837800 2.965700
6.871300 2.954800
6.904900 2.845400
6.938500 2.685700
6.972100 2.380700
7.005600 2.191500
7.039200 1.990800
7.072800 2.648500
7.106300 2.836400
7.139900 2.704000
7.173500 2.780900
7.207000 2.851100
7.240600 3.186600
7.274200 3.460300
7.307800 3.834200
7.341300 4.006700
7.374900 4.138500
7.408500 4.057700
7.442000 3.744100
7.475600 3.318900
7.509200 3.286100
7.542700 2.874600
7.576300 2.642600
7.609900 2.471900
7.643500 2.358500
7.677000 2.273500
7.710600 2.150900
7.744200 2.096800
7.777700 2.052500
7.811300 2.032400
7.844900 2.077300
7.878400 2.178700
7.912000 2.256900
7.945600 2.206200
7.979200 2.147700
8.012700 2.217200
8.046300 2.403200
8.079900 2.499800
8.113400 2.803400
8.147000 2.729400
8.180600 2.755300
8.214100 2.634600
8.247700 2.540800
8.281300 2.489200
8.314800 2.430600
8.348400 2.343700
8.382000 2.226700
8.415600 1.955300
8.449100 1.770500
8.482700 1.596100
8.516300 1.446100
8.549800 1.302400
8.583400 1.185300
8.617000 1.159600
8.650500 1.222100
8.684100 1.464200
8.717700 1.625600
8.751300 1.766100
8.784800 1.805900
8.818400 1.821100
8.852000 1.923400
8.885500 1.789600
8.919100 1.616600
8.952700 1.612600
8.986200 1.509200
9.019800 1.382800
9.053400 1.036900
9.087000 0.927500
9.120500 0.794900
9.154100 0.698100
9.187700 0.662100
9.221200 0.634900
9.254800 0.616100
9.288400 0.605700
9.321900 0.601800
9.355500 0.601100
9.389100 0.608500
9.422700 0.626300
9.456200 0.655200
9.489800 0.696000
9.523400 0.746500
9.556900 0.812200
9.590500 1.040800
9.624100 1.113700
9.657600 1.155200
9.691200 1.198500
9.724800 1.246100
9.758300 1.300400
9.791900 1.410700
9.825500 1.526400
9.859100 1.668100
9.892600 1.876800
9.926200 1.848900
9.959800 1.713000
9.993300 1.780200
10.026900 1.852100
10.060500 1.927600
10.094000 2.013800
10.127600 2.122800
10.161200 2.385400
10.194800 2.481400
10.228300 2.467000
10.261900 2.465400
10.295500 2.332900
10.329000 2.016100
10.362600 1.925800
10.396200 2.124800
10.429700 2.293200
10.463300 2.426800
10.496900 2.579200
10.530500 2.770700
10.564000 2.808000
10.597600 2.858300
10.631200 2.911500
10.664700 2.998500
10.698300 2.972000
10.731900 3.176600
10.765400 3.496000
10.799000 3.559800
10.832600 3.381200
10.866100 3.360800
10.899700 3.372900
10.933300 3.378400
10.966900 3.406900
11.000400 3.252400
11.034000 2.981700
11.067600 2.812900
11.101100 2.695500
11.134700 2.592500
11.168300 2.695700
11.201800 2.373200
11.235400 2.371500
11.269000 2.273900
11.302600 2.296200
11.336100 2.641800
11.369700 3.048900
11.403300 3.617400
11.436800 5.150800
11.470400 4.277100
11.504000 3.405600
11.537500 2.777700
11.571100 2.047000
11.604700 1.789500
11.638300 1.867100
11.671800 2.138500
11.705400 2.341600
11.739000 2.543500
11.772500 2.802000
11.806100 3.011900
11.839700 3.283000
11.873200 3.483200
11.906800 3.478100
11.940400 3.398600
11.974000 3.232600
12.007500 2.903100
12.041100 2.721200
12.074700 2.527900
12.108200 2.444100
12.141800 2.307400
12.175400 2.164200
12.208900 2.049700
12.242500 1.969200
12.276100 1.921800
12.309600 1.909900
12.343200 1.968300
12.376800 2.052100
12.410400 2.238700
12.443900 2.298800
12.477500 2.295200
12.511100 2.220400
12.544600 2.258400
12.578200 2.322500
12.611800 2.461600
12.645300 2.628500
12.678900 2.929500
12.712500 3.136000
12.746100 3.155500
12.779600 3.104600
12.813200 3.112400
12.846800 3.046900
12.880300 3.076100
12.913900 3.095000
12.947500 3.037400
12.981000 3.175400
13.014600 3.680600
13.048200 3.691800
13.081800 3.137600
13.115300 3.066500
13.148900 2.887800
13.182500 2.783100
13.216000 2.726800
13.249600 2.906400
13.283200 3.060400
13.316700 3.310000
13.350300 2.928200
13.383900 2.773000
13.417400 2.712000
13.451000 2.645800
13.484600 2.594900
13.518200 2.523500
13.551700 2.437200
13.585300 2.378100
13.618900 2.397000
13.652400 2.419700
13.686000 2.332700
13.719600 2.192000
13.753100 2.107700
13.786700 2.198900
13.820300 2.232100
13.853900 2.132800
13.887400 2.121900
13.921000 2.116800
13.954600 2.143500
13.988100 2.157500
14.021700 2.217100
14.055300 2.348800
14.088800 2.529500
14.122400 2.748600
14.156000 2.949200
14.189600 3.203300
14.223100 3.240300
14.256700 3.358900
14.290300 3.445300
14.323800 3.570600
14.357400 3.734300
14.391000 3.762700
14.424500 3.480200
14.458100 3.743900
14.491700 2.860800
14.525300 2.626300
14.558800 2.526100
14.592400 2.470800
14.626000 2.425400
14.659500 2.266800
14.693100 2.256000
14.726700 2.238200
14.760200 2.254800
14.793800 2.243900
14.827400 2.173400
14.860900 2.131600
14.894500 2.067700
14.928100 1.824500
14.961700 1.810400
14.995200 1.904500
15.028800 2.062300
15.062400 2.233500
15.095900 2.525100
15.129500 2.840100
15.163100 3.001700
15.196600 3.170500
15.230200 3.113100
15.263800 3.082900
15.297400 3.006100
15.330900 2.850800
15.364500 2.786700
15.398100 2.705500
15.431600 2.638000
15.465200 2.623900
15.498800 2.620300
15.532300 2.682800
15.565900 2.760800
15.599500 2.845500
15.633100 3.070600
15.666600 3.290300
15.700200 3.540200
15.733800 3.783300
15.767300 3.825700
15.800900 3.880300
15.834500 3.881600
15.868000 3.700400
15.901600 3.582400
15.935200 3.407000
15.968800 2.957800
16.002300 2.652000
16.035900 2.334400
16.069500 2.085800
16.103000 1.842700
16.136600 1.675400
16.170200 1.556400
16.203700 1.547100
16.237300 1.718900
16.270900 1.791500
16.304400 1.808500
16.338000 1.991300
16.371600 2.260600
16.405200 2.638300
16.438700 3.031700
16.472300 3.448700
16.505900 3.759600
16.539400 3.374800
16.573000 3.274000
16.606600 3.169900
16.640100 2.865300
16.673700 2.643700
16.707300 2.432800
16.740900 2.324100
16.774400 2.282200
16.808000 2.202100
16.841600 2.150800
16.875100 2.155000
16.908700 2.236300
16.942300 2.357600
16.975800 2.699100
17.009400 3.164500
17.043000 3.752000
17.076600 4.165400
17.110100 3.954000
17.143700 3.551500
17.177300 3.313500
17.210800 3.069100
17.244400 2.759700
17.278000 2.610500
17.311500 2.521800
17.345100 2.419900
17.378700 2.391500
17.412200 2.276700
17.445800 2.166100
17.479400 2.192100
17.513000 2.217400
17.546500 2.290900
17.580100 2.429400
17.613700 2.613200
17.647200 2.765000
17.680800 2.967100
17.714400 3.044500
17.747900 3.107200
17.781500 3.122000
17.815100 3.071500
17.848700 2.987800
17.882200 3.012500
17.915800 2.893800
17.949400 2.750400
17.982900 2.646400
18.016500 2.644600
18.050100 2.510300
18.083600 2.487200
18.117200 2.585200
18.150800 2.676100
18.184400 3.045300
18.217900 3.272400
18.251500 3.251100
18.285100 3.212800
18.318600 3.194800
18.352200 3.344400
18.385800 2.881300
18.419300 2.704600
18.452900 2.574200
18.486500 2.464200
18.520100 2.367900
18.553600 2.332400
18.587200 2.659900
18.620800 2.604300
18.654300 2.569700
18.687900 2.645200
18.721500 2.722300
18.755000 2.871700
18.788600 3.161900
18.822200 3.395600
18.855700 3.577200
18.889300 3.977400
18.922900 3.673000
18.956500 3.330400
18.990000 3.171000
19.023600 3.099800
19.057200 3.040900
19.090700 3.088200
19.124300 2.983700
19.157900 3.081800
19.191400 3.241700
19.225000 3.357600
19.258600 3.241600
19.292200 3.127600
19.325700 3.164900
19.359300 3.291400
19.392900 3.476100
19.426400 3.510800
19.460000 3.540800
19.493600 3.427700
19.527100 3.428300
19.560700 3.501500
19.594300 3.563700
19.627900 3.382700
19.661400 3.184500
19.695000 2.950600
19.728600 2.870700
19.762100 2.834100
19.795700 2.804800
19.829300 2.812800
19.862800 2.905600
19.896400 2.872700
19.930000 2.817100
19.963500 2.739600
19.997100 2.665200
20.030700 2.590800
20.064300 2.543100
20.097800 2.490000
20.131400 2.476700
20.165000 2.513300
20.198500 2.576400
20.232100 2.642400
20.265700 2.782000
20.299200 2.990600
20.332800 3.069200
20.366400 3.124400
20.400000 3.185800
20.433500 3.369400
20.467100 3.518100
20.500700 3.604300
20.534200 3.567900
20.567800 3.709000
20.601400 3.765500
20.634900 3.870100
20.668500 3.966900
20.702100 3.687700
20.735700 3.349100
20.769200 2.997000
20.802800 2.811400
20.836400 2.730800
20.869900 2.710200
20.903500 2.627300
20.937100 2.679100
20.970600 2.855900
21.004200 3.059900
21.037800 3.124800
21.071400 3.154000
21.104900 3.156500
21.138500 3.196100
21.172100 3.356400
21.205600 3.614100
21.239200 3.740400
21.272800 3.766200
21.306300 3.656800
21.339900 3.552900
21.373500 3.586800
21.407000 3.485100
21.440600 3.450600
21.474200 3.236900
21.507800 3.064500
21.541300 2.976300
21.574900 2.907200
21.608500 2.854200
21.642000 2.825100
21.675600 2.800700
21.709200 2.756600
21.742700 2.839300
21.776300 2.775800
21.809900 2.751500
21.843500 2.836900
21.877000 2.961700
21.910600 3.198400
21.944200 3.322600
21.977700 3.476900
22.011300 3.623700
22.044900 3.893600
22.078400 3.432700
22.112000 3.150500
22.145600 2.939900
22.179200 2.913400
22.212700 2.906100
22.246300 2.946100
22.279900 2.991900
22.313400 3.028100
22.347000 3.011400
22.380600 2.926400
22.414100 2.793100
22.447700 2.655600
22.481300 2.556000
22.514900 2.517400
22.548400 2.617600
22.582000 2.734700
22.615600 2.926400
22.649100 3.211900
22.682700 3.531200
22.716300 3.754800
22.749800 3.951400
22.783400 3.998300
22.817000 4.014400
22.850500 4.368800
22.884100 4.244800
22.917700 4.095400
22.951300 3.856600
22.984800 3.348700
23.018400 3.231200
23.052000 3.280500
23.085500 2.799500
23.119100 2.795100
23.152700 2.914400
23.186200 3.137600
23.219800 3.777200
23.253400 3.800400
23.287000 3.839900
23.320500 3.904200
23.354100 3.948500
23.387700 3.905700
23.421200 3.864600
23.454800 3.925300
23.488400 3.737500
23.521900 3.516900
23.555500 3.336500
23.589100 3.105200
23.622700 2.793000
23.656200 2.691300
23.689800 2.729100
23.723400 2.565000
23.756900 2.512800
23.790500 2.538600
23.824100 2.681400
23.857600 3.128800
23.891200 3.239800
23.924800 3.138200
23.958300 3.194900
23.991900 3.238300
24.025500 3.343700
24.059100 3.374100
24.092600 3.391500
24.126200 3.494800
24.159800 3.484400
24.193300 3.446400
24.226900 3.455200
24.260500 3.514000
24.294000 3.583200
24.327600 3.426900
24.361200 3.287800
24.394800 3.130200
24.428300 3.013900
24.461900 2.894100
24.495500 2.872900
24.529000 2.955700
24.562600 3.133200
24.596200 3.349400
24.629700 3.664500
24.663300 4.050600
24.696900 4.099500
24.730500 3.933000
24.764000 3.749200
24.797600 3.524200
24.831200 3.303300
24.864700 3.103300
24.898300 2.974800
24.931900 2.930100
24.965400 2.921100
24.999000 2.905000
25.032600 2.887700
25.066200 2.915100
25.099700 3.022500
25.133300 3.029900
25.166900 3.075300
25.200400 3.124200
25.234000 3.281600
25.267600 3.444300
25.301100 3.565600
25.334700 3.412500
25.368300 3.559500
25.401800 3.793100
25.435400 3.751900
25.469000 3.796900
25.502600 3.769600
25.536100 3.641200
25.569700 3.508400
25.603300 3.264600
25.636800 3.045200
25.670400 2.824200
25.704000 2.781800
25.737500 2.790700
25.771100 2.938600
25.804700 3.121900
25.838300 3.273200
25.871800 3.310600
25.905400 3.321700
25.939000 3.296300
25.972500 3.267200
26.006100 3.256900
26.039700 3.311700
26.073200 3.302100
26.106800 3.258500
26.140400 3.403700
26.174000 3.703700
26.207500 3.973000
26.241100 4.281900
26.274700 4.828500
26.308200 4.771200
26.341800 4.802500
26.375400 4.591500
26.408900 4.188700
26.442500 3.987900
26.476100 3.851500
26.509700 3.715700
26.543200 3.667100
26.576800 3.667600
26.610400 3.530700
26.643900 3.510100
26.677500 3.561100
26.711100 3.651100
26.744600 3.703800
26.778200 3.748100
26.811800 3.756000
26.845300 3.700500
26.878900 3.622300
26.912500 3.210600
26.946100 3.021400
26.979600 2.855000
27.013200 2.785000
27.046800 2.732600
27.080300 2.491400
27.113900 2.481700
27.147500 2.570400
27.181000 2.874800
27.214600 3.208000
27.248200 3.301000
27.281800 3.446300
27.315300 3.302600
27.348900 3.317000
27.382500 3.410200
27.416000 3.462600
27.449600 3.518500
27.483200 3.456600
27.516700 3.507700
27.550300 3.567100
27.583900 3.505900
27.617500 3.617800
27.651000 3.591000
27.684600 3.689900
27.718200 3.531700
27.751700 3.523900
27.785300 3.434300
27.818900 3.263000
27.852400 3.263600
27.886000 3.466600
27.919600 3.732500
27.953100 3.842000
27.986700 3.832800
28.020300 3.756600
28.053900 3.575600
28.087400 3.527900
28.121000 3.617500
28.154600 3.708900
28.188100 3.764200
28.221700 3.693100
28.255300 3.570300
28.288800 3.472000
28.322400 3.394500
28.356000 3.428800
28.389600 3.374900
28.423100 3.338600
28.456700 3.433500
28.490300 3.547300
28.523800 3.786100
28.557400 3.907600
28.591000 4.004400
28.624500 3.920600
28.658100 3.787300
28.691700 3.636500
28.725300 3.458700
28.758800 3.331100
28.792400 3.347600
28.826000 3.379800
28.859500 3.590500
28.893100 3.629200
28.926700 3.804700
28.960200 3.687700
28.993800 3.399800
29.027400 3.261300
29.061000 3.387900
29.094500 3.974400
29.128100 3.712900
29.161700 3.568600
29.195200 3.533000
29.228800 3.550800
29.262400 3.497300
29.295900 3.591300
29.329500 3.669500
29.363100 3.735300
29.396600 3.764300
29.430200 3.734800
29.463800 3.652700
29.497400 3.583200
29.530900 3.583500
29.564500 3.662800
29.598100 3.580200
29.631600 3.451200
29.665200 3.247700
29.698800 3.216200
29.732300 3.212100
29.765900 3.288100
29.799500 3.434600
29.833100 3.571800
29.866600 3.873600
29.900200 4.151000
29.933800 4.086800
29.967300 3.943300
30.000900 3.917900
30.034500 3.735300
30.068000 3.447800
30.101600 3.291500
30.135200 3.161700
30.168800 3.108200
30.202300 3.081100
30.235900 3.101200
30.269500 3.092300
30.303000 3.120500
30.336600 3.182000
30.370200 3.243000
30.403700 3.277400
30.437300 3.472000
30.470900 3.619000
30.504400 3.717000
30.538000 3.752600
30.571600 3.700000
30.605200 3.606300
30.638700 3.486600
30.672300 3.548100
30.705900 3.480600
30.739400 3.512600
30.773000 3.596200
30.806600 3.640200
30.840100 3.571200
30.873700 3.581200
30.907300 3.577000
30.940900 3.613000
30.974400 3.753300
31.008000 3.461700
31.041600 3.283500
31.075100 3.118800
31.108700 2.954500
31.142300 2.783300
31.175800 2.595600
31.209400 2.418600
31.243000 2.214600
31.276600 1.984500
31.310100 1.806900
31.343700 1.664600
31.377300 1.584900
31.410800 1.479400
31.444400 1.412200
31.478000 1.365100
31.511500 1.310600
31.545100 1.287200
31.578700 1.242200
31.612300 1.194400
31.645800 1.143200
31.679400 1.085100
31.713000 1.014600
31.746500 0.887800
31.780100 0.776400
31.813700 0.697300
31.847200 0.625300
31.880800 0.557000
31.914400 0.490100
31.947900 0.421400
31.981500 0.362100
32.015100 0.281100
32.048700 0.202900
32.082200 0.143900
32.115800 0.100300
32.149400 0.071900
32.182900 0.052700
32.216500 0.009800
32.250100 0.000000
32.283600 0.000000
32.317200 0.000000
32.350800 0.000000
32.384400 0.000000
32.417900 0.000000
32.451500 0.000000
32.485100 0.000000
32.518600 0.000000
32.552200 0.000000
32.585800 0.000000
32.619300 0.000000
32.652900 0.000000
32.686500 0.000000
32.720100 0.000000
32.753600 0.000000
32.787200 0.000000
32.820800 0.000000
32.854300 0.000000
32.887900 0.000000
32.921500 0.000000
32.955000 0.000000
32.988600 0.000000
33.022200 0.000000
33.055800 0.000000
33.089300 0.000000
33.122900 0.000000
33.156500 0.000000
33.190000 0.000000
33.223600 0.000000
33.257200 0.000000
33.290700 0.000000
33.324300 0.000000
33.357900 0.000000
33.391400 0.000000
33.425000 0.000000
33.458600 0.000000
33.492200 0.000000
33.525700 0.000000
33.559300 0.000000
33.592900 0.000000
33.626400 0.000000
33.660000 0.000000
33.693600 0.000000
33.727100 0.000000
33.760700 0.000000
33.794300 0.000000
33.827900 0.000000
33.861400 0.000000
33.895000 0.000000
33.928600 0.000000
33.962100 0.000000
33.995700 0.000000
34.029300 0.000000
34.062800 0.000000
34.096400 0.000000
34.130000 0.000000
34.163600 0.000000
34.197100 0.000000
34.230700 0.000000
34.264300 0.000000
34.297800 0.000000
34.331400 0.000000
34.365000 0.000000
34.398500 0.000000
34.432100 0.000000
34.465700 0.000000
34.499200 0.000000
34.532800 0.000000
34.566400 0.000000
34.600000 0.000000
34.633500 0.000000
34.667100 0.000000
34.700700 0.000000
34.734200 0.000000
34.767800 0.000000
34.801400 0.000000
34.834900 0.000000
34.868500 0.000000
34.902100 0.000000
34.935700 0.000000
34.969200 0.000000
35.002800 0.000000
35.036400 0.000000
35.069900 0.000000
35.103500 0.000000
35.137100 0.000000
35.170600 0.000000
35.204200 0.000000
35.237800 0.000000
35.271400 0.000000
e
