set title 'mp-999086 - Density of States'
set xlabel 'Energy (eV)'
set ylabel 'DOS (states/eV)'
set grid
set xrange [-10:10]
set yrange [0:6.671]
set xzeroaxis lt -1
set terminal png size 800,600
set output 'mp-999086_dos_gnuplot.png'
plot '-' using 1:2 with lines title 'DOS'
-36.422500 0.000000
-36.380600 0.000000
-36.338800 0.000000
-36.296900 0.000000
-36.255100 0.000000
-36.213300 0.000000
-36.171400 0.000000
-36.129600 0.000000
-36.087700 0.000000
-36.045900 0.000000
-36.004100 0.000000
-35.962200 0.000000
-35.920400 0.000000
-35.878500 0.000000
-35.836700 0.000000
-35.794900 0.000000
-35.753000 0.000000
-35.711200 0.000000
-35.669300 0.000000
-35.627500 0.000000
-35.585700 0.000000
-35.543800 0.000000
-35.502000 0.000000
-35.460100 0.000000
-35.418300 0.000000
-35.376500 0.000000
-35.334600 0.000000
-35.292800 0.000000
-35.250900 0.000000
-35.209100 0.000000
-35.167300 0.000000
-35.125400 0.000000
-35.083600 0.000000
-35.041700 0.000000
-34.999900 0.000000
-34.958100 0.000000
-34.916200 0.000000
-34.874400 0.000000
-34.832500 0.000000
-34.790700 0.000000
-34.748900 0.000000
-34.707000 0.000000
-34.665200 0.000000
-34.623400 0.000000
-34.581500 0.000000
-34.539700 0.000000
-34.497800 0.000000
-34.456000 0.000000
-34.414200 0.000000
-34.372300 0.000000
-34.330500 0.000000
-34.288600 0.000000
-34.246800 0.000000
-34.205000 0.000000
-34.163100 0.000000
-34.121300 0.000000
-34.079400 0.000000
-34.037600 0.000000
-33.995800 0.000000
-33.953900 0.000000
-33.912100 0.000000
-33.870200 0.000000
-33.828400 0.000000
-33.786600 0.000000
-33.744700 0.000000
-33.702900 0.000000
-33.661000 0.000000
-33.619200 0.000000
-33.577400 0.000000
-33.535500 0.000000
-33.493700 0.000000
-33.451800 0.000000
-33.410000 0.000000
-33.368200 0.000000
-33.326300 0.000000
-33.284500 0.000000
-33.242600 0.000000
-33.200800 0.000000
-33.159000 0.000000
-33.117100 0.000000
-33.075300 0.000000
-33.033400 0.000000
-32.991600 0.000000
-32.949800 0.000000
-32.907900 0.000000
-32.866100 0.000000
-32.824200 0.000000
-32.782400 0.000000
-32.740600 0.000000
-32.698700 0.000000
-32.656900 0.000000
-32.615100 5.680900
-32.573200 6.524200
-32.531400 7.111900
-32.489500 5.804200
-32.447700 4.530700
-32.405900 4.685500
-32.364000 9.148000
-32.322200 9.947700
-32.280300 21.347800
-32.238500 10.361200
-32.196700 14.029800
-32.154800 13.133100
-32.113000 20.127400
-32.071100 27.072900
-32.029300 41.199300
-31.987500 29.556400
-31.945600 8.353400
-31.903800 9.562400
-31.861900 10.309600
-31.820100 13.260900
-31.778300 4.695900
-31.736400 5.414400
-31.694600 7.675900
-31.652700 7.925800
-31.610900 0.000000
-31.569100 0.000000
-31.527200 0.000000
-31.485400 0.000000
-31.443500 0.000000
-31.401700 0.000000
-31.359900 0.000000
-31.318000 0.000000
-31.276200 0.000000
-31.234300 0.000000
-31.192500 0.000000
-31.150700 0.000000
-31.108800 0.000000
-31.067000 0.000000
-31.025100 0.000000
-30.983300 0.000000
-30.941500 0.000000
-30.899600 0.000000
-30.857800 0.000000
-30.815900 0.000000
-30.774100 0.000000
-30.732300 0.000000
-30.690400 0.000000
-30.648600 0.000000
-30.606800 0.000000
-30.564900 0.000000
-30.523100 0.000000
-30.481200 0.000000
-30.439400 0.000000
-30.397600 0.000000
-30.355700 0.000000
-30.313900 0.000000
-30.272000 0.000000
-30.230200 0.000000
-30.188400 0.000000
-30.146500 0.000000
-30.104700 0.000000
-30.062800 0.000000
-30.021000 0.000000
-29.979200 0.000000
-29.937300 0.000000
-29.895500 0.000000
-29.853600 0.000000
-29.811800 0.000000
-29.770000 0.000000
-29.728100 0.000000
-29.686300 0.000000
-29.644400 0.000000
-29.602600 0.000000
-29.560800 0.000000
-29.518900 0.000000
-29.477100 0.000000
-29.435200 0.000000
-29.393400 0.000000
-29.351600 0.000000
-29.309700 0.000000
-29.267900 0.000000
-29.226000 0.000000
-29.184200 0.000000
-29.142400 0.000000
-29.100500 0.000000
-29.058700 0.000000
-29.016800 0.000000
-28.975000 0.000000
-28.933200 0.000000
-28.891300 0.000000
-28.849500 0.000000
-28.807600 0.000000
-28.765800 0.000000
-28.724000 0.000000
-28.682100 0.000000
-28.640300 0.000000
-28.598400 0.000000
-28.556600 0.000000
-28.514800 0.000000
-28.472900 0.000000
-28.431100 0.000000
-28.389300 0.000000
-28.347400 0.000000
-28.305600 0.000000
-28.263700 0.000000
-28.221900 0.000000
-28.180100 0.000000
-28.138200 0.000000
-28.096400 0.000000
-28.054500 0.000000
-28.012700 0.000000
-27.970900 0.000000
-27.929000 0.000000
-27.887200 0.000000
-27.845300 0.000000
-27.803500 0.000000
-27.761700 0.000000
-27.719800 0.000000
-27.678000 0.000000
-27.636100 0.000000
-27.594300 0.000000
-27.552500 0.000000
-27.510600 0.000000
-27.468800 0.000000
-27.426900 0.000000
-27.385100 0.000000
-27.343300 0.000000
-27.301400 0.000000
-27.259600 0.000000
-27.217700 0.000000
-27.175900 0.000000
-27.134100 0.000000
-27.092200 0.000000
-27.050400 0.000000
-27.008500 0.000000
-26.966700 0.000000
-26.924900 0.000000
-26.883000 0.000000
-26.841200 0.000000
-26.799300 0.000000
-26.757500 0.000000
-26.715700 0.000000
-26.673800 0.000000
-26.632000 0.000000
-26.590100 0.000000
-26.548300 0.000000
-26.506500 0.000000
-26.464600 0.000000
-26.422800 0.000000
-26.381000 0.000000
-26.339100 0.000000
-26.297300 0.000000
-26.255400 0.000000
-26.213600 0.000000
-26.171800 0.000000
-26.129900 0.000000
-26.088100 0.000000
-26.046200 0.000000
-26.004400 0.000000
-25.962600 0.000000
-25.920700 0.000000
-25.878900 0.000000
-25.837000 0.000000
-25.795200 0.000000
-25.753400 0.000000
-25.711500 0.000000
-25.669700 0.000000
-25.627800 0.000000
-25.586000 0.000000
-25.544200 0.000000
-25.502300 0.000000
-25.460500 0.000000
-25.418600 0.000000
-25.376800 0.000000
-25.335000 0.000000
-25.293100 0.000000
-25.251300 0.000000
-25.209400 0.000000
-25.167600 0.000000
-25.125800 0.000000
-25.083900 0.000000
-25.042100 0.000000
-25.000200 0.000000
-24.958400 0.000000
-24.916600 0.000000
-24.874700 0.000000
-24.832900 0.000000
-24.791000 0.000000
-24.749200 0.000000
-24.707400 0.000000
-24.665500 0.000000
-24.623700 0.000000
-24.581800 0.000000
-24.540000 0.000000
-24.498200 0.000000
-24.456300 0.000000
-24.414500 0.000000
-24.372700 0.000000
-24.330800 0.000000
-24.289000 0.000000
-24.247100 0.000000
-24.205300 0.000000
-24.163500 0.000000
-24.121600 0.000000
-24.079800 0.000000
-24.037900 0.000000
-23.996100 0.000000
-23.954300 0.000000
-23.912400 0.000000
-23.870600 0.000000
-23.828700 0.000000
-23.786900 0.000000
-23.745100 0.000000
-23.703200 0.000000
-23.661400 0.000000
-23.619500 0.000000
-23.577700 0.000000
-23.535900 0.000000
-23.494000 0.000000
-23.452200 0.000000
-23.410300 0.000000
-23.368500 0.000000
-23.326700 0.000000
-23.284800 0.000000
-23.243000 0.000000
-23.201100 0.000000
-23.159300 0.000000
-23.117500 0.000000
-23.075600 0.000000
-23.033800 0.000000
-22.991900 0.000000
-22.950100 0.000000
-22.908300 0.000000
-22.866400 0.000000
-22.824600 0.000000
-22.782700 0.000000
-22.740900 0.000000
-22.699100 0.000000
-22.657200 0.000000
-22.615400 0.000000
-22.573500 0.000000
-22.531700 0.000000
-22.489900 0.000000
-22.448000 0.000000
-22.406200 0.000000
-22.364400 0.000000
-22.322500 0.000000
-22.280700 0.000000
-22.238800 0.000000
-22.197000 0.000000
-22.155200 0.000000
-22.113300 0.000000
-22.071500 0.000000
-22.029600 0.000000
-21.987800 0.000000
-21.946000 0.000000
-21.904100 0.000000
-21.862300 0.000000
-21.820400 0.000000
-21.778600 0.000000
-21.736800 0.000000
-21.694900 0.000000
-21.653100 0.000000
-21.611200 0.000000
-21.569400 0.000000
-21.527600 0.000000
-21.485700 0.000000
-21.443900 0.000000
-21.402000 0.000000
-21.360200 0.000000
-21.318400 0.000000
-21.276500 0.000000
-21.234700 0.000000
-21.192800 0.000000
-21.151000 0.000000
-21.109200 0.000000
-21.067300 0.000000
-21.025500 0.000000
-20.983600 0.000000
-20.941800 0.000000
-20.900000 0.000000
-20.858100 0.000000
-20.816300 0.000000
-20.774400 0.000000
-20.732600 0.000000
-20.690800 0.000000
-20.648900 0.000000
-20.607100 0.000000
-20.565200 0.000000
-20.523400 0.000000
-20.481600 0.000000
-20.439700 0.000000
-20.397900 0.000000
-20.356000 0.000000
-20.314200 0.000000
-20.272400 0.000000
-20.230500 0.000000
-20.188700 0.000000
-20.146900 0.000000
-20.105000 0.000000
-20.063200 0.000000
-20.021300 0.000000
-19.979500 0.000000
-19.937700 0.000000
-19.895800 0.000000
-19.854000 0.000000
-19.812100 0.000000
-19.770300 0.000000
-19.728500 0.000000
-19.686600 0.000000
-19.644800 0.000000
-19.602900 0.000000
-19.561100 0.000000
-19.519300 0.000000
-19.477400 0.000000
-19.435600 0.000000
-19.393700 0.000000
-19.351900 0.000000
-19.310100 0.000000
-19.268200 0.000000
-19.226400 0.000000
-19.184500 0.000000
-19.142700 0.000000
-19.100900 0.000000
-19.059000 0.000000
-19.017200 0.000000
-18.975300 0.000000
-18.933500 0.000000
-18.891700 0.000000
-18.849800 0.000000
-18.808000 0.000000
-18.766100 0.000000
-18.724300 0.000000
-18.682500 0.000000
-18.640600 0.000000
-18.598800 0.000000
-18.556900 0.000000
-18.515100 0.000000
-18.473300 0.000000
-18.431400 0.000000
-18.389600 0.000000
-18.347700 0.000000
-18.305900 0.000000
-18.264100 0.000000
-18.222200 0.000000
-18.180400 0.000000
-18.138600 0.000000
-18.096700 0.000000
-18.054900 0.000000
-18.013000 0.000000
-17.971200 0.000000
-17.929400 0.000000
-17.887500 0.000000
-17.845700 0.000000
-17.803800 0.000000
-17.762000 0.000000
-17.720200 0.000000
-17.678300 0.000000
-17.636500 0.000000
-17.594600 0.000000
-17.552800 0.000000
-17.511000 0.000000
-17.469100 0.000000
-17.427300 0.000000
-17.385400 0.000000
-17.343600 0.000000
-17.301800 0.000000
-17.259900 0.000000
-17.218100 0.000000
-17.176200 0.000000
-17.134400 0.000000
-17.092600 0.000000
-17.050700 0.000000
-17.008900 0.000000
-16.967000 0.000000
-16.925200 0.000000
-16.883400 0.000000
-16.841500 0.000000
-16.799700 0.000000
-16.757800 0.000000
-16.716000 0.000000
-16.674200 0.000000
-16.632300 0.000000
-16.590500 0.000000
-16.548600 0.000000
-16.506800 0.000000
-16.465000 0.000000
-16.423100 0.000000
-16.381300 0.000000
-16.339400 0.000000
-16.297600 0.000000
-16.255800 0.000000
-16.213900 0.000000
-16.172100 0.000000
-16.130300 0.000000
-16.088400 0.000000
-16.046600 0.000000
-16.004700 0.000000
-15.962900 0.000000
-15.921100 0.000000
-15.879200 0.000000
-15.837400 0.000000
-15.795500 0.000000
-15.753700 0.000000
-15.711900 0.000000
-15.670000 0.000000
-15.628200 0.000000
-15.586300 0.000000
-15.544500 0.000000
-15.502700 0.000000
-15.460800 0.000000
-15.419000 0.000000
-15.377100 0.000000
-15.335300 0.000000
-15.293500 0.000000
-15.251600 0.000000
-15.209800 0.000000
-15.167900 0.000000
-15.126100 0.000000
-15.084300 0.000000
-15.042400 0.000000
-15.000600 0.000000
-14.958700 0.000000
-14.916900 0.000000
-14.875100 0.000000
-14.833200 0.000000
-14.791400 0.000000
-14.749500 0.000000
-14.707700 0.000000
-14.665900 0.000000
-14.624000 0.000000
-14.582200 0.000000
-14.540300 0.000000
-14.498500 0.000000
-14.456700 0.000000
-14.414800 0.000000
-14.373000 0.000000
-14.331100 0.000000
-14.289300 0.000000
-14.247500 0.000000
-14.205600 0.000000
-14.163800 0.000000
-14.122000 0.000000
-14.080100 0.000000
-14.038300 0.000000
-13.996400 0.000000
-13.954600 0.000000
-13.912800 0.000000
-13.870900 0.000000
-13.829100 0.000000
-13.787200 0.000000
-13.745400 0.000000
-13.703600 0.000000
-13.661700 0.000000
-13.619900 0.000000
-13.578000 0.000000
-13.536200 0.000000
-13.494400 0.000000
-13.452500 0.000000
-13.410700 0.000000
-13.368800 0.000000
-13.327000 0.000000
-13.285200 0.000000
-13.243300 0.000000
-13.201500 0.000000
-13.159600 0.000000
-13.117800 0.000000
-13.076000 0.000000
-13.034100 0.000000
-12.992300 0.000000
-12.950400 0.000000
-12.908600 0.000000
-12.866800 0.000000
-12.824900 0.000000
-12.783100 0.000000
-12.741200 0.000000
-12.699400 0.000000
-12.657600 0.000000
-12.615700 0.000000
-12.573900 0.000000
-12.532000 0.000000
-12.490200 0.000000
-12.448400 0.000000
-12.406500 0.000000
-12.364700 0.000000
-12.322800 0.000000
-12.281000 0.000000
-12.239200 0.000000
-12.197300 0.000000
-12.155500 0.000000
-12.113600 0.000000
-12.071800 0.000000
-12.030000 0.000000
-11.988100 0.000000
-11.946300 0.000000
-11.904500 0.000000
-11.862600 0.000000
-11.820800 0.000000
-11.778900 0.000000
-11.737100 0.000000
-11.695300 0.000000
-11.653400 0.000000
-11.611600 0.000000
-11.569700 0.000000
-11.527900 0.000000
-11.486100 0.000000
-11.444200 0.000000
-11.402400 0.000000
-11.360500 0.000000
-11.318700 0.000000
-11.276900 0.000000
-11.235000 0.000000
-11.193200 0.000000
-11.151300 0.000000
-11.109500 0.000000
-11.067700 0.000000
-11.025800 0.000000
-10.984000 0.000000
-10.942100 0.000000
-10.900300 0.000000
-10.858500 0.000000
-10.816600 0.000000
-10.774800 0.000000
-10.732900 0.000000
-10.691100 0.000000
-10.649300 0.000000
-10.607400 0.000000
-10.565600 0.000000
-10.523700 0.000000
-10.481900 0.000000
-10.440100 0.000000
-10.398200 0.000000
-10.356400 0.000000
-10.314500 0.000000
-10.272700 0.000000
-10.230900 0.000000
-10.189000 0.000000
-10.147200 0.000000
-10.105300 0.000000
-10.063500 0.000000
-10.021700 0.000000
-9.979800 0.000000
-9.938000 0.000000
-9.896200 0.000000
-9.854300 0.000000
-9.812500 0.000000
-9.770600 0.000000
-9.728800 0.000000
-9.687000 0.000000
-9.645100 0.000000
-9.603300 0.000000
-9.561400 0.000000
-9.519600 0.000000
-9.477800 0.000000
-9.435900 0.000000
-9.394100 0.000000
-9.352200 0.000000
-9.310400 0.000000
-9.268600 0.000000
-9.226700 0.000000
-9.184900 0.000000
-9.143000 0.000000
-9.101200 0.000000
-9.059400 0.000000
-9.017500 0.000000
-8.975700 0.068600
-8.933800 0.126600
-8.892000 0.169700
-8.850200 0.197900
-8.808300 0.223200
-8.766500 0.256300
-8.724600 0.284900
-8.682800 0.312800
-8.641000 0.335800
-8.599100 0.364100
-8.557300 0.395600
-8.515400 0.425400
-8.473600 0.452200
-8.431800 0.490100
-8.389900 0.531500
-8.348100 0.634100
-8.306200 0.697300
-8.264400 0.731700
-8.222600 0.799500
-8.180700 0.861300
-8.138900 1.042700
-8.097000 1.726800
-8.055200 1.836600
-8.013400 1.708600
-7.971500 1.750700
-7.929700 1.711900
-7.887900 1.723700
-7.846000 1.664900
-7.804200 1.631800
-7.762300 1.642800
-7.720500 1.681100
-7.678700 1.703000
-7.636800 1.693300
-7.595000 1.788600
-7.553100 1.938200
-7.511300 2.057600
-7.469500 2.167400
-7.427600 3.273500
-7.385800 5.016500
-7.343900 3.713600
-7.302100 2.937800
-7.260300 6.064900
-7.218400 4.269500
-7.176600 2.973900
-7.134700 1.882900
-7.092900 1.670200
-7.051100 1.552900
-7.009200 1.520900
-6.967400 1.446800
-6.925500 1.415800
-6.883700 1.376100
-6.841900 1.310500
-6.800000 1.344100
-6.758200 1.338200
-6.716300 1.336000
-6.674500 1.467600
-6.632700 1.619700
-6.590800 1.982800
-6.549000 1.726300
-6.507100 1.213200
-6.465300 0.905500
-6.423500 0.786900
-6.381600 0.403600
-6.339800 0.371100
-6.297900 0.337200
-6.256100 0.305200
-6.214300 0.276100
-6.172400 0.252800
-6.130600 0.231300
-6.088700 0.209700
-6.046900 0.187800
-6.005100 0.166600
-5.963200 0.150500
-5.921400 0.133800
-5.879600 0.114500
-5.837700 0.097900
-5.795900 0.069400
-5.754000 0.045000
-5.712200 0.000000
-5.670400 0.000000
-5.628500 0.000000
-5.586700 0.000000
-5.544800 0.000000
-5.503000 0.000000
-5.461200 0.000000
-5.419300 0.000000
-5.377500 0.000000
-5.335600 0.000000
-5.293800 0.000000
-5.252000 0.000000
-5.210100 0.000000
-5.168300 0.000000
-5.126400 0.000000
-5.084600 0.000000
-5.042800 0.000000
-5.000900 0.000000
-4.959100 0.000000
-4.917200 0.000000
-4.875400 0.000000
-4.833600 0.000000
-4.791700 0.000000
-4.749900 0.000000
-4.708000 0.000000
-4.666200 0.000000
-4.624400 0.000000
-4.582500 0.000000
-4.540700 0.000000
-4.498800 0.000000
-4.457000 0.000000
-4.415200 0.000000
-4.373300 0.000000
-4.331500 0.000000
-4.289600 0.000000
-4.247800 0.000000
-4.206000 0.000000
-4.164100 0.000000
-4.122300 0.000000
-4.080400 0.000000
-4.038600 0.000000
-3.996800 0.000000
-3.954900 0.000000
-3.913100 0.000000
-3.871200 0.000000
-3.829400 0.000000
-3.787600 0.000000
-3.745700 0.000000
-3.703900 0.000000
-3.662100 0.000000
-3.620200 0.000000
-3.578400 0.000000
-3.536500 0.000000
-3.494700 0.000000
-3.452900 0.000000
-3.411000 0.000000
-3.369200 0.000000
-3.327300 0.000000
-3.285500 0.000000
-3.243700 0.000000
-3.201800 0.000000
-3.160000 0.000000
-3.118100 0.000000
-3.076300 0.000000
-3.034500 0.000000
-2.992600 0.000000
-2.950800 0.000000
-2.908900 0.000000
-2.867100 0.000000
-2.825300 0.000000
-2.783400 0.000000
-2.741600 0.000000
-2.699700 0.000000
-2.657900 0.000000
-2.616100 0.000000
-2.574200 0.000000
-2.532400 0.000000
-2.490500 0.000000
-2.448700 0.000000
-2.406900 0.000000
-2.365000 0.000000
-2.323200 0.000000
-2.281300 0.000000
-2.239500 0.000000
-2.197700 0.000000
-2.155800 0.000000
-2.114000 0.000000
-2.072100 0.000000
-2.030300 0.000000
-1.988500 0.000000
-1.946600 0.000000
-1.904800 0.000000
-1.862900 0.000000
-1.821100 0.000000
-1.779300 0.000000
-1.737400 0.000000
-1.695600 0.000000
-1.653800 0.000000
-1.611900 0.000000
-1.570100 0.000000
-1.528200 0.000000
-1.486400 0.000000
-1.444600 0.000000
-1.402700 0.000000
-1.360900 0.000000
-1.319000 0.000000
-1.277200 0.000000
-1.235400 0.000000
-1.193500 0.000000
-1.151700 0.000000
-1.109800 0.000000
-1.068000 0.000000
-1.026200 0.000000
-0.984300 0.000000
-0.942500 0.000000
-0.900600 0.000000
-0.858800 0.000000
-0.817000 0.000000
-0.775100 0.000000
-0.733300 0.045300
-0.691400 0.064600
-0.649600 0.086700
-0.607800 0.090200
-0.565900 0.104500
-0.524100 0.119300
-0.482200 0.131400
-0.440400 0.143200
-0.398600 0.152600
-0.356700 0.165000
-0.314900 0.176800
-0.273000 0.188600
-0.231200 0.200500
-0.189400 0.214500
-0.147500 0.233200
-0.105700 0.254700
-0.063800 0.444600
-0.022000 0.750900
0.019800 0.971800
0.061700 1.174000
0.103500 1.346000
0.145400 1.578800
0.187200 1.666400
0.229000 1.743200
0.270900 1.767900
0.312700 1.945700
0.354500 2.154800
0.396400 2.397800
0.438200 2.696800
0.480100 2.940500
0.521900 3.513600
0.563700 3.356400
0.605600 3.795100
0.647400 3.581300
0.689300 3.646200
0.731100 3.788100
0.772900 3.552400
0.814800 3.394400
0.856600 3.233300
0.898500 2.994300
0.940300 2.542500
0.982100 1.950700
1.024000 1.592200
1.065800 1.799700
1.107700 2.706200
1.149500 2.045000
1.191300 2.227000
1.233200 2.311800
1.275000 2.280600
1.316900 2.474000
1.358700 2.235500
1.400500 2.221200
1.442400 2.426700
1.484200 2.492900
1.526100 2.580100
1.567900 2.558100
1.609700 2.596900
1.651600 2.682800
1.693400 2.879800
1.735300 3.641400
1.777100 3.216600
1.818900 3.216700
1.860800 2.672500
1.902600 2.472300
1.944500 2.307400
1.986300 2.439300
2.028100 2.575500
2.070000 2.581500
2.111800 2.404300
2.153700 2.505700
2.195500 2.666800
2.237300 2.608000
2.279200 2.517000
2.321000 2.529600
2.362800 2.425000
2.404700 2.339300
2.446500 2.314200
2.488400 2.158200
2.530200 2.237300
2.572000 2.287600
2.613900 2.173000
2.655700 2.344700
2.697600 2.350600
2.739400 2.509300
2.781200 3.038200
2.823100 4.521700
2.864900 6.038700
2.906800 3.895500
2.948600 4.880300
2.990400 3.492600
3.032300 2.728200
3.074100 2.538600
3.116000 2.472700
3.157800 2.697800
3.199600 3.364300
3.241500 3.443700
3.283300 2.611200
3.325200 2.502300
3.367000 2.438800
3.408800 2.191100
3.450700 2.034500
3.492500 1.922500
3.534400 1.993300
3.576200 1.997800
3.618000 2.082200
3.659900 2.281800
3.701700 2.533500
3.743600 2.943200
3.785400 3.040600
3.827200 3.807100
3.869100 3.040100
3.910900 2.568500
3.952800 2.640700
3.994600 2.637000
4.036400 2.549300
4.078300 2.388100
4.120100 2.299400
4.162000 2.369600
4.203800 2.334300
4.245600 2.319600
4.287500 2.356500
4.329300 2.362100
4.371200 2.440800
4.413000 2.688600
4.454800 2.607200
4.496700 2.581200
4.538500 1.960000
4.580300 1.429100
4.622200 1.488300
4.664000 1.672300
4.705900 1.809100
4.747700 2.069400
4.789500 2.278200
4.831400 2.625200
4.873200 3.254800
4.915100 3.252200
4.956900 2.779700
4.998700 2.595500
5.040600 2.654600
5.082400 2.205600
5.124300 2.185900
5.166100 2.366000
5.207900 2.298900
5.249800 2.148200
5.291600 2.151900
5.333500 2.163900
5.375300 1.951200
5.417100 1.699400
5.459000 2.040700
5.500800 2.707000
5.542700 3.304000
5.584500 3.787600
5.626300 3.788600
5.668200 3.952100
5.710000 3.551700
5.751900 3.302400
5.793700 3.335500
5.835500 3.349500
5.877400 3.173700
5.919200 3.372000
5.961100 3.578600
6.002900 3.345700
6.044700 3.251200
6.086600 3.015800
6.128400 2.939100
6.170300 3.070000
6.212100 3.324100
6.253900 3.650400
6.295800 3.436600
6.337600 3.994700
6.379500 4.025800
6.421300 4.022200
6.463100 3.897600
6.505000 3.894100
6.546800 3.778200
6.588600 4.298800
6.630500 4.980900
6.672300 5.013800
6.714200 5.023000
6.756000 4.233700
6.797800 3.646300
6.839700 3.144400
6.881500 2.776900
6.923400 2.857700
6.965200 2.931700
7.007000 2.869800
7.048900 2.845500
7.090700 3.064300
7.132600 2.993800
7.174400 2.975000
7.216200 3.020300
7.258100 3.325100
7.299900 3.152500
7.341800 2.958100
7.383600 2.736200
7.425400 2.645200
7.467300 2.651400
7.509100 2.793600
7.551000 3.270600
7.592800 3.605900
7.634600 3.657400
7.676500 3.700000
7.718300 3.866300
7.760200 4.614700
7.802000 3.355900
7.843800 2.846500
7.885700 2.236500
7.927500 2.287200
7.969400 2.479100
8.011200 2.453700
8.053000 2.333500
8.094900 2.317300
8.136700 2.327300
8.178600 2.324500
8.220400 2.325900
8.262200 2.357100
8.304100 2.364700
8.345900 2.348400
8.387800 2.338100
8.429600 2.345600
8.471400 2.340300
8.513300 2.367400
8.555100 2.265300
8.596900 2.350300
8.638800 2.159300
8.680600 2.504200
8.722500 3.046900
8.764300 2.610800
8.806100 2.473800
8.848000 2.255200
8.889800 2.133200
8.931700 2.183200
8.973500 2.333500
9.015300 2.647000
9.057200 2.773800
9.099000 2.711600
9.140900 2.559700
9.182700 2.428000
9.224500 2.153500
9.266400 1.962000
9.308200 1.830300
9.350100 1.722400
9.391900 1.666600
9.433700 1.659700
9.475600 1.625700
9.517400 1.564100
9.559300 1.465500
9.601100 1.347300
9.642900 1.337200
9.684800 1.338600
9.726600 1.334500
9.768500 1.315500
9.810300 1.307100
9.852100 1.305000
9.894000 1.302400
9.935800 1.269100
9.977700 1.214300
10.019500 1.262800
10.061300 1.286200
10.103200 1.263900
10.145000 1.246200
10.186900 1.264600
10.228700 1.255600
10.270500 1.286900
10.312400 1.315000
10.354200 1.392400
10.396100 1.647600
10.437900 1.062000
10.479700 1.052200
10.521600 0.923400
10.563400 0.899700
10.605200 0.798400
10.647100 0.697000
10.688900 0.666500
10.730800 0.640100
10.772600 0.623800
10.814400 0.624900
10.856300 0.618800
10.898100 0.641200
10.940000 0.713200
10.981800 0.748000
11.023600 0.646900
11.065500 1.296300
11.107300 1.134300
11.149200 0.693300
11.191000 0.642500
11.232800 0.776900
11.274700 0.825700
11.316500 0.877600
11.358400 0.916600
11.400200 0.999800
11.442000 1.167200
11.483900 1.539800
11.525700 1.457100
11.567600 1.451200
11.609400 1.541900
11.651200 1.766400
11.693100 2.167700
11.734900 2.153300
11.776800 2.181300
11.818600 2.190200
11.860400 2.198600
11.902300 2.259500
11.944100 2.307300
11.986000 2.366100
12.027800 2.541300
12.069600 2.580000
12.111500 2.640100
12.153300 2.938300
12.195200 2.601500
12.237000 3.781300
12.278800 2.311600
12.320700 2.384100
12.362500 2.563800
12.404400 2.376100
12.446200 2.624800
12.488000 2.828600
12.529900 2.400400
12.571700 2.369200
12.613600 2.142400
12.655400 1.840900
12.697200 1.471700
12.739100 1.271800
12.780900 0.999300
12.822700 0.957000
12.864600 0.928400
12.906400 0.904900
12.948300 0.893300
12.990100 0.862300
13.031900 0.833500
13.073800 0.806300
13.115600 0.777400
13.157500 0.767300
13.199300 0.756800
13.241100 0.760400
13.283000 0.761200
13.324800 0.778600
13.366700 0.799300
13.408500 0.847500
13.450300 1.117900
13.492200 0.914200
13.534000 0.952500
13.575900 0.982600
13.617700 0.898200
13.659500 0.827100
13.701400 0.738500
13.743200 0.749500
13.785100 0.749600
13.826900 0.798000
13.868700 0.838100
13.910600 0.912600
13.952400 1.087400
13.994300 1.007200
14.036100 1.208500
14.077900 0.950400
14.119800 0.947300
14.161600 0.952800
14.203500 0.910900
14.245300 0.894600
14.287100 0.888200
14.329000 0.895900
14.370800 0.907600
14.412700 0.927400
14.454500 0.953100
14.496300 1.000000
14.538200 1.239000
14.580000 1.097700
14.621900 1.126700
14.663700 1.150100
14.705500 1.189700
14.747400 1.196300
14.789200 1.220100
14.831000 1.264300
14.872900 1.425900
14.914700 1.457900
14.956600 1.524100
14.998400 1.477100
15.040200 1.479700
15.082100 1.483200
15.123900 1.494600
15.165800 1.506400
15.207600 1.504700
15.249400 1.514000
15.291300 1.521500
15.333100 1.530700
15.375000 1.515200
15.416800 1.519400
15.458600 1.521400
15.500500 1.528300
15.542300 1.539600
15.584200 1.529200
15.626000 1.517400
15.667800 1.496300
15.709700 1.480100
15.751500 1.461600
15.793400 1.485800
15.835200 1.548700
15.877000 1.656100
15.918900 1.763700
15.960700 1.804200
16.002600 1.893600
16.044400 1.955000
16.086200 2.332800
16.128100 2.467100
16.169900 2.526000
16.211800 2.408800
16.253600 2.508000
16.295400 2.194800
16.337300 2.230000
16.379100 2.287100
16.421000 1.369500
16.462800 0.990500
16.504600 0.760800
16.546500 0.636400
16.588300 0.553500
16.630200 0.434700
16.672000 0.281000
16.713800 0.183700
16.755700 0.106500
16.797500 0.000000
16.839300 0.000000
16.881200 0.000000
16.923000 0.000000
16.964900 0.066700
17.006700 0.103000
17.048500 0.123800
17.090400 0.123600
17.132200 0.144400
17.174100 0.166200
17.215900 0.192100
17.257700 0.232400
17.299600 0.257300
17.341400 0.345800
17.383300 0.402000
17.425100 0.479400
17.466900 0.544000
17.508800 0.556000
17.550600 0.571900
17.592500 0.604700
17.634300 0.638100
17.676100 0.675500
17.718000 0.723300
17.759800 0.779300
17.801700 0.886600
17.843500 0.980300
17.885300 1.110800
17.927200 1.285800
17.969000 1.366100
18.010900 1.671500
18.052700 2.171800
18.094500 3.538200
18.136400 168.015300
18.178200 2.323600
18.220100 1.696400
18.261900 1.544000
18.303700 1.572300
18.345600 1.373300
18.387400 1.186000
18.429300 1.183400
18.471100 1.132500
18.512900 0.951800
18.554800 0.851100
18.596600 0.782100
18.638500 0.724000
18.680300 0.664500
18.722100 0.708300
18.764000 0.737900
18.805800 0.718200
18.847600 0.767000
18.889500 0.822000
18.931300 0.921600
18.973200 0.975600
19.015000 0.975300
19.056800 0.954700
19.098700 0.942700
19.140500 0.935900
19.182400 0.924800
19.224200 0.927800
19.266000 0.929500
19.307900 0.973700
19.349700 1.000700
19.391600 1.006700
19.433400 1.022500
19.475200 1.031400
19.517100 1.059100
19.558900 1.074000
19.600800 1.068700
19.642600 1.073600
19.684400 1.071600
19.726300 1.066600
19.768100 1.060800
19.810000 1.058900
19.851800 1.075100
19.893600 1.090600
19.935500 1.112300
19.977300 1.127100
20.019200 1.140600
20.061000 1.133800
20.102800 1.121500
20.144700 1.092100
20.186500 1.093800
20.228400 1.095000
20.270200 1.095600
20.312000 1.102800
20.353900 1.070400
20.395700 1.052000
20.437600 1.057900
20.479400 1.026600
20.521200 1.007500
20.563100 0.990300
20.604900 1.026300
20.646800 1.048300
20.688600 1.034000
20.730400 1.005100
20.772300 0.952400
20.814100 0.921700
20.856000 0.917400
20.897800 0.942400
20.939600 0.904600
20.981500 0.859200
21.023300 0.839900
21.065100 0.823700
21.107000 0.870700
21.148800 0.878600
21.190700 0.889200
21.232500 0.878800
21.274300 0.889500
21.316200 0.904900
21.358000 0.918700
21.399900 0.945300
21.441700 0.946700
21.483500 0.942200
21.525400 0.962500
21.567200 0.962100
21.609100 0.923400
21.650900 0.921800
21.692700 0.927200
21.734600 0.909200
21.776400 0.894800
21.818300 0.879100
21.860100 0.861400
21.901900 0.855500
21.943800 0.872100
21.985600 0.884400
22.027500 0.910000
22.069300 0.977300
22.111100 1.064000
22.153000 1.490400
22.194800 1.882200
22.236700 2.609900
22.278500 2.779800
22.320300 2.734600
22.362200 2.230800
22.404000 2.032300
22.445900 1.981700
22.487700 1.976800
22.529500 2.035200
22.571400 2.068200
22.613200 2.092800
22.655100 2.182400
22.696900 2.094400
22.738700 2.241500
22.780600 2.278400
22.822400 2.320500
22.864300 2.423100
22.906100 2.311400
22.947900 2.334800
22.989800 2.303700
23.031600 2.286400
23.073400 2.270700
23.115300 2.620800
23.157100 2.414000
23.199000 2.514500
23.240800 2.600900
23.282600 2.654500
23.324500 2.831600
23.366300 3.395200
23.408200 2.713200
23.450000 1.990300
23.491800 1.938200
23.533700 1.873500
23.575500 1.456300
23.617400 0.884500
23.659200 0.768100
23.701000 0.904600
23.742900 1.140300
23.784700 1.345600
23.826600 1.474700
23.868400 1.558800
23.910200 1.689500
23.952100 1.755800
23.993900 1.810100
24.035800 1.877700
24.077600 1.998200
24.119400 2.325600
24.161300 2.216700
24.203100 2.231300
24.245000 2.529800
24.286800 2.347600
24.328600 2.425200
24.370500 2.628800
24.412300 2.774600
24.454200 2.969700
24.496000 3.164400
24.537800 3.079200
24.579700 2.680500
24.621500 2.369000
24.663400 1.889800
24.705200 1.587200
24.747000 1.982200
24.788900 1.427800
24.830700 1.429900
24.872600 1.593600
24.914400 1.753300
24.956200 1.525500
24.998100 1.589900
25.039900 1.713600
25.081700 2.059300
25.123600 2.207400
25.165400 2.797400
25.207300 2.601500
25.249100 2.397000
25.290900 2.287500
25.332800 2.350200
25.374600 3.024200
25.416500 2.730600
25.458300 2.351100
25.500100 2.275300
25.542000 2.331100
25.583800 2.335600
25.625700 2.412400
25.667500 2.523900
25.709300 2.710000
25.751200 2.628500
25.793000 2.570000
25.834900 2.550900
25.876700 2.604500
25.918500 2.487400
25.960400 2.472000
26.002200 2.349300
26.044100 2.220600
26.085900 2.254400
26.127700 2.655600
26.169600 2.086600
26.211400 1.894200
26.253300 1.771500
26.295100 1.724700
26.336900 1.604300
26.378800 1.672100
26.420600 1.481300
26.462500 1.448900
26.504300 1.528100
26.546100 1.313300
26.588000 1.288100
26.629800 1.287300
26.671700 1.367000
26.713500 1.383100
26.755300 1.479500
26.797200 1.536900
26.839000 1.480700
26.880900 1.492000
26.922700 1.628000
26.964500 1.427100
27.006400 1.365300
27.048200 1.385600
27.090000 1.354600
27.131900 1.394000
27.173700 1.455800
27.215600 1.496000
27.257400 1.624300
27.299200 1.558400
27.341100 1.696800
27.382900 1.811900
27.424800 1.932900
27.466600 2.014900
27.508400 2.064400
27.550300 2.082700
27.592100 1.887100
27.634000 1.861000
27.675800 1.782800
27.717600 1.753700
27.759500 1.708200
27.801300 1.718100
27.843200 1.738400
27.885000 1.782200
27.926800 1.784300
27.968700 1.793800
28.010500 1.811500
28.052400 1.781400
28.094200 1.694500
28.136000 1.461800
28.177900 1.356500
28.219700 1.274900
28.261600 1.260600
28.303400 1.087600
28.345200 0.976700
28.387100 0.926900
28.428900 1.094100
28.470800 1.050300
28.512600 1.088000
28.554400 1.137200
28.596300 1.171600
28.638100 1.236300
28.680000 1.275100
28.721800 1.182200
28.763600 1.178800
28.805500 1.196400
28.847300 1.206300
28.889200 1.238800
28.931000 1.274300
28.972800 1.280600
29.014700 1.322700
29.056500 1.353100
29.098400 1.389000
29.140200 1.417200
29.182000 1.575500
29.223900 1.951100
29.265700 2.547400
29.307500 2.064200
29.349400 2.080200
29.391200 2.157200
29.433100 2.187600
29.474900 2.307100
29.516700 2.456300
29.558600 2.741100
29.600400 2.922300
29.642300 3.011700
29.684100 2.904200
29.725900 2.902000
29.767800 2.702100
29.809600 2.638300
29.851500 2.430200
29.893300 2.121900
29.935100 1.923400
29.977000 1.869200
30.018800 1.824000
30.060700 1.831300
30.102500 1.821900
30.144300 1.788500
30.186200 1.738400
30.228000 1.688000
30.269900 1.677300
30.311700 1.633400
30.353500 1.598700
30.395400 1.711300
30.437200 1.581100
30.479100 1.381200
30.520900 1.334200
30.562700 1.319400
30.604600 1.305400
30.646400 1.338900
30.688300 1.256200
30.730100 1.226700
30.771900 1.170600
30.813800 1.202000
30.855600 1.196400
30.897500 1.200500
30.939300 1.308700
30.981100 1.395600
31.023000 1.360500
31.064800 1.252800
31.106700 1.266600
31.148500 1.292600
31.190300 1.361700
31.232200 1.407300
31.274000 1.485900
31.315800 1.543700
31.357700 1.604600
31.399500 1.677400
31.441400 1.661500
31.483200 1.742900
31.525000 1.791500
31.566900 1.672500
31.608700 1.509900
31.650600 1.275500
31.692400 1.072400
31.734200 0.964200
31.776100 0.962600
31.817900 0.985000
31.859800 1.020100
31.901600 1.070300
31.943400 1.112300
31.985300 1.130600
32.027100 1.164500
32.069000 1.207800
32.110800 1.249100
32.152600 1.272300
32.194500 1.285200
32.236300 1.275600
32.278200 1.331500
32.320000 1.362600
32.361800 1.360300
32.403700 1.367500
32.445500 1.555700
32.487400 1.425400
32.529200 1.292800
32.571000 1.267900
32.612900 1.254800
32.654700 1.227200
32.696600 1.126800
32.738400 1.051000
32.780200 1.015100
32.822100 0.970900
32.863900 0.939200
32.905800 0.920500
32.947600 0.882100
32.989400 0.869800
33.031300 0.864100
33.073100 0.913900
33.115000 0.977500
33.156800 0.840200
33.198600 0.860200
33.240500 0.895200
33.282300 0.965100
33.324100 1.167300
33.366000 1.407000
33.407800 1.512400
33.449700 1.442100
33.491500 1.537400
33.533300 1.579600
33.575200 1.554500
33.617000 1.570100
33.658900 1.644600
33.700700 1.667300
33.742500 1.598300
33.784400 1.617300
33.826200 1.545400
33.868100 1.448700
33.909900 1.382900
33.951700 1.309900
33.993600 1.235800
34.035400 1.278100
34.077300 1.200500
34.119100 1.162500
34.160900 1.094600
34.202800 1.095800
34.244600 1.105600
34.286500 1.163700
34.328300 1.234500
34.370100 1.303000
34.412000 1.379200
34.453800 1.456100
34.495700 1.499000
34.537500 1.554700
34.579300 1.582200
34.621200 1.649900
34.663000 1.739900
34.704900 1.709200
34.746700 1.721000
34.788500 1.737800
34.830400 1.710300
34.872200 1.711500
34.914100 1.794900
34.955900 1.846900
34.997700 1.812400
35.039600 1.744000
35.081400 1.701000
35.123300 1.677300
35.165100 1.669400
35.206900 1.683500
35.248800 1.700500
35.290600 1.735100
35.332400 1.752000
35.374300 1.808900
35.416100 1.897800
35.458000 2.003700
35.499800 2.110500
35.541600 2.414100
35.583500 2.325800
35.625300 2.311500
35.667200 2.458800
35.709000 2.386900
35.750800 2.345700
35.792700 2.369700
35.834500 2.107300
35.876400 2.020100
35.918200 2.107700
35.960000 2.156800
36.001900 2.422800
36.043700 2.103900
36.085600 2.089100
36.127400 2.204600
36.169200 2.078200
36.211100 2.249800
36.252900 2.270800
36.294800 2.434100
36.336600 2.560800
36.378400 2.620200
36.420300 2.467900
36.462100 2.294100
36.504000 2.181200
36.545800 2.284300
36.587600 2.300200
36.629500 2.310900
36.671300 2.399500
36.713200 2.544300
36.755000 2.529600
36.796800 2.622300
36.838700 2.668600
36.880500 2.686700
36.922400 2.751000
36.964200 2.704100
37.006000 2.875100
37.047900 2.461900
37.089700 2.324000
37.131600 2.317100
37.173400 2.297500
37.215200 2.219600
37.257100 2.223600
37.298900 2.243200
37.340800 2.278900
37.382600 2.325800
37.424400 2.431800
37.466300 2.548500
37.508100 2.666600
37.549900 2.744800
37.591800 2.995400
37.633600 2.641300
37.675500 2.736100
37.717300 2.591500
37.759100 2.489900
37.801000 2.267800
37.842800 2.240300
37.884700 2.332900
37.926500 2.325600
37.968300 2.161500
38.010200 2.238400
38.052000 2.532800
38.093900 2.571000
38.135700 2.555800
38.177500 2.580300
38.219400 2.615900
38.261200 2.632300
38.303100 2.772300
38.344900 2.673100
38.386700 2.530400
38.428600 2.468300
38.470400 2.346500
38.512300 2.235400
38.554100 2.159400
38.595900 2.159700
38.637800 2.204800
38.679600 2.172100
38.721500 2.258900
38.763300 2.164800
38.805100 2.110900
38.847000 2.079900
38.888800 2.181900
38.930700 2.343600
38.972500 2.285600
39.014300 2.438600
39.056200 2.393100
39.098000 2.420000
39.139900 2.262000
39.181700 2.134800
39.223500 2.053000
39.265400 1.947800
39.307200 1.974200
39.349100 1.831800
39.390900 1.846800
39.432700 1.882800
39.474600 2.005800
39.516400 2.130000
39.558200 2.235500
39.600100 2.284500
39.641900 2.327300
39.683800 2.349400
39.725600 2.423800
39.767400 2.418800
39.809300 2.343500
39.851100 2.313700
39.893000 2.090700
39.934800 2.045000
39.976600 1.987200
40.018500 1.972400
40.060300 1.903100
40.102200 1.859100
40.144000 1.766500
40.185800 1.687400
40.227700 1.618900
40.269500 1.530800
40.311400 1.676300
40.353200 1.563400
40.395000 1.296000
40.436900 1.259200
40.478700 1.131600
40.520600 1.165200
40.562400 1.199800
40.604200 1.222000
40.646100 1.461800
40.687900 1.135000
40.729800 0.889500
40.771600 0.804300
40.813400 0.703500
40.855300 0.683900
40.897100 0.658300
40.939000 0.629900
40.980800 0.607600
41.022600 0.615100
41.064500 0.602800
41.106300 0.582500
41.148200 0.565500
41.190000 0.548700
41.231800 0.529900
41.273700 0.502300
41.315500 0.475900
41.357400 0.456400
41.399200 0.433000
41.441000 0.426800
41.482900 0.418400
41.524700 0.409200
41.566500 0.389000
41.608400 0.369700
41.650200 0.350400
41.692100 0.332500
41.733900 0.313100
41.775700 0.281800
41.817600 0.252300
41.859400 0.236800
41.901300 0.225600
41.943100 0.214700
41.984900 0.204400
42.026800 0.194500
42.068600 0.186100
42.110500 0.178400
42.152300 0.171300
42.194100 0.165200
42.236000 0.160300
42.277800 0.155500
42.319700 0.150800
42.361500 0.146300
42.403300 0.142000
42.445200 0.138000
42.487000 0.132800
42.528900 0.127700
42.570700 0.195000
42.612500 0.169900
42.654400 0.112700
42.696200 0.102300
42.738100 0.096500
42.779900 0.090800
42.821700 0.085300
42.863600 0.080000
42.905400 0.074800
42.947300 0.069700
42.989100 0.064900
43.030900 0.060200
43.072800 0.057800
43.114600 0.052800
43.156500 0.048000
43.198300 0.052900
43.240100 0.046100
43.282000 0.028400
43.323800 0.020800
43.365700 0.018200
43.407500 0.015600
43.449300 0.013300
43.491200 0.000000
43.533000 0.000000
43.574800 0.000000
43.616700 0.000000
43.658500 0.000000
43.700400 0.000000
43.742200 0.000000
43.784000 0.000000
43.825900 0.000000
43.867700 0.000000
43.909600 0.000000
43.951400 0.000000
43.993200 0.000000
44.035100 0.000000
44.076900 0.000000
44.118800 0.000000
44.160600 0.000000
44.202400 0.000000
44.244300 0.000000
44.286100 0.000000
44.328000 0.000000
44.369800 0.000000
44.411600 0.000000
44.453500 0.000000
44.495300 0.000000
44.537200 0.000000
44.579000 0.000000
44.620800 0.000000
44.662700 0.000000
44.704500 0.000000
44.746400 0.000000
44.788200 0.000000
44.830000 0.000000
44.871900 0.000000
44.913700 0.000000
44.955600 0.000000
44.997400 0.000000
45.039200 0.000000
45.081100 0.000000
45.122900 0.000000
45.164800 0.000000
45.206600 0.000000
45.248400 0.000000
45.290300 0.000000
45.332100 0.000000
45.374000 0.000000
45.415800 0.000000
45.457600 0.000000
45.499500 0.000000
45.541300 0.000000
45.583200 0.000000
45.625000 0.000000
45.666800 0.000000
45.708700 0.000000
45.750500 0.000000
45.792300 0.000000
45.834200 0.000000
45.876000 0.000000
45.917900 0.000000
45.959700 0.000000
46.001500 0.000000
46.043400 0.000000
46.085200 0.000000
46.127100 0.000000
46.168900 0.000000
46.210700 0.000000
46.252600 0.000000
46.294400 0.000000
46.336300 0.000000
46.378100 0.000000
46.419900 0.000000
46.461800 0.000000
46.503600 0.000000
46.545500 0.000000
46.587300 0.000000
46.629100 0.000000
46.671000 0.000000
46.712800 0.000000
46.754700 0.000000
46.796500 0.000000
46.838300 0.000000
46.880200 0.000000
46.922000 0.000000
46.963900 0.000000
47.005700 0.000000
47.047500 0.000000
47.089400 0.000000
47.131200 0.000000
47.173100 0.000000
47.214900 0.000000
47.256700 0.000000
e
