set title 'mp-1187668 - Density of States'
set xlabel 'Energy (eV)'
set ylabel 'DOS (states/eV)'
set grid
set xrange [-10:10]
set yrange [0:310.817]
set xzeroaxis lt -1
set terminal png size 800,600
set output 'mp-1187668_dos_gnuplot.png'
plot '-' using 1:2 with lines title 'DOS'
-33.732700 0.000000
-33.693400 0.000000
-33.654000 0.000000
-33.614600 0.000000
-33.575300 0.000000
-33.535900 0.000000
-33.496600 0.000000
-33.457200 0.000000
-33.417800 0.000000
-33.378500 0.000000
-33.339100 0.000000
-33.299800 0.000000
-33.260400 0.000000
-33.221100 0.000000
-33.181700 0.000000
-33.142300 0.000000
-33.103000 0.000000
-33.063600 0.000000
-33.024300 0.000000
-32.984900 0.000000
-32.945500 0.000000
-32.906200 0.000000
-32.866800 0.000000
-32.827500 0.000000
-32.788100 0.000000
-32.748700 0.000000
-32.709400 0.000000
-32.670000 0.000000
-32.630700 0.000000
-32.591300 0.000000
-32.552000 0.000000
-32.512600 0.000000
-32.473200 0.000000
-32.433900 0.000000
-32.394500 0.000000
-32.355200 0.000000
-32.315800 0.000000
-32.276400 0.000000
-32.237100 0.000000
-32.197700 0.000000
-32.158400 0.000000
-32.119000 0.000000
-32.079600 0.000000
-32.040300 0.000000
-32.000900 0.000000
-31.961600 0.000000
-31.922200 0.000000
-31.882900 0.000000
-31.843500 0.000000
-31.804100 0.000000
-31.764800 0.000000
-31.725400 0.000000
-31.686100 0.000000
-31.646700 0.000000
-31.607300 0.000000
-31.568000 0.000000
-31.528600 0.000000
-31.489300 0.000000
-31.449900 0.000000
-31.410500 0.000000
-31.371200 0.000000
-31.331800 0.000000
-31.292500 0.000000
-31.253100 0.000000
-31.213800 0.000000
-31.174400 0.000000
-31.135000 0.000000
-31.095700 0.000000
-31.056300 0.000000
-31.017000 0.000000
-30.977600 0.000000
-30.938200 0.000000
-30.898900 0.000000
-30.859500 0.000000
-30.820200 0.000000
-30.780800 0.000000
-30.741400 0.000000
-30.702100 0.000000
-30.662700 0.000000
-30.623400 0.000000
-30.584000 0.000000
-30.544700 0.000000
-30.505300 0.000000
-30.465900 0.000000
-30.426600 0.000000
-30.387200 0.000000
-30.347900 0.000000
-30.308500 0.000000
-30.269100 0.000000
-30.229800 0.000000
-30.190400 0.000000
-30.151100 0.024300
-30.111700 0.967100
-30.072300 1.492500
-30.033000 1.959800
-29.993600 2.424500
-29.954300 2.910100
-29.914900 3.463400
-29.875600 4.169900
-29.836200 5.265700
-29.796800 6.948200
-29.757500 6.894100
-29.718100 5.846400
-29.678800 4.264000
-29.639400 2.659900
-29.600000 3.481000
-29.560700 11.660000
-29.521300 11.592900
-29.482000 9.920200
-29.442600 9.632700
-29.403300 10.506100
-29.363900 14.074200
-29.324500 16.376700
-29.285200 10.004400
-29.245800 2.403700
-29.206500 0.000000
-29.167100 0.000000
-29.127700 0.000000
-29.088400 0.000000
-29.049000 0.000000
-29.009700 0.000000
-28.970300 0.000000
-28.930900 0.000000
-28.891600 0.000000
-28.852200 0.000000
-28.812900 0.000000
-28.773500 0.000000
-28.734200 0.000000
-28.694800 0.000000
-28.655400 0.000000
-28.616100 0.000000
-28.576700 0.000000
-28.537400 0.000000
-28.498000 0.000000
-28.458600 0.000000
-28.419300 0.000000
-28.379900 0.000000
-28.340600 0.000000
-28.301200 0.000000
-28.261800 0.000000
-28.222500 0.000000
-28.183100 0.000000
-28.143800 0.000000
-28.104400 0.000000
-28.065100 0.000000
-28.025700 0.000000
-27.986300 0.000000
-27.947000 0.000000
-27.907600 0.000000
-27.868300 0.000000
-27.828900 0.000000
-27.789500 0.000000
-27.750200 0.000000
-27.710800 0.000000
-27.671500 0.000000
-27.632100 0.000000
-27.592700 0.000000
-27.553400 0.000000
-27.514000 0.000000
-27.474700 0.000000
-27.435300 0.000000
-27.396000 0.000000
-27.356600 0.000000
-27.317200 0.000000
-27.277900 0.000000
-27.238500 0.000000
-27.199200 0.000000
-27.159800 0.000000
-27.120400 0.000000
-27.081100 0.000000
-27.041700 0.000000
-27.002400 0.000000
-26.963000 0.000000
-26.923600 0.000000
-26.884300 0.000000
-26.844900 0.000000
-26.805600 0.000000
-26.766200 0.000000
-26.726900 0.000000
-26.687500 0.000000
-26.648100 0.000000
-26.608800 0.000000
-26.569400 0.000000
-26.530100 0.000000
-26.490700 0.000000
-26.451300 0.000000
-26.412000 0.000000
-26.372600 0.000000
-26.333300 0.000000
-26.293900 0.000000
-26.254500 0.000000
-26.215200 0.000000
-26.175800 0.000000
-26.136500 0.000000
-26.097100 0.000000
-26.057800 0.000000
-26.018400 0.000000
-25.979000 0.000000
-25.939700 0.000000
-25.900300 0.000000
-25.861000 0.000000
-25.821600 0.000000
-25.782200 0.000000
-25.742900 0.000000
-25.703500 0.000000
-25.664200 0.000000
-25.624800 0.000000
-25.585400 0.000000
-25.546100 0.000000
-25.506700 0.000000
-25.467400 0.000000
-25.428000 0.000000
-25.388700 0.000000
-25.349300 0.000000
-25.309900 0.000000
-25.270600 0.000000
-25.231200 0.000000
-25.191900 0.000000
-25.152500 0.000000
-25.113100 0.000000
-25.073800 0.000000
-25.034400 0.000000
-24.995100 0.000000
-24.955700 0.000000
-24.916300 0.000000
-24.877000 0.000000
-24.837600 0.000000
-24.798300 0.000000
-24.758900 0.000000
-24.719600 0.000000
-24.680200 0.000000
-24.640800 0.000000
-24.601500 0.000000
-24.562100 0.000000
-24.522800 0.000000
-24.483400 0.000000
-24.444000 0.000000
-24.404700 0.000000
-24.365300 0.000000
-24.326000 0.000000
-24.286600 0.000000
-24.247300 0.000000
-24.207900 0.000000
-24.168500 0.000000
-24.129200 0.000000
-24.089800 0.000000
-24.050500 0.000000
-24.011100 0.000000
-23.971700 0.000000
-23.932400 0.000000
-23.893000 0.000000
-23.853700 0.000000
-23.814300 0.000000
-23.774900 0.000000
-23.735600 0.000000
-23.696200 0.000000
-23.656900 0.000000
-23.617500 0.000000
-23.578200 0.000000
-23.538800 0.000000
-23.499400 0.000000
-23.460100 0.000000
-23.420700 0.000000
-23.381400 0.000000
-23.342000 0.000000
-23.302600 0.000000
-23.263300 0.000000
-23.223900 0.000000
-23.184600 0.000000
-23.145200 0.000000
-23.105800 0.000000
-23.066500 0.000000
-23.027100 0.000000
-22.987800 0.000000
-22.948400 0.000000
-22.909100 0.000000
-22.869700 0.000000
-22.830300 0.000000
-22.791000 0.000000
-22.751600 0.000000
-22.712300 0.000000
-22.672900 0.000000
-22.633500 0.000000
-22.594200 0.000000
-22.554800 0.000000
-22.515500 0.000000
-22.476100 0.000000
-22.436700 0.000000
-22.397400 0.000000
-22.358000 0.000000
-22.318700 0.000000
-22.279300 0.000000
-22.240000 0.000000
-22.200600 0.000000
-22.161200 0.000000
-22.121900 0.000000
-22.082500 0.000000
-22.043200 0.000000
-22.003800 0.000000
-21.964400 0.000000
-21.925100 0.000000
-21.885700 0.000000
-21.846400 0.000000
-21.807000 0.000000
-21.767600 0.000000
-21.728300 0.000000
-21.688900 0.000000
-21.649600 0.000000
-21.610200 0.000000
-21.570900 0.000000
-21.531500 0.000000
-21.492100 0.000000
-21.452800 0.000000
-21.413400 0.000000
-21.374100 0.000000
-21.334700 0.000000
-21.295300 0.000000
-21.256000 0.000000
-21.216600 0.000000
-21.177300 0.000000
-21.137900 0.000000
-21.098500 0.000000
-21.059200 0.000000
-21.019800 0.000000
-20.980500 0.000000
-20.941100 0.000000
-20.901800 0.000000
-20.862400 0.000000
-20.823000 0.000000
-20.783700 0.000000
-20.744300 0.000000
-20.705000 0.000000
-20.665600 0.000000
-20.626200 0.000000
-20.586900 0.000000
-20.547500 0.000000
-20.508200 0.000000
-20.468800 0.000000
-20.429400 0.000000
-20.390100 0.000000
-20.350700 0.000000
-20.311400 0.000000
-20.272000 0.000000
-20.232700 0.000000
-20.193300 0.000000
-20.153900 0.000000
-20.114600 0.000000
-20.075200 0.000000
-20.035900 0.000000
-19.996500 0.000000
-19.957100 0.000000
-19.917800 0.000000
-19.878400 0.000000
-19.839100 0.000000
-19.799700 0.000000
-19.760300 0.000000
-19.721000 0.000000
-19.681600 0.000000
-19.642300 0.000000
-19.602900 0.000000
-19.563600 0.000000
-19.524200 0.000000
-19.484800 0.000000
-19.445500 0.000000
-19.406100 0.000000
-19.366800 0.000000
-19.327400 0.000000
-19.288000 0.000000
-19.248700 0.000000
-19.209300 0.000000
-19.170000 0.000000
-19.130600 0.000000
-19.091200 0.000000
-19.051900 0.000000
-19.012500 0.000000
-18.973200 0.000000
-18.933800 0.000000
-18.894500 0.000000
-18.855100 0.000000
-18.815700 0.000000
-18.776400 0.000000
-18.737000 0.000000
-18.697700 0.000000
-18.658300 0.000000
-18.618900 0.000000
-18.579600 0.000000
-18.540200 0.000000
-18.500900 0.000000
-18.461500 0.000000
-18.422200 0.000000
-18.382800 0.000000
-18.343400 0.000000
-18.304100 0.000000
-18.264700 0.000000
-18.225400 0.000000
-18.186000 0.000000
-18.146600 0.000000
-18.107300 0.000000
-18.067900 0.000000
-18.028600 0.000000
-17.989200 0.000000
-17.949800 0.000000
-17.910500 0.000000
-17.871100 0.000000
-17.831800 0.000000
-17.792400 0.000000
-17.753100 0.000000
-17.713700 0.000000
-17.674300 0.000000
-17.635000 0.000000
-17.595600 0.000000
-17.556300 0.000000
-17.516900 0.000000
-17.477500 0.000000
-17.438200 0.000000
-17.398800 0.000000
-17.359500 0.000000
-17.320100 0.000000
-17.280700 0.000000
-17.241400 0.000000
-17.202000 0.000000
-17.162700 0.000000
-17.123300 0.000000
-17.084000 0.000000
-17.044600 0.000000
-17.005200 0.000000
-16.965900 0.000000
-16.926500 0.000000
-16.887200 0.000000
-16.847800 0.000000
-16.808400 0.000000
-16.769100 0.000000
-16.729700 0.000000
-16.690400 0.000000
-16.651000 0.000000
-16.611600 0.000000
-16.572300 0.000000
-16.532900 0.000000
-16.493600 0.000000
-16.454200 0.000000
-16.414900 0.000000
-16.375500 0.000000
-16.336100 0.000000
-16.296800 0.000000
-16.257400 0.000000
-16.218100 0.000000
-16.178700 0.000000
-16.139300 0.000000
-16.100000 0.000000
-16.060600 0.000000
-16.021300 0.000000
-15.981900 0.000000
-15.942500 0.000000
-15.903200 0.000000
-15.863800 0.000000
-15.824500 0.000000
-15.785100 0.000000
-15.745800 0.000000
-15.706400 0.000000
-15.667000 0.000000
-15.627700 0.000000
-15.588300 0.000000
-15.549000 0.000000
-15.509600 0.000000
-15.470200 0.000000
-15.430900 0.000000
-15.391500 0.000000
-15.352200 0.000000
-15.312800 0.000000
-15.273400 0.000000
-15.234100 0.000000
-15.194700 0.000000
-15.155400 0.000000
-15.116000 0.000000
-15.076700 0.000000
-15.037300 0.000000
-14.997900 0.000000
-14.958600 0.000000
-14.919200 0.000000
-14.879900 0.000000
-14.840500 0.000000
-14.801100 0.000000
-14.761800 0.000000
-14.722400 0.000000
-14.683100 0.000000
-14.643700 0.000000
-14.604300 0.000000
-14.565000 0.000000
-14.525600 0.000000
-14.486300 0.000000
-14.446900 0.000000
-14.407600 0.000000
-14.368200 0.000000
-14.328800 0.000000
-14.289500 0.000000
-14.250100 0.000000
-14.210800 0.000000
-14.171400 0.000000
-14.132000 0.000000
-14.092700 0.000000
-14.053300 0.000000
-14.014000 0.000000
-13.974600 0.000000
-13.935200 0.000000
-13.895900 0.000000
-13.856500 0.000000
-13.817200 0.000000
-13.777800 0.000000
-13.738500 0.000000
-13.699100 0.000000
-13.659700 0.000000
-13.620400 0.000000
-13.581000 0.000000
-13.541700 0.000000
-13.502300 0.000000
-13.462900 0.000000
-13.423600 0.000000
-13.384200 0.000000
-13.344900 0.000000
-13.305500 0.000000
-13.266100 0.000000
-13.226800 0.000000
-13.187400 0.000000
-13.148100 0.000000
-13.108700 0.000000
-13.069400 0.000000
-13.030000 0.000000
-12.990600 0.000000
-12.951300 0.000000
-12.911900 0.000000
-12.872600 0.000000
-12.833200 0.000000
-12.793800 0.000000
-12.754500 0.000000
-12.715100 0.000000
-12.675800 0.000000
-12.636400 0.000000
-12.597100 0.000000
-12.557700 0.000000
-12.518300 0.000000
-12.479000 0.000000
-12.439600 0.000000
-12.400300 0.000000
-12.360900 0.000000
-12.321500 0.000000
-12.282200 0.000000
-12.242800 0.000000
-12.203500 0.000000
-12.164100 0.000000
-12.124700 0.000000
-12.085400 0.000000
-12.046000 0.000000
-12.006700 0.000000
-11.967300 0.000000
-11.928000 0.000000
-11.888600 0.000000
-11.849200 0.000000
-11.809900 0.000000
-11.770500 0.000000
-11.731200 0.000000
-11.691800 0.000000
-11.652400 0.000000
-11.613100 0.000000
-11.573700 0.000000
-11.534400 0.000000
-11.495000 0.000000
-11.455600 0.000000
-11.416300 0.000000
-11.376900 0.000000
-11.337600 0.000000
-11.298200 0.000000
-11.258900 0.000000
-11.219500 0.000000
-11.180100 0.000000
-11.140800 0.000000
-11.101400 0.000000
-11.062100 0.000000
-11.022700 0.000000
-10.983300 0.000000
-10.944000 0.000000
-10.904600 0.000000
-10.865300 0.000000
-10.825900 0.000000
-10.786500 0.000000
-10.747200 0.000000
-10.707800 0.000000
-10.668500 0.000000
-10.629100 0.000000
-10.589800 0.000000
-10.550400 0.000000
-10.511000 0.000000
-10.471700 0.000000
-10.432300 0.000000
-10.393000 0.000000
-10.353600 0.000000
-10.314200 0.000000
-10.274900 0.000000
-10.235500 0.000000
-10.196200 0.000000
-10.156800 0.000000
-10.117400 0.000000
-10.078100 0.000000
-10.038700 0.000000
-9.999400 0.000000
-9.960000 0.000000
-9.920700 0.000000
-9.881300 282.561000
-9.841900 0.000000
-9.802600 0.000000
-9.763200 0.000000
-9.723900 0.000000
-9.684500 0.000000
-9.645100 0.000000
-9.605800 0.000000
-9.566400 0.000000
-9.527100 0.000000
-9.487700 0.000000
-9.448300 0.000000
-9.409000 0.000000
-9.369600 0.000000
-9.330300 0.000000
-9.290900 0.000000
-9.251600 0.000000
-9.212200 0.000000
-9.172800 0.000000
-9.133500 0.000000
-9.094100 0.000000
-9.054800 0.000000
-9.015400 0.000000
-8.976000 0.000000
-8.936700 0.000000
-8.897300 0.000000
-8.858000 0.000000
-8.818600 0.000000
-8.779200 0.000000
-8.739900 0.000000
-8.700500 0.000000
-8.661200 0.000000
-8.621800 0.000000
-8.582500 0.000000
-8.543100 0.000000
-8.503700 0.000000
-8.464400 0.000000
-8.425000 0.000000
-8.385700 0.000000
-8.346300 0.000000
-8.306900 0.000000
-8.267600 0.000000
-8.228200 0.000000
-8.188900 0.000000
-8.149500 0.000000
-8.110100 0.000000
-8.070800 0.000000
-8.031400 0.000000
-7.992100 0.867200
-7.952700 0.877400
-7.913400 1.200600
-7.874000 0.956600
-7.834600 0.958000
-7.795300 1.023100
-7.755900 1.106400
-7.716600 1.176300
-7.677200 1.175500
-7.637800 1.214000
-7.598500 1.293200
-7.559100 1.388500
-7.519800 1.527600
-7.480400 1.807600
-7.441100 2.406900
-7.401700 2.662500
-7.362300 3.527200
-7.323000 4.662700
-7.283600 4.555600
-7.244300 4.456100
-7.204900 4.478100
-7.165500 4.601000
-7.126200 5.198400
-7.086800 5.227000
-7.047500 5.055200
-7.008100 3.519000
-6.968700 3.703900
-6.929400 4.748900
-6.890000 4.779000
-6.850700 4.938500
-6.811300 5.141000
-6.772000 5.363400
-6.732600 5.213200
-6.693200 4.554700
-6.653900 3.854000
-6.614500 3.914500
-6.575200 4.156200
-6.535800 5.010900
-6.496400 5.997100
-6.457100 6.735700
-6.417700 6.430800
-6.378400 3.680100
-6.339000 2.837500
-6.299600 2.406000
-6.260300 1.850200
-6.220900 1.518800
-6.181600 1.340700
-6.142200 1.250400
-6.102900 1.432400
-6.063500 1.417700
-6.024100 1.566400
-5.984800 1.859600
-5.945400 2.335100
-5.906100 2.795500
-5.866700 3.146300
-5.827300 3.261600
-5.788000 3.282300
-5.748600 3.428700
-5.709300 3.746100
-5.669900 3.728700
-5.630500 3.432400
-5.591200 3.229400
-5.551800 3.260400
-5.512500 2.997300
-5.473100 2.429600
-5.433800 2.536100
-5.394400 3.524800
-5.355000 3.632100
-5.315700 3.613200
-5.276300 3.823200
-5.237000 4.126700
-5.197600 4.086300
-5.158200 4.101600
-5.118900 4.017100
-5.079500 4.012400
-5.040200 4.139200
-5.000800 3.633300
-4.961400 3.421300
-4.922100 3.358900
-4.882700 3.285600
-4.843400 3.240000
-4.804000 3.300200
-4.764700 2.979700
-4.725300 2.857200
-4.685900 3.599500
-4.646600 3.619900
-4.607200 2.899600
-4.567900 2.082500
-4.528500 1.965600
-4.489100 2.061200
-4.449800 2.225400
-4.410400 2.583600
-4.371100 3.205100
-4.331700 3.352500
-4.292300 3.562000
-4.253000 4.938800
-4.213600 6.651700
-4.174300 8.040600
-4.134900 8.394700
-4.095600 6.055700
-4.056200 5.281900
-4.016800 4.353400
-3.977500 4.357200
-3.938100 4.414200
-3.898800 4.518900
-3.859400 4.777600
-3.820000 4.657000
-3.780700 4.884100
-3.741300 6.126100
-3.702000 8.440400
-3.662600 8.972500
-3.623200 7.508500
-3.583900 6.741100
-3.544500 7.258100
-3.505200 7.512200
-3.465800 8.140000
-3.426500 9.910600
-3.387100 5.959200
-3.347700 3.061900
-3.308400 1.531900
-3.269000 1.290200
-3.229700 0.883200
-3.190300 0.054000
-3.150900 0.000000
-3.111600 0.000000
-3.072200 0.000000
-3.032900 0.000000
-2.993500 0.000000
-2.954100 0.000000
-2.914800 0.000000
-2.875400 0.000000
-2.836100 0.000000
-2.796700 0.000000
-2.757400 0.000000
-2.718000 0.000000
-2.678600 0.000000
-2.639300 0.000000
-2.599900 0.000000
-2.560600 0.000000
-2.521200 0.000000
-2.481800 0.000000
-2.442500 0.000000
-2.403100 0.000000
-2.363800 0.000000
-2.324400 0.000000
-2.285000 0.000000
-2.245700 0.000000
-2.206300 0.000000
-2.167000 0.000000
-2.127600 0.000000
-2.088300 0.000000
-2.048900 0.000000
-2.009500 0.000000
-1.970200 0.000000
-1.930800 0.000000
-1.891500 0.000000
-1.852100 0.000000
-1.812700 0.000000
-1.773400 0.000000
-1.734000 0.000000
-1.694700 0.000000
-1.655300 0.000000
-1.616000 0.000000
-1.576600 0.000000
-1.537200 0.000000
-1.497900 0.000000
-1.458500 0.000000
-1.419200 0.000000
-1.379800 0.000000
-1.340400 0.000000
-1.301100 0.000000
-1.261700 0.000000
-1.222400 0.000000
-1.183000 0.000000
-1.143600 0.000000
-1.104300 0.000000
-1.064900 0.000000
-1.025600 0.000000
-0.986200 0.000000
-0.946900 0.000000
-0.907500 0.000000
-0.868100 0.000000
-0.828800 0.000000
-0.789400 0.000000
-0.750100 0.000000
-0.710700 0.000000
-0.671300 0.000000
-0.632000 0.000000
-0.592600 0.000000
-0.553300 0.000000
-0.513900 0.000000
-0.474500 0.000000
-0.435200 0.000000
-0.395800 0.000000
-0.356500 0.000000
-0.317100 0.000000
-0.277800 0.000000
-0.238400 0.000000
-0.199000 0.000000
-0.159700 0.000000
-0.120300 0.000000
-0.081000 0.000000
-0.041600 0.000000
-0.002200 0.000000
0.037100 0.000000
0.076500 0.000000
0.115800 0.000000
0.155200 0.000000
0.194600 0.000000
0.233900 0.000000
0.273300 0.000000
0.312600 0.000000
0.352000 0.000000
0.391300 0.000000
0.430700 0.000000
0.470100 0.000000
0.509400 0.000000
0.548800 0.000000
0.588100 0.000000
0.627500 0.000000
0.666900 0.000000
0.706200 0.000000
0.745600 0.000000
0.784900 0.000000
0.824300 0.000000
0.863700 0.000000
0.903000 0.000000
0.942400 0.000000
0.981700 0.000000
1.021100 0.000000
1.060400 0.000000
1.099800 0.000000
1.139200 0.000000
1.178500 0.000000
1.217900 0.000000
1.257200 0.000000
1.296600 0.000000
1.336000 0.000000
1.375300 0.000000
1.414700 0.000000
1.454000 0.000000
1.493400 0.000000
1.532800 0.000000
1.572100 0.000000
1.611500 0.000000
1.650800 0.000000
1.690200 0.000000
1.729500 0.000000
1.768900 0.000000
1.808300 0.000000
1.847600 0.000000
1.887000 0.000000
1.926300 0.000000
1.965700 0.000000
2.005100 0.000000
2.044400 0.000000
2.083800 0.000000
2.123100 0.000000
2.162500 0.000000
2.201900 0.000000
2.241200 0.000000
2.280600 0.000000
2.319900 0.000000
2.359300 0.000000
2.398600 0.000000
2.438000 0.000000
2.477400 0.000000
2.516700 0.000000
2.556100 0.000000
2.595400 0.000000
2.634800 0.000000
2.674200 0.000000
2.713500 0.000000
2.752900 0.000000
2.792200 0.000000
2.831600 0.000000
2.871000 0.000000
2.910300 0.000000
2.949700 0.000000
2.989000 0.000000
3.028400 0.000000
3.067700 0.000000
3.107100 0.000000
3.146500 0.000000
3.185800 0.000000
3.225200 0.000000
3.264500 0.000000
3.303900 0.000000
3.343300 0.000000
3.382600 0.000000
3.422000 0.000000
3.461300 0.000000
3.500700 0.000000
3.540100 0.000000
3.579400 0.000000
3.618800 0.000000
3.658100 0.000000
3.697500 0.000000
3.736800 0.003800
3.776200 0.016900
3.815600 0.039300
3.854900 0.068500
3.894300 0.089400
3.933600 0.096100
3.973000 0.106300
4.012400 0.118800
4.051700 0.133600
4.091100 0.149800
4.130400 0.167900
4.169800 0.188100
4.209100 0.207000
4.248500 0.222500
4.287900 0.241200
4.327200 0.261000
4.366600 0.282100
4.405900 0.307400
4.445300 0.338100
4.484700 0.372600
4.524000 0.726900
4.563400 0.980100
4.602700 1.529000
4.642100 1.628100
4.681500 1.791300
4.720800 1.855000
4.760200 2.056400
4.799500 2.489900
4.838900 3.103200
4.878200 3.306300
4.917600 2.948500
4.957000 2.815900
4.996300 2.776000
5.035700 2.980400
5.075000 2.935500
5.114400 2.950900
5.153800 2.571900
5.193100 2.045400
5.232500 1.766400
5.271800 1.795600
5.311200 1.581600
5.350600 0.707800
5.389900 0.000000
5.429300 0.000000
5.468600 0.000000
5.508000 0.000000
5.547300 0.000000
5.586700 0.000000
5.626100 0.000000
5.665400 0.000000
5.704800 0.000000
5.744100 0.000000
5.783500 0.000000
5.822900 0.000000
5.862200 0.000000
5.901600 0.000000
5.940900 0.000000
5.980300 0.000000
6.019700 0.000000
6.059000 0.000000
6.098400 0.000000
6.137700 0.000000
6.177100 0.000000
6.216400 0.000000
6.255800 0.000000
6.295200 0.000000
6.334500 0.000000
6.373900 0.000000
6.413200 0.000000
6.452600 0.000000
6.492000 0.000000
6.531300 0.000000
6.570700 0.000000
6.610000 0.000000
6.649400 0.000000
6.688800 0.000000
6.728100 0.000000
6.767500 0.000000
6.806800 0.000000
6.846200 0.000000
6.885500 0.000000
6.924900 0.000000
6.964300 0.000000
7.003600 0.000000
7.043000 0.000000
7.082300 0.000000
7.121700 0.000000
7.161100 0.000000
7.200400 0.000000
7.239800 0.000000
7.279100 0.000000
7.318500 0.000000
7.357900 0.000000
7.397200 0.000000
7.436600 0.000000
7.475900 0.000000
7.515300 0.000000
7.554600 0.000000
7.594000 0.000000
7.633400 0.000000
7.672700 0.000000
7.712100 0.000000
7.751400 0.000000
7.790800 0.000000
7.830200 0.000000
7.869500 0.000000
7.908900 0.000000
7.948200 0.000000
7.987600 0.000000
8.027000 0.000000
8.066300 0.000000
8.105700 0.000000
8.145000 0.000000
8.184400 0.000000
8.223700 0.000000
8.263100 0.000000
8.302500 0.000000
8.341800 0.000000
8.381200 0.000000
8.420500 0.000000
8.459900 0.000000
8.499300 0.000000
8.538600 0.000100
8.578000 0.007500
8.617300 0.026900
8.656700 0.058400
8.696100 0.090200
8.735400 0.135700
8.774800 0.153200
8.814100 0.179300
8.853500 0.245600
8.892800 0.349500
8.932200 0.445900
8.971600 0.533700
9.010900 0.614300
9.050300 0.686200
9.089600 0.767300
9.129000 0.866600
9.168400 0.982000
9.207700 1.137500
9.247100 1.357900
9.286400 1.591700
9.325800 2.399500
9.365200 2.715700
9.404500 2.839500
9.443900 2.735100
9.483200 2.553000
9.522600 2.420900
9.561900 2.467800
9.601300 2.500800
9.640700 2.685300
9.680000 2.638900
9.719400 1.962500
9.758700 1.711500
9.798100 1.772600
9.837500 2.512100
9.876800 3.388100
9.916200 4.591700
9.955500 4.870800
9.994900 4.402200
10.034200 3.731600
10.073600 3.714400
10.113000 3.830100
10.152300 3.464700
10.191700 3.262100
10.231000 3.386900
10.270400 3.622900
10.309800 3.946700
10.349100 4.216600
10.388500 4.648000
10.427800 5.073700
10.467200 5.037000
10.506600 4.903200
10.545900 5.286100
10.585300 6.594600
10.624600 3.359900
10.664000 2.956000
10.703300 2.656900
10.742700 2.435500
10.782100 2.219500
10.821400 2.313700
10.860800 1.902200
10.900100 1.783000
10.939500 2.091700
10.978900 2.405500
11.018200 2.456900
11.057600 3.029500
11.096900 2.711400
11.136300 2.556200
11.175700 2.445800
11.215000 2.784200
11.254400 3.174200
11.293700 3.316800
11.333100 3.117900
11.372400 3.023800
11.411800 3.151300
11.451200 3.381700
11.490500 3.856500
11.529900 4.587100
11.569200 5.431300
11.608600 5.562800
11.648000 5.532400
11.687300 5.469800
11.726700 4.255400
11.766000 4.163500
11.805400 4.085900
11.844800 4.011800
11.884100 4.149600
11.923500 4.386800
11.962800 5.871600
12.002200 5.923800
12.041500 5.659800
12.080900 5.460100
12.120300 5.213000
12.159600 5.867000
12.199000 7.397300
12.238300 8.200800
12.277700 9.750200
12.317100 9.026000
12.356400 8.358700
12.395800 5.527800
12.435100 5.799300
12.474500 8.182700
12.513900 9.641200
12.553200 9.603700
12.592600 8.953200
12.631900 8.523900
12.671300 8.279800
12.710600 8.027400
12.750000 7.296000
12.789400 7.900700
12.828700 8.800000
12.868100 8.059500
12.907400 7.180200
12.946800 6.205400
12.986200 6.446100
13.025500 7.314600
13.064900 8.463400
13.104200 11.289600
13.143600 8.928300
13.183000 6.656900
13.222300 7.768100
13.261700 7.784700
13.301000 7.884300
13.340400 9.139800
13.379700 8.961500
13.419100 10.254500
13.458500 15.728700
13.497800 15.348000
13.537200 12.480200
13.576500 15.012200
13.615900 9.727400
13.655300 7.656300
13.694600 14.642400
13.734000 17.299900
13.773300 15.765100
13.812700 8.958800
13.852100 16.703200
13.891400 12.866000
13.930800 14.160100
13.970100 17.241100
14.009500 16.246900
14.048800 19.828300
14.088200 11.759500
14.127600 12.334400
14.166900 7.768700
14.206300 7.881900
14.245600 10.597700
14.285000 12.009000
14.324400 16.589600
14.363700 16.667100
14.403100 16.508400
14.442400 24.464300
14.481800 18.713100
14.521200 15.742400
14.560500 15.272300
14.599900 18.196300
14.639200 16.945400
14.678600 14.377400
14.717900 13.153400
14.757300 12.917900
14.796700 14.100100
14.836000 17.336900
14.875400 22.328400
14.914700 16.669500
14.954100 19.067300
14.993500 17.709800
15.032800 22.352700
15.072200 22.870100
15.111500 24.763700
15.150900 18.541600
15.190200 21.239300
15.229600 18.437600
15.269000 11.178000
15.308300 10.052900
15.347700 7.547300
15.387000 7.426200
15.426400 7.766000
15.465800 7.019800
15.505100 6.314900
15.544500 5.520800
15.583800 5.795500
15.623200 5.206300
15.662600 4.001900
15.701900 3.903500
15.741300 4.596400
15.780600 4.474100
15.820000 4.005200
15.859300 3.801900
15.898700 3.981700
15.938100 3.654400
15.977400 3.564900
16.016800 3.320000
16.056100 3.674000
16.095500 4.022400
16.134900 4.988800
16.174200 5.457900
16.213600 6.008200
16.252900 5.750400
16.292300 5.445900
16.331700 5.670300
16.371000 5.388600
16.410400 5.235800
16.449700 5.572800
16.489100 6.449900
16.528400 6.798800
16.567800 6.274600
16.607200 4.460200
16.646500 3.586300
16.685900 3.488800
16.725200 3.498900
16.764600 3.355100
16.804000 3.116200
16.843300 2.895700
16.882700 2.804200
16.922000 2.824000
16.961400 2.780200
17.000800 2.792200
17.040100 2.721800
17.079500 2.867700
17.118800 3.116800
17.158200 3.303900
17.197500 3.494500
17.236900 3.454100
17.276300 3.365700
17.315600 3.283700
17.355000 3.278400
17.394300 3.314800
17.433700 3.526800
17.473100 3.584300
17.512400 3.603500
17.551800 2.906500
17.591100 2.188700
17.630500 2.335000
17.669900 2.606400
17.709200 2.963500
17.748600 3.569800
17.787900 4.029100
17.827300 4.221000
17.866600 4.423800
17.906000 4.286400
17.945400 4.248000
17.984700 3.631200
18.024100 3.330000
18.063400 3.260700
18.102800 3.120200
18.142200 3.186100
18.181500 3.444400
18.220900 4.050000
18.260200 4.208100
18.299600 4.262000
18.339000 4.012500
18.378300 3.362600
18.417700 2.782300
18.457000 2.789500
18.496400 2.880200
18.535700 3.179100
18.575100 3.570900
18.614500 4.005800
18.653800 4.418900
18.693200 4.402900
18.732500 4.483300
18.771900 4.629700
18.811300 3.773600
18.850600 3.693300
18.890000 3.213000
18.929300 3.009300
18.968700 2.886400
19.008100 2.784200
19.047400 2.823100
19.086800 2.942300
19.126100 3.057200
19.165500 3.199300
19.204800 3.209700
19.244200 3.249200
19.283600 3.370400
19.322900 3.399700
19.362300 3.383500
19.401600 3.314300
19.441000 3.217500
19.480400 3.193100
19.519700 3.344800
19.559100 3.276000
19.598400 3.018300
19.637800 2.605800
19.677200 2.385600
19.716500 2.280400
19.755900 2.267900
19.795200 2.375900
19.834600 2.539100
19.873900 2.784000
19.913300 3.045300
19.952700 2.966300
19.992000 3.151700
20.031400 3.138700
20.070700 3.008100
20.110100 2.628200
20.149500 2.282800
20.188800 2.041700
20.228200 1.983000
20.267500 2.078300
20.306900 2.271600
20.346300 2.617400
20.385600 2.754000
20.425000 2.761100
20.464300 2.657800
20.503700 2.525300
20.543000 2.463600
20.582400 2.412900
20.621800 2.435200
20.661100 2.513300
20.700500 2.469600
20.739800 2.420500
20.779200 2.501100
20.818600 2.588600
20.857900 2.505800
20.897300 2.432100
20.936600 2.429300
20.976000 2.643800
21.015300 2.480100
21.054700 2.622900
21.094100 2.521300
21.133400 2.318900
21.172800 2.116500
21.212100 2.004200
21.251500 1.838800
21.290900 1.693200
21.330200 1.593400
21.369600 1.542500
21.408900 1.496000
21.448300 1.348700
21.487700 1.225700
21.527000 1.236500
21.566400 1.327100
21.605700 1.518600
21.645100 1.733100
21.684400 1.975300
21.723800 2.478000
21.763200 2.898100
21.802500 3.293500
21.841900 3.605100
21.881200 3.382600
21.920600 3.130200
21.960000 2.922700
21.999300 2.751900
22.038700 2.572700
22.078000 2.500000
22.117400 2.273800
22.156800 2.148700
22.196100 2.384300
22.235500 2.560100
22.274800 2.600000
22.314200 2.766300
22.353500 2.901400
22.392900 3.030800
22.432300 3.186200
22.471600 3.211200
22.511000 3.059100
22.550300 2.986300
22.589700 2.884000
22.629100 2.776700
22.668400 2.624200
22.707800 2.346300
22.747100 2.209100
22.786500 2.139800
22.825900 2.069900
22.865200 2.032800
22.904600 2.169400
22.943900 2.053900
22.983300 2.280300
23.022600 2.553300
23.062000 2.774500
23.101400 2.903800
23.140700 3.116200
23.180100 3.463300
23.219400 3.489300
23.258800 3.467700
23.298200 3.442800
23.337500 3.381700
23.376900 3.309400
23.416200 3.195700
23.455600 3.025500
23.495000 2.971900
23.534300 2.820800
23.573700 2.625700
23.613000 2.579300
23.652400 2.491700
23.691700 2.338200
23.731100 2.226000
23.770500 2.201300
23.809800 2.181200
23.849200 2.170700
23.888500 2.125600
23.927900 2.104900
23.967300 2.180000
24.006600 2.179900
24.046000 2.179900
24.085300 2.137800
24.124700 2.081300
24.164100 2.058300
24.203400 1.995900
24.242800 1.869300
24.282100 1.790900
24.321500 1.750100
24.360800 1.592000
24.400200 1.508700
24.439600 1.510600
24.478900 1.505400
24.518300 1.525100
24.557600 1.526200
24.597000 1.576000
24.636400 1.611400
24.675700 1.639000
24.715100 1.621100
24.754400 1.643000
24.793800 1.589400
24.833200 1.548800
24.872500 1.516000
24.911900 1.496000
24.951200 1.413500
24.990600 1.371200
25.029900 1.345200
25.069300 1.314900
25.108700 1.314400
25.148000 1.339900
25.187400 1.392900
25.226700 1.452600
25.266100 1.501600
25.305500 1.542700
25.344800 1.581400
25.384200 1.610900
25.423500 1.662800
25.462900 1.667500
25.502300 1.662800
25.541600 1.717400
25.581000 1.621700
25.620300 1.646400
25.659700 1.714000
25.699000 1.741100
25.738400 1.784300
25.777800 1.816400
25.817100 1.843500
25.856500 1.876100
25.895800 1.993800
25.935200 1.926100
25.974600 1.938300
26.013900 1.939100
26.053300 1.955400
26.092600 2.041000
26.132000 1.960000
26.171400 1.715500
26.210700 1.456300
26.250100 1.392000
26.289400 1.372100
26.328800 1.377000
26.368100 1.367900
26.407500 1.295600
26.446900 1.238200
26.486200 1.248600
26.525600 1.509400
26.564900 1.803300
26.604300 1.536900
26.643700 1.598500
26.683000 1.719300
26.722400 1.850100
26.761700 1.916000
26.801100 1.950100
26.840400 1.988200
26.879800 2.223600
26.919200 2.480100
26.958500 2.434700
26.997900 2.408800
27.037200 2.246600
27.076600 2.228400
27.116000 2.239600
27.155300 2.305600
27.194700 2.280600
27.234000 2.163400
27.273400 2.109500
27.312800 2.092700
27.352100 2.012600
27.391500 1.936200
27.430800 1.888700
27.470200 1.952600
27.509500 2.036800
27.548900 2.143100
27.588300 2.274000
27.627600 2.507800
27.667000 2.614100
27.706300 2.578700
27.745700 2.558400
27.785100 2.619300
27.824400 3.068400
27.863800 2.762000
27.903100 2.132800
27.942500 2.067400
27.981900 2.255100
28.021200 2.617400
28.060600 2.873000
28.099900 3.122200
28.139300 3.204000
28.178600 3.097200
28.218000 2.545300
28.257400 2.553000
28.296700 2.285400
28.336100 2.410500
28.375400 2.368400
28.414800 1.921900
28.454200 2.070100
28.493500 2.442600
28.532900 2.251700
28.572200 2.371200
28.611600 2.220500
28.651000 2.307200
28.690300 2.440800
28.729700 2.771200
28.769000 2.988200
28.808400 2.881400
28.847700 2.749800
28.887100 2.438600
28.926500 2.121500
28.965800 2.132500
29.005200 2.211400
29.044500 2.366300
29.083900 2.545800
29.123300 2.604500
29.162600 2.778500
29.202000 2.988400
29.241300 3.225100
29.280700 3.387800
29.320100 3.283900
29.359400 3.487100
29.398800 3.228600
29.438100 3.364100
29.477500 3.575500
29.516800 3.676900
29.556200 3.521200
29.595600 3.413900
29.634900 3.160900
29.674300 3.045500
29.713600 2.880900
29.753000 2.847800
29.792400 2.955400
29.831700 3.302100
29.871100 3.510500
29.910400 3.530900
29.949800 3.569100
29.989200 3.383000
30.028500 3.238400
30.067900 3.146000
30.107200 3.133800
30.146600 3.058700
30.185900 2.981800
30.225300 2.923100
30.264700 2.928400
30.304000 3.082400
30.343400 3.159600
30.382700 3.011200
30.422100 3.018700
30.461500 3.055800
30.500800 3.123000
30.540200 3.145800
30.579500 3.228600
30.618900 3.492700
30.658300 3.611800
30.697600 3.929200
30.737000 3.905700
30.776300 3.642700
30.815700 3.344900
30.855000 3.121800
30.894400 2.844600
30.933800 2.657600
30.973100 2.526500
31.012500 2.447900
31.051800 2.445400
31.091200 2.662200
31.130600 2.653900
31.169900 2.713900
31.209300 2.819600
31.248600 2.786900
31.288000 2.683400
31.327400 2.707800
31.366700 2.857900
31.406100 2.920500
31.445400 2.994900
31.484800 3.069900
31.524100 3.197600
31.563500 2.722500
31.602900 2.566500
31.642200 2.468200
31.681600 2.404100
31.720900 2.381700
31.760300 2.364300
31.799700 2.518700
31.839000 2.619400
31.878400 2.725600
31.917700 2.788800
31.957100 2.828200
31.996400 2.849100
32.035800 2.925000
32.075200 3.081000
32.114500 3.196200
32.153900 3.245600
32.193200 3.275800
32.232600 3.455500
32.272000 3.410100
32.311300 3.263900
32.350700 3.085300
32.390000 2.766500
32.429400 2.593000
32.468800 2.492400
32.508100 2.303900
32.547500 2.240200
32.586800 2.333600
32.626200 2.395700
32.665500 2.570700
32.704900 2.793300
32.744300 3.052800
32.783600 3.251800
32.823000 3.449300
32.862300 3.601700
32.901700 3.684900
32.941100 3.552200
32.980400 3.322900
33.019800 2.941900
33.059100 2.442200
33.098500 2.142300
33.137900 1.992000
33.177200 2.000800
33.216600 2.098900
33.255900 2.338700
33.295300 2.344400
33.334600 2.473100
33.374000 2.647000
33.413400 2.833000
33.452700 3.005400
33.492100 3.107000
33.531400 3.272000
33.570800 3.398100
33.610200 3.276800
33.649500 3.151400
33.688900 3.049400
33.728200 2.969300
33.767600 2.863700
33.807000 2.805400
33.846300 2.717200
33.885700 2.647100
33.925000 2.918300
33.964400 3.264600
34.003700 3.933200
34.043100 4.568000
34.082500 4.468300
34.121800 4.211000
34.161200 4.008900
34.200500 3.777100
34.239900 3.554700
34.279300 3.296200
34.318600 3.059500
34.358000 2.917600
34.397300 2.775200
34.436700 2.752400
34.476100 2.724700
34.515400 2.659700
34.554800 2.660400
34.594100 2.665900
34.633500 2.623500
34.672800 2.684500
34.712200 2.751300
34.751600 2.971600
34.790900 2.962000
34.830300 3.017600
34.869600 3.062700
34.909000 2.926400
34.948400 2.882500
34.987700 2.923900
35.027100 2.935500
35.066400 2.972000
35.105800 3.084300
35.145200 3.114900
35.184500 3.271600
35.223900 3.314200
35.263200 3.349700
35.302600 3.197900
35.341900 3.165100
35.381300 3.111400
35.420700 3.143800
35.460000 3.170000
35.499400 3.291900
35.538700 3.367300
35.578100 3.413900
35.617500 3.470700
35.656800 3.585300
35.696200 3.644100
35.735500 3.563300
35.774900 3.286500
35.814300 3.130800
35.853600 3.090300
35.893000 3.141100
35.932300 3.305100
35.971700 3.141900
36.011000 3.054400
36.050400 3.122300
36.089800 3.115400
36.129100 3.053600
36.168500 2.991000
36.207800 3.050800
36.247200 3.166900
36.286600 3.237100
36.325900 3.325600
36.365300 3.410300
36.404600 3.615000
36.444000 3.625600
36.483400 3.606200
36.522700 3.479500
36.562100 3.480100
36.601400 3.376100
36.640800 3.370200
36.680100 3.348100
36.719500 3.359200
36.758900 3.373300
36.798200 3.512300
36.837600 3.407400
36.876900 3.306800
36.916300 3.407300
36.955700 3.393100
36.995000 3.465500
37.034400 3.413700
37.073700 3.200700
37.113100 3.022800
37.152500 2.858100
37.191800 2.738900
37.231200 2.703900
37.270500 2.765300
37.309900 2.829100
37.349200 2.919400
37.388600 3.041800
37.428000 3.130600
37.467300 3.168700
37.506700 3.324000
37.546000 3.419500
37.585400 3.417600
37.624800 3.396400
37.664100 3.419700
37.703500 3.327500
37.742800 3.282900
37.782200 3.023900
37.821500 2.996700
37.860900 2.963300
37.900300 3.088000
37.939600 3.355700
37.979000 3.559800
38.018300 3.489600
38.057700 3.304000
38.097100 3.199600
38.136400 3.048100
38.175800 2.910200
38.215100 2.755600
38.254500 2.596700
38.293900 2.519200
38.333200 2.519600
38.372600 2.559400
38.411900 2.605200
38.451300 2.693600
38.490600 2.763800
38.530000 2.894000
38.569400 3.180800
38.608700 3.001800
38.648100 2.837200
38.687400 2.630200
38.726800 2.487900
38.766200 2.361400
38.805500 2.284500
38.844900 2.408200
38.884200 2.731000
38.923600 2.740900
38.963000 2.869600
39.002300 2.865400
39.041700 2.968300
39.081000 3.046800
39.120400 3.064900
39.159700 3.064100
39.199100 3.143000
39.238500 3.258500
39.277800 3.410300
39.317200 3.612600
39.356500 3.554100
39.395900 3.385000
39.435300 3.273200
39.474600 3.244300
39.514000 3.362000
39.553300 3.519600
39.592700 3.665500
39.632100 3.673600
39.671400 3.968800
39.710800 3.666900
39.750100 3.669600
39.789500 3.562600
39.828800 3.490700
39.868200 3.578500
39.907600 3.511300
39.946900 3.629900
39.986300 3.524600
40.025600 3.437800
40.065000 3.389600
40.104400 3.300100
40.143700 3.200600
40.183100 3.006500
40.222400 2.905300
40.261800 2.589200
40.301200 2.506900
40.340500 2.232100
40.379900 2.094800
40.419200 1.950200
40.458600 1.816000
40.497900 1.686400
40.537300 1.573000
40.576700 1.455000
40.616000 1.319800
40.655400 1.131300
40.694700 0.989900
40.734100 0.857100
40.773500 0.759900
40.812800 0.773900
40.852200 0.731100
40.891500 0.554600
40.930900 0.420700
40.970300 0.304900
41.009600 0.205500
41.049000 0.134000
41.088300 0.079100
41.127700 0.038600
41.167000 0.028500
41.206400 0.019900
41.245800 0.012900
41.285100 0.007300
41.324500 0.003400
41.363800 0.000900
41.403200 0.000000
41.442600 0.000000
41.481900 0.000000
41.521300 0.000000
41.560600 0.000000
41.600000 0.000000
41.639400 0.000000
41.678700 0.000000
41.718100 0.000000
41.757400 0.000000
41.796800 0.000000
41.836100 0.000000
41.875500 0.000000
41.914900 0.000000
41.954200 0.000000
41.993600 0.000000
42.032900 0.000000
42.072300 0.000000
42.111700 0.000000
42.151000 0.000000
42.190400 0.000000
42.229700 0.000000
42.269100 0.000000
42.308500 0.000000
42.347800 0.000000
42.387200 0.000000
42.426500 0.000000
42.465900 0.000000
42.505200 0.000000
42.544600 0.000000
42.584000 0.000000
42.623300 0.000000
42.662700 0.000000
42.702000 0.000000
42.741400 0.000000
42.780800 0.000000
42.820100 0.000000
42.859500 0.000000
42.898800 0.000000
42.938200 0.000000
42.977600 0.000000
43.016900 0.000000
43.056300 0.000000
43.095600 0.000000
43.135000 0.000000
43.174300 0.000000
43.213700 0.000000
43.253100 0.000000
43.292400 0.000000
43.331800 0.000000
43.371100 0.000000
43.410500 0.000000
43.449900 0.000000
43.489200 0.000000
43.528600 0.000000
43.567900 0.000000
43.607300 0.000000
43.646600 0.000000
43.686000 0.000000
43.725400 0.000000
43.764700 0.000000
43.804100 0.000000
43.843400 0.000000
43.882800 0.000000
43.922200 0.000000
43.961500 0.000000
44.000900 0.000000
44.040200 0.000000
44.079600 0.000000
44.119000 0.000000
44.158300 0.000000
44.197700 0.000000
44.237000 0.000000
44.276400 0.000000
44.315700 0.000000
44.355100 0.000000
44.394500 0.000000
44.433800 0.000000
44.473200 0.000000
44.512500 0.000000
44.551900 0.000000
44.591300 0.000000
44.630600 0.000000
44.670000 0.000000
44.709300 0.000000
44.748700 0.000000
44.788100 0.000000
44.827400 0.000000
44.866800 0.000000
44.906100 0.000000
44.945500 0.000000
44.984800 0.000000
e
