set title 'mp-1226207 - Density of States'
set xlabel 'Energy (eV)'
set ylabel 'DOS (states/eV)'
set grid
set xrange [-10:10]
set yrange [0:16.508]
set xzeroaxis lt -1
set terminal png size 800,600
set output 'mp-1226207_dos_gnuplot.png'
plot '-' using 1:2 with lines title 'DOS'
-39.887400 0.000000
-39.846000 0.000000
-39.804600 0.000000
-39.763200 0.000000
-39.721900 0.000000
-39.680500 0.000000
-39.639100 0.000000
-39.597800 0.000000
-39.556400 0.000000
-39.515000 0.000000
-39.473700 0.000000
-39.432300 0.000000
-39.390900 0.000000
-39.349600 0.000000
-39.308200 0.000000
-39.266800 0.000000
-39.225500 0.000000
-39.184100 0.000000
-39.142700 0.000000
-39.101400 0.000000
-39.060000 0.000000
-39.018600 0.000000
-38.977300 0.000000
-38.935900 0.000000
-38.894500 0.000000
-38.853200 0.000000
-38.811800 0.000000
-38.770400 0.000000
-38.729100 0.000000
-38.687700 0.000000
-38.646300 0.000000
-38.605000 0.000000
-38.563600 0.000000
-38.522200 0.000000
-38.480900 0.000000
-38.439500 0.000000
-38.398100 0.000000
-38.356800 0.000000
-38.315400 0.000000
-38.274000 0.000000
-38.232700 0.000000
-38.191300 0.000000
-38.149900 0.000000
-38.108600 0.000000
-38.067200 0.000000
-38.025800 0.000000
-37.984500 0.000000
-37.943100 0.000000
-37.901700 0.000000
-37.860400 0.000000
-37.819000 0.000000
-37.777600 0.000000
-37.736300 0.000000
-37.694900 0.000000
-37.653500 0.000000
-37.612200 0.000000
-37.570800 0.000000
-37.529400 0.000000
-37.488100 0.000000
-37.446700 0.000000
-37.405300 0.000000
-37.364000 0.000000
-37.322600 0.000000
-37.281200 0.000000
-37.239900 0.000000
-37.198500 0.000000
-37.157100 0.000000
-37.115800 0.000000
-37.074400 0.000000
-37.033000 0.000000
-36.991700 0.000000
-36.950300 0.000000
-36.908900 0.000000
-36.867600 0.000000
-36.826200 0.000000
-36.784800 0.000000
-36.743500 0.000000
-36.702100 0.000000
-36.660700 0.000000
-36.619400 0.000000
-36.578000 0.000000
-36.536600 0.000000
-36.495300 0.000000
-36.453900 0.000000
-36.412500 0.000000
-36.371200 0.000000
-36.329800 0.000000
-36.288400 0.000000
-36.247100 0.000000
-36.205700 0.000000
-36.164300 0.000000
-36.122900 64.830500
-36.081600 61.146900
-36.040200 7.368800
-35.998800 8.934100
-35.957500 10.739800
-35.916100 20.530800
-35.874700 15.190400
-35.833400 2.715800
-35.792000 0.000000
-35.750600 0.000000
-35.709300 0.000000
-35.667900 0.000000
-35.626500 0.000000
-35.585200 0.000000
-35.543800 0.000000
-35.502400 0.000000
-35.461100 0.000000
-35.419700 0.000000
-35.378300 0.000000
-35.337000 0.000000
-35.295600 0.000000
-35.254200 0.000000
-35.212900 0.000000
-35.171500 0.000000
-35.130100 0.000000
-35.088800 0.000000
-35.047400 0.000000
-35.006000 0.000000
-34.964700 0.000000
-34.923300 0.000000
-34.881900 0.000000
-34.840600 0.000000
-34.799200 0.000000
-34.757800 0.000000
-34.716500 0.000000
-34.675100 0.000000
-34.633700 0.000000
-34.592400 0.000000
-34.551000 0.000000
-34.509600 0.000000
-34.468300 0.000000
-34.426900 0.000000
-34.385500 0.000000
-34.344200 0.000000
-34.302800 0.000000
-34.261400 0.000000
-34.220100 0.000000
-34.178700 0.000000
-34.137300 0.000000
-34.096000 0.000000
-34.054600 0.000000
-34.013200 0.000000
-33.971900 0.000000
-33.930500 0.000000
-33.889100 0.000000
-33.847800 0.000000
-33.806400 0.000000
-33.765000 0.000000
-33.723700 0.000000
-33.682300 0.000000
-33.640900 0.000000
-33.599600 0.000000
-33.558200 0.000000
-33.516800 0.000000
-33.475500 0.000000
-33.434100 0.000000
-33.392700 0.000000
-33.351400 0.000000
-33.310000 0.000000
-33.268600 0.000000
-33.227300 0.000000
-33.185900 0.000000
-33.144500 0.000000
-33.103200 0.000000
-33.061800 0.000000
-33.020400 0.000000
-32.979100 0.000000
-32.937700 0.000000
-32.896300 0.000000
-32.855000 0.000000
-32.813600 0.000000
-32.772200 0.000000
-32.730900 0.000000
-32.689500 0.000000
-32.648100 0.000000
-32.606800 0.000000
-32.565400 0.000000
-32.524000 0.000000
-32.482600 0.000000
-32.441300 0.000000
-32.399900 0.000000
-32.358500 0.000000
-32.317200 0.000000
-32.275800 0.000000
-32.234400 0.000000
-32.193100 0.000000
-32.151700 0.000000
-32.110300 0.000000
-32.069000 0.000000
-32.027600 0.000000
-31.986200 0.000000
-31.944900 0.000000
-31.903500 0.000000
-31.862100 0.000000
-31.820800 0.000000
-31.779400 0.000000
-31.738000 0.000000
-31.696700 0.000000
-31.655300 0.000000
-31.613900 0.000000
-31.572600 0.000000
-31.531200 0.000000
-31.489800 0.000000
-31.448500 0.000000
-31.407100 0.000000
-31.365700 0.000000
-31.324400 0.000000
-31.283000 0.000000
-31.241600 0.000000
-31.200300 0.000000
-31.158900 0.000000
-31.117500 0.000000
-31.076200 0.000000
-31.034800 0.000000
-30.993400 0.000000
-30.952100 0.000000
-30.910700 0.000000
-30.869300 0.000000
-30.828000 0.000000
-30.786600 0.000000
-30.745200 0.000000
-30.703900 0.000000
-30.662500 0.000000
-30.621100 0.000000
-30.579800 0.000000
-30.538400 0.000000
-30.497000 0.000000
-30.455700 0.000000
-30.414300 0.000000
-30.372900 0.000000
-30.331600 0.000000
-30.290200 0.000000
-30.248800 0.000000
-30.207500 0.000000
-30.166100 0.000000
-30.124700 0.000000
-30.083400 0.000000
-30.042000 0.000000
-30.000600 0.000000
-29.959300 0.000000
-29.917900 0.000000
-29.876500 0.000000
-29.835200 0.000000
-29.793800 0.000000
-29.752400 0.000000
-29.711100 0.000000
-29.669700 0.000000
-29.628300 0.000000
-29.587000 0.000000
-29.545600 0.000000
-29.504200 0.000000
-29.462900 0.000000
-29.421500 0.000000
-29.380100 0.000000
-29.338800 0.000000
-29.297400 0.000000
-29.256000 0.000000
-29.214700 0.000000
-29.173300 0.000000
-29.131900 0.000000
-29.090600 0.000000
-29.049200 0.000000
-29.007800 0.000000
-28.966500 0.000000
-28.925100 0.000000
-28.883700 0.000000
-28.842300 0.000000
-28.801000 0.000000
-28.759600 0.000000
-28.718200 0.000000
-28.676900 0.000000
-28.635500 0.000000
-28.594100 0.000000
-28.552800 0.000000
-28.511400 0.000000
-28.470000 0.000000
-28.428700 0.000000
-28.387300 0.000000
-28.345900 0.000000
-28.304600 0.000000
-28.263200 0.000000
-28.221800 0.000000
-28.180500 0.000000
-28.139100 0.000000
-28.097700 0.000000
-28.056400 0.000000
-28.015000 0.000000
-27.973600 0.000000
-27.932300 0.000000
-27.890900 0.000000
-27.849500 0.000000
-27.808200 0.000000
-27.766800 0.000000
-27.725400 0.000000
-27.684100 0.000000
-27.642700 0.000000
-27.601300 0.000000
-27.560000 0.000000
-27.518600 0.000000
-27.477200 0.000000
-27.435900 0.000000
-27.394500 0.000000
-27.353100 0.000000
-27.311800 0.000000
-27.270400 0.000000
-27.229000 0.000000
-27.187700 0.000000
-27.146300 0.000000
-27.104900 0.000000
-27.063600 0.000000
-27.022200 0.000000
-26.980800 0.000000
-26.939500 0.000000
-26.898100 0.000000
-26.856700 0.000000
-26.815400 0.000000
-26.774000 0.000000
-26.732600 0.000000
-26.691300 0.000000
-26.649900 0.000000
-26.608500 0.000000
-26.567200 0.000000
-26.525800 0.000000
-26.484400 0.000000
-26.443100 0.000000
-26.401700 0.000000
-26.360300 0.000000
-26.319000 0.000000
-26.277600 0.000000
-26.236200 0.000000
-26.194900 0.000000
-26.153500 0.000000
-26.112100 0.000000
-26.070800 0.000000
-26.029400 0.000000
-25.988000 0.000000
-25.946700 0.000000
-25.905300 0.000000
-25.863900 0.000000
-25.822600 0.000000
-25.781200 0.000000
-25.739800 0.000000
-25.698500 0.000000
-25.657100 0.000000
-25.615700 0.000000
-25.574400 0.000000
-25.533000 0.000000
-25.491600 0.000000
-25.450300 0.000000
-25.408900 0.000000
-25.367500 0.000000
-25.326100 0.000000
-25.284800 0.000000
-25.243400 0.000000
-25.202000 0.000000
-25.160700 0.000000
-25.119300 0.000000
-25.077900 0.000000
-25.036600 0.000000
-24.995200 0.000000
-24.953800 0.000000
-24.912500 0.000000
-24.871100 0.000000
-24.829700 0.000000
-24.788400 0.000000
-24.747000 0.000000
-24.705600 0.000000
-24.664300 0.000000
-24.622900 0.000000
-24.581500 0.000000
-24.540200 0.000000
-24.498800 0.000000
-24.457400 0.000000
-24.416100 0.000000
-24.374700 0.000000
-24.333300 0.000000
-24.292000 0.000000
-24.250600 0.000000
-24.209200 0.000000
-24.167900 0.000000
-24.126500 0.000000
-24.085100 0.000000
-24.043800 0.000000
-24.002400 0.000000
-23.961000 0.000000
-23.919700 0.000000
-23.878300 0.000000
-23.836900 0.000000
-23.795600 0.000000
-23.754200 0.000000
-23.712800 0.000000
-23.671500 0.000000
-23.630100 0.000000
-23.588700 0.000000
-23.547400 0.000000
-23.506000 0.000000
-23.464600 0.000000
-23.423300 0.000000
-23.381900 0.000000
-23.340500 0.000000
-23.299200 0.000000
-23.257800 0.000000
-23.216400 0.000000
-23.175100 0.000000
-23.133700 0.000000
-23.092300 0.000000
-23.051000 0.000000
-23.009600 0.000000
-22.968200 0.000000
-22.926900 0.000000
-22.885500 0.000000
-22.844100 0.000000
-22.802800 0.000000
-22.761400 0.000000
-22.720000 0.000000
-22.678700 0.000000
-22.637300 0.000000
-22.595900 0.000000
-22.554600 0.000000
-22.513200 0.000000
-22.471800 0.000000
-22.430500 0.000000
-22.389100 0.000000
-22.347700 0.000000
-22.306400 0.000000
-22.265000 0.000000
-22.223600 0.000000
-22.182300 0.000000
-22.140900 0.000000
-22.099500 0.000000
-22.058200 0.000000
-22.016800 0.000000
-21.975400 0.000000
-21.934100 0.000000
-21.892700 0.000000
-21.851300 0.000000
-21.810000 0.000000
-21.768600 0.000000
-21.727200 0.000000
-21.685800 0.000000
-21.644500 0.000000
-21.603100 0.000000
-21.561700 0.000000
-21.520400 0.000000
-21.479000 0.000000
-21.437600 0.000000
-21.396300 0.000000
-21.354900 0.000000
-21.313500 0.000000
-21.272200 0.000000
-21.230800 0.000000
-21.189400 0.000000
-21.148100 0.000000
-21.106700 0.000000
-21.065300 0.000000
-21.024000 0.000000
-20.982600 0.000000
-20.941200 0.000000
-20.899900 0.000000
-20.858500 0.000000
-20.817100 0.000000
-20.775800 0.000000
-20.734400 0.000000
-20.693000 0.000000
-20.651700 0.000000
-20.610300 0.000000
-20.568900 0.000000
-20.527600 0.000000
-20.486200 0.000000
-20.444800 0.000000
-20.403500 0.000000
-20.362100 0.000000
-20.320700 0.000000
-20.279400 0.000000
-20.238000 0.000000
-20.196600 0.000000
-20.155300 0.000000
-20.113900 0.000000
-20.072500 0.000000
-20.031200 0.000000
-19.989800 0.000000
-19.948400 0.000000
-19.907100 0.000000
-19.865700 0.000000
-19.824300 0.000000
-19.783000 0.000000
-19.741600 0.000000
-19.700200 0.000000
-19.658900 0.000000
-19.617500 0.000000
-19.576100 0.000000
-19.534800 0.000000
-19.493400 0.000000
-19.452000 0.000000
-19.410700 0.000000
-19.369300 0.000000
-19.327900 0.000000
-19.286600 0.000000
-19.245200 0.000000
-19.203800 0.000000
-19.162500 0.000000
-19.121100 0.000000
-19.079700 0.000000
-19.038400 0.000000
-18.997000 0.000000
-18.955600 0.000000
-18.914300 0.000000
-18.872900 0.000000
-18.831500 0.000000
-18.790200 0.000000
-18.748800 0.000000
-18.707400 0.000000
-18.666100 0.000000
-18.624700 0.000000
-18.583300 0.000000
-18.542000 0.000000
-18.500600 0.000000
-18.459200 0.000000
-18.417900 0.000000
-18.376500 0.000000
-18.335100 0.000000
-18.293800 0.000000
-18.252400 0.000000
-18.211000 0.000000
-18.169700 0.000000
-18.128300 0.000000
-18.086900 0.000000
-18.045500 0.000000
-18.004200 0.000000
-17.962800 0.000000
-17.921400 0.000000
-17.880100 0.000000
-17.838700 0.000000
-17.797300 0.000000
-17.756000 0.000000
-17.714600 0.000000
-17.673200 0.000000
-17.631900 0.000000
-17.590500 0.000000
-17.549100 0.000000
-17.507800 0.000000
-17.466400 0.000000
-17.425000 0.000000
-17.383700 0.000000
-17.342300 0.000000
-17.300900 0.000000
-17.259600 0.000000
-17.218200 0.000000
-17.176800 0.000000
-17.135500 0.000000
-17.094100 0.000000
-17.052700 0.000000
-17.011400 0.000000
-16.970000 0.000000
-16.928600 0.000000
-16.887300 0.000000
-16.845900 0.000000
-16.804500 0.000000
-16.763200 0.000000
-16.721800 0.000000
-16.680400 0.000000
-16.639100 0.000000
-16.597700 0.000000
-16.556300 0.000000
-16.515000 0.000000
-16.473600 0.000000
-16.432200 0.000000
-16.390900 0.000000
-16.349500 0.000000
-16.308100 0.000000
-16.266800 0.000000
-16.225400 0.000000
-16.184000 0.000000
-16.142700 0.000000
-16.101300 0.000000
-16.059900 0.000000
-16.018600 0.000000
-15.977200 0.000000
-15.935800 0.000000
-15.894500 0.000000
-15.853100 0.000000
-15.811700 0.000000
-15.770400 0.000000
-15.729000 0.000000
-15.687600 0.000000
-15.646300 0.000000
-15.604900 0.000000
-15.563500 0.000000
-15.522200 0.000000
-15.480800 0.000000
-15.439400 0.000000
-15.398100 0.000000
-15.356700 0.000000
-15.315300 0.000000
-15.274000 0.000000
-15.232600 0.000000
-15.191200 0.000000
-15.149900 0.000000
-15.108500 0.000000
-15.067100 0.000000
-15.025800 0.000000
-14.984400 0.000000
-14.943000 0.000000
-14.901700 0.000000
-14.860300 0.000000
-14.818900 0.000000
-14.777600 0.000000
-14.736200 0.000000
-14.694800 0.000000
-14.653500 0.000000
-14.612100 0.000000
-14.570700 0.000000
-14.529400 0.000000
-14.488000 0.000000
-14.446600 0.000000
-14.405200 0.000000
-14.363900 0.000000
-14.322500 0.000000
-14.281100 0.000000
-14.239800 0.000000
-14.198400 0.000000
-14.157000 0.000000
-14.115700 0.000000
-14.074300 0.000000
-14.032900 0.000000
-13.991600 0.000000
-13.950200 0.000000
-13.908800 0.000000
-13.867500 0.000000
-13.826100 0.000000
-13.784700 0.000000
-13.743400 0.000000
-13.702000 0.000000
-13.660600 0.000000
-13.619300 0.000000
-13.577900 0.000000
-13.536500 0.000000
-13.495200 0.000000
-13.453800 0.000000
-13.412400 0.000000
-13.371100 0.000000
-13.329700 0.000000
-13.288300 0.000000
-13.247000 0.000000
-13.205600 0.000000
-13.164200 0.000000
-13.122900 0.000000
-13.081500 0.000000
-13.040100 0.000000
-12.998800 0.000000
-12.957400 0.000000
-12.916000 0.000000
-12.874700 0.000000
-12.833300 0.000000
-12.791900 0.000000
-12.750600 0.000000
-12.709200 0.000000
-12.667800 0.000000
-12.626500 0.000000
-12.585100 0.000000
-12.543700 0.000000
-12.502400 0.000000
-12.461000 0.000000
-12.419600 0.000000
-12.378300 0.000000
-12.336900 0.000000
-12.295500 0.000000
-12.254200 0.000000
-12.212800 0.000000
-12.171400 0.000000
-12.130100 0.000000
-12.088700 0.000000
-12.047300 0.000000
-12.006000 0.000000
-11.964600 0.000000
-11.923200 0.000000
-11.881900 0.000000
-11.840500 0.000000
-11.799100 0.000000
-11.757800 0.000000
-11.716400 0.000000
-11.675000 0.000000
-11.633700 0.000000
-11.592300 0.000000
-11.550900 0.000000
-11.509600 0.000000
-11.468200 0.000000
-11.426800 0.000000
-11.385500 0.000000
-11.344100 0.000000
-11.302700 0.000000
-11.261400 0.000000
-11.220000 0.000000
-11.178600 0.000000
-11.137300 0.000000
-11.095900 0.000000
-11.054500 0.000000
-11.013200 0.000000
-10.971800 0.000000
-10.930400 0.000000
-10.889100 0.000000
-10.847700 0.000000
-10.806300 0.000000
-10.764900 0.000000
-10.723600 0.000000
-10.682200 0.000000
-10.640800 0.000000
-10.599500 0.000000
-10.558100 0.000000
-10.516700 0.000000
-10.475400 0.000000
-10.434000 0.000000
-10.392600 0.000000
-10.351300 0.000000
-10.309900 0.000000
-10.268500 0.000000
-10.227200 0.000000
-10.185800 0.000000
-10.144400 0.000000
-10.103100 0.000000
-10.061700 0.000000
-10.020300 0.000000
-9.979000 0.000000
-9.937600 0.000000
-9.896200 0.000000
-9.854900 0.000000
-9.813500 0.000000
-9.772100 0.000000
-9.730800 0.000000
-9.689400 0.000000
-9.648000 0.000000
-9.606700 0.000000
-9.565300 0.000000
-9.523900 0.000000
-9.482600 0.000000
-9.441200 0.000000
-9.399800 0.000000
-9.358500 0.000000
-9.317100 0.000000
-9.275700 0.000000
-9.234400 0.000000
-9.193000 0.000000
-9.151600 0.000000
-9.110300 0.000000
-9.068900 0.000000
-9.027500 0.000000
-8.986200 0.000000
-8.944800 0.000000
-8.903400 0.000000
-8.862100 0.000000
-8.820700 0.000000
-8.779300 0.000000
-8.738000 0.000000
-8.696600 0.000000
-8.655200 0.000000
-8.613900 0.000000
-8.572500 0.000000
-8.531100 0.000000
-8.489800 0.000000
-8.448400 0.000000
-8.407000 0.000000
-8.365700 0.000000
-8.324300 0.000000
-8.282900 0.000000
-8.241600 0.000000
-8.200200 0.000000
-8.158800 0.000000
-8.117500 0.000000
-8.076100 0.000000
-8.034700 0.000000
-7.993400 0.000000
-7.952000 0.000000
-7.910600 0.000000
-7.869300 0.000000
-7.827900 0.000000
-7.786500 0.000000
-7.745200 0.000000
-7.703800 0.000000
-7.662400 0.000000
-7.621100 0.000000
-7.579700 0.000000
-7.538300 0.000000
-7.497000 0.000000
-7.455600 0.000000
-7.414200 0.000000
-7.372900 0.000000
-7.331500 0.000000
-7.290100 0.000000
-7.248700 0.000000
-7.207400 0.000000
-7.166000 0.000000
-7.124600 0.000000
-7.083300 0.000000
-7.041900 0.000000
-7.000500 0.000000
-6.959200 0.000000
-6.917800 0.000000
-6.876400 0.000000
-6.835100 0.000000
-6.793700 0.000000
-6.752300 0.000000
-6.711000 0.000000
-6.669600 0.000000
-6.628200 0.000000
-6.586900 0.000000
-6.545500 0.000000
-6.504100 0.000000
-6.462800 0.000000
-6.421400 0.000000
-6.380000 0.000000
-6.338700 0.000000
-6.297300 0.000000
-6.255900 0.000000
-6.214600 0.000000
-6.173200 0.000000
-6.131800 0.000000
-6.090500 0.000000
-6.049100 0.000000
-6.007700 0.000000
-5.966400 0.000000
-5.925000 0.000000
-5.883600 0.000000
-5.842300 0.000000
-5.800900 0.000000
-5.759500 0.000000
-5.718200 0.000000
-5.676800 0.000000
-5.635400 0.000000
-5.594100 0.000000
-5.552700 0.000000
-5.511300 0.000000
-5.470000 0.000000
-5.428600 0.000000
-5.387200 0.000000
-5.345900 0.000000
-5.304500 0.000000
-5.263100 0.000000
-5.221800 0.000000
-5.180400 0.000000
-5.139000 0.000000
-5.097700 0.000000
-5.056300 0.000000
-5.014900 0.000000
-4.973600 0.000000
-4.932200 0.000000
-4.890800 0.000000
-4.849500 0.000000
-4.808100 0.000000
-4.766700 0.000000
-4.725400 0.000000
-4.684000 0.000000
-4.642600 0.000000
-4.601300 0.000000
-4.559900 0.000000
-4.518500 0.000000
-4.477200 0.000000
-4.435800 0.000000
-4.394400 0.000000
-4.353100 0.000000
-4.311700 0.000000
-4.270300 0.000000
-4.229000 0.000000
-4.187600 0.000000
-4.146200 0.000000
-4.104900 0.000000
-4.063500 0.000000
-4.022100 0.000000
-3.980800 0.000000
-3.939400 0.000000
-3.898000 0.000000
-3.856700 0.000000
-3.815300 0.000000
-3.773900 0.000000
-3.732600 0.000000
-3.691200 0.000000
-3.649800 0.000000
-3.608400 0.000000
-3.567100 0.000000
-3.525700 0.000000
-3.484300 0.000000
-3.443000 0.000000
-3.401600 0.000000
-3.360200 0.000000
-3.318900 0.000000
-3.277500 0.000000
-3.236100 0.000000
-3.194800 0.000000
-3.153400 0.000000
-3.112000 0.000000
-3.070700 0.000000
-3.029300 0.000000
-2.987900 0.000000
-2.946600 0.000000
-2.905200 0.000000
-2.863800 0.000000
-2.822500 0.000000
-2.781100 0.000000
-2.739700 0.000000
-2.698400 0.000000
-2.657000 0.000000
-2.615600 0.000000
-2.574300 0.000000
-2.532900 0.000000
-2.491500 0.000000
-2.450200 0.000000
-2.408800 0.000000
-2.367400 0.000400
-2.326100 0.013100
-2.284700 0.034200
-2.243300 0.061400
-2.202000 0.093400
-2.160600 0.130000
-2.119200 0.171000
-2.077900 0.207800
-2.036500 0.199600
-1.995100 0.205800
-1.953800 0.211700
-1.912400 0.217500
-1.871000 0.226000
-1.829700 0.227500
-1.788300 0.235500
-1.746900 0.256900
-1.705600 0.280700
-1.664200 0.306900
-1.622800 0.318500
-1.581500 0.331200
-1.540100 0.346700
-1.498700 0.362300
-1.457400 0.376700
-1.416000 0.391000
-1.374600 0.407500
-1.333300 0.425500
-1.291900 0.440500
-1.250500 0.452300
-1.209200 0.463100
-1.167800 0.470900
-1.126400 0.473900
-1.085100 0.459300
-1.043700 0.466500
-1.002300 0.474100
-0.961000 0.481500
-0.919600 0.488600
-0.878200 0.495200
-0.836900 0.501800
-0.795500 0.508700
-0.754100 0.521400
-0.712800 0.540400
-0.671400 0.563200
-0.630000 0.589500
-0.588700 0.619200
-0.547300 0.651700
-0.505900 0.672200
-0.464600 0.690600
-0.423200 0.716100
-0.381800 0.749600
-0.340500 0.781600
-0.299100 0.813100
-0.257700 0.841600
-0.216400 0.866100
-0.175000 0.883900
-0.133600 0.888500
-0.092300 0.897500
-0.050900 0.922200
-0.009500 0.949300
0.031900 0.977700
0.073200 1.006700
0.114600 1.036700
0.156000 1.069200
0.197300 1.130600
0.238700 1.220700
0.280100 1.313900
0.321400 1.412100
0.362800 1.510600
0.404200 1.619900
0.445500 2.095200
0.486900 2.481400
0.528300 2.940600
0.569600 3.163900
0.611000 3.060000
0.652400 3.245500
0.693700 3.305500
0.735100 3.573700
0.776500 3.604400
0.817800 3.709000
0.859200 3.873000
0.900600 4.264100
0.941900 4.958700
0.983300 4.932200
1.024700 5.316800
1.066000 5.547000
1.107400 5.259400
1.148800 5.086900
1.190100 5.038400
1.231500 4.814200
1.272900 4.809800
1.314200 4.981300
1.355600 5.936000
1.397000 6.383200
1.438300 6.818400
1.479700 7.529400
1.521100 7.234800
1.562400 6.914300
1.603800 6.857000
1.645200 6.582800
1.686500 6.585400
1.727900 6.720600
1.769300 6.775000
1.810600 6.746600
1.852000 7.352100
1.893400 7.494300
1.934700 6.990900
1.976100 5.773900
2.017500 5.927400
2.058800 6.442900
2.100200 5.795600
2.141600 6.000300
2.182900 7.064100
2.224300 4.932300
2.265700 5.007000
2.307000 5.548100
2.348400 6.600300
2.389800 6.019900
2.431100 5.972100
2.472500 6.015100
2.513900 5.275700
2.555200 4.220100
2.596600 3.673100
2.638000 3.233300
2.679300 4.168600
2.720700 5.904400
2.762100 6.037200
2.803400 6.319400
2.844800 6.872000
2.886200 7.843200
2.927500 8.669500
2.968900 9.158000
3.010300 9.007900
3.051600 9.018300
3.093000 6.773900
3.134400 8.322600
3.175700 9.607100
3.217100 10.089500
3.258500 9.575500
3.299800 8.365500
3.341200 7.219100
3.382600 6.886600
3.423900 6.752700
3.465300 6.676000
3.506700 8.608700
3.548000 6.424800
3.589400 6.347100
3.630800 6.490100
3.672200 7.817800
3.713500 7.828400
3.754900 9.082600
3.796300 7.951900
3.837600 10.275000
3.879000 9.557400
3.920400 7.314000
3.961700 7.754400
4.003100 6.347100
4.044500 5.891300
4.085800 5.984100
4.127200 6.754700
4.168600 6.696600
4.209900 6.634900
4.251300 8.329400
4.292700 10.828200
4.334000 8.436500
4.375400 8.366200
4.416800 8.832700
4.458100 15.007300
4.499500 8.401600
4.540900 6.517600
4.582200 5.994700
4.623600 6.245000
4.665000 6.720900
4.706300 6.402500
4.747700 5.835000
4.789100 5.808400
4.830400 5.992200
4.871800 5.458800
4.913200 5.715900
4.954500 6.319900
4.995900 8.319400
5.037300 7.243900
5.078600 6.883300
5.120000 6.222000
5.161400 9.912900
5.202700 7.763300
5.244100 7.167800
5.285500 6.346900
5.326800 7.051000
5.368200 5.928300
5.409600 6.085400
5.450900 6.128700
5.492300 6.532600
5.533700 5.743500
5.575000 5.274600
5.616400 5.081100
5.657800 6.977000
5.699100 5.033700
5.740500 5.410300
5.781900 6.042500
5.823200 6.245500
5.864600 5.093300
5.906000 4.739300
5.947300 4.758100
5.988700 5.552500
6.030100 7.116100
6.071400 8.653500
6.112800 9.222300
6.154200 7.740400
6.195500 6.526700
6.236900 6.220100
6.278300 6.218500
6.319600 6.567800
6.361000 6.672000
6.402400 6.463600
6.443700 6.134200
6.485100 5.841100
6.526500 5.707900
6.567800 5.836700
6.609200 6.304300
6.650600 7.758200
6.691900 9.693100
6.733300 6.147400
6.774700 5.050600
6.816000 5.033200
6.857400 7.802300
6.898800 7.911700
6.940100 6.990700
6.981500 5.929500
7.022900 6.575700
7.064200 7.364000
7.105600 7.762700
7.147000 7.888200
7.188300 8.065800
7.229700 6.506800
7.271100 4.900800
7.312500 4.758600
7.353800 4.898900
7.395200 5.819800
7.436600 6.135800
7.477900 6.921100
7.519300 7.086100
7.560700 7.514300
7.602000 7.270100
7.643400 7.274100
7.684800 5.959200
7.726100 5.970700
7.767500 5.930000
7.808900 5.671000
7.850200 7.257800
7.891600 6.370800
7.933000 5.397600
7.974300 4.295100
8.015700 3.964800
8.057100 3.750400
8.098400 4.001900
8.139800 4.822000
8.181200 5.345100
8.222500 6.181900
8.263900 6.385200
8.305300 11.109400
8.346600 5.411100
8.388000 4.004700
8.429400 2.928100
8.470700 2.770800
8.512100 2.669400
8.553500 2.593000
8.594800 2.513700
8.636200 2.469500
8.677600 2.651000
8.718900 2.537200
8.760300 2.442800
8.801700 2.346400
8.843000 2.251400
8.884400 2.154500
8.925800 2.010000
8.967100 1.877400
9.008500 1.839200
9.049900 1.802600
9.091200 1.764200
9.132600 1.741900
9.174000 1.726300
9.215300 1.703400
9.256700 1.702200
9.298100 1.702100
9.339400 1.700500
9.380800 1.688800
9.422200 1.672500
9.463500 1.654000
9.504900 1.637600
9.546300 1.626300
9.587600 1.616600
9.629000 1.607500
9.670400 1.598300
9.711700 1.589100
9.753100 1.580100
9.794500 1.572300
9.835800 1.565800
9.877200 1.560700
9.918600 1.515500
9.959900 1.495500
10.001300 1.488100
10.042700 1.483600
10.084000 1.478300
10.125400 1.471000
10.166800 1.527500
10.208100 1.637100
10.249500 1.640500
10.290900 1.537000
10.332200 1.452100
10.373600 1.397600
10.415000 1.368100
10.456300 1.349000
10.497700 1.335500
10.539100 1.326100
10.580400 1.335700
10.621800 1.356000
10.663200 1.387900
10.704500 1.401600
10.745900 1.370100
10.787300 1.360300
10.828700 1.354800
10.870000 1.354000
10.911400 1.353400
10.952800 1.351800
10.994100 1.345300
11.035500 1.338600
11.076900 1.331100
11.118200 1.299400
11.159600 1.287500
11.201000 1.276900
11.242300 1.272400
11.283700 1.574900
11.325100 1.180700
11.366400 1.180800
11.407800 1.163500
11.449200 1.158000
11.490500 1.153100
11.531900 1.148600
11.573300 1.145200
11.614600 1.142800
11.656000 1.143800
11.697400 1.391000
11.738700 1.260800
11.780100 1.094300
11.821500 1.108400
11.862800 1.114500
11.904200 1.170200
11.945600 1.256700
11.986900 1.239100
12.028300 1.139300
12.069700 0.960700
12.111000 0.930600
12.152400 0.944400
12.193800 0.915500
12.235100 0.909900
12.276500 0.903600
12.317900 0.900300
12.359200 0.914500
12.400600 0.942500
12.442000 0.975500
12.483300 0.937300
12.524700 0.933600
12.566100 0.940100
12.607400 0.944800
12.648800 0.960100
12.690200 0.992800
12.731500 1.042000
12.772900 1.040300
12.814300 1.050600
12.855600 1.069500
12.897000 1.054900
12.938400 1.064400
12.979700 1.091700
13.021100 1.161800
13.062500 1.487800
13.103800 3.033200
13.145200 2.762600
13.186600 2.431900
13.227900 2.268100
13.269300 2.123100
13.310700 2.025100
13.352000 1.897600
13.393400 1.752200
13.434800 1.533900
13.476100 1.341100
13.517500 1.256800
13.558900 1.241200
13.600200 1.264900
13.641600 1.335400
13.683000 1.450900
13.724300 1.546800
13.765700 1.738700
13.807100 1.801100
13.848400 1.752000
13.889800 1.642000
13.931200 1.661600
13.972500 1.692100
14.013900 1.709900
14.055300 1.711600
14.096600 1.706000
14.138000 1.670900
14.179400 1.637000
14.220700 1.608700
14.262100 1.593100
14.303500 1.560400
14.344800 1.545900
14.386200 1.715000
14.427600 1.756100
14.469000 1.613500
14.510300 1.511100
14.551700 1.379000
14.593100 1.338900
14.634400 1.344000
14.675800 1.359000
14.717200 1.386300
14.758500 1.388200
14.799900 1.404300
14.841300 1.425200
14.882600 1.424500
14.924000 1.474800
14.965400 1.519800
15.006700 1.580800
15.048100 1.701800
15.089500 1.749100
15.130800 1.557600
15.172200 1.456900
15.213600 1.403100
15.254900 1.397900
15.296300 1.403200
15.337700 1.419000
15.379000 1.404500
15.420400 1.368300
15.461800 1.336200
15.503100 1.311300
15.544500 1.291200
15.585900 1.273100
15.627200 1.258500
15.668600 1.240300
15.710000 1.232900
15.751300 1.239400
15.792700 1.261400
15.834100 1.340000
15.875400 1.344400
15.916800 1.293300
15.958200 1.295100
15.999500 1.385800
16.040900 1.587600
16.082300 1.617000
16.123600 1.547100
16.165000 1.519300
16.206400 1.501400
16.247700 1.488700
16.289100 1.482500
16.330500 1.483400
16.371800 1.487000
16.413200 1.493900
16.454600 1.491300
16.495900 1.487300
16.537300 1.477200
16.578700 1.480500
16.620000 1.551300
16.661400 1.614600
16.702800 1.558200
16.744100 1.510700
16.785500 1.476200
16.826900 1.452500
16.868200 1.435400
16.909600 1.439700
16.951000 1.447900
16.992300 1.457200
17.033700 1.472300
17.075100 1.575600
17.116400 1.869800
17.157800 2.042700
17.199200 2.049300
17.240500 2.032500
17.281900 2.061500
17.323300 2.130600
17.364600 2.152800
17.406000 2.136500
17.447400 2.096000
17.488700 2.055900
17.530100 2.077100
17.571500 2.209000
17.612800 1.891500
17.654200 1.794700
17.695600 1.738600
17.736900 1.682000
17.778300 1.625200
17.819700 1.584000
17.861000 1.566000
17.902400 1.555600
17.943800 1.548800
17.985100 1.544600
18.026500 1.542800
18.067900 1.540600
18.109300 1.537600
18.150600 1.551700
18.192000 1.591800
18.233400 1.627600
18.274700 1.656800
18.316100 1.676900
18.357500 1.692800
18.398800 1.718300
18.440200 1.815400
18.481600 1.989400
18.522900 2.125000
18.564300 2.133000
18.605700 2.131600
18.647000 2.117300
18.688400 2.119700
18.729800 2.140100
18.771100 2.191800
18.812500 2.233300
18.853900 2.257300
18.895200 2.261900
18.936600 2.253600
18.978000 2.244300
19.019300 2.240900
19.060700 2.254500
19.102100 2.228400
19.143400 2.309700
19.184800 2.373400
19.226200 2.302800
19.267500 2.152500
19.308900 2.026200
19.350300 1.983900
19.391600 2.124500
19.433000 2.122500
19.474400 2.076700
19.515700 2.136400
19.557100 2.165600
19.598500 2.195100
19.639800 2.211600
19.681200 2.223400
19.722600 2.217800
19.763900 2.206600
19.805300 2.193800
19.846700 2.228600
19.888000 2.384700
19.929400 2.475000
19.970800 2.543900
20.012100 2.544600
20.053500 2.533000
20.094900 2.438000
20.136200 2.304600
20.177600 2.234000
20.219000 2.264800
20.260300 2.307900
20.301700 2.356600
20.343100 2.386400
20.384400 2.405300
20.425800 2.422600
20.467200 2.429700
20.508500 2.469100
20.549900 2.451800
20.591300 2.477100
20.632600 2.620700
20.674000 2.750600
20.715400 2.534300
20.756700 2.437600
20.798100 2.418800
20.839500 2.429300
20.880800 2.471900
20.922200 2.546800
20.963600 2.620400
21.004900 2.680400
21.046300 2.815500
21.087700 2.775500
21.129000 2.843400
21.170400 2.907900
21.211800 2.951900
21.253100 2.950900
21.294500 2.949000
21.335900 2.977600
21.377200 2.989000
21.418600 2.875500
21.460000 2.767100
21.501300 2.673000
21.542700 2.570500
21.584100 2.502000
21.625400 2.461500
21.666800 2.451900
21.708200 2.480400
21.749600 2.541400
21.790900 2.605000
21.832300 2.699400
21.873700 2.790900
21.915000 2.878800
21.956400 2.936800
21.997800 2.899900
22.039100 2.878100
22.080500 2.889700
22.121900 2.878800
22.163200 2.843400
22.204600 2.963800
22.246000 2.763800
22.287300 2.776600
22.328700 2.880600
22.370100 3.080500
22.411400 3.041700
22.452800 3.060300
22.494200 3.154200
22.535500 3.255000
22.576900 3.335500
22.618300 3.277400
22.659600 3.205200
22.701000 3.149000
22.742400 3.121800
22.783700 3.128500
22.825100 3.392600
22.866500 3.341900
22.907800 3.123100
22.949200 3.029800
22.990600 3.223800
23.031900 3.431700
23.073300 3.420300
23.114700 3.111800
23.156000 3.042200
23.197400 3.139300
23.238800 3.239400
23.280100 3.181300
23.321500 3.080200
23.362900 2.858900
23.404200 2.784100
23.445600 2.771100
23.487000 2.773400
23.528300 2.761700
23.569700 2.761200
23.611100 2.784700
23.652400 2.826700
23.693800 2.864200
23.735200 2.901900
23.776500 2.937800
23.817900 2.948200
23.859300 2.953100
23.900600 3.003900
23.942000 3.175500
23.983400 3.344000
24.024700 3.817600
24.066100 3.634200
24.107500 3.258700
24.148800 3.009900
24.190200 2.762400
24.231600 2.676400
24.272900 2.670300
24.314300 2.673600
24.355700 2.657500
24.397000 2.560000
24.438400 2.535400
24.479800 2.525700
24.521100 2.511200
24.562500 2.514600
24.603900 2.525900
24.645200 2.541500
24.686600 2.521300
24.728000 2.519400
24.769300 2.468800
24.810700 2.424800
24.852100 2.413900
24.893400 2.415000
24.934800 2.447700
24.976200 2.432900
25.017500 2.369100
25.058900 2.321100
25.100300 2.268900
25.141600 2.203900
25.183000 2.134900
25.224400 2.077500
25.265700 2.049600
25.307100 2.036000
25.348500 2.034300
25.389900 2.072900
25.431200 2.033100
25.472600 2.000200
25.514000 1.958400
25.555300 1.925900
25.596700 1.908500
25.638100 1.915700
25.679400 1.893400
25.720800 1.891300
25.762200 1.914500
25.803500 1.962800
25.844900 1.988400
25.886300 1.990300
25.927600 2.015000
25.969000 2.038600
26.010400 2.045300
26.051700 1.983100
26.093100 1.952800
26.134500 1.940900
26.175800 1.933400
26.217200 1.931900
26.258600 1.957400
26.299900 2.031800
26.341300 2.165200
26.382700 2.298800
26.424000 2.404700
26.465400 2.522000
26.506800 2.600800
26.548100 2.651900
26.589500 2.685700
26.630900 2.704100
26.672200 2.675800
26.713600 2.656100
26.755000 2.627600
26.796300 2.630400
26.837700 2.576200
26.879100 2.711500
26.920400 2.699600
26.961800 2.629600
27.003200 2.668900
27.044500 2.775600
27.085900 2.889000
27.127300 2.994500
27.168600 3.114900
27.210000 3.300200
27.251400 3.504200
27.292700 3.677300
27.334100 3.592300
27.375500 3.462300
27.416800 3.340500
27.458200 3.332500
27.499600 3.561100
27.540900 3.811200
27.582300 3.972500
27.623700 4.198100
27.665000 4.375600
27.706400 4.597700
27.747800 4.509100
27.789100 4.556800
27.830500 4.551900
27.871900 4.143600
27.913200 4.146100
27.954600 4.147800
27.996000 4.080100
28.037300 3.942100
28.078700 3.807800
28.120100 3.710800
28.161400 3.916600
28.202800 3.363600
28.244200 3.042900
28.285500 2.809200
28.326900 2.747800
28.368300 2.885700
28.409600 2.831000
28.451000 2.796800
28.492400 2.897400
28.533700 2.918400
28.575100 2.979100
28.616500 3.059000
28.657800 3.217000
28.699200 3.229200
28.740600 3.269400
28.781900 2.994400
28.823300 2.930700
28.864700 2.900200
28.906000 2.865000
28.947400 2.825400
28.988800 2.831100
29.030200 2.897400
29.071500 2.952500
29.112900 2.944700
29.154300 2.888900
29.195600 2.799000
29.237000 3.007800
29.278400 2.720900
29.319700 2.636600
29.361100 2.583200
29.402500 2.588200
29.443800 2.678800
29.485200 2.760100
29.526600 2.838900
29.567900 2.965900
29.609300 3.021300
29.650700 3.082400
29.692000 3.075800
29.733400 3.081900
29.774800 2.874500
29.816100 2.752400
29.857500 2.718100
29.898900 2.649700
29.940200 2.338500
29.981600 2.263400
30.023000 2.222500
30.064300 2.228000
30.105700 2.329900
30.147100 2.270400
30.188400 2.117800
30.229800 2.012400
30.271200 1.936400
30.312500 1.841200
30.353900 1.807500
30.395300 1.800400
30.436600 1.791700
30.478000 1.793700
30.519400 1.813100
30.560700 1.821400
30.602100 1.794100
30.643500 1.657700
30.684800 1.585700
30.726200 1.503400
30.767600 1.452500
30.808900 1.436300
30.850300 1.433600
30.891700 1.441700
30.933000 1.464400
30.974400 1.513500
31.015800 1.561600
31.057100 1.626300
31.098500 1.693800
31.139900 1.752000
31.181200 1.719900
31.222600 1.702400
31.264000 1.707700
31.305300 1.715400
31.346700 1.768300
31.388100 1.812500
31.429400 1.867800
31.470800 1.923600
31.512200 1.980600
31.553500 2.029200
31.594900 2.019700
31.636300 2.048500
31.677600 2.070200
31.719000 2.061800
31.760400 2.074900
31.801700 2.085000
31.843100 2.088100
31.884500 2.115300
31.925800 2.114200
31.967200 2.342500
32.008600 2.415300
32.049900 2.469700
32.091300 2.468500
32.132700 2.455100
32.174000 2.497300
32.215400 2.598000
32.256800 2.729000
32.298100 2.846800
32.339500 2.677800
32.380900 2.623800
32.422200 2.387100
32.463600 2.422900
32.505000 2.655000
32.546400 2.877900
32.587700 2.998000
32.629100 2.955500
32.670500 2.970500
32.711800 2.985200
32.753200 2.927800
32.794600 2.950500
32.835900 2.898000
32.877300 2.868900
32.918700 2.868900
32.960000 2.826700
33.001400 2.702100
33.042800 2.833600
33.084100 2.993400
33.125500 3.217300
33.166900 3.357000
33.208200 3.044200
33.249600 2.897700
33.291000 2.754200
33.332300 2.701100
33.373700 2.706000
33.415100 2.724100
33.456400 2.732100
33.497800 2.741500
33.539200 2.747700
33.580500 2.880700
33.621900 2.868400
33.663300 3.219300
33.704600 3.173400
33.746000 3.187900
33.787400 3.143400
33.828700 3.139700
33.870100 3.304200
33.911500 3.446900
33.952800 3.401500
33.994200 3.353000
34.035600 3.543200
34.076900 3.506700
34.118300 3.315500
34.159700 3.111600
34.201000 2.966700
34.242400 2.904300
34.283800 2.864300
34.325100 2.839800
34.366500 3.020300
34.407900 3.367300
34.449200 3.657600
34.490600 4.075900
34.532000 4.370500
34.573300 4.119200
34.614700 3.985700
34.656100 3.969700
34.697400 3.885200
34.738800 4.058900
34.780200 3.872800
34.821500 3.588700
34.862900 3.824300
34.904300 4.055800
34.945600 4.098700
34.987000 4.097800
35.028400 4.852300
35.069700 5.496900
35.111100 4.704600
35.152500 4.394600
35.193800 4.147800
35.235200 3.916800
35.276600 3.816600
35.317900 3.934900
35.359300 4.036800
35.400700 4.270300
35.442000 4.271100
35.483400 4.514600
35.524800 4.298100
35.566100 4.049200
35.607500 3.770700
35.648900 3.706400
35.690200 3.642700
35.731600 3.935000
35.773000 4.261400
35.814300 4.469300
35.855700 4.411200
35.897100 4.972900
35.938400 4.751200
35.979800 4.460500
36.021200 4.110300
36.062500 3.988200
36.103900 3.739100
36.145300 3.652800
36.186700 3.671300
36.228000 3.550500
36.269400 3.428800
36.310800 3.355700
36.352100 3.378800
36.393500 3.257200
36.434900 3.105900
36.476200 3.121200
36.517600 3.036900
36.559000 2.916400
36.600300 2.831800
36.641700 2.662000
36.683100 2.395900
36.724400 2.250600
36.765800 2.174800
36.807200 2.126900
36.848500 2.047800
36.889900 2.044200
36.931300 2.072200
36.972600 2.101900
37.014000 2.310400
37.055400 2.298900
37.096700 2.231900
37.138100 2.137500
37.179500 2.013200
37.220800 1.835700
37.262200 1.734800
37.303600 1.707600
37.344900 1.717400
37.386300 1.737400
37.427700 1.753000
37.469000 1.800100
37.510400 1.781500
37.551800 1.689100
37.593100 1.531000
37.634500 1.347400
37.675900 1.183900
37.717200 1.067600
37.758600 0.987400
37.800000 0.905600
37.841300 0.819000
37.882700 0.775200
37.924100 0.753100
37.965400 0.746600
38.006800 0.740200
38.048200 0.730100
38.089500 0.716000
38.130900 0.700300
38.172300 0.696800
38.213600 0.695400
38.255000 0.775400
38.296400 0.688300
38.337700 0.569800
38.379100 0.454700
38.420500 0.424200
38.461800 0.390900
38.503200 0.355000
38.544600 0.316600
38.585900 0.275500
38.627300 0.232600
38.668700 0.209200
38.710000 0.189100
38.751400 0.169100
38.792800 0.149100
38.834100 0.129300
38.875500 0.109600
38.916900 0.089500
38.958200 0.067300
38.999600 0.043400
39.041000 0.018100
39.082300 0.000700
39.123700 0.000000
39.165100 0.000000
39.206400 0.000000
39.247800 0.000000
39.289200 0.000000
39.330500 0.000000
39.371900 0.000000
39.413300 0.000000
39.454600 0.000000
39.496000 0.000000
39.537400 0.000000
39.578700 0.000000
39.620100 0.000000
39.661500 0.000000
39.702800 0.000000
39.744200 0.000000
39.785600 0.000000
39.827000 0.000000
39.868300 0.000000
39.909700 0.000000
39.951100 0.000000
39.992400 0.000000
40.033800 0.000000
40.075200 0.000000
40.116500 0.000000
40.157900 0.000000
40.199300 0.000000
40.240600 0.000000
40.282000 0.000000
40.323400 0.000000
40.364700 0.000000
40.406100 0.000000
40.447500 0.000000
40.488800 0.000000
40.530200 0.000000
40.571600 0.000000
40.612900 0.000000
40.654300 0.000000
40.695700 0.000000
40.737000 0.000000
40.778400 0.000000
40.819800 0.000000
40.861100 0.000000
40.902500 0.000000
40.943900 0.000000
40.985200 0.000000
41.026600 0.000000
41.068000 0.000000
41.109300 0.000000
41.150700 0.000000
41.192100 0.000000
41.233400 0.000000
41.274800 0.000000
41.316200 0.000000
41.357500 0.000000
41.398900 0.000000
41.440300 0.000000
41.481600 0.000000
41.523000 0.000000
41.564400 0.000000
41.605700 0.000000
41.647100 0.000000
41.688500 0.000000
41.729800 0.000000
41.771200 0.000000
41.812600 0.000000
41.853900 0.000000
41.895300 0.000000
41.936700 0.000000
41.978000 0.000000
42.019400 0.000000
42.060800 0.000000
42.102100 0.000000
42.143500 0.000000
42.184900 0.000000
42.226200 0.000000
42.267600 0.000000
42.309000 0.000000
42.350300 0.000000
42.391700 0.000000
42.433100 0.000000
42.474400 0.000000
42.515800 0.000000
42.557200 0.000000
42.598500 0.000000
42.639900 0.000000
42.681300 0.000000
42.722600 0.000000
42.764000 0.000000
42.805400 0.000000
42.846700 0.000000
e
