set title 'mp-619071 - Density of States'
set xlabel 'Energy (eV)'
set ylabel 'DOS (states/eV)'
set grid
set xrange [-10:10]
set yrange [0:108.340]
set xzeroaxis lt -1
set terminal png size 800,600
set output 'mp-619071_dos_gnuplot.png'
plot '-' using 1:2 with lines title 'DOS'
-15.172600 0.000000
-15.156800 0.000000
-15.140900 0.000000
-15.125000 0.000000
-15.109200 0.000000
-15.093300 0.000000
-15.077500 0.000000
-15.061600 0.000000
-15.045700 0.000000
-15.029900 0.000000
-15.014000 0.000000
-14.998200 0.000000
-14.982300 0.000000
-14.966400 0.000000
-14.950600 0.000000
-14.934700 0.000000
-14.918800 0.000000
-14.903000 0.000000
-14.887100 0.000000
-14.871300 0.000000
-14.855400 0.000000
-14.839500 0.000000
-14.823700 0.000000
-14.807800 0.000000
-14.792000 0.000000
-14.776100 0.000000
-14.760200 0.000000
-14.744400 0.000000
-14.728500 0.000000
-14.712600 0.000000
-14.696800 0.000000
-14.680900 0.000000
-14.665100 0.000000
-14.649200 0.000000
-14.633300 0.000000
-14.617500 0.000000
-14.601600 0.000000
-14.585800 0.000000
-14.569900 0.000000
-14.554000 0.000000
-14.538200 0.000000
-14.522300 0.000000
-14.506400 0.000000
-14.490600 0.000000
-14.474700 0.000000
-14.458900 0.000000
-14.443000 0.000000
-14.427100 0.000000
-14.411300 0.000000
-14.395400 0.000000
-14.379600 0.000000
-14.363700 0.000000
-14.347800 0.000000
-14.332000 0.000000
-14.316100 0.000000
-14.300200 0.000000
-14.284400 0.000000
-14.268500 0.000000
-14.252700 0.000000
-14.236800 0.000000
-14.220900 0.000000
-14.205100 0.000000
-14.189200 0.000000
-14.173400 0.000000
-14.157500 0.000000
-14.141600 0.000000
-14.125800 0.000000
-14.109900 0.000000
-14.094000 0.000000
-14.078200 0.000000
-14.062300 0.000000
-14.046500 0.000000
-14.030600 0.000000
-14.014700 0.000000
-13.998900 0.000000
-13.983000 0.000000
-13.967200 0.000000
-13.951300 0.000000
-13.935400 0.000000
-13.919600 0.000000
-13.903700 0.000000
-13.887800 0.000000
-13.872000 0.000000
-13.856100 0.000000
-13.840300 0.000000
-13.824400 0.000000
-13.808500 0.000000
-13.792700 0.000000
-13.776800 0.000000
-13.761000 0.000000
-13.745100 0.000000
-13.729200 94.781000
-13.713400 774.271900
-13.697500 106.897000
-13.681700 332.482600
-13.665800 815.183300
-13.649900 911.697600
-13.634100 2127.017200
-13.618200 1287.968200
-13.602300 0.000000
-13.586500 0.000000
-13.570600 0.000000
-13.554800 0.000000
-13.538900 0.000000
-13.523000 0.000000
-13.507200 0.000000
-13.491300 0.000000
-13.475500 0.000000
-13.459600 0.000000
-13.443700 0.000000
-13.427900 0.000000
-13.412000 0.000000
-13.396100 0.000000
-13.380300 0.000000
-13.364400 0.000000
-13.348600 0.000000
-13.332700 0.000000
-13.316800 0.000000
-13.301000 0.000000
-13.285100 0.000000
-13.269300 0.000000
-13.253400 0.000000
-13.237500 0.000000
-13.221700 0.000000
-13.205800 0.000000
-13.189900 0.000000
-13.174100 0.000000
-13.158200 0.000000
-13.142400 0.000000
-13.126500 0.000000
-13.110600 0.000000
-13.094800 0.000000
-13.078900 0.000000
-13.063100 0.000000
-13.047200 0.000000
-13.031300 0.000000
-13.015500 0.000000
-12.999600 0.000000
-12.983700 0.000000
-12.967900 0.000000
-12.952000 0.000000
-12.936200 0.000000
-12.920300 0.000000
-12.904400 0.000000
-12.888600 0.000000
-12.872700 0.000000
-12.856900 0.000000
-12.841000 0.000000
-12.825100 0.000000
-12.809300 0.000000
-12.793400 0.000000
-12.777500 0.000000
-12.761700 0.000000
-12.745800 0.000000
-12.730000 0.000000
-12.714100 0.000000
-12.698200 0.000000
-12.682400 0.000000
-12.666500 0.000000
-12.650700 0.000000
-12.634800 0.000000
-12.618900 0.000000
-12.603100 0.000000
-12.587200 0.000000
-12.571300 0.000000
-12.555500 0.000000
-12.539600 0.000000
-12.523800 0.000000
-12.507900 0.000000
-12.492000 0.000000
-12.476200 0.000000
-12.460300 0.000000
-12.444500 0.000000
-12.428600 0.000000
-12.412700 0.000000
-12.396900 0.000000
-12.381000 0.000000
-12.365100 0.000000
-12.349300 0.000000
-12.333400 0.000000
-12.317600 0.000000
-12.301700 0.000000
-12.285800 0.000000
-12.270000 0.000000
-12.254100 0.000000
-12.238300 0.000000
-12.222400 0.000000
-12.206500 0.000000
-12.190700 0.000000
-12.174800 0.000000
-12.158900 0.000000
-12.143100 0.000000
-12.127200 0.000000
-12.111400 0.000000
-12.095500 0.000000
-12.079600 0.000000
-12.063800 0.000000
-12.047900 0.000000
-12.032100 0.000000
-12.016200 0.000000
-12.000300 0.000000
-11.984500 0.000000
-11.968600 0.000000
-11.952800 0.000000
-11.936900 0.000000
-11.921000 0.000000
-11.905200 0.899200
-11.889300 2.067900
-11.873400 3.236600
-11.857600 4.405300
-11.841700 5.573900
-11.825900 6.399800
-11.810000 6.947900
-11.794100 7.276800
-11.778300 9.366700
-11.762400 11.456600
-11.746600 12.896300
-11.730700 21.495100
-11.714800 21.270100
-11.699000 20.622200
-11.683100 19.974300
-11.667200 19.155800
-11.651400 16.412200
-11.635500 17.093000
-11.619700 17.765400
-11.603800 18.084800
-11.587900 17.071100
-11.572100 16.057500
-11.556200 15.043800
-11.540400 14.267700
-11.524500 14.375900
-11.508600 14.774400
-11.492800 15.110500
-11.476900 15.068200
-11.461000 15.176100
-11.445200 15.286600
-11.429300 15.397000
-11.413500 16.352600
-11.397600 22.975500
-11.381700 29.629400
-11.365900 36.287200
-11.350000 31.241100
-11.334200 29.893200
-11.318300 29.699000
-11.302400 28.975800
-11.286600 48.877200
-11.270700 47.982700
-11.254800 49.871600
-11.239000 41.811300
-11.223100 29.449500
-11.207300 40.370500
-11.191400 59.145100
-11.175500 83.922400
-11.159700 0.000000
-11.143800 0.000000
-11.128000 10.223100
-11.112100 27.343100
-11.096200 36.007000
-11.080400 48.645900
-11.064500 55.146500
-11.048600 82.654300
-11.032800 87.391400
-11.016900 85.198300
-11.001100 50.354100
-10.985200 55.141100
-10.969300 219.332000
-10.953500 55.944600
-10.937600 105.614400
-10.921800 62.594500
-10.905900 2.003100
-10.890000 0.000000
-10.874200 0.000000
-10.858300 0.000000
-10.842400 0.000000
-10.826600 0.000000
-10.810700 0.000000
-10.794900 0.000000
-10.779000 0.000000
-10.763100 0.000000
-10.747300 0.000000
-10.731400 0.000000
-10.715600 0.000000
-10.699700 0.000000
-10.683800 0.000000
-10.668000 0.000000
-10.652100 0.000000
-10.636200 0.000000
-10.620400 0.000000
-10.604500 0.000000
-10.588700 0.000000
-10.572800 0.000000
-10.556900 0.000000
-10.541100 0.000000
-10.525200 0.000000
-10.509400 0.000000
-10.493500 0.000000
-10.477600 0.000000
-10.461800 0.000000
-10.445900 0.000000
-10.430000 0.000000
-10.414200 0.000000
-10.398300 0.000000
-10.382500 0.000000
-10.366600 0.000000
-10.350700 0.000000
-10.334900 0.000000
-10.319000 0.000000
-10.303200 0.000000
-10.287300 0.000000
-10.271400 0.000000
-10.255600 0.000000
-10.239700 0.000000
-10.223900 0.000000
-10.208000 0.000000
-10.192100 0.000000
-10.176300 0.000000
-10.160400 0.000000
-10.144500 0.000000
-10.128700 0.000000
-10.112800 0.000000
-10.097000 0.000000
-10.081100 0.000000
-10.065200 0.000000
-10.049400 0.000000
-10.033500 0.000000
-10.017700 0.000000
-10.001800 0.000000
-9.985900 0.000000
-9.970100 0.000000
-9.954200 0.000000
-9.938300 0.000000
-9.922500 0.000000
-9.906600 0.000000
-9.890800 0.000000
-9.874900 0.000000
-9.859000 0.000000
-9.843200 0.000000
-9.827300 0.000000
-9.811500 0.000000
-9.795600 0.000000
-9.779700 0.000000
-9.763900 0.000000
-9.748000 0.000000
-9.732100 0.000000
-9.716300 0.000000
-9.700400 0.000000
-9.684600 0.000000
-9.668700 0.000000
-9.652800 0.000000
-9.637000 0.000000
-9.621100 0.000000
-9.605300 0.000000
-9.589400 0.000000
-9.573500 0.000000
-9.557700 0.000000
-9.541800 0.000000
-9.525900 0.000000
-9.510100 0.000000
-9.494200 0.000000
-9.478400 0.000000
-9.462500 0.000000
-9.446600 0.000000
-9.430800 0.000000
-9.414900 0.000000
-9.399100 0.000000
-9.383200 0.000000
-9.367300 0.000000
-9.351500 0.000000
-9.335600 0.000000
-9.319700 0.000000
-9.303900 0.000000
-9.288000 0.000000
-9.272200 0.000000
-9.256300 0.000000
-9.240400 0.000000
-9.224600 0.000000
-9.208700 0.000000
-9.192900 0.000000
-9.177000 0.000000
-9.161100 0.000000
-9.145300 0.000000
-9.129400 0.000000
-9.113500 0.000000
-9.097700 0.000000
-9.081800 0.000000
-9.066000 0.000000
-9.050100 0.000000
-9.034200 0.000000
-9.018400 0.000000
-9.002500 0.000000
-8.986700 0.000000
-8.970800 0.000000
-8.954900 0.000000
-8.939100 0.000000
-8.923200 0.000000
-8.907300 0.000000
-8.891500 0.000000
-8.875600 0.000000
-8.859800 0.000000
-8.843900 0.000000
-8.828000 0.000000
-8.812200 0.000000
-8.796300 0.000000
-8.780500 0.000000
-8.764600 0.000000
-8.748700 0.000000
-8.732900 0.000000
-8.717000 0.000000
-8.701100 0.000000
-8.685300 0.000000
-8.669400 0.000000
-8.653600 0.000000
-8.637700 0.000000
-8.621800 0.000000
-8.606000 0.000000
-8.590100 0.000000
-8.574300 0.000000
-8.558400 0.000000
-8.542500 0.000000
-8.526700 0.000000
-8.510800 0.000000
-8.495000 0.000000
-8.479100 0.000000
-8.463200 0.000000
-8.447400 0.000000
-8.431500 0.000000
-8.415600 0.000000
-8.399800 0.000000
-8.383900 0.000000
-8.368100 0.000000
-8.352200 0.000000
-8.336300 0.000000
-8.320500 0.000000
-8.304600 0.000000
-8.288800 0.000000
-8.272900 0.000000
-8.257000 0.000000
-8.241200 0.000000
-8.225300 0.000000
-8.209400 0.000000
-8.193600 0.000000
-8.177700 0.000000
-8.161900 0.000000
-8.146000 0.000000
-8.130100 0.000000
-8.114300 0.000000
-8.098400 0.000000
-8.082600 0.000000
-8.066700 0.000000
-8.050800 0.000000
-8.035000 0.000000
-8.019100 0.000000
-8.003200 0.000000
-7.987400 0.000000
-7.971500 0.000000
-7.955700 0.000000
-7.939800 0.000000
-7.923900 0.000000
-7.908100 0.000000
-7.892200 0.000000
-7.876400 0.000000
-7.860500 0.000000
-7.844600 0.000000
-7.828800 0.000000
-7.812900 0.000000
-7.797000 0.000000
-7.781200 0.000000
-7.765300 0.000000
-7.749500 0.000000
-7.733600 0.000000
-7.717700 0.000000
-7.701900 0.000000
-7.686000 0.000000
-7.670200 0.000000
-7.654300 0.000000
-7.638400 0.000000
-7.622600 0.000000
-7.606700 0.000000
-7.590800 0.000000
-7.575000 0.000000
-7.559100 0.000000
-7.543300 0.000000
-7.527400 0.000000
-7.511500 0.000000
-7.495700 0.000000
-7.479800 0.000000
-7.464000 0.000000
-7.448100 0.000000
-7.432200 0.000000
-7.416400 0.000000
-7.400500 0.000000
-7.384600 0.000000
-7.368800 0.000000
-7.352900 0.000000
-7.337100 0.000000
-7.321200 0.000000
-7.305300 0.000000
-7.289500 0.000000
-7.273600 0.000000
-7.257800 0.000000
-7.241900 0.000000
-7.226000 0.000000
-7.210200 0.000000
-7.194300 0.000000
-7.178400 0.000000
-7.162600 0.000000
-7.146700 0.000000
-7.130900 0.000000
-7.115000 0.000000
-7.099100 0.000000
-7.083300 0.000000
-7.067400 0.000000
-7.051600 0.000000
-7.035700 0.000000
-7.019800 0.000000
-7.004000 0.000000
-6.988100 0.000000
-6.972200 0.000000
-6.956400 0.000000
-6.940500 0.000000
-6.924700 0.000000
-6.908800 0.000000
-6.892900 0.000000
-6.877100 0.000000
-6.861200 0.000000
-6.845400 0.000000
-6.829500 0.000000
-6.813600 0.000000
-6.797800 0.000000
-6.781900 0.000000
-6.766100 0.000000
-6.750200 0.000000
-6.734300 0.000000
-6.718500 0.000000
-6.702600 0.000000
-6.686700 0.000000
-6.670900 0.000000
-6.655000 0.000000
-6.639200 0.000000
-6.623300 0.000000
-6.607400 0.000000
-6.591600 0.000000
-6.575700 0.000000
-6.559900 0.000000
-6.544000 0.000000
-6.528100 0.000000
-6.512300 0.000000
-6.496400 0.000000
-6.480500 0.000000
-6.464700 0.000000
-6.448800 0.000000
-6.433000 0.000000
-6.417100 0.000000
-6.401200 0.000000
-6.385400 0.000000
-6.369500 0.000000
-6.353700 0.000000
-6.337800 0.000000
-6.321900 0.000000
-6.306100 0.000000
-6.290200 0.000000
-6.274300 0.000000
-6.258500 0.000000
-6.242600 0.000000
-6.226800 0.000000
-6.210900 0.000000
-6.195000 0.000000
-6.179200 0.000000
-6.163300 0.000000
-6.147500 0.000000
-6.131600 0.000000
-6.115700 0.000000
-6.099900 0.000000
-6.084000 0.000000
-6.068100 0.000000
-6.052300 0.000000
-6.036400 0.000000
-6.020600 0.000000
-6.004700 0.000000
-5.988800 0.000000
-5.973000 0.000000
-5.957100 0.000000
-5.941300 0.000000
-5.925400 0.000000
-5.909500 0.000000
-5.893700 0.000000
-5.877800 0.000000
-5.861900 0.000000
-5.846100 0.000000
-5.830200 0.000000
-5.814400 0.000000
-5.798500 0.000000
-5.782600 0.000000
-5.766800 0.000000
-5.750900 0.000000
-5.735100 0.000000
-5.719200 0.000000
-5.703300 0.000000
-5.687500 0.000000
-5.671600 0.000000
-5.655700 0.000000
-5.639900 0.000000
-5.624000 0.000000
-5.608200 0.000000
-5.592300 0.000000
-5.576400 0.000000
-5.560600 0.000000
-5.544700 0.000000
-5.528900 0.000000
-5.513000 0.000000
-5.497100 0.000000
-5.481300 0.000000
-5.465400 0.000000
-5.449500 0.000000
-5.433700 0.000000
-5.417800 0.000000
-5.402000 0.000000
-5.386100 0.000000
-5.370200 0.000000
-5.354400 0.000000
-5.338500 0.000000
-5.322700 0.000000
-5.306800 0.000000
-5.290900 0.000000
-5.275100 0.000000
-5.259200 0.000000
-5.243400 0.000000
-5.227500 0.000000
-5.211600 0.000000
-5.195800 0.000000
-5.179900 0.000000
-5.164000 0.000000
-5.148200 0.000000
-5.132300 0.000000
-5.116500 0.000000
-5.100600 0.000000
-5.084700 0.000000
-5.068900 0.000000
-5.053000 0.000000
-5.037200 0.000000
-5.021300 0.000000
-5.005400 0.000000
-4.989600 0.000000
-4.973700 0.000000
-4.957800 0.000000
-4.942000 0.000000
-4.926100 0.000000
-4.910300 0.000000
-4.894400 1.105500
-4.878500 4.584300
-4.862700 13.457400
-4.846800 32.062100
-4.831000 50.666800
-4.815100 39.249400
-4.799200 65.551600
-4.783400 47.612400
-4.767500 29.917600
-4.751600 38.166200
-4.735800 47.883800
-4.719900 27.547300
-4.704100 12.369300
-4.688200 15.068900
-4.672300 18.532800
-4.656500 21.164600
-4.640600 11.897300
-4.624800 19.310100
-4.608900 18.222400
-4.593000 17.134800
-4.577200 16.047100
-4.561300 14.959500
-4.545400 13.871900
-4.529600 13.030000
-4.513700 12.041400
-4.497900 10.097900
-4.482000 8.256700
-4.466100 7.921000
-4.450300 7.766500
-4.434400 7.630100
-4.418600 7.493800
-4.402700 54.965500
-4.386800 24.526700
-4.371000 16.895100
-4.355100 12.898700
-4.339200 12.289800
-4.323400 11.680800
-4.307500 11.526500
-4.291700 11.816000
-4.275800 12.105400
-4.259900 12.679400
-4.244100 12.849800
-4.228200 13.435400
-4.212400 14.021000
-4.196500 14.606600
-4.180600 14.738900
-4.164800 14.601700
-4.148900 12.075700
-4.133000 6.065100
-4.117200 2.828800
-4.101300 2.739300
-4.085500 2.649900
-4.069600 2.560400
-4.053700 2.470900
-4.037900 2.381400
-4.022000 2.291900
-4.006200 2.202500
-3.990300 2.113000
-3.974400 2.023500
-3.958600 1.934000
-3.942700 1.844600
-3.926800 1.755100
-3.911000 1.665600
-3.895100 1.576100
-3.879300 1.472100
-3.863400 1.360300
-3.847500 1.248600
-3.831700 1.136900
-3.815800 1.025100
-3.800000 0.913400
-3.784100 0.801600
-3.768200 0.689900
-3.752400 0.578200
-3.736500 0.466400
-3.720600 0.354700
-3.704800 0.242900
-3.688900 0.131200
-3.673100 0.019500
-3.657200 0.000000
-3.641300 0.000000
-3.625500 0.000000
-3.609600 0.000000
-3.593800 0.000000
-3.577900 0.000000
-3.562000 0.000000
-3.546200 0.000000
-3.530300 0.000000
-3.514500 0.000000
-3.498600 0.000000
-3.482700 0.000000
-3.466900 0.000000
-3.451000 0.000000
-3.435100 0.000000
-3.419300 0.000000
-3.403400 0.000000
-3.387600 0.000000
-3.371700 0.000000
-3.355800 0.000000
-3.340000 0.000000
-3.324100 0.000000
-3.308300 0.000000
-3.292400 0.000000
-3.276500 0.000000
-3.260700 0.000000
-3.244800 0.000000
-3.228900 0.000000
-3.213100 0.000000
-3.197200 0.000000
-3.181400 0.000000
-3.165500 0.000000
-3.149600 0.000000
-3.133800 0.000000
-3.117900 0.000000
-3.102100 0.000000
-3.086200 0.000000
-3.070300 0.000000
-3.054500 0.000000
-3.038600 0.000000
-3.022700 0.000000
-3.006900 0.000000
-2.991000 0.000000
-2.975200 0.000000
-2.959300 0.000000
-2.943400 0.000000
-2.927600 0.000000
-2.911700 0.000000
-2.895900 0.000000
-2.880000 0.000000
-2.864100 0.000000
-2.848300 0.000000
-2.832400 0.000000
-2.816500 0.000000
-2.800700 0.000000
-2.784800 0.000000
-2.769000 0.000000
-2.753100 0.000000
-2.737200 0.000000
-2.721400 0.000000
-2.705500 0.000000
-2.689700 0.000000
-2.673800 0.000000
-2.657900 0.000000
-2.642100 0.000000
-2.626200 0.000000
-2.610300 0.000000
-2.594500 0.000000
-2.578600 0.000000
-2.562800 0.000000
-2.546900 0.000000
-2.531000 0.000000
-2.515200 0.000000
-2.499300 0.000000
-2.483500 0.000000
-2.467600 0.000000
-2.451700 0.000000
-2.435900 0.000000
-2.420000 0.000000
-2.404100 0.000000
-2.388300 0.000000
-2.372400 0.000000
-2.356600 0.000000
-2.340700 0.000000
-2.324800 0.000000
-2.309000 0.000000
-2.293100 0.000000
-2.277300 0.000000
-2.261400 0.000000
-2.245500 0.000000
-2.229700 0.000000
-2.213800 0.000000
-2.197900 0.000000
-2.182100 0.000000
-2.166200 0.000000
-2.150400 0.000000
-2.134500 0.000000
-2.118600 0.000000
-2.102800 0.000000
-2.086900 0.000000
-2.071100 0.000000
-2.055200 0.000000
-2.039300 0.000000
-2.023500 0.000000
-2.007600 0.000000
-1.991700 0.000000
-1.975900 0.000000
-1.960000 0.000000
-1.944200 0.000000
-1.928300 0.000000
-1.912400 0.000000
-1.896600 0.000000
-1.880700 0.000000
-1.864900 0.000000
-1.849000 0.000000
-1.833100 0.000000
-1.817300 0.000000
-1.801400 0.000000
-1.785600 0.000000
-1.769700 0.000000
-1.753800 0.000000
-1.738000 0.000000
-1.722100 0.000000
-1.706200 0.000000
-1.690400 0.000000
-1.674500 0.000000
-1.658700 0.000000
-1.642800 0.000000
-1.626900 0.000000
-1.611100 0.000000
-1.595200 0.000000
-1.579400 0.000000
-1.563500 0.000000
-1.547600 0.000000
-1.531800 0.000000
-1.515900 0.000000
-1.500000 0.000000
-1.484200 0.000000
-1.468300 0.000000
-1.452500 0.000000
-1.436600 0.000000
-1.420700 0.000000
-1.404900 0.000000
-1.389000 0.000000
-1.373200 0.000000
-1.357300 0.000000
-1.341400 0.000000
-1.325600 0.000000
-1.309700 0.000000
-1.293800 0.000000
-1.278000 0.125400
-1.262100 1.693800
-1.246300 3.262200
-1.230400 4.830600
-1.214500 5.380300
-1.198700 5.788000
-1.182800 6.195700
-1.167000 6.603400
-1.151100 7.011100
-1.135200 7.418800
-1.119400 7.414600
-1.103500 7.267100
-1.087600 7.119700
-1.071800 6.972200
-1.055900 13.296800
-1.040100 26.222500
-1.024200 35.842000
-1.008300 32.294900
-0.992500 25.991000
-0.976600 23.190300
-0.960800 23.061900
-0.944900 24.118300
-0.929000 25.421900
-0.913200 25.295800
-0.897300 24.686900
-0.881400 24.077900
-0.865600 23.527600
-0.849700 23.336100
-0.833900 23.063700
-0.818000 27.912000
-0.802100 28.976300
-0.786300 30.509900
-0.770400 32.041500
-0.754600 33.573000
-0.738700 34.241600
-0.722800 45.106500
-0.707000 40.512400
-0.691100 40.655600
-0.675200 36.133900
-0.659400 31.503400
-0.643500 26.860800
-0.627700 22.383600
-0.611800 18.218200
-0.595900 16.128700
-0.580100 16.136500
-0.564200 16.144200
-0.548400 16.138500
-0.532500 16.186600
-0.516600 16.351600
-0.500800 16.516700
-0.484900 16.661800
-0.469000 16.601900
-0.453200 17.069200
-0.437300 16.971500
-0.421500 24.376700
-0.405600 26.741500
-0.389700 30.969400
-0.373900 35.085700
-0.358000 33.851900
-0.342200 30.793000
-0.326300 27.770900
-0.310400 30.684900
-0.294600 30.460100
-0.278700 29.542000
-0.262800 28.560400
-0.247000 26.758300
-0.231100 25.115400
-0.215300 23.695300
-0.199400 25.230700
-0.183500 23.557600
-0.167700 24.050400
-0.151800 23.444600
-0.136000 23.050300
-0.120100 22.784400
-0.104200 22.587300
-0.088400 22.390200
-0.072500 22.434100
-0.056700 22.049400
-0.040800 20.684700
-0.024900 19.573500
-0.009100 21.741000
0.006800 28.820900
0.022700 23.383000
0.038500 23.344600
0.054400 29.631900
0.070200 31.477200
0.086100 25.345200
0.102000 23.925500
0.117800 23.754400
0.133700 23.385500
0.149500 23.166300
0.165400 23.076200
0.181300 21.816400
0.197100 20.331400
0.213000 18.846300
0.228900 17.361200
0.244700 15.876200
0.260600 15.760700
0.276400 16.895500
0.292300 18.148100
0.308200 36.757400
0.324000 27.790600
0.339900 30.904400
0.355700 33.993200
0.371600 31.623800
0.387500 29.063000
0.403300 27.332600
0.419200 27.268500
0.435100 27.494700
0.450900 29.399700
0.466800 33.764500
0.482600 40.555300
0.498500 42.613400
0.514400 43.721900
0.530200 33.635000
0.546100 29.733200
0.561900 29.881100
0.577800 31.364600
0.593700 29.070300
0.609500 22.575800
0.625400 21.424900
0.641300 20.274000
0.657100 19.477000
0.673000 24.096000
0.688800 16.949500
0.704700 52.717700
0.720600 53.358400
0.736400 41.955700
0.752300 46.450100
0.768100 37.902100
0.784000 51.575400
0.799900 48.619900
0.815700 45.718400
0.831600 44.551200
0.847500 44.685400
0.863300 51.627100
0.879200 47.147900
0.895000 50.345200
0.910900 49.766600
0.926800 61.869500
0.942600 54.033200
0.958500 53.608800
0.974300 62.007500
0.990200 63.154600
1.006100 66.271400
1.021900 56.360700
1.037800 27.798500
1.053700 25.715200
1.069500 20.137600
1.085400 19.854800
1.101200 38.417300
1.117100 48.905900
1.133000 65.285900
1.148800 68.232300
1.164700 54.023800
1.180500 39.703700
1.196400 33.619600
1.212300 36.175900
1.228100 53.349000
1.244000 66.225400
1.259900 58.112700
1.275700 41.871500
1.291600 38.160500
1.307400 40.382300
1.323300 40.812900
1.339200 39.474200
1.355000 43.757200
1.370900 41.540100
1.386700 48.979600
1.402600 62.458600
1.418500 51.312100
1.434300 46.839700
1.450200 50.777900
1.466100 27.258500
1.481900 29.775500
1.497800 59.959400
1.513600 98.490900
1.529500 96.038100
1.545400 50.700700
1.561200 52.653700
1.577100 46.076100
1.592900 34.617400
1.608800 23.158600
1.624700 16.302100
1.640500 21.867800
1.656400 31.946800
1.672200 33.127700
1.688100 32.230100
1.704000 31.033900
1.719800 24.238400
1.735700 13.449300
1.751600 14.576600
1.767400 11.228200
1.783300 7.728800
1.799100 7.062400
1.815000 6.396000
1.830900 5.729700
1.846700 5.063300
1.862600 4.396900
1.878400 3.730500
1.894300 3.064100
1.910200 2.397700
1.926000 1.731300
1.941900 1.064900
1.957800 0.398500
1.973600 0.000000
1.989500 0.000000
2.005300 0.000000
2.021200 0.000000
2.037100 0.000000
2.052900 0.000000
2.068800 0.000000
2.084600 0.000000
2.100500 0.000000
2.116400 0.000000
2.132200 0.000000
2.148100 0.000000
2.164000 0.000000
2.179800 0.000000
2.195700 0.000000
2.211500 0.000000
2.227400 0.000000
2.243300 0.000000
2.259100 0.000000
2.275000 0.000000
2.290800 0.000000
2.306700 0.000000
2.322600 0.000000
2.338400 0.000000
2.354300 0.000000
2.370200 0.000000
2.386000 0.000000
2.401900 0.000000
2.417700 0.000000
2.433600 0.000000
2.449500 0.000000
2.465300 0.000000
2.481200 0.000000
2.497000 0.000000
2.512900 0.000000
2.528800 0.000000
2.544600 0.000000
2.560500 0.000000
2.576400 0.000000
2.592200 0.000000
2.608100 0.000000
2.623900 0.000000
2.639800 0.000000
2.655700 0.000000
2.671500 0.000000
2.687400 0.000000
2.703200 0.000000
2.719100 0.000000
2.735000 0.000000
2.750800 0.000000
2.766700 0.000000
2.782600 0.000000
2.798400 0.000000
2.814300 0.000000
2.830100 0.000000
2.846000 0.000000
2.861900 0.000000
2.877700 0.000000
2.893600 0.000000
2.909400 0.000000
2.925300 0.000000
2.941200 0.000000
2.957000 0.000000
2.972900 0.000000
2.988800 0.000000
3.004600 0.000000
3.020500 0.000000
3.036300 0.000000
3.052200 0.000000
3.068100 0.000000
3.083900 0.000000
3.099800 0.000000
3.115600 0.000000
3.131500 0.000000
3.147400 0.000000
3.163200 0.000000
3.179100 0.000000
3.194900 0.000000
3.210800 0.000000
3.226700 0.000000
3.242500 0.000000
3.258400 0.000000
3.274300 0.000000
3.290100 0.000000
3.306000 0.000000
3.321800 0.000000
3.337700 0.000000
3.353600 0.000000
3.369400 0.000000
3.385300 0.000000
3.401100 0.000000
3.417000 0.000000
3.432900 0.000000
3.448700 0.000000
3.464600 0.000000
3.480500 0.000000
3.496300 0.000000
3.512200 0.000000
3.528000 0.000000
3.543900 0.000000
3.559800 0.000000
3.575600 0.000000
3.591500 0.000000
3.607300 0.000000
3.623200 0.000000
3.639100 0.000000
3.654900 0.000000
3.670800 0.000000
3.686700 0.000000
3.702500 0.000000
3.718400 0.000000
3.734200 0.000000
3.750100 0.000000
3.766000 0.000000
3.781800 0.000000
3.797700 0.000000
3.813500 0.000000
3.829400 0.000000
3.845300 0.000000
3.861100 0.000000
3.877000 0.000000
3.892900 0.000000
3.908700 0.000000
3.924600 0.000000
3.940400 0.000000
3.956300 0.000000
3.972200 0.000000
3.988000 0.000000
4.003900 0.000000
4.019700 0.000000
4.035600 0.000000
4.051500 0.000000
4.067300 0.000000
4.083200 0.000000
4.099100 0.000000
4.114900 0.000000
4.130800 0.000000
4.146600 0.000000
4.162500 0.000000
4.178400 0.000000
4.194200 0.000000
4.210100 0.000000
4.225900 0.000000
4.241800 0.000000
4.257700 0.000000
4.273500 0.000000
4.289400 0.000000
4.305300 0.000000
4.321100 0.000000
4.337000 0.000000
4.352800 0.000000
4.368700 0.000000
4.384600 0.000000
4.400400 0.000000
4.416300 0.000000
4.432100 0.000000
4.448000 0.000000
4.463900 0.000000
4.479700 0.000000
4.495600 0.000000
4.511500 0.000000
4.527300 0.000000
4.543200 0.000000
4.559000 0.000000
4.574900 0.000000
4.590800 0.000000
4.606600 0.000000
4.622500 0.000000
4.638300 0.000000
4.654200 0.000000
4.670100 0.000000
4.685900 0.000000
4.701800 0.000000
4.717700 0.000000
4.733500 0.000000
4.749400 0.000000
4.765200 0.000000
4.781100 0.000000
4.797000 0.000000
4.812800 0.000000
4.828700 0.000000
4.844500 0.000000
4.860400 0.000000
4.876300 0.000000
4.892100 0.000000
4.908000 0.000000
4.923800 0.000000
4.939700 0.000000
4.955600 0.000000
4.971400 0.000000
4.987300 0.000000
5.003200 0.000000
5.019000 0.010700
5.034900 0.140100
5.050700 0.269500
5.066600 0.398800
5.082500 0.528200
5.098300 0.657600
5.114200 0.787000
5.130000 0.916400
5.145900 1.045700
5.161800 1.175100
5.177600 1.304500
5.193500 1.433900
5.209400 1.558300
5.225200 1.653000
5.241100 1.807900
5.256900 1.962900
5.272800 2.117900
5.288700 2.272800
5.304500 2.427800
5.320400 2.582700
5.336200 2.737700
5.352100 2.892700
5.368000 3.047600
5.383800 3.202600
5.399700 3.357500
5.415600 3.512500
5.431400 3.667500
5.447300 3.918800
5.463100 4.368900
5.479000 5.004500
5.494900 5.640200
5.510700 6.275900
5.526600 6.911500
5.542400 13.073800
5.558300 13.797400
5.574200 13.959000
5.590000 14.120500
5.605900 37.024500
5.621800 23.360000
5.637600 21.576000
5.653500 20.721800
5.669300 19.496900
5.685200 18.339800
5.701100 17.182800
5.716900 16.025700
5.732800 13.736400
5.748600 12.373200
5.764500 11.381200
5.780400 10.389200
5.796200 9.397200
5.812100 8.405300
5.828000 7.413300
5.843800 7.195600
5.859700 7.900900
5.875500 8.606100
5.891400 9.380900
5.907300 11.395500
5.923100 15.514900
5.939000 16.890300
5.954800 16.323700
5.970700 22.192300
5.986600 23.392500
6.002400 19.929300
6.018300 18.944200
6.034200 18.797000
6.050000 18.799700
6.065900 18.758100
6.081700 18.706500
6.097600 18.654900
6.113500 19.549100
6.129300 29.290900
6.145200 28.208100
6.161000 23.479900
6.176900 19.771700
6.192800 18.673500
6.208600 19.895500
6.224500 21.590500
6.240400 22.431000
6.256200 20.757100
6.272100 19.083200
6.287900 17.409400
6.303800 16.857500
6.319700 14.855900
6.335500 10.936300
6.351400 10.713100
6.367200 10.922400
6.383100 11.131700
6.399000 11.533800
6.414800 12.090100
6.430700 12.131500
6.446600 11.008300
6.462400 11.102000
6.478300 11.783900
6.494100 12.465800
6.510000 13.723700
6.525900 14.914000
6.541700 15.717400
6.557600 16.942300
6.573400 18.588700
6.589300 20.587900
6.605200 22.552300
6.621000 24.033000
6.636900 24.892800
6.652700 25.201900
6.668600 26.525900
6.684500 29.429300
6.700300 30.996800
6.716200 28.722300
6.732100 25.974300
6.747900 24.225300
6.763800 23.806700
6.779600 23.532900
6.795500 50.709100
6.811400 42.115000
6.827200 34.298700
6.843100 18.864000
6.858900 18.191900
6.874800 21.340700
6.890700 23.671000
6.906500 23.823300
6.922400 24.516000
6.938300 24.707400
6.954100 22.688500
6.970000 24.007800
6.985800 24.427500
7.001700 22.644500
7.017600 20.954200
7.033400 20.454900
7.049300 20.202100
7.065100 19.959000
7.081000 19.728800
7.096900 19.392300
7.112700 18.184400
7.128600 16.994100
7.144500 17.936400
7.160300 19.123000
7.176200 20.559500
7.192000 22.117900
7.207900 22.172800
7.223800 22.282000
7.239600 19.407300
7.255500 16.050000
7.271300 12.692700
7.287200 11.925200
7.303100 13.302300
7.318900 15.632400
7.334800 18.919300
7.350700 22.206200
7.366500 23.103800
7.382400 40.041900
7.398200 43.909200
7.414100 43.382700
7.430000 32.722900
7.445800 19.234400
7.461700 28.278800
7.477500 32.451500
7.493400 33.814000
7.509300 31.879100
7.525100 27.489900
7.541000 24.051300
7.556900 21.976100
7.572700 22.315300
7.588600 22.986800
7.604400 23.193500
7.620300 22.307500
7.636200 21.273500
7.652000 20.239400
7.667900 19.205300
7.683700 18.181600
7.699600 16.359600
7.715500 12.980500
7.731300 9.946400
7.747200 10.374000
7.763100 15.450200
7.778900 16.500600
7.794800 15.598800
7.810600 14.697000
7.826500 13.795200
7.842400 12.893400
7.858200 11.368000
7.874100 7.288100
7.889900 2.181800
7.905800 0.930900
7.921700 0.884800
7.937500 0.838700
7.953400 0.792600
7.969300 0.746500
7.985100 0.700400
8.001000 0.654400
8.016800 0.608300
8.032700 0.562200
8.048600 0.516100
8.064400 0.470000
8.080300 0.424000
8.096100 0.377900
8.112000 0.331800
8.127900 0.285700
8.143700 0.239600
8.159600 0.193500
8.175500 0.147500
8.191300 0.101400
8.207200 0.055300
8.223000 0.009200
8.238900 0.000000
8.254800 0.000000
8.270600 0.000000
8.286500 0.000000
8.302300 0.000000
8.318200 0.000000
8.334100 0.000000
8.349900 0.000000
8.365800 0.000000
8.381600 0.000000
8.397500 0.000000
8.413400 0.000000
8.429200 0.000000
8.445100 0.000000
8.461000 0.000000
8.476800 0.000000
8.492700 0.000000
8.508500 0.000000
8.524400 0.000000
8.540300 0.000000
8.556100 0.000000
8.572000 0.000000
8.587800 0.000000
8.603700 0.000000
8.619600 0.000000
8.635400 0.000000
8.651300 0.000000
8.667200 0.000000
8.683000 0.000000
8.698900 0.000000
8.714700 0.000000
8.730600 0.000000
8.746500 0.000000
8.762300 0.000000
8.778200 0.000000
8.794000 0.000000
8.809900 0.000000
8.825800 0.000000
8.841600 0.000000
8.857500 0.000000
8.873400 0.000000
8.889200 0.000000
8.905100 0.000000
8.920900 0.000000
8.936800 0.000000
8.952700 0.000000
8.968500 0.000000
8.984400 0.000000
9.000200 0.000000
9.016100 0.000000
9.032000 0.000000
9.047800 0.000000
9.063700 0.000000
9.079600 0.000000
9.095400 0.000000
9.111300 0.000000
9.127100 0.000000
9.143000 0.000000
9.158900 0.000000
9.174700 0.000000
9.190600 0.000000
9.206400 0.000000
9.222300 0.000000
9.238200 0.000000
9.254000 0.000000
9.269900 0.000000
9.285800 0.000000
9.301600 0.000000
9.317500 0.000000
9.333300 0.000000
9.349200 0.000000
9.365100 0.000000
9.380900 0.000000
9.396800 0.000000
9.412600 0.000000
9.428500 0.000000
9.444400 0.000000
9.460200 0.000000
9.476100 0.000000
9.492000 0.000000
9.507800 0.000000
9.523700 0.031600
9.539500 0.074700
9.555400 0.117900
9.571300 0.161100
9.587100 0.204300
9.603000 0.247400
9.618800 0.290600
9.634700 0.333800
9.650600 0.377000
9.666400 0.420200
9.682300 0.463300
9.698200 0.506500
9.714000 0.549700
9.729900 0.592900
9.745700 0.636000
9.761600 0.679200
9.777500 0.722400
9.793300 0.765600
9.809200 0.808800
9.825000 0.851900
9.840900 0.895100
9.856800 0.938300
9.872600 0.981500
9.888500 1.024600
9.904300 1.067800
9.920200 1.111000
9.936100 1.154200
9.951900 1.197400
9.967800 1.240500
9.983700 1.283700
9.999500 1.326900
10.015400 1.370100
10.031200 1.482300
10.047100 4.335400
10.063000 4.511600
10.078800 4.475300
10.094700 4.424200
10.110500 4.373100
10.126400 4.322100
10.142300 4.271000
10.158100 4.219900
10.174000 4.168900
10.189900 4.117800
10.205700 4.066700
10.221600 4.015700
10.237400 3.964600
10.253300 3.913500
10.269200 3.669600
10.285000 3.377100
10.300900 3.084500
10.316700 2.792000
10.332600 2.520000
10.348500 2.523700
10.364300 2.617800
10.380200 3.347100
10.396100 4.597600
10.411900 6.032400
10.427800 6.778800
10.443600 7.236200
10.459500 7.237800
10.475400 7.239400
10.491200 7.460500
10.507100 7.838700
10.522900 8.216800
10.538800 8.594900
10.554700 8.973100
10.570500 9.351200
10.586400 9.729300
10.602300 10.107500
10.618100 10.485600
10.634000 10.863700
10.649800 11.395400
10.665700 12.382600
10.681600 13.454300
10.697400 14.510000
10.713300 14.909300
10.729100 14.538400
10.745000 15.128500
10.760900 16.125200
10.776700 17.671700
10.792600 19.219100
10.808500 20.408400
10.824300 21.032600
10.840200 21.307700
10.856000 21.582800
10.871900 21.857900
10.887800 21.889600
10.903600 25.704100
10.919500 28.046900
10.935300 25.904600
10.951200 23.701100
10.967100 19.970700
10.982900 21.976000
10.998800 22.320000
11.014700 22.039700
11.030500 25.199200
11.046400 26.575800
11.062200 28.832600
11.078100 31.402000
11.094000 40.257500
11.109800 42.472400
11.125700 52.470400
11.141500 36.926200
11.157400 31.401600
11.173300 24.124200
11.189100 17.581900
11.205000 14.309900
11.220900 13.250100
11.236700 13.091500
11.252600 13.069000
11.268400 13.066800
11.284300 13.809100
11.300200 15.140200
11.316000 17.203300
11.331900 12.240800
11.347700 9.868500
11.363600 11.514000
11.379500 12.700400
11.395300 13.886700
11.411200 15.073100
11.427100 16.374800
11.442900 16.902900
11.458800 18.426200
11.474600 19.988700
11.490500 21.105000
11.506400 22.216300
11.522200 22.792400
11.538100 23.364000
11.553900 23.935600
11.569800 25.183000
11.585700 25.606200
11.601500 22.128800
11.617400 20.983200
11.633200 25.784600
11.649100 30.178200
11.665000 34.571700
11.680800 33.629500
11.696700 31.637600
11.712600 28.260000
11.728400 25.532400
11.744300 23.540500
11.760100 21.542200
11.776000 19.366600
11.791900 19.190600
11.807700 18.206500
11.823600 16.224000
11.839400 14.241500
11.855300 12.392800
11.871200 11.638100
11.887000 10.820100
11.902900 10.201800
11.918800 10.798300
11.934600 13.768400
11.950500 27.234700
11.966300 19.291700
11.982200 14.833300
11.998100 10.669500
12.013900 14.188800
12.029800 20.968900
12.045600 19.714300
12.061500 19.309900
12.077400 18.728200
12.093200 18.146600
12.109100 17.810100
12.125000 18.221300
12.140800 17.249000
12.156700 27.017900
12.172500 34.040800
12.188400 40.454200
12.204300 40.641000
12.220100 32.807100
12.236000 24.129800
12.251800 18.223100
12.267700 15.899000
12.283600 18.844000
12.299400 18.153600
12.315300 17.787900
12.331200 18.431300
12.347000 19.365100
12.362900 20.298900
12.378700 17.544400
12.394600 18.137400
12.410500 19.350100
12.426300 20.562800
12.442200 21.679300
12.458000 22.920500
12.473900 22.134500
12.489800 21.199400
12.505600 20.209600
12.521500 20.100600
12.537400 19.958000
12.553200 19.801500
12.569100 19.717200
12.584900 20.245200
12.600800 21.523600
12.616700 21.809800
12.632500 22.202200
12.648400 22.594600
12.664200 22.987000
12.680100 23.379500
12.696000 21.944800
12.711800 13.904900
12.727700 13.504900
12.743600 13.104900
12.759400 12.704800
12.775300 12.304800
12.791100 11.775100
12.807000 10.584300
12.822900 9.129600
12.838700 7.804300
12.854600 6.530900
12.870400 6.123800
12.886300 6.277600
12.902200 7.270100
12.918000 15.080700
12.933900 17.498500
12.949800 19.916400
12.965600 20.556500
12.981500 19.509500
12.997300 19.501600
13.013200 19.339300
13.029100 19.069600
13.044900 18.767300
13.060800 18.468700
13.076600 18.296600
13.092500 18.529500
13.108400 20.555500
13.124200 20.900300
13.140100 32.664800
13.156000 16.496200
13.171800 15.049200
13.187700 14.176000
13.203500 13.303800
13.219400 12.863000
13.235300 12.768400
13.251100 13.497500
13.267000 14.226600
13.282800 14.955700
13.298700 15.684800
13.314600 16.353700
13.330400 16.856100
13.346300 17.126600
13.362100 20.525600
13.378000 23.591300
13.393900 22.909800
13.409700 21.865900
13.425600 20.720700
13.441500 19.575500
13.457300 18.265700
13.473200 16.317800
13.489000 15.126100
13.504900 14.050000
13.520800 13.735500
13.536600 10.540000
13.552500 10.068500
13.568300 18.903100
13.584200 18.363800
13.600100 17.486700
13.615900 17.275900
13.631800 17.208800
13.647700 17.112400
13.663500 16.529000
13.679400 16.044600
13.695200 15.542400
13.711100 15.040200
13.727000 14.538000
13.742800 14.055900
13.758700 14.290000
13.774500 14.693000
13.790400 15.283400
13.806300 16.039200
13.822100 16.279400
13.838000 16.519600
13.853900 16.759800
13.869700 18.046600
13.885600 19.972900
13.901400 21.072600
13.917300 21.739900
13.933200 22.136200
13.949000 21.186900
13.964900 20.956200
13.980700 21.395800
13.996600 22.441700
14.012500 18.760000
14.028300 19.929000
14.044200 20.814000
14.060100 20.662600
14.075900 20.590000
14.091800 26.684200
14.107600 21.147400
14.123500 18.008700
14.139400 15.627600
14.155200 13.646700
14.171100 13.220800
14.186900 14.480500
14.202800 15.914000
14.218700 17.347500
14.234500 18.014200
14.250400 16.363700
14.266300 15.932200
14.282100 15.702400
14.298000 15.472600
14.313800 15.335400
14.329700 15.237000
14.345600 15.076100
14.361400 15.052400
14.377300 15.028700
14.393100 14.737600
14.409000 14.431000
14.424900 14.124400
14.440700 13.684600
14.456600 12.709900
14.472500 11.871400
14.488300 11.033000
14.504200 10.225300
14.520000 9.524700
14.535900 9.144300
14.551800 9.214800
14.567600 9.292600
14.583500 9.330400
14.599300 9.189000
14.615200 9.018100
14.631100 8.847300
14.646900 8.666500
14.662800 8.273500
14.678700 7.685000
14.694500 7.265100
14.710400 6.885000
14.726200 6.801300
14.742100 7.139400
14.758000 7.398800
14.773800 7.589900
14.789700 7.778100
14.805500 7.421000
14.821400 6.614300
14.837300 5.807500
14.853100 5.205300
14.869000 4.749800
14.884900 4.294200
14.900700 3.838600
14.916600 3.383000
14.932400 2.927500
14.948300 2.471900
14.964200 2.016300
14.980000 1.613400
14.995900 1.233900
15.011700 0.978000
15.027600 0.817400
15.043500 0.656800
15.059300 0.496300
15.075200 0.335700
15.091000 0.175200
15.106900 0.014600
15.122800 0.000000
15.138600 0.000000
15.154500 0.000000
15.170400 0.000000
15.186200 0.000000
15.202100 0.000000
15.217900 0.000000
15.233800 0.000000
15.249700 0.000000
15.265500 0.000000
15.281400 0.000000
15.297200 0.000000
15.313100 0.000000
15.329000 0.000000
15.344800 0.000000
15.360700 0.000000
15.376600 0.000000
15.392400 0.000000
15.408300 0.000000
15.424100 0.000000
15.440000 0.000000
15.455900 0.000000
15.471700 0.000000
15.487600 0.000000
15.503400 0.000000
15.519300 0.000000
15.535200 0.000000
15.551000 0.000000
15.566900 0.000000
15.582800 0.000000
15.598600 0.000000
15.614500 0.000000
15.630300 0.000000
15.646200 0.000000
15.662100 0.000000
15.677900 0.000000
15.693800 0.000000
15.709600 0.000000
15.725500 0.000000
15.741400 0.000000
15.757200 0.000000
15.773100 0.000000
15.789000 0.000000
15.804800 0.000000
15.820700 0.000000
15.836500 0.000000
15.852400 0.000000
15.868300 0.000000
15.884100 0.000000
15.900000 0.000000
15.915800 0.000000
15.931700 0.000000
15.947600 0.000000
15.963400 0.000000
15.979300 0.000000
15.995200 0.000000
16.011000 0.000000
16.026900 0.000000
16.042700 0.000000
16.058600 0.000000
16.074500 0.000000
16.090300 0.000000
16.106200 0.000000
16.122000 0.000000
16.137900 0.000000
16.153800 0.000000
16.169600 0.000000
16.185500 0.000000
16.201400 0.000000
16.217200 0.000000
16.233100 0.000000
16.248900 0.000000
16.264800 0.000000
16.280700 0.000000
16.296500 0.000000
16.312400 0.000000
16.328200 0.000000
16.344100 0.000000
16.360000 0.000000
16.375800 0.000000
16.391700 0.000000
16.407600 0.000000
16.423400 0.000000
16.439300 0.000000
16.455100 0.000000
16.471000 0.000000
16.486900 0.000000
16.502700 0.000000
16.518600 0.000000
16.534400 0.000000
16.550300 0.000000
e
