set title 'mp-1170 - Density of States'
set xlabel 'Energy (eV)'
set ylabel 'DOS (states/eV)'
set grid
set xrange [-10:10]
set yrange [0:17.744]
set xzeroaxis lt -1
set terminal png size 800,600
set output 'mp-1170_dos_gnuplot.png'
plot '-' using 1:2 with lines title 'DOS'
-20.146900 0.000000
-20.127500 0.000000
-20.108000 0.000000
-20.088600 0.000000
-20.069200 0.000000
-20.049700 0.000000
-20.030300 0.000000
-20.010900 0.000000
-19.991500 0.000000
-19.972000 0.000000
-19.952600 0.000000
-19.933200 0.000000
-19.913700 0.000000
-19.894300 0.000000
-19.874900 0.000000
-19.855400 0.000000
-19.836000 0.000000
-19.816600 0.000000
-19.797100 0.000000
-19.777700 0.000000
-19.758300 0.000000
-19.738800 0.000000
-19.719400 0.000000
-19.700000 0.000000
-19.680500 0.000000
-19.661100 0.000000
-19.641700 0.000000
-19.622200 0.000000
-19.602800 0.000000
-19.583400 0.000000
-19.563900 0.000000
-19.544500 0.000000
-19.525100 0.000000
-19.505600 0.000000
-19.486200 0.000000
-19.466800 0.000000
-19.447300 0.000000
-19.427900 0.000000
-19.408500 0.000000
-19.389100 0.000000
-19.369600 0.000000
-19.350200 0.000000
-19.330800 0.000000
-19.311300 0.000000
-19.291900 0.000000
-19.272500 0.000000
-19.253000 0.000000
-19.233600 0.000000
-19.214200 0.000000
-19.194700 0.000000
-19.175300 0.000000
-19.155900 0.000000
-19.136400 0.000000
-19.117000 0.000000
-19.097600 0.000000
-19.078100 0.000000
-19.058700 0.000000
-19.039300 0.000000
-19.019800 0.000000
-19.000400 0.000000
-18.981000 0.000000
-18.961500 0.000000
-18.942100 0.000000
-18.922700 0.000000
-18.903200 0.000000
-18.883800 0.000000
-18.864400 0.000000
-18.844900 0.000000
-18.825500 0.000000
-18.806100 0.000000
-18.786700 0.000000
-18.767200 0.000000
-18.747800 0.000000
-18.728400 0.000000
-18.708900 0.000000
-18.689500 0.000000
-18.670100 0.000000
-18.650600 0.000000
-18.631200 0.000000
-18.611800 0.000000
-18.592300 0.000000
-18.572900 0.000000
-18.553500 0.000000
-18.534000 0.000000
-18.514600 0.000000
-18.495200 0.000000
-18.475700 0.000000
-18.456300 0.000000
-18.436900 0.000000
-18.417400 0.000000
-18.398000 0.000000
-18.378600 28.411300
-18.359100 47.482200
-18.339700 18.171800
-18.320300 22.252900
-18.300800 69.827800
-18.281400 0.000000
-18.262000 74.857000
-18.242500 84.093100
-18.223100 148.675600
-18.203700 0.000000
-18.184300 0.000000
-18.164800 0.000000
-18.145400 0.000000
-18.126000 0.000000
-18.106500 0.000000
-18.087100 0.000000
-18.067700 0.000000
-18.048200 0.000000
-18.028800 0.000000
-18.009400 0.000000
-17.989900 0.000000
-17.970500 0.000000
-17.951100 0.000000
-17.931600 0.000000
-17.912200 0.000000
-17.892800 0.000000
-17.873300 0.000000
-17.853900 0.000000
-17.834500 0.000000
-17.815000 0.000000
-17.795600 0.000000
-17.776200 0.000000
-17.756700 0.000000
-17.737300 0.000000
-17.717900 0.000000
-17.698400 0.000000
-17.679000 0.000000
-17.659600 0.000000
-17.640100 0.000000
-17.620700 0.000000
-17.601300 0.000000
-17.581900 0.000000
-17.562400 0.000000
-17.543000 0.000000
-17.523600 0.000000
-17.504100 0.000000
-17.484700 0.000000
-17.465300 0.000000
-17.445800 0.000000
-17.426400 0.000000
-17.407000 0.000000
-17.387500 0.000000
-17.368100 0.000000
-17.348700 0.000000
-17.329200 0.000000
-17.309800 0.000000
-17.290400 0.000000
-17.270900 0.000000
-17.251500 0.000000
-17.232100 0.000000
-17.212600 0.000000
-17.193200 0.000000
-17.173800 0.000000
-17.154300 0.000000
-17.134900 0.000000
-17.115500 0.000000
-17.096000 0.000000
-17.076600 0.000000
-17.057200 0.000000
-17.037700 0.000000
-17.018300 0.000000
-16.998900 0.000000
-16.979500 0.000000
-16.960000 0.000000
-16.940600 0.000000
-16.921200 0.000000
-16.901700 0.000000
-16.882300 0.000000
-16.862900 0.000000
-16.843400 0.000000
-16.824000 0.000000
-16.804600 0.000000
-16.785100 0.000000
-16.765700 0.000000
-16.746300 0.000000
-16.726800 0.000000
-16.707400 0.000000
-16.688000 0.000000
-16.668500 0.000000
-16.649100 0.000000
-16.629700 0.000000
-16.610200 0.000000
-16.590800 0.000000
-16.571400 0.000000
-16.551900 0.000000
-16.532500 0.000000
-16.513100 0.000000
-16.493600 0.000000
-16.474200 0.000000
-16.454800 0.000000
-16.435300 0.000000
-16.415900 0.000000
-16.396500 0.000000
-16.377100 0.000000
-16.357600 0.000000
-16.338200 0.000000
-16.318800 0.000000
-16.299300 0.000000
-16.279900 0.000000
-16.260500 0.000000
-16.241000 0.000000
-16.221600 0.000000
-16.202200 0.000000
-16.182700 0.000000
-16.163300 0.000000
-16.143900 0.000000
-16.124400 0.000000
-16.105000 0.000000
-16.085600 0.000000
-16.066100 0.000000
-16.046700 0.000000
-16.027300 0.000000
-16.007800 0.000000
-15.988400 0.000000
-15.969000 0.000000
-15.949500 0.000000
-15.930100 0.000000
-15.910700 0.000000
-15.891200 0.000000
-15.871800 0.000000
-15.852400 0.000000
-15.832900 0.000000
-15.813500 0.000000
-15.794100 0.000000
-15.774700 0.000000
-15.755200 0.000000
-15.735800 0.000000
-15.716400 0.000000
-15.696900 0.000000
-15.677500 0.000000
-15.658100 0.000000
-15.638600 0.000000
-15.619200 0.000000
-15.599800 0.000000
-15.580300 0.000000
-15.560900 0.000000
-15.541500 0.000000
-15.522000 0.000000
-15.502600 0.000000
-15.483200 0.000000
-15.463700 0.000000
-15.444300 0.000000
-15.424900 0.000000
-15.405400 0.000000
-15.386000 0.000000
-15.366600 0.000000
-15.347100 0.000000
-15.327700 0.000000
-15.308300 0.000000
-15.288800 0.000000
-15.269400 0.000000
-15.250000 0.000000
-15.230500 0.000000
-15.211100 0.000000
-15.191700 0.000000
-15.172300 0.000000
-15.152800 0.000000
-15.133400 0.000000
-15.114000 0.000000
-15.094500 0.000000
-15.075100 0.000000
-15.055700 0.000000
-15.036200 0.000000
-15.016800 0.000000
-14.997400 0.000000
-14.977900 0.000000
-14.958500 0.000000
-14.939100 0.000000
-14.919600 0.000000
-14.900200 0.000000
-14.880800 0.000000
-14.861300 0.000000
-14.841900 0.000000
-14.822500 0.000000
-14.803000 0.000000
-14.783600 0.000000
-14.764200 0.000000
-14.744700 0.000000
-14.725300 0.000000
-14.705900 0.000000
-14.686400 0.000000
-14.667000 0.000000
-14.647600 0.000000
-14.628100 0.000000
-14.608700 0.000000
-14.589300 0.000000
-14.569900 0.000000
-14.550400 0.000000
-14.531000 0.000000
-14.511600 0.000000
-14.492100 0.000000
-14.472700 0.000000
-14.453300 0.000000
-14.433800 0.000000
-14.414400 0.000000
-14.395000 0.000000
-14.375500 0.000000
-14.356100 0.000000
-14.336700 0.000000
-14.317200 0.000000
-14.297800 0.000000
-14.278400 0.000000
-14.258900 0.000000
-14.239500 0.000000
-14.220100 0.000000
-14.200600 0.000000
-14.181200 0.000000
-14.161800 0.000000
-14.142300 0.000000
-14.122900 0.000000
-14.103500 0.000000
-14.084000 0.000000
-14.064600 0.000000
-14.045200 0.000000
-14.025700 0.000000
-14.006300 0.000000
-13.986900 0.000000
-13.967500 0.000000
-13.948000 0.000000
-13.928600 0.000000
-13.909200 0.000000
-13.889700 0.000000
-13.870300 0.000000
-13.850900 0.000000
-13.831400 0.000000
-13.812000 0.000000
-13.792600 0.000000
-13.773100 0.000000
-13.753700 0.000000
-13.734300 0.000000
-13.714800 0.000000
-13.695400 0.000000
-13.676000 0.000000
-13.656500 0.000000
-13.637100 0.000000
-13.617700 0.000000
-13.598200 0.000000
-13.578800 0.000000
-13.559400 0.000000
-13.539900 0.000000
-13.520500 0.000000
-13.501100 0.000000
-13.481600 0.000000
-13.462200 0.000000
-13.442800 0.000000
-13.423300 0.000000
-13.403900 0.000000
-13.384500 0.000000
-13.365100 0.000000
-13.345600 0.000000
-13.326200 0.000000
-13.306800 0.000000
-13.287300 0.000000
-13.267900 0.000000
-13.248500 0.000000
-13.229000 0.000000
-13.209600 0.000000
-13.190200 0.000000
-13.170700 0.000000
-13.151300 0.000000
-13.131900 0.000000
-13.112400 0.000000
-13.093000 0.000000
-13.073600 0.000000
-13.054100 0.000000
-13.034700 0.000000
-13.015300 0.000000
-12.995800 0.000000
-12.976400 0.000000
-12.957000 0.000000
-12.937500 0.000000
-12.918100 0.000000
-12.898700 0.000000
-12.879200 0.000000
-12.859800 0.000000
-12.840400 0.000000
-12.820900 0.000000
-12.801500 0.000000
-12.782100 0.000000
-12.762700 0.000000
-12.743200 0.000000
-12.723800 0.000000
-12.704400 0.000000
-12.684900 0.000000
-12.665500 0.000000
-12.646100 0.000000
-12.626600 0.000000
-12.607200 0.000000
-12.587800 0.000000
-12.568300 0.000000
-12.548900 0.000000
-12.529500 0.000000
-12.510000 0.000000
-12.490600 0.000000
-12.471200 0.000000
-12.451700 0.000000
-12.432300 0.000000
-12.412900 0.000000
-12.393400 0.000000
-12.374000 0.000000
-12.354600 0.000000
-12.335100 0.000000
-12.315700 0.000000
-12.296300 0.000000
-12.276800 0.000000
-12.257400 0.000000
-12.238000 0.000000
-12.218500 0.000000
-12.199100 0.000000
-12.179700 0.000000
-12.160300 0.000000
-12.140800 0.000000
-12.121400 0.000000
-12.102000 0.000000
-12.082500 0.000000
-12.063100 0.000000
-12.043700 0.000000
-12.024200 0.000000
-12.004800 0.000000
-11.985400 0.000000
-11.965900 0.000000
-11.946500 0.000000
-11.927100 0.000000
-11.907600 0.000000
-11.888200 0.000000
-11.868800 0.000000
-11.849300 0.000000
-11.829900 0.000000
-11.810500 0.000000
-11.791000 0.000000
-11.771600 0.000000
-11.752200 0.000000
-11.732700 0.000000
-11.713300 0.000000
-11.693900 0.000000
-11.674400 0.000000
-11.655000 0.000000
-11.635600 0.000000
-11.616100 0.000000
-11.596700 0.000000
-11.577300 0.000000
-11.557800 0.000000
-11.538400 0.000000
-11.519000 0.000000
-11.499600 0.000000
-11.480100 0.000000
-11.460700 0.000000
-11.441300 0.000000
-11.421800 0.000000
-11.402400 0.000000
-11.383000 0.000000
-11.363500 0.000000
-11.344100 0.000000
-11.324700 0.000000
-11.305200 0.000000
-11.285800 0.000000
-11.266400 0.000000
-11.246900 0.000000
-11.227500 0.000000
-11.208100 0.000000
-11.188600 0.000000
-11.169200 0.000000
-11.149800 0.000000
-11.130300 0.000000
-11.110900 0.000000
-11.091500 0.000000
-11.072000 0.000000
-11.052600 0.000000
-11.033200 0.000000
-11.013700 0.000000
-10.994300 0.000000
-10.974900 0.000000
-10.955400 0.000000
-10.936000 0.000000
-10.916600 0.000000
-10.897200 0.000000
-10.877700 0.000000
-10.858300 0.000000
-10.838900 0.000000
-10.819400 0.000000
-10.800000 0.000000
-10.780600 0.000000
-10.761100 0.277500
-10.741700 0.791600
-10.722300 0.598500
-10.702800 0.649600
-10.683400 0.700600
-10.664000 0.743500
-10.644500 0.712200
-10.625100 0.663100
-10.605700 0.668200
-10.586200 0.687000
-10.566800 0.705900
-10.547400 0.724700
-10.527900 0.743500
-10.508500 0.709800
-10.489100 0.699800
-10.469600 0.698200
-10.450200 0.697200
-10.430800 0.704400
-10.411300 0.714900
-10.391900 0.725400
-10.372500 0.735900
-10.353000 0.746400
-10.333600 0.745600
-10.314200 0.727900
-10.294800 0.723300
-10.275300 0.727400
-10.255900 0.731600
-10.236500 0.735700
-10.217000 0.739800
-10.197600 0.745300
-10.178200 0.752800
-10.158700 0.760300
-10.139300 0.767900
-10.119900 0.775400
-10.100400 0.772500
-10.081000 0.768500
-10.061600 0.768900
-10.042100 0.769800
-10.022700 0.774200
-10.003300 0.779800
-9.983800 0.785300
-9.964400 0.790800
-9.945000 0.796400
-9.925500 0.801900
-9.906100 0.807900
-9.886700 0.814700
-9.867200 0.821400
-9.847800 0.827400
-9.828400 0.829000
-9.808900 0.832100
-9.789500 0.837800
-9.770100 0.843500
-9.750600 0.849300
-9.731200 0.855300
-9.711800 0.862500
-9.692400 0.870000
-9.672900 0.877500
-9.653500 0.884900
-9.634100 0.892400
-9.614600 0.899900
-9.595200 0.907400
-9.575800 0.915600
-9.556300 0.925100
-9.536900 0.938200
-9.517500 0.950000
-9.498000 0.962100
-9.478600 0.974300
-9.459200 0.986500
-9.439700 0.998800
-9.420300 1.011000
-9.400900 1.024600
-9.381400 1.039500
-9.362000 1.054500
-9.342600 1.069500
-9.323100 1.084400
-9.303700 1.099400
-9.284300 1.114500
-9.264800 1.136500
-9.245400 1.181700
-9.226000 1.219800
-9.206500 1.257000
-9.187100 1.300500
-9.167700 1.348000
-9.148200 1.395400
-9.128800 1.449300
-9.109400 1.561200
-9.090000 1.834700
-9.070500 2.331500
-9.051100 3.163300
-9.031700 3.137100
-9.012200 2.751200
-8.992800 2.746500
-8.973400 3.010400
-8.953900 2.473100
-8.934500 2.409900
-8.915100 2.325200
-8.895600 2.231700
-8.876200 2.127200
-8.856800 2.042100
-8.837300 2.053500
-8.817900 2.106800
-8.798500 2.157700
-8.779000 2.142500
-8.759600 2.042700
-8.740200 2.072800
-8.720700 2.048700
-8.701300 2.025500
-8.681900 2.009600
-8.662400 2.019200
-8.643000 2.050700
-8.623600 2.074000
-8.604100 1.834300
-8.584700 1.921100
-8.565300 2.012600
-8.545800 2.221600
-8.526400 2.548000
-8.507000 2.905200
-8.487600 4.021400
-8.468100 10.391200
-8.448700 16.130500
-8.429300 11.627100
-8.409800 8.762800
-8.390400 7.024800
-8.371000 0.000000
-8.351500 0.000000
-8.332100 0.000000
-8.312700 0.000000
-8.293200 0.000000
-8.273800 0.000000
-8.254400 0.000000
-8.234900 0.000000
-8.215500 0.000000
-8.196100 0.000000
-8.176600 0.000000
-8.157200 0.000000
-8.137800 0.000000
-8.118300 0.000000
-8.098900 0.000000
-8.079500 0.000000
-8.060000 0.000000
-8.040600 0.000000
-8.021200 0.000000
-8.001700 0.000000
-7.982300 0.000000
-7.962900 0.000000
-7.943400 0.000000
-7.924000 0.000000
-7.904600 0.000000
-7.885200 0.000000
-7.865700 0.000000
-7.846300 0.000000
-7.826900 0.000000
-7.807400 0.000000
-7.788000 0.000000
-7.768600 0.000000
-7.749100 0.000000
-7.729700 0.000000
-7.710300 0.000000
-7.690800 0.000000
-7.671400 0.000000
-7.652000 0.000000
-7.632500 0.000000
-7.613100 0.000000
-7.593700 0.000000
-7.574200 0.000000
-7.554800 0.000000
-7.535400 0.000000
-7.515900 0.000000
-7.496500 0.000000
-7.477100 0.000000
-7.457600 0.000000
-7.438200 0.000000
-7.418800 0.000000
-7.399300 0.000000
-7.379900 0.000000
-7.360500 0.000000
-7.341000 0.000000
-7.321600 0.000000
-7.302200 0.000000
-7.282800 0.000000
-7.263300 0.000000
-7.243900 0.000000
-7.224500 0.000000
-7.205000 0.000000
-7.185600 0.000000
-7.166200 0.000000
-7.146700 0.000000
-7.127300 0.000000
-7.107900 0.000000
-7.088400 0.000000
-7.069000 0.000000
-7.049600 0.000000
-7.030100 0.000000
-7.010700 0.000000
-6.991300 0.000000
-6.971800 0.000000
-6.952400 0.000000
-6.933000 0.000000
-6.913500 0.000000
-6.894100 0.000000
-6.874700 0.000000
-6.855200 0.000000
-6.835800 0.000000
-6.816400 0.000000
-6.796900 0.000000
-6.777500 0.000000
-6.758100 0.000000
-6.738600 0.000000
-6.719200 0.000000
-6.699800 0.000000
-6.680400 0.000000
-6.660900 0.000000
-6.641500 0.000000
-6.622100 0.000000
-6.602600 0.000000
-6.583200 0.000000
-6.563800 0.000000
-6.544300 0.000000
-6.524900 0.000000
-6.505500 0.000000
-6.486000 0.000000
-6.466600 0.000000
-6.447200 0.000000
-6.427700 0.000000
-6.408300 0.000000
-6.388900 0.000000
-6.369400 0.000000
-6.350000 0.000000
-6.330600 0.000000
-6.311100 0.000000
-6.291700 0.000000
-6.272300 0.000000
-6.252800 0.000000
-6.233400 0.000000
-6.214000 0.000000
-6.194500 0.000000
-6.175100 0.000000
-6.155700 0.000000
-6.136200 0.000000
-6.116800 0.000000
-6.097400 0.000000
-6.078000 0.000000
-6.058500 0.000000
-6.039100 0.000000
-6.019700 0.000000
-6.000200 0.000000
-5.980800 0.000000
-5.961400 0.000000
-5.941900 0.000000
-5.922500 0.000000
-5.903100 0.000000
-5.883600 0.000000
-5.864200 0.000000
-5.844800 0.000000
-5.825300 0.000000
-5.805900 0.000000
-5.786500 0.000000
-5.767000 0.000000
-5.747600 0.000000
-5.728200 0.000000
-5.708700 0.000000
-5.689300 0.000000
-5.669900 0.000000
-5.650400 0.000000
-5.631000 0.000000
-5.611600 0.000000
-5.592100 0.000000
-5.572700 0.000000
-5.553300 0.000000
-5.533800 0.000000
-5.514400 0.000000
-5.495000 0.000000
-5.475600 0.000000
-5.456100 0.000000
-5.436700 0.000000
-5.417300 0.000000
-5.397800 0.000000
-5.378400 0.000000
-5.359000 0.000000
-5.339500 0.000000
-5.320100 0.000000
-5.300700 0.000000
-5.281200 0.000000
-5.261800 0.000000
-5.242400 0.000000
-5.222900 0.000000
-5.203500 0.000000
-5.184100 0.000000
-5.164600 0.000000
-5.145200 0.000000
-5.125800 0.000000
-5.106300 0.000000
-5.086900 0.000000
-5.067500 0.000000
-5.048000 0.000000
-5.028600 0.000000
-5.009200 0.000000
-4.989700 0.000000
-4.970300 0.000000
-4.950900 0.000000
-4.931400 0.000000
-4.912000 0.000000
-4.892600 0.000000
-4.873200 0.000000
-4.853700 0.000000
-4.834300 0.000000
-4.814900 0.000000
-4.795400 0.000000
-4.776000 0.000000
-4.756600 0.000000
-4.737100 0.000000
-4.717700 0.000000
-4.698300 0.000000
-4.678800 0.000000
-4.659400 0.000000
-4.640000 0.000000
-4.620500 0.000000
-4.601100 0.000000
-4.581700 0.000000
-4.562200 0.000000
-4.542800 0.000000
-4.523400 0.000000
-4.503900 0.000000
-4.484500 0.000000
-4.465100 0.000000
-4.445600 0.000000
-4.426200 0.000000
-4.406800 0.000000
-4.387300 0.000000
-4.367900 0.000000
-4.348500 0.000000
-4.329000 0.000000
-4.309600 0.000000
-4.290200 0.000000
-4.270800 0.851000
-4.251300 1.134600
-4.231900 1.418400
-4.212500 1.212300
-4.193000 1.451900
-4.173600 1.245000
-4.154200 1.548900
-4.134700 1.900500
-4.115300 2.832900
-4.095900 3.226500
-4.076400 3.123700
-4.057000 2.338600
-4.037600 2.000400
-4.018100 1.798300
-3.998700 1.644200
-3.979300 1.569700
-3.959800 1.501100
-3.940400 1.432500
-3.921000 1.363900
-3.901500 1.301900
-3.882100 1.249900
-3.862700 1.202800
-3.843200 1.160600
-3.823800 1.118400
-3.804400 1.060200
-3.784900 0.998600
-3.765500 0.978700
-3.746100 0.960100
-3.726600 0.941600
-3.707200 0.925400
-3.687800 0.911600
-3.668400 0.897900
-3.648900 0.884200
-3.629500 0.870400
-3.610100 0.856700
-3.590600 0.843000
-3.571200 0.829300
-3.551800 0.815100
-3.532300 0.800700
-3.512900 0.786500
-3.493500 0.772900
-3.474000 0.754200
-3.454600 0.736900
-3.435200 0.731100
-3.415700 0.725400
-3.396300 0.719600
-3.376900 0.713800
-3.357400 0.708000
-3.338000 0.702200
-3.318600 0.696800
-3.299100 0.692200
-3.279700 0.687800
-3.260300 0.683500
-3.240800 0.679200
-3.221400 0.674900
-3.202000 0.670600
-3.182500 0.666400
-3.163100 0.663800
-3.143700 0.661900
-3.124200 0.659900
-3.104800 0.656600
-3.085400 0.654200
-3.066000 0.652300
-3.046500 0.650600
-3.027100 0.649000
-3.007700 0.647300
-2.988200 0.645600
-2.968800 0.643900
-2.949400 0.642300
-2.929900 0.641900
-2.910500 0.645100
-2.891100 0.650800
-2.871600 0.657800
-2.852200 0.664800
-2.832800 0.684500
-2.813300 0.693800
-2.793900 0.701600
-2.774500 0.699000
-2.755000 0.697500
-2.735600 0.699600
-2.716200 0.703800
-2.696700 0.709700
-2.677300 0.717300
-2.657900 0.728000
-2.638400 0.766000
-2.619000 0.809900
-2.599600 0.836000
-2.580100 0.856100
-2.560700 0.878000
-2.541300 0.915100
-2.521800 0.960500
-2.502400 1.072600
-2.483000 1.113200
-2.463500 1.305800
-2.444100 1.431800
-2.424700 1.011200
-2.405300 0.918400
-2.385800 0.833700
-2.366400 0.750600
-2.347000 0.653000
-2.327500 0.580600
-2.308100 0.525700
-2.288700 0.494800
-2.269200 0.373800
-2.249800 0.242000
-2.230400 0.000000
-2.210900 0.000000
-2.191500 0.000000
-2.172100 0.000000
-2.152600 0.000000
-2.133200 0.000000
-2.113800 0.000000
-2.094300 0.000000
-2.074900 0.000000
-2.055500 0.000000
-2.036000 0.000000
-2.016600 0.000000
-1.997200 0.000000
-1.977700 0.000000
-1.958300 0.000000
-1.938900 0.000000
-1.919400 0.000000
-1.900000 0.000000
-1.880600 0.000000
-1.861100 0.000000
-1.841700 0.000000
-1.822300 0.000000
-1.802900 0.000000
-1.783400 0.000000
-1.764000 0.000000
-1.744600 0.000000
-1.725100 0.000000
-1.705700 0.000000
-1.686300 0.576700
-1.666800 0.779400
-1.647400 1.136300
-1.628000 1.280600
-1.608500 1.406600
-1.589100 1.451600
-1.569700 1.468500
-1.550200 1.466300
-1.530800 1.439500
-1.511400 1.458100
-1.491900 1.502400
-1.472500 1.553500
-1.453100 1.604400
-1.433600 1.638700
-1.414200 1.664900
-1.394800 1.695000
-1.375300 1.729400
-1.355900 1.779900
-1.336500 1.847800
-1.317000 1.919100
-1.297600 1.991400
-1.278200 2.076900
-1.258700 2.493000
-1.239300 2.690600
-1.219900 2.788100
-1.200500 2.826600
-1.181000 2.354700
-1.161600 1.978000
-1.142200 1.721800
-1.122700 1.586100
-1.103300 1.502200
-1.083900 1.455100
-1.064400 1.459000
-1.045000 1.283300
-1.025600 1.178600
-1.006100 1.045300
-0.986700 0.808200
-0.967300 0.938500
-0.947800 1.006900
-0.928400 1.106200
-0.909000 1.217800
-0.889500 1.313100
-0.870100 1.329100
-0.850700 1.346300
-0.831200 1.369200
-0.811800 1.396500
-0.792400 1.385300
-0.772900 1.377300
-0.753500 1.356500
-0.734100 1.319700
-0.714600 1.299000
-0.695200 1.282900
-0.675800 1.280800
-0.656300 1.302200
-0.636900 1.297600
-0.617500 1.297800
-0.598100 1.302900
-0.578600 1.309600
-0.559200 1.316600
-0.539800 1.322300
-0.520300 1.329600
-0.500900 1.345800
-0.481500 1.357100
-0.462000 1.369900
-0.442600 1.561900
-0.423200 1.646200
-0.403700 1.636500
-0.384300 1.638400
-0.364900 1.635100
-0.345400 1.637000
-0.326000 1.683900
-0.306600 1.702900
-0.287100 1.707400
-0.267700 1.710300
-0.248300 1.709000
-0.228800 1.710300
-0.209400 1.722500
-0.190000 1.736900
-0.170500 1.756100
-0.151100 1.785200
-0.131700 1.814500
-0.112200 1.838600
-0.092800 1.868700
-0.073400 1.903000
-0.053900 1.927200
-0.034500 1.946400
-0.015100 1.964400
0.004300 1.980700
0.023800 1.995300
0.043200 2.009100
0.062600 2.022000
0.082100 2.033900
0.101500 2.054200
0.120900 2.074000
0.140400 2.090400
0.159800 2.109600
0.179200 2.349500
0.198700 2.518300
0.218100 2.649500
0.237500 2.788300
0.257000 2.902600
0.276400 2.999800
0.295800 3.068200
0.315300 2.928100
0.334700 2.759600
0.354100 2.684500
0.373600 2.666400
0.393000 2.740000
0.412400 2.893700
0.431900 3.754900
0.451300 3.926900
0.470700 3.591400
0.490200 3.545300
0.509600 3.441200
0.529000 3.360500
0.548500 3.275500
0.567900 3.181700
0.587300 3.164400
0.606700 3.390400
0.626200 3.195000
0.645600 2.325400
0.665000 2.047800
0.684500 1.990900
0.703900 1.930900
0.723300 1.860800
0.742800 1.777800
0.762200 1.695300
0.781600 1.598900
0.801100 1.530000
0.820500 1.485500
0.839900 1.464000
0.859400 1.443400
0.878800 1.423200
0.898200 1.405600
0.917700 1.389500
0.937100 1.374500
0.956500 1.358900
0.976000 1.341800
0.995400 1.323400
1.014800 1.300700
1.034300 1.237400
1.053700 1.211300
1.073100 1.194900
1.092600 1.181800
1.112000 1.166400
1.131400 1.155700
1.150900 1.145900
1.170300 1.137100
1.189700 1.129600
1.209100 1.123900
1.228600 1.118400
1.248000 1.113000
1.267400 1.107600
1.286900 1.102400
1.306300 1.097900
1.325700 1.092300
1.345200 1.082800
1.364600 1.077800
1.384000 1.072000
1.403500 1.066600
1.422900 1.112600
1.442300 1.491100
1.461800 1.423900
1.481200 1.629300
1.500600 1.858700
1.520100 2.007900
1.539500 2.098400
1.558900 2.208500
1.578400 2.428900
1.597800 2.755700
1.617200 2.861900
1.636700 3.076700
1.656100 3.559900
1.675500 3.619500
1.695000 3.600200
1.714400 3.672000
1.733800 3.690600
1.753300 3.794100
1.772700 4.020100
1.792100 4.342500
1.811500 4.501500
1.831000 4.539100
1.850400 4.611700
1.869800 4.346200
1.889300 4.613500
1.908700 4.575400
1.928100 4.758600
1.947600 4.769300
1.967000 4.856100
1.986400 4.969100
2.005900 6.080100
2.025300 5.292100
2.044700 5.650700
2.064200 5.106600
2.083600 5.480100
2.103000 5.769100
2.122500 7.693800
2.141900 6.410500
2.161300 6.662400
2.180800 8.288100
2.200200 8.757100
2.219600 8.097700
2.239100 6.993600
2.258500 6.285900
2.277900 5.923200
2.297400 5.550700
2.316800 4.794400
2.336200 3.253000
2.355700 4.036300
2.375100 3.123900
2.394500 3.522500
2.413900 3.934300
2.433400 2.049300
2.452800 1.299200
2.472200 0.319700
2.491700 0.000000
2.511100 0.000000
2.530500 0.000000
2.550000 0.000000
2.569400 0.000000
2.588800 0.000000
2.608300 0.000000
2.627700 0.000000
2.647100 0.000000
2.666600 0.000000
2.686000 0.000000
2.705400 0.000000
2.724900 0.000000
2.744300 0.000000
2.763700 0.000000
2.783200 0.000000
2.802600 0.000000
2.822000 0.000000
2.841500 0.000000
2.860900 0.000000
2.880300 0.000000
2.899800 0.000000
2.919200 0.000000
2.938600 0.000000
2.958100 0.000000
2.977500 0.000000
2.996900 0.000000
3.016300 0.000000
3.035800 0.000000
3.055200 0.000000
3.074600 0.000000
3.094100 0.000000
3.113500 0.000000
3.132900 0.000000
3.152400 0.000000
3.171800 0.000000
3.191200 0.000000
3.210700 0.000000
3.230100 0.000000
3.249500 0.000000
3.269000 0.000000
3.288400 0.000000
3.307800 0.000000
3.327300 0.000000
3.346700 0.000000
3.366100 0.000000
3.385600 0.000000
3.405000 0.000000
3.424400 0.000000
3.443900 0.000000
3.463300 0.000000
3.482700 0.000000
3.502200 0.000000
3.521600 0.000000
3.541000 0.000000
3.560500 0.000000
3.579900 0.000000
3.599300 0.000000
3.618700 0.000000
3.638200 0.000000
3.657600 0.000000
3.677000 0.000000
3.696500 0.000000
3.715900 0.000000
3.735300 0.000000
3.754800 0.000000
3.774200 0.000000
3.793600 0.000000
3.813100 0.000000
3.832500 0.000000
3.851900 0.000000
3.871400 0.000000
3.890800 0.000000
3.910200 0.000000
3.929700 0.000000
3.949100 0.000000
3.968500 0.000000
3.988000 0.000000
4.007400 0.000000
4.026800 0.000000
4.046300 0.000000
4.065700 0.107300
4.085100 0.219900
4.104600 0.329200
4.124000 0.482600
4.143400 0.595100
4.162900 0.682000
4.182300 0.766200
4.201700 0.806000
4.221100 0.814300
4.240600 0.793900
4.260000 0.760000
4.279400 0.737300
4.298900 0.731600
4.318300 0.747400
4.337700 0.766100
4.357200 0.784800
4.376600 0.803400
4.396000 0.822100
4.415500 0.835900
4.434900 0.843800
4.454300 0.854400
4.473800 0.864400
4.493200 0.868700
4.512600 0.881000
4.532100 0.896300
4.551500 0.916700
4.570900 0.940300
4.590400 0.959300
4.609800 0.979300
4.629200 1.000400
4.648700 1.022700
4.668100 1.045800
4.687500 1.069500
4.707000 1.094400
4.726400 1.120600
4.745800 1.148000
4.765300 1.176700
4.784700 1.207700
4.804100 1.235400
4.823500 1.261700
4.843000 1.304600
4.862400 1.381300
4.881800 1.477300
4.901300 1.561400
4.920700 1.634700
4.940100 1.700900
4.959600 1.766000
4.979000 1.831400
4.998400 1.910300
5.017900 2.248700
5.037300 2.695900
5.056700 3.003800
5.076200 2.845600
5.095600 2.846300
5.115000 2.895900
5.134500 2.911100
5.153900 3.023000
5.173300 3.396900
5.192800 3.289800
5.212200 2.695000
5.231600 2.073500
5.251100 1.740900
5.270500 1.682600
5.289900 1.695300
5.309400 2.615500
5.328800 2.468000
5.348200 2.267800
5.367700 2.222800
5.387100 2.042000
5.406500 1.692100
5.425900 1.119000
5.445400 0.676700
5.464800 0.006500
5.484200 0.000000
5.503700 0.000000
5.523100 0.000000
5.542500 0.000000
5.562000 0.000000
5.581400 0.000000
5.600800 0.000000
5.620300 0.000000
5.639700 0.000000
5.659100 0.000000
5.678600 0.000000
5.698000 0.000000
5.717400 0.000000
5.736900 0.000000
5.756300 0.000000
5.775700 0.000000
5.795200 0.000000
5.814600 0.000000
5.834000 0.000000
5.853500 0.000000
5.872900 0.000000
5.892300 0.000000
5.911800 0.000000
5.931200 0.000000
5.950600 0.000000
5.970100 0.000000
5.989500 0.000000
6.008900 0.000000
6.028300 0.000000
6.047800 0.000000
6.067200 0.000000
6.086600 0.000000
6.106100 0.000000
6.125500 0.000000
6.144900 0.000000
6.164400 0.000000
6.183800 0.000000
6.203200 0.000000
6.222700 0.000000
6.242100 0.000000
6.261500 0.000000
6.281000 0.000600
6.300400 0.017800
6.319800 0.035300
6.339300 0.052800
6.358700 0.070400
6.378100 0.087900
6.397600 0.105400
6.417000 0.122900
6.436400 0.140400
6.455900 0.157900
6.475300 0.175400
6.494700 0.169300
6.514200 0.127800
6.533600 0.132100
6.553000 0.136400
6.572500 0.140700
6.591900 0.145100
6.611300 0.149400
6.630800 0.153700
6.650200 0.158000
6.669600 0.162300
6.689000 0.166600
6.708500 0.171000
6.727900 0.175300
6.747300 0.179600
6.766800 0.183900
6.786200 0.188200
6.805600 0.192600
6.825100 0.196900
6.844500 0.206600
6.863900 0.219200
6.883400 0.231800
6.902800 0.245300
6.922200 0.259500
6.941700 0.273800
6.961100 0.288100
6.980500 0.302200
7.000000 0.316200
7.019400 0.330100
7.038800 0.344100
7.058300 0.361000
7.077700 0.380300
7.097100 0.401600
7.116600 0.425000
7.136000 0.450500
7.155400 0.478000
7.174900 0.494900
7.194300 0.517400
7.213700 0.576700
7.233200 0.694200
7.252600 0.839400
7.272000 1.005600
7.291400 1.241800
7.310900 1.447700
7.330300 1.626700
7.349700 1.822500
7.369200 1.950500
7.388600 2.037000
7.408000 2.038700
7.427500 1.995900
7.446900 1.890700
7.466300 1.833100
7.485800 1.777000
7.505200 1.735300
7.524600 1.718500
7.544100 1.713100
7.563500 1.726200
7.582900 1.710800
7.602400 1.677300
7.621800 1.609800
7.641200 1.557400
7.660700 1.593400
7.680100 1.712300
7.699500 1.889100
7.719000 1.934800
7.738400 1.877200
7.757800 1.848900
7.777300 1.879900
7.796700 1.917900
7.816100 1.968500
7.835600 2.093000
7.855000 2.223700
7.874400 2.509800
7.893800 1.927400
7.913300 1.954400
7.932700 2.143100
7.952100 2.432300
7.971600 2.426200
7.991000 2.265200
8.010400 2.148400
8.029900 2.100700
8.049300 2.056100
8.068700 2.051300
8.088200 1.925800
8.107600 1.872100
8.127000 1.850200
8.146500 1.836600
8.165900 1.818800
8.185300 1.783700
8.204800 1.805200
8.224200 1.853400
8.243600 1.887400
8.263100 1.898100
8.282500 1.880200
8.301900 1.844800
8.321400 1.803100
8.340800 1.758800
8.360200 1.741900
8.379700 1.739600
8.399100 1.756200
8.418500 1.767900
8.438000 1.821000
8.457400 1.889900
8.476800 2.041900
8.496200 2.323700
8.515700 2.879500
8.535100 3.578000
8.554500 4.233800
8.574000 4.553700
8.593400 4.461900
8.612800 4.487300
8.632300 4.716900
8.651700 4.489200
8.671100 4.252900
8.690600 4.111200
8.710000 4.024700
8.729400 3.986400
8.748900 4.034500
8.768300 4.114100
8.787700 4.199400
8.807200 4.318100
8.826600 4.678100
8.846000 5.240300
8.865500 5.578500
8.884900 4.783000
8.904300 4.217200
8.923800 4.024300
8.943200 4.174600
8.962600 3.987300
8.982100 3.961200
9.001500 4.391200
9.020900 4.534900
9.040400 4.737000
9.059800 5.198600
9.079200 4.005200
9.098600 3.581500
9.118100 3.638500
9.137500 4.128100
9.156900 3.535500
9.176400 3.371000
9.195800 3.039900
9.215200 2.411200
9.234700 2.248800
9.254100 2.173000
9.273500 2.120700
9.293000 2.075400
9.312400 2.045100
9.331800 2.023500
9.351300 1.982000
9.370700 1.974100
9.390100 1.983700
9.409600 2.009600
9.429000 2.053700
9.448400 2.122700
9.467900 2.211500
9.487300 2.231000
9.506700 2.243200
9.526200 2.237900
9.545600 2.280400
9.565000 2.297500
9.584500 2.277800
9.603900 2.250600
9.623300 2.251200
9.642800 2.269700
9.662200 2.291700
9.681600 2.300400
9.701000 2.348800
9.720500 2.440700
9.739900 2.639500
9.759300 2.841800
9.778800 2.863200
9.798200 2.876000
9.817600 3.006800
9.837100 3.532400
9.856500 3.199800
9.875900 2.972300
9.895400 2.663700
9.914800 2.412000
9.934200 2.273200
9.953700 2.107900
9.973100 1.982500
9.992500 1.777600
10.012000 1.635700
10.031400 1.509000
10.050800 1.391500
10.070300 1.248000
10.089700 1.217700
10.109100 1.187900
10.128600 1.176300
10.148000 1.171200
10.167400 1.176000
10.186900 1.210200
10.206300 1.324100
10.225700 1.379700
10.245200 1.275400
10.264600 1.074700
10.284000 0.949000
10.303400 0.848600
10.322900 0.791400
10.342300 0.753200
10.361700 0.724700
10.381200 0.695400
10.400600 0.670000
10.420000 0.641800
10.439500 0.611400
10.458900 0.589600
10.478300 0.570800
10.497800 0.564800
10.517200 0.580100
10.536600 0.611900
10.556100 0.618400
10.575500 0.590200
10.594900 0.589200
10.614400 0.579600
10.633800 0.496700
10.653200 0.428400
10.672700 0.429100
10.692100 0.433900
10.711500 0.449700
10.731000 0.478400
10.750400 0.514100
10.769800 0.557100
10.789300 0.606700
10.808700 0.698700
10.828100 0.934900
10.847600 0.999900
10.867000 0.998300
10.886400 0.991900
10.905800 1.017900
10.925300 1.052900
10.944700 1.092200
10.964100 1.196800
10.983600 1.330000
11.003000 1.499200
11.022400 1.679900
11.041900 1.864600
11.061300 2.313200
11.080700 2.487100
11.100200 2.518300
11.119600 2.525900
11.139000 2.599500
11.158500 2.481400
11.177900 2.339900
11.197300 2.192700
11.216800 2.010700
11.236200 1.861700
11.255600 1.729600
11.275100 1.652000
11.294500 1.593700
11.313900 1.551700
11.333400 1.519300
11.352800 1.506800
11.372200 1.543000
11.391700 1.673800
11.411100 1.934200
11.430500 2.055800
11.450000 2.100400
11.469400 2.088800
11.488800 2.099700
11.508200 2.119800
11.527700 2.166400
11.547100 2.220300
11.566500 2.263300
11.586000 2.278600
11.605400 2.312100
11.624800 2.360800
11.644300 2.407900
11.663700 2.457000
11.683100 2.543300
11.702600 2.604800
11.722000 2.677900
11.741400 2.735500
11.760900 2.844300
11.780300 2.942100
11.799700 2.983200
11.819200 2.991100
11.838600 2.960000
11.858000 2.919200
11.877500 3.006400
11.896900 2.987200
11.916300 2.995100
11.935800 3.006500
11.955200 3.077300
11.974600 3.167400
11.994100 3.267400
12.013500 3.201400
12.032900 2.937100
12.052400 2.934600
12.071800 2.940400
12.091200 2.686700
12.110600 2.633700
12.130100 2.562000
12.149500 2.450600
12.168900 2.297300
12.188400 2.285200
12.207800 2.372300
12.227200 2.570900
12.246700 2.332900
12.266100 2.167300
12.285500 2.067700
12.305000 2.021400
12.324400 1.995000
12.343800 2.045300
12.363300 2.321300
12.382700 2.474100
12.402100 2.491900
12.421600 2.569900
12.441000 2.762300
12.460400 2.985400
12.479900 3.305300
12.499300 3.585700
12.518700 3.481600
12.538200 3.652000
12.557600 3.313100
12.577000 3.094300
12.596500 2.876300
12.615900 2.637000
12.635300 2.417000
12.654800 2.309600
12.674200 2.222300
12.693600 2.142000
12.713000 2.071700
12.732500 2.034900
12.751900 2.023000
12.771300 2.019600
12.790800 2.018100
12.810200 2.055500
12.829600 2.108500
12.849100 2.150100
12.868500 2.157300
12.887900 2.103200
12.907400 2.017300
12.926800 1.981700
12.946200 1.957700
12.965700 1.945100
12.985100 1.941300
13.004500 1.920700
13.024000 1.900200
13.043400 1.857400
13.062800 1.856200
13.082300 1.586000
13.101700 1.426100
13.121100 1.362400
13.140600 1.318200
13.160000 1.292000
13.179400 1.287900
13.198900 1.289000
13.218300 1.291000
13.237700 1.293600
13.257200 1.297300
13.276600 1.303700
13.296000 1.314300
13.315400 1.328400
13.334900 1.344000
13.354300 1.355300
13.373700 1.366200
13.393200 1.376500
13.412600 1.385500
13.432000 1.390200
13.451500 1.408500
13.470900 1.415200
13.490300 1.415400
13.509800 1.412400
13.529200 1.407000
13.548600 1.402500
13.568100 1.400600
13.587500 1.400600
13.606900 1.402200
13.626400 1.620400
13.645800 1.832200
13.665200 2.010300
13.684700 2.175600
13.704100 2.300700
13.723500 2.408600
13.743000 2.523500
13.762400 2.629500
13.781800 2.731800
13.801300 3.002800
13.820700 2.964400
13.840100 2.768900
13.859600 2.645500
13.879000 2.596800
13.898400 2.605800
13.917800 2.633100
13.937300 2.674300
13.956700 2.747600
13.976100 2.839500
13.995600 2.997700
14.015000 3.097200
14.034400 3.121700
14.053900 3.096400
14.073300 3.012200
14.092700 3.005600
14.112200 2.923100
14.131600 2.806000
14.151000 2.638100
14.170500 2.530700
14.189900 2.506000
14.209300 2.325900
14.228800 2.239300
14.248200 2.169200
14.267600 2.091200
14.287100 2.029600
14.306500 1.994400
14.325900 1.979500
14.345400 1.968900
14.364800 1.918200
14.384200 1.842500
14.403700 1.787400
14.423100 1.736100
14.442500 1.695900
14.462000 1.667000
14.481400 1.625100
14.500800 1.644800
14.520200 1.712500
14.539700 1.810300
14.559100 1.831800
14.578500 1.858100
14.598000 1.888500
14.617400 1.914500
14.636800 1.910000
14.656300 1.890500
14.675700 1.909700
14.695100 1.899500
14.714600 1.852100
14.734000 1.787600
14.753400 1.734100
14.772900 1.704700
14.792300 1.692000
14.811700 1.676300
14.831200 1.662400
14.850600 1.655400
14.870000 1.645300
14.889500 1.661100
14.908900 1.695200
14.928300 1.737800
14.947800 1.801100
14.967200 1.880600
14.986600 1.976000
15.006100 2.085600
15.025500 2.158100
15.044900 2.208000
15.064400 2.245000
15.083800 2.312400
15.103200 2.391400
15.122600 2.480300
15.142100 2.552900
15.161500 2.617500
15.180900 2.690500
15.200400 2.731900
15.219800 2.740500
15.239200 2.762200
15.258700 2.761100
15.278100 2.728500
15.297500 2.705900
15.317000 2.694600
15.336400 2.724600
15.355800 2.706300
15.375300 2.706600
15.394700 2.749700
15.414100 2.824800
15.433600 2.849400
15.453000 2.863400
15.472400 2.887200
15.491900 2.887100
15.511300 2.852700
15.530700 2.821700
15.550200 2.877300
15.569600 2.458400
15.589000 2.267400
15.608500 2.179400
15.627900 2.103300
15.647300 2.043800
15.666800 2.027700
15.686200 2.067200
15.705600 2.158800
15.725100 2.158300
15.744500 2.138000
15.763900 2.451400
15.783300 2.391000
15.802800 2.094300
15.822200 1.951800
15.841600 1.841800
15.861100 1.729800
15.880500 1.633600
15.899900 1.543700
15.919400 1.466800
15.938800 1.408900
15.958200 1.375100
15.977700 1.367500
15.997100 1.350700
16.016500 1.354200
16.036000 1.363700
16.055400 1.364600
16.074800 1.367300
16.094300 1.366000
16.113700 1.355000
16.133100 1.345700
16.152600 1.331100
16.172000 1.341700
16.191400 1.344500
16.210900 1.340600
16.230300 1.357300
16.249700 1.313500
16.269200 1.260100
16.288600 1.204700
16.308000 1.148600
16.327500 1.075600
16.346900 1.058500
16.366300 1.060300
16.385700 1.062800
16.405200 1.077400
16.424600 1.135900
16.444000 1.072200
16.463500 0.895600
16.482900 0.668900
16.502300 0.610400
16.521800 0.557800
16.541200 0.506700
16.560600 0.456500
16.580100 0.402300
16.599500 0.352500
16.618900 0.316600
16.638400 0.287800
16.657800 0.261200
16.677200 0.235100
16.696700 0.209500
16.716100 0.182800
16.735500 0.157500
16.755000 0.138500
16.774400 0.117200
16.793800 0.098300
16.813300 0.081700
16.832700 0.067800
16.852100 0.056500
16.871600 0.048000
16.891000 0.041600
16.910400 0.035700
16.929900 0.030200
16.949300 0.025100
16.968700 0.000000
16.988100 0.000000
17.007600 0.000000
17.027000 0.000000
17.046400 0.000000
17.065900 0.000000
17.085300 0.000000
17.104700 0.000000
17.124200 0.000000
17.143600 0.000000
17.163000 0.000000
17.182500 0.000000
17.201900 0.000000
17.221300 0.000000
17.240800 0.000000
17.260200 0.000000
17.279600 0.000000
17.299100 0.000000
17.318500 0.000000
17.337900 0.000000
17.357400 0.000000
17.376800 0.000000
17.396200 0.000000
17.415700 0.000000
17.435100 0.000000
17.454500 0.000000
17.474000 0.000000
17.493400 0.000000
17.512800 0.000000
17.532300 0.000000
17.551700 0.000000
17.571100 0.000000
17.590500 0.000000
17.610000 0.000000
17.629400 0.000000
17.648800 0.000000
17.668300 0.000000
17.687700 0.000000
17.707100 0.000000
17.726600 0.000000
17.746000 0.000000
17.765400 0.000000
17.784900 0.000000
17.804300 0.000000
17.823700 0.000000
17.843200 0.000000
17.862600 0.000000
17.882000 0.000000
17.901500 0.000000
17.920900 0.000000
17.940300 0.000000
17.959800 0.000000
17.979200 0.000000
17.998600 0.000000
18.018100 0.000000
18.037500 0.000000
18.056900 0.000000
18.076400 0.000000
18.095800 0.000000
18.115200 0.000000
18.134700 0.000000
18.154100 0.000000
18.173500 0.000000
18.192900 0.000000
18.212400 0.000000
18.231800 0.000000
18.251200 0.000000
18.270700 0.000000
18.290100 0.000000
18.309500 0.000000
18.329000 0.000000
18.348400 0.000000
18.367800 0.000000
18.387300 0.000000
18.406700 0.000000
18.426100 0.000000
18.445600 0.000000
18.465000 0.000000
18.484400 0.000000
18.503900 0.000000
18.523300 0.000000
18.542700 0.000000
18.562200 0.000000
18.581600 0.000000
18.601000 0.000000
18.620500 0.000000
18.639900 0.000000
18.659300 0.000000
18.678800 0.000000
18.698200 0.000000
18.717600 0.000000
e
