set title 'mp-1095294 - Density of States'
set xlabel 'Energy (eV)'
set ylabel 'DOS (states/eV)'
set grid
set xrange [-10:10]
set yrange [0:35.228]
set xzeroaxis lt -1
set terminal png size 800,600
set output 'mp-1095294_dos_gnuplot.png'
plot '-' using 1:2 with lines title 'DOS'
-14.107300 0.000000
-14.091600 0.000000
-14.075800 0.000000
-14.060000 0.000000
-14.044300 0.000000
-14.028500 0.000000
-14.012700 0.000000
-13.996900 0.000000
-13.981200 0.000000
-13.965400 0.000000
-13.949600 0.000000
-13.933900 0.000000
-13.918100 0.000000
-13.902300 0.000000
-13.886500 0.000000
-13.870800 0.000000
-13.855000 0.000000
-13.839200 0.000000
-13.823400 0.000000
-13.807700 0.000000
-13.791900 0.000000
-13.776100 0.000000
-13.760400 0.000000
-13.744600 0.000000
-13.728800 0.000000
-13.713000 0.000000
-13.697300 0.000000
-13.681500 0.000000
-13.665700 0.000000
-13.650000 0.000000
-13.634200 0.000000
-13.618400 0.000000
-13.602600 0.000000
-13.586900 0.000000
-13.571100 0.000000
-13.555300 0.000000
-13.539500 0.000000
-13.523800 0.000000
-13.508000 0.000000
-13.492200 0.000000
-13.476500 0.000000
-13.460700 0.000000
-13.444900 0.000000
-13.429100 0.000000
-13.413400 0.000000
-13.397600 0.000000
-13.381800 0.000000
-13.366000 0.000000
-13.350300 0.000000
-13.334500 0.000000
-13.318700 0.000000
-13.303000 0.000000
-13.287200 0.000000
-13.271400 0.000000
-13.255600 0.000000
-13.239900 0.000000
-13.224100 0.000000
-13.208300 0.000000
-13.192600 0.000000
-13.176800 0.000000
-13.161000 0.000000
-13.145200 0.000000
-13.129500 0.000000
-13.113700 0.000000
-13.097900 0.000000
-13.082100 0.000000
-13.066400 0.000000
-13.050600 0.000000
-13.034800 0.000000
-13.019100 0.000000
-13.003300 0.000000
-12.987500 0.000000
-12.971700 0.000000
-12.956000 0.000000
-12.940200 0.000000
-12.924400 0.000000
-12.908600 0.000000
-12.892900 0.000000
-12.877100 0.000000
-12.861300 0.000000
-12.845600 0.000000
-12.829800 0.000000
-12.814000 0.000000
-12.798200 0.000000
-12.782500 0.000000
-12.766700 0.000000
-12.750900 0.000000
-12.735200 0.000000
-12.719400 0.000000
-12.703600 0.000000
-12.687800 0.000000
-12.672100 0.001300
-12.656300 0.182200
-12.640500 0.662800
-12.624700 1.409300
-12.609000 2.214300
-12.593200 3.020300
-12.577400 3.827100
-12.561700 4.634900
-12.545900 6.496700
-12.530100 8.148600
-12.514300 8.847700
-12.498600 8.265700
-12.482800 7.682300
-12.467000 7.097400
-12.451300 6.505300
-12.435500 5.289600
-12.419700 4.385400
-12.403900 4.401600
-12.388200 4.417800
-12.372400 4.434100
-12.356600 4.450300
-12.340800 4.466700
-12.325100 4.483000
-12.309300 4.499400
-12.293500 4.515800
-12.277800 4.532200
-12.262000 4.548700
-12.246200 3.693400
-12.230400 12.380800
-12.214700 21.406400
-12.198900 21.852300
-12.183100 12.550100
-12.167300 5.730600
-12.151600 5.454800
-12.135800 5.179000
-12.120000 4.903200
-12.104300 4.627400
-12.088500 4.351500
-12.072700 4.075600
-12.056900 3.799700
-12.041200 3.523800
-12.025400 3.247900
-12.009600 2.971900
-11.993900 2.695900
-11.978100 2.419700
-11.962300 2.054400
-11.946500 1.661700
-11.930800 1.269100
-11.915000 0.876700
-11.899200 0.484400
-11.883400 0.103500
-11.867700 0.000000
-11.851900 0.000000
-11.836100 0.000000
-11.820400 0.000000
-11.804600 0.000000
-11.788800 0.000000
-11.773000 0.000000
-11.757300 0.000000
-11.741500 0.000000
-11.725700 0.000000
-11.709900 0.000000
-11.694200 0.000000
-11.678400 0.000000
-11.662600 0.000000
-11.646900 0.000000
-11.631100 0.000000
-11.615300 0.002000
-11.599500 0.076500
-11.583800 0.256000
-11.568000 0.456500
-11.552200 0.656900
-11.536500 0.857300
-11.520700 1.057800
-11.504900 1.258100
-11.489100 1.458500
-11.473400 1.658900
-11.457600 1.859200
-11.441800 2.037100
-11.426000 2.189200
-11.410300 2.337000
-11.394500 2.484900
-11.378700 2.632700
-11.363000 2.780500
-11.347200 2.928400
-11.331400 3.076200
-11.315600 3.224000
-11.299900 3.371800
-11.284100 3.519600
-11.268300 3.667300
-11.252600 3.815100
-11.236800 3.962900
-11.221000 9.201100
-11.205200 11.169500
-11.189500 12.347800
-11.173700 4.583800
-11.157900 4.667900
-11.142100 4.752400
-11.126400 4.837300
-11.110600 4.922600
-11.094800 5.008300
-11.079100 5.094400
-11.063300 5.181000
-11.047500 3.428600
-11.031700 2.987300
-11.016000 3.447200
-11.000200 3.642100
-10.984400 3.606700
-10.968600 3.571300
-10.952900 3.536000
-10.937100 3.500800
-10.921300 3.465600
-10.905600 3.430600
-10.889800 3.395600
-10.874000 3.360600
-10.858200 3.325800
-10.842500 3.291000
-10.826700 4.504200
-10.810900 7.561300
-10.795200 10.262000
-10.779400 8.692700
-10.763600 6.595100
-10.747800 4.205600
-10.732100 4.053000
-10.716300 3.948800
-10.700500 3.844700
-10.684700 3.740500
-10.669000 3.636400
-10.653200 3.532400
-10.637400 3.428300
-10.621700 3.324300
-10.605900 3.220400
-10.590100 3.116500
-10.574300 2.808300
-10.558600 1.477500
-10.542800 0.298800
-10.527000 0.000000
-10.511200 0.000000
-10.495500 0.000100
-10.479700 11.385900
-10.463900 17.213600
-10.448200 21.205300
-10.432400 20.187100
-10.416600 19.170600
-10.400800 18.156000
-10.385100 17.311200
-10.369300 17.516800
-10.353500 17.946800
-10.337800 18.806800
-10.322000 19.363100
-10.306200 16.485600
-10.290400 17.371600
-10.274700 24.725900
-10.258900 37.131500
-10.243100 44.750500
-10.227300 22.502300
-10.211600 22.463100
-10.195800 22.487300
-10.180000 21.545700
-10.164300 18.975400
-10.148500 14.598200
-10.132700 11.316800
-10.116900 11.326800
-10.101200 11.337000
-10.085400 7.682200
-10.069600 2.156200
-10.053900 0.077700
-10.038100 0.000000
-10.022300 0.000000
-10.006500 0.000000
-9.990800 0.000000
-9.975000 0.000000
-9.959200 0.000000
-9.943400 0.000000
-9.927700 0.000000
-9.911900 0.000000
-9.896100 0.000000
-9.880400 0.000000
-9.864600 0.000000
-9.848800 0.000000
-9.833000 0.000000
-9.817300 0.000000
-9.801500 0.000000
-9.785700 0.000000
-9.769900 0.000000
-9.754200 0.000000
-9.738400 0.000000
-9.722600 0.000000
-9.706900 0.000000
-9.691100 0.000000
-9.675300 0.000000
-9.659500 0.000000
-9.643800 0.000000
-9.628000 0.000000
-9.612200 0.000000
-9.596500 0.000000
-9.580700 0.000000
-9.564900 0.000000
-9.549100 0.000000
-9.533400 0.000000
-9.517600 0.000000
-9.501800 0.000000
-9.486000 0.000000
-9.470300 0.000000
-9.454500 0.000000
-9.438700 0.000000
-9.423000 0.000000
-9.407200 0.000000
-9.391400 0.000000
-9.375600 0.000000
-9.359900 0.000000
-9.344100 0.000000
-9.328300 0.000000
-9.312500 0.000000
-9.296800 0.000000
-9.281000 0.000000
-9.265200 0.000000
-9.249500 0.000000
-9.233700 0.000000
-9.217900 0.000000
-9.202100 0.000000
-9.186400 0.000000
-9.170600 0.000000
-9.154800 0.000000
-9.139100 0.000000
-9.123300 0.000000
-9.107500 0.000000
-9.091700 0.000000
-9.076000 0.000000
-9.060200 0.000000
-9.044400 0.000000
-9.028600 0.000000
-9.012900 0.000000
-8.997100 0.000000
-8.981300 0.000000
-8.965600 0.000000
-8.949800 0.000000
-8.934000 0.000000
-8.918200 0.000000
-8.902500 0.000000
-8.886700 0.000000
-8.870900 0.000000
-8.855200 0.000000
-8.839400 0.000000
-8.823600 0.000000
-8.807800 0.000000
-8.792100 0.000000
-8.776300 0.000000
-8.760500 0.000000
-8.744700 0.000000
-8.729000 0.000000
-8.713200 0.000000
-8.697400 0.000000
-8.681700 0.000000
-8.665900 0.000000
-8.650100 0.000000
-8.634300 0.000000
-8.618600 0.000000
-8.602800 0.000000
-8.587000 0.000000
-8.571200 0.000000
-8.555500 0.000000
-8.539700 0.000000
-8.523900 0.000000
-8.508200 0.000000
-8.492400 0.000000
-8.476600 0.000000
-8.460800 0.000000
-8.445100 0.000000
-8.429300 0.000000
-8.413500 0.000000
-8.397800 0.000000
-8.382000 0.000000
-8.366200 0.000000
-8.350400 0.000000
-8.334700 0.000000
-8.318900 0.000000
-8.303100 0.000000
-8.287300 0.000000
-8.271600 0.000000
-8.255800 0.000000
-8.240000 0.000000
-8.224300 0.000000
-8.208500 0.000000
-8.192700 0.000000
-8.176900 0.000000
-8.161200 0.000000
-8.145400 0.000000
-8.129600 0.000000
-8.113900 0.000000
-8.098100 0.000000
-8.082300 0.000000
-8.066500 0.000000
-8.050800 0.000000
-8.035000 0.000000
-8.019200 0.000000
-8.003400 0.000000
-7.987700 0.000000
-7.971900 0.000000
-7.956100 0.000000
-7.940400 0.000000
-7.924600 0.000000
-7.908800 0.000000
-7.893000 0.000000
-7.877300 0.000000
-7.861500 0.000000
-7.845700 0.000000
-7.829900 0.000000
-7.814200 0.000000
-7.798400 0.000000
-7.782600 0.000000
-7.766900 0.000000
-7.751100 0.000000
-7.735300 0.000000
-7.719500 0.000000
-7.703800 0.000000
-7.688000 0.000000
-7.672200 0.000000
-7.656500 0.000000
-7.640700 0.000000
-7.624900 0.000000
-7.609100 0.000000
-7.593400 0.000000
-7.577600 0.000000
-7.561800 0.000000
-7.546000 0.000000
-7.530300 0.000000
-7.514500 0.000000
-7.498700 0.000000
-7.483000 0.000000
-7.467200 0.000000
-7.451400 0.000000
-7.435600 0.000000
-7.419900 0.000000
-7.404100 0.000000
-7.388300 0.000000
-7.372500 0.000000
-7.356800 0.000000
-7.341000 0.000000
-7.325200 0.000000
-7.309500 0.000000
-7.293700 0.000000
-7.277900 0.000000
-7.262100 0.000000
-7.246400 0.000000
-7.230600 0.000000
-7.214800 0.000000
-7.199100 0.000000
-7.183300 0.000000
-7.167500 0.000000
-7.151700 0.000000
-7.136000 0.000000
-7.120200 0.000000
-7.104400 0.000000
-7.088600 0.000000
-7.072900 0.000000
-7.057100 0.000000
-7.041300 0.000000
-7.025600 0.000000
-7.009800 0.000000
-6.994000 0.000000
-6.978200 0.000000
-6.962500 0.000000
-6.946700 0.000000
-6.930900 0.000000
-6.915200 0.000000
-6.899400 0.000000
-6.883600 0.000000
-6.867800 0.000000
-6.852100 0.000000
-6.836300 0.000000
-6.820500 0.000000
-6.804700 0.000000
-6.789000 0.000000
-6.773200 0.000000
-6.757400 0.000000
-6.741700 0.000000
-6.725900 0.000000
-6.710100 0.000000
-6.694300 0.000000
-6.678600 0.000000
-6.662800 0.000000
-6.647000 0.000000
-6.631200 0.000000
-6.615500 0.000000
-6.599700 0.000000
-6.583900 0.000000
-6.568200 0.000000
-6.552400 0.000000
-6.536600 0.000000
-6.520800 0.022700
-6.505100 0.132700
-6.489300 0.242800
-6.473500 0.352800
-6.457800 0.462800
-6.442000 0.572700
-6.426200 0.682700
-6.410400 0.792700
-6.394700 0.902700
-6.378900 1.012700
-6.363100 1.122600
-6.347300 1.232600
-6.331600 1.342600
-6.315800 1.452500
-6.300000 1.562500
-6.284300 1.672400
-6.268500 2.705200
-6.252700 2.721100
-6.236900 2.729500
-6.221200 2.738000
-6.205400 2.746300
-6.189600 2.754700
-6.173800 2.763100
-6.158100 2.771500
-6.142300 2.777100
-6.126500 2.749500
-6.110800 2.689000
-6.095000 2.622300
-6.079200 2.555700
-6.063400 2.489000
-6.047700 2.422400
-6.031900 2.355700
-6.016100 2.289100
-6.000400 2.222400
-5.984600 2.155700
-5.968800 2.089000
-5.953000 2.022300
-5.937300 1.955600
-5.921500 1.715900
-5.905700 1.488500
-5.889900 1.489500
-5.874200 1.490600
-5.858400 1.491600
-5.842600 1.492600
-5.826900 1.493600
-5.811100 1.494700
-5.795300 1.495700
-5.779500 1.496700
-5.763800 1.497700
-5.748000 1.498700
-5.732200 1.499800
-5.716500 1.500800
-5.700700 1.501800
-5.684900 1.502800
-5.669100 2.417700
-5.653400 2.856800
-5.637600 2.942200
-5.621800 3.027700
-5.606000 3.113100
-5.590300 3.198500
-5.574500 3.283900
-5.558700 3.369400
-5.543000 3.454800
-5.527200 3.540200
-5.511400 3.625600
-5.495600 3.711000
-5.479900 3.796400
-5.464100 3.881700
-5.448300 3.967100
-5.432500 4.052500
-5.416800 4.137900
-5.401000 6.302300
-5.385200 7.675600
-5.369500 8.607900
-5.353700 9.466400
-5.337900 9.763600
-5.322100 8.793300
-5.306400 6.253700
-5.290600 3.415100
-5.274800 3.327600
-5.259100 3.240000
-5.243300 3.152500
-5.227500 3.053100
-5.211700 2.930000
-5.196000 2.783900
-5.180200 2.631300
-5.164400 2.478600
-5.148600 2.326000
-5.132900 2.173300
-5.117100 2.020700
-5.101300 1.868100
-5.085600 1.715400
-5.069800 1.562800
-5.054000 1.410100
-5.038200 1.257400
-5.022500 1.104800
-5.006700 0.952100
-4.990900 0.799500
-4.975100 0.646800
-4.959400 0.494100
-4.943600 0.341400
-4.927800 0.188800
-4.912100 0.054400
-4.896300 0.000200
-4.880500 0.000000
-4.864700 0.000000
-4.849000 0.000000
-4.833200 0.000000
-4.817400 0.000000
-4.801700 0.000000
-4.785900 0.000000
-4.770100 0.000000
-4.754300 0.000000
-4.738600 0.000000
-4.722800 0.000000
-4.707000 0.000000
-4.691200 0.000000
-4.675500 0.000000
-4.659700 0.000000
-4.643900 0.000000
-4.628200 0.000000
-4.612400 0.000000
-4.596600 0.000000
-4.580800 0.000000
-4.565100 0.004100
-4.549300 0.115200
-4.533500 0.293300
-4.517800 0.554400
-4.502000 0.914700
-4.486200 1.275900
-4.470400 1.638100
-4.454700 2.001200
-4.438900 2.365200
-4.423100 2.730100
-4.407300 3.096000
-4.391600 3.427600
-4.375800 3.564500
-4.360000 3.902900
-4.344300 4.361000
-4.328500 4.817600
-4.312700 6.615200
-4.296900 7.659600
-4.281200 7.866900
-4.265400 7.709300
-4.249600 7.552600
-4.233800 7.396800
-4.218100 7.242000
-4.202300 7.088200
-4.186500 6.935300
-4.170800 6.783300
-4.155000 6.614000
-4.139200 6.584200
-4.123400 6.390600
-4.107700 6.190800
-4.091900 5.958200
-4.076100 5.765200
-4.060400 5.626000
-4.044600 5.798600
-4.028800 6.642900
-4.013000 7.547200
-3.997300 7.112700
-3.981500 6.851600
-3.965700 6.602600
-3.949900 6.365600
-3.934200 6.099200
-3.918400 5.747200
-3.902600 5.496200
-3.886900 5.270900
-3.871100 4.760700
-3.855300 4.282400
-3.839500 3.825400
-3.823800 3.378900
-3.808000 2.950600
-3.792200 2.545900
-3.776400 2.192500
-3.760700 1.951500
-3.744900 1.710300
-3.729100 1.469000
-3.713400 1.227500
-3.697600 0.985800
-3.681800 0.743900
-3.666000 0.501800
-3.650300 0.270300
-3.634500 0.098400
-3.618700 0.000000
-3.603000 0.000000
-3.587200 0.000000
-3.571400 0.000000
-3.555600 0.000000
-3.539900 0.000000
-3.524100 0.000000
-3.508300 0.000000
-3.492500 0.000000
-3.476800 0.000000
-3.461000 0.000000
-3.445200 0.000000
-3.429500 0.000000
-3.413700 0.000000
-3.397900 0.000000
-3.382100 0.000000
-3.366400 0.000000
-3.350600 0.000000
-3.334800 0.000000
-3.319100 0.000000
-3.303300 0.000000
-3.287500 0.000000
-3.271700 0.000000
-3.256000 0.000000
-3.240200 0.000000
-3.224400 0.000000
-3.208600 0.000000
-3.192900 0.000000
-3.177100 0.000000
-3.161300 0.000000
-3.145600 0.000000
-3.129800 0.000000
-3.114000 0.000000
-3.098200 0.000000
-3.082500 0.000000
-3.066700 0.000000
-3.050900 0.000000
-3.035100 0.000000
-3.019400 0.503700
-3.003600 8.497700
-2.987800 28.286200
-2.972100 23.715300
-2.956300 22.313900
-2.940500 17.414700
-2.924700 12.734800
-2.909000 10.154800
-2.893200 9.771200
-2.877400 15.085200
-2.861700 16.220100
-2.845900 16.222000
-2.830100 18.877600
-2.814300 18.028800
-2.798600 13.586600
-2.782800 10.429000
-2.767000 7.880100
-2.751200 4.431200
-2.735500 1.136600
-2.719700 0.000000
-2.703900 0.000000
-2.688200 0.002100
-2.672400 0.183500
-2.656600 0.779400
-2.640800 1.452100
-2.625100 2.124300
-2.609300 2.795800
-2.593500 3.466700
-2.577700 4.137000
-2.562000 7.185200
-2.546200 18.531200
-2.530400 13.214300
-2.514700 6.472400
-2.498900 5.577800
-2.483100 5.008400
-2.467300 4.671100
-2.451600 4.450400
-2.435800 4.283300
-2.420000 4.169900
-2.404300 4.116700
-2.388500 6.827400
-2.372700 13.316300
-2.356900 16.388500
-2.341200 18.392100
-2.325400 19.577900
-2.309600 21.091000
-2.293800 21.754400
-2.278100 18.996100
-2.262300 14.627000
-2.246500 4.846800
-2.230800 2.242400
-2.215000 1.237700
-2.199200 0.541300
-2.183400 0.589000
-2.167700 0.871300
-2.151900 1.297700
-2.136100 1.780400
-2.120400 2.269600
-2.104600 2.971800
-2.088800 3.888200
-2.073000 4.767700
-2.057300 5.593400
-2.041500 6.742100
-2.025700 10.943600
-2.009900 11.954400
-1.994200 12.698800
-1.978400 24.070000
-1.962600 25.799400
-1.946900 18.835200
-1.931100 16.498100
-1.915300 14.335800
-1.899500 13.057600
-1.883800 12.562100
-1.868000 9.780400
-1.852200 7.367600
-1.836400 6.905100
-1.820700 6.444100
-1.804900 5.984600
-1.789100 5.526500
-1.773400 5.070000
-1.757600 4.615000
-1.741800 4.161000
-1.726000 3.466400
-1.710300 2.264000
-1.694500 1.201700
-1.678700 0.237300
-1.663000 0.000000
-1.647200 0.000000
-1.631400 0.000000
-1.615600 0.000000
-1.599900 0.000000
-1.584100 0.000000
-1.568300 0.000000
-1.552500 0.000000
-1.536800 0.000000
-1.521000 0.000000
-1.505200 0.000000
-1.489500 0.000000
-1.473700 0.000000
-1.457900 0.000000
-1.442100 0.000000
-1.426400 0.000000
-1.410600 0.000000
-1.394800 0.657700
-1.379000 1.683500
-1.363300 2.794500
-1.347500 3.445400
-1.331700 4.372300
-1.316000 5.381400
-1.300200 6.067800
-1.284400 5.498400
-1.268600 3.581600
-1.252900 3.787700
-1.237100 3.994700
-1.221300 4.202600
-1.205600 4.411200
-1.189800 4.620700
-1.174000 4.831000
-1.158200 5.042200
-1.142500 5.254100
-1.126700 6.411500
-1.110900 8.657200
-1.095100 9.667700
-1.079400 10.666000
-1.063600 12.617700
-1.047800 21.000000
-1.032100 19.273100
-1.016300 14.241600
-1.000500 12.808300
-0.984700 11.820200
-0.969000 11.028700
-0.953200 9.759200
-0.937400 8.798300
-0.921700 7.802500
-0.905900 5.078300
-0.890100 4.112800
-0.874300 3.437000
-0.858600 2.877200
-0.842800 2.364700
-0.827000 1.626200
-0.811200 1.504000
-0.795500 2.354700
-0.779700 3.264500
-0.763900 4.162200
-0.748200 5.081500
-0.732400 6.167400
-0.716600 7.328300
-0.700800 8.275500
-0.685100 9.126500
-0.669300 10.037500
-0.653500 11.008200
-0.637700 12.127200
-0.622000 12.841900
-0.606200 12.758500
-0.590400 12.760300
-0.574700 12.186700
-0.558900 11.632400
-0.543100 10.996700
-0.527300 12.754700
-0.511600 9.052600
-0.495800 8.884900
-0.480000 8.920000
-0.464300 8.990500
-0.448500 8.754800
-0.432700 8.185900
-0.416900 7.204700
-0.401200 11.027500
-0.385400 13.448000
-0.369600 15.656200
-0.353800 16.282400
-0.338100 16.632300
-0.322300 15.418100
-0.306500 13.962500
-0.290800 13.224900
-0.275000 13.676300
-0.259200 14.244800
-0.243400 14.114600
-0.227700 14.499000
-0.211900 12.849800
-0.196100 11.020800
-0.180400 10.285200
-0.164600 11.247800
-0.148800 12.279600
-0.133000 12.399400
-0.117300 9.732000
-0.101500 7.684700
-0.085700 6.001700
-0.069900 5.084800
-0.054200 4.722700
-0.038400 4.812600
-0.022600 6.015900
-0.006900 9.709100
0.008900 17.666200
0.024700 21.252800
0.040500 19.566600
0.056200 18.103500
0.072000 15.416100
0.087800 8.448100
0.103600 6.634300
0.119300 5.142300
0.135100 4.014500
0.150900 3.717000
0.166600 3.626600
0.182400 3.712600
0.198200 3.854300
0.214000 8.034800
0.229700 11.173000
0.245500 12.322100
0.261300 8.154100
0.277000 7.457300
0.292800 6.779300
0.308600 6.161400
0.324400 5.445800
0.340100 5.187600
0.355900 4.903000
0.371700 4.592000
0.387500 4.254700
0.403200 3.891000
0.419000 3.494700
0.434800 3.101500
0.450500 2.718800
0.466300 2.342400
0.482100 2.022100
0.497900 1.715800
0.513600 1.555300
0.529400 4.585600
0.545200 7.367200
0.561000 9.331000
0.576700 9.751900
0.592500 10.084600
0.608300 12.746100
0.624000 19.217200
0.639800 24.810300
0.655600 24.776300
0.671400 24.235000
0.687100 23.860200
0.702900 22.275000
0.718700 19.181400
0.734400 15.498500
0.750200 11.898400
0.766000 9.364000
0.781800 5.459600
0.797500 4.378200
0.813300 4.518700
0.829100 6.600900
0.844900 11.610800
0.860600 10.023500
0.876400 11.414800
0.892200 18.995400
0.907900 22.542400
0.923700 22.358900
0.939500 32.025600
0.955300 18.482000
0.971000 16.801000
0.986800 15.249000
1.002600 13.796800
1.018300 12.644700
1.034100 13.103600
1.049900 14.678300
1.065700 14.479400
1.081400 13.741500
1.097200 11.944300
1.113000 13.124300
1.128800 15.417800
1.144500 17.668300
1.160300 22.297800
1.176100 23.366900
1.191800 23.379500
1.207600 21.866900
1.223400 20.684600
1.239200 19.250000
1.254900 16.984500
1.270700 12.132900
1.286500 11.701900
1.302300 8.837600
1.318000 0.000000
1.333800 0.000000
1.349600 0.000000
1.365300 0.000000
1.381100 0.000000
1.396900 0.000000
1.412700 0.000000
1.428400 0.000000
1.444200 0.000000
1.460000 0.000000
1.475700 0.000000
1.491500 0.000000
1.507300 0.000000
1.523100 0.000000
1.538800 0.000000
1.554600 0.000000
1.570400 0.000000
1.586200 0.000000
1.601900 0.000000
1.617700 0.000000
1.633500 0.000000
1.649200 0.000000
1.665000 0.000000
1.680800 0.000000
1.696600 0.000000
1.712300 0.000000
1.728100 0.000000
1.743900 0.000000
1.759700 0.000000
1.775400 0.000000
1.791200 0.000000
1.807000 0.000000
1.822700 0.000000
1.838500 0.000000
1.854300 0.000000
1.870100 0.000000
1.885800 0.000000
1.901600 0.000000
1.917400 0.000000
1.933100 0.000000
1.948900 0.000000
1.964700 0.000000
1.980500 0.000000
1.996200 0.000000
2.012000 0.000000
2.027800 0.000000
2.043600 0.000000
2.059300 0.000000
2.075100 0.000000
2.090900 0.000000
2.106600 0.000000
2.122400 0.000000
2.138200 0.000000
2.154000 0.000000
2.169700 0.000000
2.185500 0.000000
2.201300 0.000000
2.217000 0.000000
2.232800 0.000000
2.248600 0.000000
2.264400 0.000000
2.280100 0.000000
2.295900 0.000000
2.311700 0.000000
2.327500 0.000000
2.343200 0.000000
2.359000 0.000000
2.374800 0.000000
2.390500 0.000000
2.406300 0.000000
2.422100 0.000000
2.437900 0.000000
2.453600 0.000000
2.469400 0.000000
2.485200 0.000000
2.501000 0.000000
2.516700 0.000000
2.532500 0.000000
2.548300 0.000000
2.564000 0.000000
2.579800 0.000000
2.595600 0.000000
2.611400 0.000000
2.627100 0.000000
2.642900 0.000000
2.658700 0.000000
2.674400 0.000000
2.690200 0.000000
2.706000 0.000000
2.721800 0.000000
2.737500 0.000000
2.753300 0.000000
2.769100 0.000000
2.784900 0.000000
2.800600 0.000000
2.816400 0.000000
2.832200 0.000000
2.847900 0.000000
2.863700 0.000000
2.879500 0.000000
2.895300 0.000000
2.911000 0.000000
2.926800 0.000000
2.942600 0.000000
2.958400 0.000000
2.974100 0.000000
2.989900 0.000000
3.005700 0.000000
3.021400 0.000000
3.037200 0.000000
3.053000 0.000000
3.068800 0.000000
3.084500 0.000000
3.100300 0.000000
3.116100 0.000000
3.131800 0.000000
3.147600 0.000000
3.163400 0.000000
3.179200 0.000000
3.194900 0.000000
3.210700 0.000000
3.226500 0.000000
3.242300 0.000000
3.258000 0.000000
3.273800 0.000000
3.289600 0.000000
3.305300 0.000000
3.321100 0.000000
3.336900 0.000000
3.352700 0.000000
3.368400 0.000000
3.384200 0.000000
3.400000 0.000000
3.415700 0.000000
3.431500 0.000000
3.447300 0.000000
3.463100 0.000000
3.478800 0.000000
3.494600 0.000000
3.510400 0.000000
3.526200 0.000000
3.541900 0.000000
3.557700 0.000000
3.573500 0.000000
3.589200 0.000000
3.605000 0.000000
3.620800 0.000000
3.636600 0.000000
3.652300 0.000000
3.668100 0.000000
3.683900 0.000000
3.699700 0.000000
3.715400 0.000000
3.731200 0.000000
3.747000 0.000000
3.762700 0.000000
3.778500 0.000000
3.794300 0.000000
3.810100 0.000000
3.825800 0.000000
3.841600 0.000000
3.857400 0.000000
3.873100 0.000000
3.888900 0.000000
3.904700 0.000000
3.920500 0.000000
3.936200 0.000000
3.952000 0.000000
3.967800 0.000000
3.983600 0.000000
3.999300 0.000000
4.015100 0.000000
4.030900 0.000000
4.046600 0.000000
4.062400 0.000000
4.078200 0.000000
4.094000 0.000000
4.109700 0.000000
4.125500 0.000000
4.141300 0.000000
4.157100 0.000000
4.172800 0.000000
4.188600 0.000000
4.204400 0.000000
4.220100 0.000000
4.235900 0.000000
4.251700 0.000000
4.267500 0.000000
4.283200 0.000000
4.299000 0.000000
4.314800 0.000000
4.330500 0.000000
4.346300 0.000000
4.362100 0.000000
4.377900 0.000000
4.393600 0.000000
4.409400 0.000000
4.425200 0.000000
4.441000 0.000000
4.456700 0.000000
4.472500 0.000000
4.488300 0.000000
4.504000 0.000000
4.519800 0.000000
4.535600 0.000000
4.551400 0.000000
4.567100 0.000000
4.582900 0.000000
4.598700 0.000000
4.614400 0.000000
4.630200 0.000000
4.646000 0.000000
4.661800 0.000000
4.677500 0.000000
4.693300 0.000000
4.709100 0.023400
4.724900 0.106600
4.740600 0.250100
4.756400 0.468000
4.772200 0.778200
4.787900 1.194100
4.803700 1.773900
4.819500 2.496300
4.835300 3.080700
4.851000 3.674900
4.866800 4.216900
4.882600 4.714000
4.898400 5.196500
4.914100 5.668000
4.929900 6.128300
4.945700 6.577600
4.961400 7.015900
4.977200 8.398800
4.993000 9.863300
5.008800 11.114800
5.024500 11.962400
5.040300 11.608400
5.056100 11.028500
5.071800 10.728800
5.087600 10.557800
5.103400 11.268800
5.119200 11.040300
5.134900 10.478300
5.150700 9.933900
5.166500 5.432500
5.182300 5.908700
5.198000 6.012200
5.213800 6.144200
5.229600 6.304900
5.245300 6.499300
5.261100 6.737900
5.276900 7.021100
5.292700 7.348700
5.308400 7.753900
5.324200 8.242900
5.340000 8.691700
5.355800 10.788100
5.371500 12.560600
5.387300 12.186000
5.403100 12.023400
5.418800 12.005500
5.434600 11.865500
5.450400 11.549600
5.466200 11.143900
5.481900 11.174800
5.497700 11.522500
5.513500 11.143000
5.529200 10.757800
5.545000 10.402800
5.560800 10.100200
5.576600 9.208900
5.592300 8.363200
5.608100 7.709800
5.623900 7.390300
5.639700 7.149800
5.655400 7.022900
5.671200 6.932600
5.687000 7.310400
5.702700 7.409000
5.718500 7.364400
5.734300 6.750900
5.750100 3.590900
5.765800 0.701500
5.781600 0.757400
5.797400 1.450800
5.813100 4.525500
5.828900 11.117600
5.844700 9.228200
5.860500 8.011100
5.876200 9.177800
5.892000 10.212300
5.907800 10.542700
5.923600 10.601500
5.939300 10.418200
5.955100 10.002400
5.970900 8.176000
5.986600 7.296300
6.002400 6.535100
6.018200 5.830100
6.034000 5.293300
6.049700 4.819200
6.065500 4.389600
6.081300 3.970200
6.097100 3.590200
6.112800 3.317800
6.128600 3.118100
6.144400 2.991100
6.160100 2.922700
6.175900 2.884300
6.191700 2.875000
6.207500 2.887300
6.223200 2.901200
6.239000 2.984700
6.254800 3.376800
6.270500 4.051700
6.286300 4.321400
6.302100 4.524800
6.317900 4.753600
6.333600 5.478900
6.349400 6.199000
6.365200 6.179500
6.381000 6.553000
6.396700 8.800600
6.412500 9.882300
6.428300 11.008600
6.444000 11.842300
6.459800 12.069800
6.475600 11.694200
6.491400 9.971700
6.507100 8.669500
6.522900 9.553500
6.538700 10.583900
6.554400 11.402100
6.570200 11.881900
6.586000 12.259100
6.601800 11.986400
6.617500 11.334700
6.633300 10.894200
6.649100 10.570500
6.664900 10.921800
6.680600 11.218700
6.696400 11.007600
6.712200 10.525200
6.727900 10.045300
6.743700 9.567800
6.759500 9.045300
6.775300 8.498200
6.791000 7.830100
6.806800 7.068100
6.822600 6.641300
6.838400 5.788300
6.854100 4.603800
6.869900 4.540900
6.885700 6.826000
6.901400 9.701000
6.917200 11.491900
6.933000 12.151800
6.948800 12.912800
6.964500 13.354100
6.980300 14.194400
6.996100 14.325200
7.011800 11.746100
7.027600 11.934200
7.043400 11.910000
7.059200 11.661300
7.074900 11.187900
7.090700 7.954600
7.106500 8.542100
7.122300 8.666500
7.138000 8.843100
7.153800 8.699700
7.169600 8.241600
7.185300 7.617300
7.201100 6.761100
7.216900 6.132500
7.232700 5.731400
7.248400 5.492100
7.264200 5.339800
7.280000 5.228200
7.295800 6.055900
7.311500 6.252600
7.327300 6.717600
7.343100 7.554700
7.358800 8.341400
7.374600 9.360200
7.390400 10.111400
7.406200 10.883400
7.421900 11.579700
7.437700 12.941400
7.453500 13.994900
7.469200 14.661400
7.485000 14.840600
7.500800 15.403600
7.516600 15.523400
7.532300 13.450700
7.548100 11.942700
7.563900 10.357000
7.579700 9.559900
7.595400 9.619200
7.611200 9.499300
7.627000 9.200300
7.642700 4.858600
7.658500 1.188600
7.674300 0.000000
7.690100 0.000000
7.705800 0.000000
7.721600 1.228000
7.737400 2.461400
7.753100 3.411800
7.768900 4.632800
7.784700 5.942800
7.800500 7.219100
7.816200 13.658100
7.832000 7.611600
7.847800 8.129400
7.863600 8.682900
7.879300 9.273800
7.895100 9.873200
7.910900 10.397200
7.926600 10.870000
7.942400 11.210600
7.958200 11.248200
7.974000 11.399500
7.989700 12.508400
8.005500 13.126900
8.021300 12.631300
8.037100 12.810500
8.052800 12.397600
8.068600 9.616300
8.084400 8.371500
8.100100 7.635900
8.115900 6.949200
8.131700 6.291500
8.147500 5.782300
8.163200 5.368800
8.179000 4.851300
8.194800 2.743400
8.210500 2.447800
8.226300 2.275300
8.242100 2.219500
8.257900 2.280200
8.273600 2.780500
8.289400 3.572800
8.305200 4.379400
8.321000 5.200600
8.336700 7.215700
8.352500 7.145600
8.368300 7.374700
8.384000 8.590300
8.399800 10.083100
8.415600 11.196100
8.431400 12.146900
8.447100 13.013900
8.462900 13.922600
8.478700 14.880800
8.494500 16.229100
8.510200 19.983300
8.526000 10.891800
8.541800 8.153500
8.557500 8.386600
8.573300 8.544900
8.589100 8.216500
8.604900 7.763700
8.620600 6.269100
8.636400 5.292500
8.652200 4.601100
8.667900 3.956700
8.683700 3.359500
8.699500 2.809400
8.715300 2.306400
8.731000 1.850600
8.746800 1.504000
8.762600 1.320900
8.778400 1.292800
8.794100 1.418800
8.809900 1.699300
8.825700 2.699300
8.841400 3.976500
8.857200 5.089400
8.873000 6.262500
8.888800 7.364100
8.904500 8.235300
8.920300 9.106600
8.936100 9.978100
8.951800 10.741000
8.967600 11.100700
8.983400 11.227400
8.999200 11.201400
9.014900 10.386600
9.030700 9.923100
9.046500 10.150100
9.062300 10.719000
9.078000 11.110300
9.093800 12.003100
9.109600 13.615100
9.125300 9.879800
9.141100 8.915900
9.156900 8.073000
9.172700 7.326900
9.188400 6.760300
9.204200 6.438600
9.220000 6.128400
9.235800 5.801500
9.251500 5.759800
9.267300 5.552400
9.283100 5.367600
9.298800 5.200300
9.314600 5.184100
9.330400 5.319100
9.346200 5.470600
9.361900 5.638600
9.377700 5.823200
9.393500 6.024200
9.409200 6.274800
9.425000 7.144800
9.440800 7.836100
9.456600 8.435100
9.472300 9.069000
9.488100 9.745500
9.503900 10.949500
9.519700 11.430400
9.535400 11.661400
9.551200 11.820700
9.567000 11.888400
9.582700 11.489800
9.598500 10.909900
9.614300 9.809400
9.630100 6.877600
9.645800 6.825000
9.661600 6.787500
9.677400 8.053000
9.693200 8.532900
9.708900 9.061600
9.724700 9.641800
9.740500 9.439600
9.756200 9.060400
9.772000 8.505500
9.787800 7.972000
9.803600 7.524300
9.819300 7.514100
9.835100 7.853900
9.850900 8.187500
9.866600 8.904900
9.882400 10.043000
9.898200 11.542900
9.914000 13.351300
9.929700 15.039000
9.945500 15.047800
9.961300 13.207400
9.977100 12.183000
9.992800 12.260200
10.008600 12.373000
10.024400 12.387400
10.040100 10.831200
10.055900 8.647600
10.071700 7.602400
10.087500 7.496500
10.103200 7.786400
10.119000 7.771900
10.134800 7.760800
10.150500 7.460200
10.166300 7.102300
10.182100 6.965600
10.197900 6.995300
10.213600 7.066000
10.229400 7.073300
10.245200 6.976700
10.261000 7.019700
10.276700 7.101600
10.292500 7.217200
10.308300 7.372100
10.324000 7.528900
10.339800 7.860300
10.355600 8.239600
10.371400 8.666800
10.387100 8.958300
10.402900 9.236200
10.418700 9.519400
10.434500 10.741600
10.450200 11.348700
10.466000 12.019300
10.481800 12.585300
10.497500 13.251400
10.513300 13.725300
10.529100 13.814000
10.544900 13.217400
10.560600 12.652400
10.576400 12.510500
10.592200 11.256700
10.607900 10.388000
10.623700 9.786700
10.639500 9.960800
10.655300 10.420600
10.671000 10.843100
10.686800 10.834900
10.702600 10.693800
10.718400 10.095800
10.734100 10.009500
10.749900 9.959000
10.765700 9.984400
10.781400 10.037700
10.797200 10.095600
10.813000 10.146500
10.828800 10.148000
10.844500 10.024700
10.860300 9.881300
10.876100 9.759600
10.891900 9.602600
10.907600 9.468100
10.923400 9.409400
10.939200 10.097000
10.954900 10.193600
10.970700 10.177700
10.986500 9.980500
11.002300 9.664400
11.018000 9.618100
11.033800 9.465400
11.049600 9.556000
11.065300 9.247200
11.081100 9.178100
11.096900 9.450800
11.112700 9.971300
11.128400 10.372100
11.144200 10.876600
11.160000 11.102000
11.175800 11.262000
11.191500 11.332500
11.207300 11.240400
11.223100 10.953400
11.238800 10.734500
11.254600 10.839300
11.270400 11.230600
11.286200 10.694400
11.301900 10.021700
11.317700 9.207200
11.333500 8.428000
11.349200 7.548800
11.365000 6.916800
11.380800 6.400400
11.396600 5.811400
11.412300 5.293100
11.428100 4.845400
11.443900 4.715000
11.459700 4.868000
11.475400 5.142700
11.491200 5.489800
11.507000 5.917700
11.522700 6.681200
11.538500 7.920600
11.554300 9.115500
11.570100 9.021100
11.585800 9.269900
11.601600 9.222200
11.617400 8.928900
11.633200 8.601100
11.648900 8.319900
11.664700 9.734800
11.680500 10.843900
11.696200 11.977300
11.712000 11.341100
11.727800 9.695600
11.743600 9.468600
11.759300 9.184900
11.775100 8.853200
11.790900 8.740700
11.806600 8.697900
11.822400 8.623900
11.838200 8.433500
11.854000 8.133300
11.869700 6.260200
11.885500 6.334000
11.901300 7.113700
11.917100 8.123100
11.932800 8.833000
11.948600 9.755200
11.964400 10.102400
11.980100 9.851000
11.995900 9.512100
12.011700 9.136200
12.027500 9.121500
12.043200 9.176800
12.059000 9.137100
12.074800 8.113500
12.090600 7.718600
12.106300 8.156900
12.122100 7.983400
12.137900 7.764700
12.153600 7.674000
12.169400 7.682200
12.185200 7.685800
12.201000 8.011500
12.216700 8.922900
12.232500 17.239600
12.248300 8.857900
12.264000 8.847500
12.279800 8.598500
12.295600 7.824300
12.311400 7.417600
12.327100 6.990800
12.342900 6.543800
12.358700 6.184800
12.374500 6.178400
12.390200 6.307800
12.406000 6.849300
12.421800 7.472100
12.437500 7.610500
12.453300 7.427700
12.469100 7.398100
12.484900 7.580300
12.500600 8.222900
12.516400 8.148800
12.532200 8.277100
12.547900 8.677200
12.563700 9.038900
12.579500 9.218300
12.595300 9.372300
12.611000 10.923000
12.626800 12.880300
12.642600 14.796500
12.658400 16.133200
12.674100 14.796800
12.689900 13.804100
12.705700 12.669200
12.721400 11.388300
12.737200 10.013000
12.753000 8.438800
12.768800 7.167100
12.784500 6.573600
12.800300 6.390800
12.816100 6.477900
12.831900 6.733000
12.847600 6.827400
12.863400 6.631100
12.879200 6.507700
12.894900 6.395800
12.910700 6.416000
12.926500 6.526400
12.942300 6.620100
12.958000 6.627000
12.973800 6.009000
12.989600 5.143500
13.005300 5.185600
13.021100 5.941000
13.036900 6.567500
13.052700 7.031200
13.068400 7.448200
13.084200 7.856400
13.100000 8.255600
13.115800 9.769100
13.131500 12.332900
13.147300 12.881100
13.163100 8.965900
13.178800 8.385900
13.194600 7.974100
13.210400 7.677000
13.226200 7.615000
13.241900 9.049700
13.257700 9.330000
13.273500 9.539800
13.289200 9.103600
13.305000 8.642100
13.320800 9.329800
13.336600 9.476400
13.352300 9.145100
13.368100 8.941200
13.383900 9.014000
13.399700 9.192200
13.415400 9.356000
13.431200 9.772100
13.447000 11.811500
13.462700 12.991000
13.478500 12.272000
13.494300 12.532400
13.510100 11.715200
13.525800 9.654400
13.541600 8.427700
13.557400 7.514700
13.573200 8.052800
13.588900 8.085800
13.604700 8.112600
13.620500 8.233200
13.636200 8.570100
13.652000 8.837900
13.667800 8.918300
13.683600 8.849000
13.699300 8.821000
13.715100 8.868400
13.730900 8.873000
13.746600 8.753100
13.762400 8.543600
13.778200 8.236600
13.794000 7.802400
13.809700 6.994000
13.825500 6.603700
13.841300 7.045000
13.857100 7.493800
13.872800 6.999100
13.888600 6.570500
13.904400 6.563500
13.920100 6.589400
13.935900 6.658000
13.951700 6.769600
13.967500 6.866400
13.983200 6.847400
13.999000 6.786500
14.014800 6.631200
14.030600 6.358200
14.046300 6.252500
14.062100 6.160200
14.077900 6.071800
14.093600 5.989500
14.109400 5.970100
14.125200 6.024000
14.141000 6.140000
14.156700 6.313700
14.172500 6.551200
14.188300 6.864700
14.204000 8.114300
14.219800 9.013500
14.235600 9.648400
14.251400 10.213700
14.267100 10.694900
14.282900 11.138100
14.298700 11.370400
14.314500 11.469000
14.330200 11.519200
14.346000 11.462800
14.361800 11.951400
14.377500 11.166400
14.393300 10.312500
14.409100 9.781100
14.424900 9.450900
14.440600 9.206900
14.456400 9.090900
14.472200 8.979400
14.487900 8.904700
14.503700 8.809700
14.519500 8.716800
14.535300 8.643300
14.551000 8.598600
14.566800 8.210100
14.582600 7.503400
14.598400 6.961800
14.614100 7.003300
14.629900 7.122800
14.645700 7.143200
14.661400 7.414900
14.677200 7.718300
14.693000 8.197000
14.708800 9.289100
14.724500 10.612500
14.740300 12.033400
14.756100 13.285600
14.771900 14.177500
14.787600 14.594700
14.803400 12.745700
14.819200 12.067300
14.834900 11.833300
14.850700 9.560400
14.866500 8.558400
14.882300 8.199300
14.898000 8.236400
14.913800 8.733700
14.929600 9.527700
14.945300 10.285700
14.961100 11.188400
14.976900 12.521000
14.992700 17.468700
15.008400 11.331100
15.024200 10.131900
15.040000 9.125800
15.055800 8.649800
15.071500 8.498400
15.087300 8.443500
15.103100 8.463600
15.118800 8.453300
15.134600 8.531200
15.150400 9.135200
15.166200 10.073100
15.181900 10.592600
15.197700 10.847300
15.213500 10.857900
15.229300 11.158900
15.245000 11.582300
15.260800 11.905200
15.276600 12.127400
15.292300 12.265600
15.308100 12.556500
15.323900 13.508300
15.339700 15.499200
15.355400 11.757300
15.371200 10.676600
15.387000 10.618500
15.402700 10.244400
15.418500 9.897000
15.434300 9.723600
15.450100 10.212200
15.465800 11.359400
15.481600 11.665700
15.497400 11.014500
15.513200 10.344400
15.528900 9.589600
15.544700 9.411300
15.560500 9.219000
15.576200 9.467500
15.592000 11.173900
15.607800 8.536100
15.623600 8.285400
15.639300 7.990100
15.655100 8.262800
15.670900 9.250000
15.686600 9.920300
15.702400 10.067000
15.718200 9.644700
15.734000 9.168700
15.749700 8.642500
15.765500 8.071700
15.781300 7.456400
15.797100 6.427300
15.812800 5.754700
15.828600 5.316800
15.844400 4.959800
15.860100 4.730900
15.875900 3.727800
15.891700 3.966800
15.907500 4.167500
15.923200 4.159700
15.939000 3.685200
15.954800 3.033100
15.970600 2.245000
15.986300 1.176400
16.002100 0.025100
16.017900 0.000000
16.033600 0.000000
16.049400 0.000000
16.065200 0.000000
16.081000 0.000000
16.096700 0.000000
16.112500 0.000000
16.128300 0.000000
16.144000 0.000000
16.159800 0.000000
16.175600 0.000000
16.191400 0.000000
16.207100 0.000000
16.222900 0.000000
16.238700 0.000000
16.254500 0.000000
16.270200 0.000000
16.286000 0.000000
16.301800 0.000000
16.317500 0.000000
16.333300 0.000000
16.349100 0.000000
16.364900 0.000000
16.380600 0.000000
16.396400 0.000000
16.412200 0.000000
16.428000 0.000000
16.443700 0.000000
16.459500 0.000000
16.475300 0.000000
16.491000 0.000000
16.506800 0.000000
16.522600 0.000000
16.538400 0.000000
16.554100 0.000000
16.569900 0.000000
16.585700 0.000000
16.601400 0.000000
16.617200 0.000000
16.633000 0.000000
16.648800 0.000000
16.664500 0.000000
16.680300 0.000000
16.696100 0.000000
16.711900 0.000000
16.727600 0.000000
16.743400 0.000000
16.759200 0.000000
16.774900 0.000000
16.790700 0.000000
16.806500 0.000000
16.822300 0.000000
16.838000 0.000000
16.853800 0.000000
16.869600 0.000000
16.885300 0.000000
16.901100 0.000000
16.916900 0.000000
16.932700 0.000000
16.948400 0.000000
16.964200 0.000000
16.980000 0.000000
16.995800 0.000000
17.011500 0.000000
17.027300 0.000000
17.043100 0.000000
17.058800 0.000000
17.074600 0.000000
17.090400 0.000000
17.106200 0.000000
17.121900 0.000000
17.137700 0.000000
17.153500 0.000000
17.169300 0.000000
17.185000 0.000000
17.200800 0.000000
17.216600 0.000000
17.232300 0.000000
17.248100 0.000000
17.263900 0.000000
17.279700 0.000000
17.295400 0.000000
17.311200 0.000000
17.327000 0.000000
17.342700 0.000000
17.358500 0.000000
17.374300 0.000000
17.390100 0.000000
17.405800 0.000000
17.421600 0.000000
17.437400 0.000000
e
