set title 'mp-18937 - Density of States'
set xlabel 'Energy (eV)'
set ylabel 'DOS (states/eV)'
set grid
set xrange [-10:10]
set yrange [0:30.529]
set xzeroaxis lt -1
set terminal png size 800,600
set output 'mp-18937_dos_gnuplot.png'
plot '-' using 1:2 with lines title 'DOS'
-38.345600 0.000000
-38.301900 0.000000
-38.258200 0.000000
-38.214500 0.000000
-38.170800 0.000000
-38.127100 0.000000
-38.083400 0.000000
-38.039700 0.000000
-37.996000 0.000000
-37.952300 0.000000
-37.908600 0.000000
-37.864900 0.000000
-37.821200 0.000000
-37.777500 0.000000
-37.733800 0.000000
-37.690100 0.000000
-37.646400 0.000000
-37.602700 0.000000
-37.558900 0.000000
-37.515200 0.000000
-37.471500 0.000000
-37.427800 0.000000
-37.384100 0.000000
-37.340400 0.000000
-37.296700 0.000000
-37.253000 0.000000
-37.209300 0.000000
-37.165600 0.000000
-37.121900 0.000000
-37.078200 0.000000
-37.034500 0.000000
-36.990800 0.000000
-36.947100 0.000000
-36.903400 0.000000
-36.859700 0.000000
-36.816000 0.000000
-36.772300 0.000000
-36.728500 0.000000
-36.684800 0.000000
-36.641100 0.000000
-36.597400 0.000000
-36.553700 0.000000
-36.510000 0.000000
-36.466300 0.000000
-36.422600 0.000000
-36.378900 0.000000
-36.335200 0.000000
-36.291500 0.000000
-36.247800 0.000000
-36.204100 0.000000
-36.160400 0.000000
-36.116700 0.000000
-36.073000 0.000000
-36.029300 0.000000
-35.985600 0.000000
-35.941800 0.000000
-35.898100 0.000000
-35.854400 0.000000
-35.810700 0.000000
-35.767000 0.000000
-35.723300 0.000000
-35.679600 0.000000
-35.635900 0.000000
-35.592200 0.000000
-35.548500 0.000000
-35.504800 0.000000
-35.461100 0.000000
-35.417400 0.000000
-35.373700 0.000000
-35.330000 0.000000
-35.286300 0.000000
-35.242600 0.000000
-35.198900 0.000000
-35.155100 0.000000
-35.111400 0.000000
-35.067700 0.000000
-35.024000 0.000000
-34.980300 0.000000
-34.936600 0.000000
-34.892900 0.000000
-34.849200 0.000000
-34.805500 0.000000
-34.761800 0.000000
-34.718100 0.000000
-34.674400 0.000000
-34.630700 0.000000
-34.587000 0.000000
-34.543300 0.000000
-34.499600 0.000000
-34.455900 0.000000
-34.412200 0.000000
-34.368500 15.425400
-34.324700 109.050300
-34.281000 0.000000
-34.237300 0.000000
-34.193600 476.945100
-34.149900 79.039300
-34.106200 78.795700
-34.062500 40.600000
-34.018800 87.794700
-33.975100 0.000000
-33.931400 0.000000
-33.887700 0.000000
-33.844000 0.000000
-33.800300 0.000000
-33.756600 0.000000
-33.712900 0.000000
-33.669200 0.000000
-33.625500 0.000000
-33.581800 0.000000
-33.538000 0.000000
-33.494300 0.000000
-33.450600 0.000000
-33.406900 0.000000
-33.363200 0.000000
-33.319500 0.000000
-33.275800 0.000000
-33.232100 0.000000
-33.188400 0.000000
-33.144700 0.000000
-33.101000 0.000000
-33.057300 0.000000
-33.013600 0.000000
-32.969900 0.000000
-32.926200 0.000000
-32.882500 0.000000
-32.838800 0.000000
-32.795100 0.000000
-32.751400 0.000000
-32.707600 0.000000
-32.663900 0.000000
-32.620200 0.000000
-32.576500 0.000000
-32.532800 0.000000
-32.489100 0.000000
-32.445400 0.000000
-32.401700 0.000000
-32.358000 0.000000
-32.314300 0.000000
-32.270600 0.000000
-32.226900 0.000000
-32.183200 0.000000
-32.139500 0.000000
-32.095800 0.000000
-32.052100 0.000000
-32.008400 0.000000
-31.964700 0.000000
-31.920900 0.000000
-31.877200 0.000000
-31.833500 0.000000
-31.789800 0.000000
-31.746100 0.000000
-31.702400 0.000000
-31.658700 0.000000
-31.615000 0.000000
-31.571300 0.000000
-31.527600 0.000000
-31.483900 0.000000
-31.440200 0.000000
-31.396500 0.000000
-31.352800 0.000000
-31.309100 0.000000
-31.265400 0.000000
-31.221700 0.000000
-31.178000 0.000000
-31.134200 0.000000
-31.090500 0.000000
-31.046800 0.000000
-31.003100 0.000000
-30.959400 0.000000
-30.915700 0.000000
-30.872000 0.000000
-30.828300 0.000000
-30.784600 0.000000
-30.740900 0.000000
-30.697200 0.000000
-30.653500 0.000000
-30.609800 0.000000
-30.566100 0.000000
-30.522400 0.000000
-30.478700 0.000000
-30.435000 0.000000
-30.391300 0.000000
-30.347600 0.000000
-30.303800 0.000000
-30.260100 0.000000
-30.216400 0.000000
-30.172700 0.000000
-30.129000 0.000000
-30.085300 0.000000
-30.041600 0.000000
-29.997900 0.000000
-29.954200 0.000000
-29.910500 0.000000
-29.866800 0.000000
-29.823100 0.000000
-29.779400 0.000000
-29.735700 0.000000
-29.692000 0.000000
-29.648300 0.000000
-29.604600 0.000000
-29.560900 0.000000
-29.517100 0.000000
-29.473400 0.000000
-29.429700 0.000000
-29.386000 0.000000
-29.342300 0.000000
-29.298600 0.000000
-29.254900 0.000000
-29.211200 0.000000
-29.167500 0.000000
-29.123800 0.000000
-29.080100 0.000000
-29.036400 0.000000
-28.992700 0.000000
-28.949000 0.000000
-28.905300 0.000000
-28.861600 0.000000
-28.817900 0.000000
-28.774200 0.000000
-28.730400 0.000000
-28.686700 0.000000
-28.643000 0.000000
-28.599300 0.000000
-28.555600 0.000000
-28.511900 0.000000
-28.468200 0.000000
-28.424500 0.000000
-28.380800 0.000000
-28.337100 0.000000
-28.293400 0.000000
-28.249700 0.000000
-28.206000 0.000000
-28.162300 0.000000
-28.118600 0.000000
-28.074900 0.000000
-28.031200 0.000000
-27.987500 0.000000
-27.943800 0.000000
-27.900000 0.000000
-27.856300 0.000000
-27.812600 0.000000
-27.768900 0.000000
-27.725200 0.000000
-27.681500 0.000000
-27.637800 0.000000
-27.594100 0.000000
-27.550400 0.000000
-27.506700 0.000000
-27.463000 0.000000
-27.419300 0.000000
-27.375600 0.000000
-27.331900 0.000000
-27.288200 0.000000
-27.244500 0.000000
-27.200800 0.000000
-27.157100 0.000000
-27.113300 0.000000
-27.069600 0.000000
-27.025900 0.000000
-26.982200 0.000000
-26.938500 0.000000
-26.894800 0.000000
-26.851100 0.000000
-26.807400 0.000000
-26.763700 0.000000
-26.720000 0.000000
-26.676300 0.000000
-26.632600 0.000000
-26.588900 0.000000
-26.545200 0.000000
-26.501500 0.000000
-26.457800 0.000000
-26.414100 0.000000
-26.370400 0.000000
-26.326600 0.000000
-26.282900 0.000000
-26.239200 0.000000
-26.195500 0.000000
-26.151800 0.000000
-26.108100 0.000000
-26.064400 0.000000
-26.020700 0.000000
-25.977000 0.000000
-25.933300 0.000000
-25.889600 0.000000
-25.845900 0.000000
-25.802200 0.000000
-25.758500 0.000000
-25.714800 0.000000
-25.671100 0.000000
-25.627400 0.000000
-25.583700 0.000000
-25.540000 0.000000
-25.496200 0.000000
-25.452500 0.000000
-25.408800 0.000000
-25.365100 0.000000
-25.321400 0.000000
-25.277700 0.000000
-25.234000 0.000000
-25.190300 0.000000
-25.146600 0.000000
-25.102900 0.000000
-25.059200 0.000000
-25.015500 0.000000
-24.971800 0.000000
-24.928100 0.000000
-24.884400 0.000000
-24.840700 0.000000
-24.797000 0.000000
-24.753300 0.000000
-24.709500 0.000000
-24.665800 0.000000
-24.622100 0.000000
-24.578400 0.000000
-24.534700 0.000000
-24.491000 0.000000
-24.447300 0.000000
-24.403600 0.000000
-24.359900 0.000000
-24.316200 0.000000
-24.272500 0.000000
-24.228800 0.000000
-24.185100 0.000000
-24.141400 0.000000
-24.097700 0.000000
-24.054000 0.000000
-24.010300 0.000000
-23.966600 0.000000
-23.922800 0.000000
-23.879100 0.000000
-23.835400 0.000000
-23.791700 0.000000
-23.748000 0.000000
-23.704300 0.000000
-23.660600 0.000000
-23.616900 0.000000
-23.573200 0.000000
-23.529500 0.000000
-23.485800 0.000000
-23.442100 0.000000
-23.398400 0.000000
-23.354700 0.000000
-23.311000 0.000000
-23.267300 0.000000
-23.223600 0.000000
-23.179900 0.000000
-23.136200 0.000000
-23.092400 0.000000
-23.048700 0.000000
-23.005000 0.000000
-22.961300 0.000000
-22.917600 0.000000
-22.873900 0.000000
-22.830200 0.000000
-22.786500 0.000000
-22.742800 0.000000
-22.699100 0.000000
-22.655400 0.000000
-22.611700 0.000000
-22.568000 0.000000
-22.524300 0.000000
-22.480600 0.000000
-22.436900 0.000000
-22.393200 0.000000
-22.349500 0.000000
-22.305700 0.000000
-22.262000 0.000000
-22.218300 0.000000
-22.174600 0.000000
-22.130900 0.000000
-22.087200 0.000000
-22.043500 0.000000
-21.999800 0.000000
-21.956100 0.000000
-21.912400 0.000000
-21.868700 0.000000
-21.825000 0.000000
-21.781300 0.000000
-21.737600 0.000000
-21.693900 0.000000
-21.650200 0.000000
-21.606500 0.000000
-21.562800 0.000000
-21.519000 0.000000
-21.475300 0.000000
-21.431600 0.000000
-21.387900 0.000000
-21.344200 0.000000
-21.300500 0.000000
-21.256800 0.000000
-21.213100 0.000000
-21.169400 0.000000
-21.125700 0.000000
-21.082000 0.000000
-21.038300 0.000000
-20.994600 0.000000
-20.950900 0.000000
-20.907200 0.000000
-20.863500 0.000000
-20.819800 0.000000
-20.776100 0.000000
-20.732400 0.000000
-20.688600 0.000000
-20.644900 0.000000
-20.601200 0.000000
-20.557500 0.000000
-20.513800 0.000000
-20.470100 0.000000
-20.426400 0.000000
-20.382700 0.000000
-20.339000 0.000000
-20.295300 0.000000
-20.251600 0.000000
-20.207900 0.000000
-20.164200 0.000000
-20.120500 0.000000
-20.076800 0.000000
-20.033100 0.000000
-19.989400 0.000000
-19.945700 0.000000
-19.901900 0.000000
-19.858200 0.000000
-19.814500 0.000000
-19.770800 0.000000
-19.727100 0.000000
-19.683400 0.000000
-19.639700 0.000000
-19.596000 0.000000
-19.552300 0.000000
-19.508600 0.000000
-19.464900 0.000000
-19.421200 0.000000
-19.377500 0.000000
-19.333800 0.000000
-19.290100 0.000000
-19.246400 0.000000
-19.202700 0.000000
-19.159000 0.000000
-19.115200 0.000000
-19.071500 0.000000
-19.027800 0.000000
-18.984100 0.000000
-18.940400 0.000000
-18.896700 0.000000
-18.853000 0.000000
-18.809300 0.000000
-18.765600 0.000000
-18.721900 0.000000
-18.678200 0.000000
-18.634500 0.000000
-18.590800 0.000000
-18.547100 0.000000
-18.503400 0.000000
-18.459700 0.000000
-18.416000 0.000000
-18.372300 0.000000
-18.328600 0.000000
-18.284800 0.000000
-18.241100 0.000000
-18.197400 0.000000
-18.153700 0.000000
-18.110000 0.000000
-18.066300 0.000000
-18.022600 0.000000
-17.978900 0.000000
-17.935200 0.000000
-17.891500 0.000000
-17.847800 0.000000
-17.804100 0.000000
-17.760400 0.000000
-17.716700 0.000000
-17.673000 0.000000
-17.629300 0.000000
-17.585600 0.000000
-17.541900 0.000000
-17.498100 0.000000
-17.454400 0.000000
-17.410700 0.000000
-17.367000 0.000000
-17.323300 0.000000
-17.279600 0.000000
-17.235900 0.000000
-17.192200 0.000000
-17.148500 0.000000
-17.104800 0.000000
-17.061100 0.000000
-17.017400 0.000000
-16.973700 0.000000
-16.930000 0.000000
-16.886300 0.000000
-16.842600 0.000000
-16.798900 0.000000
-16.755200 0.000000
-16.711400 0.000000
-16.667700 0.000000
-16.624000 0.000000
-16.580300 0.000000
-16.536600 0.000000
-16.492900 0.000000
-16.449200 0.000000
-16.405500 0.000000
-16.361800 0.000000
-16.318100 0.000000
-16.274400 0.000000
-16.230700 0.000000
-16.187000 0.000000
-16.143300 0.000000
-16.099600 0.000000
-16.055900 0.000000
-16.012200 0.000000
-15.968500 0.000000
-15.924800 0.000000
-15.881000 0.000000
-15.837300 0.000000
-15.793600 0.000000
-15.749900 0.000000
-15.706200 0.000000
-15.662500 0.000000
-15.618800 0.000000
-15.575100 0.000000
-15.531400 0.000000
-15.487700 0.000000
-15.444000 0.000000
-15.400300 0.000000
-15.356600 0.000000
-15.312900 0.000000
-15.269200 0.000000
-15.225500 0.000000
-15.181800 0.000000
-15.138100 0.000000
-15.094300 0.000000
-15.050600 0.000000
-15.006900 0.000000
-14.963200 0.294900
-14.919500 0.612500
-14.875800 0.868200
-14.832100 1.057300
-14.788400 1.252400
-14.744700 1.452400
-14.701000 1.644200
-14.657300 1.849200
-14.613600 2.069400
-14.569900 2.313800
-14.526200 2.588600
-14.482500 2.893200
-14.438800 3.285400
-14.395100 3.912900
-14.351400 4.818400
-14.307600 5.490400
-14.263900 6.821600
-14.220200 3.546500
-14.176500 2.287100
-14.132800 7.679500
-14.089100 5.953300
-14.045400 4.767100
-14.001700 4.822700
-13.958000 4.783200
-13.914300 4.777000
-13.870600 3.349300
-13.826900 4.033000
-13.783200 23.069900
-13.739500 26.156600
-13.695800 36.185600
-13.652100 30.448100
-13.608400 50.004400
-13.564700 29.770500
-13.521000 1.342100
-13.477200 0.000000
-13.433500 0.000000
-13.389800 0.000000
-13.346100 0.000000
-13.302400 0.000000
-13.258700 0.000000
-13.215000 0.000000
-13.171300 0.000000
-13.127600 0.000000
-13.083900 0.000000
-13.040200 0.000000
-12.996500 0.000000
-12.952800 0.000000
-12.909100 0.000000
-12.865400 0.000000
-12.821700 0.000000
-12.778000 0.000000
-12.734300 0.000000
-12.690500 0.000000
-12.646800 0.000000
-12.603100 0.000000
-12.559400 0.000000
-12.515700 0.000000
-12.472000 0.000000
-12.428300 0.000000
-12.384600 0.000000
-12.340900 0.000000
-12.297200 0.000000
-12.253500 0.000000
-12.209800 0.000000
-12.166100 0.000000
-12.122400 0.000000
-12.078700 0.000000
-12.035000 0.000000
-11.991300 0.000000
-11.947600 0.000000
-11.903800 0.000000
-11.860100 0.000000
-11.816400 0.000000
-11.772700 0.000000
-11.729000 0.000000
-11.685300 0.000000
-11.641600 0.000000
-11.597900 0.000000
-11.554200 0.000000
-11.510500 0.000000
-11.466800 0.000000
-11.423100 0.000000
-11.379400 0.000000
-11.335700 0.000000
-11.292000 0.000000
-11.248300 0.000000
-11.204600 0.000000
-11.160900 0.000000
-11.117200 0.000000
-11.073400 0.000000
-11.029700 0.000000
-10.986000 0.000000
-10.942300 0.000000
-10.898600 0.000000
-10.854900 0.000000
-10.811200 0.000000
-10.767500 0.000000
-10.723800 0.000000
-10.680100 0.000000
-10.636400 0.000000
-10.592700 0.000000
-10.549000 0.000000
-10.505300 0.000000
-10.461600 0.000000
-10.417900 0.000000
-10.374200 0.000000
-10.330500 0.000000
-10.286700 0.000000
-10.243000 0.000000
-10.199300 0.000000
-10.155600 0.000000
-10.111900 0.000000
-10.068200 0.000000
-10.024500 0.000000
-9.980800 0.000000
-9.937100 0.000000
-9.893400 0.000000
-9.849700 0.000000
-9.806000 0.000000
-9.762300 0.000000
-9.718600 0.000000
-9.674900 0.000000
-9.631200 0.000000
-9.587500 0.000000
-9.543800 0.000000
-9.500000 0.000000
-9.456300 0.000000
-9.412600 0.000000
-9.368900 0.000000
-9.325200 0.000000
-9.281500 0.000000
-9.237800 0.000000
-9.194100 0.000000
-9.150400 0.000000
-9.106700 0.000000
-9.063000 0.000000
-9.019300 0.000000
-8.975600 0.000000
-8.931900 0.000000
-8.888200 0.000000
-8.844500 0.000000
-8.800800 0.000000
-8.757100 0.000000
-8.713400 0.000000
-8.669600 0.000000
-8.625900 0.000000
-8.582200 0.000000
-8.538500 0.000000
-8.494800 0.000000
-8.451100 0.000000
-8.407400 0.000000
-8.363700 0.000000
-8.320000 0.000000
-8.276300 0.000000
-8.232600 0.000000
-8.188900 0.000000
-8.145200 0.000000
-8.101500 0.000000
-8.057800 0.000000
-8.014100 0.000000
-7.970400 0.000000
-7.926700 0.000000
-7.882900 0.000000
-7.839200 0.000000
-7.795500 0.000000
-7.751800 0.000000
-7.708100 0.000000
-7.664400 0.000000
-7.620700 0.000000
-7.577000 0.000000
-7.533300 0.000000
-7.489600 0.000000
-7.445900 0.000000
-7.402200 0.000000
-7.358500 0.000000
-7.314800 0.000000
-7.271100 0.000000
-7.227400 0.000000
-7.183700 0.000000
-7.140000 0.000000
-7.096200 0.000000
-7.052500 0.000000
-7.008800 0.000000
-6.965100 0.000000
-6.921400 0.000000
-6.877700 0.000000
-6.834000 0.000000
-6.790300 0.000000
-6.746600 0.000000
-6.702900 0.000000
-6.659200 0.000000
-6.615500 0.000000
-6.571800 0.000000
-6.528100 0.000000
-6.484400 0.000000
-6.440700 0.000000
-6.397000 0.000000
-6.353300 0.000000
-6.309600 0.000000
-6.265800 0.000000
-6.222100 0.000000
-6.178400 0.000000
-6.134700 0.000000
-6.091000 0.000000
-6.047300 0.000000
-6.003600 0.000000
-5.959900 0.000000
-5.916200 0.000000
-5.872500 0.000000
-5.828800 0.000000
-5.785100 0.000000
-5.741400 0.000000
-5.697700 0.000000
-5.654000 0.000000
-5.610300 0.000000
-5.566600 0.000000
-5.522900 0.000000
-5.479100 0.000000
-5.435400 0.000000
-5.391700 0.000000
-5.348000 0.000000
-5.304300 0.000000
-5.260600 0.000000
-5.216900 0.000000
-5.173200 0.000000
-5.129500 0.000000
-5.085800 0.000000
-5.042100 0.000000
-4.998400 0.000000
-4.954700 0.000000
-4.911000 0.000000
-4.867300 0.000000
-4.823600 0.000000
-4.779900 0.000000
-4.736200 0.000000
-4.692400 0.000000
-4.648700 0.000000
-4.605000 0.000000
-4.561300 0.000000
-4.517600 0.000000
-4.473900 0.000000
-4.430200 0.000000
-4.386500 0.000000
-4.342800 0.000000
-4.299100 0.000000
-4.255400 0.000000
-4.211700 0.000000
-4.168000 0.000000
-4.124300 0.000000
-4.080600 0.000000
-4.036900 0.000000
-3.993200 0.000000
-3.949500 0.000000
-3.905800 0.000000
-3.862000 0.000000
-3.818300 0.000000
-3.774600 0.000000
-3.730900 0.000000
-3.687200 0.000000
-3.643500 0.000000
-3.599800 0.000000
-3.556100 0.000000
-3.512400 0.000000
-3.468700 0.000000
-3.425000 0.000000
-3.381300 0.000000
-3.337600 0.000000
-3.293900 0.000000
-3.250200 0.000000
-3.206500 0.000000
-3.162800 0.000000
-3.119100 0.000000
-3.075300 0.000000
-3.031600 0.000000
-2.987900 0.000000
-2.944200 0.000000
-2.900500 0.000000
-2.856800 0.000000
-2.813100 0.000000
-2.769400 0.000000
-2.725700 0.000000
-2.682000 0.000000
-2.638300 0.000000
-2.594600 0.000000
-2.550900 0.000000
-2.507200 0.000000
-2.463500 0.000000
-2.419800 0.000000
-2.376100 0.000000
-2.332400 0.000000
-2.288600 0.000000
-2.244900 0.000000
-2.201200 0.000000
-2.157500 0.000000
-2.113800 0.000000
-2.070100 0.298300
-2.026400 0.601800
-1.982700 0.867700
-1.939000 2.680400
-1.895300 5.325900
-1.851600 5.726800
-1.807900 6.262400
-1.764200 7.043700
-1.720500 8.635900
-1.676800 8.833400
-1.633100 11.562400
-1.589400 12.402500
-1.545700 11.585000
-1.502000 10.879000
-1.458200 8.513600
-1.414500 8.810600
-1.370800 8.449800
-1.327100 6.873600
-1.283400 5.658300
-1.239700 5.226600
-1.196000 5.825800
-1.152300 11.249500
-1.108600 9.416000
-1.064900 8.440300
-1.021200 8.483700
-0.977500 8.947400
-0.933800 8.101800
-0.890100 8.371000
-0.846400 8.627500
-0.802700 9.253400
-0.759000 10.808500
-0.715300 8.624500
-0.671500 8.380900
-0.627800 6.582800
-0.584100 9.801700
-0.540400 6.948300
-0.496700 5.692200
-0.453000 8.976100
-0.409300 11.650600
-0.365600 15.287200
-0.321900 12.368700
-0.278200 5.516500
-0.234500 7.681100
-0.190800 9.563900
-0.147100 11.999600
-0.103400 12.268700
-0.059700 10.654700
-0.016000 8.157400
0.027700 13.461300
0.071400 18.016000
0.115200 10.675200
0.158900 15.578400
0.202600 11.250700
0.246300 9.987800
0.290000 7.374300
0.333700 5.775900
0.377400 6.109500
0.421100 6.888700
0.464800 6.912400
0.508500 5.297800
0.552200 5.830400
0.595900 7.134000
0.639600 7.509200
0.683300 7.773900
0.727000 3.996400
0.770700 2.760500
0.814400 4.313600
0.858100 9.065900
0.901800 10.158800
0.945600 12.637000
0.989300 9.957200
1.033000 11.482700
1.076700 12.369200
1.120400 10.904600
1.164100 9.015500
1.207800 12.527800
1.251500 12.077200
1.295200 15.807400
1.338900 8.144000
1.382600 4.221900
1.426300 9.115600
1.470000 11.149600
1.513700 10.847100
1.557400 10.298600
1.601100 7.360300
1.644800 4.998400
1.688500 5.840500
1.732300 7.426900
1.776000 12.576700
1.819700 21.323300
1.863400 16.772500
1.907100 14.314300
1.950800 3.304800
1.994500 1.939200
2.038200 1.099800
2.081900 0.000000
2.125600 0.000000
2.169300 0.000000
2.213000 0.000000
2.256700 0.000000
2.300400 0.000000
2.344100 0.000000
2.387800 0.000000
2.431500 0.000000
2.475200 0.000000
2.519000 0.000000
2.562700 0.000000
2.606400 0.000000
2.650100 0.000000
2.693800 0.000000
2.737500 0.000000
2.781200 0.000000
2.824900 0.000000
2.868600 0.000000
2.912300 0.000000
2.956000 0.000000
2.999700 0.000000
3.043400 0.000000
3.087100 0.000000
3.130800 0.000000
3.174500 0.000000
3.218200 0.000000
3.261900 0.000000
3.305600 0.000000
3.349400 0.000000
3.393100 0.000000
3.436800 0.000000
3.480500 0.000000
3.524200 0.000000
3.567900 0.000000
3.611600 0.000000
3.655300 0.000000
3.699000 0.000000
3.742700 0.000000
3.786400 0.000000
3.830100 0.000000
3.873800 0.000000
3.917500 0.000000
3.961200 0.000000
4.004900 0.000000
4.048600 0.000000
4.092300 0.000000
4.136100 0.000000
4.179800 0.000000
4.223500 0.000000
4.267200 0.000000
4.310900 0.000000
4.354600 0.000000
4.398300 0.000000
4.442000 0.000000
4.485700 0.000000
4.529400 0.000000
4.573100 0.000000
4.616800 0.000000
4.660500 0.000000
4.704200 1.404600
4.747900 6.232700
4.791600 6.551200
4.835300 8.715100
4.879000 9.196300
4.922800 9.117900
4.966500 10.781100
5.010200 8.765800
5.053900 7.307100
5.097600 5.712000
5.141300 5.663700
5.185000 6.214200
5.228700 6.728200
5.272400 7.820300
5.316100 10.249300
5.359800 12.223600
5.403500 8.724600
5.447200 12.503600
5.490900 15.275000
5.534600 11.866400
5.578300 12.448700
5.622000 15.524600
5.665700 11.789500
5.709400 12.987200
5.753200 18.388400
5.796900 10.750400
5.840600 18.925600
5.884300 8.988600
5.928000 3.997500
5.971700 10.152300
6.015400 13.818500
6.059100 27.025700
6.102800 27.753900
6.146500 13.474300
6.190200 9.916400
6.233900 6.489200
6.277600 6.157500
6.321300 11.950400
6.365000 10.572200
6.408700 10.581200
6.452400 11.804600
6.496100 7.656500
6.539900 9.177500
6.583600 7.456300
6.627300 18.617100
6.671000 23.282000
6.714700 13.215000
6.758400 10.278400
6.802100 7.617400
6.845800 5.255500
6.889500 3.666300
6.933200 2.094000
6.976900 0.000000
7.020600 0.000000
7.064300 0.000000
7.108000 0.000000
7.151700 0.000000
7.195400 0.000000
7.239100 0.000000
7.282800 0.000000
7.326600 0.000000
7.370300 0.000000
7.414000 0.000000
7.457700 0.000000
7.501400 0.000000
7.545100 3.421300
7.588800 5.854100
7.632500 8.257100
7.676200 8.735100
7.719900 10.342900
7.763600 7.494500
7.807300 16.786900
7.851000 18.017700
7.894700 15.992000
7.938400 13.496400
7.982100 11.019800
8.025800 10.188600
8.069500 9.509200
8.113200 9.369900
8.157000 10.354200
8.200700 13.763400
8.244400 10.501400
8.288100 4.281500
8.331800 15.245500
8.375500 11.751600
8.419200 9.266300
8.462900 11.173900
8.506600 12.854500
8.550300 9.425300
8.594000 10.141400
8.637700 4.320500
8.681400 5.354000
8.725100 8.643000
8.768800 13.595800
8.812500 17.353100
8.856200 12.207800
8.899900 6.678600
8.943700 7.860400
8.987400 6.756800
9.031100 6.405200
9.074800 5.933600
9.118500 5.882300
9.162200 5.092200
9.205900 0.179500
9.249600 0.173600
9.293300 0.139300
9.337000 0.149200
9.380700 0.159900
9.424400 0.171300
9.468100 0.182500
9.511800 0.190900
9.555500 0.199800
9.599200 0.208900
9.642900 0.218000
9.686600 0.227100
9.730400 0.235700
9.774100 0.245400
9.817800 0.255700
9.861500 0.266200
9.905200 0.276800
9.948900 0.287500
9.992600 0.298400
10.036300 0.309800
10.080000 0.321200
10.123700 0.332700
10.167400 0.344200
10.211100 0.355800
10.254800 0.367600
10.298500 0.379500
10.342200 0.391500
10.385900 0.403500
10.429600 0.415700
10.473300 0.427900
10.517000 0.440200
10.560800 0.452700
10.604500 0.465300
10.648200 0.479500
10.691900 0.494100
10.735600 0.509500
10.779300 0.525300
10.823000 0.541200
10.866700 0.557100
10.910400 0.573100
10.954100 0.589900
10.997800 0.610700
11.041500 0.631800
11.085200 0.650900
11.128900 0.668000
11.172600 0.683100
11.216300 0.696300
11.260000 0.707500
11.303700 0.720200
11.347500 0.776300
11.391200 0.764100
11.434900 0.774000
11.478600 0.785400
11.522300 0.891600
11.566000 0.859600
11.609700 0.886700
11.653400 0.919200
11.697100 0.956700
11.740800 1.019600
11.784500 1.077700
11.828200 1.133400
11.871900 1.187100
11.915600 1.223800
11.959300 1.227200
12.003000 1.310000
12.046700 1.270700
12.090400 1.316600
12.134200 1.257600
12.177900 1.262300
12.221600 1.312000
12.265300 1.376600
12.309000 1.411800
12.352700 1.769400
12.396400 1.589800
12.440100 1.716100
12.483800 1.660400
12.527500 1.315200
12.571200 1.342000
12.614900 1.428200
12.658600 1.592400
12.702300 2.069600
12.746000 2.271300
12.789700 2.334500
12.833400 2.049200
12.877100 1.931000
12.920800 1.829200
12.964600 1.758200
13.008300 1.761600
13.052000 1.728900
13.095700 1.733800
13.139400 1.698400
13.183100 1.636700
13.226800 1.459600
13.270500 1.443700
13.314200 1.537400
13.357900 2.035600
13.401600 2.851700
13.445300 2.618400
13.489000 2.514100
13.532700 2.414500
13.576400 2.315000
13.620100 2.272500
13.663800 2.205800
13.707500 2.306000
13.751300 2.534100
13.795000 2.787000
13.838700 2.795600
13.882400 2.759400
13.926100 2.689600
13.969800 2.620500
14.013500 2.618600
14.057200 2.538500
14.100900 2.609300
14.144600 3.243900
14.188300 3.558900
14.232000 3.237100
14.275700 2.898100
14.319400 2.521500
14.363100 2.201100
14.406800 2.018900
14.450500 1.953700
14.494200 2.018100
14.538000 2.163700
14.581700 2.371300
14.625400 2.680400
14.669100 2.822700
14.712800 2.215700
14.756500 1.995700
14.800200 1.868300
14.843900 1.931700
14.887600 2.006300
14.931300 1.906300
14.975000 1.978200
15.018700 2.155300
15.062400 2.486900
15.106100 2.672700
15.149800 3.172000
15.193500 3.184500
15.237200 3.397000
15.280900 3.937900
15.324600 2.941600
15.368400 2.635400
15.412100 2.337700
15.455800 2.182700
15.499500 2.074100
15.543200 2.123900
15.586900 2.212400
15.630600 2.203700
15.674300 2.194500
15.718000 2.170400
15.761700 2.146400
15.805400 2.085500
15.849100 2.050400
15.892800 2.062600
15.936500 2.117900
15.980200 2.009400
16.023900 1.929100
16.067600 1.938100
16.111300 1.814400
16.155100 1.842300
16.198800 1.646600
16.242500 1.958100
16.286200 2.112200
16.329900 2.101400
16.373600 2.341300
16.417300 2.921000
16.461000 3.530000
16.504700 5.928100
16.548400 4.490000
16.592100 4.766600
16.635800 5.121600
16.679500 5.212300
16.723200 5.675500
16.766900 4.744700
16.810600 4.744900
16.854300 5.997400
16.898000 6.414000
16.941800 6.222100
16.985500 6.359600
17.029200 7.457100
17.072900 5.997000
17.116600 5.164200
17.160300 4.323800
17.204000 3.996600
17.247700 4.697500
17.291400 4.982600
17.335100 4.326700
17.378800 4.556000
17.422500 3.511100
17.466200 3.025700
17.509900 4.700200
17.553600 10.344100
17.597300 7.120900
17.641000 6.554800
17.684700 4.431600
17.728400 4.885700
17.772200 5.157100
17.815900 4.223400
17.859600 3.978900
17.903300 4.274900
17.947000 4.645600
17.990700 4.272500
18.034400 4.042600
18.078100 3.950200
18.121800 3.267500
18.165500 3.115200
18.209200 3.099100
18.252900 3.120100
18.296600 3.070400
18.340300 3.079600
18.384000 3.474100
18.427700 4.880300
18.471400 6.195900
18.515100 6.699700
18.558900 6.083300
18.602600 5.679100
18.646300 5.182200
18.690000 5.644000
18.733700 6.017200
18.777400 4.605100
18.821100 4.799900
18.864800 5.070300
18.908500 5.379300
18.952200 5.191600
18.995900 5.103500
19.039600 5.090300
19.083300 4.581700
19.127000 3.658900
19.170700 3.275100
19.214400 5.554700
19.258100 6.977900
19.301800 6.037500
19.345600 5.672500
19.389300 5.188400
19.433000 4.144900
19.476700 3.561200
19.520400 2.918100
19.564100 2.554700
19.607800 3.206300
19.651500 3.399400
19.695200 2.938000
19.738900 2.862900
19.782600 3.353600
19.826300 4.130200
19.870000 4.791900
19.913700 4.830900
19.957400 5.205500
20.001100 5.413600
20.044800 5.974600
20.088500 4.255900
20.132200 3.332600
20.176000 3.339300
20.219700 3.183200
20.263400 2.766200
20.307100 2.677900
20.350800 2.502500
20.394500 2.520100
20.438200 2.619100
20.481900 2.590900
20.525600 2.689000
20.569300 2.995000
20.613000 3.364100
20.656700 3.850300
20.700400 4.361800
20.744100 5.229500
20.787800 4.286600
20.831500 4.053100
20.875200 3.522700
20.918900 3.259300
20.962700 2.738200
21.006400 2.499700
21.050100 2.623700
21.093800 2.857700
21.137500 3.052200
21.181200 3.292100
21.224900 3.540200
21.268600 3.674600
21.312300 3.300800
21.356000 3.069800
21.399700 2.990100
21.443400 3.279900
21.487100 4.095500
21.530800 4.328500
21.574500 4.118900
21.618200 4.437800
21.661900 3.495100
21.705600 2.808900
21.749400 2.965600
21.793100 3.185200
21.836800 2.955300
21.880500 2.940200
21.924200 3.055000
21.967900 3.555100
22.011600 3.394000
22.055300 3.210900
22.099000 3.252100
22.142700 3.346400
22.186400 3.125400
22.230100 2.861300
22.273800 2.605400
22.317500 2.253200
22.361200 2.184000
22.404900 2.158900
22.448600 2.165900
22.492300 2.209600
22.536000 2.290100
22.579800 2.499400
22.623500 2.802300
22.667200 3.492300
22.710900 3.725100
22.754600 4.296400
22.798300 3.833300
22.842000 2.994800
22.885700 3.012200
22.929400 3.076200
22.973100 3.080800
23.016800 3.011900
23.060500 3.026200
23.104200 3.072700
23.147900 3.068600
23.191600 3.285800
23.235300 3.225800
23.279000 3.280700
23.322700 2.658700
23.366500 2.858500
23.410200 3.182400
23.453900 3.093500
23.497600 2.580700
23.541300 2.205400
23.585000 1.955800
23.628700 1.541800
23.672400 1.578900
23.716100 2.096900
23.759800 3.066100
23.803500 3.572700
23.847200 4.617000
23.890900 6.406500
23.934600 5.518700
23.978300 5.783100
24.022000 6.743900
24.065700 6.517000
24.109400 5.656900
24.153200 4.276800
24.196900 5.210700
24.240600 5.010200
24.284300 4.606700
24.328000 4.443800
24.371700 4.656000
24.415400 5.014100
24.459100 5.476300
24.502800 4.896400
24.546500 4.612300
24.590200 4.414700
24.633900 4.212300
24.677600 4.209800
24.721300 4.151200
24.765000 4.061900
24.808700 3.847600
24.852400 3.775700
24.896100 3.768100
24.939800 3.780700
24.983600 3.817000
25.027300 3.830800
25.071000 3.639200
25.114700 3.400900
25.158400 3.101400
25.202100 2.881600
25.245800 2.724000
25.289500 2.529400
25.333200 2.334900
25.376900 2.142000
25.420600 1.992000
25.464300 2.082000
25.508000 2.002800
25.551700 1.872000
25.595400 1.902000
25.639100 2.023600
25.682800 2.293900
25.726500 2.432200
25.770300 2.668100
25.814000 2.967000
25.857700 3.298900
25.901400 3.323200
25.945100 3.314300
25.988800 3.023400
26.032500 2.710500
26.076200 2.537100
26.119900 2.329100
26.163600 1.850700
26.207300 1.685700
26.251000 1.639400
26.294700 1.602000
26.338400 1.507100
26.382100 1.497200
26.425800 1.690400
26.469500 2.189600
26.513200 2.704400
26.557000 2.959800
26.600700 3.398300
26.644400 3.039600
26.688100 2.965700
26.731800 3.013600
26.775500 2.736000
26.819200 2.719300
26.862900 2.698900
26.906600 2.680800
26.950300 2.828500
26.994000 2.834800
27.037700 2.930800
27.081400 3.061600
27.125100 3.204300
27.168800 3.733600
27.212500 3.954300
27.256200 4.149800
27.299900 4.299500
27.343600 4.039000
27.387400 3.618100
27.431100 3.529100
27.474800 3.484900
27.518500 3.836000
27.562200 5.582100
27.605900 6.570400
27.649600 5.136100
27.693300 3.836100
27.737000 3.901300
27.780700 4.365900
27.824400 5.349300
27.868100 4.567000
27.911800 4.530000
27.955500 4.542400
27.999200 4.178500
28.042900 4.518300
28.086600 4.866100
28.130300 4.326000
28.174100 3.555500
28.217800 3.446800
28.261500 3.471900
28.305200 3.521000
28.348900 3.868700
28.392600 4.023200
28.436300 3.765600
28.480000 3.965400
28.523700 3.764300
28.567400 3.019100
28.611100 2.883400
28.654800 2.938000
28.698500 3.187900
28.742200 3.287900
28.785900 3.091900
28.829600 3.138000
28.873300 3.456000
28.917000 3.752100
28.960800 3.599500
29.004500 3.250700
29.048200 3.435100
29.091900 2.767700
29.135600 2.441500
29.179300 2.381800
29.223000 2.467700
29.266700 2.605800
29.310400 2.679000
29.354100 2.814100
29.397800 2.847000
29.441500 2.906300
29.485200 2.861300
29.528900 2.775900
29.572600 2.733200
29.616300 3.281500
29.660000 3.552500
29.703700 3.912400
29.747400 4.399600
29.791200 4.425600
29.834900 4.385800
29.878600 4.801800
29.922300 5.179100
29.966000 5.375100
30.009700 5.348100
30.053400 4.656400
30.097100 4.001600
30.140800 3.767600
30.184500 3.902400
30.228200 5.214900
30.271900 5.087300
30.315600 4.562000
30.359300 4.120300
30.403000 3.919500
30.446700 3.764600
30.490400 4.195800
30.534100 3.590800
30.577900 3.729500
30.621600 3.844100
30.665300 4.205400
30.709000 3.970600
30.752700 4.043500
30.796400 4.403800
30.840100 4.183700
30.883800 3.916900
30.927500 3.640300
30.971200 3.373600
31.014900 3.322000
31.058600 3.864100
31.102300 3.754500
31.146000 3.847100
31.189700 3.847400
31.233400 3.704600
31.277100 3.772000
31.320800 3.959800
31.364500 4.228000
31.408300 4.390600
31.452000 4.095100
31.495700 3.820600
31.539400 3.598700
31.583100 3.454600
31.626800 3.429500
31.670500 3.701600
31.714200 3.501300
31.757900 3.443900
31.801600 3.550300
31.845300 4.013700
31.889000 4.662700
31.932700 4.727700
31.976400 4.296700
32.020100 4.045100
32.063800 3.945100
32.107500 3.942700
32.151200 4.051100
32.195000 3.649600
32.238700 3.373100
32.282400 3.577800
32.326100 3.780600
32.369800 4.508900
32.413500 5.443100
32.457200 5.441000
32.500900 5.311000
32.544600 5.337500
32.588300 5.350100
32.632000 5.268000
32.675700 4.411800
32.719400 3.616100
32.763100 3.471600
32.806800 3.686000
32.850500 4.622600
32.894200 6.121400
32.937900 7.622100
32.981700 21.309200
33.025400 17.167000
33.069100 7.550000
33.112800 5.251000
33.156500 4.254200
33.200200 4.430400
33.243900 3.606700
33.287600 3.759700
33.331300 4.448700
33.375000 5.501900
33.418700 5.579900
33.462400 5.686300
33.506100 6.509400
33.549800 5.991500
33.593500 5.812400
33.637200 5.379300
33.680900 5.624900
33.724600 5.069800
33.768300 4.703400
33.812100 5.003800
33.855800 6.524200
33.899500 6.757100
33.943200 5.976500
33.986900 5.423100
34.030600 4.619700
34.074300 4.599100
34.118000 4.657400
34.161700 3.971400
34.205400 3.764100
34.249100 4.153200
34.292800 4.187100
34.336500 4.308800
34.380200 4.585600
34.423900 4.693900
34.467600 4.538500
34.511300 5.205700
34.555000 5.517300
34.598800 5.457200
34.642500 4.753500
34.686200 5.008900
34.729900 5.325800
34.773600 5.588300
34.817300 5.030600
34.861000 4.731900
34.904700 4.396000
34.948400 4.138100
34.992100 3.974000
35.035800 4.129000
35.079500 4.379600
35.123200 4.528300
35.166900 4.330400
35.210600 4.021500
35.254300 3.918400
35.298000 3.914600
35.341700 3.982500
35.385500 4.176700
35.429200 4.253000
35.472900 4.379500
35.516600 3.912200
35.560300 3.841300
35.604000 3.942200
35.647700 4.207400
35.691400 4.613100
35.735100 5.100900
35.778800 5.909300
35.822500 7.612600
35.866200 8.549800
35.909900 7.308800
35.953600 6.337300
35.997300 5.826500
36.041000 6.134800
36.084700 6.910800
36.128400 8.133100
36.172100 7.682600
36.215900 7.469100
36.259600 8.036800
36.303300 7.470600
36.347000 7.348700
36.390700 5.590400
36.434400 4.760700
36.478100 4.325400
36.521800 4.132900
36.565500 4.141900
36.609200 4.119400
36.652900 4.239200
36.696600 4.549300
36.740300 4.609400
36.784000 6.007400
36.827700 5.312400
36.871400 5.474000
36.915100 6.746900
36.958800 7.320200
37.002600 7.063300
37.046300 6.378200
37.090000 5.491400
37.133700 5.053300
37.177400 8.364800
37.221100 4.648800
37.264800 5.254300
37.308500 5.215300
37.352200 5.366000
37.395900 4.959200
37.439600 4.840500
37.483300 5.161300
37.527000 5.620400
37.570700 5.791100
37.614400 5.524400
37.658100 5.373800
37.701800 5.758800
37.745500 5.513900
37.789300 5.871600
37.833000 6.575900
37.876700 6.233000
37.920400 6.423400
37.964100 6.348300
38.007800 6.394000
38.051500 6.060500
38.095200 5.187400
38.138900 5.170400
38.182600 5.540800
38.226300 5.879500
38.270000 5.787500
38.313700 4.544100
38.357400 4.120400
38.401100 4.328500
38.444800 4.767000
38.488500 4.808000
38.532200 4.850200
38.575900 5.350600
38.619700 5.978400
38.663400 6.132900
38.707100 6.178900
38.750800 6.052300
38.794500 5.897400
38.838200 5.941800
38.881900 6.069500
38.925600 5.620900
38.969300 5.619100
39.013000 5.961800
39.056700 6.905100
39.100400 6.733200
39.144100 6.591000
39.187800 5.751500
39.231500 5.252500
39.275200 5.187400
39.318900 5.367300
39.362600 4.970700
39.406400 5.046700
39.450100 5.497600
39.493800 5.961500
39.537500 6.234900
39.581200 6.530400
39.624900 7.411600
39.668600 5.898600
39.712300 5.887800
39.756000 6.461000
39.799700 6.524800
39.843400 5.378000
39.887100 5.989200
39.930800 6.409400
39.974500 6.888700
40.018200 6.834800
40.061900 6.393400
40.105600 5.642100
40.149300 5.715600
40.193100 6.192700
40.236800 7.191100
40.280500 7.599600
40.324200 5.709300
40.367900 3.801200
40.411600 4.208600
40.455300 5.593400
40.499000 6.127100
40.542700 6.858600
40.586400 6.263300
40.630100 5.895100
40.673800 5.778500
40.717500 5.755700
40.761200 6.053100
40.804900 6.297400
40.848600 6.498600
40.892300 6.584900
40.936000 5.003700
40.979700 4.801300
41.023500 5.671600
41.067200 8.050600
41.110900 8.178800
41.154600 7.136500
41.198300 6.759100
41.242000 5.770300
41.285700 5.314800
41.329400 4.697500
41.373100 4.443600
41.416800 4.902900
41.460500 5.769000
41.504200 6.216500
41.547900 6.486800
41.591600 6.240600
41.635300 5.862900
41.679000 5.726600
41.722700 5.124300
41.766400 4.539000
41.810200 4.374000
41.853900 4.591100
41.897600 4.435300
41.941300 4.243100
41.985000 4.620500
42.028700 5.836000
42.072400 6.258400
42.116100 6.309400
42.159800 6.472900
42.203500 5.995600
42.247200 5.856000
42.290900 6.045400
42.334600 6.425300
42.378300 6.341900
42.422000 5.076600
42.465700 5.519100
42.509400 4.346800
42.553100 4.091600
42.596900 3.697000
42.640600 4.378100
42.684300 5.012500
42.728000 5.695500
42.771700 5.394800
42.815400 6.104000
42.859100 5.961100
42.902800 5.386600
42.946500 4.799200
42.990200 4.415400
43.033900 4.853400
43.077600 5.023000
43.121300 4.764200
43.165000 4.692100
43.208700 5.046400
43.252400 5.340200
43.296100 4.955200
43.339800 3.697300
43.383500 3.810400
43.427300 4.661900
43.471000 5.719700
43.514700 4.719400
43.558400 4.643000
43.602100 4.816900
43.645800 4.659500
43.689500 5.093600
43.733200 5.329300
43.776900 5.079200
43.820600 5.329500
43.864300 4.806200
43.908000 4.892900
43.951700 5.149900
43.995400 4.654900
44.039100 4.131300
44.082800 4.354700
44.126500 3.978000
44.170200 3.833500
44.214000 3.526600
44.257700 3.290100
44.301400 2.855000
44.345100 2.487700
44.388800 2.212500
44.432500 1.949500
44.476200 1.712500
44.519900 1.624800
44.563600 1.664000
44.607300 1.281500
44.651000 1.202600
44.694700 1.089600
44.738400 0.932500
44.782100 0.804400
44.825800 0.716200
44.869500 0.651400
44.913200 0.623400
44.956900 0.598100
45.000700 0.571700
45.044400 0.624000
45.088100 0.003600
45.131800 0.000000
45.175500 0.000000
45.219200 0.000000
45.262900 0.000000
45.306600 0.000000
45.350300 0.000000
45.394000 0.000000
45.437700 0.000000
45.481400 0.000000
45.525100 0.000000
45.568800 0.000000
45.612500 0.000000
45.656200 0.000000
45.699900 0.000000
45.743600 0.000000
45.787300 0.000000
45.831100 0.000000
45.874800 0.000000
45.918500 0.000000
45.962200 0.000000
46.005900 0.000000
46.049600 0.000000
46.093300 0.000000
46.137000 0.000000
46.180700 0.000000
46.224400 0.000000
46.268100 0.000000
46.311800 0.000000
46.355500 0.000000
46.399200 0.000000
46.442900 0.000000
46.486600 0.000000
46.530300 0.000000
46.574000 0.000000
46.617800 0.000000
46.661500 0.000000
46.705200 0.000000
46.748900 0.000000
46.792600 0.000000
46.836300 0.000000
46.880000 0.000000
46.923700 0.000000
46.967400 0.000000
47.011100 0.000000
47.054800 0.000000
47.098500 0.000000
47.142200 0.000000
47.185900 0.000000
47.229600 0.000000
47.273300 0.000000
47.317000 0.000000
47.360700 0.000000
47.404500 0.000000
47.448200 0.000000
47.491900 0.000000
47.535600 0.000000
47.579300 0.000000
47.623000 0.000000
47.666700 0.000000
47.710400 0.000000
47.754100 0.000000
47.797800 0.000000
47.841500 0.000000
47.885200 0.000000
47.928900 0.000000
47.972600 0.000000
48.016300 0.000000
48.060000 0.000000
48.103700 0.000000
48.147400 0.000000
48.191100 0.000000
48.234900 0.000000
48.278600 0.000000
48.322300 0.000000
48.366000 0.000000
48.409700 0.000000
48.453400 0.000000
48.497100 0.000000
48.540800 0.000000
48.584500 0.000000
48.628200 0.000000
48.671900 0.000000
48.715600 0.000000
48.759300 0.000000
48.803000 0.000000
48.846700 0.000000
48.890400 0.000000
48.934100 0.000000
48.977800 0.000000
49.021600 0.000000
49.065300 0.000000
e
