set title 'mp-1226523 - Density of States'
set xlabel 'Energy (eV)'
set ylabel 'DOS (states/eV)'
set grid
set xrange [-10:10]
set yrange [0:43.002]
set xzeroaxis lt -1
set terminal png size 800,600
set output 'mp-1226523_dos_gnuplot.png'
plot '-' using 1:2 with lines title 'DOS'
-33.901500 0.000000
-33.864300 0.000000
-33.827100 0.000000
-33.789900 0.000000
-33.752700 0.000000
-33.715500 0.000000
-33.678300 0.000000
-33.641100 0.000000
-33.603900 0.000000
-33.566700 0.000000
-33.529500 0.000000
-33.492300 0.000000
-33.455100 0.000000
-33.417900 0.000000
-33.380700 0.000000
-33.343500 0.000000
-33.306300 0.000000
-33.269100 0.000000
-33.231900 0.000000
-33.194700 0.000000
-33.157500 0.000000
-33.120300 0.000000
-33.083100 0.000000
-33.045900 0.000000
-33.008700 0.000000
-32.971500 0.000000
-32.934400 0.000000
-32.897200 0.000000
-32.860000 0.000000
-32.822800 0.000000
-32.785600 0.000000
-32.748400 0.000000
-32.711200 0.000000
-32.674000 0.000000
-32.636800 0.000000
-32.599600 0.000000
-32.562400 0.000000
-32.525200 0.000000
-32.488000 0.000000
-32.450800 0.000000
-32.413600 0.000000
-32.376400 0.000000
-32.339200 0.000000
-32.302000 0.000000
-32.264800 0.000000
-32.227600 0.000000
-32.190400 0.000000
-32.153200 0.000000
-32.116000 0.000000
-32.078800 0.000000
-32.041600 0.000000
-32.004400 0.000000
-31.967200 0.000000
-31.930100 0.000000
-31.892900 0.000000
-31.855700 0.000000
-31.818500 0.000000
-31.781300 0.000000
-31.744100 0.000000
-31.706900 0.000000
-31.669700 0.000000
-31.632500 0.000000
-31.595300 0.000000
-31.558100 0.000000
-31.520900 0.000000
-31.483700 0.000000
-31.446500 0.000000
-31.409300 0.000000
-31.372100 0.000000
-31.334900 0.000000
-31.297700 0.000000
-31.260500 0.000000
-31.223300 0.000000
-31.186100 0.000000
-31.148900 0.000000
-31.111700 0.000000
-31.074500 0.000000
-31.037300 0.000000
-31.000100 0.000000
-30.962900 0.000000
-30.925700 0.000000
-30.888600 0.000000
-30.851400 0.000000
-30.814200 0.000000
-30.777000 0.000000
-30.739800 0.000000
-30.702600 0.000000
-30.665400 0.000000
-30.628200 0.000000
-30.591000 0.000000
-30.553800 0.000000
-30.516600 0.534900
-30.479400 3.660600
-30.442200 4.025000
-30.405000 4.762200
-30.367800 5.696200
-30.330600 7.649500
-30.293400 13.999800
-30.256200 13.747900
-30.219000 0.000000
-30.181800 0.000000
-30.144600 0.000000
-30.107400 0.000000
-30.070200 0.000000
-30.033000 0.000000
-29.995800 0.000000
-29.958600 0.000000
-29.921400 0.000000
-29.884300 0.000000
-29.847100 0.000000
-29.809900 0.000000
-29.772700 0.000000
-29.735500 0.000000
-29.698300 0.000000
-29.661100 0.000000
-29.623900 0.000000
-29.586700 0.000000
-29.549500 0.000000
-29.512300 0.000000
-29.475100 0.000000
-29.437900 0.000000
-29.400700 0.000000
-29.363500 0.000000
-29.326300 0.000000
-29.289100 0.000000
-29.251900 0.000000
-29.214700 0.000000
-29.177500 0.000000
-29.140300 0.000000
-29.103100 0.000000
-29.065900 0.000000
-29.028700 0.000000
-28.991500 0.000000
-28.954300 0.000000
-28.917100 0.000000
-28.880000 0.000000
-28.842800 0.000000
-28.805600 0.000000
-28.768400 0.000000
-28.731200 0.000000
-28.694000 0.000000
-28.656800 0.000000
-28.619600 0.000000
-28.582400 0.000000
-28.545200 0.000000
-28.508000 0.000000
-28.470800 0.000000
-28.433600 0.000000
-28.396400 0.000000
-28.359200 0.000000
-28.322000 0.000000
-28.284800 0.000000
-28.247600 0.000000
-28.210400 0.000000
-28.173200 0.000000
-28.136000 0.000000
-28.098800 0.000000
-28.061600 0.000000
-28.024400 0.000000
-27.987200 0.000000
-27.950000 0.000000
-27.912800 0.000000
-27.875700 0.000000
-27.838500 0.000000
-27.801300 0.000000
-27.764100 0.000000
-27.726900 0.000000
-27.689700 0.000000
-27.652500 0.000000
-27.615300 0.000000
-27.578100 0.000000
-27.540900 0.000000
-27.503700 0.000000
-27.466500 0.000000
-27.429300 0.000000
-27.392100 0.000000
-27.354900 0.000000
-27.317700 0.000000
-27.280500 0.000000
-27.243300 0.000000
-27.206100 0.000000
-27.168900 0.000000
-27.131700 0.000000
-27.094500 0.000000
-27.057300 0.000000
-27.020100 0.000000
-26.982900 0.000000
-26.945700 0.000000
-26.908500 0.000000
-26.871400 0.000000
-26.834200 0.000000
-26.797000 0.000000
-26.759800 0.000000
-26.722600 0.000000
-26.685400 0.000000
-26.648200 0.000000
-26.611000 0.000000
-26.573800 0.000000
-26.536600 0.000000
-26.499400 0.000000
-26.462200 0.000000
-26.425000 0.000000
-26.387800 0.000000
-26.350600 0.000000
-26.313400 0.000000
-26.276200 0.000000
-26.239000 0.000000
-26.201800 0.000000
-26.164600 0.000000
-26.127400 0.000000
-26.090200 0.000000
-26.053000 0.389500
-26.015800 3.399000
-25.978600 3.790500
-25.941400 4.464600
-25.904200 5.215600
-25.867100 6.942700
-25.829900 11.146100
-25.792700 15.689600
-25.755500 0.000000
-25.718300 0.000000
-25.681100 0.000000
-25.643900 0.000000
-25.606700 0.000000
-25.569500 0.000000
-25.532300 0.000000
-25.495100 0.000000
-25.457900 0.000000
-25.420700 0.000000
-25.383500 0.000000
-25.346300 0.000000
-25.309100 0.000000
-25.271900 0.000000
-25.234700 0.000000
-25.197500 0.000000
-25.160300 0.000000
-25.123100 0.000000
-25.085900 0.000000
-25.048700 0.000000
-25.011500 0.000000
-24.974300 0.000000
-24.937100 0.000000
-24.899900 0.000000
-24.862700 0.000000
-24.825600 0.000000
-24.788400 0.000000
-24.751200 0.000000
-24.714000 0.000000
-24.676800 0.000000
-24.639600 0.000000
-24.602400 0.000000
-24.565200 0.000000
-24.528000 0.000000
-24.490800 0.000000
-24.453600 0.000000
-24.416400 0.000000
-24.379200 0.000000
-24.342000 0.000000
-24.304800 0.000000
-24.267600 0.000000
-24.230400 0.000000
-24.193200 0.000000
-24.156000 0.000000
-24.118800 0.000000
-24.081600 0.000000
-24.044400 0.000000
-24.007200 0.000000
-23.970000 0.000000
-23.932800 0.000000
-23.895600 0.000000
-23.858400 0.000000
-23.821300 0.000000
-23.784100 0.000000
-23.746900 0.000000
-23.709700 0.000000
-23.672500 0.000000
-23.635300 0.000000
-23.598100 0.000000
-23.560900 0.000000
-23.523700 0.000000
-23.486500 0.000000
-23.449300 0.000000
-23.412100 0.000000
-23.374900 0.000000
-23.337700 0.000000
-23.300500 0.000000
-23.263300 0.000000
-23.226100 0.000000
-23.188900 0.000000
-23.151700 0.000000
-23.114500 0.000000
-23.077300 0.000000
-23.040100 0.000000
-23.002900 0.000000
-22.965700 0.000000
-22.928500 0.000000
-22.891300 0.000000
-22.854100 0.000000
-22.817000 0.000000
-22.779800 0.000000
-22.742600 0.000000
-22.705400 0.000000
-22.668200 0.000000
-22.631000 0.000000
-22.593800 0.000000
-22.556600 0.000000
-22.519400 0.000000
-22.482200 0.000000
-22.445000 0.000000
-22.407800 0.000000
-22.370600 0.000000
-22.333400 0.000000
-22.296200 0.000000
-22.259000 0.000000
-22.221800 0.000000
-22.184600 0.000000
-22.147400 0.000000
-22.110200 0.000000
-22.073000 0.000000
-22.035800 0.000000
-21.998600 0.000000
-21.961400 0.000000
-21.924200 0.000000
-21.887000 0.000000
-21.849800 0.000000
-21.812700 0.000000
-21.775500 0.000000
-21.738300 0.000000
-21.701100 0.000000
-21.663900 0.000000
-21.626700 0.000000
-21.589500 0.000000
-21.552300 0.000000
-21.515100 0.000000
-21.477900 0.000000
-21.440700 0.000000
-21.403500 0.000000
-21.366300 0.000000
-21.329100 0.000000
-21.291900 0.000000
-21.254700 0.000000
-21.217500 0.000000
-21.180300 0.000000
-21.143100 0.000000
-21.105900 0.000000
-21.068700 0.000000
-21.031500 0.000000
-20.994300 0.000000
-20.957100 0.000000
-20.919900 0.000000
-20.882700 0.000000
-20.845500 0.000000
-20.808400 0.000000
-20.771200 0.000000
-20.734000 0.000000
-20.696800 0.000000
-20.659600 0.000000
-20.622400 0.000000
-20.585200 0.000000
-20.548000 0.000000
-20.510800 0.000000
-20.473600 0.000000
-20.436400 0.000000
-20.399200 0.000000
-20.362000 0.000000
-20.324800 0.000000
-20.287600 0.000000
-20.250400 0.000000
-20.213200 0.000000
-20.176000 0.000000
-20.138800 0.000000
-20.101600 0.000000
-20.064400 0.000000
-20.027200 0.000000
-19.990000 0.000000
-19.952800 0.000000
-19.915600 0.000000
-19.878400 0.000000
-19.841200 0.000000
-19.804000 0.000000
-19.766900 0.000000
-19.729700 0.000000
-19.692500 0.000000
-19.655300 0.000000
-19.618100 0.000000
-19.580900 0.000000
-19.543700 0.000000
-19.506500 0.000000
-19.469300 0.000000
-19.432100 0.000000
-19.394900 0.000000
-19.357700 0.000000
-19.320500 0.000000
-19.283300 0.000000
-19.246100 0.000000
-19.208900 0.000000
-19.171700 0.000000
-19.134500 0.000000
-19.097300 0.000000
-19.060100 0.000000
-19.022900 0.000000
-18.985700 0.000000
-18.948500 0.000000
-18.911300 0.000000
-18.874100 0.000000
-18.836900 0.000000
-18.799700 0.000000
-18.762600 0.000000
-18.725400 0.000000
-18.688200 0.000000
-18.651000 0.000000
-18.613800 0.000000
-18.576600 0.000000
-18.539400 0.000000
-18.502200 0.000000
-18.465000 0.000000
-18.427800 0.000000
-18.390600 0.000000
-18.353400 0.000000
-18.316200 0.000000
-18.279000 0.000000
-18.241800 0.000000
-18.204600 0.000000
-18.167400 0.000000
-18.130200 0.000000
-18.093000 0.000000
-18.055800 0.000000
-18.018600 0.000000
-17.981400 0.000000
-17.944200 0.000000
-17.907000 0.000000
-17.869800 0.000000
-17.832600 0.000000
-17.795400 0.000000
-17.758300 0.000000
-17.721100 0.000000
-17.683900 0.000000
-17.646700 0.000000
-17.609500 0.000000
-17.572300 0.000000
-17.535100 0.000000
-17.497900 0.000000
-17.460700 0.000000
-17.423500 0.000000
-17.386300 0.000000
-17.349100 0.000000
-17.311900 0.000000
-17.274700 0.000000
-17.237500 0.000000
-17.200300 0.000000
-17.163100 0.000000
-17.125900 0.000000
-17.088700 0.000000
-17.051500 0.000000
-17.014300 0.000000
-16.977100 0.000000
-16.939900 0.000000
-16.902700 0.000000
-16.865500 0.000000
-16.828300 0.000000
-16.791100 0.000000
-16.754000 0.000000
-16.716800 0.000000
-16.679600 0.000000
-16.642400 0.000000
-16.605200 0.000000
-16.568000 0.000000
-16.530800 0.000000
-16.493600 0.000000
-16.456400 0.000000
-16.419200 0.000000
-16.382000 0.000000
-16.344800 0.000000
-16.307600 0.000000
-16.270400 0.000000
-16.233200 0.000000
-16.196000 0.000000
-16.158800 0.000000
-16.121600 0.000000
-16.084400 0.000000
-16.047200 0.000000
-16.010000 0.000000
-15.972800 0.000000
-15.935600 0.000000
-15.898400 0.000000
-15.861200 0.000000
-15.824000 0.000000
-15.786800 0.000000
-15.749700 0.000000
-15.712500 0.000000
-15.675300 0.000000
-15.638100 0.000000
-15.600900 0.000000
-15.563700 0.000000
-15.526500 0.000000
-15.489300 0.000000
-15.452100 0.000000
-15.414900 0.000000
-15.377700 0.000000
-15.340500 0.000000
-15.303300 0.000000
-15.266100 0.000000
-15.228900 0.000000
-15.191700 0.000000
-15.154500 0.000000
-15.117300 0.000000
-15.080100 0.000000
-15.042900 0.000000
-15.005700 0.000000
-14.968500 0.000000
-14.931300 0.000000
-14.894100 0.000000
-14.856900 0.000000
-14.819700 0.000000
-14.782500 0.000000
-14.745400 0.000000
-14.708200 0.000000
-14.671000 0.000000
-14.633800 0.000000
-14.596600 0.000000
-14.559400 0.000000
-14.522200 0.000000
-14.485000 0.000000
-14.447800 0.000000
-14.410600 0.000000
-14.373400 0.000000
-14.336200 0.000000
-14.299000 0.000000
-14.261800 0.000000
-14.224600 0.000000
-14.187400 0.000000
-14.150200 0.000000
-14.113000 0.000000
-14.075800 0.000000
-14.038600 0.000000
-14.001400 0.000000
-13.964200 0.000000
-13.927000 0.000000
-13.889800 0.000000
-13.852600 0.000000
-13.815400 0.000000
-13.778200 0.000000
-13.741000 0.000000
-13.703900 0.000000
-13.666700 0.000000
-13.629500 0.000000
-13.592300 0.000000
-13.555100 0.000000
-13.517900 0.000000
-13.480700 0.000000
-13.443500 0.000000
-13.406300 0.000000
-13.369100 0.000000
-13.331900 0.000000
-13.294700 0.000000
-13.257500 0.000000
-13.220300 0.000000
-13.183100 0.000000
-13.145900 0.000000
-13.108700 0.000000
-13.071500 0.000000
-13.034300 0.000000
-12.997100 0.000000
-12.959900 0.000000
-12.922700 0.000000
-12.885500 0.000000
-12.848300 0.000000
-12.811100 0.000000
-12.773900 0.000000
-12.736700 0.000000
-12.699600 0.000000
-12.662400 0.000000
-12.625200 0.000000
-12.588000 0.000000
-12.550800 0.000000
-12.513600 0.000000
-12.476400 0.000000
-12.439200 0.000000
-12.402000 0.000000
-12.364800 0.000000
-12.327600 0.000000
-12.290400 0.000000
-12.253200 0.000000
-12.216000 0.000000
-12.178800 0.000000
-12.141600 0.000000
-12.104400 0.000000
-12.067200 0.000000
-12.030000 0.000000
-11.992800 0.000000
-11.955600 0.000000
-11.918400 0.000000
-11.881200 0.000000
-11.844000 0.000000
-11.806800 0.000000
-11.769600 0.000000
-11.732400 0.000000
-11.695300 0.000000
-11.658100 0.000000
-11.620900 0.000000
-11.583700 0.000000
-11.546500 0.000000
-11.509300 0.000000
-11.472100 0.000000
-11.434900 0.000000
-11.397700 0.000000
-11.360500 0.000000
-11.323300 0.000000
-11.286100 0.000000
-11.248900 0.000000
-11.211700 0.000000
-11.174500 0.000000
-11.137300 0.000000
-11.100100 0.000000
-11.062900 0.000000
-11.025700 0.000000
-10.988500 0.000000
-10.951300 0.000000
-10.914100 0.000000
-10.876900 0.000000
-10.839700 0.000000
-10.802500 0.000000
-10.765300 0.000000
-10.728100 0.000000
-10.691000 0.000000
-10.653800 0.000000
-10.616600 0.000000
-10.579400 0.000000
-10.542200 0.000000
-10.505000 0.000000
-10.467800 0.000000
-10.430600 0.000000
-10.393400 0.000000
-10.356200 0.000000
-10.319000 0.000000
-10.281800 0.000000
-10.244600 0.000000
-10.207400 0.000000
-10.170200 0.134500
-10.133000 0.496200
-10.095800 0.790500
-10.058600 1.080700
-10.021400 1.300400
-9.984200 1.557300
-9.947000 1.839000
-9.909800 2.133900
-9.872600 2.580200
-9.835400 3.570400
-9.798200 4.449600
-9.761000 4.593900
-9.723800 5.072400
-9.686700 5.664200
-9.649500 6.250600
-9.612300 7.126300
-9.575100 7.486900
-9.537900 6.709000
-9.500700 5.882500
-9.463500 4.766100
-9.426300 3.963900
-9.389100 3.420300
-9.351900 2.457100
-9.314700 2.164500
-9.277500 1.500200
-9.240300 1.434200
-9.203100 1.452400
-9.165900 2.290100
-9.128700 3.053000
-9.091500 2.902100
-9.054300 2.766600
-9.017100 2.705500
-8.979900 2.910400
-8.942700 3.367400
-8.905500 3.390300
-8.868300 3.552700
-8.831100 3.514300
-8.793900 3.569300
-8.756700 3.649700
-8.719500 3.711300
-8.682300 3.748700
-8.645200 3.723400
-8.608000 3.836700
-8.570800 4.013500
-8.533600 4.312700
-8.496400 4.856000
-8.459200 6.097600
-8.422000 7.681900
-8.384800 7.203200
-8.347600 6.475400
-8.310400 6.464500
-8.273200 10.162100
-8.236000 8.083300
-8.198800 6.742900
-8.161600 6.415600
-8.124400 5.831200
-8.087200 6.972600
-8.050000 9.634700
-8.012800 8.623200
-7.975600 8.271900
-7.938400 8.160000
-7.901200 7.938200
-7.864000 7.174800
-7.826800 6.797400
-7.789600 5.264200
-7.752400 4.527900
-7.715200 4.045900
-7.678000 3.694200
-7.640900 3.425400
-7.603700 2.984800
-7.566500 2.840100
-7.529300 2.604500
-7.492100 1.837200
-7.454900 1.448700
-7.417700 0.688100
-7.380500 0.000000
-7.343300 0.000000
-7.306100 0.000000
-7.268900 0.000000
-7.231700 0.000000
-7.194500 0.000000
-7.157300 0.000000
-7.120100 0.000000
-7.082900 0.000000
-7.045700 0.000000
-7.008500 0.000000
-6.971300 0.000000
-6.934100 0.000000
-6.896900 0.000000
-6.859700 0.000000
-6.822500 0.000000
-6.785300 0.000000
-6.748100 0.000000
-6.710900 0.000000
-6.673700 0.000000
-6.636600 0.000000
-6.599400 0.000000
-6.562200 0.000000
-6.525000 0.000000
-6.487800 0.000000
-6.450600 0.000000
-6.413400 0.000000
-6.376200 0.000000
-6.339000 0.000000
-6.301800 0.000000
-6.264600 0.000000
-6.227400 0.000000
-6.190200 0.000000
-6.153000 0.000000
-6.115800 0.000000
-6.078600 0.000000
-6.041400 0.000000
-6.004200 0.000000
-5.967000 0.000000
-5.929800 0.000000
-5.892600 0.000000
-5.855400 0.000000
-5.818200 0.000000
-5.781000 0.000000
-5.743800 0.000000
-5.706600 0.000000
-5.669400 0.000000
-5.632300 0.000000
-5.595100 0.000000
-5.557900 0.000000
-5.520700 0.000000
-5.483500 0.000000
-5.446300 0.000000
-5.409100 0.000000
-5.371900 0.000000
-5.334700 0.000000
-5.297500 0.000000
-5.260300 0.000000
-5.223100 0.000000
-5.185900 0.000000
-5.148700 0.000000
-5.111500 0.000000
-5.074300 0.000000
-5.037100 0.000000
-4.999900 0.000000
-4.962700 0.000000
-4.925500 0.000000
-4.888300 0.000000
-4.851100 0.000000
-4.813900 0.000000
-4.776700 0.000000
-4.739500 0.000000
-4.702300 0.000000
-4.665100 0.000000
-4.628000 0.000000
-4.590800 0.000000
-4.553600 0.000000
-4.516400 0.000000
-4.479200 0.000000
-4.442000 0.000000
-4.404800 0.000000
-4.367600 0.000000
-4.330400 0.000000
-4.293200 0.000000
-4.256000 0.000000
-4.218800 0.000000
-4.181600 0.000000
-4.144400 0.000000
-4.107200 0.000000
-4.070000 0.000000
-4.032800 0.000000
-3.995600 0.000000
-3.958400 0.000000
-3.921200 0.000000
-3.884000 0.000000
-3.846800 0.000000
-3.809600 0.000000
-3.772400 0.000000
-3.735200 0.000000
-3.698000 0.000000
-3.660800 0.000000
-3.623700 0.000000
-3.586500 0.000000
-3.549300 0.000000
-3.512100 0.000000
-3.474900 0.000000
-3.437700 0.000000
-3.400500 0.000000
-3.363300 0.000000
-3.326100 0.000000
-3.288900 0.000000
-3.251700 0.000000
-3.214500 0.000000
-3.177300 0.000000
-3.140100 0.000000
-3.102900 0.000000
-3.065700 0.000000
-3.028500 0.000000
-2.991300 0.000000
-2.954100 0.000000
-2.916900 0.000000
-2.879700 0.000000
-2.842500 0.000000
-2.805300 0.000000
-2.768100 0.000000
-2.730900 0.000000
-2.693700 0.000000
-2.656500 0.000000
-2.619300 0.000000
-2.582200 0.000000
-2.545000 0.000000
-2.507800 0.000000
-2.470600 0.000000
-2.433400 0.000000
-2.396200 0.000000
-2.359000 0.000000
-2.321800 0.000000
-2.284600 0.000000
-2.247400 0.000000
-2.210200 0.000000
-2.173000 0.000000
-2.135800 0.000000
-2.098600 0.000000
-2.061400 0.000000
-2.024200 0.000000
-1.987000 0.000000
-1.949800 0.000000
-1.912600 0.000000
-1.875400 0.000000
-1.838200 0.000000
-1.801000 0.000000
-1.763800 0.000000
-1.726600 0.000000
-1.689400 0.000000
-1.652200 0.000000
-1.615000 0.000000
-1.577900 0.000000
-1.540700 0.000000
-1.503500 0.000000
-1.466300 0.000000
-1.429100 0.000000
-1.391900 0.000000
-1.354700 0.000000
-1.317500 0.000000
-1.280300 0.000000
-1.243100 0.000000
-1.205900 0.000000
-1.168700 0.000000
-1.131500 0.000000
-1.094300 0.000000
-1.057100 0.000000
-1.019900 0.000000
-0.982700 0.000000
-0.945500 0.000000
-0.908300 0.000000
-0.871100 0.000000
-0.833900 0.000000
-0.796700 0.000000
-0.759500 0.000000
-0.722300 0.000000
-0.685100 0.000000
-0.647900 0.000000
-0.610700 0.000000
-0.573600 0.000000
-0.536400 0.000000
-0.499200 0.000000
-0.462000 0.000000
-0.424800 0.000000
-0.387600 0.000000
-0.350400 0.000000
-0.313200 0.000000
-0.276000 0.000000
-0.238800 0.000000
-0.201600 0.000000
-0.164400 0.000000
-0.127200 0.000000
-0.090000 0.000000
-0.052800 0.000000
-0.015600 0.000000
0.021600 0.000000
0.058800 0.000000
0.096000 0.000000
0.133200 0.000000
0.170400 0.000000
0.207600 0.000000
0.244800 0.000000
0.282000 0.000000
0.319200 0.000000
0.356400 0.000000
0.393600 0.000000
0.430700 0.000000
0.467900 0.000000
0.505100 0.000000
0.542300 0.000000
0.579500 0.000000
0.616700 0.000000
0.653900 0.000000
0.691100 0.000000
0.728300 0.000000
0.765500 0.000000
0.802700 0.000000
0.839900 0.000000
0.877100 0.000000
0.914300 0.000000
0.951500 0.000000
0.988700 0.000000
1.025900 0.000000
1.063100 0.000000
1.100300 0.000000
1.137500 0.000000
1.174700 0.000000
1.211900 0.000000
1.249100 0.000000
1.286300 0.000000
1.323500 0.000000
1.360700 0.000000
1.397900 0.000000
1.435000 0.000000
1.472200 0.000000
1.509400 0.000000
1.546600 0.000000
1.583800 0.000000
1.621000 0.000000
1.658200 0.000000
1.695400 0.000000
1.732600 0.000000
1.769800 0.000000
1.807000 0.000000
1.844200 0.000000
1.881400 0.000000
1.918600 0.000000
1.955800 0.000000
1.993000 0.000000
2.030200 0.000000
2.067400 0.000000
2.104600 0.000000
2.141800 0.000000
2.179000 0.000000
2.216200 0.000000
2.253400 0.000000
2.290600 0.000000
2.327800 0.000000
2.365000 0.000000
2.402200 0.000000
2.439300 0.000000
2.476500 0.000000
2.513700 0.000000
2.550900 0.000000
2.588100 0.000000
2.625300 0.000000
2.662500 0.000000
2.699700 0.000000
2.736900 0.000000
2.774100 0.000000
2.811300 0.000000
2.848500 0.000000
2.885700 0.000000
2.922900 0.000000
2.960100 0.000000
2.997300 0.000000
3.034500 0.000000
3.071700 0.000000
3.108900 0.000000
3.146100 0.000000
3.183300 0.000000
3.220500 0.000000
3.257700 0.000000
3.294900 0.000000
3.332100 0.000000
3.369300 0.000000
3.406500 0.000000
3.443700 0.000000
3.480800 0.000000
3.518000 0.000000
3.555200 0.000000
3.592400 0.000000
3.629600 0.000000
3.666800 0.000000
3.704000 0.000000
3.741200 0.000000
3.778400 0.000000
3.815600 0.000000
3.852800 0.000000
3.890000 0.000000
3.927200 0.000000
3.964400 0.000000
4.001600 0.000000
4.038800 0.000000
4.076000 0.000000
4.113200 0.000000
4.150400 0.000000
4.187600 0.000000
4.224800 0.000000
4.262000 0.000000
4.299200 0.000000
4.336400 0.000000
4.373600 0.000000
4.410800 0.000000
4.448000 0.000000
4.485100 0.000000
4.522300 0.000000
4.559500 0.001800
4.596700 0.006300
4.633900 0.012200
4.671100 0.019600
4.708300 0.028200
4.745500 0.037400
4.782700 0.047200
4.819900 0.057600
4.857100 0.060300
4.894300 0.061200
4.931500 0.065100
4.968700 0.069900
5.005900 0.074500
5.043100 0.079000
5.080300 0.083500
5.117500 0.088400
5.154700 0.093600
5.191900 0.099000
5.229100 0.104500
5.266300 0.110200
5.303500 0.116100
5.340700 0.122300
5.377900 0.128600
5.415100 0.135100
5.452300 0.141900
5.489400 0.148800
5.526600 0.168500
5.563800 0.218600
5.601000 0.287800
5.638200 0.372100
5.675400 0.443600
5.712600 0.495800
5.749800 0.544100
5.787000 0.595200
5.824200 0.648600
5.861400 0.703000
5.898600 0.755200
5.935800 0.801900
5.973000 0.883300
6.010200 0.996700
6.047400 1.130300
6.084600 1.273900
6.121800 1.408300
6.159000 1.526100
6.196200 1.627600
6.233400 1.720300
6.270600 1.810300
6.307800 1.907200
6.345000 1.998500
6.382200 2.076200
6.419400 2.154700
6.456600 2.281100
6.493700 2.441500
6.530900 2.629400
6.568100 2.811900
6.605300 3.006700
6.642500 3.111700
6.679700 3.159100
6.716900 3.181400
6.754100 3.228500
6.791300 3.490500
6.828500 3.601400
6.865700 3.597700
6.902900 3.572200
6.940100 3.536900
6.977300 3.449500
7.014500 3.455300
7.051700 3.554000
7.088900 3.590000
7.126100 3.585500
7.163300 3.682100
7.200500 3.735600
7.237700 3.435000
7.274900 3.366300
7.312100 3.400900
7.349300 3.247900
7.386500 3.202000
7.423700 2.925300
7.460900 2.430500
7.498000 2.289600
7.535200 2.117700
7.572400 1.957100
7.609600 1.830600
7.646800 1.793400
7.684000 2.038500
7.721200 1.907900
7.758400 2.003600
7.795600 2.219100
7.832800 2.068900
7.870000 2.104900
7.907200 2.331800
7.944400 3.063800
7.981600 3.718600
8.018800 4.200600
8.056000 5.211500
8.093200 5.598700
8.130400 5.475100
8.167600 4.963200
8.204800 4.812400
8.242000 4.659900
8.279200 4.216600
8.316400 4.025800
8.353600 3.598400
8.390800 3.210600
8.428000 3.042000
8.465200 2.877900
8.502400 3.092900
8.539500 3.450800
8.576700 3.821900
8.613900 3.987200
8.651100 4.675300
8.688300 5.741700
8.725500 5.609000
8.762700 5.499900
8.799900 6.021800
8.837100 6.362100
8.874300 7.133700
8.911500 9.108500
8.948700 9.931600
8.985900 12.626900
9.023100 16.084500
9.060300 14.154400
9.097500 17.251800
9.134700 19.876600
9.171900 20.951700
9.209100 19.997000
9.246300 22.460100
9.283500 27.583800
9.320700 39.093100
9.357900 18.420000
9.395100 16.833900
9.432300 10.533000
9.469500 7.325400
9.506700 11.677600
9.543800 7.988000
9.581000 6.808100
9.618200 5.320900
9.655400 4.170700
9.692600 4.648700
9.729800 5.209800
9.767000 4.879900
9.804200 4.023300
9.841400 3.707000
9.878600 4.344100
9.915800 4.723500
9.953000 5.225100
9.990200 5.931500
10.027400 7.073500
10.064600 8.117200
10.101800 8.535100
10.139000 7.425500
10.176200 7.002200
10.213400 7.209000
10.250600 7.934800
10.287800 7.457800
10.325000 7.503800
10.362200 7.796400
10.399400 7.671500
10.436600 7.232800
10.473800 6.855200
10.511000 6.607900
10.548100 7.988200
10.585300 7.487900
10.622500 7.586800
10.659700 10.904700
10.696900 8.142000
10.734100 8.202800
10.771300 9.736000
10.808500 11.409400
10.845700 10.810900
10.882900 7.924200
10.920100 7.341600
10.957300 8.522200
10.994500 7.923200
11.031700 6.108500
11.068900 6.531300
11.106100 4.915200
11.143300 3.102600
11.180500 2.643500
11.217700 2.614300
11.254900 2.663000
11.292100 2.777700
11.329300 2.963800
11.366500 3.416600
11.403700 4.087400
11.440900 5.098600
11.478100 6.677100
11.515300 7.264800
11.552400 7.285600
11.589600 7.360500
11.626800 5.777100
11.664000 6.664800
11.701200 8.288700
11.738400 9.789900
11.775600 10.233400
11.812800 12.152500
11.850000 11.325000
11.887200 10.898400
11.924400 7.001000
11.961600 9.340500
11.998800 8.606700
12.036000 8.528000
12.073200 7.701100
12.110400 6.205600
12.147600 5.067600
12.184800 4.850400
12.222000 4.654100
12.259200 4.764200
12.296400 5.143900
12.333600 4.928200
12.370800 4.267500
12.408000 3.363100
12.445200 2.776700
12.482400 2.274200
12.519600 1.877900
12.556700 2.204300
12.593900 2.280200
12.631100 2.794600
12.668300 3.078500
12.705500 3.239800
12.742700 3.315300
12.779900 3.440300
12.817100 3.434400
12.854300 3.383200
12.891500 3.339500
12.928700 3.078300
12.965900 2.870400
13.003100 2.700800
13.040300 2.433000
13.077500 2.392400
13.114700 2.319000
13.151900 2.101700
13.189100 2.091800
13.226300 2.159000
13.263500 2.294900
13.300700 2.327400
13.337900 2.194600
13.375100 2.197400
13.412300 2.243500
13.449500 2.204300
13.486700 2.100400
13.523900 2.141000
13.561000 2.161900
13.598200 2.172900
13.635400 2.177100
13.672600 2.176500
13.709800 2.055600
13.747000 2.003900
13.784200 1.957500
13.821400 1.912600
13.858600 1.863100
13.895800 1.806000
13.933000 1.753000
13.970200 1.721800
14.007400 1.700700
14.044600 1.685600
14.081800 1.671300
14.119000 1.652000
14.156200 1.632700
14.193400 1.615400
14.230600 1.580000
14.267800 1.554300
14.305000 1.533500
14.342200 1.520600
14.379400 1.514700
14.416600 1.525200
14.453800 1.532200
14.491000 1.533300
14.528200 1.529800
14.565400 1.522900
14.602500 1.534100
14.639700 1.539400
14.676900 1.534100
14.714100 1.527400
14.751300 1.526800
14.788500 1.520100
14.825700 1.508500
14.862900 1.509000
14.900100 1.511700
14.937300 1.516300
14.974500 1.531100
15.011700 1.545000
15.048900 1.560700
15.086100 1.578500
15.123300 1.597900
15.160500 1.618300
15.197700 1.656000
15.234900 1.691700
15.272100 1.721900
15.309300 1.747600
15.346500 1.774200
15.383700 1.786600
15.420900 1.807200
15.458100 1.820400
15.495300 1.854300
15.532500 1.945800
15.569700 1.942600
15.606800 2.009200
15.644000 1.987200
15.681200 1.978700
15.718400 1.993200
15.755600 1.993500
15.792800 1.982800
15.830000 1.971100
15.867200 1.956400
15.904400 1.939400
15.941600 1.959000
15.978800 2.037100
16.016000 2.179000
16.053200 2.211900
16.090400 2.256500
16.127600 2.375100
16.164800 2.282500
16.202000 2.306000
16.239200 2.224600
16.276400 2.052200
16.313600 1.954400
16.350800 1.922400
16.388000 1.892000
16.425200 1.891000
16.462400 1.924500
16.499600 1.932700
16.536800 1.935900
16.574000 1.954300
16.611100 2.012400
16.648300 1.975100
16.685500 1.910000
16.722700 1.864200
16.759900 1.756800
16.797100 1.633000
16.834300 1.514500
16.871500 1.245000
16.908700 1.008800
16.945900 0.954400
16.983100 0.905300
17.020300 0.882700
17.057500 0.888600
17.094700 0.899400
17.131900 0.904600
17.169100 0.900700
17.206300 0.912100
17.243500 0.937400
17.280700 0.980800
17.317900 1.009100
17.355100 1.022200
17.392300 1.020700
17.429500 1.015200
17.466700 1.014700
17.503900 1.027500
17.541100 1.012400
17.578300 0.990200
17.615400 0.973300
17.652600 0.957700
17.689800 0.949700
17.727000 0.955100
17.764200 0.962200
17.801400 0.971400
17.838600 0.984000
17.875800 1.000000
17.913000 1.019000
17.950200 1.041300
17.987400 1.081800
18.024600 1.158300
18.061800 1.269200
18.099000 1.441100
18.136200 1.640900
18.173400 1.691800
18.210600 1.676900
18.247800 1.723500
18.285000 1.800900
18.322200 1.971400
18.359400 2.600800
18.396600 1.676700
18.433800 1.425500
18.471000 1.242700
18.508200 1.056700
18.545400 0.878800
18.582600 0.796600
18.619700 0.739100
18.656900 0.728200
18.694100 0.816800
18.731300 0.877300
18.768500 0.922300
18.805700 0.954900
18.842900 0.975800
18.880100 0.985000
18.917300 0.999100
18.954500 0.991500
18.991700 0.997000
19.028900 0.966500
19.066100 0.921600
19.103300 0.879400
19.140500 0.840300
19.177700 0.802600
19.214900 0.741700
19.252100 0.707900
19.289300 0.684700
19.326500 0.667900
19.363700 0.658300
19.400900 0.651100
19.438100 0.613100
19.475300 0.586600
19.512500 0.566600
19.549700 0.567100
19.586900 0.575800
19.624100 0.592200
19.661200 0.612400
19.698400 0.634500
19.735600 0.648500
19.772800 0.691400
19.810000 0.806000
19.847200 0.945600
19.884400 1.282100
19.921600 1.766100
19.958800 2.228600
19.996000 2.412200
20.033200 2.551400
20.070400 2.502200
20.107600 2.289300
20.144800 2.057200
20.182000 2.076000
20.219200 2.036300
20.256400 1.995000
20.293600 1.893500
20.330800 1.897900
20.368000 1.947100
20.405200 1.978400
20.442400 1.978300
20.479600 1.930400
20.516800 1.896900
20.554000 1.891500
20.591200 1.916100
20.628400 1.866800
20.665500 1.831300
20.702700 1.751200
20.739900 1.726600
20.777100 1.713600
20.814300 1.761000
20.851500 1.742300
20.888700 1.742500
20.925900 1.780300
20.963100 1.780300
21.000300 1.782300
21.037500 1.791100
21.074700 1.824700
21.111900 1.899800
21.149100 1.951700
21.186300 1.989700
21.223500 2.027300
21.260700 2.095600
21.297900 2.117800
21.335100 2.129900
21.372300 2.074100
21.409500 2.039400
21.446700 2.053900
21.483900 2.066100
21.521100 2.015900
21.558300 1.881100
21.595500 1.802700
21.632700 1.766400
21.669800 1.765700
21.707000 1.851700
21.744200 1.906800
21.781400 1.844600
21.818600 1.791900
21.855800 1.768000
21.893000 1.747700
21.930200 1.709000
21.967400 1.709800
22.004600 1.723500
22.041800 1.735300
22.079000 1.727000
22.116200 1.715300
22.153400 1.680400
22.190600 1.657500
22.227800 1.609200
22.265000 1.564500
22.302200 1.550500
22.339400 1.552700
22.376600 1.567400
22.413800 1.582400
22.451000 1.586600
22.488200 1.588600
22.525400 1.595500
22.562600 1.611900
22.599800 1.633600
22.637000 1.662600
22.674100 1.647000
22.711300 1.684700
22.748500 1.776700
22.785700 1.917200
22.822900 2.067700
22.860100 2.025600
22.897300 1.992600
22.934500 2.010000
22.971700 2.026300
23.008900 2.082700
23.046100 2.074200
23.083300 2.092200
23.120500 1.935200
23.157700 1.915800
23.194900 1.914600
23.232100 1.935900
23.269300 1.923200
23.306500 1.899700
23.343700 1.877100
23.380900 1.887400
23.418100 1.831200
23.455300 1.802700
23.492500 1.782000
23.529700 1.783000
23.566900 1.815400
23.604100 1.890000
23.641300 1.967900
23.678400 2.032800
23.715600 2.204200
23.752800 2.380400
23.790000 2.074700
23.827200 1.807600
23.864400 1.657900
23.901600 1.734900
23.938800 1.896300
23.976000 2.202600
24.013200 2.539300
24.050400 2.893100
24.087600 2.957300
24.124800 3.023100
24.162000 3.152000
24.199200 3.162200
24.236400 3.424900
24.273600 3.545900
24.310800 3.682500
24.348000 3.541200
24.385200 2.948300
24.422400 2.550200
24.459600 2.383200
24.496800 2.350000
24.534000 2.296900
24.571200 2.288500
24.608400 2.284600
24.645600 2.261400
24.682700 1.909600
24.719900 1.662800
24.757100 1.527300
24.794300 1.380200
24.831500 1.256800
24.868700 1.202700
24.905900 1.199700
24.943100 1.215600
24.980300 1.237400
25.017500 1.295600
25.054700 1.399900
25.091900 1.545300
25.129100 1.741100
25.166300 1.972800
25.203500 2.153400
25.240700 2.201700
25.277900 2.366400
25.315100 2.531500
25.352300 2.690100
25.389500 2.874900
25.426700 2.942900
25.463900 2.987100
25.501100 2.991800
25.538300 2.870700
25.575500 2.658100
25.612700 2.472000
25.649900 2.458200
25.687100 2.446200
25.724200 2.418700
25.761400 2.286900
25.798600 2.218900
25.835800 2.137500
25.873000 2.153100
25.910200 2.378100
25.947400 2.348900
25.984600 2.362300
26.021800 2.451400
26.059000 2.557000
26.096200 2.730000
26.133400 2.803400
26.170600 2.929000
26.207800 3.057200
26.245000 3.067700
26.282200 3.041400
26.319400 3.066100
26.356600 3.050900
26.393800 2.906500
26.431000 2.696400
26.468200 2.596100
26.505400 2.515500
26.542600 2.403700
26.579800 2.330000
26.617000 2.248500
26.654200 2.145400
26.691400 2.105300
26.728500 2.108400
26.765700 2.066700
26.802900 1.984900
26.840100 1.864500
26.877300 1.876500
26.914500 1.882000
26.951700 1.865400
26.988900 1.859700
27.026100 1.914400
27.063300 1.968300
27.100500 2.006300
27.137700 2.084200
27.174900 2.180700
27.212100 2.291700
27.249300 2.342200
27.286500 2.320600
27.323700 1.959400
27.360900 1.577900
27.398100 1.446400
27.435300 1.286600
27.472500 1.115400
27.509700 1.066600
27.546900 1.057400
27.584100 1.066600
27.621300 1.093500
27.658500 1.144200
27.695700 1.211100
27.732800 1.322100
27.770000 1.446200
27.807200 1.651100
27.844400 1.973700
27.881600 2.174000
27.918800 2.298100
27.956000 2.317800
27.993200 2.259400
28.030400 2.162800
28.067600 2.107400
28.104800 2.086900
28.142000 2.109700
28.179200 2.152900
28.216400 2.183100
28.253600 2.253200
28.290800 2.313500
28.328000 2.346400
28.365200 2.332800
28.402400 2.368300
28.439600 2.432100
28.476800 2.456000
28.514000 2.461000
28.551200 2.474500
28.588400 2.475900
28.625600 2.378800
28.662800 2.367900
28.700000 2.339900
28.737100 2.245200
28.774300 2.175400
28.811500 2.134400
28.848700 2.102100
28.885900 2.128800
28.923100 2.134400
28.960300 2.202200
28.997500 2.265200
29.034700 2.293900
29.071900 2.326800
29.109100 2.437100
29.146300 2.577100
29.183500 2.634100
29.220700 2.600000
29.257900 2.452500
29.295100 2.397700
29.332300 2.356600
29.369500 2.273700
29.406700 2.132800
29.443900 2.096000
29.481100 2.092800
29.518300 2.101400
29.555500 2.124400
29.592700 2.182300
29.629900 2.252600
29.667100 2.335700
29.704300 2.428300
29.741400 2.542500
29.778600 2.711100
29.815800 2.718900
29.853000 2.787400
29.890200 2.778400
29.927400 2.746600
29.964600 2.851300
30.001800 2.777700
30.039000 2.703500
30.076200 2.641600
30.113400 2.576500
30.150600 2.487100
30.187800 2.409900
30.225000 2.302400
30.262200 2.241400
30.299400 2.158500
30.336600 2.122200
30.373800 2.172800
30.411000 2.271700
30.448200 2.369300
30.485400 2.593800
30.522600 2.407600
30.559800 2.405700
30.597000 2.463200
30.634200 2.486900
30.671400 2.513600
30.708600 2.554800
30.745700 2.607200
30.782900 2.666300
30.820100 2.838900
30.857300 2.897000
30.894500 2.957600
30.931700 2.932200
30.968900 2.951200
31.006100 2.989300
31.043300 3.014400
31.080500 2.993200
31.117700 3.053100
31.154900 3.112800
31.192100 3.057300
31.229300 2.994800
31.266500 2.918900
31.303700 2.840300
31.340900 2.765400
31.378100 2.709700
31.415300 2.703400
31.452500 2.712000
31.489700 2.733000
31.526900 2.692000
31.564100 2.630900
31.601300 2.574400
31.638500 2.520200
31.675700 2.402600
31.712900 2.351600
31.750100 2.328000
31.787200 2.260700
31.824400 2.249400
31.861600 2.118800
31.898800 2.009200
31.936000 1.888900
31.973200 1.841000
32.010400 1.823200
32.047600 1.883300
32.084800 1.812200
32.122000 1.758500
32.159200 1.683000
32.196400 1.606600
32.233600 1.568300
32.270800 1.565900
32.308000 1.498700
32.345200 1.369100
32.382400 1.283500
32.419600 1.217900
32.456800 1.199900
32.494000 1.137900
32.531200 0.996700
32.568400 0.931900
32.605600 0.878700
32.642800 0.841200
32.680000 0.793700
32.717200 0.751700
32.754400 0.712100
32.791500 0.672700
32.828700 0.633400
32.865900 0.596100
32.903100 0.561700
32.940300 0.531300
32.977500 0.502600
33.014700 0.475100
33.051900 0.449000
33.089100 0.399600
33.126300 0.360700
33.163500 0.359900
33.200700 0.362700
33.237900 0.339600
33.275100 0.264300
33.312300 0.179500
33.349500 0.116500
33.386700 0.096100
33.423900 0.085900
33.461100 0.083200
33.498300 0.080700
33.535500 0.078200
33.572700 0.075900
33.609900 0.073700
33.647100 0.071500
33.684300 0.069500
33.721500 0.067500
33.758700 0.065700
33.795800 0.064000
33.833000 0.062400
33.870200 0.060900
33.907400 0.059800
33.944600 0.058800
33.981800 0.057800
34.019000 0.056800
34.056200 0.055800
34.093400 0.054900
34.130600 0.054000
34.167800 0.053000
34.205000 0.052100
34.242200 0.051200
34.279400 0.050300
34.316600 0.049400
34.353800 0.048400
34.391000 0.047600
34.428200 0.046800
34.465400 0.056400
34.502600 0.065200
34.539800 0.070500
34.577000 0.072400
34.614200 0.070900
34.651400 0.064300
34.688600 0.056900
34.725800 0.050400
34.763000 0.044700
34.800100 0.039800
34.837300 0.035700
34.874500 0.032400
34.911700 0.029900
34.948900 0.027800
34.986100 0.026000
35.023300 0.024300
35.060500 0.022800
35.097700 0.021500
35.134900 0.020400
35.172100 0.019500
35.209300 0.018800
35.246500 0.018300
35.283700 0.017700
35.320900 0.017000
35.358100 0.016300
35.395300 0.015700
35.432500 0.015000
35.469700 0.014300
35.506900 0.013600
35.544100 0.013000
35.581300 0.012300
35.618500 0.011800
35.655700 0.011300
35.692900 0.010800
35.730100 0.010300
35.767300 0.009800
35.804400 0.009300
35.841600 0.008900
35.878800 0.008500
35.916000 0.008000
35.953200 0.007600
35.990400 0.007200
36.027600 0.006800
36.064800 0.006500
36.102000 0.006100
36.139200 0.005800
36.176400 0.005400
36.213600 0.005100
36.250800 0.004800
36.288000 0.004500
36.325200 0.004200
36.362400 0.003900
36.399600 0.003700
36.436800 0.003400
36.474000 0.003100
36.511200 0.002900
36.548400 0.002600
36.585600 0.002400
36.622800 0.002200
36.660000 0.001900
36.697200 0.001700
36.734400 0.001500
36.771600 0.001300
36.808800 0.001200
36.845900 0.001000
36.883100 0.000800
36.920300 0.000700
36.957500 0.000500
36.994700 0.000400
37.031900 0.000200
37.069100 0.000100
37.106300 0.000000
37.143500 0.000000
37.180700 0.000000
37.217900 0.000000
37.255100 0.000000
37.292300 0.000000
37.329500 0.000000
37.366700 0.000000
37.403900 0.000000
37.441100 0.000000
37.478300 0.000000
37.515500 0.000000
37.552700 0.000000
37.589900 0.000000
37.627100 0.000000
37.664300 0.000000
37.701500 0.000000
37.738700 0.000000
37.775900 0.000000
37.813100 0.000000
37.850200 0.000000
37.887400 0.000000
37.924600 0.000000
37.961800 0.000000
37.999000 0.000000
38.036200 0.000000
38.073400 0.000000
38.110600 0.000000
38.147800 0.000000
38.185000 0.000000
38.222200 0.000000
38.259400 0.000000
38.296600 0.000000
38.333800 0.000000
38.371000 0.000000
38.408200 0.000000
38.445400 0.000000
38.482600 0.000000
38.519800 0.000000
38.557000 0.000000
38.594200 0.000000
38.631400 0.000000
38.668600 0.000000
38.705800 0.000000
38.743000 0.000000
38.780200 0.000000
38.817400 0.000000
38.854500 0.000000
38.891700 0.000000
38.928900 0.000000
38.966100 0.000000
39.003300 0.000000
39.040500 0.000000
39.077700 0.000000
39.114900 0.000000
39.152100 0.000000
39.189300 0.000000
39.226500 0.000000
39.263700 0.000000
39.300900 0.000000
39.338100 0.000000
39.375300 0.000000
39.412500 0.000000
39.449700 0.000000
39.486900 0.000000
39.524100 0.000000
39.561300 0.000000
39.598500 0.000000
39.635700 0.000000
39.672900 0.000000
39.710100 0.000000
39.747300 0.000000
39.784500 0.000000
39.821700 0.000000
39.858800 0.000000
39.896000 0.000000
39.933200 0.000000
39.970400 0.000000
40.007600 0.000000
40.044800 0.000000
40.082000 0.000000
40.119200 0.000000
40.156400 0.000000
40.193600 0.000000
40.230800 0.000000
40.268000 0.000000
40.305200 0.000000
40.342400 0.000000
40.379600 0.000000
40.416800 0.000000
40.454000 0.000000
40.491200 0.000000
e
