set title 'mp-862868 - Density of States'
set xlabel 'Energy (eV)'
set ylabel 'DOS (states/eV)'
set grid
set xrange [-10:10]
set yrange [0:52.266]
set xzeroaxis lt -1
set terminal png size 800,600
set output 'mp-862868_dos_gnuplot.png'
plot '-' using 1:2 with lines title 'DOS'
-17.535600 0.000000
-17.517600 0.000000
-17.499500 0.000000
-17.481400 0.000000
-17.463400 0.000000
-17.445300 0.000000
-17.427200 0.000000
-17.409200 0.000000
-17.391100 0.000000
-17.373000 0.000000
-17.355000 0.000000
-17.336900 0.000000
-17.318800 0.000000
-17.300800 0.000000
-17.282700 0.000000
-17.264600 0.000000
-17.246600 0.000000
-17.228500 0.000000
-17.210400 0.000000
-17.192400 0.000000
-17.174300 0.000000
-17.156200 0.000000
-17.138200 0.000000
-17.120100 0.000000
-17.102000 0.000000
-17.084000 0.000000
-17.065900 0.000000
-17.047800 0.000000
-17.029800 0.000000
-17.011700 0.000000
-16.993600 0.000000
-16.975600 0.000000
-16.957500 0.000000
-16.939400 0.000000
-16.921400 0.000000
-16.903300 0.000000
-16.885200 0.000000
-16.867200 0.000000
-16.849100 0.000000
-16.831000 0.000000
-16.813000 0.000000
-16.794900 0.000000
-16.776800 0.000000
-16.758800 0.000000
-16.740700 0.000000
-16.722600 0.000000
-16.704600 0.000000
-16.686500 0.000000
-16.668400 0.000000
-16.650400 0.000000
-16.632300 0.000000
-16.614300 0.000000
-16.596200 0.000000
-16.578100 0.000000
-16.560100 0.000000
-16.542000 0.000000
-16.523900 0.000000
-16.505900 0.000000
-16.487800 0.000000
-16.469700 0.000000
-16.451700 0.000000
-16.433600 0.000000
-16.415500 0.000000
-16.397500 0.000000
-16.379400 0.000000
-16.361300 0.000000
-16.343300 0.000000
-16.325200 0.000000
-16.307100 0.000000
-16.289100 0.000000
-16.271000 0.000000
-16.252900 0.000000
-16.234900 0.000000
-16.216800 0.000000
-16.198700 0.000000
-16.180700 0.000000
-16.162600 0.000000
-16.144500 0.000000
-16.126500 0.000000
-16.108400 0.000000
-16.090300 0.000000
-16.072300 0.000000
-16.054200 0.000000
-16.036100 0.000000
-16.018100 0.000000
-16.000000 0.000000
-15.981900 0.000000
-15.963900 0.000000
-15.945800 0.000000
-15.927700 0.000000
-15.909700 0.000000
-15.891600 10.471200
-15.873500 118.227200
-15.855500 90.622400
-15.837400 96.345200
-15.819300 465.806800
-15.801300 3488.288000
-15.783200 0.000000
-15.765100 0.000000
-15.747100 0.000000
-15.729000 0.000000
-15.710900 0.000000
-15.692900 0.000000
-15.674800 0.000000
-15.656700 0.000000
-15.638700 0.000000
-15.620600 0.000000
-15.602500 0.000000
-15.584500 0.000000
-15.566400 0.000000
-15.548300 0.000000
-15.530300 0.000000
-15.512200 0.000000
-15.494100 0.000000
-15.476100 0.000000
-15.458000 0.000000
-15.439900 0.000000
-15.421900 0.000000
-15.403800 0.000000
-15.385800 0.000000
-15.367700 0.000000
-15.349600 0.000000
-15.331600 0.000000
-15.313500 0.000000
-15.295400 0.000000
-15.277400 0.000000
-15.259300 0.000000
-15.241200 0.000000
-15.223200 0.000000
-15.205100 0.000000
-15.187000 0.000000
-15.169000 0.000000
-15.150900 0.000000
-15.132800 0.000000
-15.114800 0.000000
-15.096700 0.000000
-15.078600 0.000000
-15.060600 0.000000
-15.042500 0.000000
-15.024400 0.000000
-15.006400 0.000000
-14.988300 0.000000
-14.970200 0.000000
-14.952200 0.000000
-14.934100 0.000000
-14.916000 0.000000
-14.898000 0.000000
-14.879900 0.000000
-14.861800 0.000000
-14.843800 0.000000
-14.825700 0.000000
-14.807600 0.000000
-14.789600 0.000000
-14.771500 0.000000
-14.753400 0.000000
-14.735400 0.000000
-14.717300 0.000000
-14.699200 0.000000
-14.681200 0.000000
-14.663100 0.000000
-14.645000 0.000000
-14.627000 0.000000
-14.608900 0.000000
-14.590800 0.000000
-14.572800 0.000000
-14.554700 0.000000
-14.536600 0.000000
-14.518600 0.000000
-14.500500 0.000000
-14.482400 0.000000
-14.464400 0.000000
-14.446300 0.000000
-14.428200 0.000000
-14.410200 0.000000
-14.392100 0.000000
-14.374000 0.000000
-14.356000 0.000000
-14.337900 0.000000
-14.319800 0.000000
-14.301800 0.000000
-14.283700 0.000000
-14.265600 0.000000
-14.247600 0.000000
-14.229500 0.000000
-14.211400 0.000000
-14.193400 0.000000
-14.175300 0.000000
-14.157300 0.000000
-14.139200 0.000000
-14.121100 0.000000
-14.103100 0.000000
-14.085000 0.000000
-14.066900 0.000000
-14.048900 0.000000
-14.030800 0.000000
-14.012700 0.000000
-13.994700 0.000000
-13.976600 0.000000
-13.958500 0.000000
-13.940500 0.000000
-13.922400 0.000000
-13.904300 0.000000
-13.886300 0.000000
-13.868200 0.000000
-13.850100 0.000000
-13.832100 0.000000
-13.814000 0.000000
-13.795900 0.000000
-13.777900 0.000000
-13.759800 0.000000
-13.741700 0.000000
-13.723700 0.000000
-13.705600 0.000000
-13.687500 0.000000
-13.669500 0.000000
-13.651400 0.000000
-13.633300 0.000000
-13.615300 0.000000
-13.597200 0.000000
-13.579100 0.000000
-13.561100 0.000000
-13.543000 0.000000
-13.524900 0.000000
-13.506900 0.000000
-13.488800 0.000000
-13.470700 0.000000
-13.452700 0.000000
-13.434600 2.051100
-13.416500 2.780300
-13.398500 3.597300
-13.380400 4.502200
-13.362300 6.702300
-13.344300 7.158300
-13.326200 7.526000
-13.308100 7.744600
-13.290100 7.814100
-13.272000 7.159800
-13.253900 6.836600
-13.235900 6.616800
-13.217800 14.369800
-13.199700 20.559400
-13.181700 20.166900
-13.163600 19.066000
-13.145500 16.827400
-13.127500 12.270700
-13.109400 9.810200
-13.091300 13.337400
-13.073300 13.271300
-13.055200 11.758100
-13.037100 12.042700
-13.019100 16.276200
-13.001000 18.363400
-12.983000 22.627000
-12.964900 37.464600
-12.946800 87.387200
-12.928800 0.000000
-12.910700 0.000000
-12.892600 0.000000
-12.874600 0.000000
-12.856500 0.000000
-12.838400 0.000000
-12.820400 0.000000
-12.802300 0.000000
-12.784200 0.000000
-12.766200 0.000000
-12.748100 0.000000
-12.730000 0.000000
-12.712000 0.000000
-12.693900 0.000000
-12.675800 0.000000
-12.657800 0.000000
-12.639700 0.000000
-12.621600 0.000000
-12.603600 0.000000
-12.585500 0.000000
-12.567400 0.000000
-12.549400 0.000000
-12.531300 0.000000
-12.513200 0.000000
-12.495200 0.000000
-12.477100 0.000000
-12.459000 0.000000
-12.441000 0.000000
-12.422900 0.000000
-12.404800 0.000000
-12.386800 0.000000
-12.368700 0.000000
-12.350600 0.000000
-12.332600 0.000000
-12.314500 0.000000
-12.296400 0.000000
-12.278400 0.000000
-12.260300 0.000000
-12.242200 0.000000
-12.224200 0.000000
-12.206100 0.000000
-12.188000 0.000000
-12.170000 0.000000
-12.151900 0.000000
-12.133800 0.000000
-12.115800 0.000000
-12.097700 0.000000
-12.079600 0.000000
-12.061600 0.000000
-12.043500 0.000000
-12.025400 0.000000
-12.007400 0.000000
-11.989300 0.000000
-11.971200 0.000000
-11.953200 0.000000
-11.935100 0.000000
-11.917000 0.000000
-11.899000 0.000000
-11.880900 0.000000
-11.862800 0.000000
-11.844800 0.000000
-11.826700 0.000000
-11.808600 0.000000
-11.790600 0.000000
-11.772500 0.000000
-11.754500 0.000000
-11.736400 0.000000
-11.718300 0.000000
-11.700300 0.000000
-11.682200 0.000000
-11.664100 0.000000
-11.646100 0.000000
-11.628000 0.000000
-11.609900 0.000000
-11.591900 0.000000
-11.573800 0.000000
-11.555700 0.000000
-11.537700 0.000000
-11.519600 0.000000
-11.501500 0.000000
-11.483500 0.000000
-11.465400 0.000000
-11.447300 0.000000
-11.429300 0.000000
-11.411200 0.000000
-11.393100 0.000000
-11.375100 0.000000
-11.357000 0.000000
-11.338900 0.000000
-11.320900 0.000000
-11.302800 0.000000
-11.284700 0.000000
-11.266700 0.000000
-11.248600 0.000000
-11.230500 0.000000
-11.212500 0.000000
-11.194400 0.000000
-11.176300 0.000000
-11.158300 0.000000
-11.140200 0.000000
-11.122100 0.000000
-11.104100 0.000000
-11.086000 0.000000
-11.067900 0.000000
-11.049900 0.000000
-11.031800 0.000000
-11.013700 0.000000
-10.995700 0.000000
-10.977600 0.000000
-10.959500 0.000000
-10.941500 0.000000
-10.923400 0.000000
-10.905300 0.000000
-10.887300 0.000000
-10.869200 0.000000
-10.851100 0.000000
-10.833100 0.000000
-10.815000 0.000000
-10.796900 0.000000
-10.778900 0.000000
-10.760800 0.000000
-10.742700 0.000000
-10.724700 0.000000
-10.706600 0.000000
-10.688500 0.000000
-10.670500 0.000000
-10.652400 0.000000
-10.634300 0.000000
-10.616300 0.000000
-10.598200 0.000000
-10.580100 0.000000
-10.562100 0.000000
-10.544000 0.000000
-10.526000 0.000000
-10.507900 0.000000
-10.489800 0.000000
-10.471800 0.000000
-10.453700 0.000000
-10.435600 0.000000
-10.417600 0.000000
-10.399500 0.000000
-10.381400 0.000000
-10.363400 0.000000
-10.345300 0.000000
-10.327200 0.000000
-10.309200 0.000000
-10.291100 0.000000
-10.273000 0.000000
-10.255000 0.000000
-10.236900 0.000000
-10.218800 0.000000
-10.200800 0.000000
-10.182700 0.000000
-10.164600 0.000000
-10.146600 0.000000
-10.128500 0.000000
-10.110400 0.000000
-10.092400 0.000000
-10.074300 0.000000
-10.056200 0.000000
-10.038200 0.000000
-10.020100 0.000000
-10.002000 0.000000
-9.984000 0.000000
-9.965900 0.000000
-9.947800 0.000000
-9.929800 0.000000
-9.911700 0.000000
-9.893600 0.000000
-9.875600 0.000000
-9.857500 0.000000
-9.839400 0.000000
-9.821400 0.000000
-9.803300 0.000000
-9.785200 0.000000
-9.767200 0.000000
-9.749100 0.000000
-9.731000 0.000000
-9.713000 0.000000
-9.694900 0.000000
-9.676800 0.000000
-9.658800 0.000000
-9.640700 0.000000
-9.622600 0.000000
-9.604600 0.000000
-9.586500 0.000000
-9.568400 0.000000
-9.550400 0.000000
-9.532300 0.000000
-9.514200 0.000000
-9.496200 0.000000
-9.478100 0.000000
-9.460000 0.000000
-9.442000 0.000000
-9.423900 0.000000
-9.405800 0.000000
-9.387800 0.000000
-9.369700 0.000000
-9.351700 0.000000
-9.333600 0.000000
-9.315500 0.000000
-9.297500 0.000000
-9.279400 0.000000
-9.261300 0.000000
-9.243300 0.000000
-9.225200 0.000000
-9.207100 0.000000
-9.189100 0.000000
-9.171000 0.000000
-9.152900 0.000000
-9.134900 0.000000
-9.116800 0.000000
-9.098700 0.000000
-9.080700 0.000000
-9.062600 0.000000
-9.044500 0.000000
-9.026500 0.000000
-9.008400 0.000000
-8.990300 0.000000
-8.972300 0.000000
-8.954200 0.000000
-8.936100 0.000000
-8.918100 0.000000
-8.900000 0.000000
-8.881900 0.000000
-8.863900 0.000000
-8.845800 0.000000
-8.827700 0.000000
-8.809700 0.000000
-8.791600 0.000000
-8.773500 0.000000
-8.755500 0.000000
-8.737400 0.000000
-8.719300 0.000000
-8.701300 0.000000
-8.683200 0.000000
-8.665100 0.000000
-8.647100 0.000000
-8.629000 0.000000
-8.610900 0.000000
-8.592900 0.000000
-8.574800 0.000000
-8.556700 0.000000
-8.538700 0.000000
-8.520600 0.000000
-8.502500 0.000000
-8.484500 0.000000
-8.466400 0.000000
-8.448300 0.000000
-8.430300 0.000000
-8.412200 0.000000
-8.394100 0.000000
-8.376100 0.000000
-8.358000 0.000000
-8.339900 0.000000
-8.321900 0.000000
-8.303800 0.000000
-8.285700 0.000000
-8.267700 0.000000
-8.249600 0.000000
-8.231500 0.000000
-8.213500 0.000000
-8.195400 0.000000
-8.177300 0.000000
-8.159300 0.000000
-8.141200 0.000000
-8.123200 0.000000
-8.105100 0.000000
-8.087000 0.000000
-8.069000 0.000000
-8.050900 0.000000
-8.032800 0.000000
-8.014800 0.000000
-7.996700 0.000000
-7.978600 0.000000
-7.960600 0.000000
-7.942500 0.000000
-7.924400 0.000000
-7.906400 0.000000
-7.888300 0.000000
-7.870200 0.000000
-7.852200 0.000000
-7.834100 0.000000
-7.816000 0.000000
-7.798000 0.000000
-7.779900 0.000000
-7.761800 0.000000
-7.743800 0.000000
-7.725700 0.000000
-7.707600 0.000000
-7.689600 0.000000
-7.671500 0.000000
-7.653400 0.000000
-7.635400 0.000000
-7.617300 0.000000
-7.599200 0.000000
-7.581200 0.000000
-7.563100 0.000000
-7.545000 0.000000
-7.527000 0.000000
-7.508900 0.000000
-7.490800 0.000000
-7.472800 0.000000
-7.454700 0.000000
-7.436600 0.000000
-7.418600 0.000000
-7.400500 0.000000
-7.382400 0.000000
-7.364400 0.000000
-7.346300 0.000000
-7.328200 0.000000
-7.310200 0.000000
-7.292100 0.000000
-7.274000 0.000000
-7.256000 0.000000
-7.237900 0.000000
-7.219800 0.000000
-7.201800 0.000000
-7.183700 2.259000
-7.165600 1.390300
-7.147600 1.612500
-7.129500 1.852500
-7.111400 2.110400
-7.093400 2.386000
-7.075300 2.679400
-7.057200 2.990600
-7.039200 4.004500
-7.021100 4.543300
-7.003000 5.106400
-6.985000 5.693700
-6.966900 6.305300
-6.948800 27.589400
-6.930800 7.373700
-6.912700 6.971800
-6.894700 6.646900
-6.876600 6.261400
-6.858500 6.046900
-6.840500 6.114300
-6.822400 5.992100
-6.804300 5.673100
-6.786300 5.341200
-6.768200 4.996600
-6.750100 4.639200
-6.732100 2.677400
-6.714000 2.635200
-6.695900 2.644100
-6.677900 2.652100
-6.659800 2.670900
-6.641700 2.700500
-6.623700 2.740700
-6.605600 2.791700
-6.587500 2.950100
-6.569500 2.989200
-6.551400 3.023500
-6.533300 3.445700
-6.515300 3.406700
-6.497200 3.350600
-6.479100 3.277400
-6.461100 3.187100
-6.443000 3.079700
-6.424900 2.955200
-6.406900 1.683300
-6.388800 1.571900
-6.370700 1.466300
-6.352700 1.366600
-6.334600 1.272700
-6.316500 1.221900
-6.298500 1.157700
-6.280400 1.095000
-6.262300 1.033900
-6.244300 0.974400
-6.226200 0.916500
-6.208100 0.860200
-6.190100 0.805500
-6.172000 0.752400
-6.153900 0.700800
-6.135900 0.650900
-6.117800 0.602500
-6.099700 0.555800
-6.081700 0.510600
-6.063600 0.467000
-6.045500 0.425000
-6.027500 0.384600
-6.009400 0.345800
-5.991300 0.000000
-5.973300 0.000000
-5.955200 0.000000
-5.937100 0.000000
-5.919100 0.000000
-5.901000 0.000000
-5.882900 0.000000
-5.864900 0.000000
-5.846800 0.000000
-5.828700 0.000000
-5.810700 0.000000
-5.792600 0.000000
-5.774500 0.000000
-5.756500 0.000000
-5.738400 0.000000
-5.720400 0.000000
-5.702300 0.000000
-5.684200 0.000000
-5.666200 0.000000
-5.648100 0.000000
-5.630000 0.000000
-5.612000 0.000000
-5.593900 0.000000
-5.575800 0.000000
-5.557800 0.000000
-5.539700 0.000000
-5.521600 0.000000
-5.503600 0.000000
-5.485500 0.000000
-5.467400 0.000000
-5.449400 0.000000
-5.431300 0.000000
-5.413200 0.000000
-5.395200 0.000000
-5.377100 0.000000
-5.359000 0.000000
-5.341000 0.000000
-5.322900 0.000000
-5.304800 0.000000
-5.286800 0.000000
-5.268700 0.000000
-5.250600 0.000000
-5.232600 0.000000
-5.214500 0.000000
-5.196400 0.000000
-5.178400 0.000000
-5.160300 0.000000
-5.142200 0.000000
-5.124200 0.000000
-5.106100 0.000000
-5.088000 0.000000
-5.070000 0.000000
-5.051900 0.000000
-5.033800 0.000000
-5.015800 0.000000
-4.997700 0.000000
-4.979600 0.000000
-4.961600 0.000000
-4.943500 0.000000
-4.925400 0.000000
-4.907400 0.000000
-4.889300 0.000000
-4.871200 0.000000
-4.853200 0.000000
-4.835100 0.000000
-4.817000 0.000000
-4.799000 0.000000
-4.780900 0.000000
-4.762800 0.000000
-4.744800 0.000000
-4.726700 0.000000
-4.708600 0.000000
-4.690600 0.000000
-4.672500 0.000000
-4.654400 0.000000
-4.636400 0.000000
-4.618300 0.000000
-4.600200 0.000000
-4.582200 0.000000
-4.564100 0.000000
-4.546000 0.000000
-4.528000 0.000000
-4.509900 0.000000
-4.491900 0.000000
-4.473800 0.000000
-4.455700 0.000000
-4.437700 0.000000
-4.419600 0.000000
-4.401500 0.000000
-4.383500 0.000000
-4.365400 0.000000
-4.347300 0.000000
-4.329300 0.000000
-4.311200 0.000000
-4.293100 0.000000
-4.275100 0.000000
-4.257000 0.000000
-4.238900 0.000000
-4.220900 0.000000
-4.202800 0.000000
-4.184700 0.000000
-4.166700 0.000000
-4.148600 0.000000
-4.130500 0.000000
-4.112500 0.000000
-4.094400 0.000000
-4.076300 0.000000
-4.058300 0.000000
-4.040200 0.000000
-4.022100 0.000000
-4.004100 0.000000
-3.986000 0.000000
-3.967900 0.000000
-3.949900 0.000000
-3.931800 0.000000
-3.913700 0.000000
-3.895700 0.000000
-3.877600 0.000000
-3.859500 0.000000
-3.841500 0.000000
-3.823400 0.000000
-3.805300 0.000000
-3.787300 0.000000
-3.769200 0.000000
-3.751100 0.000000
-3.733100 0.000000
-3.715000 0.000000
-3.696900 0.000000
-3.678900 0.000000
-3.660800 0.000000
-3.642700 0.000000
-3.624700 0.000000
-3.606600 0.000000
-3.588500 0.000000
-3.570500 0.000000
-3.552400 0.000000
-3.534300 0.000000
-3.516300 0.000000
-3.498200 0.000000
-3.480100 0.000000
-3.462100 0.000000
-3.444000 0.000000
-3.425900 0.000000
-3.407900 0.000000
-3.389800 0.000000
-3.371700 0.000000
-3.353700 0.000000
-3.335600 0.000000
-3.317500 0.000000
-3.299500 0.000000
-3.281400 0.000000
-3.263400 0.000000
-3.245300 0.000000
-3.227200 0.000000
-3.209200 0.000000
-3.191100 0.000000
-3.173000 0.000000
-3.155000 0.000000
-3.136900 0.000000
-3.118800 0.000000
-3.100800 0.000000
-3.082700 0.000000
-3.064600 0.000000
-3.046600 0.000000
-3.028500 0.000000
-3.010400 0.000000
-2.992400 0.000000
-2.974300 0.000000
-2.956200 0.000000
-2.938200 0.000000
-2.920100 0.000000
-2.902000 0.000000
-2.884000 1.738300
-2.865900 1.956800
-2.847800 2.177300
-2.829800 2.399800
-2.811700 2.624200
-2.793600 2.850500
-2.775600 3.078900
-2.757500 3.309100
-2.739400 3.541400
-2.721400 5.191400
-2.703300 5.392700
-2.685200 5.427000
-2.667200 5.446400
-2.649100 5.451100
-2.631000 5.441000
-2.613000 5.416100
-2.594900 5.187800
-2.576800 5.204400
-2.558800 5.231600
-2.540700 4.961700
-2.522600 4.937900
-2.504600 4.929700
-2.486500 4.937100
-2.468400 4.826100
-2.450400 4.705600
-2.432300 4.630500
-2.414200 4.482900
-2.396200 4.506100
-2.378100 5.423500
-2.360000 5.668600
-2.342000 5.935500
-2.323900 6.224100
-2.305800 6.534400
-2.287800 14.544900
-2.269700 9.630800
-2.251600 17.710800
-2.233600 9.744600
-2.215500 9.582000
-2.197400 8.350500
-2.179400 7.292700
-2.161300 7.706400
-2.143200 5.119800
-2.125200 5.436900
-2.107100 5.766700
-2.089100 6.109100
-2.071000 5.686200
-2.052900 5.791700
-2.034900 5.820500
-2.016800 5.706300
-1.998700 5.841500
-1.980700 5.921300
-1.962600 6.001200
-1.944500 6.081300
-1.926500 6.161500
-1.908400 5.908600
-1.890300 5.912200
-1.872300 6.335100
-1.854200 6.210300
-1.836100 6.666900
-1.818100 8.636300
-1.800000 8.252600
-1.781900 7.791400
-1.763900 4.133000
-1.745800 4.273000
-1.727700 4.179800
-1.709700 4.280100
-1.691600 4.383300
-1.673500 4.489300
-1.655500 4.598000
-1.637400 4.709600
-1.619300 4.824100
-1.601300 4.941300
-1.583200 5.627500
-1.565100 5.871400
-1.547100 6.092200
-1.529000 6.726400
-1.510900 6.641800
-1.492900 6.560900
-1.474800 6.483900
-1.456700 8.862700
-1.438700 6.321800
-1.420600 6.186700
-1.402500 6.027300
-1.384500 5.843600
-1.366400 12.175700
-1.348300 4.505600
-1.330300 5.382900
-1.312200 6.332000
-1.294100 5.970900
-1.276100 5.999000
-1.258000 6.006500
-1.239900 6.503300
-1.221900 6.696100
-1.203800 7.370900
-1.185700 7.512200
-1.167700 7.676200
-1.149600 7.862700
-1.131500 8.071900
-1.113500 8.303700
-1.095400 8.558200
-1.077300 9.035200
-1.059300 8.588000
-1.041200 11.212300
-1.023100 13.061300
-1.005100 18.180500
-0.987000 10.234000
-0.968900 9.917100
-0.950900 8.816900
-0.932800 9.899100
-0.914700 9.654700
-0.896700 10.949800
-0.878600 11.988800
-0.860600 10.688500
-0.842500 11.877800
-0.824400 12.652000
-0.806400 10.853300
-0.788300 12.146500
-0.770200 11.992500
-0.752200 9.407100
-0.734100 10.326200
-0.716000 11.147800
-0.698000 47.514400
-0.679900 15.933000
-0.661800 15.777700
-0.643800 10.436700
-0.625700 12.075400
-0.607600 25.479000
-0.589600 19.036800
-0.571500 13.406500
-0.553400 5.565100
-0.535400 2.494900
-0.517300 4.208400
-0.499200 11.338000
-0.481200 10.168000
-0.463100 8.976900
-0.445000 8.268900
-0.427000 7.364900
-0.408900 14.643300
-0.390800 7.034800
-0.372800 7.006500
-0.354700 7.089500
-0.336600 6.532800
-0.318600 5.777600
-0.300500 7.283100
-0.282400 7.949900
-0.264400 6.677700
-0.246300 6.482800
-0.228200 6.286500
-0.210200 6.088600
-0.192100 5.889400
-0.174000 3.876400
-0.156000 3.886800
-0.137900 3.888300
-0.119800 3.880900
-0.101800 4.923200
-0.083700 5.065500
-0.065600 5.223900
-0.047600 5.789200
-0.029500 5.076800
-0.011400 4.427400
0.006600 3.841100
0.024700 2.321600
0.042800 2.032200
0.060800 1.758200
0.078900 1.499600
0.097000 1.256400
0.115000 1.028700
0.133100 0.816500
0.151200 0.619700
0.169200 0.000000
0.187300 0.000000
0.205400 0.000000
0.223400 0.000000
0.241500 0.000000
0.259600 0.000000
0.277600 0.000000
0.295700 0.000000
0.313700 0.000000
0.331800 0.000000
0.349900 0.000000
0.367900 0.000000
0.386000 0.000000
0.404100 0.000000
0.422100 0.000000
0.440200 0.000000
0.458300 0.000000
0.476300 0.000000
0.494400 0.000000
0.512500 0.000000
0.530500 0.000000
0.548600 0.000000
0.566700 0.000000
0.584700 0.000000
0.602800 0.000000
0.620900 0.000000
0.638900 0.000000
0.657000 0.000000
0.675100 0.000000
0.693100 0.000000
0.711200 0.000000
0.729300 0.000000
0.747300 0.000000
0.765400 0.000000
0.783500 0.000000
0.801500 0.000000
0.819600 0.000000
0.837700 0.000000
0.855700 0.000000
0.873800 0.000000
0.891900 0.000000
0.909900 0.000000
0.928000 0.000000
0.946100 0.000000
0.964100 0.000000
0.982200 0.000000
1.000300 0.000000
1.018300 0.000000
1.036400 0.000000
1.054500 0.000000
1.072500 0.000000
1.090600 0.000000
1.108700 0.000000
1.126700 0.000000
1.144800 0.000000
1.162900 0.000000
1.180900 0.000000
1.199000 0.000000
1.217100 0.000000
1.235100 0.000000
1.253200 0.000000
1.271300 0.000000
1.289300 0.000000
1.307400 0.000000
1.325500 0.000000
1.343500 0.000000
1.361600 0.000000
1.379700 0.000000
1.397700 0.000000
1.415800 0.000000
1.433900 0.000000
1.451900 0.000000
1.470000 0.000000
1.488100 0.000000
1.506100 0.000000
1.524200 0.000000
1.542200 0.000000
1.560300 0.000000
1.578400 0.000000
1.596400 0.000000
1.614500 0.000000
1.632600 0.000000
1.650600 0.000000
1.668700 0.000000
1.686800 0.000000
1.704800 0.000000
1.722900 0.000000
1.741000 0.000000
1.759000 0.000000
1.777100 0.000000
1.795200 0.000000
1.813200 0.000000
1.831300 0.000000
1.849400 0.000000
1.867400 0.000000
1.885500 0.000000
1.903600 0.000000
1.921600 0.000000
1.939700 0.000000
1.957800 0.000000
1.975800 0.000000
1.993900 0.000000
2.012000 0.000000
2.030000 0.000000
2.048100 0.000000
2.066200 0.000000
2.084200 0.000000
2.102300 0.000000
2.120400 0.000000
2.138400 0.000000
2.156500 0.000000
2.174600 0.000000
2.192600 0.000000
2.210700 0.000000
2.228800 0.000000
2.246800 0.000000
2.264900 0.000000
2.283000 0.000000
2.301000 0.000000
2.319100 0.000000
2.337200 0.000000
2.355200 0.000000
2.373300 0.000000
2.391400 0.000000
2.409400 0.000000
2.427500 0.000000
2.445600 0.000000
2.463600 0.000000
2.481700 0.000000
2.499800 0.000000
2.517800 0.000000
2.535900 0.000000
2.554000 0.000000
2.572000 0.000000
2.590100 0.000000
2.608200 0.000000
2.626200 0.000000
2.644300 0.000000
2.662400 0.000000
2.680400 0.000000
2.698500 0.000000
2.716600 0.000000
2.734600 0.000000
2.752700 0.000000
2.770700 0.000000
2.788800 0.000000
2.806900 0.000000
2.824900 0.000000
2.843000 0.000000
2.861100 0.000000
2.879100 0.000000
2.897200 0.700900
2.915300 0.756400
2.933300 0.812600
2.951400 0.869500
2.969500 0.927100
2.987500 0.985400
3.005600 1.044400
3.023700 1.104100
3.041700 1.164600
3.059800 1.709400
3.077900 2.159000
3.095900 2.361100
3.114000 2.571000
3.132100 2.789000
3.150100 3.014800
3.168200 3.248700
3.186300 3.490400
3.204300 3.740100
3.222400 3.997800
3.240500 4.901300
3.258500 5.354600
3.276600 5.761700
3.294700 6.122500
3.312700 6.437100
3.330800 6.705600
3.348900 5.900300
3.366900 5.506400
3.385000 5.128400
3.403100 4.766400
3.421100 4.326300
3.439200 5.388900
3.457300 4.717100
3.475300 4.704700
3.493400 4.685200
3.511500 4.705200
3.529500 4.680200
3.547600 3.947200
3.565700 3.890000
3.583700 3.840300
3.601800 3.798100
3.619900 3.763400
3.637900 3.736100
3.656000 3.716400
3.674100 2.876800
3.692100 2.702200
3.710200 2.535400
3.728300 2.376300
3.746300 1.944200
3.764400 1.850900
3.782500 1.761100
3.800500 2.262400
3.818600 2.263400
3.836700 2.272600
3.854700 2.290100
3.872800 2.359400
3.890900 2.420200
3.908900 2.485800
3.927000 2.556100
3.945000 2.631300
3.963100 2.711300
3.981200 2.974500
3.999200 3.032700
4.017300 3.089500
4.035400 3.144800
4.053400 3.198800
4.071500 3.301200
4.089600 3.358000
4.107600 3.413600
4.125700 3.468000
4.143800 3.521000
4.161800 3.572800
4.179900 3.623400
4.198000 5.191900
4.216000 6.142300
4.234100 4.584500
4.252200 2.392100
4.270200 2.373900
4.288300 2.320300
4.306400 2.268200
4.324400 2.217700
4.342500 2.168900
4.360600 4.235600
4.378600 4.627900
4.396700 4.817600
4.414800 5.231900
4.432800 4.717100
4.450900 4.748500
4.469000 4.655300
4.487000 4.723600
4.505100 5.033700
4.523200 5.187800
4.541200 5.217500
4.559300 5.250100
4.577400 5.400200
4.595400 5.195700
4.613500 5.207100
4.631600 4.864700
4.649600 4.178000
4.667700 3.994400
4.685800 3.820000
4.703800 3.654800
4.721900 3.498900
4.740000 3.352200
4.758000 5.757800
4.776100 6.029600
4.794200 6.335500
4.812200 14.094500
4.830300 4.404700
4.848400 4.392000
4.866400 5.401600
4.884500 4.703300
4.902600 4.821600
4.920600 4.932700
4.938700 5.036700
4.956800 5.133500
4.974800 5.223100
4.992900 5.091600
5.011000 4.997700
5.029000 4.912900
5.047100 4.837200
5.065200 7.352400
5.083200 5.062400
5.101300 5.013800
5.119400 4.289500
5.137400 4.484400
5.155500 3.901500
5.173500 3.763500
5.191600 3.628200
5.209700 3.495300
5.227700 3.365100
5.245800 3.237400
5.263900 3.112300
5.281900 3.027800
5.300000 2.992400
5.318100 2.955700
5.336100 2.967400
5.354200 2.945700
5.372300 2.928700
5.390300 2.813800
5.408400 2.800900
5.426500 2.787800
5.444500 2.774700
5.462600 2.761300
5.480700 2.747900
5.498700 2.734200
5.516800 2.720500
5.534900 2.706600
5.552900 2.692600
5.571000 2.678400
5.589100 2.664100
5.607100 2.649700
5.625200 2.635100
5.643300 3.035000
5.661300 3.176500
5.679400 3.153100
5.697500 3.035100
5.715500 2.910400
5.733600 2.778900
5.751700 2.521900
5.769700 1.877900
5.787800 1.817400
5.805900 1.757400
5.823900 1.698000
5.842000 1.639000
5.860100 1.580500
5.878100 1.522600
5.896200 1.465200
5.914300 1.408200
5.932300 1.351800
5.950400 1.295900
5.968500 1.240500
5.986500 1.185600
6.004600 1.131200
6.022700 1.077300
6.040700 1.023900
6.058800 0.971100
6.076900 0.918700
6.094900 0.866900
6.113000 0.815500
6.131100 0.764700
6.149100 0.000000
6.167200 0.000000
6.185300 0.000000
6.203300 0.000000
6.221400 0.000000
6.239500 0.000000
6.257500 0.000000
6.275600 0.000000
6.293700 0.000000
6.311700 0.000000
6.329800 0.189400
6.347900 0.200600
6.365900 0.212000
6.384000 0.223700
6.402000 0.235600
6.420100 0.247800
6.438200 0.260200
6.456200 0.272900
6.474300 0.285800
6.492400 0.298900
6.510400 0.312300
6.528500 0.326000
6.546600 0.339900
6.564600 0.354000
6.582700 0.368400
6.600800 0.383100
6.618800 0.398000
6.636900 0.413100
6.655000 0.428500
6.673000 0.444100
6.691100 0.460000
6.709200 0.476100
6.727200 0.492500
6.745300 0.509100
6.763400 0.526000
6.781400 0.543100
6.799500 0.560500
6.817600 0.578100
6.835600 0.595900
6.853700 0.614000
6.871800 0.632400
6.889800 0.651000
6.907900 0.669800
6.926000 0.688900
6.944000 0.708300
6.962100 0.727900
6.980200 0.765200
6.998200 0.829400
7.016300 0.897700
7.034400 1.376300
7.052400 1.419200
7.070500 1.461000
7.088600 1.501700
7.106600 1.541400
7.124700 1.579900
7.142800 1.617300
7.160800 1.653700
7.178900 1.688900
7.197000 1.723100
7.215000 1.756100
7.233100 1.788100
7.251200 1.819000
7.269200 1.848800
7.287300 1.877400
7.305400 1.905000
7.323400 1.931500
7.341500 1.957000
7.359600 1.981300
7.377600 2.541700
7.395700 2.704100
7.413800 2.782000
7.431800 2.867200
7.449900 2.959600
7.468000 3.059200
7.486000 3.166000
7.504100 3.971400
7.522200 3.774600
7.540200 4.493000
7.558300 4.538900
7.576300 4.611200
7.594400 4.877300
7.612500 4.906900
7.630500 4.937900
7.648600 7.381700
7.666700 8.258600
7.684700 9.041200
7.702800 9.164400
7.720900 10.351200
7.738900 12.283900
7.757000 12.146600
7.775100 11.233700
7.793100 8.684100
7.811200 6.383500
7.829300 2.791100
7.847300 0.000000
7.865400 0.000000
7.883500 0.000000
7.901500 0.000000
7.919600 0.000000
7.937700 20.134100
7.955700 11.963700
7.973800 12.808300
7.991900 11.795300
8.009900 6.312000
8.028000 6.940400
8.046100 8.287200
8.064100 8.542200
8.082200 8.833500
8.100300 7.841000
8.118300 6.877800
8.136400 7.418400
8.154500 9.178000
8.172500 9.458600
8.190600 10.503100
8.208700 10.215900
8.226700 6.069500
8.244800 5.577800
8.262900 5.097000
8.280900 4.627200
8.299000 4.168200
8.317100 2.845100
8.335100 2.710400
8.353200 2.746500
8.371300 2.787300
8.389300 2.832700
8.407400 2.771500
8.425500 2.777300
8.443500 2.784200
8.461600 3.858800
8.479700 4.532900
8.497700 4.811300
8.515800 5.103000
8.533900 5.408100
8.551900 5.726500
8.570000 5.909500
8.588100 6.024000
8.606100 6.128200
8.624200 6.222200
8.642300 6.305800
8.660300 6.379100
8.678400 10.036800
8.696500 6.178600
8.714500 5.899900
8.732600 5.630100
8.750700 5.155300
8.768700 4.908400
8.786800 4.453500
8.804800 4.132000
8.822900 3.855500
8.841000 3.811300
8.859000 3.771500
8.877100 3.894900
8.895200 4.034300
8.913200 3.975600
8.931300 3.451900
8.949400 3.430100
8.967400 3.408700
8.985500 3.387700
9.003600 3.367100
9.021600 3.346900
9.039700 3.327100
9.057800 3.307700
9.075800 3.288700
9.093900 3.270100
9.112000 3.407000
9.130000 3.410000
9.148100 3.414100
9.166200 3.419300
9.184200 3.386700
9.202300 3.373400
9.220400 3.360500
9.238400 3.347700
9.256500 3.335300
9.274600 2.879300
9.292600 2.891100
9.310700 2.904400
9.328800 2.919000
9.346800 2.935100
9.364900 2.952600
9.383000 2.971600
9.401000 2.992000
9.419100 3.013800
9.437200 3.617300
9.455200 2.666800
9.473300 2.797200
9.491400 2.930200
9.509400 3.065800
9.527500 3.203900
9.545600 3.344700
9.563600 3.488000
9.581700 3.730600
9.599800 4.894000
9.617800 5.362500
9.635900 6.706900
9.654000 6.624800
9.672000 6.501600
9.690100 6.337100
9.708200 3.077400
9.726200 3.083100
9.744300 3.089800
9.762400 4.022800
9.780400 4.138000
9.798500 4.742700
9.816600 4.803100
9.834600 4.850900
9.852700 4.886100
9.870800 4.908600
9.888800 5.178900
9.906900 5.199200
9.925000 5.207800
9.943000 4.840000
9.961100 4.667700
9.979200 4.499400
9.997200 4.334900
10.015300 4.174200
10.033300 3.711400
10.051400 3.011100
10.069500 2.930600
10.087500 2.853600
10.105600 3.165600
10.123700 3.037800
10.141700 2.915200
10.159800 2.797800
10.177900 1.988800
10.195900 1.963400
10.214000 1.940500
10.232100 1.920200
10.250100 1.902400
10.268200 1.887200
10.286300 1.874500
10.304300 1.864400
10.322400 2.007900
10.340500 2.371400
10.358500 4.893100
10.376600 5.606600
10.394700 5.426000
10.412700 6.184000
10.430800 4.627300
10.448900 4.356200
10.466900 4.588200
10.485000 3.904300
10.503100 3.953000
10.521100 4.006500
10.539200 4.853700
10.557300 4.955900
10.575300 5.063000
10.593400 5.174900
10.611500 5.291600
10.629500 5.413100
10.647600 5.539400
10.665700 4.304500
10.683700 4.689600
10.701800 4.696900
10.719900 4.706400
10.737900 5.902500
10.756000 5.803500
10.774100 5.714500
10.792100 6.080100
10.810200 6.070300
10.828300 6.072800
10.846300 5.288200
10.864400 5.361700
10.882500 5.438000
10.900500 5.517100
10.918600 5.598900
10.936700 5.240100
10.954700 5.294900
10.972800 5.352200
10.990900 5.411800
11.008900 5.854400
11.027000 5.958000
11.045100 6.063500
11.063100 6.171100
11.081200 25.306000
11.099300 6.726300
11.117300 6.764500
11.135400 6.787700
11.153500 6.761900
11.171500 6.738100
11.189600 6.737700
11.207600 6.825100
11.225700 6.456900
11.243800 6.469100
11.261800 6.100500
11.279900 6.007200
11.298000 5.929000
11.316000 5.866000
11.334100 6.034000
11.352200 6.200700
11.370200 5.476200
11.388300 5.518500
11.406400 5.552400
11.424400 5.731500
11.442500 5.762000
11.460600 5.784200
11.478600 6.067700
11.496700 5.987700
11.514800 5.908000
11.532800 5.828500
11.550900 5.749400
11.569000 5.670500
11.587000 4.026900
11.605100 4.099000
11.623200 4.169900
11.641200 4.239800
11.659300 6.983600
11.677400 7.534900
11.695400 5.432200
11.713500 1.890600
11.731600 1.938300
11.749600 2.018800
11.767700 3.880500
11.785800 4.151600
11.803800 4.435000
11.821900 4.730500
11.840000 5.038200
11.858000 5.358200
11.876100 6.009800
11.894200 6.081300
11.912200 5.098900
11.930300 6.616500
11.948400 6.382200
11.966400 6.329300
11.984500 5.295000
12.002600 5.042100
12.020600 4.798700
12.038700 4.565100
12.056800 4.341000
12.074800 4.126600
12.092900 4.020900
12.111000 3.746500
12.129000 2.995100
12.147100 2.968500
12.165200 18.094700
12.183200 5.191200
12.201300 5.226300
12.219400 5.252900
12.237400 5.271100
12.255500 5.280700
12.273600 5.281900
12.291600 5.274600
12.309700 7.818000
12.327800 8.032900
12.345800 4.090300
12.363900 3.989600
12.382000 5.828300
12.400000 5.804100
12.418100 5.780700
12.436100 5.757900
12.454200 5.752200
12.472300 5.734900
12.490300 5.717200
12.508400 5.918400
12.526500 6.416100
12.544500 7.319400
12.562600 9.874800
12.580700 9.255000
12.598700 8.798200
12.616800 7.983300
12.634900 7.107400
12.652900 6.467900
12.671000 5.911700
12.689100 4.406500
12.707100 4.334800
12.725200 4.260800
12.743300 4.184300
12.761300 6.645000
12.779400 6.923000
12.797500 7.218400
12.815500 7.531100
12.833600 12.789900
12.851700 7.571800
12.869700 7.508500
12.887800 7.485000
12.905900 10.864300
12.923900 6.236300
12.942000 6.129700
12.960100 5.478600
12.978100 5.371500
12.996200 5.274100
13.014300 5.186500
13.032300 5.108600
13.050400 5.016400
13.068500 4.913000
13.086500 4.814500
13.104600 4.720700
13.122700 4.089300
13.140700 4.111900
13.158800 5.180800
13.176900 6.230400
13.194900 6.749700
13.213000 7.326800
13.231100 7.928400
13.249100 7.867600
13.267200 7.826000
13.285300 7.602600
13.303300 7.406800
13.321400 7.810700
13.339500 7.642000
13.357500 7.489800
13.375600 7.354100
13.393700 7.234800
13.411700 6.935100
13.429800 6.783700
13.447900 6.253100
13.465900 6.206600
13.484000 6.153100
13.502100 7.936800
13.520100 7.350100
13.538200 11.645300
13.556300 12.926000
13.574300 11.156800
13.592400 13.122700
13.610500 5.889900
13.628500 5.565300
13.646600 5.260200
13.664600 4.974800
13.682700 4.708900
13.700800 4.462600
13.718800 4.235900
13.736900 4.105400
13.755000 4.097500
13.773000 3.847300
13.791100 3.613100
13.809200 7.904600
13.827200 9.295600
13.845300 9.999700
13.863400 10.085500
13.881400 11.461700
13.899500 11.369700
13.917600 11.197500
13.935600 10.945000
13.953700 8.615200
13.971800 8.146900
13.989800 7.767700
14.007900 7.656300
14.026000 7.227000
14.044000 7.896500
14.062100 5.057900
14.080200 4.322600
14.098200 3.001900
14.116300 4.745800
14.134400 5.015800
14.152400 5.325800
14.170500 8.041800
14.188600 8.033800
14.206600 8.500700
14.224700 9.003400
14.242800 10.110700
14.260800 10.153300
14.278900 10.114900
14.297000 7.982000
14.315000 7.617200
14.333100 6.910400
14.351200 6.694600
14.369200 6.482100
14.387300 6.273000
14.405400 6.067200
14.423400 5.542500
14.441500 6.803900
14.459600 6.723000
14.477600 6.613500
14.495700 6.475500
14.513800 5.901400
14.531800 5.437000
14.549900 8.462900
14.568000 9.696500
14.586000 6.816800
14.604100 6.766400
14.622200 6.775900
14.640200 6.213300
14.658300 5.698000
14.676400 10.408200
14.694400 6.471100
14.712500 7.158100
14.730600 7.026100
14.748600 6.898500
14.766700 5.720100
14.784800 6.677800
14.802800 6.926600
14.820900 7.186300
14.838900 7.456900
14.857000 5.310500
14.875100 5.617700
14.893100 5.953300
14.911200 6.072000
14.929300 6.198000
14.947300 6.331200
14.965400 6.471800
14.983500 6.619600
15.001500 6.774800
15.019600 9.147700
15.037700 5.627300
15.055700 6.711500
15.073800 6.415400
15.091900 6.649800
15.109900 6.917800
15.128000 5.643500
15.146100 7.119300
15.164100 7.235800
15.182200 7.354600
15.200300 7.475800
15.218300 7.935200
15.236400 8.139900
15.254500 8.347900
15.272500 8.559100
15.290600 8.485400
15.308700 8.623700
15.326700 7.612900
15.344800 7.169800
15.362900 6.734900
15.380900 6.180200
15.399000 5.811600
15.417100 5.451000
15.435100 4.729400
15.453200 4.640100
15.471300 15.307500
15.489300 9.619500
15.507400 8.440000
15.525500 6.292500
15.543500 6.010100
15.561600 6.335700
15.579700 5.867800
15.597700 6.288100
15.615800 4.299000
15.633900 2.435700
15.651900 2.378300
15.670000 2.319600
15.688100 2.643300
15.706100 3.861900
15.724200 4.521800
15.742300 4.908900
15.760300 5.326000
15.778400 5.773200
15.796500 6.250300
15.814500 6.014200
15.832600 6.176300
15.850700 6.357300
15.868700 6.557100
15.886800 6.386500
15.904900 6.659700
15.922900 8.043500
15.941000 5.768500
15.959100 5.738600
15.977100 5.708300
15.995200 5.677800
16.013300 5.646900
16.031300 5.963000
16.049400 5.968300
16.067400 5.974900
16.085500 5.982700
16.103600 5.991800
16.121600 6.002200
16.139700 5.097100
16.157800 5.185700
16.175800 5.278100
16.193900 5.374300
16.212000 5.474300
16.230000 5.578100
16.248100 5.685600
16.266200 30.734900
16.284200 7.130100
16.302300 8.519300
16.320400 9.254500
16.338400 22.994700
16.356500 15.023500
16.374600 10.604600
16.392600 8.081300
16.410700 7.473400
16.428800 6.883400
16.446800 6.311200
16.464900 5.756800
16.483000 5.220200
16.501000 6.336000
16.519100 5.526900
16.537200 4.262700
16.555200 2.511300
16.573300 2.386500
16.591400 2.264600
16.609400 2.145700
16.627500 1.761800
16.645600 1.670900
16.663600 1.582200
16.681700 1.495600
16.699800 1.411200
16.717800 1.329000
16.735900 1.248900
16.754000 1.171000
16.772000 1.095200
16.790100 1.021600
16.808200 0.950200
16.826200 0.880900
16.844300 0.813800
16.862400 0.748900
16.880400 0.436200
16.898500 0.399900
16.916600 0.364900
16.934600 0.331200
16.952700 0.298900
16.970800 0.000000
16.988800 0.000000
17.006900 0.000000
17.025000 0.000000
17.043000 0.000000
17.061100 0.000000
17.079200 0.000000
17.097200 0.000000
17.115300 0.000000
17.133400 0.000000
17.151400 0.000000
17.169500 0.000000
17.187600 0.000000
17.205600 0.000000
17.223700 0.000000
17.241700 0.000000
17.259800 0.000000
17.277900 0.000000
17.295900 0.000000
17.314000 0.000000
17.332100 0.000000
17.350100 0.000000
17.368200 0.000000
17.386300 0.000000
17.404300 0.000000
17.422400 0.000000
17.440500 0.000000
17.458500 0.000000
17.476600 0.000000
17.494700 0.000000
17.512700 0.000000
17.530800 0.000000
17.548900 0.000000
17.566900 0.000000
17.585000 0.000000
17.603100 0.000000
17.621100 0.000000
17.639200 0.000000
17.657300 0.000000
17.675300 0.000000
17.693400 0.000000
17.711500 0.000000
17.729500 0.000000
17.747600 0.000000
17.765700 0.000000
17.783700 0.000000
17.801800 0.000000
17.819900 0.000000
17.837900 0.000000
17.856000 0.000000
17.874100 0.000000
17.892100 0.000000
17.910200 0.000000
17.928300 0.000000
17.946300 0.000000
17.964400 0.000000
17.982500 0.000000
18.000500 0.000000
18.018600 0.000000
18.036700 0.000000
18.054700 0.000000
18.072800 0.000000
18.090900 0.000000
18.108900 0.000000
18.127000 0.000000
18.145100 0.000000
18.163100 0.000000
18.181200 0.000000
18.199300 0.000000
18.217300 0.000000
18.235400 0.000000
18.253500 0.000000
18.271500 0.000000
18.289600 0.000000
18.307700 0.000000
18.325700 0.000000
18.343800 0.000000
18.361900 0.000000
18.379900 0.000000
18.398000 0.000000
18.416100 0.000000
18.434100 0.000000
18.452200 0.000000
18.470200 0.000000
18.488300 0.000000
18.506400 0.000000
18.524400 0.000000
18.542500 0.000000
18.560600 0.000000
18.578600 0.000000
18.596700 0.000000
e
