set title 'mp-1021511 - Density of States'
set xlabel 'Energy (eV)'
set ylabel 'DOS (states/eV)'
set grid
set xrange [-10:10]
set yrange [0:115.577]
set xzeroaxis lt -1
set terminal png size 800,600
set output 'mp-1021511_dos_gnuplot.png'
plot '-' using 1:2 with lines title 'DOS'
-15.531900 0.000000
-15.512500 0.000000
-15.493100 0.000000
-15.473700 0.000000
-15.454400 0.000000
-15.435000 0.000000
-15.415600 0.000000
-15.396200 0.000000
-15.376800 0.000000
-15.357500 0.000000
-15.338100 0.000000
-15.318700 0.000000
-15.299300 0.000000
-15.279900 0.000000
-15.260500 0.000000
-15.241200 0.000000
-15.221800 0.000000
-15.202400 0.000000
-15.183000 0.000000
-15.163600 0.000000
-15.144300 0.000000
-15.124900 0.000000
-15.105500 0.000000
-15.086100 0.000000
-15.066700 0.000000
-15.047400 0.000000
-15.028000 0.000000
-15.008600 0.000000
-14.989200 0.000000
-14.969800 0.000000
-14.950400 0.000000
-14.931100 0.000000
-14.911700 0.000000
-14.892300 0.000000
-14.872900 0.000000
-14.853500 0.000000
-14.834200 0.000000
-14.814800 0.000000
-14.795400 0.000000
-14.776000 0.000000
-14.756600 0.000000
-14.737200 0.000000
-14.717900 0.000000
-14.698500 0.000000
-14.679100 0.000000
-14.659700 0.000000
-14.640300 0.000000
-14.621000 0.000000
-14.601600 0.000000
-14.582200 0.000000
-14.562800 0.000000
-14.543400 0.000000
-14.524100 0.000000
-14.504700 0.000000
-14.485300 0.000000
-14.465900 0.000000
-14.446500 0.000000
-14.427100 0.000000
-14.407800 0.000000
-14.388400 0.000000
-14.369000 0.000000
-14.349600 0.000000
-14.330200 0.000000
-14.310900 0.000000
-14.291500 0.000000
-14.272100 0.000000
-14.252700 0.000000
-14.233300 0.000000
-14.213900 0.000000
-14.194600 0.000000
-14.175200 0.000000
-14.155800 0.000000
-14.136400 0.000000
-14.117000 0.000000
-14.097700 0.000000
-14.078300 0.000000
-14.058900 0.000000
-14.039500 0.000000
-14.020100 0.000000
-14.000800 0.000000
-13.981400 0.000000
-13.962000 0.000000
-13.942600 0.000000
-13.923200 0.000000
-13.903800 0.000000
-13.884500 0.000000
-13.865100 0.000000
-13.845700 0.000000
-13.826300 0.000000
-13.806900 0.000000
-13.787600 0.000000
-13.768200 0.038800
-13.748800 1.290900
-13.729400 2.557700
-13.710000 3.824500
-13.690600 2.632300
-13.671300 2.843200
-13.651900 3.054100
-13.632500 3.264900
-13.613100 3.475800
-13.593700 3.890500
-13.574400 4.390400
-13.555000 4.828400
-13.535600 5.242000
-13.516200 5.655700
-13.496800 6.069400
-13.477500 9.307900
-13.458100 17.519200
-13.438700 13.243100
-13.419300 14.158900
-13.399900 0.000000
-13.380500 0.000000
-13.361200 0.000000
-13.341800 0.000000
-13.322400 0.000000
-13.303000 0.000000
-13.283600 0.000000
-13.264300 0.000000
-13.244900 0.000000
-13.225500 0.000000
-13.206100 0.000000
-13.186700 0.000000
-13.167400 0.000000
-13.148000 0.000000
-13.128600 0.000000
-13.109200 0.000000
-13.089800 0.000000
-13.070400 0.000000
-13.051100 0.000000
-13.031700 0.000000
-13.012300 0.000000
-12.992900 0.000000
-12.973500 0.000000
-12.954200 0.000000
-12.934800 0.000000
-12.915400 0.000000
-12.896000 0.000000
-12.876600 0.000000
-12.857200 0.000000
-12.837900 0.000000
-12.818500 0.000000
-12.799100 0.000000
-12.779700 0.000000
-12.760300 0.000000
-12.741000 0.000000
-12.721600 0.000000
-12.702200 0.000000
-12.682800 0.000000
-12.663400 0.000000
-12.644100 0.000000
-12.624700 0.000000
-12.605300 0.000000
-12.585900 0.000000
-12.566500 0.000000
-12.547100 0.000000
-12.527800 0.000000
-12.508400 0.000000
-12.489000 0.000000
-12.469600 0.000000
-12.450200 0.000000
-12.430900 0.000000
-12.411500 0.000000
-12.392100 0.000000
-12.372700 0.000000
-12.353300 0.000000
-12.333900 0.000000
-12.314600 0.000000
-12.295200 0.000000
-12.275800 0.000000
-12.256400 0.000000
-12.237000 0.000000
-12.217700 0.000000
-12.198300 0.000000
-12.178900 0.000000
-12.159500 0.000000
-12.140100 0.000000
-12.120800 0.000000
-12.101400 0.000000
-12.082000 0.000000
-12.062600 0.000000
-12.043200 0.000000
-12.023800 0.000000
-12.004500 0.000000
-11.985100 0.000000
-11.965700 0.000000
-11.946300 0.000000
-11.926900 0.000000
-11.907600 0.000000
-11.888200 0.000000
-11.868800 0.000000
-11.849400 0.000000
-11.830000 0.000000
-11.810600 0.000000
-11.791300 0.000000
-11.771900 0.000000
-11.752500 0.000000
-11.733100 0.000000
-11.713700 0.000000
-11.694400 0.000000
-11.675000 0.000000
-11.655600 0.000000
-11.636200 0.000000
-11.616800 0.000000
-11.597500 0.000000
-11.578100 0.000000
-11.558700 0.000000
-11.539300 0.000000
-11.519900 0.000000
-11.500500 0.000000
-11.481200 0.000000
-11.461800 0.000000
-11.442400 0.000000
-11.423000 0.000000
-11.403600 0.000000
-11.384300 0.000000
-11.364900 0.000000
-11.345500 0.000000
-11.326100 0.000000
-11.306700 0.000000
-11.287300 0.000000
-11.268000 0.000000
-11.248600 0.000000
-11.229200 0.000000
-11.209800 0.000000
-11.190400 0.000000
-11.171100 0.000000
-11.151700 0.000000
-11.132300 0.000000
-11.112900 0.000000
-11.093500 0.000000
-11.074200 0.000000
-11.054800 0.000000
-11.035400 0.000000
-11.016000 0.000000
-10.996600 0.000000
-10.977200 0.000000
-10.957900 0.000000
-10.938500 0.000000
-10.919100 0.000000
-10.899700 0.000000
-10.880300 0.000000
-10.861000 0.000000
-10.841600 0.000000
-10.822200 0.000000
-10.802800 0.000000
-10.783400 0.000000
-10.764100 0.000000
-10.744700 0.000000
-10.725300 0.000000
-10.705900 0.000000
-10.686500 0.000000
-10.667100 0.000000
-10.647800 0.000000
-10.628400 0.000000
-10.609000 0.000000
-10.589600 0.000000
-10.570200 0.000000
-10.550900 0.000000
-10.531500 0.000000
-10.512100 0.000000
-10.492700 0.000000
-10.473300 0.000000
-10.453900 0.000000
-10.434600 0.000000
-10.415200 0.000000
-10.395800 0.000000
-10.376400 0.000000
-10.357000 0.000000
-10.337700 0.000000
-10.318300 0.000000
-10.298900 0.000000
-10.279500 0.000000
-10.260100 0.000000
-10.240800 0.000000
-10.221400 0.000000
-10.202000 0.000000
-10.182600 0.000000
-10.163200 0.000000
-10.143800 0.000000
-10.124500 0.000000
-10.105100 0.000000
-10.085700 0.000000
-10.066300 0.000000
-10.046900 0.000000
-10.027600 0.000000
-10.008200 0.000000
-9.988800 0.000000
-9.969400 0.000000
-9.950000 0.000000
-9.930600 0.000000
-9.911300 0.000000
-9.891900 0.000000
-9.872500 0.000000
-9.853100 0.000000
-9.833700 0.000000
-9.814400 3.558100
-9.795000 11.023400
-9.775600 9.556300
-9.756200 7.514300
-9.736800 8.086100
-9.717500 9.061900
-9.698100 10.037800
-9.678700 10.542700
-9.659300 10.653400
-9.639900 13.699800
-9.620500 15.911600
-9.601200 18.123500
-9.581800 12.798000
-9.562400 6.348800
-9.543000 21.520000
-9.523600 16.824000
-9.504300 0.000000
-9.484900 0.000000
-9.465500 0.000000
-9.446100 0.000000
-9.426700 65.149200
-9.407300 19.206800
-9.388000 11.918400
-9.368600 9.251000
-9.349200 105.070200
-9.329800 0.000000
-9.310400 0.000000
-9.291100 0.000000
-9.271700 0.000000
-9.252300 0.000000
-9.232900 0.000000
-9.213500 0.000000
-9.194200 0.000000
-9.174800 0.000000
-9.155400 0.000000
-9.136000 0.000000
-9.116600 5.284000
-9.097200 5.583500
-9.077900 6.528300
-9.058500 7.368700
-9.039100 5.237700
-9.019700 5.797600
-9.000300 6.430100
-8.981000 7.062700
-8.961600 7.695400
-8.942200 9.638700
-8.922800 8.125500
-8.903400 6.612200
-8.884000 5.098900
-8.864700 3.910100
-8.845300 3.836100
-8.825900 3.762100
-8.806500 3.688100
-8.787100 0.000000
-8.767800 0.000000
-8.748400 0.000000
-8.729000 0.000000
-8.709600 0.000000
-8.690200 0.000000
-8.670900 0.000000
-8.651500 0.000000
-8.632100 0.000000
-8.612700 0.000000
-8.593300 0.000000
-8.573900 0.000000
-8.554600 0.000000
-8.535200 0.000000
-8.515800 0.000000
-8.496400 0.000000
-8.477000 0.000000
-8.457700 0.000000
-8.438300 0.000000
-8.418900 0.000000
-8.399500 0.000000
-8.380100 0.000000
-8.360800 0.000000
-8.341400 0.000000
-8.322000 0.000000
-8.302600 0.000000
-8.283200 0.000000
-8.263800 0.000000
-8.244500 0.000000
-8.225100 0.000000
-8.205700 0.000000
-8.186300 0.000000
-8.166900 0.000000
-8.147600 0.000000
-8.128200 0.000000
-8.108800 0.000000
-8.089400 0.000000
-8.070000 0.000000
-8.050600 0.000000
-8.031300 0.000000
-8.011900 0.000000
-7.992500 0.000000
-7.973100 0.000000
-7.953700 0.000000
-7.934400 0.000000
-7.915000 0.000000
-7.895600 0.000000
-7.876200 0.000000
-7.856800 0.000000
-7.837500 0.000000
-7.818100 0.000000
-7.798700 0.000000
-7.779300 0.000000
-7.759900 0.000000
-7.740500 0.000000
-7.721200 0.000000
-7.701800 0.000000
-7.682400 0.000000
-7.663000 0.000000
-7.643600 0.000000
-7.624300 0.000000
-7.604900 0.000000
-7.585500 0.000000
-7.566100 0.000000
-7.546700 0.000000
-7.527300 0.000000
-7.508000 0.000000
-7.488600 0.000000
-7.469200 0.000000
-7.449800 0.000000
-7.430400 0.000000
-7.411100 0.000000
-7.391700 0.000000
-7.372300 0.000000
-7.352900 0.000000
-7.333500 0.000000
-7.314200 0.000000
-7.294800 0.000000
-7.275400 0.000000
-7.256000 0.000000
-7.236600 0.000000
-7.217200 0.000000
-7.197900 0.000000
-7.178500 0.000000
-7.159100 0.000000
-7.139700 0.000000
-7.120300 0.000000
-7.101000 0.000000
-7.081600 0.000000
-7.062200 0.000000
-7.042800 0.000000
-7.023400 0.000000
-7.004000 0.000000
-6.984700 0.000000
-6.965300 0.000000
-6.945900 0.000000
-6.926500 0.000000
-6.907100 0.000000
-6.887800 0.000000
-6.868400 0.000000
-6.849000 0.000000
-6.829600 0.000000
-6.810200 0.000000
-6.790900 0.000000
-6.771500 0.000000
-6.752100 0.000000
-6.732700 0.000000
-6.713300 0.000000
-6.693900 0.000000
-6.674600 0.000000
-6.655200 0.000000
-6.635800 0.000000
-6.616400 0.000000
-6.597000 0.000000
-6.577700 0.000000
-6.558300 0.000000
-6.538900 0.000000
-6.519500 0.000000
-6.500100 0.000000
-6.480700 0.000000
-6.461400 0.000000
-6.442000 0.000000
-6.422600 0.000000
-6.403200 0.000000
-6.383800 0.000000
-6.364500 0.000000
-6.345100 0.000000
-6.325700 0.000000
-6.306300 0.000000
-6.286900 0.000000
-6.267600 0.000000
-6.248200 0.000000
-6.228800 0.000000
-6.209400 0.000000
-6.190000 0.000000
-6.170600 0.000000
-6.151300 0.000000
-6.131900 0.000000
-6.112500 0.000000
-6.093100 0.000000
-6.073700 0.000000
-6.054400 0.000000
-6.035000 0.000000
-6.015600 0.000000
-5.996200 0.000000
-5.976800 0.000000
-5.957500 0.000000
-5.938100 0.000000
-5.918700 0.000000
-5.899300 0.000000
-5.879900 0.000000
-5.860500 0.000000
-5.841200 0.000000
-5.821800 0.000000
-5.802400 0.000000
-5.783000 0.000000
-5.763600 0.000000
-5.744300 0.000000
-5.724900 0.000000
-5.705500 0.000000
-5.686100 0.000000
-5.666700 0.038800
-5.647300 0.828400
-5.628000 2.220200
-5.608600 3.612000
-5.589200 4.750800
-5.569800 3.668600
-5.550400 3.287900
-5.531100 5.392600
-5.511700 3.638200
-5.492300 2.016100
-5.472900 1.967100
-5.453500 1.918100
-5.434200 1.869000
-5.414800 1.820000
-5.395400 1.771000
-5.376000 1.722000
-5.356600 1.672900
-5.337200 1.623900
-5.317900 1.574900
-5.298500 1.525900
-5.279100 1.476800
-5.259700 1.427800
-5.240300 1.378800
-5.221000 1.315900
-5.201600 0.907400
-5.182200 0.749500
-5.162800 0.743900
-5.143400 0.738400
-5.124000 0.732800
-5.104700 0.727200
-5.085300 0.721700
-5.065900 0.716100
-5.046500 0.710500
-5.027100 0.704900
-5.007800 0.699400
-4.988400 0.693800
-4.969000 0.688200
-4.949600 0.682700
-4.930200 0.677100
-4.910900 0.671500
-4.891500 0.666000
-4.872100 0.660400
-4.852700 0.654800
-4.833300 0.649200
-4.813900 0.643700
-4.794600 0.638100
-4.775200 0.632500
-4.755800 0.627000
-4.736400 0.621400
-4.717000 0.615800
-4.697700 0.610300
-4.678300 0.604700
-4.658900 0.599100
-4.639500 0.593500
-4.620100 0.586500
-4.600700 0.576800
-4.581400 0.566700
-4.562000 0.556600
-4.542600 0.546600
-4.523200 0.536500
-4.503800 0.526500
-4.484500 0.516400
-4.465100 0.506300
-4.445700 0.496300
-4.426300 0.486200
-4.406900 0.476200
-4.387600 0.466100
-4.368200 0.456000
-4.348800 0.966700
-4.329400 0.971900
-4.310000 0.977000
-4.290600 0.982200
-4.271300 0.987400
-4.251900 0.992600
-4.232500 0.997700
-4.213100 1.003000
-4.193700 1.012400
-4.174400 1.025400
-4.155000 1.038600
-4.135600 1.051700
-4.116200 1.064800
-4.096800 1.077900
-4.077400 1.091000
-4.058100 1.104100
-4.038700 1.117200
-4.019300 1.130300
-3.999900 1.143400
-3.980500 1.156500
-3.961200 1.169600
-3.941800 1.182700
-3.922400 1.195800
-3.903000 1.208900
-3.883600 1.222700
-3.864300 1.268500
-3.844900 1.319300
-3.825500 1.370100
-3.806100 1.421000
-3.786700 1.471800
-3.767300 1.522600
-3.748000 1.573400
-3.728600 1.624300
-3.709200 1.675100
-3.689800 1.725900
-3.670400 1.776700
-3.651100 1.827600
-3.631700 1.879900
-3.612300 1.954300
-3.592900 1.965400
-3.573500 1.976600
-3.554200 1.987800
-3.534800 1.998900
-3.515400 2.010100
-3.496000 2.021300
-3.476600 2.032400
-3.457200 2.043600
-3.437900 2.054800
-3.418500 2.145000
-3.399100 2.311400
-3.379700 2.014700
-3.360300 2.239500
-3.341000 2.513300
-3.321600 2.313500
-3.302200 2.444100
-3.282800 2.592700
-3.263400 1.346500
-3.244000 1.114100
-3.224700 1.088100
-3.205300 1.062100
-3.185900 1.036200
-3.166500 1.010200
-3.147100 0.984200
-3.127800 1.541600
-3.108400 2.071000
-3.089000 2.690300
-3.069600 3.579300
-3.050200 4.533700
-3.030900 5.003100
-3.011500 5.535100
-2.992100 0.643700
-2.972700 0.226900
-2.953300 0.262400
-2.933900 0.430300
-2.914600 0.666200
-2.895200 0.970100
-2.875800 1.341900
-2.856400 1.651100
-2.837000 1.988200
-2.817700 2.301300
-2.798300 2.564300
-2.778900 2.764600
-2.759500 2.879200
-2.740100 2.909200
-2.720700 2.910600
-2.701400 2.912100
-2.682000 2.913600
-2.662600 2.915200
-2.643200 2.916800
-2.623800 2.918500
-2.604500 2.920200
-2.585100 3.081600
-2.565700 3.244300
-2.546300 3.449200
-2.526900 3.715100
-2.507600 4.539300
-2.488200 4.938900
-2.468800 5.149800
-2.449400 5.250500
-2.430000 5.612200
-2.410600 5.150500
-2.391300 4.568800
-2.371900 4.489500
-2.352500 3.692200
-2.333100 3.067100
-2.313700 2.757300
-2.294400 2.015500
-2.275000 0.378400
-2.255600 0.310100
-2.236200 0.241800
-2.216800 0.173500
-2.197400 0.105200
-2.178100 0.037000
-2.158700 0.000000
-2.139300 0.000000
-2.119900 0.000000
-2.100500 0.000000
-2.081200 0.000000
-2.061800 0.000000
-2.042400 0.000000
-2.023000 0.000000
-2.003600 0.000000
-1.984300 0.000000
-1.964900 0.000000
-1.945500 0.000000
-1.926100 0.000000
-1.906700 0.000000
-1.887300 0.000000
-1.868000 0.000000
-1.848600 0.000000
-1.829200 0.000000
-1.809800 0.000000
-1.790400 0.000000
-1.771100 0.000000
-1.751700 0.000000
-1.732300 0.000000
-1.712900 0.000000
-1.693500 0.000000
-1.674200 0.000000
-1.654800 0.000000
-1.635400 0.000000
-1.616000 0.000000
-1.596600 0.000000
-1.577200 0.000000
-1.557900 0.000000
-1.538500 0.000000
-1.519100 0.000000
-1.499700 0.000000
-1.480300 0.000000
-1.461000 0.000000
-1.441600 0.000000
-1.422200 0.000000
-1.402800 0.000000
-1.383400 0.000000
-1.364000 0.000000
-1.344700 0.000000
-1.325300 0.000000
-1.305900 0.000000
-1.286500 0.000000
-1.267100 0.000000
-1.247800 0.000000
-1.228400 0.000000
-1.209000 0.000000
-1.189600 0.000000
-1.170200 0.000000
-1.150900 0.000000
-1.131500 0.000000
-1.112100 0.000000
-1.092700 0.000000
-1.073300 0.000000
-1.053900 0.000000
-1.034600 0.000000
-1.015200 0.000000
-0.995800 0.000000
-0.976400 0.000000
-0.957000 0.000000
-0.937700 0.000000
-0.918300 0.000000
-0.898900 0.000000
-0.879500 0.000000
-0.860100 0.000000
-0.840700 0.000000
-0.821400 0.000000
-0.802000 0.000000
-0.782600 0.000000
-0.763200 0.000000
-0.743800 0.000000
-0.724500 0.000000
-0.705100 0.000000
-0.685700 0.000000
-0.666300 0.000000
-0.646900 0.000000
-0.627600 0.000200
-0.608200 0.000900
-0.588800 0.002100
-0.569400 0.003700
-0.550000 0.005800
-0.530600 0.008200
-0.511300 0.011000
-0.491900 0.014000
-0.472500 0.017400
-0.453100 0.021000
-0.433700 0.024900
-0.414400 0.029100
-0.395000 0.033800
-0.375600 0.039500
-0.356200 0.045200
-0.336800 0.050800
-0.317400 0.056500
-0.298100 0.062200
-0.278700 0.067900
-0.259300 0.073600
-0.239900 0.079300
-0.220500 0.085000
-0.201200 0.090700
-0.181800 0.096400
-0.162400 0.102000
-0.143000 0.107700
-0.123600 0.113400
-0.104300 0.119100
-0.084900 0.124800
-0.065500 0.130500
-0.046100 0.136100
-0.026700 0.141800
-0.007300 0.147500
0.012000 0.153200
0.031400 0.158900
0.050800 0.164500
0.070200 0.170200
0.089600 0.175900
0.108900 0.181600
0.128300 0.187200
0.147700 0.192900
0.167100 0.198600
0.186500 0.204300
0.205900 0.209900
0.225200 0.215600
0.244600 0.221300
0.264000 0.227100
0.283400 0.233100
0.302800 0.239000
0.322100 0.244900
0.341500 0.250900
0.360900 0.256700
0.380300 0.262400
0.399700 0.268200
0.419000 0.273900
0.438400 0.279600
0.457800 0.285300
0.477200 0.291100
0.496600 0.296800
0.516000 0.302500
0.535300 0.308400
0.554700 0.314000
0.574100 0.319600
0.593500 0.325100
0.612900 0.330700
0.632200 0.336300
0.651600 0.341900
0.671000 0.347500
0.690400 0.353100
0.709800 0.358700
0.729100 0.364300
0.748500 0.369900
0.767900 0.375500
0.787300 0.381100
0.806700 0.386700
0.826100 0.392300
0.845400 0.397900
0.864800 0.403500
0.884200 0.409100
0.903600 0.414700
0.923000 0.420300
0.942300 0.425900
0.961700 0.431500
0.981100 0.437100
1.000500 0.442700
1.019900 0.448300
1.039300 0.453900
1.058600 0.459600
1.078000 0.465200
1.097400 0.470800
1.116800 0.476400
1.136200 0.482000
1.155500 0.488300
1.174900 0.498500
1.194300 0.513000
1.213700 0.531000
1.233100 0.552000
1.252400 0.576100
1.271800 0.601300
1.291200 0.627800
1.310600 0.656300
1.330000 0.687000
1.349400 0.720000
1.368700 0.755100
1.388100 0.792600
1.407500 0.832200
1.426900 0.874100
1.446300 0.946500
1.465600 1.032200
1.485000 1.080500
1.504400 1.129700
1.523800 1.218500
1.543200 1.334600
1.562600 1.431500
1.581900 1.511700
1.601300 1.583900
1.620700 1.649600
1.640100 1.767000
1.659500 1.809100
1.678800 1.789600
1.698200 1.770100
1.717600 1.750700
1.737000 1.731300
1.756400 1.711900
1.775700 1.692600
1.795100 1.673300
1.814500 1.654100
1.833900 1.634800
1.853300 1.615700
1.872700 1.596500
1.892000 1.577400
1.911400 1.558300
1.930800 1.555700
1.950200 1.556500
1.969600 1.578600
1.988900 1.625600
2.008300 1.708100
2.027700 2.194500
2.047100 2.395400
2.066500 2.260300
2.085900 2.097100
2.105200 1.910200
2.124600 1.728400
2.144000 1.557300
2.163400 1.396900
2.182800 1.048400
2.202100 0.973000
2.221500 0.900800
2.240900 0.882200
2.260300 0.951000
2.279700 0.951900
2.299000 0.946400
2.318400 0.947000
2.337800 0.953900
2.357200 0.966900
2.376600 0.986000
2.396000 1.011400
2.415300 1.076500
2.434700 1.110400
2.454100 1.149100
2.473500 1.192500
2.492900 1.240700
2.512200 1.293600
2.531600 1.339800
2.551000 1.353400
2.570400 1.686800
2.589800 1.930800
2.609200 2.149400
2.628500 2.194300
2.647900 2.198400
2.667300 2.172200
2.686700 2.122800
2.706100 2.078700
2.725400 2.150700
2.744800 2.225500
2.764200 2.302600
2.783600 2.381700
2.803000 2.607000
2.822300 2.788500
2.841700 2.353000
2.861100 2.210500
2.880500 2.237800
2.899900 2.268000
2.919300 2.301200
2.938600 2.337400
2.958000 2.376400
2.977400 2.339000
2.996800 2.257900
3.016200 2.239500
3.035500 2.221700
3.054900 2.201200
3.074300 2.176900
3.093700 2.148700
3.113100 2.119900
3.132400 2.093100
3.151800 2.068500
3.171200 2.036500
3.190600 1.979800
3.210000 1.917900
3.229400 1.851400
3.248700 1.787300
3.268100 1.705600
3.287500 1.975900
3.306900 1.525500
3.326300 1.307800
3.345600 1.136100
3.365000 0.735800
3.384400 0.694400
3.403800 0.651400
3.423200 0.606400
3.442600 0.554300
3.461900 0.493500
3.481300 0.424000
3.500700 0.352300
3.520100 0.290200
3.539500 0.234100
3.558800 0.184000
3.578200 0.140000
3.597600 0.102000
3.617000 0.069900
3.636400 0.043900
3.655700 0.024000
3.675100 0.010000
3.694500 0.002000
3.713900 0.000000
3.733300 0.000000
3.752700 0.000000
3.772000 0.000000
3.791400 0.000000
3.810800 0.000000
3.830200 0.000000
3.849600 0.000000
3.868900 0.000000
3.888300 0.000000
3.907700 0.040400
3.927100 0.135300
3.946500 0.230000
3.965900 0.322600
3.985200 0.412900
4.004600 0.501000
4.024000 0.586900
4.043400 0.670500
4.062800 0.751900
4.082100 0.826800
4.101500 0.885700
4.120900 0.944000
4.140300 1.001700
4.159700 1.058800
4.179000 1.119600
4.198400 1.204100
4.217800 1.314900
4.237200 1.444300
4.256600 1.569400
4.276000 1.688600
4.295300 1.815400
4.314700 1.978900
4.334100 2.126500
4.353500 2.253200
4.372900 2.369500
4.392200 2.474100
4.411600 2.564400
4.431000 2.634700
4.450400 2.683700
4.469800 2.713700
4.489200 2.723500
4.508500 2.642900
4.527900 2.490900
4.547300 2.376300
4.566700 2.289900
4.586100 2.254500
4.605400 2.256900
4.624800 2.244300
4.644200 2.234600
4.663600 2.578800
4.683000 2.614100
4.702300 2.544900
4.721700 2.474300
4.741100 2.402300
4.760500 2.439600
4.779900 2.691600
4.799300 2.899600
4.818600 3.061700
4.838000 2.477100
4.857400 2.276600
4.876800 2.110300
4.896200 1.978100
4.915500 1.880200
4.934900 1.814100
4.954300 1.756700
4.973700 1.701700
4.993100 1.649200
5.012500 1.599100
5.031800 1.551600
5.051200 1.523000
5.070600 1.531600
5.090000 1.517800
5.109400 1.483500
5.128700 1.445900
5.148100 1.409600
5.167500 1.380200
5.186900 1.366600
5.206300 1.378800
5.225600 1.390400
5.245000 1.400900
5.264400 1.423500
5.283800 1.470400
5.303200 1.541600
5.322600 1.618400
5.341900 1.704600
5.361300 1.303500
5.380700 1.263900
5.400100 1.239800
5.419500 1.520900
5.438800 1.818000
5.458200 2.050600
5.477600 2.213700
5.497000 2.264400
5.516400 2.326400
5.535700 2.425600
5.555100 2.561900
5.574500 3.109800
5.593900 3.666100
5.613300 4.297500
5.632700 4.716000
5.652000 5.027000
5.671400 5.207800
5.690800 5.293600
5.710200 5.775000
5.729600 5.963800
5.748900 4.323700
5.768300 3.240000
5.787700 2.129800
5.807100 1.671600
5.826500 1.338500
5.845900 1.167300
5.865200 1.108700
5.884600 1.047400
5.904000 0.982300
5.923400 0.913400
5.942800 0.840600
5.962100 0.763900
5.981500 0.683500
6.000900 0.599200
6.020300 0.511000
6.039700 0.419100
6.059000 0.308000
6.078400 0.301800
6.097800 0.307100
6.117200 0.312400
6.136600 0.317800
6.156000 0.553900
6.175300 0.624700
6.194700 0.695500
6.214100 0.766300
6.233500 0.868000
6.252900 1.008900
6.272200 1.201500
6.291600 1.336500
6.311000 1.321300
6.330400 1.112900
6.349800 1.057600
6.369200 1.088600
6.388500 1.119400
6.407900 1.149900
6.427300 1.187600
6.446700 1.252000
6.466100 1.343300
6.485400 1.467300
6.504800 1.603500
6.524200 1.736600
6.543600 1.866800
6.563000 1.993900
6.582300 2.118100
6.601700 2.275000
6.621100 2.397900
6.640500 2.518200
6.659900 2.633300
6.679300 2.720300
6.698600 2.774000
6.718000 2.794600
6.737400 3.156200
6.756800 3.192800
6.776200 3.141300
6.795500 2.949100
6.814900 2.411700
6.834300 1.884600
6.853700 1.672900
6.873100 1.472200
6.892500 1.284600
6.911800 1.255700
6.931200 1.227900
6.950600 1.200900
6.970000 1.175000
6.989400 1.150000
7.008700 1.126000
7.028100 1.115100
7.047500 1.111700
7.066900 1.105400
7.086300 1.104700
7.105600 1.107200
7.125000 1.112900
7.144400 1.121900
7.163800 1.134000
7.183200 1.149300
7.202600 1.162200
7.221900 1.166300
7.241300 1.170800
7.260700 1.175600
7.280100 1.180700
7.299500 1.186200
7.318800 1.192000
7.338200 1.198200
7.357600 1.222500
7.377000 1.328700
7.396400 1.458100
7.415800 1.577600
7.435100 1.687100
7.454500 1.786800
7.473900 1.880000
7.493300 1.966900
7.512700 2.047500
7.532000 2.122100
7.551400 2.194700
7.570800 2.265300
7.590200 2.390500
7.609600 2.484400
7.628900 2.569200
7.648300 2.644700
7.667700 2.709400
7.687100 2.789100
7.706500 2.860300
7.725900 2.924800
7.745200 2.975200
7.764600 3.028900
7.784000 2.903300
7.803400 2.704200
7.822800 2.549100
7.842100 2.393100
7.861500 2.419800
7.880900 2.427300
7.900300 2.415600
7.919700 2.383400
7.939000 2.329100
7.958400 2.264800
7.977800 2.208300
7.997200 2.134000
8.016600 1.980500
8.036000 1.777000
8.055300 1.616500
8.074700 1.502900
8.094100 1.468800
8.113500 1.493600
8.132900 1.541100
8.152200 1.543500
8.171600 1.557500
8.191000 1.582100
8.210400 1.617300
8.229800 1.663300
8.249200 1.720200
8.268500 1.804000
8.287900 1.900800
8.307300 2.030500
8.326700 2.147400
8.346100 2.258500
8.365400 2.383500
8.384800 2.537400
8.404200 2.698300
8.423600 2.836800
8.443000 2.952800
8.462300 3.090500
8.481700 3.249500
8.501100 3.343400
8.520500 3.419400
8.539900 3.477600
8.559300 3.517800
8.578600 3.540200
8.598000 3.544700
8.617400 3.531300
8.636800 3.513200
8.656200 3.479000
8.675500 3.397400
8.694900 3.265900
8.714300 1.847900
8.733700 1.532600
8.753100 1.440500
8.772500 1.422500
8.791800 1.469600
8.811200 1.699700
8.830600 1.902400
8.850000 2.066500
8.869400 2.133200
8.888700 2.169300
8.908100 2.235600
8.927500 2.375100
8.946900 2.443600
8.966300 2.487200
8.985600 2.515600
9.005000 2.534300
9.024400 2.543400
9.043800 2.544600
9.063200 2.540100
9.082600 2.542800
9.101900 2.589800
9.121300 2.597400
9.140700 2.592800
9.160100 2.682400
9.179500 2.809400
9.198800 2.973900
9.218200 3.175800
9.237600 3.415300
9.257000 3.556800
9.276400 3.521400
9.295800 3.591600
9.315100 3.667300
9.334500 3.724900
9.353900 3.313500
9.373300 3.333900
9.392700 3.336900
9.412000 3.320100
9.431400 3.283500
9.450800 3.183700
9.470200 3.041900
9.489600 2.904500
9.508900 2.771300
9.528300 2.634500
9.547700 2.168100
9.567100 1.996100
9.586500 1.759300
9.605900 1.559200
9.625200 1.395800
9.644600 1.269200
9.664000 1.179100
9.683400 1.112400
9.702800 1.053300
9.722100 0.999800
9.741500 0.951900
9.760900 0.918400
9.780300 0.892100
9.799700 0.872700
9.819100 0.860300
9.838400 0.854900
9.857800 0.856800
9.877200 0.869100
9.896600 0.893000
9.916000 0.928600
9.935300 0.975800
9.954700 1.040900
9.974100 0.934200
9.993500 0.728800
10.012900 0.971500
10.032200 1.246800
10.051600 1.454000
10.071000 1.491400
10.090400 1.653400
10.109800 1.833800
10.129200 1.999900
10.148500 2.120700
10.167900 2.196100
10.187300 2.296300
10.206700 2.464200
10.226100 2.516700
10.245400 2.574800
10.264800 2.643000
10.284200 3.214100
10.303600 3.885500
10.323000 4.042100
10.342300 4.129500
10.361700 3.591300
10.381100 3.441900
10.400500 3.406200
10.419900 3.392700
10.439300 3.373700
10.458600 3.349100
10.478000 3.319100
10.497400 3.283500
10.516800 3.242500
10.536200 2.897700
10.555500 2.769100
10.574900 2.654200
10.594300 2.547600
10.613700 2.440700
10.633100 2.317600
10.652500 2.026800
10.671800 1.567800
10.691200 1.232400
10.710600 0.975100
10.730000 0.952800
10.749400 1.017800
10.768700 1.103900
10.788100 1.340900
10.807500 1.603400
10.826900 1.829800
10.846300 2.020300
10.865600 2.164200
10.885000 2.097900
10.904400 2.155400
10.923800 2.209400
10.943200 2.260700
10.962600 2.321100
10.981900 2.394700
11.001300 2.481500
11.020700 2.594400
11.040100 2.724500
11.059500 2.843700
11.078800 2.922800
11.098200 3.041100
11.117600 3.195100
11.137000 3.694700
11.156400 3.709400
11.175800 3.154000
11.195100 3.173800
11.214500 3.157100
11.233900 3.121100
11.253300 3.066800
11.272700 2.994200
11.292000 2.903200
11.311400 2.807400
11.330800 2.661700
11.350200 2.569000
11.369600 2.546800
11.388900 2.536500
11.408300 2.537600
11.427700 2.550000
11.447100 2.573600
11.466500 2.608400
11.485900 2.663700
11.505200 2.822700
11.524600 3.009100
11.544000 3.222600
11.563400 3.440300
11.582800 4.161700
11.602100 4.556700
11.621500 3.974600
11.640900 3.360700
11.660300 2.651500
11.679700 2.648100
11.699100 2.651200
11.718400 2.643200
11.737800 2.633400
11.757200 2.622500
11.776600 2.610500
11.796000 2.597500
11.815300 2.583300
11.834700 2.805200
11.854100 3.051300
11.873500 3.046100
11.892900 2.900000
11.912200 2.742400
11.931600 2.591900
11.951000 2.448300
11.970400 2.311500
11.989800 2.185300
12.009200 2.072400
12.028500 1.972900
12.047900 1.886600
12.067300 1.816900
12.086700 1.763000
12.106100 1.735400
12.125400 1.735700
12.144800 1.752000
12.164200 1.801400
12.183600 1.853800
12.203000 1.908600
12.222400 1.967600
12.241700 2.046300
12.261100 2.351900
12.280500 2.686400
12.299900 2.791800
12.319300 2.825700
12.338600 2.857900
12.358000 2.888500
12.377400 2.917500
12.396800 2.944900
12.416200 2.984900
12.435500 3.027500
12.454900 2.759600
12.474300 2.800700
12.493700 2.836300
12.513100 2.663700
12.532500 2.674700
12.551800 2.679700
12.571200 2.621000
12.590600 2.693100
12.610000 2.715100
12.629400 2.767500
12.648700 2.792000
12.668100 2.817500
12.687500 2.843800
12.706900 2.871100
12.726300 2.925700
12.745600 2.987200
12.765000 3.154100
12.784400 3.043400
12.803800 2.249800
12.823200 2.020100
12.842600 1.996200
12.861900 1.985400
12.881300 1.961300
12.900700 1.941100
12.920100 1.924700
12.939500 1.918600
12.958800 1.927800
12.978200 1.952300
12.997600 1.992100
13.017000 2.045600
13.036400 2.162600
13.055800 2.320900
13.075100 2.384500
13.094500 2.586900
13.113900 2.816400
13.133300 3.072900
13.152700 3.457400
13.172000 2.893000
13.191400 2.779600
13.210800 2.665400
13.230200 2.547200
13.249600 2.414400
13.268900 2.266200
13.288300 2.103600
13.307700 1.979700
13.327100 1.866100
13.346500 1.759500
13.365900 1.683600
13.385200 1.712700
13.404600 1.788000
13.424000 1.865000
13.443400 1.943700
13.462800 2.024300
13.482100 2.106700
13.501500 2.190900
13.520900 2.292200
13.540300 2.410100
13.559700 2.480500
13.579100 2.532600
13.598400 2.568400
13.617800 2.601100
13.637200 2.630500
13.656600 2.665300
13.676000 2.716700
13.695300 2.790700
13.714700 2.906700
13.734100 3.064600
13.753500 3.207300
13.772900 3.057000
13.792200 3.065300
13.811600 3.074600
13.831000 3.073500
13.850400 3.062000
13.869800 3.040100
13.889200 3.170600
13.908500 3.260300
13.927900 3.449100
13.947300 3.593400
13.966700 3.595400
13.986100 3.589300
14.005400 3.609300
14.024800 3.655100
14.044200 3.316200
14.063600 3.007300
14.083000 2.818800
14.102400 2.758100
14.121700 2.700800
14.141100 2.885400
14.160500 3.227400
14.179900 2.681700
14.199300 2.370400
14.218600 2.334100
14.238000 2.241300
14.257400 2.209700
14.276800 2.193400
14.296200 2.190400
14.315500 2.199200
14.334900 2.220000
14.354300 2.252700
14.373700 2.382400
14.393100 2.429600
14.412500 2.510900
14.431800 2.696100
14.451200 2.902300
14.470600 2.927500
14.490000 2.770100
14.509400 2.512900
14.528700 2.191100
14.548100 1.975400
14.567500 1.829700
14.586900 1.840000
14.606300 1.860000
14.625700 1.889600
14.645000 1.936300
14.664400 2.010900
14.683800 2.134500
14.703200 2.312100
14.722600 2.977700
14.741900 3.485100
14.761300 4.154100
14.780700 5.024300
14.800100 5.297800
14.819500 3.386500
14.838800 3.329400
14.858200 3.262600
14.877600 3.186200
14.897000 3.104300
14.916400 3.021700
14.935800 2.938600
14.955100 2.844100
14.974500 2.707400
14.993900 2.525400
15.013300 2.346500
15.032700 2.205500
15.052000 2.118200
15.071400 2.063800
15.090800 2.009600
15.110200 1.952200
15.129600 1.902100
15.148900 1.877800
15.168300 1.884100
15.187700 1.885000
15.207100 1.880800
15.226500 1.872000
15.245900 1.892000
15.265200 1.939500
15.284600 2.095000
15.304000 2.334900
15.323400 2.529800
15.342800 2.605400
15.362100 2.595800
15.381500 2.595200
15.400900 2.572400
15.420300 2.564900
15.439700 2.574100
15.459100 2.593900
15.478400 2.624200
15.497800 2.665000
15.517200 2.716400
15.536600 2.761400
15.556000 2.795700
15.575300 2.842000
15.594700 2.894600
15.614100 2.968000
15.633500 3.041000
15.652900 3.113700
15.672200 3.178000
15.691600 3.235600
15.711000 3.411100
15.730400 3.624500
15.749800 3.733800
15.769200 3.949200
15.788500 4.013300
15.807900 3.556000
15.827300 3.248800
15.846700 2.938900
15.866100 2.847500
15.885400 2.804000
15.904800 2.774700
15.924200 2.759700
15.943600 2.759100
15.963000 2.772700
15.982400 2.800500
16.001700 2.754800
16.021100 2.826200
16.040500 2.905500
16.059900 2.990500
16.079300 3.341900
16.098600 3.482900
16.118000 3.332000
16.137400 3.445100
16.156800 3.534700
16.176200 3.728800
16.195500 3.854400
16.214900 4.136300
16.234300 3.815800
16.253700 3.404000
16.273100 3.032000
16.292500 2.694800
16.311800 2.391700
16.331200 2.123800
16.350600 1.994700
16.370000 1.961200
16.389400 1.931100
16.408700 1.904500
16.428100 1.881200
16.447500 1.885000
16.466900 1.904300
16.486300 1.925400
16.505700 1.945900
16.525000 1.965900
16.544400 2.193500
16.563800 2.244100
16.583200 2.301800
16.602600 2.357300
16.621900 2.249400
16.641300 2.376900
16.660700 2.481800
16.680100 2.537400
16.699500 2.519700
16.718800 2.212700
16.738200 2.192100
16.757600 2.175200
16.777000 2.155500
16.796400 2.130200
16.815800 2.108700
16.835100 2.091000
16.854500 2.077200
16.873900 2.067200
16.893300 2.058700
16.912700 2.047600
16.932000 2.031800
16.951400 2.046100
16.970800 2.037400
16.990200 2.050700
17.009600 2.086600
17.029000 2.146000
17.048300 2.233100
17.067700 2.398200
17.087100 2.773900
17.106500 3.219300
17.125900 3.321500
17.145200 3.318000
17.164600 3.285300
17.184000 3.087300
17.203400 3.115600
17.222800 3.191900
17.242100 3.303100
17.261500 3.463500
17.280900 3.618300
17.300300 3.768500
17.319700 4.231200
17.339100 5.176800
17.358400 6.123400
17.377800 4.864400
17.397200 4.755000
17.416600 4.614700
17.436000 4.262900
17.455300 3.886700
17.474700 3.486100
17.494100 3.090100
17.513500 2.906500
17.532900 2.717800
17.552200 2.530700
17.571600 2.389600
17.591000 2.343700
17.610400 2.126800
17.629800 2.168000
17.649200 2.223400
17.668500 2.293000
17.687900 2.376700
17.707300 2.474500
17.726700 2.569200
17.746100 2.590500
17.765400 2.614000
17.784800 2.686600
17.804200 2.732200
17.823600 2.785200
17.843000 2.834400
17.862400 2.879000
17.881700 2.933900
17.901100 2.952300
17.920500 2.958400
17.939900 3.008400
17.959300 2.913100
17.978600 2.817100
17.998000 2.753800
18.017400 2.817100
18.036800 2.832100
18.056200 2.844300
18.075500 2.851900
18.094900 2.864200
18.114300 2.840300
18.133700 2.720700
18.153100 2.446900
18.172500 2.456200
18.191800 2.474500
18.211200 2.490500
18.230600 2.514600
18.250000 2.645300
18.269400 2.713000
18.288700 2.731700
18.308100 2.771400
18.327500 2.831400
18.346900 2.863900
18.366300 2.850200
18.385700 2.830700
18.405000 2.766600
18.424400 2.742700
18.443800 2.722800
18.463200 2.704300
18.482600 2.813700
18.501900 2.758400
18.521300 2.705200
18.540700 2.654200
18.560100 2.604600
18.579500 2.566600
18.598800 2.544400
18.618200 2.537500
18.637600 2.586700
18.657000 2.591500
18.676400 2.500100
18.695800 2.431300
18.715100 2.354600
18.734500 2.270100
18.753900 2.182200
18.773300 2.093000
18.792700 2.026300
18.812000 1.998700
18.831400 2.221400
18.850800 2.600100
18.870200 2.606300
18.889600 2.722300
18.909000 3.161200
18.928300 3.341100
18.947700 3.512700
18.967100 3.678600
18.986500 3.838900
19.005900 4.100600
19.025200 3.705400
19.044600 3.743500
19.064000 3.706200
19.083400 3.594000
19.102800 3.370000
19.122100 3.091900
19.141500 2.924400
19.160900 2.864100
19.180300 2.809300
19.199700 2.740400
19.219100 2.773000
19.238400 2.817300
19.257800 2.873200
19.277200 2.941100
19.296600 3.001100
19.316000 3.043500
19.335300 3.085000
19.354700 3.125700
19.374100 3.164600
19.393500 3.203300
19.412900 3.235000
19.432200 3.259400
19.451600 3.272500
19.471000 3.268400
19.490400 3.246600
19.509800 3.226300
19.529200 3.092600
19.548500 2.994900
19.567900 3.009300
19.587300 3.015000
19.606700 3.012200
19.626100 3.000700
19.645400 2.995100
19.664800 2.977700
19.684200 2.982900
19.703600 3.016600
19.723000 3.088000
19.742400 3.742400
19.761700 3.380900
19.781100 3.095200
19.800500 2.918100
19.819900 2.929900
19.839300 3.053800
19.858600 3.182500
19.878000 3.316100
19.897400 3.454600
19.916800 3.597900
19.936200 3.746100
19.955500 3.900800
19.974900 4.052400
19.994300 3.636300
20.013700 3.583900
20.033100 3.586600
20.052500 3.627400
20.071800 3.613000
20.091200 3.625500
20.110600 3.658100
20.130000 3.651400
20.149400 3.630900
20.168700 3.611900
20.188100 3.586900
20.207500 3.556200
20.226900 3.522700
20.246300 3.485600
20.265700 3.833300
20.285000 3.439700
20.304400 3.056600
20.323800 2.756800
20.343200 2.673900
20.362600 2.582500
20.381900 2.487500
20.401300 2.455100
20.420700 2.463000
20.440100 2.481700
20.459500 2.392300
20.478800 2.368600
20.498200 2.483200
20.517600 2.534300
20.537000 2.555600
20.556400 2.561200
20.575800 2.551400
20.595100 2.534900
20.614500 2.517600
20.633900 2.500300
20.653300 2.469200
20.672700 2.410600
20.692000 2.349700
20.711400 2.299400
20.730800 2.263100
20.750200 2.472500
20.769600 2.599300
20.789000 1.994500
20.808300 3.241000
20.827700 1.501100
20.847100 1.389100
20.866500 1.278900
20.885900 1.170800
20.905200 1.064500
20.924600 0.958300
20.944000 0.898500
20.963400 0.841300
20.982800 0.719100
21.002100 0.531800
21.021500 0.250500
21.040900 0.131700
21.060300 0.076800
21.079700 0.070800
21.099100 0.068000
21.118400 0.065400
21.137800 0.062900
21.157200 0.060600
21.176600 0.058400
21.196000 0.056300
21.215300 0.054400
21.234700 0.052600
21.254100 0.045100
21.273500 0.037400
21.292900 0.030300
21.312300 0.024000
21.331600 0.018400
21.351000 0.013600
21.370400 0.009500
21.389800 0.006100
21.409200 0.003500
21.428500 0.001600
21.447900 0.000400
21.467300 0.000000
21.486700 0.000000
21.506100 0.000000
21.525400 0.000000
21.544800 0.000000
21.564200 0.000000
21.583600 0.000000
21.603000 0.000000
21.622400 0.000000
21.641700 0.000000
21.661100 0.000000
21.680500 0.000000
21.699900 0.000000
21.719300 0.000000
21.738600 0.000000
21.758000 0.000000
21.777400 0.000000
21.796800 0.000000
21.816200 0.000000
21.835500 0.000000
21.854900 0.000000
21.874300 0.000000
21.893700 0.000000
21.913100 0.000000
21.932500 0.000000
21.951800 0.000000
21.971200 0.000000
21.990600 0.000000
22.010000 0.000000
22.029400 0.000000
22.048700 0.000000
22.068100 0.000000
22.087500 0.000000
22.106900 0.000000
22.126300 0.000000
22.145700 0.000000
22.165000 0.000000
22.184400 0.000000
22.203800 0.000000
22.223200 0.000000
22.242600 0.000000
22.261900 0.000000
22.281300 0.000000
22.300700 0.000000
22.320100 0.000000
22.339500 0.000000
22.358800 0.000000
22.378200 0.000000
22.397600 0.000000
22.417000 0.000000
22.436400 0.000000
22.455800 0.000000
22.475100 0.000000
22.494500 0.000000
22.513900 0.000000
22.533300 0.000000
22.552700 0.000000
22.572000 0.000000
22.591400 0.000000
22.610800 0.000000
22.630200 0.000000
22.649600 0.000000
22.669000 0.000000
22.688300 0.000000
22.707700 0.000000
22.727100 0.000000
22.746500 0.000000
22.765900 0.000000
22.785200 0.000000
22.804600 0.000000
22.824000 0.000000
22.843400 0.000000
22.862800 0.000000
22.882100 0.000000
22.901500 0.000000
22.920900 0.000000
22.940300 0.000000
22.959700 0.000000
22.979100 0.000000
22.998400 0.000000
23.017800 0.000000
23.037200 0.000000
23.056600 0.000000
23.076000 0.000000
23.095300 0.000000
23.114700 0.000000
23.134100 0.000000
23.153500 0.000000
23.172900 0.000000
23.192300 0.000000
23.211600 0.000000
23.231000 0.000000
e
