set title 'mp-1226232 - Density of States'
set xlabel 'Energy (eV)'
set ylabel 'DOS (states/eV)'
set grid
set xrange [-10:10]
set yrange [0:6.471]
set xzeroaxis lt -1
set terminal png size 800,600
set output 'mp-1226232_dos_gnuplot.png'
plot '-' using 1:2 with lines title 'DOS'
-62.770500 0.000000
-62.699700 0.000000
-62.629000 0.000000
-62.558200 0.000000
-62.487500 0.000000
-62.416700 0.000000
-62.346000 0.000000
-62.275200 0.000000
-62.204500 0.000000
-62.133700 0.000000
-62.063000 0.000000
-61.992200 0.000000
-61.921500 0.000000
-61.850700 0.000000
-61.780000 0.000000
-61.709200 0.000000
-61.638500 0.000000
-61.567700 0.000000
-61.497000 0.000000
-61.426200 0.000000
-61.355500 0.000000
-61.284800 0.000000
-61.214000 0.000000
-61.143300 0.000000
-61.072500 0.000000
-61.001800 0.000000
-60.931000 0.000000
-60.860300 0.000000
-60.789500 0.000000
-60.718800 0.000000
-60.648000 0.000000
-60.577300 0.000000
-60.506500 0.000000
-60.435800 0.000000
-60.365000 0.000000
-60.294300 0.000000
-60.223500 0.000000
-60.152800 0.000000
-60.082000 0.000000
-60.011300 0.000000
-59.940500 0.000000
-59.869800 0.000000
-59.799000 0.000000
-59.728300 0.000000
-59.657600 0.000000
-59.586800 0.000000
-59.516100 0.000000
-59.445300 0.000000
-59.374600 0.000000
-59.303800 0.000000
-59.233100 0.000000
-59.162300 0.000000
-59.091600 0.000000
-59.020800 0.000000
-58.950100 0.000000
-58.879300 0.000000
-58.808600 0.000000
-58.737800 0.000000
-58.667100 0.000000
-58.596300 0.000000
-58.525600 0.000000
-58.454800 0.000000
-58.384100 0.000000
-58.313300 0.000000
-58.242600 0.000000
-58.171800 0.000000
-58.101100 0.000000
-58.030300 0.000000
-57.959600 0.000000
-57.888900 0.000000
-57.818100 0.000000
-57.747400 0.000000
-57.676600 0.000000
-57.605900 0.000000
-57.535100 0.000000
-57.464400 0.000000
-57.393600 0.000000
-57.322900 0.000000
-57.252100 0.000000
-57.181400 0.000000
-57.110600 0.000000
-57.039900 0.000000
-56.969100 0.000000
-56.898400 0.000000
-56.827600 0.000000
-56.756900 0.000000
-56.686100 0.000000
-56.615400 0.000000
-56.544600 0.000000
-56.473900 0.000000
-56.403100 0.000000
-56.332400 40.481200
-56.261600 0.000000
-56.190900 0.000000
-56.120200 24.275100
-56.049400 15.898100
-55.978700 25.543500
-55.907900 0.000000
-55.837200 0.000000
-55.766400 0.000000
-55.695700 0.000000
-55.624900 0.000000
-55.554200 0.000000
-55.483400 0.000000
-55.412700 0.000000
-55.341900 0.000000
-55.271200 0.000000
-55.200400 0.000000
-55.129700 0.000000
-55.058900 0.000000
-54.988200 0.000000
-54.917400 0.000000
-54.846700 0.000000
-54.775900 0.000000
-54.705200 0.000000
-54.634400 0.000000
-54.563700 0.000000
-54.492900 0.000000
-54.422200 0.000000
-54.351500 0.000000
-54.280700 0.000000
-54.210000 0.000000
-54.139200 0.000000
-54.068500 0.000000
-53.997700 0.000000
-53.927000 0.000000
-53.856200 0.000000
-53.785500 0.000000
-53.714700 0.000000
-53.644000 0.000000
-53.573200 0.000000
-53.502500 0.000000
-53.431700 0.000000
-53.361000 0.000000
-53.290200 0.000000
-53.219500 0.000000
-53.148700 0.000000
-53.078000 0.000000
-53.007200 0.000000
-52.936500 0.000000
-52.865700 0.000000
-52.795000 0.000000
-52.724300 0.000000
-52.653500 0.000000
-52.582800 0.000000
-52.512000 0.000000
-52.441300 0.000000
-52.370500 0.000000
-52.299800 0.000000
-52.229000 0.000000
-52.158300 0.000000
-52.087500 0.000000
-52.016800 0.000000
-51.946000 0.000000
-51.875300 0.000000
-51.804500 0.000000
-51.733800 0.000000
-51.663000 0.000000
-51.592300 0.000000
-51.521500 0.000000
-51.450800 0.000000
-51.380000 0.000000
-51.309300 0.000000
-51.238500 0.000000
-51.167800 0.000000
-51.097000 0.000000
-51.026300 0.000000
-50.955600 0.000000
-50.884800 0.000000
-50.814100 0.000000
-50.743300 0.000000
-50.672600 0.000000
-50.601800 0.000000
-50.531100 0.000000
-50.460300 0.000000
-50.389600 0.000000
-50.318800 0.000000
-50.248100 0.000000
-50.177300 0.000000
-50.106600 0.000000
-50.035800 0.000000
-49.965100 0.000000
-49.894300 0.000000
-49.823600 0.000000
-49.752800 0.000000
-49.682100 0.000000
-49.611300 0.000000
-49.540600 0.000000
-49.469800 0.000000
-49.399100 0.000000
-49.328300 0.000000
-49.257600 0.000000
-49.186900 0.000000
-49.116100 0.000000
-49.045400 0.000000
-48.974600 0.000000
-48.903900 0.000000
-48.833100 0.000000
-48.762400 0.000000
-48.691600 0.000000
-48.620900 0.000000
-48.550100 0.000000
-48.479400 0.000000
-48.408600 0.000000
-48.337900 0.000000
-48.267100 0.000000
-48.196400 0.000000
-48.125600 0.000000
-48.054900 0.000000
-47.984100 0.000000
-47.913400 0.000000
-47.842600 0.000000
-47.771900 0.000000
-47.701100 0.000000
-47.630400 0.000000
-47.559700 0.000000
-47.488900 0.000000
-47.418200 0.000000
-47.347400 0.000000
-47.276700 0.000000
-47.205900 0.000000
-47.135200 0.000000
-47.064400 0.000000
-46.993700 0.000000
-46.922900 0.000000
-46.852200 0.000000
-46.781400 0.000000
-46.710700 0.000000
-46.639900 0.000000
-46.569200 0.000000
-46.498400 0.000000
-46.427700 0.000000
-46.356900 0.000000
-46.286200 0.000000
-46.215400 0.000000
-46.144700 0.000000
-46.073900 0.000000
-46.003200 0.000000
-45.932400 0.000000
-45.861700 0.000000
-45.791000 0.000000
-45.720200 0.000000
-45.649500 0.000000
-45.578700 0.000000
-45.508000 0.000000
-45.437200 0.000000
-45.366500 0.000000
-45.295700 0.000000
-45.225000 0.000000
-45.154200 0.000000
-45.083500 0.000000
-45.012700 0.000000
-44.942000 0.000000
-44.871200 0.000000
-44.800500 0.000000
-44.729700 0.000000
-44.659000 0.000000
-44.588200 0.000000
-44.517500 0.000000
-44.446700 0.000000
-44.376000 0.000000
-44.305200 0.000000
-44.234500 0.000000
-44.163700 0.000000
-44.093000 0.000000
-44.022300 0.000000
-43.951500 0.000000
-43.880800 0.000000
-43.810000 0.000000
-43.739300 0.000000
-43.668500 0.000000
-43.597800 0.000000
-43.527000 0.000000
-43.456300 0.000000
-43.385500 0.000000
-43.314800 0.000000
-43.244000 0.000000
-43.173300 0.000000
-43.102500 0.000000
-43.031800 0.000000
-42.961000 0.000000
-42.890300 0.000000
-42.819500 0.000000
-42.748800 0.000000
-42.678000 0.000000
-42.607300 0.000000
-42.536500 0.000000
-42.465800 0.000000
-42.395000 0.000000
-42.324300 0.000000
-42.253600 0.000000
-42.182800 0.000000
-42.112100 0.000000
-42.041300 0.000000
-41.970600 0.000000
-41.899800 0.000000
-41.829100 0.000000
-41.758300 0.000000
-41.687600 0.000000
-41.616800 0.000000
-41.546100 0.000000
-41.475300 0.000000
-41.404600 0.000000
-41.333800 0.000000
-41.263100 0.000000
-41.192300 0.000000
-41.121600 0.000000
-41.050800 0.000000
-40.980100 0.000000
-40.909300 0.000000
-40.838600 0.000000
-40.767800 0.000000
-40.697100 0.000000
-40.626400 0.000000
-40.555600 0.000000
-40.484900 0.000000
-40.414100 0.000000
-40.343400 0.000000
-40.272600 0.000000
-40.201900 0.000000
-40.131100 0.000000
-40.060400 0.000000
-39.989600 0.000000
-39.918900 0.000000
-39.848100 0.000000
-39.777400 0.000000
-39.706600 0.000000
-39.635900 0.000000
-39.565100 0.000000
-39.494400 0.000000
-39.423600 0.000000
-39.352900 0.000000
-39.282100 0.000000
-39.211400 0.000000
-39.140600 0.000000
-39.069900 0.000000
-38.999100 0.000000
-38.928400 0.000000
-38.857700 0.000000
-38.786900 0.000000
-38.716200 0.000000
-38.645400 0.000000
-38.574700 0.000000
-38.503900 0.000000
-38.433200 0.000000
-38.362400 0.000000
-38.291700 0.000000
-38.220900 0.000000
-38.150200 0.000000
-38.079400 0.000000
-38.008700 0.000000
-37.937900 0.000000
-37.867200 0.000000
-37.796400 0.000000
-37.725700 0.000000
-37.654900 0.000000
-37.584200 0.000000
-37.513400 0.000000
-37.442700 0.000000
-37.371900 0.000000
-37.301200 0.000000
-37.230400 0.000000
-37.159700 0.000000
-37.089000 0.000000
-37.018200 0.000000
-36.947500 0.000000
-36.876700 0.000000
-36.806000 0.000000
-36.735200 0.000000
-36.664500 0.000000
-36.593700 0.000000
-36.523000 0.000000
-36.452200 0.000000
-36.381500 0.000000
-36.310700 0.000000
-36.240000 0.000000
-36.169200 0.000000
-36.098500 0.000000
-36.027700 0.000000
-35.957000 0.000000
-35.886200 0.000000
-35.815500 0.000000
-35.744700 0.000000
-35.674000 4.393800
-35.603200 5.930800
-35.532500 11.341300
-35.461700 7.032700
-35.391000 3.198800
-35.320300 3.207800
-35.249500 3.708200
-35.178800 4.800300
-35.108000 7.199700
-35.037300 6.852700
-34.966500 5.734400
-34.895800 6.115300
-34.825000 0.000000
-34.754300 0.000000
-34.683500 0.000000
-34.612800 0.000000
-34.542000 0.000000
-34.471300 0.000000
-34.400500 0.000000
-34.329800 0.000000
-34.259000 0.000000
-34.188300 0.000000
-34.117500 0.000000
-34.046800 0.000000
-33.976000 0.000000
-33.905300 0.000000
-33.834500 0.000000
-33.763800 0.000000
-33.693100 0.000000
-33.622300 0.000000
-33.551600 0.000000
-33.480800 0.000000
-33.410100 0.000000
-33.339300 0.000000
-33.268600 0.000000
-33.197800 0.000000
-33.127100 0.000000
-33.056300 0.000000
-32.985600 0.000000
-32.914800 0.000000
-32.844100 0.000000
-32.773300 0.000000
-32.702600 0.000000
-32.631800 0.000000
-32.561100 0.000000
-32.490300 0.000000
-32.419600 0.000000
-32.348800 0.000000
-32.278100 0.000000
-32.207300 0.000000
-32.136600 0.000000
-32.065800 0.000000
-31.995100 0.000000
-31.924400 0.000000
-31.853600 0.000000
-31.782900 0.000000
-31.712100 0.000000
-31.641400 0.000000
-31.570600 0.000000
-31.499900 0.000000
-31.429100 0.000000
-31.358400 0.000000
-31.287600 0.000000
-31.216900 0.000000
-31.146100 0.000000
-31.075400 0.000000
-31.004600 0.000000
-30.933900 0.000000
-30.863100 0.000000
-30.792400 0.000000
-30.721600 0.000000
-30.650900 0.000000
-30.580100 0.000000
-30.509400 0.000000
-30.438600 0.000000
-30.367900 0.000000
-30.297100 0.000000
-30.226400 0.000000
-30.155700 0.000000
-30.084900 0.000000
-30.014200 0.000000
-29.943400 0.000000
-29.872700 0.000000
-29.801900 0.000000
-29.731200 0.000000
-29.660400 0.000000
-29.589700 0.000000
-29.518900 0.000000
-29.448200 0.000000
-29.377400 0.000000
-29.306700 0.000000
-29.235900 0.000000
-29.165200 0.000000
-29.094400 0.000000
-29.023700 0.000000
-28.952900 0.000000
-28.882200 0.000000
-28.811400 0.000000
-28.740700 0.000000
-28.669900 0.000000
-28.599200 0.000000
-28.528400 0.000000
-28.457700 0.000000
-28.387000 0.000000
-28.316200 0.000000
-28.245500 0.000000
-28.174700 0.000000
-28.104000 0.000000
-28.033200 0.000000
-27.962500 0.000000
-27.891700 0.000000
-27.821000 0.000000
-27.750200 0.000000
-27.679500 0.000000
-27.608700 0.000000
-27.538000 0.000000
-27.467200 0.000000
-27.396500 0.000000
-27.325700 0.000000
-27.255000 0.000000
-27.184200 0.000000
-27.113500 0.000000
-27.042700 0.000000
-26.972000 0.000000
-26.901200 0.000000
-26.830500 0.000000
-26.759800 0.000000
-26.689000 0.000000
-26.618300 0.000000
-26.547500 0.000000
-26.476800 0.000000
-26.406000 0.000000
-26.335300 0.000000
-26.264500 0.000000
-26.193800 0.000000
-26.123000 0.000000
-26.052300 0.000000
-25.981500 0.000000
-25.910800 0.000000
-25.840000 0.000000
-25.769300 0.000000
-25.698500 0.000000
-25.627800 0.000000
-25.557000 0.000000
-25.486300 0.000000
-25.415500 0.000000
-25.344800 0.000000
-25.274000 0.000000
-25.203300 0.000000
-25.132500 0.000000
-25.061800 0.000000
-24.991100 0.000000
-24.920300 0.000000
-24.849600 0.000000
-24.778800 0.000000
-24.708100 0.000000
-24.637300 0.000000
-24.566600 0.000000
-24.495800 0.000000
-24.425100 0.000000
-24.354300 0.000000
-24.283600 0.000000
-24.212800 0.000000
-24.142100 0.000000
-24.071300 0.000000
-24.000600 0.000000
-23.929800 0.000000
-23.859100 0.000000
-23.788300 0.000000
-23.717600 0.000000
-23.646800 0.000000
-23.576100 0.000000
-23.505300 0.000000
-23.434600 0.000000
-23.363800 0.000000
-23.293100 0.000000
-23.222400 0.000000
-23.151600 0.000000
-23.080900 0.000000
-23.010100 0.000000
-22.939400 0.000000
-22.868600 0.000000
-22.797900 0.000000
-22.727100 0.000000
-22.656400 0.000000
-22.585600 0.000000
-22.514900 0.000000
-22.444100 0.000000
-22.373400 0.000000
-22.302600 0.000000
-22.231900 0.000000
-22.161100 0.000000
-22.090400 0.000000
-22.019600 0.000000
-21.948900 0.000000
-21.878100 0.000000
-21.807400 0.000000
-21.736600 0.000000
-21.665900 0.000000
-21.595200 0.000000
-21.524400 0.000000
-21.453700 0.000000
-21.382900 0.000000
-21.312200 0.000000
-21.241400 0.000000
-21.170700 0.000000
-21.099900 0.000000
-21.029200 0.000000
-20.958400 0.000000
-20.887700 0.000000
-20.816900 0.000000
-20.746200 0.000000
-20.675400 0.000000
-20.604700 0.000000
-20.533900 0.000000
-20.463200 0.000000
-20.392400 0.000000
-20.321700 0.000000
-20.250900 0.000000
-20.180200 0.000000
-20.109400 0.000000
-20.038700 0.000000
-19.967900 0.000000
-19.897200 0.000000
-19.826500 0.000000
-19.755700 0.000000
-19.685000 0.000000
-19.614200 0.000000
-19.543500 0.000000
-19.472700 0.000000
-19.402000 0.000000
-19.331200 0.000000
-19.260500 0.000000
-19.189700 0.000000
-19.119000 0.000000
-19.048200 0.000000
-18.977500 0.000000
-18.906700 0.000000
-18.836000 0.000000
-18.765200 0.000000
-18.694500 0.000000
-18.623700 0.000000
-18.553000 0.000000
-18.482200 0.000000
-18.411500 0.000000
-18.340700 0.000000
-18.270000 0.000000
-18.199200 0.000000
-18.128500 0.000000
-18.057800 0.000000
-17.987000 0.000000
-17.916300 0.000000
-17.845500 0.000000
-17.774800 0.000000
-17.704000 0.000000
-17.633300 0.000000
-17.562500 0.000000
-17.491800 0.000000
-17.421000 0.000000
-17.350300 0.000000
-17.279500 0.000000
-17.208800 0.000000
-17.138000 0.000000
-17.067300 0.000000
-16.996500 0.000000
-16.925800 0.000000
-16.855000 0.000000
-16.784300 0.000000
-16.713500 0.000000
-16.642800 0.000000
-16.572000 0.000000
-16.501300 0.000000
-16.430500 0.000000
-16.359800 0.000000
-16.289100 0.000000
-16.218300 0.000000
-16.147600 0.000000
-16.076800 0.000000
-16.006100 0.000000
-15.935300 0.000000
-15.864600 0.000000
-15.793800 0.000000
-15.723100 0.000000
-15.652300 0.000000
-15.581600 0.000000
-15.510800 0.000000
-15.440100 0.000000
-15.369300 0.000000
-15.298600 0.000000
-15.227800 0.000000
-15.157100 0.000000
-15.086300 0.000000
-15.015600 0.000000
-14.944800 0.000000
-14.874100 0.000000
-14.803300 0.000000
-14.732600 0.000000
-14.661900 0.000000
-14.591100 0.000000
-14.520400 0.000000
-14.449600 0.000000
-14.378900 0.000000
-14.308100 0.000000
-14.237400 0.000000
-14.166600 0.000000
-14.095900 0.000000
-14.025100 0.000000
-13.954400 0.000000
-13.883600 0.000000
-13.812900 0.000000
-13.742100 0.000000
-13.671400 0.000000
-13.600600 0.000000
-13.529900 0.000000
-13.459100 0.000000
-13.388400 0.000000
-13.317600 0.000000
-13.246900 0.000000
-13.176100 0.000000
-13.105400 0.000000
-13.034600 0.000000
-12.963900 0.000000
-12.893200 0.000000
-12.822400 0.000000
-12.751700 0.000000
-12.680900 0.000000
-12.610200 0.000000
-12.539400 0.000000
-12.468700 0.000000
-12.397900 0.000000
-12.327200 0.000000
-12.256400 0.000000
-12.185700 0.000000
-12.114900 0.000000
-12.044200 0.000000
-11.973400 0.000000
-11.902700 0.000000
-11.831900 0.000000
-11.761200 0.000000
-11.690400 0.000000
-11.619700 0.000000
-11.548900 0.000000
-11.478200 0.000000
-11.407400 0.000000
-11.336700 0.000000
-11.265900 0.000000
-11.195200 0.000000
-11.124500 0.000000
-11.053700 0.000000
-10.983000 0.000000
-10.912200 0.000000
-10.841500 0.000000
-10.770700 0.000000
-10.700000 0.000000
-10.629200 0.000000
-10.558500 0.000000
-10.487700 0.000000
-10.417000 0.000000
-10.346200 0.000000
-10.275500 0.000000
-10.204700 0.000000
-10.134000 0.000000
-10.063200 0.000000
-9.992500 0.000000
-9.921700 0.000000
-9.851000 0.000000
-9.780200 0.000000
-9.709500 0.000000
-9.638700 0.000000
-9.568000 0.000000
-9.497200 0.000000
-9.426500 0.000000
-9.355800 0.000000
-9.285000 0.000000
-9.214300 0.000000
-9.143500 0.000000
-9.072800 0.000000
-9.002000 0.000000
-8.931300 0.000000
-8.860500 0.000000
-8.789800 0.000000
-8.719000 0.000000
-8.648300 0.000000
-8.577500 0.000000
-8.506800 0.000000
-8.436000 0.000000
-8.365300 0.000000
-8.294500 0.000000
-8.223800 0.000000
-8.153000 0.000000
-8.082300 0.000000
-8.011500 0.000000
-7.940800 0.000000
-7.870000 0.000000
-7.799300 0.000000
-7.728600 0.000000
-7.657800 0.000000
-7.587100 0.000000
-7.516300 0.000000
-7.445600 0.000000
-7.374800 0.000000
-7.304100 0.000000
-7.233300 0.000000
-7.162600 0.000000
-7.091800 0.000000
-7.021100 0.000000
-6.950300 0.000000
-6.879600 0.000000
-6.808800 0.000000
-6.738100 0.000000
-6.667300 0.000000
-6.596600 0.000000
-6.525800 0.000000
-6.455100 0.000000
-6.384300 0.000000
-6.313600 0.000000
-6.242800 0.000000
-6.172100 0.000000
-6.101300 0.000000
-6.030600 0.000000
-5.959900 0.000000
-5.889100 0.000000
-5.818400 0.000000
-5.747600 0.000000
-5.676900 0.000000
-5.606100 0.000000
-5.535400 0.000000
-5.464600 0.000000
-5.393900 0.000000
-5.323100 0.000000
-5.252400 0.000000
-5.181600 0.000000
-5.110900 0.000000
-5.040100 0.000000
-4.969400 0.000000
-4.898600 0.000000
-4.827900 0.000000
-4.757100 0.000000
-4.686400 0.000000
-4.615600 0.000000
-4.544900 0.000000
-4.474100 0.000000
-4.403400 0.000000
-4.332600 0.000000
-4.261900 0.000000
-4.191200 0.000000
-4.120400 0.000000
-4.049700 0.000000
-3.978900 0.000000
-3.908200 0.000000
-3.837400 0.000000
-3.766700 0.000000
-3.695900 0.000000
-3.625200 0.000000
-3.554400 0.000000
-3.483700 0.000000
-3.412900 0.000000
-3.342200 0.000000
-3.271400 0.000000
-3.200700 0.000000
-3.129900 0.000000
-3.059200 0.000000
-2.988400 0.000000
-2.917700 0.000000
-2.846900 0.000000
-2.776200 0.000000
-2.705400 0.000000
-2.634700 0.000000
-2.563900 0.000000
-2.493200 0.000000
-2.422500 0.000000
-2.351700 0.000000
-2.281000 0.000000
-2.210200 0.000000
-2.139500 0.000000
-2.068700 0.000000
-1.998000 0.000000
-1.927200 0.000000
-1.856500 0.000000
-1.785700 0.000000
-1.715000 0.000000
-1.644200 0.000000
-1.573500 0.000000
-1.502700 0.000000
-1.432000 0.000000
-1.361200 0.000000
-1.290500 0.000000
-1.219700 0.000000
-1.149000 0.000000
-1.078200 0.000000
-1.007500 0.000000
-0.936700 0.014000
-0.866000 0.047800
-0.795300 0.050600
-0.724500 0.061900
-0.653800 0.073100
-0.583000 0.083500
-0.512300 0.090400
-0.441500 0.096300
-0.370800 0.103600
-0.300000 0.111300
-0.229300 0.119500
-0.158500 0.127300
-0.087800 0.133100
-0.017000 0.139400
0.053700 0.145700
0.124500 0.152100
0.195200 0.159000
0.266000 0.166200
0.336700 0.173600
0.407500 0.181400
0.478200 0.189500
0.549000 0.197000
0.619700 0.205100
0.690500 0.213700
0.761200 0.229600
0.832000 0.244400
0.902700 0.243300
0.973400 0.249200
1.044200 0.253900
1.114900 0.254900
1.185700 0.258500
1.256400 0.263100
1.327200 0.267700
1.397900 0.271600
1.468700 0.275200
1.539400 0.280200
1.610200 0.285600
1.680900 0.291800
1.751700 0.298300
1.822400 0.321200
1.893200 0.335000
1.963900 0.351000
2.034700 0.367600
2.105400 0.385700
2.176200 0.404500
2.246900 0.425400
2.317700 0.449200
2.388400 0.476900
2.459200 0.507300
2.529900 0.541700
2.600700 0.582900
2.671400 0.631400
2.742100 0.689800
2.812900 0.807200
2.883600 1.239000
2.954400 1.265700
3.025100 1.329600
3.095900 1.326900
3.166600 1.739500
3.237400 1.926200
3.308100 2.094000
3.378900 2.128600
3.449600 2.163600
3.520400 2.234600
3.591100 2.317700
3.661900 2.429900
3.732600 2.729300
3.803400 2.920300
3.874100 3.106700
3.944900 3.320100
4.015600 3.700100
4.086400 3.681900
4.157100 3.557500
4.227900 3.553000
4.298600 3.527900
4.369400 2.964400
4.440100 3.478800
4.510800 2.847700
4.581600 2.550200
4.652300 2.731100
4.723100 3.240000
4.793800 2.799300
4.864600 3.080000
4.935300 3.811300
5.006100 3.709100
5.076800 3.278400
5.147600 3.227000
5.218300 3.391000
5.289100 3.285100
5.359800 3.571600
5.430600 3.499100
5.501300 3.630700
5.572100 3.944800
5.642800 4.713300
5.713600 5.285900
5.784300 4.461800
5.855100 5.504800
5.925800 5.882500
5.996600 5.069500
6.067300 4.212800
6.138000 3.920600
6.208800 2.906300
6.279500 3.151200
6.350300 2.545500
6.421000 2.419000
6.491800 2.612200
6.562500 3.382700
6.633300 3.539100
6.704000 4.034800
6.774800 4.130400
6.845500 4.176200
6.916300 3.150400
6.987000 2.534100
7.057800 2.280300
7.128500 2.476700
7.199300 2.493900
7.270000 2.643800
7.340800 2.832200
7.411500 2.782600
7.482300 3.332400
7.553000 3.098100
7.623800 3.055400
7.694500 3.253300
7.765300 2.903200
7.836000 3.471600
7.906700 2.957300
7.977500 2.439100
8.048200 2.096900
8.119000 2.110700
8.189700 1.805900
8.260500 1.973900
8.331200 2.203800
8.402000 2.938300
8.472700 3.013600
8.543500 3.266800
8.614200 3.287300
8.685000 2.879900
8.755700 2.581300
8.826500 2.809300
8.897200 4.189900
8.968000 3.519900
9.038700 3.423600
9.109500 2.851500
9.180200 1.955800
9.251000 1.182300
9.321700 1.069600
9.392500 1.036600
9.463200 1.035500
9.534000 1.021000
9.604700 0.991500
9.675400 0.974300
9.746200 0.964600
9.816900 0.967800
9.887700 0.980300
9.958400 1.010100
10.029200 1.047800
10.099900 1.066100
10.170700 1.076800
10.241400 1.093000
10.312200 1.051900
10.382900 0.964100
10.453700 0.901300
10.524400 0.856100
10.595200 0.809300
10.665900 0.772800
10.736700 0.749900
10.807400 0.732100
10.878200 0.715500
10.948900 0.699900
11.019700 0.685800
11.090400 0.676300
11.161200 0.665400
11.231900 0.649000
11.302600 0.622300
11.373400 0.584800
11.444100 0.572300
11.514900 0.564200
11.585600 0.557800
11.656400 0.552600
11.727100 0.543500
11.797900 0.534500
11.868600 0.527300
11.939400 0.523100
12.010100 0.519400
12.080900 0.517300
12.151600 0.520300
12.222400 0.530900
12.293100 0.531200
12.363900 0.486500
12.434600 0.473100
12.505400 0.471900
12.576100 0.478200
12.646900 0.486000
12.717600 0.465000
12.788400 0.439100
12.859100 0.429700
12.929900 0.422100
13.000600 0.415500
13.071300 0.405000
13.142100 0.391300
13.212800 0.375000
13.283600 0.349000
13.354300 0.331700
13.425100 0.329600
13.495800 0.332500
13.566600 0.359700
13.637300 0.363100
13.708100 0.342800
13.778800 0.335500
13.849600 0.326700
13.920300 0.322500
13.991100 0.317500
14.061800 0.312200
14.132600 0.306300
14.203300 0.298300
14.274100 0.291500
14.344800 0.281200
14.415600 0.267700
14.486300 0.257500
14.557100 0.253500
14.627800 0.235200
14.698600 0.200400
14.769300 0.154800
14.840000 0.135600
14.910800 0.119900
14.981500 0.104000
15.052300 0.095600
15.123000 0.090400
15.193800 0.196800
15.264500 0.334300
15.335300 0.444800
15.406000 0.611800
15.476800 0.682000
15.547500 0.882700
15.618300 0.876700
15.689000 0.815200
15.759800 0.810000
15.830500 0.779500
15.901300 0.772000
15.972000 0.741900
16.042800 0.731000
16.113500 0.744800
16.184300 0.708200
16.255000 0.681300
16.325800 0.673200
16.396500 0.668300
16.467300 0.661300
16.538000 0.651300
16.608700 0.634800
16.679500 0.614100
16.750200 0.603700
16.821000 0.597800
16.891700 0.598300
16.962500 0.596200
17.033200 0.579100
17.104000 0.545200
17.174700 0.525600
17.245500 0.504600
17.316200 0.478500
17.387000 0.455900
17.457700 0.446400
17.528500 0.430900
17.599200 0.415200
17.670000 0.397500
17.740700 0.384800
17.811500 0.377000
17.882200 0.373200
17.953000 0.371900
18.023700 0.375900
18.094500 0.396200
18.165200 0.421300
18.235900 0.434300
18.306700 0.460100
18.377400 0.498700
18.448200 0.549900
18.518900 0.615100
18.589700 0.660600
18.660400 0.650400
18.731200 0.652400
18.801900 0.653600
18.872700 0.663000
18.943400 0.816000
19.014200 0.705000
19.084900 0.638000
19.155700 0.604200
19.226400 0.585700
19.297200 0.597900
19.367900 0.705100
19.438700 0.724500
19.509400 0.849600
19.580200 0.800600
19.650900 0.826800
19.721700 0.869100
19.792400 0.862800
19.863200 0.869200
19.933900 0.851700
20.004600 0.823500
20.075400 0.793600
20.146100 0.783000
20.216900 0.788800
20.287600 0.791500
20.358400 0.799000
20.429100 0.797800
20.499900 0.799700
20.570600 0.812100
20.641400 0.836100
20.712100 0.855100
20.782900 0.858600
20.853600 0.878500
20.924400 0.868600
20.995100 0.841000
21.065900 0.831100
21.136600 0.828200
21.207400 0.828100
21.278100 0.830300
21.348900 0.831900
21.419600 0.832300
21.490400 0.834600
21.561100 0.841600
21.631900 0.851600
21.702600 0.860600
21.773300 0.883200
21.844100 0.927700
21.914800 0.909200
21.985600 0.890700
22.056300 0.881900
22.127100 0.865100
22.197800 0.879700
22.268600 0.880100
22.339300 0.877400
22.410100 0.911700
22.480800 0.910300
22.551600 0.932300
22.622300 0.922700
22.693100 0.913200
22.763800 0.907800
22.834600 0.911800
22.905300 0.909500
22.976100 0.914800
23.046800 0.934700
23.117600 0.927300
23.188300 0.920700
23.259100 0.916900
23.329800 0.929300
23.400600 0.917300
23.471300 0.914400
23.542000 0.918200
23.612800 0.920100
23.683500 0.905200
23.754300 0.899800
23.825000 0.899300
23.895800 0.897700
23.966500 0.887000
24.037300 0.889200
24.108000 0.885800
24.178800 0.872200
24.249500 0.854500
24.320300 0.835100
24.391000 0.815600
24.461800 0.809400
24.532500 0.798500
24.603300 0.790000
24.674000 0.801600
24.744800 0.826100
24.815500 0.845500
24.886300 0.855600
24.957000 0.848300
25.027800 0.850700
25.098500 0.877900
25.169200 0.895900
25.240000 0.955200
25.310700 0.843600
25.381500 0.827700
25.452200 0.823000
25.523000 0.815400
25.593700 0.810900
25.664500 0.806500
25.735200 0.795500
25.806000 0.788500
25.876700 0.785000
25.947500 0.783600
26.018200 0.784800
26.089000 0.784400
26.159700 0.785800
26.230500 0.787000
26.301200 0.788700
26.372000 0.785500
26.442700 0.787400
26.513500 0.805400
26.584200 0.812100
26.655000 0.814900
26.725700 0.817800
26.796500 0.820400
26.867200 0.819500
26.937900 0.816200
27.008700 0.813300
27.079400 0.814200
27.150200 0.804700
27.220900 0.803700
27.291700 0.803500
27.362400 0.805200
27.433200 0.801700
27.503900 0.796200
27.574700 0.792200
27.645400 0.792200
27.716200 0.789000
27.786900 0.785400
27.857700 0.786800
27.928400 0.806000
27.999200 0.811500
28.069900 0.801100
28.140700 0.781300
28.211400 0.760200
28.282200 0.762900
28.352900 0.812000
28.423700 0.877900
28.494400 0.890300
28.565200 0.869500
28.635900 0.855900
28.706600 0.862300
28.777400 0.835000
28.848100 0.811400
28.918900 0.788200
28.989600 0.767300
29.060400 0.752000
29.131100 0.727700
29.201900 0.720000
29.272600 0.741300
29.343400 0.825200
29.414100 0.920500
29.484900 0.945800
29.555600 0.953700
29.626400 0.975700
29.697100 0.991700
29.767900 1.007200
29.838600 0.979300
29.909400 0.964800
29.980100 0.963300
30.050900 0.959300
30.121600 0.953000
30.192400 0.955900
30.263100 0.962400
30.333900 0.966600
30.404600 0.973400
30.475300 0.974500
30.546100 0.972800
30.616800 0.959300
30.687600 0.938400
30.758300 0.934100
30.829100 0.936100
30.899800 0.936200
30.970600 0.941300
31.041300 0.953300
31.112100 0.957200
31.182800 0.966000
31.253600 0.976100
31.324300 0.988800
31.395100 0.999300
31.465800 1.010100
31.536600 1.022000
31.607300 1.040400
31.678100 1.061800
31.748800 1.061800
31.819600 1.058200
31.890300 1.056300
31.961100 1.056100
32.031800 1.071400
32.102500 1.107300
32.173300 1.094900
32.244000 1.076200
32.314800 1.048500
32.385500 1.058300
32.456300 1.098500
32.527000 1.090300
32.597800 1.065300
32.668500 1.036100
32.739300 1.022800
32.810000 1.014600
32.880800 0.996500
32.951500 0.971300
33.022300 0.928800
33.093000 0.899800
33.163800 0.868300
33.234500 0.850800
33.305300 0.839700
33.376000 0.824800
33.446800 0.822500
33.517500 0.818600
33.588300 0.817200
33.659000 0.817100
33.729800 0.821300
33.800500 0.830100
33.871200 0.840200
33.942000 0.822700
34.012700 0.829700
34.083500 0.794200
34.154200 0.777600
34.225000 0.767400
34.295700 0.761300
34.366500 0.765200
34.437200 0.781500
34.508000 0.814800
34.578700 0.803200
34.649500 0.811000
34.720200 0.818000
34.791000 0.828300
34.861700 0.827100
34.932500 0.822400
35.003200 0.839100
35.074000 0.788900
35.144700 0.687800
35.215500 0.595400
35.286200 0.550800
35.357000 0.532400
35.427700 0.521800
35.498500 0.466800
35.569200 0.437800
35.639900 0.430100
35.710700 0.430600
35.781400 0.438600
35.852200 0.474700
35.922900 0.532600
35.993700 0.586300
36.064400 0.667000
36.135200 0.762300
36.205900 0.831100
36.276700 0.887800
36.347400 0.928900
36.418200 0.971000
36.488900 1.056700
36.559700 1.120900
36.630400 1.159300
36.701200 1.171700
36.771900 1.205200
36.842700 1.243800
36.913400 1.254300
36.984200 1.272700
37.054900 1.292700
37.125700 1.296400
37.196400 1.319500
37.267100 1.335600
37.337900 1.280200
37.408600 1.213900
37.479400 1.175000
37.550100 1.141700
37.620900 1.102400
37.691600 1.111500
37.762400 1.153700
37.833100 1.193400
37.903900 1.203500
37.974600 1.215100
38.045400 1.200100
38.116100 1.179500
38.186900 1.148100
38.257600 1.137800
38.328400 1.143900
38.399100 1.159800
38.469900 1.247100
38.540600 1.220300
38.611400 1.206900
38.682100 1.221900
38.752900 1.135300
38.823600 1.068300
38.894400 1.033400
38.965100 0.984800
39.035800 0.960000
39.106600 0.969300
39.177300 1.039300
39.248100 1.065000
39.318800 1.071900
39.389600 1.083800
39.460300 1.073600
39.531100 1.076900
39.601800 1.065900
39.672600 1.042800
39.743300 1.049800
39.814100 1.063500
39.884800 1.104600
39.955600 1.163200
40.026300 1.267300
40.097100 1.614000
40.167800 1.979500
40.238600 2.557800
40.309300 3.148800
40.380100 3.568500
40.450800 3.158100
40.521600 2.815500
40.592300 3.018300
40.663100 3.252600
40.733800 2.343800
40.804500 1.803400
40.875300 1.502300
40.946000 1.374400
41.016800 1.314400
41.087500 1.307000
41.158300 1.421200
41.229000 1.442400
41.299800 1.409400
41.370500 1.433000
41.441300 1.497800
41.512000 1.378800
41.582800 1.351000
41.653500 1.342600
41.724300 1.307100
41.795000 1.227500
41.865800 1.177600
41.936500 1.127400
42.007300 1.090200
42.078000 1.080000
42.148800 1.083300
42.219500 1.068000
42.290300 1.055400
42.361000 1.149100
42.431800 1.124100
42.502500 1.091800
42.573200 1.104400
42.644000 1.137800
42.714700 1.127400
42.785500 1.145100
42.856200 1.166300
42.927000 1.238800
42.997700 1.245800
43.068500 1.159200
43.139200 1.181200
43.210000 1.184600
43.280700 1.182400
43.351500 1.199500
43.422200 1.257600
43.493000 1.263600
43.563700 1.282000
43.634500 1.294100
43.705200 1.305300
43.776000 1.284600
43.846700 1.290000
43.917500 1.310300
43.988200 1.342400
44.059000 1.378900
44.129700 1.455800
44.200400 1.485800
44.271200 1.626000
44.341900 2.019500
44.412700 2.558100
44.483400 3.087500
44.554200 4.536700
44.624900 5.059600
44.695700 4.322400
44.766400 2.603700
44.837200 2.094600
44.907900 1.711700
44.978700 1.542100
45.049400 1.418600
45.120200 1.298900
45.190900 1.228800
45.261700 1.200200
45.332400 1.185800
45.403200 1.165900
45.473900 1.168800
45.544700 1.170200
45.615400 1.162800
45.686200 1.117200
45.756900 1.080300
45.827700 1.052100
45.898400 1.041300
45.969100 1.040300
46.039900 1.019700
46.110600 0.994500
46.181400 1.004600
46.252100 1.007600
46.322900 0.995300
46.393600 1.000900
46.464400 1.003000
46.535100 1.012100
46.605900 1.024700
46.676600 1.013700
46.747400 1.021100
46.818100 1.058100
46.888900 1.056800
46.959600 1.038800
47.030400 1.045100
47.101100 1.049400
47.171900 1.060100
47.242600 1.078400
47.313400 1.135700
47.384100 1.121400
47.454900 1.101700
47.525600 1.080000
47.596400 1.066400
47.667100 1.056600
47.737800 1.040300
47.808600 1.042000
47.879300 1.047300
47.950100 1.061900
48.020800 1.084800
48.091600 1.127000
48.162300 1.164000
48.233100 1.184900
48.303800 1.217700
48.374600 1.231300
48.445300 1.228600
48.516100 1.211700
48.586800 1.211300
48.657600 1.223100
48.728300 1.262300
48.799100 1.304600
48.869800 1.323800
48.940600 1.292500
49.011300 1.241000
49.082100 1.196600
49.152800 1.162000
49.223600 1.147400
49.294300 1.162400
49.365100 1.142800
49.435800 1.121700
49.506500 1.095600
49.577300 1.082200
49.648000 1.064800
49.718800 1.041700
49.789500 1.037900
49.860300 1.041400
49.931000 1.055500
50.001800 1.069200
50.072500 1.088700
50.143300 1.116700
50.214000 1.138800
50.284800 1.105800
50.355500 1.096200
50.426300 1.102700
50.497000 1.109400
50.567800 1.103500
50.638500 1.094400
50.709300 1.090900
50.780000 1.092400
50.850800 1.100100
50.921500 1.127300
50.992300 1.139100
51.063000 1.142000
51.133700 1.154100
51.204500 1.171100
51.275200 1.196000
51.346000 1.225300
51.416700 1.238400
51.487500 1.256200
51.558200 1.218900
51.629000 1.193100
51.699700 1.193600
51.770500 1.194500
51.841200 1.206600
51.912000 1.213500
51.982700 1.237000
52.053500 1.232600
52.124200 1.229100
52.195000 1.226700
52.265700 1.218800
52.336500 1.191000
52.407200 1.170400
52.478000 1.162600
52.548700 1.161900
52.619500 1.162800
52.690200 1.146400
52.761000 1.129000
52.831700 1.134400
52.902400 1.144400
52.973200 1.142300
53.043900 1.141000
53.114700 1.144400
53.185400 1.166200
53.256200 1.213000
53.326900 1.238600
53.397700 1.232900
53.468400 1.249100
53.539200 1.247400
53.609900 1.242800
53.680700 1.248500
53.751400 1.263600
53.822200 1.269300
53.892900 1.281700
53.963700 1.298300
54.034400 1.304700
54.105200 1.305000
54.175900 1.314900
54.246700 1.336900
54.317400 1.359800
54.388200 1.328500
54.458900 1.301800
54.529700 1.283900
54.600400 1.285100
54.671100 1.285000
54.741900 1.277300
54.812600 1.290500
54.883400 1.324900
54.954100 1.313500
55.024900 1.329400
55.095600 1.350400
55.166400 1.341800
55.237100 1.323800
55.307900 1.317600
55.378600 1.299500
55.449400 1.282700
55.520100 1.274300
55.590900 1.287900
55.661600 1.296600
55.732400 1.307600
55.803100 1.304300
55.873900 1.281800
55.944600 1.267100
56.015400 1.255000
56.086100 1.252300
56.156900 1.259900
56.227600 1.252500
56.298400 1.251700
56.369100 1.246000
56.439800 1.243900
56.510600 1.238600
56.581300 1.251000
56.652100 1.213600
56.722800 1.180200
56.793600 1.167100
56.864300 1.155700
56.935100 1.142800
57.005800 1.126500
57.076600 1.105300
57.147300 1.077100
57.218100 1.056500
57.288800 1.069100
57.359600 1.107200
57.430300 1.150800
57.501100 1.160300
57.571800 1.151000
57.642600 1.169100
57.713300 1.167600
57.784100 1.157600
57.854800 1.159900
57.925600 1.165400
57.996300 1.169800
58.067000 1.160700
58.137800 1.124500
58.208500 1.134400
58.279300 1.182500
58.350000 1.235200
58.420800 1.272600
58.491500 1.283300
58.562300 1.287800
58.633000 1.309100
58.703800 1.318800
58.774500 1.338300
58.845300 1.374100
58.916000 1.392900
58.986800 1.395300
59.057500 1.416200
59.128300 1.426600
59.199000 1.445600
59.269800 1.440100
59.340500 1.469900
59.411300 1.449800
59.482000 1.421400
59.552800 1.401700
59.623500 1.365800
59.694300 1.325700
59.765000 1.310500
59.835700 1.310600
59.906500 1.257700
59.977200 1.226300
60.048000 1.205500
60.118700 1.184900
60.189500 1.162000
60.260200 1.172300
60.331000 1.183100
60.401700 1.175200
60.472500 1.151900
60.543200 1.143000
60.614000 1.146300
60.684700 1.147100
60.755500 1.160700
60.826200 1.191700
60.897000 1.158900
60.967700 1.138200
61.038500 1.175700
61.109200 1.222600
61.180000 1.371600
61.250700 1.508400
61.321500 1.413700
61.392200 1.378600
61.463000 1.326800
61.533700 1.299500
61.604400 1.268900
61.675200 1.226600
61.745900 1.231500
61.816700 1.210700
61.887400 1.226700
61.958200 1.241300
62.028900 1.235800
62.099700 1.233100
62.170400 1.206200
62.241200 1.194700
62.311900 1.213200
62.382700 1.241000
62.453400 1.277500
62.524200 1.306400
62.594900 1.351900
62.665700 1.430400
62.736400 1.433600
62.807200 1.391400
62.877900 1.409900
62.948700 1.464800
63.019400 1.415700
63.090200 1.399000
63.160900 1.439800
63.231600 1.397300
63.302400 1.381800
63.373100 1.376500
63.443900 1.358200
63.514600 1.359000
63.585400 1.370600
63.656100 1.389600
63.726900 1.451800
63.797600 1.458900
63.868400 1.449400
63.939100 1.440600
64.009900 1.425700
64.080600 1.405000
64.151400 1.399200
64.222100 1.415400
64.292900 1.408400
64.363600 1.376700
64.434400 1.358200
64.505100 1.363000
64.575900 1.329900
64.646600 1.340500
64.717400 1.371100
64.788100 1.374000
64.858900 1.390700
64.929600 1.369400
65.000300 1.397500
65.071100 1.412100
65.141800 1.432500
65.212600 1.403000
65.283300 1.391300
65.354100 1.454400
65.424800 1.519300
65.495600 1.493500
65.566300 1.525100
65.637100 1.509200
65.707800 1.502600
65.778600 1.512200
65.849300 1.538200
65.920100 1.568600
65.990800 1.465700
66.061600 1.502800
66.132300 1.575100
66.203100 1.616000
66.273800 1.666600
66.344600 1.621400
66.415300 1.592100
66.486100 1.570500
66.556800 1.509500
66.627600 1.461800
66.698300 1.397600
66.769000 1.335500
66.839800 1.340900
66.910500 1.257300
66.981300 1.261800
67.052000 1.297100
67.122800 1.309000
67.193500 1.327800
67.264300 1.320100
67.335000 1.309400
67.405800 1.304700
67.476500 1.233900
67.547300 1.185500
67.618000 1.156300
67.688800 1.119200
67.759500 1.083200
67.830300 1.052000
67.901000 0.992600
67.971800 0.956100
68.042500 0.921900
68.113300 0.899800
68.184000 0.879100
68.254800 0.853400
68.325500 0.859800
68.396300 0.871600
68.467000 0.899900
68.537700 0.869600
68.608500 0.827500
68.679200 0.803900
68.750000 0.790900
68.820700 0.771800
68.891500 0.756600
68.962200 0.728700
69.033000 0.683600
69.103700 0.618600
69.174500 0.557200
69.245200 0.509400
69.316000 0.469600
69.386700 0.436100
69.457500 0.414300
69.528200 0.398500
69.599000 0.383600
69.669700 0.370100
69.740500 0.357400
69.811200 0.344800
69.882000 0.333700
69.952700 0.329300
70.023500 0.324300
70.094200 0.318300
70.164900 0.312200
70.235700 0.307600
70.306400 0.298500
70.377200 0.285300
70.447900 0.270300
70.518700 0.254000
70.589400 0.239500
70.660200 0.228800
70.730900 0.217700
70.801700 0.207100
70.872400 0.198400
70.943200 0.193200
71.013900 0.188500
71.084700 0.182700
71.155400 0.167300
71.226200 0.153000
71.296900 0.143700
71.367700 0.139100
71.438400 0.142700
71.509200 0.130800
71.579900 0.107600
71.650700 0.084700
71.721400 0.062000
71.792200 0.041700
71.862900 0.028600
71.933600 0.018300
72.004400 0.010800
72.075100 0.005000
72.145900 0.001400
72.216600 0.000400
72.287400 0.000000
72.358100 0.000000
72.428900 0.000000
72.499600 0.000000
72.570400 0.000000
72.641100 0.000000
72.711900 0.000000
72.782600 0.000000
72.853400 0.000000
72.924100 0.000000
72.994900 0.000000
73.065600 0.000000
73.136400 0.000000
73.207100 0.000000
73.277900 0.000000
73.348600 0.000000
73.419400 0.000000
73.490100 0.000000
73.560900 0.000000
73.631600 0.000000
73.702300 0.000000
73.773100 0.000000
73.843800 0.000000
73.914600 0.000000
73.985300 0.000000
74.056100 0.000000
74.126800 0.000000
74.197600 0.000000
74.268300 0.000000
74.339100 0.000000
74.409800 0.000000
74.480600 0.000000
74.551300 0.000000
74.622100 0.000000
74.692800 0.000000
74.763600 0.000000
74.834300 0.000000
74.905100 0.000000
74.975800 0.000000
75.046600 0.000000
75.117300 0.000000
75.188100 0.000000
75.258800 0.000000
75.329600 0.000000
75.400300 0.000000
75.471000 0.000000
75.541800 0.000000
75.612500 0.000000
75.683300 0.000000
75.754000 0.000000
75.824800 0.000000
75.895500 0.000000
75.966300 0.000000
76.037000 0.000000
76.107800 0.000000
76.178500 0.000000
76.249300 0.000000
76.320000 0.000000
76.390800 0.000000
76.461500 0.000000
76.532300 0.000000
76.603000 0.000000
76.673800 0.000000
76.744500 0.000000
76.815300 0.000000
76.886000 0.000000
76.956800 0.000000
77.027500 0.000000
77.098200 0.000000
77.169000 0.000000
77.239700 0.000000
77.310500 0.000000
77.381200 0.000000
77.452000 0.000000
77.522700 0.000000
77.593500 0.000000
77.664200 0.000000
77.735000 0.000000
77.805700 0.000000
77.876500 0.000000
77.947200 0.000000
78.018000 0.000000
78.088700 0.000000
78.159500 0.000000
78.230200 0.000000
78.301000 0.000000
78.371700 0.000000
78.442500 0.000000
78.513200 0.000000
78.584000 0.000000
78.654700 0.000000
78.725500 0.000000
e
