set title 'mp-1187331 - Density of States'
set xlabel 'Energy (eV)'
set ylabel 'DOS (states/eV)'
set grid
set xrange [-10:10]
set yrange [0:8.712]
set xzeroaxis lt -1
set terminal png size 800,600
set output 'mp-1187331_dos_gnuplot.png'
plot '-' using 1:2 with lines title 'DOS'
-19.269000 0.000000
-19.245000 0.000000
-19.221000 0.000000
-19.197000 0.000000
-19.173000 0.000000
-19.149000 0.000000
-19.125000 0.000000
-19.101000 0.000000
-19.077000 0.000000
-19.053000 0.000000
-19.029000 0.000000
-19.005000 0.000000
-18.980900 0.000000
-18.956900 0.000000
-18.932900 0.000000
-18.908900 0.000000
-18.884900 0.000000
-18.860900 0.000000
-18.836900 0.000000
-18.812900 0.000000
-18.788900 0.000000
-18.764900 0.000000
-18.740900 0.000000
-18.716900 0.000000
-18.692900 0.000000
-18.668900 0.000000
-18.644900 0.000000
-18.620900 0.000000
-18.596800 0.000000
-18.572800 0.000000
-18.548800 0.000000
-18.524800 0.000000
-18.500800 0.000000
-18.476800 0.000000
-18.452800 0.000000
-18.428800 0.000000
-18.404800 0.000000
-18.380800 0.000000
-18.356800 0.000000
-18.332800 0.000000
-18.308800 0.000000
-18.284800 0.000000
-18.260800 0.000000
-18.236800 0.000000
-18.212800 0.000000
-18.188700 0.000000
-18.164700 0.000000
-18.140700 0.000000
-18.116700 0.000000
-18.092700 0.000000
-18.068700 0.000000
-18.044700 0.000000
-18.020700 0.000000
-17.996700 0.000000
-17.972700 0.000000
-17.948700 0.000000
-17.924700 0.000000
-17.900700 0.000000
-17.876700 0.000000
-17.852700 0.000000
-17.828700 0.000000
-17.804600 0.000000
-17.780600 0.000000
-17.756600 0.000000
-17.732600 0.000000
-17.708600 0.000000
-17.684600 0.000000
-17.660600 0.000000
-17.636600 0.000000
-17.612600 0.000000
-17.588600 0.000000
-17.564600 0.000000
-17.540600 0.000000
-17.516600 0.000000
-17.492600 0.000000
-17.468600 0.000000
-17.444600 0.000000
-17.420600 0.000000
-17.396500 0.000000
-17.372500 0.000000
-17.348500 0.000000
-17.324500 0.000000
-17.300500 0.000000
-17.276500 0.000000
-17.252500 0.000000
-17.228500 0.001300
-17.204500 0.021300
-17.180500 0.232500
-17.156500 1.655200
-17.132500 7.719600
-17.108500 23.651500
-17.084500 47.733600
-17.060500 63.608600
-17.036500 56.070900
-17.012400 32.732500
-16.988400 12.657100
-16.964400 3.239200
-16.940400 0.547600
-16.916400 0.061000
-16.892400 0.004500
-16.868400 0.000200
-16.844400 0.000000
-16.820400 0.000000
-16.796400 0.000000
-16.772400 0.000000
-16.748400 0.000000
-16.724400 0.000000
-16.700400 0.000000
-16.676400 0.000000
-16.652400 0.000000
-16.628300 0.000000
-16.604300 0.000000
-16.580300 0.000000
-16.556300 0.000000
-16.532300 0.000000
-16.508300 0.000000
-16.484300 0.000000
-16.460300 0.000000
-16.436300 0.000000
-16.412300 0.000000
-16.388300 0.000000
-16.364300 0.000000
-16.340300 0.000000
-16.316300 0.000000
-16.292300 0.000000
-16.268300 0.000000
-16.244300 0.000000
-16.220200 0.000000
-16.196200 0.000000
-16.172200 0.000000
-16.148200 0.000000
-16.124200 0.000000
-16.100200 0.000000
-16.076200 0.000000
-16.052200 0.000000
-16.028200 0.000000
-16.004200 0.000000
-15.980200 0.000000
-15.956200 0.000000
-15.932200 0.000000
-15.908200 0.000000
-15.884200 0.000000
-15.860200 0.000000
-15.836100 0.000000
-15.812100 0.000000
-15.788100 0.000000
-15.764100 0.000000
-15.740100 0.000000
-15.716100 0.000000
-15.692100 0.000000
-15.668100 0.000000
-15.644100 0.000000
-15.620100 0.000000
-15.596100 0.000000
-15.572100 0.000000
-15.548100 0.000000
-15.524100 0.000000
-15.500100 0.000000
-15.476100 0.000000
-15.452100 0.000000
-15.428000 0.000000
-15.404000 0.000000
-15.380000 0.000000
-15.356000 0.000000
-15.332000 0.000000
-15.308000 0.000000
-15.284000 0.000000
-15.260000 0.000000
-15.236000 0.000000
-15.212000 0.000000
-15.188000 0.000000
-15.164000 0.000000
-15.140000 0.000000
-15.116000 0.000000
-15.092000 0.000000
-15.068000 0.000000
-15.043900 0.000000
-15.019900 0.000000
-14.995900 0.000000
-14.971900 0.000000
-14.947900 0.000000
-14.923900 0.000000
-14.899900 0.000000
-14.875900 0.000000
-14.851900 0.000000
-14.827900 0.000000
-14.803900 0.000000
-14.779900 0.000000
-14.755900 0.000000
-14.731900 0.000000
-14.707900 0.000000
-14.683900 0.000000
-14.659900 0.000000
-14.635800 0.000000
-14.611800 0.000000
-14.587800 0.000000
-14.563800 0.000000
-14.539800 0.000000
-14.515800 0.000000
-14.491800 0.000000
-14.467800 0.000000
-14.443800 0.000000
-14.419800 0.000000
-14.395800 0.000000
-14.371800 0.000000
-14.347800 0.000000
-14.323800 0.000000
-14.299800 0.000000
-14.275800 0.000000
-14.251700 0.000000
-14.227700 0.000000
-14.203700 0.000000
-14.179700 0.000000
-14.155700 0.000000
-14.131700 0.000000
-14.107700 0.000000
-14.083700 0.000000
-14.059700 0.000000
-14.035700 0.000000
-14.011700 0.000000
-13.987700 0.000000
-13.963700 0.000000
-13.939700 0.000000
-13.915700 0.000000
-13.891700 0.000000
-13.867600 0.000000
-13.843600 0.000000
-13.819600 0.000000
-13.795600 0.000000
-13.771600 0.000000
-13.747600 0.000000
-13.723600 0.000000
-13.699600 0.000000
-13.675600 0.000000
-13.651600 0.000000
-13.627600 0.000000
-13.603600 0.000000
-13.579600 0.000000
-13.555600 0.000000
-13.531600 0.000000
-13.507600 0.000000
-13.483600 0.000000
-13.459500 0.000000
-13.435500 0.000000
-13.411500 0.000000
-13.387500 0.000000
-13.363500 0.000000
-13.339500 0.000000
-13.315500 0.000000
-13.291500 0.000000
-13.267500 0.000000
-13.243500 0.000000
-13.219500 0.000000
-13.195500 0.000000
-13.171500 0.000000
-13.147500 0.000000
-13.123500 0.000000
-13.099500 0.000000
-13.075400 0.000000
-13.051400 0.000000
-13.027400 0.000000
-13.003400 0.000000
-12.979400 0.000000
-12.955400 0.000000
-12.931400 0.000000
-12.907400 0.000000
-12.883400 0.000000
-12.859400 0.000000
-12.835400 0.000000
-12.811400 0.000000
-12.787400 0.000000
-12.763400 0.000000
-12.739400 0.000000
-12.715400 0.000000
-12.691400 0.000000
-12.667300 0.000000
-12.643300 0.000000
-12.619300 0.000000
-12.595300 0.000000
-12.571300 0.000000
-12.547300 0.000000
-12.523300 0.000000
-12.499300 0.000000
-12.475300 0.000000
-12.451300 0.000000
-12.427300 0.000000
-12.403300 0.000000
-12.379300 0.000000
-12.355300 0.000000
-12.331300 0.000000
-12.307300 0.000000
-12.283200 0.000000
-12.259200 0.000000
-12.235200 0.000000
-12.211200 0.000000
-12.187200 0.000000
-12.163200 0.000000
-12.139200 0.000000
-12.115200 0.000000
-12.091200 0.000000
-12.067200 0.000000
-12.043200 0.000000
-12.019200 0.000000
-11.995200 0.000000
-11.971200 0.000000
-11.947200 0.000000
-11.923200 0.000000
-11.899100 0.000000
-11.875100 0.000000
-11.851100 0.000000
-11.827100 0.000000
-11.803100 0.000000
-11.779100 0.000000
-11.755100 0.000000
-11.731100 0.000000
-11.707100 0.000000
-11.683100 0.000000
-11.659100 0.000000
-11.635100 0.000000
-11.611100 0.000000
-11.587100 0.000000
-11.563100 0.000000
-11.539100 0.000000
-11.515100 0.000000
-11.491000 0.000000
-11.467000 0.000000
-11.443000 0.000000
-11.419000 0.000000
-11.395000 0.000000
-11.371000 0.000000
-11.347000 0.000000
-11.323000 0.000000
-11.299000 0.000000
-11.275000 0.000000
-11.251000 0.000000
-11.227000 0.000000
-11.203000 0.000000
-11.179000 0.000000
-11.155000 0.000000
-11.131000 0.000000
-11.106900 0.000000
-11.082900 0.000000
-11.058900 0.000000
-11.034900 0.000000
-11.010900 0.000000
-10.986900 0.000000
-10.962900 0.000000
-10.938900 0.000000
-10.914900 0.000000
-10.890900 0.000000
-10.866900 0.000000
-10.842900 0.000000
-10.818900 0.000000
-10.794900 0.000000
-10.770900 0.000000
-10.746900 0.000000
-10.722900 0.000000
-10.698800 0.000000
-10.674800 0.000000
-10.650800 0.000000
-10.626800 0.000000
-10.602800 0.000000
-10.578800 0.000000
-10.554800 0.000000
-10.530800 0.000000
-10.506800 0.000000
-10.482800 0.000000
-10.458800 0.000000
-10.434800 0.000000
-10.410800 0.000000
-10.386800 0.000000
-10.362800 0.000000
-10.338800 0.000000
-10.314700 0.000000
-10.290700 0.000000
-10.266700 0.000000
-10.242700 0.000000
-10.218700 0.000000
-10.194700 0.000000
-10.170700 0.000000
-10.146700 0.000000
-10.122700 0.000000
-10.098700 0.000000
-10.074700 0.000000
-10.050700 0.000000
-10.026700 0.000000
-10.002700 0.000000
-9.978700 0.000000
-9.954700 0.000000
-9.930600 0.000000
-9.906600 0.000000
-9.882600 0.000000
-9.858600 0.000000
-9.834600 0.000000
-9.810600 0.000000
-9.786600 0.000000
-9.762600 0.000000
-9.738600 0.000000
-9.714600 0.000000
-9.690600 0.000000
-9.666600 0.000000
-9.642600 0.000000
-9.618600 0.000000
-9.594600 0.000000
-9.570600 0.000000
-9.546600 0.000000
-9.522500 0.000000
-9.498500 0.000000
-9.474500 0.000000
-9.450500 0.000000
-9.426500 0.000000
-9.402500 0.000000
-9.378500 0.000000
-9.354500 0.000000
-9.330500 0.000000
-9.306500 0.000000
-9.282500 0.000000
-9.258500 0.000000
-9.234500 0.000000
-9.210500 0.000000
-9.186500 0.000000
-9.162500 0.000000
-9.138400 0.000000
-9.114400 0.000000
-9.090400 0.000000
-9.066400 0.000000
-9.042400 0.000000
-9.018400 0.000000
-8.994400 0.000000
-8.970400 0.000000
-8.946400 0.000000
-8.922400 0.000000
-8.898400 0.000000
-8.874400 0.000000
-8.850400 0.000000
-8.826400 0.000000
-8.802400 0.000000
-8.778400 0.000000
-8.754400 0.000000
-8.730300 0.000000
-8.706300 0.000000
-8.682300 0.000000
-8.658300 0.000000
-8.634300 0.000000
-8.610300 0.000000
-8.586300 0.000000
-8.562300 0.000000
-8.538300 0.000000
-8.514300 0.000000
-8.490300 0.000000
-8.466300 0.000000
-8.442300 0.000000
-8.418300 0.000000
-8.394300 0.000000
-8.370300 0.000000
-8.346200 0.000000
-8.322200 0.000000
-8.298200 0.000000
-8.274200 0.000000
-8.250200 0.000000
-8.226200 0.000000
-8.202200 0.000000
-8.178200 0.000000
-8.154200 0.000000
-8.130200 0.000000
-8.106200 0.000000
-8.082200 0.000000
-8.058200 0.000000
-8.034200 0.000000
-8.010200 0.000000
-7.986200 0.000000
-7.962200 0.000000
-7.938100 0.000000
-7.914100 0.000000
-7.890100 0.000000
-7.866100 0.000000
-7.842100 0.000000
-7.818100 0.000000
-7.794100 0.000000
-7.770100 0.000000
-7.746100 0.000000
-7.722100 0.000000
-7.698100 0.000000
-7.674100 0.000000
-7.650100 0.000000
-7.626100 0.000000
-7.602100 0.000000
-7.578100 0.000000
-7.554000 0.000000
-7.530000 0.000000
-7.506000 0.000000
-7.482000 0.000000
-7.458000 0.000000
-7.434000 0.000000
-7.410000 0.000000
-7.386000 0.000000
-7.362000 0.000000
-7.338000 0.000000
-7.314000 0.000000
-7.290000 0.000000
-7.266000 0.000000
-7.242000 0.000000
-7.218000 0.000000
-7.194000 0.000000
-7.169900 0.000000
-7.145900 0.000000
-7.121900 0.000000
-7.097900 0.000000
-7.073900 0.000000
-7.049900 0.000000
-7.025900 0.000000
-7.001900 0.000000
-6.977900 0.000000
-6.953900 0.000000
-6.929900 0.000000
-6.905900 0.000100
-6.881900 0.000700
-6.857900 0.003800
-6.833900 0.013800
-6.809900 0.035000
-6.785900 0.067700
-6.761800 0.117000
-6.737800 0.195600
-6.713800 0.295300
-6.689800 0.371600
-6.665800 0.381900
-6.641800 0.342800
-6.617800 0.336800
-6.593800 0.410300
-6.569800 0.485700
-6.545800 0.478600
-6.521800 0.439900
-6.497800 0.494000
-6.473800 0.694000
-6.449800 0.916800
-6.425800 0.945500
-6.401800 0.746000
-6.377700 0.539200
-6.353700 0.520500
-6.329700 0.638200
-6.305700 0.725100
-6.281700 0.745600
-6.257700 0.779200
-6.233700 0.869200
-6.209700 1.020500
-6.185700 1.212500
-6.161700 1.341400
-6.137700 1.319000
-6.113700 1.212400
-6.089700 1.082400
-6.065700 0.905500
-6.041700 0.801400
-6.017700 0.940900
-5.993700 1.229900
-5.969600 1.417000
-5.945600 1.370900
-5.921600 1.133700
-5.897600 0.857800
-5.873600 0.678900
-5.849600 0.643900
-5.825600 0.777100
-5.801600 1.044800
-5.777600 1.312200
-5.753600 1.496100
-5.729600 1.563800
-5.705600 1.475800
-5.681600 1.334700
-5.657600 1.286700
-5.633600 1.294900
-5.609600 1.273000
-5.585500 1.239600
-5.561500 1.226400
-5.537500 1.203700
-5.513500 1.135500
-5.489500 1.017900
-5.465500 0.880800
-5.441500 0.781600
-5.417500 0.763900
-5.393500 0.881300
-5.369500 1.172700
-5.345500 1.548200
-5.321500 1.895400
-5.297500 2.188300
-5.273500 2.260500
-5.249500 1.892400
-5.225500 1.296400
-5.201400 1.006300
-5.177400 1.210500
-5.153400 1.498400
-5.129400 1.394700
-5.105400 0.964200
-5.081400 0.626000
-5.057400 0.589500
-5.033400 0.737400
-5.009400 0.919300
-4.985400 1.149300
-4.961400 1.404600
-4.937400 1.481200
-4.913400 1.355900
-4.889400 1.321500
-4.865400 1.508500
-4.841400 1.692900
-4.817400 1.739100
-4.793300 1.858100
-4.769300 2.283700
-4.745300 2.867100
-4.721300 3.069300
-4.697300 2.603300
-4.673300 2.012900
-4.649300 2.027600
-4.625300 2.568200
-4.601300 2.931700
-4.577300 2.789400
-4.553300 2.509100
-4.529300 2.465300
-4.505300 2.641600
-4.481300 2.890200
-4.457300 3.029100
-4.433300 2.882200
-4.409200 2.556300
-4.385200 2.442700
-4.361200 2.721200
-4.337200 3.060900
-4.313200 3.085900
-4.289200 2.836400
-4.265200 2.543500
-4.241200 2.342300
-4.217200 2.170200
-4.193200 1.836500
-4.169200 1.425600
-4.145200 1.287100
-4.121200 1.493700
-4.097200 1.831900
-4.073200 2.257100
-4.049200 2.799100
-4.025200 3.164500
-4.001100 3.046700
-3.977100 2.651800
-3.953100 2.437200
-3.929100 2.599300
-3.905100 3.044500
-3.881100 3.597500
-3.857100 4.148800
-3.833100 4.709600
-3.809100 5.232600
-3.785100 5.452700
-3.761100 5.237300
-3.737100 4.757700
-3.713100 4.140400
-3.689100 3.464000
-3.665100 2.859700
-3.641100 2.313400
-3.617000 1.714000
-3.593000 1.106700
-3.569000 0.696500
-3.545000 0.617400
-3.521000 0.749500
-3.497000 0.807500
-3.473000 0.639300
-3.449000 0.355100
-3.425000 0.136700
-3.401000 0.045400
-3.377000 0.068300
-3.353000 0.248000
-3.329000 0.668300
-3.305000 1.256300
-3.281000 1.691400
-3.257000 1.717600
-3.233000 1.457200
-3.208900 1.165100
-3.184900 0.871000
-3.160900 0.530100
-3.136900 0.233300
-3.112900 0.070100
-3.088900 0.015700
-3.064900 0.014700
-3.040900 0.061500
-3.016900 0.195900
-2.992900 0.430400
-2.968900 0.669900
-2.944900 0.765200
-2.920900 0.678700
-2.896900 0.553800
-2.872900 0.562000
-2.848900 0.688200
-2.824800 0.755100
-2.800800 0.645000
-2.776800 0.416800
-2.752800 0.225300
-2.728800 0.156200
-2.704800 0.169500
-2.680800 0.184000
-2.656800 0.158400
-2.632800 0.101900
-2.608800 0.047000
-2.584800 0.015000
-2.560800 0.003200
-2.536800 0.000500
-2.512800 0.000000
-2.488800 0.000000
-2.464800 0.000000
-2.440700 0.000000
-2.416700 0.000000
-2.392700 0.000000
-2.368700 0.000000
-2.344700 0.000000
-2.320700 0.000000
-2.296700 0.000000
-2.272700 0.000000
-2.248700 0.000000
-2.224700 0.000000
-2.200700 0.000000
-2.176700 0.000000
-2.152700 0.000000
-2.128700 0.000000
-2.104700 0.000000
-2.080700 0.000000
-2.056700 0.000000
-2.032600 0.000000
-2.008600 0.000000
-1.984600 0.000000
-1.960600 0.000000
-1.936600 0.000000
-1.912600 0.000000
-1.888600 0.000000
-1.864600 0.000000
-1.840600 0.000000
-1.816600 0.000000
-1.792600 0.000000
-1.768600 0.000000
-1.744600 0.000000
-1.720600 0.000000
-1.696600 0.000000
-1.672600 0.000000
-1.648500 0.000000
-1.624500 0.000000
-1.600500 0.000000
-1.576500 0.000000
-1.552500 0.000000
-1.528500 0.000000
-1.504500 0.000000
-1.480500 0.000000
-1.456500 0.000000
-1.432500 0.000000
-1.408500 0.000000
-1.384500 0.000000
-1.360500 0.000000
-1.336500 0.000000
-1.312500 0.000000
-1.288500 0.000000
-1.264500 0.000000
-1.240400 0.000000
-1.216400 0.000000
-1.192400 0.000000
-1.168400 0.000000
-1.144400 0.000000
-1.120400 0.000000
-1.096400 0.000000
-1.072400 0.000000
-1.048400 0.000000
-1.024400 0.000000
-1.000400 0.000000
-0.976400 0.000000
-0.952400 0.000000
-0.928400 0.000000
-0.904400 0.000000
-0.880400 0.000000
-0.856300 0.000000
-0.832300 0.000000
-0.808300 0.000000
-0.784300 0.000000
-0.760300 0.000000
-0.736300 0.000000
-0.712300 0.000000
-0.688300 0.000000
-0.664300 0.000000
-0.640300 0.000000
-0.616300 0.000000
-0.592300 0.000000
-0.568300 0.000000
-0.544300 0.000000
-0.520300 0.000000
-0.496300 0.000000
-0.472200 0.000000
-0.448200 0.000000
-0.424200 0.000000
-0.400200 0.000000
-0.376200 0.000000
-0.352200 0.000000
-0.328200 0.000000
-0.304200 0.000000
-0.280200 0.000000
-0.256200 0.000000
-0.232200 0.000000
-0.208200 0.000000
-0.184200 0.000000
-0.160200 0.000000
-0.136200 0.000000
-0.112200 0.000000
-0.088200 0.000000
-0.064100 0.000000
-0.040100 0.000000
-0.016100 0.000000
0.007900 0.000000
0.031900 0.000000
0.055900 0.000000
0.079900 0.000000
0.103900 0.000000
0.127900 0.000000
0.151900 0.000000
0.175900 0.000000
0.199900 0.000000
0.223900 0.000000
0.247900 0.000000
0.271900 0.000000
0.295900 0.000000
0.320000 0.000000
0.344000 0.000000
0.368000 0.000000
0.392000 0.000000
0.416000 0.000000
0.440000 0.000000
0.464000 0.000000
0.488000 0.000000
0.512000 0.000000
0.536000 0.000000
0.560000 0.000000
0.584000 0.000000
0.608000 0.000000
0.632000 0.000000
0.656000 0.000000
0.680000 0.000000
0.704000 0.000000
0.728100 0.000000
0.752100 0.000000
0.776100 0.000000
0.800100 0.000000
0.824100 0.000000
0.848100 0.000000
0.872100 0.000200
0.896100 0.001300
0.920100 0.006400
0.944100 0.019800
0.968100 0.042000
0.992100 0.066800
1.016100 0.089400
1.040100 0.101900
1.064100 0.090000
1.088100 0.061300
1.112200 0.059800
1.136200 0.138800
1.160200 0.300900
1.184200 0.440300
1.208200 0.450000
1.232200 0.427500
1.256200 0.564000
1.280200 0.801700
1.304200 0.861400
1.328200 0.671800
1.352200 0.481800
1.376200 0.464100
1.400200 0.504400
1.424200 0.442700
1.448200 0.309700
1.472200 0.267200
1.496300 0.434500
1.520300 0.804400
1.544300 1.231200
1.568300 1.479800
1.592300 1.431300
1.616300 1.274500
1.640300 1.288400
1.664300 1.456600
1.688300 1.563800
1.712300 1.572300
1.736300 1.630000
1.760300 1.770700
1.784300 1.878900
1.808300 1.907400
1.832300 1.913400
1.856300 2.005100
1.880300 2.262100
1.904400 2.588700
1.928400 2.769200
1.952400 2.684200
1.976400 2.456600
2.000400 2.420100
2.024400 2.867200
2.048400 3.785600
2.072400 4.737900
2.096400 5.067500
2.120400 4.604000
2.144400 3.858500
2.168400 3.237400
2.192400 2.702000
2.216400 2.222600
2.240400 1.966600
2.264400 2.036200
2.288500 2.253500
2.312500 2.267400
2.336500 1.978000
2.360500 1.695800
2.384500 1.726400
2.408500 1.966900
2.432500 2.108100
2.456500 2.134800
2.480500 2.245900
2.504500 2.435600
2.528500 2.583800
2.552500 2.716500
2.576500 2.834100
2.600500 2.767600
2.624500 2.418100
2.648500 1.931300
2.672500 1.636500
2.696600 1.820900
2.720600 2.458700
2.744600 3.142600
2.768600 3.343000
2.792600 2.929500
2.816600 2.351400
2.840600 2.062800
2.864600 2.008500
2.888600 1.932900
2.912600 1.834000
2.936600 1.906200
2.960600 2.262800
2.984600 2.779400
3.008600 3.249500
3.032600 3.596500
3.056600 3.771300
3.080700 3.651000
3.104700 3.302800
3.128700 3.036600
3.152700 2.890800
3.176700 2.620200
3.200700 2.252000
3.224700 2.040600
3.248700 2.067500
3.272700 2.232700
3.296700 2.463800
3.320700 2.713300
3.344700 2.883200
3.368700 2.963200
3.392700 3.033300
3.416700 3.151900
3.440700 3.438400
3.464700 3.900100
3.488800 4.290000
3.512800 4.464500
3.536800 4.330000
3.560800 3.687300
3.584800 2.748600
3.608800 2.095300
3.632800 1.978800
3.656800 2.134100
3.680800 2.143200
3.704800 1.970200
3.728800 1.990400
3.752800 2.435800
3.776800 3.059900
3.800800 3.358800
3.824800 3.080800
3.848800 2.501300
3.872900 2.106100
3.896900 2.067100
3.920900 2.220900
3.944900 2.381900
3.968900 2.474700
3.992900 2.513400
4.016900 2.548300
4.040900 2.547900
4.064900 2.371500
4.088900 1.994100
4.112900 1.626100
4.136900 1.526300
4.160900 1.794300
4.184900 2.273300
4.208900 2.657300
4.232900 2.752200
4.257000 2.623100
4.281000 2.484400
4.305000 2.413900
4.329000 2.276200
4.353000 2.018100
4.377000 1.875100
4.401000 2.119200
4.425000 2.678100
4.449000 3.169100
4.473000 3.299300
4.497000 3.044600
4.521000 2.529900
4.545000 1.936900
4.569000 1.471700
4.593000 1.321800
4.617000 1.484300
4.641000 1.701100
4.665100 1.782500
4.689100 1.854200
4.713100 2.160500
4.737100 2.700200
4.761100 3.151900
4.785100 3.229900
4.809100 2.983300
4.833100 2.753800
4.857100 2.836700
4.881100 3.111700
4.905100 3.243800
4.929100 3.275400
4.953100 3.501900
4.977100 3.820600
5.001100 3.849800
5.025100 3.490900
5.049200 3.053000
5.073200 2.948700
5.097200 3.149200
5.121200 3.122400
5.145200 2.570500
5.169200 1.835700
5.193200 1.415200
5.217200 1.446800
5.241200 1.723400
5.265200 2.004500
5.289200 2.197800
5.313200 2.268900
5.337200 2.161000
5.361200 1.937700
5.385200 1.874300
5.409200 2.182000
5.433200 2.760600
5.457300 3.271500
5.481300 3.412500
5.505300 3.180000
5.529300 2.692300
5.553300 2.027700
5.577300 1.442500
5.601300 1.240700
5.625300 1.393100
5.649300 1.631800
5.673300 1.843300
5.697300 2.119700
5.721300 2.503400
5.745300 2.848300
5.769300 2.955200
5.793300 2.764400
5.817300 2.370400
5.841400 2.058900
5.865400 2.195800
5.889400 2.765800
5.913400 3.276900
5.937400 3.282000
5.961400 2.785900
5.985400 2.164700
6.009400 1.813300
6.033400 1.875900
6.057400 2.226400
6.081400 2.519600
6.105400 2.491700
6.129400 2.333900
6.153400 2.338300
6.177400 2.434000
6.201400 2.497400
6.225500 2.542400
6.249500 2.513900
6.273500 2.526900
6.297500 2.824700
6.321500 3.176800
6.345500 3.144500
6.369500 2.861300
6.393500 2.772400
6.417500 2.925400
6.441500 3.015900
6.465500 2.873600
6.489500 2.744600
6.513500 2.920400
6.537500 3.150200
6.561500 2.964600
6.585500 2.391200
6.609500 1.883600
6.633600 1.826700
6.657600 2.236800
6.681600 2.745500
6.705600 2.966500
6.729600 2.845600
6.753600 2.550000
6.777600 2.164700
6.801600 1.661900
6.825600 1.127400
6.849600 0.796300
6.873600 0.833800
6.897600 1.168400
6.921600 1.494200
6.945600 1.547600
6.969600 1.430000
6.993600 1.421100
7.017700 1.578100
7.041700 1.807200
7.065700 2.110100
7.089700 2.519900
7.113700 2.931600
7.137700 3.143000
7.161700 3.039900
7.185700 2.726900
7.209700 2.425800
7.233700 2.244600
7.257700 2.212200
7.281700 2.320200
7.305700 2.424900
7.329700 2.418300
7.353700 2.351500
7.377700 2.264700
7.401700 2.229200
7.425800 2.394700
7.449800 2.629600
7.473800 2.593400
7.497800 2.360500
7.521800 2.308000
7.545800 2.438600
7.569800 2.393500
7.593800 2.030300
7.617800 1.597100
7.641800 1.325400
7.665800 1.235500
7.689800 1.399500
7.713800 1.985800
7.737800 2.861100
7.761800 3.520400
7.785800 3.697100
7.809900 3.601200
7.833900 3.442700
7.857900 3.283700
7.881900 3.279900
7.905900 3.544100
7.929900 3.858100
7.953900 3.946500
7.977900 3.918800
8.001900 3.944700
8.025900 3.861400
8.049900 3.650400
8.073900 3.609500
8.097900 3.820700
8.121900 4.088500
8.145900 4.282800
8.169900 4.352300
8.194000 4.177000
8.218000 3.728600
8.242000 3.279400
8.266000 3.133300
8.290000 3.287800
8.314000 3.617000
8.338000 3.994300
8.362000 4.204500
8.386000 4.237200
8.410000 4.415600
8.434000 4.890300
8.458000 5.369700
8.482000 5.468000
8.506000 5.140400
8.530000 4.742900
8.554000 4.626000
8.578000 4.836300
8.602100 5.149500
8.626100 5.320500
8.650100 5.359300
8.674100 5.419000
8.698100 5.495100
8.722100 5.442600
8.746100 5.268400
8.770100 5.068900
8.794100 4.746900
8.818100 4.245600
8.842100 3.805700
8.866100 3.679800
8.890100 3.913400
8.914100 4.469800
8.938100 5.176400
8.962100 5.795600
8.986200 6.501800
9.010200 7.458800
9.034200 7.919700
9.058200 7.140300
9.082200 5.748300
9.106200 4.942500
9.130200 5.084200
9.154200 5.639600
9.178200 5.966400
9.202200 5.937200
9.226200 5.852600
9.250200 5.965800
9.274200 6.154000
9.298200 6.017200
9.322200 5.524600
9.346200 5.209400
9.370200 5.308500
9.394300 5.408600
9.418300 5.166100
9.442300 4.679400
9.466300 4.254400
9.490300 4.205300
9.514300 4.531300
9.538300 4.808200
9.562300 4.822900
9.586300 4.898400
9.610300 5.193800
9.634300 5.286200
9.658300 4.772400
9.682300 3.825700
9.706300 3.018800
9.730300 2.801400
9.754300 3.117700
9.778400 3.546300
9.802400 3.862100
9.826400 4.207600
9.850400 4.724400
9.874400 5.289500
9.898400 5.609700
9.922400 5.542700
9.946400 5.281800
9.970400 5.083100
9.994400 4.927800
10.018400 4.637400
10.042400 4.187800
10.066400 3.707400
10.090400 3.311800
10.114400 3.169800
10.138400 3.491100
10.162400 4.131000
10.186500 4.444800
10.210500 4.040700
10.234500 3.331700
10.258500 2.927000
10.282500 2.961600
10.306500 3.091400
10.330500 3.012400
10.354500 2.945300
10.378500 3.199600
10.402500 3.601100
10.426500 3.881300
10.450500 4.036700
10.474500 4.006500
10.498500 3.673300
10.522500 3.228300
10.546500 2.944400
10.570600 2.779100
10.594600 2.546200
10.618600 2.245700
10.642600 2.049700
10.666600 1.924000
10.690600 1.619600
10.714600 1.161400
10.738600 0.840400
10.762600 0.793700
10.786600 0.925700
10.810600 1.144600
10.834600 1.475800
10.858600 1.886600
10.882600 2.215600
10.906600 2.344900
10.930600 2.238200
10.954700 1.949200
10.978700 1.662400
11.002700 1.545300
11.026700 1.593600
11.050700 1.709100
11.074700 1.856800
11.098700 2.019800
11.122700 2.181600
11.146700 2.377600
11.170700 2.497900
11.194700 2.288600
11.218700 1.766300
11.242700 1.300300
11.266700 1.150200
11.290700 1.209800
11.314700 1.347200
11.338700 1.640600
11.362800 2.114900
11.386800 2.563200
11.410800 2.756700
11.434800 2.621100
11.458800 2.230000
11.482800 1.766600
11.506800 1.411700
11.530800 1.256800
11.554800 1.336900
11.578800 1.569200
11.602800 1.713400
11.626800 1.632700
11.650800 1.476100
11.674800 1.442900
11.698800 1.547800
11.722800 1.755900
11.746900 2.121900
11.770900 2.609000
11.794900 2.983600
11.818900 3.081800
11.842900 2.952500
11.866900 2.638400
11.890900 2.150700
11.914900 1.672000
11.938900 1.455900
11.962900 1.587600
11.986900 1.938200
12.010900 2.231700
12.034900 2.248600
12.058900 2.054700
12.082900 1.903800
12.106900 1.862000
12.130900 1.783600
12.155000 1.665200
12.179000 1.637900
12.203000 1.729400
12.227000 1.924000
12.251000 2.151000
12.275000 2.158700
12.299000 1.844000
12.323000 1.510700
12.347000 1.466600
12.371000 1.650000
12.395000 1.781100
12.419000 1.754900
12.443000 1.783500
12.467000 2.108700
12.491000 2.646300
12.515000 3.023500
12.539100 3.001200
12.563100 2.768800
12.587100 2.651400
12.611100 2.603500
12.635100 2.368200
12.659100 2.051800
12.683100 2.010500
12.707100 2.227300
12.731100 2.278700
12.755100 1.895200
12.779100 1.308200
12.803100 0.986600
12.827100 1.112600
12.851100 1.416900
12.875100 1.535900
12.899100 1.437700
12.923200 1.300500
12.947200 1.200200
12.971200 1.211700
12.995200 1.390800
13.019200 1.581600
13.043200 1.645600
13.067200 1.663400
13.091200 1.705200
13.115200 1.722500
13.139200 1.696500
13.163200 1.662900
13.187200 1.632800
13.211200 1.577800
13.235200 1.477000
13.259200 1.365900
13.283200 1.316600
13.307200 1.359400
13.331300 1.429100
13.355300 1.443900
13.379300 1.399300
13.403300 1.302500
13.427300 1.185600
13.451300 1.249900
13.475300 1.658600
13.499300 2.200300
13.523300 2.509400
13.547300 2.488600
13.571300 2.336100
13.595300 2.266500
13.619300 2.299200
13.643300 2.320000
13.667300 2.267000
13.691300 2.244600
13.715400 2.324100
13.739400 2.367300
13.763400 2.331500
13.787400 2.377000
13.811400 2.531500
13.835400 2.649800
13.859400 2.668400
13.883400 2.620000
13.907400 2.500200
13.931400 2.314200
13.955400 2.158900
13.979400 2.139800
14.003400 2.300900
14.027400 2.620500
14.051400 2.904800
14.075400 2.901400
14.099400 2.712100
14.123500 2.746200
14.147500 3.163000
14.171500 3.570800
14.195500 3.477600
14.219500 2.976100
14.243500 2.571700
14.267500 2.540000
14.291500 2.784100
14.315500 3.039200
14.339500 3.130900
14.363500 3.107700
14.387500 3.117900
14.411500 3.269800
14.435500 3.541400
14.459500 3.806800
14.483500 4.013600
14.507600 4.259800
14.531600 4.687100
14.555600 5.231100
14.579600 5.524500
14.603600 5.319300
14.627600 4.911900
14.651600 4.832300
14.675600 5.252600
14.699600 5.832500
14.723600 6.100300
14.747600 5.933700
14.771600 5.521500
14.795600 5.148100
14.819600 5.104600
14.843600 5.401400
14.867600 5.706100
14.891600 5.701800
14.915700 5.325500
14.939700 4.722700
14.963700 4.124200
14.987700 3.782200
15.011700 3.925700
15.035700 4.476100
15.059700 4.903600
15.083700 4.810500
15.107700 4.504500
15.131700 4.549400
15.155700 4.958200
15.179700 5.266200
15.203700 5.160800
15.227700 4.833400
15.251700 4.733300
15.275700 4.898600
15.299800 4.914500
15.323800 4.662800
15.347800 4.422600
15.371800 4.381300
15.395800 5.153500
15.419800 8.582300
15.443800 16.086900
15.467800 24.468300
15.491800 26.443700
15.515800 19.907700
15.539800 11.272400
15.563800 6.267600
15.587800 4.746400
15.611800 4.415800
15.635800 4.079600
15.659800 3.794100
15.683900 4.048800
15.707900 4.857300
15.731900 5.539800
15.755900 5.491200
15.779900 4.795600
15.803900 3.945100
15.827900 3.341300
15.851900 3.071500
15.875900 2.943400
15.899900 2.828000
15.923900 2.900800
15.947900 3.290900
15.971900 3.724100
15.995900 3.897300
16.019900 3.792000
16.043900 3.455800
16.067900 3.010100
16.092000 2.711200
16.116000 2.612200
16.140000 2.441500
16.164000 2.080700
16.188000 1.799900
16.212000 1.807000
16.236000 2.000800
16.260000 2.317400
16.284000 2.799800
16.308000 3.272400
16.332000 3.465300
16.356000 3.360800
16.380000 3.186200
16.404000 3.200200
16.428000 3.461600
16.452000 3.768000
16.476100 3.887800
16.500100 3.857400
16.524100 3.943300
16.548100 4.259900
16.572100 4.552900
16.596100 4.464800
16.620100 3.890200
16.644100 3.110000
16.668100 2.680900
16.692100 2.884400
16.716100 3.310700
16.740100 3.426800
16.764100 3.275900
16.788100 3.214300
16.812100 3.308000
16.836100 3.355400
16.860100 3.415500
16.884200 3.907800
16.908200 4.835000
16.932200 5.423000
16.956200 5.207000
16.980200 4.790600
17.004200 4.879600
17.028200 5.330600
17.052200 5.540900
17.076200 5.325800
17.100200 5.096300
17.124200 5.103600
17.148200 5.050600
17.172200 4.708400
17.196200 4.256500
17.220200 3.905700
17.244200 3.743600
17.268300 3.874000
17.292300 4.338500
17.316300 4.778400
17.340300 4.613300
17.364300 3.914500
17.388300 3.415500
17.412300 3.450800
17.436300 3.611200
17.460300 3.501400
17.484300 3.207600
17.508300 2.909500
17.532300 2.673100
17.556300 2.710300
17.580300 3.238500
17.604300 4.093600
17.628300 4.882300
17.652400 5.386800
17.676400 5.586300
17.700400 5.506800
17.724400 5.310700
17.748400 5.240000
17.772400 5.213100
17.796400 4.954400
17.820400 4.580000
17.844400 4.397200
17.868400 4.353100
17.892400 4.289400
17.916400 4.257700
17.940400 4.198200
17.964400 3.919200
17.988400 3.538800
18.012400 3.459300
18.036400 3.857000
18.060500 4.462600
18.084500 4.876200
18.108500 4.932000
18.132500 4.686000
18.156500 4.245900
18.180500 3.770000
18.204500 3.457300
18.228500 3.409400
18.252500 3.615200
18.276500 4.023300
18.300500 4.445000
18.324500 4.531900
18.348500 4.155300
18.372500 3.612400
18.396500 3.279300
18.420500 3.369200
18.444600 3.837700
18.468600 4.295300
18.492600 4.356900
18.516600 4.052300
18.540600 3.676000
18.564600 3.387800
18.588600 3.153000
18.612600 3.041800
18.636600 3.276500
18.660600 3.767000
18.684600 4.134600
18.708600 4.325900
18.732600 4.448300
18.756600 4.355500
18.780600 4.013700
18.804600 3.704000
18.828600 3.573700
18.852700 3.415700
18.876700 3.140800
18.900700 3.002700
18.924700 3.066800
18.948700 3.124400
18.972700 3.171900
18.996700 3.291900
19.020700 3.248500
19.044700 2.820700
19.068700 2.305100
19.092700 2.247200
19.116700 2.785500
19.140700 3.448900
19.164700 3.679300
19.188700 3.493700
19.212700 3.383200
19.236800 3.583000
19.260800 3.814600
19.284800 3.773200
19.308800 3.525400
19.332800 3.257400
19.356800 2.917700
19.380800 2.466200
19.404800 2.158200
19.428800 2.283400
19.452800 2.777400
19.476800 3.338000
19.500800 3.945300
19.524800 4.728200
19.548800 5.364700
19.572800 5.395300
19.596800 4.908000
19.620900 4.321900
19.644900 3.930600
19.668900 3.967200
19.692900 4.426500
19.716900 4.750000
19.740900 4.473300
19.764900 3.942400
19.788900 3.684700
19.812900 3.737800
19.836900 4.097000
19.860900 4.857400
19.884900 5.645400
19.908900 5.759200
19.932900 5.104400
19.956900 4.335600
19.980900 3.976500
20.004900 3.949500
20.029000 3.985400
20.053000 4.032100
20.077000 4.135400
20.101000 4.307500
20.125000 4.488600
20.149000 4.536400
20.173000 4.436000
20.197000 4.339300
20.221000 4.335800
20.245000 4.334700
20.269000 4.249800
20.293000 4.132300
20.317000 4.063800
20.341000 4.116200
20.365000 4.436200
20.389000 5.114000
20.413100 5.798200
20.437100 6.030600
20.461100 5.876900
20.485100 5.517300
20.509100 4.966200
20.533100 4.491900
20.557100 4.401400
20.581100 4.480100
20.605100 4.292100
20.629100 4.024100
20.653100 4.238200
20.677100 4.810400
20.701100 5.202800
20.725100 5.427100
20.749100 5.723100
20.773100 5.819200
20.797100 5.365700
20.821200 4.644600
20.845200 4.264600
20.869200 4.452800
20.893200 4.924400
20.917200 5.255300
20.941200 5.180000
20.965200 4.813900
20.989200 4.682400
21.013200 5.062900
21.037200 5.520700
21.061200 5.586100
21.085200 5.372300
21.109200 5.129800
21.133200 4.795200
21.157200 4.419900
21.181200 4.453500
21.205300 4.992900
21.229300 5.447500
21.253300 5.437300
21.277300 5.210900
21.301300 5.094900
21.325300 5.058400
21.349300 4.922000
21.373300 4.722800
21.397300 4.525800
21.421300 4.369800
21.445300 4.503400
21.469300 4.982500
21.493300 5.407200
21.517300 5.592500
21.541300 5.764800
21.565300 5.992100
21.589300 6.084700
21.613400 5.927600
21.637400 5.553900
21.661400 4.967700
21.685400 4.383800
21.709400 4.408100
21.733400 5.204300
21.757400 5.976100
21.781400 6.021300
21.805400 5.616800
21.829400 5.336100
21.853400 5.358400
21.877400 5.568700
21.901400 5.681700
21.925400 5.448800
21.949400 4.894700
21.973400 4.366500
21.997500 4.363100
22.021500 5.041100
22.045500 5.995500
22.069500 6.651500
22.093500 6.723400
22.117500 6.324500
22.141500 5.727200
22.165500 5.149000
22.189500 4.808100
22.213500 4.825000
22.237500 4.987800
22.261500 5.073500
22.285500 5.199600
22.309500 5.512400
22.333500 5.842000
22.357500 5.843900
22.381600 5.473500
22.405600 5.116100
22.429600 5.142500
22.453600 5.544600
22.477600 5.963000
22.501600 6.045700
22.525600 5.780400
22.549600 5.347500
22.573600 4.909600
22.597600 4.698000
22.621600 5.005000
22.645600 5.713900
22.669600 6.123600
22.693600 5.817400
22.717600 5.283600
22.741600 5.113300
22.765600 5.190300
22.789700 5.120700
22.813700 4.930700
22.837700 4.989100
22.861700 5.266000
22.885700 5.136000
22.909700 4.481800
22.933700 4.123800
22.957700 4.465100
22.981700 4.888800
23.005700 4.835100
23.029700 4.462900
23.053700 4.234700
23.077700 4.335200
23.101700 4.516400
23.125700 4.533900
23.149700 4.515300
23.173800 4.726900
23.197800 5.204400
23.221800 5.555700
23.245800 5.291100
23.269800 4.558200
23.293800 4.005500
23.317800 3.915300
23.341800 4.056400
23.365800 4.117400
23.389800 3.969500
23.413800 3.867300
23.437800 4.265300
23.461800 5.162100
23.485800 6.050100
23.509800 6.560100
23.533800 6.801900
23.557800 7.110100
23.581900 7.526300
23.605900 7.703700
23.629900 7.417900
23.653900 6.786200
23.677900 6.086500
23.701900 5.672800
23.725900 5.673300
23.749900 5.740000
23.773900 5.504500
23.797900 5.080400
23.821900 4.751400
23.845900 4.464500
23.869900 4.098000
23.893900 3.973400
23.917900 4.576800
23.941900 5.727600
23.966000 6.532000
23.990000 6.477400
24.014000 5.878000
24.038000 5.183900
24.062000 4.645000
24.086000 4.415500
24.110000 4.432300
24.134000 4.317900
24.158000 3.875100
24.182000 3.426800
24.206000 3.165600
24.230000 2.853600
24.254000 2.481100
24.278000 2.387000
24.302000 2.714400
24.326000 3.265600
24.350100 3.726000
24.374100 3.894700
24.398100 3.772700
24.422100 3.419000
24.446100 2.893000
24.470100 2.441200
24.494100 2.460900
24.518100 2.942900
24.542100 3.293200
24.566100 3.128000
24.590100 2.665100
24.614100 2.198300
24.638100 1.840200
24.662100 1.612400
24.686100 1.442800
24.710100 1.254900
24.734100 1.123900
24.758200 1.245500
24.782200 1.675900
24.806200 2.180500
24.830200 2.467600
24.854200 2.470700
24.878200 2.294500
24.902200 1.990400
24.926200 1.535500
24.950200 0.995800
24.974200 0.540400
24.998200 0.303000
25.022200 0.306500
25.046200 0.449500
25.070200 0.566500
25.094200 0.602800
25.118200 0.663200
25.142300 0.807400
25.166300 0.920700
25.190300 0.898000
25.214300 0.809100
25.238300 0.737800
25.262300 0.641000
25.286300 0.492400
25.310300 0.391900
25.334300 0.424900
25.358300 0.520800
25.382300 0.537100
25.406300 0.432200
25.430300 0.316000
25.454300 0.308900
25.478300 0.384400
25.502300 0.426600
25.526300 0.388000
25.550400 0.299000
25.574400 0.190300
25.598400 0.093600
25.622400 0.046200
25.646400 0.068800
25.670400 0.161300
25.694400 0.278900
25.718400 0.329800
25.742400 0.266500
25.766400 0.147000
25.790400 0.059200
25.814400 0.037900
25.838400 0.083800
25.862400 0.184900
25.886400 0.288100
25.910400 0.317700
25.934500 0.262100
25.958500 0.175600
25.982500 0.099500
26.006500 0.048100
26.030500 0.032100
26.054500 0.050800
26.078500 0.080700
26.102500 0.086400
26.126500 0.059700
26.150500 0.026400
26.174500 0.007500
26.198500 0.001400
26.222500 0.000200
26.246500 0.000000
26.270500 0.000000
26.294500 0.000000
26.318500 0.000000
26.342600 0.000000
26.366600 0.000000
26.390600 0.000000
26.414600 0.000100
26.438600 0.000500
26.462600 0.003300
26.486600 0.013500
26.510600 0.036800
26.534600 0.067100
26.558600 0.082900
26.582600 0.069700
26.606600 0.039600
26.630600 0.015200
26.654600 0.003900
26.678600 0.000600
26.702600 0.000100
26.726700 0.000000
26.750700 0.000000
26.774700 0.000000
26.798700 0.000000
26.822700 0.000000
26.846700 0.000000
26.870700 0.000000
26.894700 0.000000
26.918700 0.000000
26.942700 0.000000
26.966700 0.000000
26.990700 0.000000
27.014700 0.000000
27.038700 0.000000
27.062700 0.000000
27.086700 0.000000
27.110800 0.000000
27.134800 0.000000
27.158800 0.000000
27.182800 0.000000
27.206800 0.000000
27.230800 0.000000
27.254800 0.000000
27.278800 0.000000
27.302800 0.000000
27.326800 0.000000
27.350800 0.000000
27.374800 0.000000
27.398800 0.000000
27.422800 0.000000
27.446800 0.000000
27.470800 0.000000
27.494800 0.000000
27.518900 0.000000
27.542900 0.000000
27.566900 0.000000
27.590900 0.000000
27.614900 0.000000
27.638900 0.000000
27.662900 0.000000
27.686900 0.000000
27.710900 0.000000
27.734900 0.000000
27.758900 0.000000
27.782900 0.000000
27.806900 0.000000
27.830900 0.000000
27.854900 0.000000
27.878900 0.000000
27.903000 0.000000
27.927000 0.000000
27.951000 0.000000
27.975000 0.000000
27.999000 0.000000
28.023000 0.000000
28.047000 0.000000
28.071000 0.000000
28.095000 0.000000
28.119000 0.000000
28.143000 0.000000
28.167000 0.000000
28.191000 0.000000
28.215000 0.000000
28.239000 0.000000
28.263000 0.000000
28.287000 0.000000
28.311100 0.000000
28.335100 0.000000
28.359100 0.000000
28.383100 0.000000
28.407100 0.000000
28.431100 0.000000
28.455100 0.000000
28.479100 0.000000
28.503100 0.000000
28.527100 0.000000
28.551100 0.000000
28.575100 0.000000
28.599100 0.000000
28.623100 0.000000
28.647100 0.000000
28.671100 0.000000
28.695200 0.000000
28.719200 0.000000
28.743200 0.000000
e
