set title 'mp-1186355 - Density of States'
set xlabel 'Energy (eV)'
set ylabel 'DOS (states/eV)'
set grid
set xrange [-10:10]
set yrange [0:14.204]
set xzeroaxis lt -1
set terminal png size 800,600
set output 'mp-1186355_dos_gnuplot.png'
plot '-' using 1:2 with lines title 'DOS'
-40.160800 0.000000
-40.123400 0.000000
-40.086100 0.000000
-40.048700 0.000000
-40.011300 0.000000
-39.974000 0.000000
-39.936600 0.000000
-39.899300 0.000000
-39.861900 0.000000
-39.824600 0.000000
-39.787200 0.000000
-39.749800 0.000000
-39.712500 0.000000
-39.675100 0.000000
-39.637800 0.000000
-39.600400 0.000000
-39.563100 0.000000
-39.525700 0.000000
-39.488300 0.000000
-39.451000 0.000000
-39.413600 0.000000
-39.376300 0.000000
-39.338900 0.000000
-39.301600 0.000000
-39.264200 0.000000
-39.226800 0.000000
-39.189500 0.000000
-39.152100 0.000000
-39.114800 0.000000
-39.077400 0.000000
-39.040000 0.000000
-39.002700 0.000000
-38.965300 0.000000
-38.928000 0.000000
-38.890600 0.000000
-38.853300 0.000000
-38.815900 0.000000
-38.778500 0.000000
-38.741200 0.000000
-38.703800 0.000000
-38.666500 0.000000
-38.629100 0.000000
-38.591800 0.000000
-38.554400 0.000000
-38.517000 0.000000
-38.479700 0.000000
-38.442300 0.000000
-38.405000 0.000000
-38.367600 0.000000
-38.330300 0.000000
-38.292900 0.000000
-38.255500 0.000000
-38.218200 0.000000
-38.180800 0.000000
-38.143500 0.000000
-38.106100 0.000000
-38.068800 0.000000
-38.031400 0.000000
-37.994000 0.000000
-37.956700 0.000000
-37.919300 0.000000
-37.882000 0.000000
-37.844600 0.000000
-37.807300 0.000000
-37.769900 0.000000
-37.732500 0.000000
-37.695200 0.000000
-37.657800 0.000000
-37.620500 0.000000
-37.583100 0.000000
-37.545800 0.000000
-37.508400 0.000000
-37.471000 0.000000
-37.433700 0.000000
-37.396300 0.000000
-37.359000 0.000000
-37.321600 0.000000
-37.284300 0.000000
-37.246900 0.000000
-37.209500 0.000000
-37.172200 0.000000
-37.134800 0.000000
-37.097500 0.000000
-37.060100 0.000000
-37.022800 0.000000
-36.985400 0.000000
-36.948000 0.000000
-36.910700 0.000000
-36.873300 0.000000
-36.836000 0.000000
-36.798600 0.000000
-36.761300 66.105200
-36.723900 0.000000
-36.686500 0.000000
-36.649200 0.000000
-36.611800 0.000000
-36.574500 0.000000
-36.537100 0.000000
-36.499800 0.000000
-36.462400 0.000000
-36.425000 0.000000
-36.387700 0.000000
-36.350300 0.000000
-36.313000 0.000000
-36.275600 0.000000
-36.238300 0.000000
-36.200900 0.000000
-36.163500 0.000000
-36.126200 0.000000
-36.088800 0.000000
-36.051500 0.000000
-36.014100 0.000000
-35.976700 0.000000
-35.939400 0.000000
-35.902000 0.000000
-35.864700 0.000000
-35.827300 0.000000
-35.790000 0.000000
-35.752600 0.000000
-35.715200 0.000000
-35.677900 0.000000
-35.640500 0.000000
-35.603200 0.000000
-35.565800 0.000000
-35.528500 0.000000
-35.491100 0.000000
-35.453700 0.000000
-35.416400 0.000000
-35.379000 0.000000
-35.341700 0.000000
-35.304300 0.000000
-35.267000 0.000000
-35.229600 0.000000
-35.192200 0.000000
-35.154900 0.000000
-35.117500 0.000000
-35.080200 0.000000
-35.042800 0.000000
-35.005500 0.000000
-34.968100 0.000000
-34.930700 0.000000
-34.893400 0.000000
-34.856000 0.000000
-34.818700 0.000000
-34.781300 0.000000
-34.744000 0.000000
-34.706600 0.000000
-34.669200 0.000000
-34.631900 0.000000
-34.594500 0.000000
-34.557200 0.000000
-34.519800 0.000000
-34.482500 0.000000
-34.445100 0.000000
-34.407700 0.000000
-34.370400 0.000000
-34.333000 0.000000
-34.295700 0.000000
-34.258300 0.000000
-34.221000 0.000000
-34.183600 0.000000
-34.146200 0.000000
-34.108900 0.000000
-34.071500 0.000000
-34.034200 0.000000
-33.996800 0.000000
-33.959500 0.000000
-33.922100 0.000000
-33.884700 0.000000
-33.847400 0.000000
-33.810000 0.000000
-33.772700 0.000000
-33.735300 0.000000
-33.698000 0.000000
-33.660600 0.000000
-33.623200 0.000000
-33.585900 0.000000
-33.548500 0.000000
-33.511200 0.000000
-33.473800 0.000000
-33.436500 0.000000
-33.399100 0.000000
-33.361700 0.000000
-33.324400 0.000000
-33.287000 0.000000
-33.249700 0.000000
-33.212300 0.000000
-33.174900 0.000000
-33.137600 0.000000
-33.100200 0.000000
-33.062900 0.000000
-33.025500 0.000000
-32.988200 0.000000
-32.950800 0.000000
-32.913400 0.000000
-32.876100 0.000000
-32.838700 0.000000
-32.801400 0.000000
-32.764000 0.000000
-32.726700 0.000000
-32.689300 0.000000
-32.651900 0.000000
-32.614600 0.000000
-32.577200 0.000000
-32.539900 0.000000
-32.502500 0.000000
-32.465200 0.000000
-32.427800 0.000000
-32.390400 0.000000
-32.353100 0.000000
-32.315700 0.000000
-32.278400 0.000000
-32.241000 0.000000
-32.203700 0.000000
-32.166300 0.000000
-32.128900 0.000000
-32.091600 0.000000
-32.054200 0.000000
-32.016900 0.000000
-31.979500 0.000000
-31.942200 0.000000
-31.904800 0.000000
-31.867400 0.000000
-31.830100 0.000000
-31.792700 0.000000
-31.755400 0.000000
-31.718000 0.000000
-31.680700 0.000000
-31.643300 0.000000
-31.605900 0.000000
-31.568600 0.000000
-31.531200 0.000000
-31.493900 0.000000
-31.456500 0.000000
-31.419200 0.000000
-31.381800 0.000000
-31.344400 0.000000
-31.307100 0.000000
-31.269700 0.000000
-31.232400 0.000000
-31.195000 0.000000
-31.157700 0.000000
-31.120300 0.000000
-31.082900 0.000000
-31.045600 0.000000
-31.008200 0.000000
-30.970900 0.000000
-30.933500 0.000000
-30.896200 0.000000
-30.858800 0.000000
-30.821400 0.000000
-30.784100 0.000000
-30.746700 0.000000
-30.709400 0.000000
-30.672000 0.000000
-30.634700 0.000000
-30.597300 0.000000
-30.559900 0.000000
-30.522600 0.000000
-30.485200 0.000000
-30.447900 0.000000
-30.410500 0.000000
-30.373200 0.000000
-30.335800 0.000000
-30.298400 0.000000
-30.261100 0.000000
-30.223700 0.000000
-30.186400 0.000000
-30.149000 0.000000
-30.111600 0.000000
-30.074300 0.000000
-30.036900 0.000000
-29.999600 0.000000
-29.962200 0.000000
-29.924900 0.000000
-29.887500 0.000000
-29.850100 0.000000
-29.812800 0.000000
-29.775400 0.000000
-29.738100 0.000000
-29.700700 0.000000
-29.663400 0.000000
-29.626000 0.000000
-29.588600 0.000000
-29.551300 0.000000
-29.513900 0.000000
-29.476600 0.000000
-29.439200 0.000000
-29.401900 0.000000
-29.364500 0.000000
-29.327100 0.000000
-29.289800 0.000000
-29.252400 0.000000
-29.215100 0.000000
-29.177700 0.000000
-29.140400 0.000000
-29.103000 0.000000
-29.065600 0.000000
-29.028300 0.000000
-28.990900 0.000000
-28.953600 0.000000
-28.916200 0.000000
-28.878900 0.000000
-28.841500 0.000000
-28.804100 0.000000
-28.766800 0.000000
-28.729400 0.000000
-28.692100 0.000000
-28.654700 0.000000
-28.617400 0.000000
-28.580000 0.000000
-28.542600 0.000000
-28.505300 0.000000
-28.467900 0.000000
-28.430600 0.000000
-28.393200 0.000000
-28.355900 0.000000
-28.318500 0.000000
-28.281100 0.000000
-28.243800 0.000000
-28.206400 0.000000
-28.169100 0.000000
-28.131700 0.000000
-28.094400 0.000000
-28.057000 0.000000
-28.019600 0.000000
-27.982300 0.000000
-27.944900 0.000000
-27.907600 0.000000
-27.870200 0.000000
-27.832900 0.000000
-27.795500 0.000000
-27.758100 0.000000
-27.720800 0.000000
-27.683400 0.000000
-27.646100 0.000000
-27.608700 0.000000
-27.571400 0.000000
-27.534000 0.000000
-27.496600 0.000000
-27.459300 0.000000
-27.421900 0.000000
-27.384600 0.000000
-27.347200 0.000000
-27.309800 0.000000
-27.272500 0.000000
-27.235100 0.000000
-27.197800 0.000000
-27.160400 0.000000
-27.123100 0.000000
-27.085700 0.000000
-27.048300 0.000000
-27.011000 0.000000
-26.973600 0.000000
-26.936300 0.000000
-26.898900 0.000000
-26.861600 0.000000
-26.824200 0.000000
-26.786800 0.000000
-26.749500 0.000000
-26.712100 0.000000
-26.674800 0.000000
-26.637400 0.000000
-26.600100 0.000000
-26.562700 0.000000
-26.525300 0.000000
-26.488000 0.000000
-26.450600 0.000000
-26.413300 0.000000
-26.375900 0.000000
-26.338600 0.000000
-26.301200 0.000000
-26.263800 0.000000
-26.226500 0.000000
-26.189100 0.000000
-26.151800 0.000000
-26.114400 0.000000
-26.077100 0.000000
-26.039700 0.000000
-26.002300 0.000000
-25.965000 0.000000
-25.927600 0.000000
-25.890300 0.000000
-25.852900 0.000000
-25.815600 0.000000
-25.778200 0.000000
-25.740800 0.000000
-25.703500 0.000000
-25.666100 0.000000
-25.628800 0.000000
-25.591400 0.000000
-25.554100 0.000000
-25.516700 0.000000
-25.479300 0.000000
-25.442000 0.000000
-25.404600 0.000000
-25.367300 0.000000
-25.329900 0.000000
-25.292600 0.000000
-25.255200 0.000000
-25.217800 0.000000
-25.180500 0.000000
-25.143100 0.000000
-25.105800 0.000000
-25.068400 0.000000
-25.031100 0.000000
-24.993700 0.000000
-24.956300 0.000000
-24.919000 0.000000
-24.881600 0.000000
-24.844300 0.000000
-24.806900 0.000000
-24.769600 0.000000
-24.732200 0.000000
-24.694800 0.000000
-24.657500 0.000000
-24.620100 0.000000
-24.582800 0.000000
-24.545400 0.000000
-24.508000 0.000000
-24.470700 0.000000
-24.433300 0.000000
-24.396000 0.000000
-24.358600 0.000000
-24.321300 0.000000
-24.283900 0.000000
-24.246500 0.000000
-24.209200 0.000000
-24.171800 0.000000
-24.134500 0.000000
-24.097100 0.000000
-24.059800 0.000000
-24.022400 0.000000
-23.985000 0.000000
-23.947700 0.000000
-23.910300 0.000000
-23.873000 0.000000
-23.835600 0.000000
-23.798300 0.000000
-23.760900 0.000000
-23.723500 0.000000
-23.686200 0.000000
-23.648800 0.000000
-23.611500 0.000000
-23.574100 0.000000
-23.536800 0.000000
-23.499400 0.000000
-23.462000 0.000000
-23.424700 0.000000
-23.387300 0.000000
-23.350000 0.000000
-23.312600 0.000000
-23.275300 0.000000
-23.237900 0.000000
-23.200500 0.000000
-23.163200 0.000000
-23.125800 0.000000
-23.088500 0.000000
-23.051100 0.000000
-23.013800 0.000000
-22.976400 0.000000
-22.939000 0.000000
-22.901700 0.000000
-22.864300 0.000000
-22.827000 0.000000
-22.789600 0.000000
-22.752300 0.000000
-22.714900 0.000000
-22.677500 0.000000
-22.640200 0.000000
-22.602800 0.000000
-22.565500 0.000000
-22.528100 0.000000
-22.490800 0.000000
-22.453400 0.000000
-22.416000 0.000000
-22.378700 0.000000
-22.341300 0.000000
-22.304000 0.000000
-22.266600 0.000000
-22.229300 0.000000
-22.191900 0.000000
-22.154500 0.000000
-22.117200 0.000000
-22.079800 0.000000
-22.042500 0.000000
-22.005100 0.000000
-21.967800 0.000000
-21.930400 0.000000
-21.893000 0.000000
-21.855700 0.000000
-21.818300 0.000000
-21.781000 0.000000
-21.743600 0.000000
-21.706300 0.000000
-21.668900 0.000000
-21.631500 0.000000
-21.594200 0.000000
-21.556800 0.000000
-21.519500 0.000000
-21.482100 0.000000
-21.444700 0.000000
-21.407400 0.000000
-21.370000 0.000000
-21.332700 0.000000
-21.295300 0.000000
-21.258000 0.000000
-21.220600 0.000000
-21.183200 0.000000
-21.145900 0.000000
-21.108500 0.000000
-21.071200 0.000000
-21.033800 0.000000
-20.996500 0.000000
-20.959100 0.000000
-20.921700 0.000000
-20.884400 0.000000
-20.847000 0.000000
-20.809700 0.000000
-20.772300 0.000000
-20.735000 0.000000
-20.697600 0.000000
-20.660200 0.000000
-20.622900 0.000000
-20.585500 0.000000
-20.548200 0.000000
-20.510800 0.000000
-20.473500 0.000000
-20.436100 0.000000
-20.398700 0.000000
-20.361400 0.000000
-20.324000 0.000000
-20.286700 0.000000
-20.249300 0.000000
-20.212000 0.000000
-20.174600 0.000000
-20.137200 0.000000
-20.099900 0.000000
-20.062500 0.000000
-20.025200 0.000000
-19.987800 0.000000
-19.950500 0.000000
-19.913100 0.000000
-19.875700 0.000000
-19.838400 0.000000
-19.801000 0.000000
-19.763700 0.000000
-19.726300 0.000000
-19.689000 0.000000
-19.651600 0.000000
-19.614200 0.000000
-19.576900 0.000000
-19.539500 0.000000
-19.502200 0.000000
-19.464800 0.000000
-19.427500 0.000000
-19.390100 0.000000
-19.352700 0.000000
-19.315400 0.000000
-19.278000 0.000000
-19.240700 0.000000
-19.203300 0.000000
-19.166000 0.000000
-19.128600 0.000000
-19.091200 0.000000
-19.053900 0.000000
-19.016500 0.000000
-18.979200 0.000000
-18.941800 0.000000
-18.904500 0.000000
-18.867100 0.000000
-18.829700 0.000000
-18.792400 0.000000
-18.755000 0.000000
-18.717700 0.000000
-18.680300 0.000000
-18.642900 0.000000
-18.605600 0.000000
-18.568200 0.000000
-18.530900 0.000000
-18.493500 0.000000
-18.456200 0.000000
-18.418800 0.000000
-18.381400 0.000000
-18.344100 0.000000
-18.306700 0.000000
-18.269400 0.000000
-18.232000 0.000000
-18.194700 0.000000
-18.157300 0.000000
-18.119900 0.000000
-18.082600 0.000000
-18.045200 0.000000
-18.007900 0.000000
-17.970500 0.000000
-17.933200 0.000000
-17.895800 0.000000
-17.858400 0.000000
-17.821100 0.000000
-17.783700 0.000000
-17.746400 0.000000
-17.709000 0.000000
-17.671700 0.000000
-17.634300 0.000000
-17.596900 0.000000
-17.559600 0.000000
-17.522200 0.000000
-17.484900 0.000000
-17.447500 0.000000
-17.410200 0.000000
-17.372800 0.000000
-17.335400 0.000000
-17.298100 0.000000
-17.260700 0.000000
-17.223400 0.000000
-17.186000 0.000000
-17.148700 0.000000
-17.111300 0.000000
-17.073900 0.000000
-17.036600 0.000000
-16.999200 0.000000
-16.961900 0.000000
-16.924500 0.000000
-16.887200 0.000000
-16.849800 0.000000
-16.812400 0.000000
-16.775100 0.000000
-16.737700 0.000000
-16.700400 0.000000
-16.663000 0.000000
-16.625700 0.000000
-16.588300 0.000000
-16.550900 0.000000
-16.513600 0.000000
-16.476200 0.000000
-16.438900 0.000000
-16.401500 0.000000
-16.364200 0.000000
-16.326800 0.000000
-16.289400 0.000000
-16.252100 0.000000
-16.214700 0.000000
-16.177400 0.000000
-16.140000 0.000000
-16.102700 0.000000
-16.065300 0.000000
-16.027900 0.000000
-15.990600 0.000000
-15.953200 0.000000
-15.915900 0.000000
-15.878500 0.000000
-15.841200 0.000000
-15.803800 0.000000
-15.766400 0.000000
-15.729100 0.000000
-15.691700 0.000000
-15.654400 0.000000
-15.617000 0.000000
-15.579600 0.000000
-15.542300 0.000000
-15.504900 0.000000
-15.467600 0.000000
-15.430200 0.000000
-15.392900 0.000000
-15.355500 0.000000
-15.318100 0.000000
-15.280800 0.000000
-15.243400 0.000000
-15.206100 0.000000
-15.168700 0.000000
-15.131400 0.000000
-15.094000 0.000000
-15.056600 0.000000
-15.019300 0.000000
-14.981900 0.000000
-14.944600 0.000000
-14.907200 0.000000
-14.869900 0.000000
-14.832500 0.000000
-14.795100 0.000000
-14.757800 0.000000
-14.720400 0.000000
-14.683100 0.000000
-14.645700 0.000000
-14.608400 0.000000
-14.571000 0.000000
-14.533600 0.000000
-14.496300 0.000000
-14.458900 0.000000
-14.421600 0.000000
-14.384200 0.000000
-14.346900 0.000000
-14.309500 0.000000
-14.272100 0.000000
-14.234800 0.000000
-14.197400 0.000000
-14.160100 0.000000
-14.122700 0.000000
-14.085400 0.000000
-14.048000 0.000000
-14.010600 0.000000
-13.973300 0.000000
-13.935900 0.000000
-13.898600 0.000000
-13.861200 0.000000
-13.823900 0.000000
-13.786500 0.000000
-13.749100 0.000000
-13.711800 0.000000
-13.674400 0.000000
-13.637100 0.000000
-13.599700 0.000000
-13.562400 0.000000
-13.525000 0.000000
-13.487600 0.000000
-13.450300 0.000000
-13.412900 0.000000
-13.375600 0.000000
-13.338200 0.000000
-13.300900 0.000000
-13.263500 0.000000
-13.226100 0.000000
-13.188800 0.000000
-13.151400 0.000000
-13.114100 0.000000
-13.076700 0.000000
-13.039400 0.000000
-13.002000 0.000000
-12.964600 0.000000
-12.927300 0.000000
-12.889900 0.000000
-12.852600 0.000000
-12.815200 0.000000
-12.777800 0.000000
-12.740500 0.000000
-12.703100 0.000000
-12.665800 0.000000
-12.628400 0.000000
-12.591100 0.000000
-12.553700 0.000000
-12.516300 0.000000
-12.479000 0.000000
-12.441600 0.000000
-12.404300 0.000000
-12.366900 0.000000
-12.329600 0.000000
-12.292200 0.000000
-12.254800 0.000000
-12.217500 0.000000
-12.180100 0.000000
-12.142800 0.000000
-12.105400 0.000000
-12.068100 0.000000
-12.030700 0.000000
-11.993300 0.000000
-11.956000 0.000000
-11.918600 0.000000
-11.881300 0.000000
-11.843900 0.000000
-11.806600 0.000000
-11.769200 0.000000
-11.731800 0.000000
-11.694500 0.000000
-11.657100 0.000000
-11.619800 0.000000
-11.582400 0.000000
-11.545100 0.000000
-11.507700 2.814600
-11.470300 2.504800
-11.433000 2.676600
-11.395600 3.119000
-11.358300 3.737700
-11.320900 3.442300
-11.283600 3.496500
-11.246200 3.283200
-11.208800 3.761100
-11.171500 4.649500
-11.134100 5.212700
-11.096800 8.834000
-11.059400 11.228000
-11.022100 11.929700
-10.984700 4.944200
-10.947300 1.564400
-10.910000 0.000000
-10.872600 0.000000
-10.835300 0.000000
-10.797900 0.000000
-10.760600 0.000000
-10.723200 0.000000
-10.685800 0.000000
-10.648500 0.000000
-10.611100 0.000000
-10.573800 0.000000
-10.536400 0.000000
-10.499100 0.000000
-10.461700 0.000000
-10.424300 0.000000
-10.387000 0.000000
-10.349600 0.000000
-10.312300 0.000000
-10.274900 0.000000
-10.237600 0.000000
-10.200200 0.000000
-10.162800 0.000000
-10.125500 0.000000
-10.088100 0.000000
-10.050800 0.000000
-10.013400 0.000000
-9.976000 0.000000
-9.938700 0.000000
-9.901300 0.000000
-9.864000 0.000000
-9.826600 0.000000
-9.789300 0.000000
-9.751900 0.000000
-9.714500 0.000000
-9.677200 0.000000
-9.639800 0.000000
-9.602500 0.000000
-9.565100 0.000000
-9.527800 0.000000
-9.490400 0.000000
-9.453000 0.000000
-9.415700 0.000000
-9.378300 0.000000
-9.341000 0.000000
-9.303600 0.000000
-9.266300 0.000000
-9.228900 0.000000
-9.191500 0.000000
-9.154200 0.000000
-9.116800 0.000000
-9.079500 0.000000
-9.042100 0.000000
-9.004800 0.000000
-8.967400 0.000000
-8.930000 0.000000
-8.892700 0.000000
-8.855300 0.000000
-8.818000 0.000000
-8.780600 0.000000
-8.743300 0.000000
-8.705900 0.000000
-8.668500 0.000000
-8.631200 0.000000
-8.593800 0.000000
-8.556500 0.000000
-8.519100 0.000000
-8.481800 0.000000
-8.444400 0.000000
-8.407000 0.000000
-8.369700 0.000000
-8.332300 0.000000
-8.295000 0.000000
-8.257600 0.000000
-8.220300 0.000000
-8.182900 0.000000
-8.145500 0.000000
-8.108200 0.000000
-8.070800 0.000000
-8.033500 0.000000
-7.996100 0.000000
-7.958800 0.000000
-7.921400 0.000000
-7.884000 0.000000
-7.846700 0.000000
-7.809300 0.000000
-7.772000 0.000000
-7.734600 0.000000
-7.697300 0.000000
-7.659900 0.000000
-7.622500 0.000000
-7.585200 0.000000
-7.547800 0.000000
-7.510500 0.000000
-7.473100 0.000000
-7.435800 0.000000
-7.398400 0.000000
-7.361000 0.000000
-7.323700 0.000000
-7.286300 0.000000
-7.249000 0.000000
-7.211600 0.000000
-7.174300 0.000000
-7.136900 0.000000
-7.099500 0.004600
-7.062200 0.029100
-7.024800 0.058700
-6.987500 0.078300
-6.950100 0.089300
-6.912700 0.101900
-6.875400 0.111700
-6.838000 0.126600
-6.800700 0.142400
-6.763300 0.157000
-6.726000 0.165800
-6.688600 0.176300
-6.651200 0.188100
-6.613900 0.199900
-6.576500 0.212000
-6.539200 0.224600
-6.501800 0.237500
-6.464500 0.252200
-6.427100 0.269300
-6.389700 0.285800
-6.352400 0.300200
-6.315000 0.314500
-6.277700 0.329800
-6.240300 0.345400
-6.203000 0.365400
-6.165600 0.390800
-6.128200 0.423300
-6.090900 0.463900
-6.053500 0.498300
-6.016200 0.506100
-5.978800 0.530200
-5.941500 0.537200
-5.904100 0.531900
-5.866700 0.538700
-5.829400 0.549800
-5.792000 0.557300
-5.754700 0.563500
-5.717300 0.564500
-5.680000 0.573100
-5.642600 0.580200
-5.605200 0.588400
-5.567900 0.597500
-5.530500 0.608100
-5.493200 0.619600
-5.455800 0.625600
-5.418500 0.645400
-5.381100 0.689800
-5.343700 0.753000
-5.306400 0.882300
-5.269000 0.928200
-5.231700 0.877100
-5.194300 0.863300
-5.157000 0.820600
-5.119600 0.765500
-5.082200 0.722500
-5.044900 0.677100
-5.007500 0.642600
-4.970200 0.680100
-4.932800 0.684500
-4.895500 0.765000
-4.858100 0.527400
-4.820700 0.678300
-4.783400 1.226200
-4.746000 1.709000
-4.708700 1.955400
-4.671300 1.921600
-4.634000 1.229600
-4.596600 1.218000
-4.559200 1.369400
-4.521900 1.820200
-4.484500 2.048200
-4.447200 1.832600
-4.409800 1.704000
-4.372500 1.540500
-4.335100 1.440600
-4.297700 1.419400
-4.260400 1.423800
-4.223000 1.416400
-4.185700 1.399900
-4.148300 1.432600
-4.110900 1.454400
-4.073600 1.452900
-4.036200 1.521600
-3.998900 1.578200
-3.961500 1.626600
-3.924200 1.447000
-3.886800 1.355600
-3.849400 1.343100
-3.812100 1.445900
-3.774700 1.668900
-3.737400 1.214200
-3.700000 0.633200
-3.662700 0.445200
-3.625300 0.406900
-3.587900 0.388400
-3.550600 0.369800
-3.513200 0.353800
-3.475900 0.344500
-3.438500 0.338300
-3.401200 0.332200
-3.363800 0.326100
-3.326400 0.320000
-3.289100 0.309000
-3.251700 0.328600
-3.214400 0.312100
-3.177000 0.293200
-3.139700 0.274400
-3.102300 0.255600
-3.064900 0.236700
-3.027600 0.243000
-2.990200 0.282300
-2.952900 0.294800
-2.915500 0.221800
-2.878200 0.118000
-2.840800 0.038900
-2.803400 0.002500
-2.766100 0.000000
-2.728700 0.000000
-2.691400 0.000000
-2.654000 0.000000
-2.616700 0.000000
-2.579300 0.000000
-2.541900 0.000000
-2.504600 0.000000
-2.467200 0.000000
-2.429900 0.000000
-2.392500 0.000000
-2.355200 0.000000
-2.317800 0.000000
-2.280400 0.000000
-2.243100 0.000000
-2.205700 0.000000
-2.168400 0.000000
-2.131000 0.000000
-2.093700 0.000000
-2.056300 0.000000
-2.018900 0.000000
-1.981600 0.000000
-1.944200 0.000000
-1.906900 0.000000
-1.869500 0.000000
-1.832200 0.000000
-1.794800 0.000000
-1.757400 0.000000
-1.720100 0.000000
-1.682700 0.000000
-1.645400 0.000000
-1.608000 0.000000
-1.570700 0.000000
-1.533300 0.000000
-1.495900 0.000000
-1.458600 0.000000
-1.421200 0.000000
-1.383900 0.000000
-1.346500 0.000000
-1.309200 0.000000
-1.271800 0.000000
-1.234400 0.000000
-1.197100 0.000000
-1.159700 0.000000
-1.122400 0.000000
-1.085000 0.000000
-1.047600 0.000000
-1.010300 0.000000
-0.972900 0.000000
-0.935600 0.000000
-0.898200 0.000000
-0.860900 0.000000
-0.823500 0.000000
-0.786100 0.000000
-0.748800 0.000000
-0.711400 0.000000
-0.674100 0.000000
-0.636700 0.000000
-0.599400 0.000000
-0.562000 0.000000
-0.524600 0.000000
-0.487300 0.000000
-0.449900 0.000000
-0.412600 0.000000
-0.375200 0.000000
-0.337900 0.000000
-0.300500 0.000000
-0.263100 0.000000
-0.225800 0.000000
-0.188400 0.000000
-0.151100 0.000000
-0.113700 0.000000
-0.076400 0.000000
-0.039000 0.000000
-0.001600 0.000000
0.035700 0.000000
0.073100 0.000000
0.110400 0.000000
0.147800 0.000000
0.185100 0.000000
0.222500 0.000000
0.259900 0.000000
0.297200 0.000000
0.334600 0.000000
0.371900 0.000000
0.409300 0.000000
0.446600 0.000000
0.484000 0.000000
0.521400 0.000000
0.558700 0.000000
0.596100 0.000000
0.633400 0.000000
0.670800 0.000000
0.708100 0.000000
0.745500 0.000000
0.782900 0.000000
0.820200 0.000000
0.857600 0.000000
0.894900 0.000000
0.932300 0.000000
0.969600 0.000000
1.007000 0.000000
1.044400 0.000000
1.081700 0.000000
1.119100 0.000000
1.156400 0.000000
1.193800 0.000000
1.231100 0.000000
1.268500 0.000000
1.305900 0.000000
1.343200 0.000000
1.380600 0.000000
1.417900 0.000000
1.455300 0.000000
1.492600 0.000000
1.530000 0.000000
1.567400 0.000000
1.604700 0.073700
1.642100 0.065700
1.679400 0.082000
1.716800 0.098700
1.754200 0.115400
1.791500 0.136700
1.828900 0.165200
1.866200 0.199500
1.903600 0.241300
1.940900 0.299600
1.978300 0.338400
2.015700 0.305000
2.053000 0.321700
2.090400 0.396300
2.127700 0.459300
2.165100 0.559300
2.202400 0.599800
2.239800 0.597800
2.277200 0.685300
2.314500 0.759600
2.351900 0.885700
2.389200 0.964300
2.426600 1.044900
2.463900 1.154200
2.501300 1.281200
2.538700 1.442700
2.576000 1.604400
2.613400 1.758100
2.650700 1.948200
2.688100 1.646600
2.725400 1.342600
2.762800 1.139200
2.800200 0.891700
2.837500 0.760600
2.874900 0.700000
2.912200 0.668600
2.949600 0.682700
2.986900 0.819000
3.024300 0.969500
3.061700 1.087700
3.099000 1.099900
3.136400 1.101300
3.173700 1.219000
3.211100 1.261000
3.248400 1.166100
3.285800 1.081200
3.323200 0.998700
3.360500 0.965100
3.397900 0.934100
3.435200 0.906700
3.472600 0.896900
3.509900 0.954200
3.547300 1.070300
3.584700 1.300400
3.622000 1.394200
3.659400 1.543600
3.696700 1.747300
3.734100 1.863600
3.771400 1.885900
3.808800 1.847300
3.846200 1.779200
3.883500 1.738000
3.920900 1.559500
3.958200 1.399800
3.995600 1.248800
4.032900 1.302000
4.070300 1.447200
4.107700 1.412600
4.145000 1.534600
4.182400 1.647300
4.219700 1.884200
4.257100 1.903900
4.294400 1.949600
4.331800 1.883400
4.369200 1.833100
4.406500 1.737800
4.443900 1.688200
4.481200 1.627800
4.518600 1.587400
4.555900 1.558600
4.593300 1.517100
4.630700 1.405100
4.668000 1.303200
4.705400 1.195200
4.742700 1.090900
4.780100 0.998600
4.817500 0.985300
4.854800 0.996100
4.892200 1.070400
4.929500 1.148600
4.966900 1.109000
5.004200 1.074100
5.041600 1.095400
5.079000 1.135500
5.116300 1.192100
5.153700 1.289300
5.191000 1.469900
5.228400 1.350700
5.265700 1.274000
5.303100 1.394900
5.340500 1.593700
5.377800 1.802300
5.415200 1.842600
5.452500 1.813500
5.489900 1.802400
5.527200 1.817900
5.564600 1.708400
5.602000 1.598100
5.639300 1.437800
5.676700 1.289400
5.714000 1.243600
5.751400 1.284600
5.788700 1.345300
5.826100 1.281000
5.863500 1.295100
5.900800 1.353800
5.938200 1.395300
5.975500 1.451800
6.012900 1.462800
6.050200 1.419200
6.087600 1.482300
6.125000 1.508300
6.162300 1.599900
6.199700 1.605100
6.237000 1.561600
6.274400 1.526000
6.311700 1.560100
6.349100 1.542400
6.386500 1.566900
6.423800 1.505500
6.461200 1.458900
6.498500 1.413500
6.535900 1.311100
6.573200 1.280000
6.610600 1.264200
6.648000 1.266500
6.685300 1.260500
6.722700 1.234400
6.760000 1.242500
6.797400 1.292200
6.834700 1.330100
6.872100 1.328900
6.909500 1.249100
6.946800 1.191300
6.984200 1.209400
7.021500 1.284900
7.058900 1.391900
7.096200 1.511000
7.133600 1.533600
7.171000 1.477700
7.208300 1.496500
7.245700 1.239500
7.283000 1.138300
7.320400 1.137000
7.357700 1.131500
7.395100 1.041800
7.432500 0.890400
7.469800 0.697600
7.507200 0.645400
7.544500 0.667400
7.581900 0.724700
7.619300 0.805100
7.656600 0.910900
7.694000 1.120600
7.731300 1.323600
7.768700 1.371800
7.806000 1.372900
7.843400 1.369900
7.880800 1.386700
7.918100 1.415700
7.955500 1.459500
7.992800 1.626800
8.030200 1.903400
8.067500 2.731600
8.104900 4.129900
8.142300 3.931400
8.179600 5.701900
8.217000 8.946600
8.254300 7.344200
8.291700 11.492200
8.329000 12.912800
8.366400 10.070500
8.403800 11.529600
8.441100 7.762400
8.478500 7.404200
8.515800 9.970800
8.553200 6.605700
8.590500 6.512500
8.627900 4.087300
8.665300 3.089800
8.702600 2.464600
8.740000 2.084500
8.777300 1.779700
8.814700 3.819300
8.852000 4.112600
8.889400 3.310500
8.926800 3.408000
8.964100 3.264200
9.001500 3.257100
9.038800 3.557600
9.076200 3.879600
9.113500 4.191800
9.150900 3.970700
9.188300 3.061400
9.225600 2.684900
9.263000 2.653100
9.300300 2.452800
9.337700 2.367800
9.375000 2.301000
9.412400 2.110900
9.449800 1.899900
9.487100 1.807100
9.524500 1.805500
9.561800 1.856000
9.599200 1.908000
9.636500 1.758200
9.673900 1.626300
9.711300 1.572900
9.748600 1.488500
9.786000 1.206200
9.823300 1.139100
9.860700 1.100800
9.898000 1.077000
9.935400 1.034400
9.972800 1.004500
10.010100 0.970600
10.047500 0.978300
10.084800 0.934200
10.122200 0.875400
10.159500 0.837500
10.196900 0.746200
10.234300 0.708600
10.271600 0.688300
10.309000 0.672500
10.346300 0.678300
10.383700 0.755400
10.421100 0.889300
10.458400 0.629500
10.495800 0.636400
10.533100 0.662600
10.570500 0.665200
10.607800 0.673300
10.645200 0.625000
10.682600 0.660100
10.719900 0.716000
10.757300 0.714500
10.794600 0.728800
10.832000 0.702300
10.869300 0.722900
10.906700 0.734900
10.944100 0.739800
10.981400 0.740100
11.018800 0.748600
11.056100 0.775700
11.093500 0.723800
11.130800 0.730700
11.168200 0.780600
11.205600 0.845200
11.242900 0.884000
11.280300 0.917900
11.317600 0.967500
11.355000 1.023400
11.392300 1.082000
11.429700 1.158900
11.467100 1.224600
11.504400 1.284900
11.541800 1.410500
11.579100 1.523200
11.616500 1.587200
11.653800 1.691500
11.691200 1.805900
11.728600 1.773100
11.765900 1.763400
11.803300 1.782900
11.840600 1.808200
11.878000 1.869700
11.915300 2.073000
11.952700 2.151800
11.990100 2.076500
12.027400 2.031200
12.064800 1.975600
12.102100 2.228500
12.139500 2.508000
12.176800 2.820600
12.214200 2.704200
12.251600 2.311000
12.288900 2.074600
12.326300 2.070500
12.363600 2.020600
12.401000 1.791900
12.438300 1.795500
12.475700 2.301300
12.513100 2.964400
12.550400 3.099200
12.587800 2.592500
12.625100 2.172700
12.662500 2.251900
12.699800 2.625200
12.737200 2.463900
12.774600 2.041000
12.811900 1.785200
12.849300 1.556100
12.886600 1.369200
12.924000 1.243300
12.961300 1.226300
12.998700 1.213600
13.036100 1.277600
13.073400 1.445100
13.110800 1.508100
13.148100 1.541900
13.185500 1.613400
13.222800 1.654700
13.260200 1.432400
13.297600 1.389000
13.334900 1.346000
13.372300 1.349500
13.409600 1.331100
13.447000 1.195800
13.484400 1.120200
13.521700 1.074700
13.559100 1.099800
13.596400 1.500800
13.633800 1.186200
13.671100 1.123200
13.708500 1.120600
13.745900 1.062400
13.783200 1.050500
13.820600 0.723500
13.857900 0.632400
13.895300 0.554700
13.932600 0.522600
13.970000 0.507700
14.007400 0.505200
14.044700 0.516700
14.082100 0.515600
14.119400 0.514100
14.156800 0.519600
14.194100 0.527600
14.231500 0.535400
14.268900 0.541500
14.306200 0.541500
14.343600 0.540100
14.380900 0.533500
14.418300 0.527500
14.455600 0.527700
14.493000 0.499500
14.530400 0.495700
14.567700 0.481500
14.605100 0.472400
14.642400 0.467700
14.679800 0.466400
14.717100 0.478700
14.754500 0.498800
14.791900 0.523800
14.829200 0.552600
14.866600 0.571200
14.903900 0.530300
14.941300 0.502900
14.978600 0.497900
15.016000 0.495800
15.053400 0.495000
15.090700 0.504000
15.128100 0.508800
15.165400 0.513100
15.202800 0.525000
15.240100 0.549400
15.277500 0.583500
15.314900 0.580700
15.352200 0.591500
15.389600 0.603700
15.426900 0.620800
15.464300 0.638700
15.501600 0.662300
15.539000 0.714700
15.576400 0.746500
15.613700 0.769100
15.651100 0.803800
15.688400 0.833500
15.725800 0.865100
15.763100 0.900100
15.800500 0.929900
15.837900 0.941800
15.875200 0.964300
15.912600 0.975200
15.949900 0.984900
15.987300 1.003700
16.024600 1.031200
16.062000 1.035700
16.099400 0.994200
16.136700 0.955400
16.174100 0.923700
16.211400 0.890900
16.248800 0.859600
16.286200 0.818700
16.323500 0.781300
16.360900 0.771600
16.398200 0.767200
16.435600 0.833100
16.472900 0.810800
16.510300 0.835300
16.547700 0.844000
16.585000 0.850300
16.622400 0.879300
16.659700 0.912000
16.697100 0.888300
16.734400 0.839800
16.771800 0.822100
16.809200 0.826600
16.846500 0.748600
16.883900 0.533700
16.921200 0.413000
16.958600 0.308800
16.995900 0.220200
17.033300 0.236100
17.070700 0.274600
17.108000 0.383000
17.145400 0.447400
17.182700 0.579200
17.220100 0.705900
17.257400 0.872100
17.294800 1.145200
17.332200 1.640200
17.369500 1.837100
17.406900 1.935700
17.444200 1.913800
17.481600 1.748200
17.518900 1.526700
17.556300 1.384600
17.593700 1.282000
17.631000 1.149200
17.668400 1.143100
17.705700 1.091500
17.743100 1.015000
17.780400 1.006900
17.817800 1.052800
17.855200 1.129300
17.892500 1.377800
17.929900 1.443700
17.967200 1.415100
18.004600 1.557300
18.041900 1.834900
18.079300 1.729100
18.116700 1.671000
18.154000 1.824500
18.191400 1.837800
18.228700 1.772300
18.266100 1.691100
18.303400 1.590000
18.340800 1.569400
18.378200 1.612600
18.415500 1.674100
18.452900 1.670700
18.490200 1.662300
18.527600 1.649600
18.564900 1.678100
18.602300 1.783200
18.639700 1.729100
18.677000 1.699300
18.714400 1.659700
18.751700 1.702200
18.789100 1.736300
18.826400 1.760300
18.863800 1.803500
18.901200 1.806600
18.938500 1.681300
18.975900 1.595600
19.013200 1.617900
19.050600 1.642400
19.087900 1.653000
19.125300 1.674500
19.162700 1.724000
19.200000 1.641300
19.237400 1.610000
19.274700 1.580500
19.312100 1.566500
19.349500 1.479300
19.386800 1.339200
19.424200 1.311900
19.461500 1.354800
19.498900 1.452600
19.536200 1.592400
19.573600 1.756200
19.611000 1.709100
19.648300 1.691800
19.685700 1.679300
19.723000 1.704300
19.760400 1.738000
19.797700 1.738400
19.835100 1.726400
19.872500 1.712000
19.909800 1.754500
19.947200 1.803100
19.984500 2.028700
20.021900 1.927400
20.059200 1.661200
20.096600 1.537500
20.134000 1.549200
20.171300 1.510300
20.208700 1.721800
20.246000 1.637700
20.283400 1.453100
20.320700 1.508900
20.358100 1.818600
20.395500 1.819700
20.432800 1.798100
20.470200 1.719900
20.507500 1.544800
20.544900 1.422900
20.582200 1.363700
20.619600 1.357800
20.657000 1.388400
20.694300 1.430100
20.731700 1.470600
20.769000 1.538500
20.806400 1.637100
20.843700 1.502600
20.881100 1.351500
20.918500 1.231600
20.955800 1.163100
20.993200 1.278600
21.030500 1.321400
21.067900 1.325200
21.105200 1.307000
21.142600 1.343000
21.180000 1.296600
21.217300 1.265100
21.254700 1.181100
21.292000 1.096700
21.329400 1.153100
21.366700 1.128400
21.404100 1.152400
21.441500 1.203400
21.478800 1.232800
21.516200 1.280400
21.553500 1.347000
21.590900 1.388700
21.628200 1.387700
21.665600 1.388300
21.703000 1.400200
21.740300 1.419200
21.777700 1.430200
21.815000 1.451900
21.852400 1.487500
21.889700 1.461000
21.927100 1.445000
21.964500 1.406100
22.001800 1.377000
22.039200 1.346100
22.076500 1.341400
22.113900 1.356100
22.151300 1.368700
22.188600 1.678900
22.226000 1.253900
22.263300 1.050000
22.300700 1.020300
22.338000 1.046800
22.375400 1.190500
22.412800 1.391000
22.450100 1.559800
22.487500 1.702800
22.524800 1.783000
22.562200 1.878200
22.599500 1.996200
22.636900 2.166000
22.674300 2.041300
22.711600 1.858100
22.749000 1.508100
22.786300 1.430700
22.823700 1.415400
22.861000 1.507600
22.898400 1.558300
22.935800 1.507800
22.973100 1.399300
23.010500 1.377300
23.047800 1.404800
23.085200 1.410000
23.122500 1.433300
23.159900 1.397600
23.197300 1.337000
23.234600 1.309500
23.272000 1.287000
23.309300 1.176600
23.346700 1.120600
23.384000 1.093400
23.421400 1.083600
23.458800 1.100100
23.496100 1.131500
23.533500 1.101000
23.570800 1.086300
23.608200 1.087900
23.645500 1.114300
23.682900 1.131900
23.720300 1.160500
23.757600 1.178600
23.795000 1.236800
23.832300 1.328600
23.869700 1.355600
23.907000 1.366100
23.944400 1.395100
23.981800 1.402100
24.019100 1.485200
24.056500 1.544800
24.093800 1.701400
24.131200 1.820500
24.168500 1.873400
24.205900 1.707500
24.243300 1.462100
24.280600 1.342300
24.318000 1.295700
24.355300 1.193700
24.392700 1.142000
24.430000 1.150400
24.467400 1.175000
24.504800 1.207800
24.542100 1.245800
24.579500 1.294000
24.616800 1.405000
24.654200 1.516200
24.691500 1.593200
24.728900 1.724700
24.766300 1.864100
24.803600 1.707400
24.841000 1.585700
24.878300 1.483500
24.915700 1.339000
24.953000 1.192000
24.990400 1.127200
25.027800 1.105600
25.065100 1.093900
25.102500 1.094200
25.139800 1.100200
25.177200 1.143200
25.214600 1.176600
25.251900 1.206800
25.289300 1.222600
25.326600 1.274400
25.364000 1.309700
25.401300 1.329100
25.438700 1.386000
25.476100 1.399600
25.513400 1.430500
25.550800 1.551800
25.588100 1.621300
25.625500 1.687700
25.662800 1.731300
25.700200 1.748200
25.737600 1.763200
25.774900 1.731500
25.812300 1.601600
25.849600 1.533200
25.887000 1.482200
25.924300 1.388500
25.961700 1.337700
25.999100 1.323000
26.036400 1.330700
26.073800 1.383500
26.111100 1.456000
26.148500 1.523100
26.185800 1.555700
26.223200 1.648200
26.260600 1.591600
26.297900 1.581400
26.335300 1.577000
26.372600 1.584500
26.410000 1.571500
26.447300 1.555800
26.484700 1.560900
26.522100 1.528700
26.559400 1.493100
26.596800 1.499400
26.634100 1.540600
26.671500 1.612500
26.708800 1.676300
26.746200 1.736300
26.783600 2.065500
26.820900 1.918100
26.858300 1.731500
26.895600 1.652800
26.933000 1.583900
26.970300 1.504100
27.007700 1.473200
27.045100 1.426700
27.082400 1.385600
27.119800 1.386100
27.157100 1.443200
27.194500 1.414400
27.231800 1.419800
27.269200 1.472600
27.306600 1.609500
27.343900 1.656500
27.381300 1.618200
27.418600 1.671500
27.456000 1.745800
27.493300 1.612500
27.530700 1.668300
27.568100 1.797700
27.605400 1.750600
27.642800 1.749700
27.680100 1.737900
27.717500 1.725000
27.754800 1.647300
27.792200 1.522900
27.829600 1.572400
27.866900 1.608600
27.904300 1.629700
27.941600 1.657400
27.979000 1.673600
28.016400 1.666200
28.053700 1.644200
28.091100 1.654700
28.128400 1.655400
28.165800 1.674900
28.203100 1.653900
28.240500 1.597900
28.277900 1.578800
28.315200 1.555700
28.352600 1.489900
28.389900 1.504700
28.427300 1.547500
28.464600 1.523300
28.502000 1.443100
28.539400 1.363800
28.576700 1.302500
28.614100 1.242100
28.651400 1.190800
28.688800 1.157100
28.726100 1.082100
28.763500 1.004400
28.800900 1.013600
28.838200 1.030800
28.875600 1.033900
28.912900 1.007200
28.950300 0.967900
28.987600 0.910800
29.025000 0.872300
29.062400 0.845500
29.099700 0.866500
29.137100 0.919700
29.174400 0.942200
29.211800 0.940000
29.249100 0.861100
29.286500 0.627900
29.323900 0.525400
29.361200 0.451400
29.398600 0.395500
29.435900 0.348600
29.473300 0.310500
29.510600 0.281800
29.548000 0.260200
29.585400 0.245300
29.622700 0.233000
29.660100 0.222300
29.697400 0.214500
29.734800 0.214300
29.772100 0.214400
29.809500 0.222600
29.846900 0.216900
29.884200 0.220500
29.921600 0.218800
29.958900 0.167300
29.996300 0.152600
30.033600 0.139500
30.071000 0.127000
30.108400 0.115100
30.145700 0.106600
30.183100 0.105500
30.220400 0.122000
30.257800 0.134500
30.295100 0.143800
30.332500 0.150300
30.369900 0.129000
30.407200 0.108900
30.444600 0.097100
30.481900 0.089300
30.519300 0.081300
30.556600 0.073000
30.594000 0.064500
30.631400 0.056300
30.668700 0.048500
30.706100 0.032400
30.743400 0.000000
30.780800 0.000000
30.818200 0.000000
30.855500 0.000000
30.892900 0.000000
30.930200 0.000000
30.967600 0.000000
31.004900 0.000000
31.042300 0.000000
31.079700 0.000000
31.117000 0.000000
31.154400 0.000000
31.191700 0.000000
31.229100 0.000000
31.266400 0.000000
31.303800 0.000000
31.341200 0.000000
31.378500 0.000000
31.415900 0.000000
31.453200 0.000000
31.490600 0.000000
31.527900 0.000000
31.565300 0.000000
31.602700 0.000000
31.640000 0.000000
31.677400 0.000000
31.714700 0.000000
31.752100 0.000000
31.789400 0.000000
31.826800 0.000000
31.864200 0.000000
31.901500 0.000000
31.938900 0.000000
31.976200 0.000000
32.013600 0.000000
32.050900 0.000000
32.088300 0.000000
32.125700 0.000000
32.163000 0.000000
32.200400 0.000000
32.237700 0.000000
32.275100 0.000000
32.312400 0.000000
32.349800 0.000000
32.387200 0.000000
32.424500 0.000000
32.461900 0.000000
32.499200 0.000000
32.536600 0.000000
32.573900 0.000000
32.611300 0.000000
32.648700 0.000000
32.686000 0.000000
32.723400 0.000000
32.760700 0.000000
32.798100 0.000000
32.835400 0.000000
32.872800 0.000000
32.910200 0.000000
32.947500 0.000000
32.984900 0.000000
33.022200 0.000000
33.059600 0.000000
33.096900 0.000000
33.134300 0.000000
33.171700 0.000000
33.209000 0.000000
33.246400 0.000000
33.283700 0.000000
33.321100 0.000000
33.358400 0.000000
33.395800 0.000000
33.433200 0.000000
33.470500 0.000000
33.507900 0.000000
33.545200 0.000000
33.582600 0.000000
33.619900 0.000000
33.657300 0.000000
33.694700 0.000000
33.732000 0.000000
33.769400 0.000000
33.806700 0.000000
33.844100 0.000000
33.881500 0.000000
33.918800 0.000000
33.956200 0.000000
33.993500 0.000000
34.030900 0.000000
34.068200 0.000000
34.105600 0.000000
34.143000 0.000000
34.180300 0.000000
34.217700 0.000000
34.255000 0.000000
34.292400 0.000000
34.329700 0.000000
34.367100 0.000000
34.404500 0.000000
34.441800 0.000000
34.479200 0.000000
34.516500 0.000000
34.553900 0.000000
e
