set title 'mp-1221851 - Density of States'
set xlabel 'Energy (eV)'
set ylabel 'DOS (states/eV)'
set grid
set xrange [-10:10]
set yrange [0:15.207]
set xzeroaxis lt -1
set terminal png size 800,600
set output 'mp-1221851_dos_gnuplot.png'
plot '-' using 1:2 with lines title 'DOS'
-46.806300 0.000000
-46.756300 0.000000
-46.706300 0.000000
-46.656400 0.000000
-46.606400 0.000000
-46.556400 0.000000
-46.506400 0.000000
-46.456400 0.000000
-46.406400 0.000000
-46.356500 0.000000
-46.306500 0.000000
-46.256500 0.000000
-46.206500 0.000000
-46.156500 0.000000
-46.106600 0.000000
-46.056600 0.000000
-46.006600 0.000000
-45.956600 0.000000
-45.906600 0.000000
-45.856600 0.000000
-45.806700 0.000000
-45.756700 0.000000
-45.706700 0.000000
-45.656700 0.000000
-45.606700 0.000000
-45.556800 0.000000
-45.506800 0.000000
-45.456800 0.000000
-45.406800 0.000000
-45.356800 0.000000
-45.306800 0.000000
-45.256900 0.000000
-45.206900 0.000000
-45.156900 0.000000
-45.106900 0.000000
-45.056900 0.000000
-45.007000 0.000000
-44.957000 0.000000
-44.907000 0.000000
-44.857000 0.000000
-44.807000 0.000000
-44.757000 0.000000
-44.707100 0.000000
-44.657100 0.000000
-44.607100 0.000000
-44.557100 0.000000
-44.507100 0.000000
-44.457200 0.000000
-44.407200 0.000000
-44.357200 0.000000
-44.307200 0.000000
-44.257200 0.000000
-44.207200 0.000000
-44.157300 0.000000
-44.107300 0.000000
-44.057300 0.000000
-44.007300 0.000000
-43.957300 0.000000
-43.907400 0.000000
-43.857400 0.000000
-43.807400 0.000000
-43.757400 0.000000
-43.707400 0.000000
-43.657400 0.000000
-43.607500 0.000000
-43.557500 0.000000
-43.507500 0.000000
-43.457500 0.000000
-43.407500 0.000000
-43.357600 0.000000
-43.307600 0.000000
-43.257600 0.000000
-43.207600 0.000000
-43.157600 0.000000
-43.107600 0.000000
-43.057700 0.000000
-43.007700 0.000000
-42.957700 0.000000
-42.907700 0.000000
-42.857700 0.000000
-42.807800 0.000000
-42.757800 0.000000
-42.707800 0.000000
-42.657800 0.000000
-42.607800 0.000000
-42.557800 0.000000
-42.507900 0.000000
-42.457900 0.000000
-42.407900 0.000000
-42.357900 0.000000
-42.307900 0.000000
-42.258000 3.931900
-42.208000 10.828700
-42.158000 12.505700
-42.108000 3.896500
-42.058000 6.814400
-42.008000 10.132700
-41.958100 12.149200
-41.908100 16.302500
-41.858100 32.856300
-41.808100 27.021300
-41.758100 41.344100
-41.708200 29.779600
-41.658200 0.000000
-41.608200 0.000000
-41.558200 0.000000
-41.508200 0.000000
-41.458200 0.000000
-41.408300 0.000000
-41.358300 0.000000
-41.308300 0.000000
-41.258300 0.000000
-41.208300 0.000000
-41.158400 0.000000
-41.108400 0.000000
-41.058400 0.000000
-41.008400 0.000000
-40.958400 0.000000
-40.908400 0.000000
-40.858500 0.000000
-40.808500 0.000000
-40.758500 0.000000
-40.708500 0.000000
-40.658500 0.000000
-40.608600 0.000000
-40.558600 0.000000
-40.508600 0.000000
-40.458600 0.000000
-40.408600 0.000000
-40.358600 0.000000
-40.308700 0.000000
-40.258700 0.000000
-40.208700 0.000000
-40.158700 0.000000
-40.108700 0.000000
-40.058700 0.000000
-40.008800 0.000000
-39.958800 0.000000
-39.908800 0.000000
-39.858800 0.000000
-39.808800 0.000000
-39.758900 0.000000
-39.708900 0.000000
-39.658900 0.000000
-39.608900 0.000000
-39.558900 0.000000
-39.508900 0.000000
-39.459000 0.000000
-39.409000 0.000000
-39.359000 0.000000
-39.309000 0.000000
-39.259000 0.000000
-39.209100 0.000000
-39.159100 0.000000
-39.109100 0.000000
-39.059100 0.000000
-39.009100 0.000000
-38.959100 0.000000
-38.909200 0.000000
-38.859200 0.000000
-38.809200 0.000000
-38.759200 0.000000
-38.709200 0.000000
-38.659300 0.000000
-38.609300 0.000000
-38.559300 0.000000
-38.509300 0.000000
-38.459300 0.000000
-38.409300 0.000000
-38.359400 0.000000
-38.309400 0.000000
-38.259400 0.000000
-38.209400 0.000000
-38.159400 0.000000
-38.109500 0.000000
-38.059500 0.000000
-38.009500 0.000000
-37.959500 0.000000
-37.909500 0.000000
-37.859500 0.000000
-37.809600 0.000000
-37.759600 0.000000
-37.709600 0.000000
-37.659600 0.000000
-37.609600 0.000000
-37.559700 0.000000
-37.509700 0.000000
-37.459700 0.000000
-37.409700 0.000000
-37.359700 0.000000
-37.309700 0.000000
-37.259800 0.000000
-37.209800 0.000000
-37.159800 0.000000
-37.109800 0.000000
-37.059800 0.000000
-37.009900 0.000000
-36.959900 0.000000
-36.909900 0.000000
-36.859900 0.000000
-36.809900 0.000000
-36.759900 0.000000
-36.710000 0.000000
-36.660000 0.000000
-36.610000 0.000000
-36.560000 0.000000
-36.510000 0.000000
-36.460100 0.000000
-36.410100 0.000000
-36.360100 0.000000
-36.310100 0.000000
-36.260100 0.000000
-36.210100 0.000000
-36.160200 0.000000
-36.110200 0.000000
-36.060200 0.000000
-36.010200 0.000000
-35.960200 0.000000
-35.910300 0.000000
-35.860300 0.000000
-35.810300 0.000000
-35.760300 0.000000
-35.710300 0.000000
-35.660300 0.000000
-35.610400 0.000000
-35.560400 0.000000
-35.510400 0.000000
-35.460400 0.000000
-35.410400 0.000000
-35.360500 0.000000
-35.310500 0.000000
-35.260500 0.000000
-35.210500 0.000000
-35.160500 0.000000
-35.110500 0.000000
-35.060600 0.000000
-35.010600 0.000000
-34.960600 0.000000
-34.910600 0.000000
-34.860600 0.000000
-34.810700 0.000000
-34.760700 0.000000
-34.710700 0.000000
-34.660700 0.000000
-34.610700 0.000000
-34.560700 0.000000
-34.510800 0.000000
-34.460800 0.000000
-34.410800 0.000000
-34.360800 0.000000
-34.310800 0.000000
-34.260900 0.000000
-34.210900 0.000000
-34.160900 0.000000
-34.110900 0.000000
-34.060900 0.000000
-34.010900 0.000000
-33.961000 0.000000
-33.911000 0.000000
-33.861000 0.000000
-33.811000 0.000000
-33.761000 0.000000
-33.711100 0.000000
-33.661100 0.000000
-33.611100 0.000000
-33.561100 0.000000
-33.511100 0.000000
-33.461100 0.000000
-33.411200 0.000000
-33.361200 0.000000
-33.311200 0.000000
-33.261200 0.000000
-33.211200 0.000000
-33.161200 0.000000
-33.111300 0.000000
-33.061300 0.000000
-33.011300 0.000000
-32.961300 0.000000
-32.911300 0.000000
-32.861400 0.000000
-32.811400 0.000000
-32.761400 0.000000
-32.711400 0.000000
-32.661400 0.000000
-32.611400 0.000000
-32.561500 0.000000
-32.511500 0.000000
-32.461500 0.000000
-32.411500 0.000000
-32.361500 0.000000
-32.311600 0.000000
-32.261600 0.000000
-32.211600 0.000000
-32.161600 0.000000
-32.111600 0.000000
-32.061600 0.000000
-32.011700 0.000000
-31.961700 0.000000
-31.911700 0.000000
-31.861700 0.000000
-31.811700 0.000000
-31.761800 0.000000
-31.711800 0.000000
-31.661800 0.000000
-31.611800 0.000000
-31.561800 0.000000
-31.511800 0.000000
-31.461900 0.000000
-31.411900 0.000000
-31.361900 0.000000
-31.311900 0.000000
-31.261900 0.000000
-31.212000 0.000000
-31.162000 0.000000
-31.112000 0.000000
-31.062000 0.000000
-31.012000 0.000000
-30.962000 0.000000
-30.912100 0.000000
-30.862100 0.000000
-30.812100 0.000000
-30.762100 0.000000
-30.712100 0.000000
-30.662200 0.000000
-30.612200 0.000000
-30.562200 0.000000
-30.512200 0.000000
-30.462200 0.000000
-30.412200 0.000000
-30.362300 0.000000
-30.312300 0.000000
-30.262300 0.000000
-30.212300 0.000000
-30.162300 0.000000
-30.112400 0.000000
-30.062400 0.000000
-30.012400 0.000000
-29.962400 0.000000
-29.912400 0.000000
-29.862400 0.000000
-29.812500 0.000000
-29.762500 0.000000
-29.712500 0.000000
-29.662500 0.000000
-29.612500 0.000000
-29.562600 0.000000
-29.512600 0.000000
-29.462600 0.000000
-29.412600 0.000000
-29.362600 0.000000
-29.312600 0.000000
-29.262700 0.000000
-29.212700 0.000000
-29.162700 0.000000
-29.112700 0.000000
-29.062700 0.000000
-29.012800 0.000000
-28.962800 0.000000
-28.912800 0.000000
-28.862800 0.000000
-28.812800 0.000000
-28.762800 0.000000
-28.712900 0.000000
-28.662900 0.000000
-28.612900 0.000000
-28.562900 0.000000
-28.512900 0.000000
-28.463000 0.000000
-28.413000 0.000000
-28.363000 0.000000
-28.313000 0.000000
-28.263000 0.000000
-28.213000 0.000000
-28.163100 0.000000
-28.113100 0.000000
-28.063100 0.000000
-28.013100 0.000000
-27.963100 0.000000
-27.913200 0.000000
-27.863200 0.000000
-27.813200 0.000000
-27.763200 0.000000
-27.713200 0.000000
-27.663200 0.000000
-27.613300 0.000000
-27.563300 0.000000
-27.513300 0.000000
-27.463300 0.000000
-27.413300 0.000000
-27.363400 0.000000
-27.313400 0.000000
-27.263400 0.000000
-27.213400 0.000000
-27.163400 0.000000
-27.113400 0.000000
-27.063500 0.000000
-27.013500 0.000000
-26.963500 0.000000
-26.913500 0.000000
-26.863500 0.000000
-26.813600 0.000000
-26.763600 0.000000
-26.713600 0.000000
-26.663600 0.000000
-26.613600 0.000000
-26.563600 0.000000
-26.513700 0.000000
-26.463700 0.000000
-26.413700 0.000000
-26.363700 0.000000
-26.313700 0.000000
-26.263700 0.000000
-26.213800 0.000000
-26.163800 0.000000
-26.113800 0.000000
-26.063800 0.000000
-26.013800 0.000000
-25.963900 0.000000
-25.913900 0.000000
-25.863900 0.000000
-25.813900 0.000000
-25.763900 0.000000
-25.713900 0.000000
-25.664000 0.000000
-25.614000 0.000000
-25.564000 0.000000
-25.514000 0.000000
-25.464000 0.000000
-25.414100 0.000000
-25.364100 0.000000
-25.314100 0.000000
-25.264100 0.000000
-25.214100 0.000000
-25.164100 0.000000
-25.114200 0.000000
-25.064200 0.000000
-25.014200 0.000000
-24.964200 0.000000
-24.914200 0.000000
-24.864300 0.000000
-24.814300 0.000000
-24.764300 0.000000
-24.714300 0.000000
-24.664300 0.000000
-24.614300 0.000000
-24.564400 0.000000
-24.514400 0.000000
-24.464400 0.000000
-24.414400 0.000000
-24.364400 0.000000
-24.314500 0.000000
-24.264500 0.000000
-24.214500 0.000000
-24.164500 0.000000
-24.114500 0.000000
-24.064500 0.000000
-24.014600 0.000000
-23.964600 0.000000
-23.914600 0.000000
-23.864600 0.000000
-23.814600 0.000000
-23.764700 0.000000
-23.714700 0.000000
-23.664700 0.000000
-23.614700 0.000000
-23.564700 0.000000
-23.514700 0.000000
-23.464800 0.000000
-23.414800 0.000000
-23.364800 0.000000
-23.314800 0.000000
-23.264800 0.000000
-23.214900 0.000000
-23.164900 0.000000
-23.114900 0.000000
-23.064900 0.000000
-23.014900 0.000000
-22.964900 0.000000
-22.915000 0.000000
-22.865000 0.000000
-22.815000 0.000000
-22.765000 0.000000
-22.715000 0.000000
-22.665100 0.000000
-22.615100 0.000000
-22.565100 0.000000
-22.515100 0.000000
-22.465100 0.000000
-22.415100 0.000000
-22.365200 0.000000
-22.315200 0.000000
-22.265200 0.000000
-22.215200 0.000000
-22.165200 0.000000
-22.115300 0.000000
-22.065300 0.000000
-22.015300 0.000000
-21.965300 0.000000
-21.915300 0.000000
-21.865300 0.000000
-21.815400 0.000000
-21.765400 0.000000
-21.715400 0.000000
-21.665400 0.000000
-21.615400 0.000000
-21.565500 0.000000
-21.515500 0.000000
-21.465500 0.000000
-21.415500 0.000000
-21.365500 0.000000
-21.315500 0.000000
-21.265600 0.000000
-21.215600 0.000000
-21.165600 0.000000
-21.115600 0.000000
-21.065600 0.000000
-21.015700 0.000000
-20.965700 0.000000
-20.915700 0.000000
-20.865700 0.000000
-20.815700 0.000000
-20.765700 0.000000
-20.715800 0.000000
-20.665800 0.000000
-20.615800 0.000000
-20.565800 0.000000
-20.515800 0.000000
-20.465900 0.000000
-20.415900 0.000000
-20.365900 0.000000
-20.315900 0.000000
-20.265900 0.000000
-20.215900 0.000000
-20.166000 0.000000
-20.116000 0.000000
-20.066000 0.000000
-20.016000 0.000000
-19.966000 0.000000
-19.916100 0.000000
-19.866100 0.000000
-19.816100 0.000000
-19.766100 0.000000
-19.716100 0.000000
-19.666100 0.000000
-19.616200 0.000000
-19.566200 0.000000
-19.516200 0.000000
-19.466200 0.000000
-19.416200 0.000000
-19.366200 0.000000
-19.316300 0.000000
-19.266300 0.000000
-19.216300 0.000000
-19.166300 0.000000
-19.116300 0.000000
-19.066400 0.000000
-19.016400 0.000000
-18.966400 0.000000
-18.916400 0.000000
-18.866400 0.000000
-18.816400 0.000000
-18.766500 0.000000
-18.716500 0.000000
-18.666500 0.000000
-18.616500 0.000000
-18.566500 0.000000
-18.516600 0.000000
-18.466600 0.000000
-18.416600 0.000000
-18.366600 0.000000
-18.316600 0.000000
-18.266600 0.000000
-18.216700 0.000000
-18.166700 0.000000
-18.116700 0.000000
-18.066700 0.000000
-18.016700 0.000000
-17.966800 0.000000
-17.916800 0.000000
-17.866800 0.000000
-17.816800 0.000000
-17.766800 0.000000
-17.716800 0.000000
-17.666900 0.000000
-17.616900 0.000000
-17.566900 0.000000
-17.516900 0.000000
-17.466900 0.000000
-17.417000 0.000000
-17.367000 0.000000
-17.317000 0.000000
-17.267000 0.000000
-17.217000 0.000000
-17.167000 0.000000
-17.117100 0.000000
-17.067100 0.000000
-17.017100 0.000000
-16.967100 0.000000
-16.917100 0.000000
-16.867200 0.000000
-16.817200 0.000000
-16.767200 0.000000
-16.717200 0.000000
-16.667200 0.000000
-16.617200 0.000000
-16.567300 0.000000
-16.517300 0.000000
-16.467300 0.000000
-16.417300 0.000000
-16.367300 0.000000
-16.317400 0.000000
-16.267400 0.000000
-16.217400 0.000000
-16.167400 0.000000
-16.117400 0.000000
-16.067400 0.000000
-16.017500 0.000000
-15.967500 0.000000
-15.917500 0.000000
-15.867500 0.000000
-15.817500 0.000000
-15.767600 0.000000
-15.717600 0.000000
-15.667600 0.000000
-15.617600 0.000000
-15.567600 0.000000
-15.517600 0.000000
-15.467700 0.000000
-15.417700 0.000000
-15.367700 0.000000
-15.317700 0.000000
-15.267700 0.000000
-15.217800 0.000000
-15.167800 0.000000
-15.117800 0.000000
-15.067800 0.000000
-15.017800 0.000000
-14.967800 0.000000
-14.917900 0.000000
-14.867900 0.000000
-14.817900 0.000000
-14.767900 0.000000
-14.717900 0.000000
-14.668000 0.000000
-14.618000 0.000000
-14.568000 0.000000
-14.518000 0.000000
-14.468000 0.000000
-14.418000 0.000000
-14.368100 0.000000
-14.318100 0.000000
-14.268100 0.000000
-14.218100 0.000000
-14.168100 0.000000
-14.118200 0.000000
-14.068200 0.000000
-14.018200 0.000000
-13.968200 0.000000
-13.918200 0.000000
-13.868200 0.000000
-13.818300 0.000000
-13.768300 0.000000
-13.718300 0.000000
-13.668300 0.000000
-13.618300 0.000000
-13.568400 0.000000
-13.518400 0.000000
-13.468400 0.000000
-13.418400 0.000000
-13.368400 0.000000
-13.318400 0.000000
-13.268500 0.000000
-13.218500 0.000000
-13.168500 0.000000
-13.118500 0.000000
-13.068500 0.000000
-13.018600 0.000000
-12.968600 0.000000
-12.918600 0.000000
-12.868600 0.000000
-12.818600 0.000000
-12.768600 0.000000
-12.718700 0.000000
-12.668700 0.000000
-12.618700 0.000000
-12.568700 0.000000
-12.518700 0.000000
-12.468700 0.000000
-12.418800 0.000000
-12.368800 0.000000
-12.318800 0.000000
-12.268800 0.000000
-12.218800 0.000000
-12.168900 0.000000
-12.118900 0.000000
-12.068900 0.000000
-12.018900 0.000000
-11.968900 0.000000
-11.918900 0.000000
-11.869000 0.000000
-11.819000 0.000000
-11.769000 0.000000
-11.719000 0.000000
-11.669000 0.000000
-11.619100 0.000000
-11.569100 0.000000
-11.519100 0.000000
-11.469100 0.000000
-11.419100 0.000000
-11.369100 0.000000
-11.319200 0.000000
-11.269200 0.000000
-11.219200 0.000000
-11.169200 0.000000
-11.119200 0.000000
-11.069300 0.000000
-11.019300 0.000000
-10.969300 0.000000
-10.919300 0.000000
-10.869300 0.000000
-10.819300 0.000000
-10.769400 0.000000
-10.719400 0.000000
-10.669400 0.000000
-10.619400 0.000000
-10.569400 0.000000
-10.519500 0.000000
-10.469500 0.000000
-10.419500 0.000000
-10.369500 0.000000
-10.319500 0.000000
-10.269500 0.000000
-10.219600 0.000000
-10.169600 0.000000
-10.119600 0.000000
-10.069600 0.000000
-10.019600 0.000000
-9.969700 0.000000
-9.919700 0.000000
-9.869700 0.000000
-9.819700 0.000000
-9.769700 0.000000
-9.719700 0.000000
-9.669800 1.347100
-9.619800 2.170200
-9.569800 2.614500
-9.519800 3.008000
-9.469800 4.273900
-9.419900 5.373300
-9.369900 0.869200
-9.319900 7.132000
-9.269900 9.595600
-9.219900 4.009900
-9.169900 5.672200
-9.120000 6.158600
-9.070000 8.641700
-9.020000 12.715100
-8.970000 13.824100
-8.920000 9.669400
-8.870100 2.543100
-8.820100 0.000000
-8.770100 0.000000
-8.720100 0.000000
-8.670100 0.000000
-8.620100 0.000000
-8.570200 0.000000
-8.520200 0.000000
-8.470200 0.000000
-8.420200 0.000000
-8.370200 0.000000
-8.320300 0.000000
-8.270300 0.000000
-8.220300 0.000000
-8.170300 0.000000
-8.120300 0.000000
-8.070300 0.000000
-8.020400 0.000000
-7.970400 0.000000
-7.920400 0.000000
-7.870400 0.000000
-7.820400 0.000000
-7.770500 0.000000
-7.720500 0.000000
-7.670500 0.000000
-7.620500 0.000000
-7.570500 0.000000
-7.520500 0.000000
-7.470600 0.000000
-7.420600 0.000000
-7.370600 0.000000
-7.320600 0.000000
-7.270600 0.000000
-7.220700 0.000000
-7.170700 0.000000
-7.120700 0.000000
-7.070700 0.000000
-7.020700 0.000000
-6.970700 0.000000
-6.920800 0.000000
-6.870800 0.000000
-6.820800 0.000000
-6.770800 0.000000
-6.720800 0.000000
-6.670900 0.000000
-6.620900 0.000000
-6.570900 0.000000
-6.520900 0.000000
-6.470900 0.000000
-6.420900 0.000000
-6.371000 0.000000
-6.321000 0.000000
-6.271000 0.000000
-6.221000 0.000000
-6.171000 0.000000
-6.121100 0.000000
-6.071100 0.000000
-6.021100 0.000000
-5.971100 0.000000
-5.921100 0.000000
-5.871100 0.000000
-5.821200 0.000000
-5.771200 0.000000
-5.721200 0.027100
-5.671200 0.096500
-5.621200 0.165900
-5.571200 0.137400
-5.521300 0.115800
-5.471300 0.121300
-5.421300 0.126800
-5.371300 0.132300
-5.321300 0.137900
-5.271400 0.143400
-5.221400 0.139800
-5.171400 0.132100
-5.121400 0.124400
-5.071400 0.120600
-5.021400 0.122400
-4.971500 0.124200
-4.921500 0.126000
-4.871500 0.127900
-4.821500 0.129700
-4.771500 0.131500
-4.721600 0.133300
-4.671600 0.135200
-4.621600 0.137000
-4.571600 0.126300
-4.521600 0.125700
-4.471600 0.125100
-4.421700 0.124500
-4.371700 0.123900
-4.321700 0.123300
-4.271700 0.122700
-4.221700 0.123100
-4.171800 0.124000
-4.121800 0.124900
-4.071800 0.125900
-4.021800 0.126800
-3.971800 0.127700
-3.921800 0.128600
-3.871900 0.129500
-3.821900 0.130400
-3.771900 0.131300
-3.721900 0.131000
-3.671900 0.128400
-3.622000 0.125800
-3.572000 0.123300
-3.522000 0.123400
-3.472000 0.123500
-3.422000 0.123700
-3.372000 0.123900
-3.322100 0.124000
-3.272100 0.124200
-3.222100 0.124300
-3.172100 0.124500
-3.122100 0.124700
-3.072200 0.124800
-3.022200 0.125400
-2.972200 0.126000
-2.922200 0.126500
-2.872200 0.127100
-2.822200 0.127700
-2.772300 0.128300
-2.722300 0.128900
-2.672300 0.129500
-2.622300 0.130100
-2.572300 0.130600
-2.522400 0.127500
-2.472400 0.127100
-2.422400 0.126800
-2.372400 0.126500
-2.322400 0.126200
-2.272400 0.125800
-2.222500 0.125500
-2.172500 0.125700
-2.122500 0.126100
-2.072500 0.126400
-2.022500 0.126700
-1.972600 0.127100
-1.922600 0.127400
-1.872600 0.127700
-1.822600 0.128100
-1.772600 0.128400
-1.722600 0.129300
-1.672700 0.137600
-1.622700 0.150400
-1.572700 0.166300
-1.522700 0.177300
-1.472700 0.179100
-1.422800 0.184000
-1.372800 0.189800
-1.322800 0.195400
-1.272800 0.201400
-1.222800 0.207700
-1.172800 0.213400
-1.122900 0.218400
-1.072900 0.222400
-1.022900 0.226000
-0.972900 0.229700
-0.922900 0.233300
-0.873000 0.237800
-0.823000 0.242500
-0.773000 0.249100
-0.723000 0.256500
-0.673000 0.250000
-0.623000 0.254000
-0.573100 0.259500
-0.523100 0.266800
-0.473100 0.275500
-0.423100 0.280700
-0.373100 0.284900
-0.323200 0.289300
-0.273200 0.293800
-0.223200 0.298200
-0.173200 0.303200
-0.123200 0.308800
-0.073200 0.314400
-0.023300 0.320000
0.026700 0.325500
0.076700 0.331000
0.126700 0.336700
0.176700 0.368500
0.226600 0.384200
0.276600 0.385200
0.326600 0.385900
0.376600 0.387300
0.426600 0.390200
0.476600 0.393000
0.526500 0.396000
0.576500 0.399200
0.626500 0.402600
0.676500 0.515700
0.726500 0.508000
0.776500 0.490000
0.826400 0.472500
0.876400 0.455600
0.926400 0.439000
0.976400 0.423000
1.026400 0.416100
1.076300 0.421000
1.126300 0.429300
1.176300 0.431600
1.226300 0.439600
1.276300 0.459900
1.326300 0.489100
1.376200 0.528100
1.426200 0.568100
1.476200 0.611500
1.526200 0.662800
1.576200 0.727100
1.626100 0.802500
1.676100 0.870900
1.726100 0.999100
1.776100 1.060100
1.826100 1.085000
1.876100 1.007600
1.926000 0.925700
1.976000 0.917000
2.026000 1.080800
2.076000 2.263000
2.126000 1.832800
2.175900 1.558500
2.225900 1.487700
2.275900 1.501900
2.325900 1.509200
2.375900 1.488200
2.425900 1.455800
2.475800 1.548900
2.525800 1.684700
2.575800 1.859800
2.625800 1.894500
2.675800 2.127600
2.725700 2.399300
2.775700 2.578300
2.825700 2.639800
2.875700 2.579300
2.925700 2.431300
2.975700 2.529900
3.025600 2.892500
3.075600 2.739000
3.125600 3.008300
3.175600 2.462300
3.225600 2.944700
3.275500 3.007700
3.325500 3.055500
3.375500 2.237400
3.425500 2.570400
3.475500 2.596900
3.525500 1.662200
3.575400 1.604900
3.625400 1.159600
3.675400 1.619800
3.725400 1.978200
3.775400 1.989400
3.825300 1.753700
3.875300 2.055800
3.925300 2.704500
3.975300 3.103200
4.025300 2.736700
4.075300 2.664400
4.125200 2.440800
4.175200 2.319700
4.225200 2.374000
4.275200 2.329500
4.325200 2.690600
4.375100 2.418900
4.425100 2.344800
4.475100 2.379300
4.525100 2.692600
4.575100 2.935700
4.625100 3.293600
4.675000 3.505800
4.725000 3.372600
4.775000 3.266800
4.825000 3.269200
4.875000 5.087000
4.924900 4.510300
4.974900 5.064900
5.024900 4.197600
5.074900 4.170200
5.124900 3.633200
5.174900 2.776700
5.224800 3.454600
5.274800 3.695600
5.324800 3.650300
5.374800 2.427100
5.424800 1.950400
5.474700 1.330600
5.524700 1.639800
5.574700 2.061000
5.624700 1.864300
5.674700 1.872200
5.724700 2.119500
5.774600 2.756600
5.824600 3.211600
5.874600 2.561900
5.924600 3.294000
5.974600 3.179900
6.024500 2.529500
6.074500 2.468700
6.124500 3.207800
6.174500 4.326000
6.224500 3.764600
6.274500 2.681000
6.324400 3.673700
6.374400 2.698800
6.424400 2.360400
6.474400 3.717100
6.524400 3.299000
6.574300 3.046600
6.624300 2.873600
6.674300 2.899500
6.724300 2.486200
6.774300 2.393700
6.824300 2.301900
6.874200 2.297200
6.924200 2.463300
6.974200 2.550700
7.024200 2.153800
7.074200 4.133800
7.124100 3.332800
7.174100 6.015200
7.224100 4.459400
7.274100 3.767200
7.324100 3.071800
7.374100 2.931700
7.424000 3.074900
7.474000 2.524400
7.524000 1.196500
7.574000 1.244900
7.624000 1.684200
7.674000 1.336900
7.723900 1.160800
7.773900 1.177400
7.823900 1.245300
7.873900 1.107700
7.923900 1.072000
7.973800 1.108400
8.023800 1.187500
8.073800 1.054200
8.123800 0.936400
8.173800 0.645100
8.223800 0.566400
8.273700 0.603800
8.323700 0.617400
8.373700 0.605800
8.423700 0.604400
8.473700 0.599200
8.523600 0.610700
8.573600 0.653300
8.623600 0.699100
8.673600 0.725500
8.723600 0.728300
8.773600 0.741200
8.823500 0.748500
8.873500 0.759000
8.923500 0.774900
8.973500 0.795100
9.023500 0.838600
9.073400 0.879800
9.123400 0.850400
9.173400 0.743000
9.223400 0.626700
9.273400 0.595100
9.323400 0.585100
9.373300 0.594300
9.423300 0.610700
9.473300 0.640300
9.523300 0.695300
9.573300 0.663100
9.623200 0.626700
9.673200 0.555500
9.723200 0.507800
9.773200 0.487900
9.823200 0.483900
9.873200 0.480600
9.923100 0.478300
9.973100 0.467100
10.023100 0.445800
10.073100 0.415700
10.123100 0.470100
10.173000 0.427700
10.223000 0.454500
10.273000 0.460500
10.323000 0.486000
10.373000 0.507500
10.423000 0.524700
10.472900 0.506300
10.522900 0.438600
10.572900 0.435000
10.622900 0.422200
10.672900 0.433900
10.722800 0.462600
10.772800 0.498000
10.822800 0.506200
10.872800 0.518000
10.922800 0.510000
10.972800 0.517300
11.022700 0.523900
11.072700 0.527300
11.122700 0.530200
11.172700 0.525200
11.222700 0.512400
11.272600 0.490700
11.322600 0.451200
11.372600 0.435000
11.422600 0.438700
11.472600 0.454200
11.522600 0.479200
11.572500 0.509500
11.622500 0.846800
11.672500 0.759100
11.722500 0.665100
11.772500 0.690900
11.822400 0.682100
11.872400 0.640300
11.922400 0.587900
11.972400 0.530900
12.022400 0.475100
12.072400 0.448000
12.122300 0.429000
12.172300 0.425700
12.222300 0.435700
12.272300 0.443300
12.322300 0.447600
12.372200 0.453000
12.422200 0.454100
12.472200 0.460000
12.522200 0.488200
12.572200 0.723800
12.622200 0.466400
12.672100 0.489500
12.722100 0.516200
12.772100 0.457400
12.822100 0.427600
12.872100 0.412100
12.922000 0.579400
12.972000 0.426800
13.022000 0.417800
13.072000 0.415900
13.122000 0.420400
13.172000 0.425200
13.221900 0.487500
13.271900 0.664000
13.321900 0.822000
13.371900 0.693000
13.421900 0.641500
13.471800 0.747900
13.521800 0.976400
13.571800 0.911500
13.621800 0.883300
13.671800 0.855300
13.721800 0.848000
13.771700 0.814400
13.821700 0.762100
13.871700 0.735800
13.921700 0.789000
13.971700 0.849600
14.021600 0.851400
14.071600 0.818700
14.121600 0.804100
14.171600 0.789600
14.221600 0.760900
14.271600 0.742400
14.321500 0.727500
14.371500 0.732500
14.421500 0.738500
14.471500 0.739700
14.521500 0.715700
14.571500 0.685800
14.621400 0.646900
14.671400 0.607600
14.721400 0.576600
14.771400 0.561000
14.821400 0.546300
14.871300 0.530400
14.921300 0.513300
14.971300 0.494100
15.021300 0.496900
15.071300 0.521600
15.121300 0.568200
15.171200 0.612100
15.221200 0.672700
15.271200 0.687600
15.321200 0.718200
15.371200 0.748200
15.421100 0.767800
15.471100 0.788800
15.521100 0.802100
15.571100 0.800700
15.621100 0.786500
15.671100 0.759100
15.721000 0.733500
15.771000 0.712600
15.821000 0.714900
15.871000 0.729000
15.921000 0.776200
15.970900 0.831300
16.020900 0.818500
16.070900 0.780400
16.120900 0.743500
16.170900 0.737500
16.220900 0.698100
16.270800 0.669100
16.320800 0.653600
16.370800 0.655800
16.420800 0.689800
16.470800 0.664300
16.520700 0.668800
16.570700 0.666300
16.620700 0.665300
16.670700 0.663200
16.720700 0.656300
16.770700 0.646600
16.820600 0.632600
16.870600 0.622400
16.920600 0.629300
16.970600 0.653600
17.020600 0.639500
17.070500 0.670800
17.120500 0.628000
17.170500 0.602700
17.220500 0.593500
17.270500 0.589300
17.320500 0.586700
17.370400 0.582700
17.420400 0.577800
17.470400 0.581100
17.520400 0.589400
17.570400 0.602100
17.620300 0.632600
17.670300 0.682400
17.720300 0.715200
17.770300 0.750100
17.820300 0.759800
17.870300 0.774200
17.920200 0.791200
17.970200 0.809700
18.020200 0.819800
18.070200 0.823600
18.120200 0.819500
18.170100 0.814900
18.220100 0.793000
18.270100 0.768300
18.320100 0.756500
18.370100 0.757200
18.420100 0.761400
18.470000 0.769900
18.520000 0.778000
18.570000 0.772000
18.620000 0.756300
18.670000 0.758500
18.719900 0.764500
18.769900 0.782000
18.819900 0.786300
18.869900 0.788000
18.919900 0.791200
18.969900 0.798400
19.019800 0.807500
19.069800 0.828200
19.119800 0.852300
19.169800 0.869300
19.219800 0.886600
19.269700 0.878600
19.319700 0.863000
19.369700 0.857800
19.419700 0.836900
19.469700 0.818100
19.519700 0.819200
19.569600 0.818000
19.619600 0.815600
19.669600 0.829600
19.719600 0.846900
19.769600 0.885000
19.819500 0.967900
19.869500 1.002100
19.919500 0.946800
19.969500 0.921700
20.019500 0.908400
20.069500 0.912600
20.119400 0.907100
20.169400 0.902200
20.219400 0.895900
20.269400 0.883500
20.319400 0.870300
20.369300 0.859200
20.419300 0.866900
20.469300 0.900000
20.519300 0.923400
20.569300 0.929000
20.619300 0.942100
20.669200 0.940600
20.719200 0.919800
20.769200 0.952100
20.819200 0.971200
20.869200 0.959400
20.919100 0.969000
20.969100 0.972600
21.019100 0.962700
21.069100 0.965200
21.119100 0.963200
21.169100 0.962700
21.219000 0.967300
21.269000 0.969000
21.319000 0.967900
21.369000 0.966100
21.419000 0.967500
21.469000 0.945100
21.518900 0.940700
21.568900 0.927700
21.618900 0.910200
21.668900 0.893200
21.718900 0.877700
21.768800 0.859900
21.818800 0.842400
21.868800 0.835900
21.918800 0.850200
21.968800 0.878800
22.018800 0.903700
22.068700 0.926700
22.118700 0.950400
22.168700 0.975800
22.218700 0.988500
22.268700 0.982400
22.318600 0.966300
22.368600 0.949400
22.418600 0.936300
22.468600 0.950600
22.518600 0.958000
22.568600 0.955200
22.618500 0.946700
22.668500 0.942900
22.718500 0.944300
22.768500 0.932300
22.818500 0.924600
22.868400 0.925600
22.918400 0.900500
22.968400 0.894900
23.018400 0.887100
23.068400 0.886600
23.118400 0.911900
23.168300 0.914300
23.218300 1.018200
23.268300 0.936900
23.318300 0.886300
23.368300 0.864700
23.418200 0.849900
23.468200 0.857000
23.518200 0.851100
23.568200 0.840100
23.618200 0.813700
23.668200 0.788400
23.718100 0.767600
23.768100 0.749400
23.818100 0.736000
23.868100 0.726800
23.918100 0.720900
23.968000 0.720400
24.018000 0.725800
24.068000 0.751800
24.118000 0.762100
24.168000 0.781500
24.218000 0.811200
24.267900 0.843300
24.317900 0.868700
24.367900 0.888900
24.417900 0.907500
24.467900 0.905900
24.517800 0.901700
24.567800 0.976400
24.617800 0.918400
24.667800 0.868500
24.717800 0.846200
24.767800 0.819600
24.817700 0.802400
24.867700 0.790900
24.917700 0.803900
24.967700 0.829000
25.017700 0.857400
25.067600 0.877900
25.117600 0.874700
25.167600 0.873800
25.217600 0.871400
25.267600 0.880300
25.317600 0.872900
25.367500 0.890600
25.417500 0.899400
25.467500 0.885100
25.517500 0.891800
25.567500 0.906400
25.617400 0.925300
25.667400 0.996100
25.717400 0.941400
25.767400 0.921000
25.817400 0.889000
25.867400 0.858800
25.917300 0.866700
25.967300 0.866900
26.017300 0.866500
26.067300 0.869700
26.117300 0.862600
26.167200 0.848600
26.217200 0.863700
26.267200 0.860800
26.317200 0.891500
26.367200 0.920000
26.417200 0.931300
26.467100 0.951500
26.517100 0.973400
26.567100 0.996100
26.617100 1.020200
26.667100 1.059600
26.717000 1.070600
26.767000 1.083100
26.817000 1.094100
26.867000 1.128700
26.917000 1.114900
26.967000 1.068500
27.016900 1.018100
27.066900 0.999900
27.116900 0.974200
27.166900 0.936100
27.216900 0.931800
27.266800 0.936700
27.316800 0.948600
27.366800 1.003600
27.416800 1.011600
27.466800 1.025800
27.516800 1.025300
27.566700 1.027300
27.616700 1.039800
27.666700 1.052500
27.716700 1.079300
27.766700 1.093400
27.816600 1.093400
27.866600 1.088100
27.916600 1.075700
27.966600 1.046700
28.016600 1.015200
28.066600 1.002400
28.116500 0.995900
28.166500 0.997600
28.216500 0.991300
28.266500 0.982800
28.316500 0.981800
28.366500 1.013200
28.416400 0.996200
28.466400 1.045900
28.516400 1.118300
28.566400 1.158800
28.616400 1.152900
28.666300 1.139500
28.716300 1.155500
28.766300 1.197100
28.816300 1.161900
28.866300 1.132400
28.916300 1.115800
28.966200 1.139100
29.016200 1.145900
29.066200 1.111300
29.116200 1.118100
29.166200 1.136400
29.216100 1.124900
29.266100 1.030800
29.316100 0.991900
29.366100 0.946300
29.416100 0.923800
29.466100 0.936500
29.516000 0.912200
29.566000 0.887400
29.616000 0.880300
29.666000 0.880600
29.716000 0.934900
29.765900 0.968500
29.815900 0.919100
29.865900 0.834200
29.915900 0.854300
29.965900 0.806300
30.015900 0.782700
30.065800 0.773600
30.115800 0.781800
30.165800 0.801200
30.215800 0.796800
30.265800 0.787600
30.315700 0.785800
30.365700 0.766400
30.415700 0.763100
30.465700 0.762000
30.515700 0.797400
30.565700 0.838200
30.615600 0.867100
30.665600 0.842300
30.715600 0.810900
30.765600 0.792200
30.815600 0.674300
30.865500 0.647900
30.915500 0.649800
30.965500 0.652900
31.015500 0.698200
31.065500 0.777100
31.115500 0.815900
31.165400 0.779100
31.215400 0.629300
31.265400 0.585600
31.315400 0.569600
31.365400 0.545300
31.415300 0.536800
31.465300 0.533100
31.515300 0.531700
31.565300 0.618300
31.615300 0.720300
31.665300 0.874900
31.715200 0.974000
31.765200 1.104900
31.815200 1.237700
31.865200 1.252300
31.915200 1.232400
31.965100 1.232900
32.015100 1.239900
32.065100 1.230500
32.115100 1.209600
32.165100 1.151600
32.215100 1.058800
32.265000 1.007800
32.315000 1.037900
32.365000 1.088500
32.415000 1.136900
32.465000 1.199500
32.514900 1.240200
32.564900 1.311300
32.614900 1.345000
32.664900 1.244600
32.714900 1.162500
32.764900 1.084300
32.814800 1.027600
32.864800 1.029300
32.914800 1.055700
32.964800 1.081400
33.014800 1.114300
33.064700 1.111600
33.114700 1.144000
33.164700 1.160600
33.214700 1.122400
33.264700 1.159600
33.314700 1.114900
33.364600 1.108200
33.414600 1.123500
33.464600 1.120100
33.514600 1.109400
33.564600 1.084700
33.614500 1.019700
33.664500 0.994300
33.714500 0.982300
33.764500 0.960900
33.814500 0.931400
33.864500 0.907200
33.914400 0.887000
33.964400 0.871800
34.014400 0.888800
34.064400 0.932100
34.114400 0.981900
34.164300 1.042200
34.214300 1.079800
34.264300 1.143300
34.314300 1.182800
34.364300 1.176700
34.414300 1.172300
34.464200 1.155700
34.514200 1.121800
34.564200 1.097600
34.614200 1.137800
34.664200 1.153700
34.714100 1.175300
34.764100 1.180100
34.814100 1.218800
34.864100 1.164300
34.914100 1.066800
34.964100 1.019800
35.014000 0.997900
35.064000 0.988300
35.114000 0.953500
35.164000 0.927400
35.214000 0.915900
35.264000 0.898900
35.313900 0.907200
35.363900 0.950700
35.413900 1.002500
35.463900 1.041000
35.513900 1.061600
35.563800 1.076100
35.613800 1.080000
35.663800 1.078900
35.713800 1.089300
35.763800 1.091600
35.813800 1.083000
35.863700 1.068000
35.913700 1.030900
35.963700 0.986100
36.013700 0.974200
36.063700 0.952000
36.113600 0.899200
36.163600 0.881800
36.213600 0.878300
36.263600 0.883200
36.313600 0.895600
36.363600 0.912500
36.413500 0.949200
36.463500 0.944300
36.513500 0.931200
36.563500 0.934600
36.613500 0.960800
36.663400 0.986900
36.713400 1.010700
36.763400 1.029800
36.813400 1.061900
36.863400 1.097700
36.913400 1.145200
36.963300 1.140400
37.013300 1.132800
37.063300 1.111300
37.113300 1.100100
37.163300 1.109500
37.213200 1.153200
37.263200 1.181000
37.313200 1.182300
37.363200 1.187200
37.413200 1.201300
37.463200 1.204400
37.513100 1.198900
37.563100 1.213200
37.613100 1.221600
37.663100 1.216700
37.713100 1.233200
37.763000 1.258000
37.813000 1.297900
37.863000 1.330600
37.913000 1.298600
37.963000 1.232200
38.013000 1.199800
38.062900 1.156800
38.112900 1.140600
38.162900 1.094200
38.212900 1.119800
38.262900 1.164700
38.312800 1.177700
38.362800 1.194200
38.412800 1.164500
38.462800 1.195500
38.512800 1.194900
38.562800 1.152400
38.612700 1.118800
38.662700 1.090100
38.712700 1.066100
38.762700 1.064400
38.812700 1.087000
38.862600 1.105900
38.912600 1.114900
38.962600 1.148700
39.012600 1.187500
39.062600 1.178000
39.112600 1.107300
39.162500 1.073800
39.212500 1.052000
39.262500 1.040200
39.312500 1.024100
39.362500 0.994500
39.412400 0.981300
39.462400 0.968700
39.512400 0.965600
39.562400 0.997000
39.612400 1.053700
39.662400 1.072000
39.712300 1.077900
39.762300 1.087600
39.812300 1.097200
39.862300 1.111700
39.912300 1.147800
39.962200 1.147800
40.012200 1.147500
40.062200 1.160900
40.112200 1.166900
40.162200 1.137400
40.212200 1.089600
40.262100 1.069900
40.312100 1.054700
40.362100 1.039500
40.412100 1.013500
40.462100 0.989300
40.512000 0.974200
40.562000 0.967900
40.612000 0.961900
40.662000 0.953800
40.712000 0.943100
40.762000 0.930700
40.811900 0.917600
40.861900 0.906800
40.911900 0.897000
40.961900 0.889100
41.011900 0.886400
41.061800 0.881600
41.111800 0.870200
41.161800 0.854800
41.211800 0.845900
41.261800 0.844600
41.311800 0.845500
41.361700 0.843600
41.411700 0.843600
41.461700 0.842900
41.511700 0.849900
41.561700 0.864300
41.611600 0.874200
41.661600 0.876300
41.711600 0.882000
41.761600 0.890900
41.811600 0.911000
41.861600 0.922800
41.911500 0.930300
41.961500 0.933700
42.011500 0.931600
42.061500 0.925300
42.111500 0.921100
42.161500 0.914000
42.211400 0.904500
42.261400 0.896400
42.311400 0.888900
42.361400 0.887700
42.411400 0.894300
42.461300 0.895400
42.511300 0.924400
42.561300 0.972900
42.611300 1.008200
42.661300 1.035100
42.711300 1.047900
42.761200 1.034100
42.811200 0.987200
42.861200 0.948000
42.911200 0.929100
42.961200 0.924200
43.011100 0.903300
43.061100 0.885700
43.111100 0.866300
43.161100 0.850500
43.211100 0.852000
43.261100 0.847300
43.311000 0.842800
43.361000 0.830000
43.411000 0.795700
43.461000 0.829200
43.511000 0.854400
43.560900 0.867500
43.610900 0.861700
43.660900 0.838300
43.710900 0.817900
43.760900 0.790900
43.810900 0.770400
43.860800 0.761800
43.910800 0.757800
43.960800 0.759300
44.010800 0.766100
44.060800 0.727900
44.110700 0.706500
44.160700 0.705300
44.210700 0.709200
44.260700 0.681400
44.310700 0.681900
44.360700 0.669200
44.410600 0.644900
44.460600 0.615300
44.510600 0.604500
44.560600 0.596000
44.610600 0.588400
44.660500 0.597900
44.710500 0.599300
44.760500 0.595000
44.810500 0.589800
44.860500 0.587200
44.910500 0.614100
44.960400 0.627500
45.010400 0.656500
45.060400 0.603500
45.110400 0.579300
45.160400 0.543700
45.210300 0.536400
45.260300 0.509200
45.310300 0.488900
45.360300 0.505400
45.410300 0.503800
45.460300 0.451900
45.510200 0.402300
45.560200 0.367600
45.610200 0.334000
45.660200 0.299400
45.710200 0.276700
45.760100 0.261900
45.810100 0.250100
45.860100 0.240800
45.910100 0.232700
45.960100 0.219900
46.010100 0.204500
46.060000 0.182600
46.110000 0.160700
46.160000 0.146800
46.210000 0.131400
46.260000 0.114700
46.309900 0.099200
46.359900 0.089600
46.409900 0.083400
46.459900 0.077900
46.509900 0.073100
46.559900 0.068400
46.609800 0.064000
46.659800 0.059800
46.709800 0.055900
46.759800 0.052200
46.809800 0.048800
46.859700 0.045600
46.909700 0.042600
46.959700 0.039800
47.009700 0.037200
47.059700 0.034800
47.109700 0.033000
47.159600 0.031500
47.209600 0.030300
47.259600 0.029100
47.309600 0.027900
47.359600 0.026600
47.409500 0.025400
47.459500 0.024200
47.509500 0.023000
47.559500 0.021800
47.609500 0.020600
47.659500 0.019400
47.709400 0.018200
47.759400 0.017000
47.809400 0.016100
47.859400 0.015300
47.909400 0.016600
47.959300 0.015300
48.009300 0.013900
48.059300 0.012500
48.109300 0.011100
48.159300 0.009600
48.209300 0.008100
48.259200 0.006600
48.309200 0.005100
48.359200 0.003800
48.409200 0.002600
48.459200 0.001600
48.509100 0.000800
48.559100 0.000200
48.609100 0.000000
48.659100 0.000000
48.709100 0.000000
48.759100 0.000000
48.809000 0.000000
48.859000 0.000000
48.909000 0.000000
48.959000 0.000000
49.009000 0.000000
49.059000 0.000000
49.108900 0.000000
49.158900 0.000000
49.208900 0.000000
49.258900 0.000000
49.308900 0.000000
49.358800 0.000000
49.408800 0.000000
49.458800 0.000000
49.508800 0.000000
49.558800 0.000000
49.608800 0.000000
49.658700 0.000000
49.708700 0.000000
49.758700 0.000000
49.808700 0.000000
49.858700 0.000000
49.908600 0.000000
49.958600 0.000000
50.008600 0.000000
50.058600 0.000000
50.108600 0.000000
50.158600 0.000000
50.208500 0.000000
50.258500 0.000000
50.308500 0.000000
50.358500 0.000000
50.408500 0.000000
50.458400 0.000000
50.508400 0.000000
50.558400 0.000000
50.608400 0.000000
50.658400 0.000000
50.708400 0.000000
50.758300 0.000000
50.808300 0.000000
50.858300 0.000000
50.908300 0.000000
50.958300 0.000000
51.008200 0.000000
51.058200 0.000000
51.108200 0.000000
51.158200 0.000000
51.208200 0.000000
51.258200 0.000000
51.308100 0.000000
51.358100 0.000000
51.408100 0.000000
51.458100 0.000000
51.508100 0.000000
51.558000 0.000000
51.608000 0.000000
51.658000 0.000000
51.708000 0.000000
51.758000 0.000000
51.808000 0.000000
51.857900 0.000000
51.907900 0.000000
51.957900 0.000000
52.007900 0.000000
52.057900 0.000000
52.107800 0.000000
52.157800 0.000000
52.207800 0.000000
52.257800 0.000000
52.307800 0.000000
52.357800 0.000000
52.407700 0.000000
52.457700 0.000000
52.507700 0.000000
52.557700 0.000000
52.607700 0.000000
52.657600 0.000000
52.707600 0.000000
52.757600 0.000000
52.807600 0.000000
52.857600 0.000000
52.907600 0.000000
52.957500 0.000000
53.007500 0.000000
53.057500 0.000000
53.107500 0.000000
53.157500 0.000000
e
