set title 'mp-559550 - Density of States'
set xlabel 'Energy (eV)'
set ylabel 'DOS (states/eV)'
set grid
set xrange [-10:10]
set yrange [0:64.941]
set xzeroaxis lt -1
set terminal png size 800,600
set output 'mp-559550_dos_gnuplot.png'
plot '-' using 1:2 with lines title 'DOS'
-22.472500 0.000000
-22.454100 0.000000
-22.435800 0.000000
-22.417400 0.000000
-22.399100 0.000000
-22.380700 0.000000
-22.362400 0.000000
-22.344000 0.000000
-22.325700 0.000000
-22.307300 0.000000
-22.289000 0.000000
-22.270600 0.000000
-22.252200 0.000000
-22.233900 0.000000
-22.215500 0.000000
-22.197200 0.000000
-22.178800 0.000000
-22.160500 0.000000
-22.142100 0.000000
-22.123800 0.000000
-22.105400 0.000000
-22.087100 0.000000
-22.068700 0.000000
-22.050400 0.000000
-22.032000 0.000000
-22.013700 0.000000
-21.995300 0.000000
-21.977000 0.000000
-21.958600 0.000000
-21.940300 0.000000
-21.921900 0.000000
-21.903600 0.000000
-21.885200 0.000000
-21.866900 0.000000
-21.848500 0.000000
-21.830100 0.000000
-21.811800 0.000000
-21.793400 0.000000
-21.775100 0.000000
-21.756700 0.000000
-21.738400 0.000000
-21.720000 0.000000
-21.701700 0.000000
-21.683300 0.000000
-21.665000 0.000000
-21.646600 0.000000
-21.628300 0.000000
-21.609900 0.000000
-21.591600 0.000000
-21.573200 0.000000
-21.554900 0.000000
-21.536500 0.000000
-21.518200 0.000000
-21.499800 0.000000
-21.481500 0.000000
-21.463100 0.000000
-21.444800 0.000000
-21.426400 0.000000
-21.408100 0.000000
-21.389700 0.000000
-21.371300 0.000000
-21.353000 0.000000
-21.334600 0.000000
-21.316300 0.000000
-21.297900 0.000000
-21.279600 0.000000
-21.261200 0.000000
-21.242900 0.000000
-21.224500 0.000000
-21.206200 0.000000
-21.187800 0.000000
-21.169500 0.000000
-21.151100 0.000000
-21.132800 0.000000
-21.114400 0.000000
-21.096100 0.000000
-21.077700 0.000000
-21.059400 0.000000
-21.041000 0.000000
-21.022700 0.000000
-21.004300 0.000000
-20.986000 0.000000
-20.967600 0.000000
-20.949200 0.000000
-20.930900 0.000000
-20.912500 0.000000
-20.894200 0.000000
-20.875800 0.000000
-20.857500 0.000000
-20.839100 0.000000
-20.820800 0.000000
-20.802400 1.279700
-20.784100 2.049700
-20.765700 2.731300
-20.747400 3.324500
-20.729000 3.829400
-20.710700 4.891200
-20.692300 6.050300
-20.674000 7.244700
-20.655600 10.137500
-20.637300 10.598400
-20.618900 10.800200
-20.600600 10.742900
-20.582200 10.426400
-20.563900 10.576500
-20.545500 6.742400
-20.527100 5.129200
-20.508800 2.079400
-20.490400 0.145800
-20.472100 1.615500
-20.453700 3.751200
-20.435400 6.548200
-20.417000 9.668100
-20.398700 11.173500
-20.380300 12.030700
-20.362000 11.586500
-20.343600 10.615400
-20.325300 5.343100
-20.306900 4.825800
-20.288600 4.339100
-20.270200 3.882900
-20.251900 3.457400
-20.233500 3.062400
-20.215200 6.848400
-20.196800 5.521600
-20.178500 5.906700
-20.160100 6.221200
-20.141800 6.526700
-20.123400 6.858800
-20.105100 7.205900
-20.086700 7.847000
-20.068300 7.637500
-20.050000 8.476100
-20.031600 9.192500
-20.013300 9.786700
-19.994900 10.258600
-19.976600 10.608300
-19.958200 20.641600
-19.939900 27.027200
-19.921500 10.891600
-19.903200 10.489200
-19.884800 9.970600
-19.866500 9.335600
-19.848100 8.584400
-19.829800 8.723900
-19.811400 7.972400
-19.793100 7.178400
-19.774700 6.685600
-19.756400 6.314600
-19.738000 6.047200
-19.719700 5.746600
-19.701300 5.335700
-19.683000 6.077500
-19.664600 2.871900
-19.646200 3.200400
-19.627900 3.548700
-19.609500 3.916900
-19.591200 4.304900
-19.572800 4.712700
-19.554500 14.770300
-19.536100 10.166200
-19.517800 9.463700
-19.499400 8.711200
-19.481100 7.908700
-19.462700 7.056100
-19.444400 6.153400
-19.426000 4.381300
-19.407700 1.968200
-19.389300 0.476800
-19.371000 0.154200
-19.352600 3.308000
-19.334300 2.510700
-19.315900 3.211200
-19.297600 4.021600
-19.279200 4.941700
-19.260900 7.728700
-19.242500 7.028200
-19.224200 7.217700
-19.205800 7.319000
-19.187400 7.331900
-19.169100 7.256500
-19.150700 7.092900
-19.132400 6.186200
-19.114000 4.835400
-19.095700 4.382000
-19.077300 3.936400
-19.059000 3.498600
-19.040600 3.068600
-19.022300 2.661900
-19.003900 2.353900
-18.985600 2.163500
-18.967200 1.910700
-18.948900 1.595600
-18.930500 1.218100
-18.912200 1126.777700
-18.893800 50.990500
-18.875500 51.113400
-18.857100 129.844200
-18.838800 126.088900
-18.820400 279.144500
-18.802100 0.000000
-18.783700 0.000000
-18.765300 0.000000
-18.747000 0.000000
-18.728600 0.000000
-18.710300 0.000000
-18.691900 0.000000
-18.673600 0.000000
-18.655200 0.000000
-18.636900 0.000000
-18.618500 0.000000
-18.600200 0.000000
-18.581800 0.000000
-18.563500 0.000000
-18.545100 0.000000
-18.526800 0.000000
-18.508400 0.000000
-18.490100 0.000000
-18.471700 0.000000
-18.453400 0.000000
-18.435000 0.000000
-18.416700 0.000000
-18.398300 0.000000
-18.380000 0.000000
-18.361600 0.000000
-18.343200 0.000000
-18.324900 0.000000
-18.306500 0.000000
-18.288200 0.000000
-18.269800 0.000000
-18.251500 0.000000
-18.233100 0.000000
-18.214800 0.000000
-18.196400 0.000000
-18.178100 0.000000
-18.159700 0.000000
-18.141400 0.000000
-18.123000 0.000000
-18.104700 0.000000
-18.086300 0.000000
-18.068000 0.000000
-18.049600 0.000000
-18.031300 0.000000
-18.012900 0.000000
-17.994600 0.000000
-17.976200 0.000000
-17.957900 0.000000
-17.939500 0.000000
-17.921200 0.000000
-17.902800 0.000000
-17.884400 0.000000
-17.866100 0.000000
-17.847700 0.000000
-17.829400 0.000000
-17.811000 0.000000
-17.792700 0.000000
-17.774300 0.000000
-17.756000 0.000000
-17.737600 0.000000
-17.719300 0.000000
-17.700900 0.000000
-17.682600 0.000000
-17.664200 0.000000
-17.645900 0.000000
-17.627500 0.000000
-17.609200 0.000000
-17.590800 0.000000
-17.572500 0.000000
-17.554100 0.000000
-17.535800 0.000000
-17.517400 0.000000
-17.499100 0.000000
-17.480700 0.000000
-17.462300 0.000000
-17.444000 0.000000
-17.425600 0.000000
-17.407300 0.000000
-17.388900 0.000000
-17.370600 0.000000
-17.352200 0.000000
-17.333900 0.000000
-17.315500 0.000000
-17.297200 0.000000
-17.278800 0.000000
-17.260500 0.000000
-17.242100 0.000000
-17.223800 0.000000
-17.205400 0.000000
-17.187100 0.000000
-17.168700 0.000000
-17.150400 0.000000
-17.132000 0.000000
-17.113700 0.000000
-17.095300 0.000000
-17.077000 0.000000
-17.058600 0.000000
-17.040300 0.000000
-17.021900 0.000000
-17.003500 0.000000
-16.985200 0.000000
-16.966800 0.000000
-16.948500 0.000000
-16.930100 0.000000
-16.911800 0.000000
-16.893400 0.000000
-16.875100 0.000000
-16.856700 0.000000
-16.838400 0.000000
-16.820000 0.000000
-16.801700 0.000000
-16.783300 0.000000
-16.765000 0.000000
-16.746600 0.000000
-16.728300 0.000000
-16.709900 0.000000
-16.691600 0.000000
-16.673200 0.000000
-16.654900 0.000000
-16.636500 0.000000
-16.618200 0.000000
-16.599800 0.000000
-16.581400 0.000000
-16.563100 0.000000
-16.544700 0.000000
-16.526400 0.000000
-16.508000 0.000000
-16.489700 0.000000
-16.471300 0.000000
-16.453000 0.000000
-16.434600 0.000000
-16.416300 0.000000
-16.397900 0.000000
-16.379600 0.000000
-16.361200 0.000000
-16.342900 0.000000
-16.324500 0.000000
-16.306200 0.000000
-16.287800 0.000000
-16.269500 0.000000
-16.251100 0.000000
-16.232800 0.000000
-16.214400 0.000000
-16.196100 0.000000
-16.177700 0.000000
-16.159300 0.000000
-16.141000 0.000000
-16.122600 0.000000
-16.104300 0.000000
-16.085900 0.000000
-16.067600 0.000000
-16.049200 0.000000
-16.030900 0.000000
-16.012500 0.000000
-15.994200 0.000000
-15.975800 0.000000
-15.957500 0.000000
-15.939100 0.000000
-15.920800 0.000000
-15.902400 0.000000
-15.884100 0.000000
-15.865700 0.000000
-15.847400 0.000000
-15.829000 0.000000
-15.810700 0.000000
-15.792300 0.000000
-15.774000 0.000000
-15.755600 0.000000
-15.737300 0.000000
-15.718900 0.000000
-15.700500 0.000000
-15.682200 0.000000
-15.663800 0.000000
-15.645500 0.000000
-15.627100 0.000000
-15.608800 0.000000
-15.590400 0.000000
-15.572100 0.000000
-15.553700 0.000000
-15.535400 0.000000
-15.517000 0.000000
-15.498700 0.000000
-15.480300 0.000000
-15.462000 0.000000
-15.443600 0.000000
-15.425300 0.000000
-15.406900 0.000000
-15.388600 0.000000
-15.370200 0.000000
-15.351900 0.000000
-15.333500 0.000000
-15.315200 0.000000
-15.296800 0.000000
-15.278400 0.000000
-15.260100 0.000000
-15.241700 0.000000
-15.223400 0.000000
-15.205000 0.000000
-15.186700 0.000000
-15.168300 0.000000
-15.150000 0.000000
-15.131600 0.000000
-15.113300 0.000000
-15.094900 0.000000
-15.076600 0.000000
-15.058200 0.000000
-15.039900 0.000000
-15.021500 0.000000
-15.003200 0.000000
-14.984800 0.000000
-14.966500 0.000000
-14.948100 0.000000
-14.929800 0.000000
-14.911400 0.000000
-14.893100 0.000000
-14.874700 0.000000
-14.856400 0.000000
-14.838000 0.000000
-14.819600 0.000000
-14.801300 0.000000
-14.782900 0.000000
-14.764600 0.000000
-14.746200 0.000000
-14.727900 0.000000
-14.709500 0.000000
-14.691200 0.000000
-14.672800 0.000000
-14.654500 0.000000
-14.636100 0.000000
-14.617800 0.000000
-14.599400 0.000000
-14.581100 0.000000
-14.562700 0.000000
-14.544400 0.000000
-14.526000 0.000000
-14.507700 0.000000
-14.489300 0.000000
-14.471000 0.000000
-14.452600 0.000000
-14.434300 0.000000
-14.415900 0.000000
-14.397500 0.000000
-14.379200 0.000000
-14.360800 0.000000
-14.342500 0.000000
-14.324100 0.000000
-14.305800 0.000000
-14.287400 0.000000
-14.269100 0.000000
-14.250700 0.000000
-14.232400 0.000000
-14.214000 0.000000
-14.195700 0.000000
-14.177300 0.000000
-14.159000 0.000000
-14.140600 0.000000
-14.122300 0.000000
-14.103900 0.000000
-14.085600 0.000000
-14.067200 0.000000
-14.048900 0.000000
-14.030500 0.000000
-14.012200 0.000000
-13.993800 0.000000
-13.975500 0.000000
-13.957100 0.000000
-13.938700 0.000000
-13.920400 0.000000
-13.902000 0.000000
-13.883700 0.000000
-13.865300 0.000000
-13.847000 0.000000
-13.828600 0.000000
-13.810300 0.000000
-13.791900 0.000000
-13.773600 0.000000
-13.755200 0.000000
-13.736900 0.000000
-13.718500 0.000000
-13.700200 0.000000
-13.681800 0.000000
-13.663500 0.000000
-13.645100 0.000000
-13.626800 0.000000
-13.608400 0.000000
-13.590100 0.000000
-13.571700 0.000000
-13.553400 0.000000
-13.535000 0.000000
-13.516600 0.000000
-13.498300 0.000000
-13.479900 0.000000
-13.461600 0.000000
-13.443200 0.000000
-13.424900 0.000000
-13.406500 0.000000
-13.388200 0.000000
-13.369800 0.000000
-13.351500 0.000000
-13.333100 0.000000
-13.314800 0.000000
-13.296400 0.000000
-13.278100 0.000000
-13.259700 0.000000
-13.241400 0.000000
-13.223000 0.000000
-13.204700 0.000000
-13.186300 0.000000
-13.168000 0.000000
-13.149600 0.000000
-13.131300 0.000000
-13.112900 0.000000
-13.094500 0.000000
-13.076200 0.000000
-13.057800 0.000000
-13.039500 0.000000
-13.021100 0.000000
-13.002800 0.000000
-12.984400 0.000000
-12.966100 0.000000
-12.947700 0.000000
-12.929400 0.000000
-12.911000 0.000000
-12.892700 0.000000
-12.874300 0.000000
-12.856000 0.000000
-12.837600 0.000000
-12.819300 0.000000
-12.800900 0.000000
-12.782600 0.000000
-12.764200 0.000000
-12.745900 0.000000
-12.727500 0.000000
-12.709200 0.000000
-12.690800 0.000000
-12.672500 0.000000
-12.654100 0.000000
-12.635700 0.000000
-12.617400 0.000000
-12.599000 0.000000
-12.580700 0.000000
-12.562300 0.000000
-12.544000 0.000000
-12.525600 0.000000
-12.507300 0.000000
-12.488900 0.000000
-12.470600 0.000000
-12.452200 0.000000
-12.433900 0.000000
-12.415500 0.000000
-12.397200 0.000000
-12.378800 0.000000
-12.360500 0.000000
-12.342100 0.000000
-12.323800 0.000000
-12.305400 0.000000
-12.287100 0.000000
-12.268700 0.000000
-12.250400 0.000000
-12.232000 0.000000
-12.213600 0.000000
-12.195300 0.000000
-12.176900 0.000000
-12.158600 0.000000
-12.140200 0.000000
-12.121900 0.000000
-12.103500 0.000000
-12.085200 0.000000
-12.066800 0.000000
-12.048500 0.000000
-12.030100 0.000000
-12.011800 0.000000
-11.993400 0.000000
-11.975100 0.000000
-11.956700 0.000000
-11.938400 0.000000
-11.920000 0.000000
-11.901700 0.000000
-11.883300 0.000000
-11.865000 0.000000
-11.846600 0.000000
-11.828300 0.000000
-11.809900 0.000000
-11.791600 0.000000
-11.773200 0.000000
-11.754800 0.000000
-11.736500 0.000000
-11.718100 0.000000
-11.699800 0.000000
-11.681400 0.000000
-11.663100 0.000000
-11.644700 0.000000
-11.626400 0.000000
-11.608000 0.000000
-11.589700 0.000000
-11.571300 0.000000
-11.553000 0.000000
-11.534600 0.000000
-11.516300 0.000000
-11.497900 0.000000
-11.479600 0.000000
-11.461200 0.000000
-11.442900 0.000000
-11.424500 0.000000
-11.406200 0.000000
-11.387800 0.000000
-11.369500 0.000000
-11.351100 0.000000
-11.332700 0.000000
-11.314400 0.000000
-11.296000 0.000000
-11.277700 0.000000
-11.259300 0.000000
-11.241000 0.000000
-11.222600 0.000000
-11.204300 0.000000
-11.185900 0.000000
-11.167600 0.000000
-11.149200 0.000000
-11.130900 0.000000
-11.112500 0.000000
-11.094200 0.000000
-11.075800 0.000000
-11.057500 0.000000
-11.039100 0.000000
-11.020800 0.000000
-11.002400 0.000000
-10.984100 0.000000
-10.965700 0.000000
-10.947400 0.000000
-10.929000 0.000000
-10.910600 0.000000
-10.892300 0.497400
-10.873900 0.598900
-10.855600 0.696700
-10.837200 0.790600
-10.818900 0.880800
-10.800500 0.967300
-10.782200 1.049900
-10.763800 1.128900
-10.745500 1.204000
-10.727100 1.275400
-10.708800 1.343100
-10.690400 1.406900
-10.672100 1.540300
-10.653700 1.694900
-10.635400 1.854200
-10.617000 2.018200
-10.598700 2.186800
-10.580300 2.360200
-10.562000 2.538300
-10.543600 2.721000
-10.525300 2.908400
-10.506900 3.100500
-10.488600 3.958900
-10.470200 4.027900
-10.451800 4.082000
-10.433500 4.121000
-10.415100 4.145000
-10.396800 4.154000
-10.378400 4.147900
-10.360100 4.126800
-10.341700 4.090700
-10.323400 4.039600
-10.305000 3.973400
-10.286700 3.892200
-10.268300 3.796000
-10.250000 3.174300
-10.231600 2.829200
-10.213300 2.506200
-10.194900 2.205300
-10.176600 1.926400
-10.158200 1.669500
-10.139900 2.050300
-10.121500 1.663900
-10.103200 1.036500
-10.084800 0.212100
-10.066500 0.002300
-10.048100 0.148400
-10.029700 0.441700
-10.011400 0.835800
-9.993000 1.330600
-9.974700 1.926200
-9.956300 3.377900
-9.938000 4.026400
-9.919600 3.876200
-9.901300 4.159100
-9.882900 4.428900
-9.864600 4.685500
-9.846200 4.929100
-9.827900 5.159600
-9.809500 5.376900
-9.791200 5.581200
-9.772800 6.666300
-9.754500 7.048400
-9.736100 5.061400
-9.717800 3.415200
-9.699400 2.549500
-9.681100 2.433900
-9.662700 2.320500
-9.644400 2.209300
-9.626000 2.100300
-9.607700 1.993600
-9.589300 1.889100
-9.570900 1.786800
-9.552600 1.686700
-9.534200 1.588800
-9.515900 1.493100
-9.497500 1.399700
-9.479200 2.876900
-9.460800 2.835700
-9.442500 2.934600
-9.424100 3.107600
-9.405800 3.263400
-9.387400 3.385000
-9.369100 3.516000
-9.350700 3.638000
-9.332400 3.751000
-9.314000 3.855000
-9.295700 3.949900
-9.277300 4.035800
-9.259000 4.195900
-9.240600 3.965700
-9.222300 4.258600
-9.203900 4.550100
-9.185600 4.840200
-9.167200 5.128900
-9.148800 5.405500
-9.130500 5.660100
-9.112100 5.892500
-9.093800 6.102700
-9.075400 6.872500
-9.057100 7.941100
-9.038700 8.057600
-9.020400 10.437200
-9.002000 1.842000
-8.983700 2.390700
-8.965300 3.640100
-8.947000 5.192000
-8.928600 6.472400
-8.910300 5.221100
-8.891900 5.131400
-8.873600 5.019500
-8.855200 4.876200
-8.836900 4.701700
-8.818500 4.496000
-8.800200 4.258900
-8.781800 3.990600
-8.763500 3.690900
-8.745100 3.447100
-8.726800 3.302400
-8.708400 3.162200
-8.690000 3.023800
-8.671700 2.887300
-8.653300 2.752500
-8.635000 2.619600
-8.616600 2.488400
-8.598300 3.143200
-8.579900 2.985400
-8.561600 2.846900
-8.543200 2.727900
-8.524900 2.643100
-8.506500 2.556300
-8.488200 2.456500
-8.469800 2.343500
-8.451500 2.217400
-8.433100 2.086900
-8.414800 2.392200
-8.396400 1.435700
-8.378100 1.079600
-8.359700 1.145000
-8.341400 1.215000
-8.323000 1.289500
-8.304700 1.368500
-8.286300 1.451900
-8.267900 1.539900
-8.249600 1.632400
-8.231200 1.729400
-8.212900 1.830900
-8.194500 1.936900
-8.176200 2.047400
-8.157800 2.162400
-8.139500 2.281900
-8.121100 2.405900
-8.102800 2.534400
-8.084400 3.076300
-8.066100 3.442700
-8.047700 3.628800
-8.029400 3.697900
-8.011000 3.770500
-7.992700 4.509000
-7.974300 4.500800
-7.956000 4.415700
-7.937600 4.210400
-7.919300 3.884900
-7.900900 3.439200
-7.882600 3.078600
-7.864200 2.866500
-7.845800 2.664100
-7.827500 2.471500
-7.809100 2.288700
-7.790800 2.115600
-7.772400 1.952400
-7.754100 1.798900
-7.735700 1.655300
-7.717400 1.521400
-7.699000 1.882900
-7.680700 1.540500
-7.662300 0.728700
-7.644000 0.335800
-7.625600 0.099700
-7.607300 0.212900
-7.588900 2.384500
-7.570600 4.162000
-7.552200 3.512300
-7.533900 3.894700
-7.515500 4.262300
-7.497200 4.615100
-7.478800 4.953100
-7.460500 5.276300
-7.442100 5.584700
-7.423800 5.878200
-7.405400 6.430300
-7.387000 6.368700
-7.368700 6.259200
-7.350300 6.101800
-7.332000 5.903200
-7.313600 5.261000
-7.295300 4.553600
-7.276900 4.181000
-7.258600 3.708100
-7.240200 3.131300
-7.221900 2.665500
-7.203500 2.358600
-7.185200 2.041300
-7.166800 1.713800
-7.148500 1.376000
-7.130100 1.027800
-7.111800 0.669400
-7.093400 0.336900
-7.075100 13.034300
-7.056700 25.904800
-7.038400 29.422700
-7.020000 41.538700
-7.001700 30.825800
-6.983300 25.497600
-6.964900 30.039100
-6.946600 15.053900
-6.928200 0.059600
-6.909900 2.319300
-6.891500 10.635400
-6.873200 19.457500
-6.854800 18.648200
-6.836500 15.405300
-6.818100 12.570300
-6.799800 10.073900
-6.781400 7.362000
-6.763100 4.997700
-6.744700 3.292000
-6.726400 12.024700
-6.708000 17.491300
-6.689700 23.937700
-6.671300 22.481600
-6.653000 20.877000
-6.634600 17.370900
-6.616300 12.215800
-6.597900 12.621100
-6.579600 16.407500
-6.561200 18.944900
-6.542900 16.355700
-6.524500 10.709900
-6.506100 8.266400
-6.487800 5.379600
-6.469400 5.463100
-6.451100 2.619600
-6.432700 3.727300
-6.414400 5.912100
-6.396000 8.234400
-6.377700 9.076900
-6.359300 9.287500
-6.341000 9.357300
-6.322600 9.180900
-6.304300 8.750300
-6.285900 7.462100
-6.267600 5.681200
-6.249200 5.026000
-6.230900 4.375000
-6.212500 3.736200
-6.194200 3.137800
-6.175800 2.705700
-6.157500 2.376700
-6.139100 1.964600
-6.120800 1.469300
-6.102400 0.890900
-6.084000 0.000000
-6.065700 0.000000
-6.047300 0.000000
-6.029000 0.000000
-6.010600 0.000000
-5.992300 0.000000
-5.973900 0.000000
-5.955600 0.000000
-5.937200 0.000000
-5.918900 0.000000
-5.900500 0.000000
-5.882200 0.000000
-5.863800 0.000000
-5.845500 0.000000
-5.827100 0.000000
-5.808800 0.000000
-5.790400 0.000000
-5.772100 0.000000
-5.753700 0.000000
-5.735400 0.000000
-5.717000 0.000000
-5.698700 0.000000
-5.680300 0.000000
-5.661900 0.000000
-5.643600 0.000000
-5.625200 0.000000
-5.606900 0.000000
-5.588500 0.000000
-5.570200 0.000000
-5.551800 0.000000
-5.533500 0.000000
-5.515100 0.000000
-5.496800 0.000000
-5.478400 0.000000
-5.460100 0.000000
-5.441700 0.000000
-5.423400 0.000000
-5.405000 0.000000
-5.386700 0.000000
-5.368300 0.000000
-5.350000 0.000000
-5.331600 0.000000
-5.313300 0.000000
-5.294900 0.000000
-5.276600 0.000000
-5.258200 0.000000
-5.239900 0.000000
-5.221500 0.000000
-5.203100 0.000000
-5.184800 0.000000
-5.166400 0.000000
-5.148100 0.000000
-5.129700 0.000000
-5.111400 0.000000
-5.093000 0.000000
-5.074700 0.000000
-5.056300 0.000000
-5.038000 0.000000
-5.019600 0.000000
-5.001300 0.000000
-4.982900 1.948100
-4.964600 4.354200
-4.946200 6.576900
-4.927900 12.028500
-4.909500 16.682100
-4.891200 22.500900
-4.872800 19.442700
-4.854500 14.227100
-4.836100 9.721200
-4.817800 7.383700
-4.799400 5.408200
-4.781000 6.122700
-4.762700 7.971900
-4.744300 10.375100
-4.726000 10.755100
-4.707600 10.597100
-4.689300 11.373600
-4.670900 12.245400
-4.652600 7.557200
-4.634200 5.195500
-4.615900 4.645100
-4.597500 5.931600
-4.579200 7.405400
-4.560800 7.824200
-4.542500 10.453400
-4.524100 19.813400
-4.505800 28.433000
-4.487400 22.767500
-4.469100 9.212500
-4.450700 0.000000
-4.432400 0.000000
-4.414000 0.000000
-4.395700 0.000000
-4.377300 0.000000
-4.359000 0.000000
-4.340600 0.000000
-4.322200 0.261600
-4.303900 2.071400
-4.285500 3.687100
-4.267200 5.255400
-4.248800 7.306600
-4.230500 9.367100
-4.212100 14.463500
-4.193800 25.180200
-4.175400 22.860300
-4.157100 10.144700
-4.138700 4.603000
-4.120400 5.362400
-4.102000 24.917100
-4.083700 44.291200
-4.065300 19.366700
-4.047000 8.276400
-4.028600 23.846300
-4.010300 30.967800
-3.991900 27.105500
-3.973600 16.652000
-3.955200 8.073000
-3.936900 0.147800
-3.918500 1.545700
-3.900100 6.913700
-3.881800 7.321600
-3.863400 12.760900
-3.845100 13.290300
-3.826700 13.798900
-3.808400 13.680500
-3.790000 10.886000
-3.771700 8.700100
-3.753300 7.111800
-3.735000 5.714900
-3.716600 4.784900
-3.698300 3.606200
-3.679900 0.000000
-3.661600 0.000000
-3.643200 2.831200
-3.624900 6.274600
-3.606500 9.544200
-3.588200 21.698800
-3.569800 47.125300
-3.551500 25.286000
-3.533100 23.166600
-3.514800 59.037200
-3.496400 17.727300
-3.478100 4.201100
-3.459700 0.721400
-3.441300 5.958300
-3.423000 22.793000
-3.404600 26.348400
-3.386300 19.965500
-3.367900 13.490500
-3.349600 22.306900
-3.331200 34.449600
-3.312900 37.811800
-3.294500 24.970700
-3.276200 20.841200
-3.257800 29.661300
-3.239500 32.277500
-3.221100 25.045300
-3.202800 4.684700
-3.184400 4.143400
-3.166100 34.598900
-3.147700 29.485400
-3.129400 36.082700
-3.111000 31.050900
-3.092700 27.396900
-3.074300 38.697300
-3.056000 11.339800
-3.037600 12.552100
-3.019200 34.650800
-3.000900 33.715600
-2.982500 23.160600
-2.964200 4.238600
-2.945800 2.242300
-2.927500 5.819000
-2.909100 9.911800
-2.890800 12.524300
-2.872400 12.213100
-2.854100 13.019400
-2.835700 14.365100
-2.817400 12.772200
-2.799000 10.701600
-2.780700 13.462900
-2.762300 26.600200
-2.744000 43.963600
-2.725600 23.915800
-2.707300 15.956000
-2.688900 13.537100
-2.670600 13.776900
-2.652200 14.508000
-2.633900 11.444700
-2.615500 11.722200
-2.597100 16.320800
-2.578800 14.485900
-2.560400 9.981000
-2.542100 5.533600
-2.523700 2.614100
-2.505400 2.050300
-2.487000 2.346300
-2.468700 2.652700
-2.450300 2.969500
-2.432000 4.245500
-2.413600 5.829400
-2.395300 8.932900
-2.376900 11.761100
-2.358600 15.641200
-2.340200 16.881000
-2.321900 13.851600
-2.303500 7.942100
-2.285200 3.314200
-2.266800 1.643300
-2.248500 0.552600
-2.230100 18.172800
-2.211800 32.055900
-2.193400 30.039200
-2.175100 16.886400
-2.156700 8.387100
-2.138300 9.298200
-2.120000 11.081200
-2.101600 11.307400
-2.083300 10.571900
-2.064900 11.147600
-2.046600 12.609100
-2.028200 16.693500
-2.009900 14.925700
-1.991500 8.668200
-1.973200 4.478500
-1.954800 13.986900
-1.936500 26.115800
-1.918100 26.417000
-1.899800 32.511900
-1.881400 13.454000
-1.863100 14.653900
-1.844700 16.629000
-1.826400 20.346700
-1.808000 46.197900
-1.789700 20.364600
-1.771300 0.000000
-1.753000 0.912500
-1.734600 4.874500
-1.716200 8.629600
-1.697900 12.929600
-1.679500 18.359000
-1.661200 20.242300
-1.642800 21.930500
-1.624500 15.621500
-1.606100 9.047300
-1.587800 0.000000
-1.569400 0.000000
-1.551100 0.000000
-1.532700 0.000000
-1.514400 0.000000
-1.496000 0.000000
-1.477700 0.000000
-1.459300 0.000000
-1.441000 0.000000
-1.422600 0.000000
-1.404300 0.000000
-1.385900 0.000000
-1.367600 0.000000
-1.349200 0.000000
-1.330900 0.000000
-1.312500 0.000000
-1.294200 0.000000
-1.275800 0.000000
-1.257400 0.000000
-1.239100 0.000000
-1.220700 0.000000
-1.202400 0.000000
-1.184000 0.000000
-1.165700 0.000000
-1.147300 0.000000
-1.129000 0.000000
-1.110600 0.000000
-1.092300 0.000000
-1.073900 0.000000
-1.055600 0.000000
-1.037200 0.000000
-1.018900 0.000000
-1.000500 0.000000
-0.982200 0.000000
-0.963800 0.000000
-0.945500 0.000000
-0.927100 0.000000
-0.908800 0.000000
-0.890400 0.000000
-0.872100 0.000000
-0.853700 0.000000
-0.835300 0.000000
-0.817000 0.000000
-0.798600 0.000000
-0.780300 0.000000
-0.761900 0.000000
-0.743600 0.000000
-0.725200 0.000000
-0.706900 0.000000
-0.688500 0.000000
-0.670200 0.000000
-0.651800 0.000000
-0.633500 0.000000
-0.615100 0.000000
-0.596800 0.000000
-0.578400 0.000000
-0.560100 0.000000
-0.541700 0.000000
-0.523400 0.000000
-0.505000 0.000000
-0.486700 0.000000
-0.468300 0.000000
-0.450000 0.000000
-0.431600 0.000000
-0.413200 0.000000
-0.394900 0.000000
-0.376500 0.000000
-0.358200 0.000000
-0.339800 0.000000
-0.321500 0.000000
-0.303100 0.000000
-0.284800 0.000000
-0.266400 0.000000
-0.248100 0.000000
-0.229700 0.000000
-0.211400 0.000000
-0.193000 0.000000
-0.174700 0.000000
-0.156300 0.000000
-0.138000 0.000000
-0.119600 0.000000
-0.101300 0.000000
-0.082900 0.000000
-0.064600 0.000000
-0.046200 0.000000
-0.027900 0.000000
-0.009500 0.000000
0.008800 0.000000
0.027200 0.000000
0.045600 0.000000
0.063900 0.000000
0.082300 0.000000
0.100600 0.000000
0.119000 0.000000
0.137300 0.000000
0.155700 0.000000
0.174000 0.000000
0.192400 0.000000
0.210700 0.000000
0.229100 0.000000
0.247400 0.000000
0.265800 0.000000
0.284100 0.000000
0.302500 0.000000
0.320800 0.000000
0.339200 0.000000
0.357500 0.000000
0.375900 0.000000
0.394200 0.000000
0.412600 0.000000
0.430900 0.000000
0.449300 0.000000
0.467700 0.000000
0.486000 0.000000
0.504400 0.000000
0.522700 0.000000
0.541100 0.000000
0.559400 0.000000
0.577800 0.000000
0.596100 0.000000
0.614500 0.000000
0.632800 0.000000
0.651200 0.000000
0.669500 0.000000
0.687900 0.000000
0.706200 0.000000
0.724600 0.000000
0.742900 0.000000
0.761300 0.000000
0.779600 0.000000
0.798000 0.000000
0.816300 0.000000
0.834700 0.000000
0.853000 0.000000
0.871400 0.000000
0.889700 0.000000
0.908100 0.000000
0.926500 0.000000
0.944800 0.000000
0.963200 0.000000
0.981500 0.000000
0.999900 0.000000
1.018200 0.000000
1.036600 0.000000
1.054900 0.000000
1.073300 0.000000
1.091600 0.000000
1.110000 0.000000
1.128300 0.000000
1.146700 0.000000
1.165000 0.000000
1.183400 0.000000
1.201700 0.000000
1.220100 0.000000
1.238400 0.000000
1.256800 0.000000
1.275100 0.000000
1.293500 0.000000
1.311800 0.000000
1.330200 0.000000
1.348600 0.000000
1.366900 0.000000
1.385300 0.000000
1.403600 0.000000
1.422000 0.000000
1.440300 0.000000
1.458700 0.000000
1.477000 0.000000
1.495400 0.000000
1.513700 0.000000
1.532100 0.000000
1.550400 0.000000
1.568800 0.000000
1.587100 0.000000
1.605500 0.000000
1.623800 0.000000
1.642200 0.000000
1.660500 0.000000
1.678900 0.000000
1.697200 0.000000
1.715600 0.000000
1.733900 0.000000
1.752300 0.000000
1.770700 0.000000
1.789000 0.000000
1.807400 0.000000
1.825700 0.000000
1.844100 0.000000
1.862400 0.000000
1.880800 0.000000
1.899100 0.000000
1.917500 0.000000
1.935800 0.000000
1.954200 0.000000
1.972500 0.000000
1.990900 0.000000
2.009200 0.000000
2.027600 0.000000
2.045900 0.000000
2.064300 0.000000
2.082600 0.000000
2.101000 0.000000
2.119300 0.000000
2.137700 0.000000
2.156000 0.000000
2.174400 0.000000
2.192700 0.000000
2.211100 0.000000
2.229500 0.000000
2.247800 0.000000
2.266200 0.000000
2.284500 0.000000
2.302900 0.000000
2.321200 0.000000
2.339600 0.000000
2.357900 0.000000
2.376300 0.000000
2.394600 0.000000
2.413000 0.000000
2.431300 0.000000
2.449700 0.000000
2.468000 0.000000
2.486400 0.000000
2.504700 0.000000
2.523100 0.000000
2.541400 0.000000
2.559800 0.000000
2.578100 0.000000
2.596500 0.000000
2.614800 0.000000
2.633200 0.000000
2.651600 0.000000
2.669900 0.000000
2.688300 0.000000
2.706600 0.000000
2.725000 0.000000
2.743300 0.000000
2.761700 0.000000
2.780000 0.000000
2.798400 0.000000
2.816700 0.000000
2.835100 0.000000
2.853400 0.000000
2.871800 0.000000
2.890100 0.000000
2.908500 0.000000
2.926800 0.000000
2.945200 0.000000
2.963500 0.000000
2.981900 0.000000
3.000200 0.000000
3.018600 0.000000
3.036900 0.000000
3.055300 0.000000
3.073600 0.000000
3.092000 0.000000
3.110400 0.000000
3.128700 0.000000
3.147100 0.000000
3.165400 0.000000
3.183800 0.000000
3.202100 0.000000
3.220500 0.000000
3.238800 0.000000
3.257200 0.000000
3.275500 0.000000
3.293900 0.000000
3.312200 0.000000
3.330600 0.000000
3.348900 0.000000
3.367300 0.000000
3.385600 0.000000
3.404000 0.000000
3.422300 0.000000
3.440700 0.000000
3.459000 0.000000
3.477400 0.000000
3.495700 0.000000
3.514100 0.000000
3.532500 0.000000
3.550800 0.000000
3.569200 0.000000
3.587500 0.000000
3.605900 0.000000
3.624200 0.000000
3.642600 0.000000
3.660900 0.000000
3.679300 0.000000
3.697600 0.000000
3.716000 0.000000
3.734300 0.000000
3.752700 0.000000
3.771000 0.000000
3.789400 0.000000
3.807700 0.000000
3.826100 0.000000
3.844400 0.000000
3.862800 0.000000
3.881100 0.000000
3.899500 0.000000
3.917800 0.000000
3.936200 0.000000
3.954500 0.000000
3.972900 0.000000
3.991300 0.000000
4.009600 0.000000
4.028000 0.000000
4.046300 0.000000
4.064700 0.000000
4.083000 0.000000
4.101400 0.000000
4.119700 0.000000
4.138100 0.000000
4.156400 0.000000
4.174800 0.000000
4.193100 0.000000
4.211500 0.000000
4.229800 0.251700
4.248200 0.287400
4.266500 0.322100
4.284900 0.356000
4.303200 0.388900
4.321600 0.420800
4.339900 0.451800
4.358300 0.481900
4.376600 0.511100
4.395000 0.539300
4.413400 0.566600
4.431700 0.593000
4.450100 0.618400
4.468400 0.642900
4.486800 0.666500
4.505100 0.689100
4.523500 0.710800
4.541800 0.731600
4.560200 0.751500
4.578500 0.770400
4.596900 0.809300
4.615200 0.851200
4.633600 0.894800
4.651900 0.939800
4.670300 0.984900
4.688600 1.029900
4.707000 1.074900
4.725300 1.119800
4.743700 1.164700
4.762000 1.209400
4.780400 1.254200
4.798700 1.298800
4.817100 1.343400
4.835500 1.387900
4.853800 1.432300
4.872200 1.476700
4.890500 1.521000
4.908900 1.696700
4.927200 1.814700
4.945600 1.927100
4.963900 2.042500
4.982300 2.061900
5.000600 2.083600
5.019000 2.103100
5.037300 2.120500
5.055700 2.135600
5.074000 2.148600
5.092400 2.159400
5.110700 2.168000
5.129100 2.174400
5.147400 2.178600
5.165800 2.180700
5.184100 2.180500
5.202500 2.178200
5.220800 2.173700
5.239200 2.167000
5.257500 2.158100
5.275900 2.147000
5.294300 2.133700
5.312600 2.118300
5.331000 2.100600
5.349300 2.080800
5.367700 2.058800
5.386000 2.034600
5.404400 2.008200
5.422700 2.426800
5.441100 2.414300
5.459400 1.794300
5.477800 1.511700
5.496100 1.394200
5.514500 1.280600
5.532800 1.171200
5.551200 1.338800
5.569500 1.184000
5.587900 1.031400
5.606200 0.881000
5.624600 1.060600
5.642900 1.271200
5.661300 1.401400
5.679600 1.451200
5.698000 1.425600
5.716400 1.412400
5.734700 1.451300
5.753100 1.551700
5.771400 1.688400
5.789800 1.825100
5.808100 1.959900
5.826500 2.092700
5.844800 2.223500
5.863200 2.352300
5.881500 2.479100
5.899900 2.603900
5.918200 2.726800
5.936600 2.847700
5.954900 2.970300
5.973300 3.096600
5.991600 3.226500
6.010000 3.360100
6.028300 3.077100
6.046700 3.160600
6.065000 3.254300
6.083400 3.330800
6.101700 3.390100
6.120100 3.432400
6.138400 3.457500
6.156800 3.408600
6.175200 3.284500
6.193500 3.170800
6.211900 3.069800
6.230200 2.981500
6.248600 2.906100
6.266900 2.489100
6.285300 2.557800
6.303600 2.631700
6.322000 2.710800
6.340300 2.795000
6.358700 2.884500
6.377000 2.979100
6.395400 3.094100
6.413700 3.161200
6.432100 3.233600
6.450400 3.311300
6.468800 3.394300
6.487100 5.471200
6.505500 4.343200
6.523800 4.458900
6.542200 4.645300
6.560500 4.954600
6.578900 5.226400
6.597300 5.460800
6.615600 5.661000
6.634000 5.829600
6.652300 5.963100
6.670700 6.060100
6.689000 10.435900
6.707400 6.452300
6.725700 5.713500
6.744100 5.017600
6.762400 4.574200
6.780800 4.374500
6.799100 4.962300
6.817500 5.096900
6.835800 5.309100
6.854200 5.585100
6.872500 5.861500
6.890900 6.138400
6.909200 6.415700
6.927600 6.693500
6.945900 6.971700
6.964300 6.979300
6.982600 7.201700
7.001000 7.262100
7.019400 7.217000
7.037700 6.685700
7.056100 6.580400
7.074400 6.270800
7.092800 5.872700
7.111100 5.052800
7.129500 4.284600
7.147800 3.598000
7.166200 2.607500
7.184500 2.372200
7.202900 2.177100
7.221200 5.308600
7.239600 5.918200
7.257900 7.876100
7.276300 11.331000
7.294600 12.482500
7.313000 12.556700
7.331300 12.831600
7.349700 12.819900
7.368000 11.641600
7.386400 9.679000
7.404700 8.178300
7.423100 7.340600
7.441400 9.663300
7.459800 16.048200
7.478200 11.957200
7.496500 10.186900
7.514900 9.103500
7.533200 10.103100
7.551600 11.149900
7.569900 14.427700
7.588300 9.082500
7.606600 15.670000
7.625000 20.954000
7.643300 15.873500
7.661700 12.905400
7.680000 9.622100
7.698400 13.062700
7.716700 19.862700
7.735100 21.490600
7.753400 18.761300
7.771800 15.098700
7.790100 12.220300
7.808500 11.699300
7.826800 5.207800
7.845200 7.369800
7.863500 13.428600
7.881900 20.092400
7.900300 24.035900
7.918600 24.694000
7.937000 12.506300
7.955300 4.184000
7.973700 2.195700
7.992000 0.000000
8.010400 8.738200
8.028700 18.303700
8.047100 27.241800
8.065400 33.448900
8.083800 8.311600
8.102100 4.713900
8.120500 6.615300
8.138800 15.131800
8.157200 19.117100
8.175500 18.799700
8.193900 14.377400
8.212200 10.423400
8.230600 8.467900
8.248900 7.201500
8.267300 6.066000
8.285600 5.125900
8.304000 6.353800
8.322300 6.928700
8.340700 10.923600
8.359100 14.623900
8.377400 17.716400
8.395800 18.251800
8.414100 19.244600
8.432500 14.340000
8.450800 5.948300
8.469200 0.000000
8.487500 6.595800
8.505900 8.459100
8.524200 9.747700
8.542600 11.661200
8.560900 14.491200
8.579300 15.037900
8.597600 14.598900
8.616000 13.758600
8.634300 12.862800
8.652700 12.376000
8.671000 12.009700
8.689400 12.185900
8.707700 12.389600
8.726100 12.457000
8.744400 6.033700
8.762800 6.290300
8.781200 6.830700
8.799500 7.277200
8.817900 7.629800
8.836200 7.888800
8.854600 8.603100
8.872900 9.509700
8.891300 15.190800
8.909600 19.457100
8.928000 17.424000
8.946300 13.237200
8.964700 9.496700
8.983000 6.430800
9.001400 6.268800
9.019700 6.533000
9.038100 10.574600
9.056400 11.153300
9.074800 12.296600
9.093100 13.881600
9.111500 13.495800
9.129800 12.904600
9.148200 11.703200
9.166500 9.909500
9.184900 8.823000
9.203200 7.895700
9.221600 9.452800
9.240000 12.122100
9.258300 13.803100
9.276700 12.670100
9.295000 13.322600
9.313400 16.276200
9.331700 14.516600
9.350100 15.438300
9.368400 16.567500
9.386800 20.350900
9.405100 18.238400
9.423500 12.306300
9.441800 9.084600
9.460200 7.489400
9.478500 7.562500
9.496900 8.792600
9.515200 12.463100
9.533600 13.274100
9.551900 14.168800
9.570300 15.423200
9.588600 14.245900
9.607000 12.301500
9.625300 11.848800
9.643700 10.944200
9.662100 9.874700
9.680400 8.945500
9.698800 10.559200
9.717100 10.533800
9.735500 11.152200
9.753800 11.774100
9.772200 12.417100
9.790500 12.315300
9.808900 10.568700
9.827200 7.977200
9.845600 5.179000
9.863900 1.668100
9.882300 1.553400
9.900600 5.862200
9.919000 7.917000
9.937300 11.664300
9.955700 19.747800
9.974000 25.765200
9.992400 16.057800
10.010700 11.516600
10.029100 5.029000
10.047400 4.691100
10.065800 4.851400
10.084200 5.510000
10.102500 6.826500
10.120900 8.386300
10.139200 9.465900
10.157600 12.628200
10.175900 14.999500
10.194300 16.158200
10.212600 15.027300
10.231000 11.919900
10.249300 6.093900
10.267700 6.036300
10.286000 6.219300
10.304400 6.569500
10.322700 7.086700
10.341100 7.653700
10.359400 8.163900
10.377800 8.741900
10.396100 9.387700
10.414500 10.240500
10.432800 13.106000
10.451200 10.305900
10.469500 9.267800
10.487900 8.198300
10.506200 7.162300
10.524600 6.554800
10.543000 6.532800
10.561300 7.757900
10.579700 8.197300
10.598000 8.486000
10.616400 8.623900
10.634700 8.617100
10.653100 8.550600
10.671400 8.452100
10.689800 8.409700
10.708100 8.661500
10.726500 9.127900
10.744800 9.810900
10.763200 10.701800
10.781500 11.482700
10.799900 9.402100
10.818200 11.594200
10.836600 10.529600
10.854900 11.168800
10.873300 11.072900
10.891600 12.860600
10.910000 12.683200
10.928300 12.793900
10.946700 12.172000
10.965100 11.525600
10.983400 10.831800
11.001800 9.970400
11.020100 8.158900
11.038500 8.365600
11.056800 8.612300
11.075200 8.909500
11.093500 11.247100
11.111900 11.360200
11.130200 9.308200
11.148600 10.121500
11.166900 9.926700
11.185300 8.905800
11.203600 8.742700
11.222000 9.118900
11.240300 10.310100
11.258700 10.839400
11.277000 10.811400
11.295400 10.022700
11.313700 9.424900
11.332100 9.643000
11.350400 9.009600
11.368800 8.502800
11.387100 8.269100
11.405500 8.580400
11.423900 9.542400
11.442200 12.321800
11.460600 14.650000
11.478900 12.843500
11.497300 12.085600
11.515600 12.441800
11.534000 12.896400
11.552300 14.170300
11.570700 15.719000
11.589000 16.479700
11.607400 10.047700
11.625700 6.061500
11.644100 3.337200
11.662400 1.292900
11.680800 0.943700
11.699100 1.284100
11.717500 2.494000
11.735800 6.127400
11.754200 9.226300
11.772500 14.016500
11.790900 16.937500
11.809200 15.507400
11.827600 12.950600
11.846000 9.992700
11.864300 7.360500
11.882700 5.054000
11.901000 3.676300
11.919400 3.883100
11.937700 7.789300
11.956100 7.925600
11.974400 8.828800
11.992800 13.168000
12.011100 13.559500
12.029500 12.711000
12.047800 11.401600
12.066200 10.135400
12.084500 9.002000
12.102900 8.052600
12.121200 7.230900
12.139600 7.832500
12.157900 6.774900
12.176300 8.393400
12.194600 8.874100
12.213000 8.701500
12.231300 7.890100
12.249700 6.949400
12.268100 6.160800
12.286400 5.591100
12.304800 5.241500
12.323100 4.865500
12.341500 4.497700
12.359800 4.138200
12.378200 3.786800
12.396500 3.434500
12.414900 3.075100
12.433200 2.699100
12.451600 2.287600
12.469900 1.852400
12.488300 1.429600
12.506600 1.012100
12.525000 0.326400
12.543300 0.138300
12.561700 0.011500
12.580000 0.000000
12.598400 0.000000
12.616700 0.000000
12.635100 0.000000
12.653400 0.000000
12.671800 0.000000
12.690100 0.000000
12.708500 0.000000
12.726900 0.000000
12.745200 0.000000
12.763600 0.000000
12.781900 0.000000
12.800300 0.000000
12.818600 0.000000
12.837000 0.000000
12.855300 0.000000
12.873700 0.000000
12.892000 0.000000
12.910400 0.000000
12.928700 0.000000
12.947100 0.000000
12.965400 0.000000
12.983800 0.000000
13.002100 0.000000
13.020500 0.000000
13.038800 0.000000
13.057200 0.000000
13.075500 0.000000
13.093900 0.000000
13.112200 0.000000
13.130600 0.000000
13.149000 0.000000
13.167300 0.000000
13.185700 0.000000
13.204000 0.000000
13.222400 0.000000
13.240700 0.000000
13.259100 0.000000
13.277400 0.000000
13.295800 0.000000
13.314100 0.000000
13.332500 0.000000
13.350800 0.000000
13.369200 0.000000
13.387500 0.000000
13.405900 0.000000
13.424200 0.000000
13.442600 0.000000
13.460900 0.000000
13.479300 0.000000
13.497600 0.000000
13.516000 0.000000
13.534300 0.000000
13.552700 0.000000
13.571000 0.000000
13.589400 0.000000
13.607800 0.000000
13.626100 0.000000
13.644500 0.000000
13.662800 0.000000
13.681200 0.000000
13.699500 0.000000
13.717900 0.000000
13.736200 0.000000
13.754600 0.000000
13.772900 0.000000
13.791300 0.000000
13.809600 0.000000
13.828000 0.000000
13.846300 0.000000
13.864700 0.000000
13.883000 0.000000
13.901400 0.000000
13.919700 0.000000
13.938100 0.000000
13.956400 0.000000
13.974800 0.000000
13.993100 0.000000
14.011500 0.000000
14.029900 0.000000
14.048200 0.000000
14.066600 0.000000
14.084900 0.000000
14.103300 0.000000
14.121600 0.000000
14.140000 0.000000
14.158300 0.000000
14.176700 0.000000
14.195000 0.000000
14.213400 0.000000
14.231700 0.000000
e
