set title 'mp-569224 - Density of States'
set xlabel 'Energy (eV)'
set ylabel 'DOS (states/eV)'
set grid
set xrange [-10:10]
set yrange [0:93.853]
set xzeroaxis lt -1
set terminal png size 800,600
set output 'mp-569224_dos_gnuplot.png'
plot '-' using 1:2 with lines title 'DOS'
-12.349000 0.000000
-12.335400 0.000000
-12.321800 0.000000
-12.308200 0.000000
-12.294600 0.000000
-12.281000 0.000000
-12.267400 0.000000
-12.253800 0.000000
-12.240200 0.000000
-12.226600 0.000000
-12.213000 0.000000
-12.199400 0.000000
-12.185800 0.000000
-12.172200 0.000000
-12.158600 0.000000
-12.145000 0.000000
-12.131400 0.000000
-12.117900 0.000000
-12.104300 0.000000
-12.090700 0.000000
-12.077100 0.000000
-12.063500 0.000000
-12.049900 0.000000
-12.036300 0.000000
-12.022700 0.000000
-12.009100 0.000000
-11.995500 0.000000
-11.981900 0.000000
-11.968300 0.000000
-11.954700 0.000000
-11.941100 0.000000
-11.927500 0.000000
-11.913900 0.000000
-11.900300 0.000000
-11.886700 0.000000
-11.873200 0.000000
-11.859600 0.000000
-11.846000 0.000000
-11.832400 0.000000
-11.818800 0.000000
-11.805200 0.000000
-11.791600 0.000000
-11.778000 0.000000
-11.764400 0.000000
-11.750800 0.000000
-11.737200 0.000000
-11.723600 0.000000
-11.710000 0.000000
-11.696400 0.000000
-11.682800 0.000000
-11.669200 0.000000
-11.655600 0.000000
-11.642000 0.000000
-11.628500 0.000000
-11.614900 0.000000
-11.601300 0.000000
-11.587700 0.000000
-11.574100 0.000000
-11.560500 0.000000
-11.546900 0.000000
-11.533300 0.000000
-11.519700 0.000000
-11.506100 0.000000
-11.492500 0.000000
-11.478900 0.000000
-11.465300 0.000000
-11.451700 0.000000
-11.438100 0.000000
-11.424500 0.000000
-11.410900 0.000000
-11.397300 0.000000
-11.383800 0.000000
-11.370200 0.000000
-11.356600 0.000000
-11.343000 0.000000
-11.329400 0.000000
-11.315800 0.000000
-11.302200 0.000000
-11.288600 0.000000
-11.275000 0.000000
-11.261400 0.000000
-11.247800 0.000000
-11.234200 0.000000
-11.220600 0.000000
-11.207000 0.000000
-11.193400 0.000000
-11.179800 0.000000
-11.166200 0.000000
-11.152600 0.000000
-11.139100 0.000000
-11.125500 0.000000
-11.111900 0.003200
-11.098300 0.457100
-11.084700 1.679200
-11.071100 3.955600
-11.057500 7.099200
-11.043900 10.274400
-11.030300 14.711400
-11.016700 22.665300
-11.003100 26.891500
-10.989500 27.044500
-10.975900 25.447400
-10.962300 23.300300
-10.948700 20.916900
-10.935100 20.485100
-10.921500 20.464000
-10.907900 20.496200
-10.894300 20.581700
-10.880800 13.271800
-10.867200 7.754400
-10.853600 4.543500
-10.840000 1.385300
-10.826400 0.000000
-10.812800 0.000000
-10.799200 0.000000
-10.785600 0.000000
-10.772000 0.000000
-10.758400 0.000000
-10.744800 1.645400
-10.731200 72.687100
-10.717600 76.625200
-10.704000 59.504000
-10.690400 46.739400
-10.676800 35.844500
-10.663200 8.785200
-10.649600 0.000000
-10.636100 0.000000
-10.622500 0.000000
-10.608900 0.000000
-10.595300 0.000000
-10.581700 0.000000
-10.568100 0.000000
-10.554500 0.000000
-10.540900 0.000000
-10.527300 0.000000
-10.513700 0.000000
-10.500100 0.000000
-10.486500 0.000000
-10.472900 0.000000
-10.459300 0.000000
-10.445700 0.000000
-10.432100 0.000000
-10.418500 0.000000
-10.404900 0.000000
-10.391400 0.000000
-10.377800 0.000000
-10.364200 0.000000
-10.350600 0.000000
-10.337000 0.000000
-10.323400 0.000000
-10.309800 0.000000
-10.296200 0.000000
-10.282600 0.000000
-10.269000 31.483500
-10.255400 52.120000
-10.241800 129.664300
-10.228200 91.237800
-10.214600 0.000000
-10.201000 0.000000
-10.187400 85.733700
-10.173800 98.591100
-10.160200 54.603700
-10.146700 36.478600
-10.133100 10.307200
-10.119500 0.000000
-10.105900 0.000000
-10.092300 4.072200
-10.078700 24.952900
-10.065100 47.571700
-10.051500 106.830700
-10.037900 91.736000
-10.024300 67.536600
-10.010700 192.494700
-9.997100 85.320600
-9.983500 0.000000
-9.969900 0.000000
-9.956300 0.000000
-9.942700 0.000000
-9.929100 0.000000
-9.915500 0.000000
-9.902000 0.000000
-9.888400 0.000000
-9.874800 0.000000
-9.861200 0.000000
-9.847600 0.000000
-9.834000 0.000000
-9.820400 0.000000
-9.806800 0.000000
-9.793200 0.000000
-9.779600 0.000000
-9.766000 0.000000
-9.752400 0.000000
-9.738800 0.000000
-9.725200 0.000000
-9.711600 0.000000
-9.698000 0.000000
-9.684400 0.000000
-9.670800 0.000000
-9.657300 0.000000
-9.643700 0.000000
-9.630100 0.000000
-9.616500 0.000000
-9.602900 0.000000
-9.589300 0.000000
-9.575700 0.000000
-9.562100 0.000000
-9.548500 0.000000
-9.534900 0.000000
-9.521300 0.000000
-9.507700 0.000000
-9.494100 0.000000
-9.480500 0.000000
-9.466900 0.000000
-9.453300 0.000000
-9.439700 0.000000
-9.426100 0.000000
-9.412600 0.000000
-9.399000 0.000000
-9.385400 0.000000
-9.371800 0.000000
-9.358200 0.000000
-9.344600 0.000000
-9.331000 0.000000
-9.317400 0.000000
-9.303800 0.000000
-9.290200 0.000000
-9.276600 0.000000
-9.263000 0.000000
-9.249400 0.000000
-9.235800 0.000000
-9.222200 0.000000
-9.208600 0.000000
-9.195000 0.000000
-9.181400 0.000000
-9.167900 0.000000
-9.154300 0.000000
-9.140700 0.000000
-9.127100 0.000000
-9.113500 0.000000
-9.099900 0.000000
-9.086300 0.000000
-9.072700 0.000000
-9.059100 0.000000
-9.045500 0.000000
-9.031900 0.000000
-9.018300 0.000000
-9.004700 0.000000
-8.991100 0.000000
-8.977500 0.000000
-8.963900 0.000000
-8.950300 0.000000
-8.936700 0.000000
-8.923200 0.000000
-8.909600 0.000000
-8.896000 0.000000
-8.882400 0.000000
-8.868800 0.000000
-8.855200 0.000000
-8.841600 0.000000
-8.828000 0.000000
-8.814400 0.000000
-8.800800 0.000000
-8.787200 0.000000
-8.773600 0.000000
-8.760000 0.000000
-8.746400 0.000000
-8.732800 0.000000
-8.719200 0.000000
-8.705600 0.000000
-8.692000 0.000000
-8.678500 0.000000
-8.664900 0.000000
-8.651300 0.000000
-8.637700 0.000000
-8.624100 0.000000
-8.610500 0.000000
-8.596900 0.000000
-8.583300 0.000000
-8.569700 0.000000
-8.556100 0.000000
-8.542500 0.000000
-8.528900 0.000000
-8.515300 0.000000
-8.501700 0.000000
-8.488100 0.000000
-8.474500 0.000000
-8.460900 0.000000
-8.447300 0.000000
-8.433800 0.000000
-8.420200 0.000000
-8.406600 0.000000
-8.393000 0.000000
-8.379400 0.000000
-8.365800 0.000000
-8.352200 0.000000
-8.338600 0.000000
-8.325000 0.000000
-8.311400 0.000000
-8.297800 0.000000
-8.284200 0.000000
-8.270600 0.000000
-8.257000 0.000000
-8.243400 0.000000
-8.229800 0.000000
-8.216200 0.000000
-8.202600 0.000000
-8.189100 0.000000
-8.175500 0.000000
-8.161900 0.000000
-8.148300 0.000000
-8.134700 0.000000
-8.121100 0.000000
-8.107500 0.000000
-8.093900 0.000000
-8.080300 0.000000
-8.066700 0.000000
-8.053100 0.000000
-8.039500 0.000000
-8.025900 0.000000
-8.012300 0.000000
-7.998700 0.000000
-7.985100 0.000000
-7.971500 0.000000
-7.957900 0.000000
-7.944400 0.000000
-7.930800 0.000000
-7.917200 0.000000
-7.903600 0.000000
-7.890000 0.000000
-7.876400 0.000000
-7.862800 0.000000
-7.849200 0.000000
-7.835600 0.000000
-7.822000 0.000000
-7.808400 0.000000
-7.794800 0.000000
-7.781200 0.000000
-7.767600 0.000000
-7.754000 0.000000
-7.740400 0.000000
-7.726800 0.000000
-7.713200 0.000000
-7.699700 0.000000
-7.686100 0.000000
-7.672500 0.000000
-7.658900 0.000000
-7.645300 0.000000
-7.631700 0.000000
-7.618100 0.000000
-7.604500 0.000000
-7.590900 0.000000
-7.577300 0.000000
-7.563700 0.000000
-7.550100 0.000000
-7.536500 0.000000
-7.522900 0.000000
-7.509300 0.000000
-7.495700 0.000000
-7.482100 0.000000
-7.468500 0.000000
-7.455000 0.000000
-7.441400 0.000000
-7.427800 0.000000
-7.414200 0.000000
-7.400600 0.000000
-7.387000 0.000000
-7.373400 0.000000
-7.359800 0.000000
-7.346200 0.000000
-7.332600 0.000000
-7.319000 0.000000
-7.305400 0.000000
-7.291800 0.000000
-7.278200 0.000000
-7.264600 0.000000
-7.251000 0.000000
-7.237400 0.000000
-7.223800 0.000000
-7.210300 0.000000
-7.196700 0.000000
-7.183100 0.000000
-7.169500 0.000000
-7.155900 0.000000
-7.142300 0.000000
-7.128700 0.000000
-7.115100 0.000000
-7.101500 0.000000
-7.087900 0.000000
-7.074300 0.000000
-7.060700 0.000000
-7.047100 0.000000
-7.033500 0.000000
-7.019900 4.051300
-7.006300 9.203900
-6.992700 14.341800
-6.979100 21.950800
-6.965600 35.682500
-6.952000 32.785100
-6.938400 29.015200
-6.924800 23.684600
-6.911200 19.406100
-6.897600 19.482400
-6.884000 19.575200
-6.870400 19.668100
-6.856800 19.761000
-6.843200 18.301700
-6.829600 9.199100
-6.816000 0.000000
-6.802400 0.000000
-6.788800 0.000000
-6.775200 0.000000
-6.761600 0.238000
-6.748000 2.544600
-6.734400 5.330600
-6.720900 8.118400
-6.707300 17.114200
-6.693700 17.155200
-6.680100 17.197600
-6.666500 17.241600
-6.652900 17.287200
-6.639300 17.334200
-6.625700 17.382800
-6.612100 23.350500
-6.598500 26.669900
-6.584900 28.113100
-6.571300 27.485400
-6.557700 21.306300
-6.544100 13.225900
-6.530500 8.304500
-6.516900 5.403700
-6.503300 3.014800
-6.489700 1.057500
-6.476200 0.000000
-6.462600 0.000000
-6.449000 0.000000
-6.435400 0.000000
-6.421800 0.000000
-6.408200 0.000000
-6.394600 0.000000
-6.381000 0.000000
-6.367400 0.000000
-6.353800 0.000000
-6.340200 0.000000
-6.326600 0.000000
-6.313000 0.000000
-6.299400 0.000000
-6.285800 0.000000
-6.272200 0.000000
-6.258600 0.000000
-6.245000 0.000000
-6.231500 0.000000
-6.217900 0.000000
-6.204300 0.000000
-6.190700 0.000000
-6.177100 0.000000
-6.163500 0.000000
-6.149900 0.000000
-6.136300 0.000000
-6.122700 0.000000
-6.109100 0.000000
-6.095500 0.000000
-6.081900 0.000000
-6.068300 0.000000
-6.054700 0.000000
-6.041100 0.000000
-6.027500 0.000000
-6.013900 0.000000
-6.000300 0.000000
-5.986700 0.000000
-5.973200 0.000000
-5.959600 0.000000
-5.946000 0.000000
-5.932400 0.000000
-5.918800 0.000000
-5.905200 0.000000
-5.891600 0.000000
-5.878000 0.000000
-5.864400 0.000000
-5.850800 0.000000
-5.837200 0.000000
-5.823600 0.000000
-5.810000 0.000000
-5.796400 0.000000
-5.782800 0.000000
-5.769200 0.000000
-5.755600 0.000000
-5.742000 0.000000
-5.728500 0.000000
-5.714900 0.000000
-5.701300 0.000000
-5.687700 0.000000
-5.674100 0.000000
-5.660500 0.000000
-5.646900 0.000000
-5.633300 0.000000
-5.619700 0.000000
-5.606100 0.000000
-5.592500 0.000000
-5.578900 0.000000
-5.565300 0.000000
-5.551700 0.000000
-5.538100 0.000000
-5.524500 0.000000
-5.510900 0.000000
-5.497300 0.000000
-5.483800 0.000000
-5.470200 0.000000
-5.456600 0.000000
-5.443000 0.000000
-5.429400 0.000000
-5.415800 0.000000
-5.402200 0.000000
-5.388600 0.000000
-5.375000 0.000000
-5.361400 0.000000
-5.347800 0.000000
-5.334200 0.000000
-5.320600 0.000000
-5.307000 0.000000
-5.293400 0.000000
-5.279800 0.000000
-5.266200 0.000000
-5.252600 0.000000
-5.239100 0.000000
-5.225500 0.000000
-5.211900 0.000000
-5.198300 0.000000
-5.184700 0.000000
-5.171100 0.000000
-5.157500 0.000000
-5.143900 0.000000
-5.130300 0.000000
-5.116700 0.000000
-5.103100 0.000000
-5.089500 0.000000
-5.075900 0.000000
-5.062300 0.000000
-5.048700 0.000000
-5.035100 0.000000
-5.021500 0.000000
-5.007900 0.000000
-4.994400 0.000000
-4.980800 0.000000
-4.967200 0.000000
-4.953600 0.000000
-4.940000 0.000000
-4.926400 0.000000
-4.912800 0.000000
-4.899200 0.000000
-4.885600 0.000000
-4.872000 0.000000
-4.858400 0.000000
-4.844800 0.000000
-4.831200 0.000000
-4.817600 0.000000
-4.804000 0.000000
-4.790400 0.000000
-4.776800 0.000000
-4.763200 0.000000
-4.749700 0.000000
-4.736100 0.000000
-4.722500 0.000000
-4.708900 0.000000
-4.695300 0.000000
-4.681700 0.000000
-4.668100 0.000000
-4.654500 0.000000
-4.640900 0.000000
-4.627300 0.000000
-4.613700 0.000000
-4.600100 0.000000
-4.586500 0.000000
-4.572900 0.000000
-4.559300 0.000000
-4.545700 0.000000
-4.532100 0.000000
-4.518500 0.000000
-4.505000 0.000000
-4.491400 0.000000
-4.477800 0.000000
-4.464200 0.000000
-4.450600 0.000000
-4.437000 0.000000
-4.423400 0.000000
-4.409800 0.000000
-4.396200 0.000000
-4.382600 0.000000
-4.369000 0.000000
-4.355400 0.000000
-4.341800 0.000000
-4.328200 0.000000
-4.314600 0.000000
-4.301000 0.000000
-4.287400 0.000000
-4.273800 0.000000
-4.260300 0.000000
-4.246700 0.000000
-4.233100 0.000000
-4.219500 0.000000
-4.205900 0.000000
-4.192300 0.000000
-4.178700 0.000000
-4.165100 0.000000
-4.151500 0.000000
-4.137900 0.000000
-4.124300 0.000000
-4.110700 0.000000
-4.097100 0.000000
-4.083500 0.000000
-4.069900 0.000000
-4.056300 0.000000
-4.042700 0.000000
-4.029100 0.000000
-4.015600 0.000000
-4.002000 0.000000
-3.988400 0.000000
-3.974800 0.000000
-3.961200 0.000000
-3.947600 0.000000
-3.934000 0.000000
-3.920400 0.000000
-3.906800 0.000000
-3.893200 0.000000
-3.879600 0.000000
-3.866000 0.000000
-3.852400 0.000000
-3.838800 0.000000
-3.825200 0.000000
-3.811600 0.000000
-3.798000 0.000000
-3.784400 0.000000
-3.770900 0.000000
-3.757300 0.000000
-3.743700 0.000000
-3.730100 0.000000
-3.716500 0.000000
-3.702900 0.000000
-3.689300 0.000000
-3.675700 0.000000
-3.662100 0.000000
-3.648500 0.000000
-3.634900 0.000000
-3.621300 0.000000
-3.607700 0.000000
-3.594100 0.000000
-3.580500 0.000000
-3.566900 0.000000
-3.553300 0.000000
-3.539700 0.000000
-3.526200 0.000000
-3.512600 0.000000
-3.499000 0.000000
-3.485400 0.000000
-3.471800 0.000000
-3.458200 0.000000
-3.444600 0.000000
-3.431000 0.000000
-3.417400 0.000000
-3.403800 0.000000
-3.390200 0.000000
-3.376600 0.000000
-3.363000 0.000000
-3.349400 0.000000
-3.335800 0.000000
-3.322200 0.000000
-3.308600 0.000000
-3.295000 0.000000
-3.281500 0.000000
-3.267900 0.000000
-3.254300 0.000000
-3.240700 0.000000
-3.227100 0.000000
-3.213500 0.000000
-3.199900 0.000000
-3.186300 0.000000
-3.172700 0.000000
-3.159100 0.000000
-3.145500 0.000000
-3.131900 0.000000
-3.118300 0.000000
-3.104700 0.000000
-3.091100 0.000000
-3.077500 0.000000
-3.063900 0.000000
-3.050300 0.000000
-3.036800 0.000000
-3.023200 0.000000
-3.009600 0.000000
-2.996000 0.000000
-2.982400 0.000000
-2.968800 0.000000
-2.955200 0.000000
-2.941600 0.000000
-2.928000 0.000000
-2.914400 0.000000
-2.900800 0.000000
-2.887200 0.000000
-2.873600 0.000000
-2.860000 0.000000
-2.846400 0.000000
-2.832800 0.000000
-2.819200 0.000000
-2.805600 0.000000
-2.792100 0.000000
-2.778500 0.000000
-2.764900 0.000000
-2.751300 0.000000
-2.737700 0.000000
-2.724100 0.000000
-2.710500 0.000000
-2.696900 0.000000
-2.683300 0.000000
-2.669700 0.000000
-2.656100 0.000000
-2.642500 0.000000
-2.628900 0.000000
-2.615300 0.000000
-2.601700 0.000000
-2.588100 0.000000
-2.574500 0.000000
-2.560900 0.000000
-2.547400 0.000000
-2.533800 0.000000
-2.520200 0.000000
-2.506600 0.000000
-2.493000 0.000000
-2.479400 0.000000
-2.465800 0.000000
-2.452200 0.000000
-2.438600 0.000000
-2.425000 0.000000
-2.411400 0.000000
-2.397800 0.000000
-2.384200 0.000000
-2.370600 0.000000
-2.357000 0.000000
-2.343400 0.000000
-2.329800 0.000000
-2.316200 0.000000
-2.302700 0.000000
-2.289100 0.000000
-2.275500 0.000000
-2.261900 0.000000
-2.248300 0.000000
-2.234700 0.000000
-2.221100 0.000000
-2.207500 0.042200
-2.193900 0.783600
-2.180300 2.449600
-2.166700 4.898600
-2.153100 7.870300
-2.139500 12.994600
-2.125900 24.135500
-2.112300 30.253700
-2.098700 37.889900
-2.085100 35.456700
-2.071500 32.549700
-2.058000 35.724500
-2.044400 32.564600
-2.030800 30.191300
-2.017200 12.424000
-2.003600 2.246600
-1.990000 3.548700
-1.976400 5.112500
-1.962800 6.743400
-1.949200 8.333300
-1.935600 9.882300
-1.922000 31.343400
-1.908400 32.985600
-1.894800 34.343800
-1.881200 36.514700
-1.867600 39.266300
-1.854000 43.601700
-1.840400 20.952100
-1.826800 15.545300
-1.813300 13.119900
-1.799700 12.641700
-1.786100 15.304100
-1.772500 53.082400
-1.758900 49.556500
-1.745300 24.242900
-1.731700 18.551600
-1.718100 16.368800
-1.704500 16.373400
-1.690900 16.599400
-1.677300 17.075700
-1.663700 15.805000
-1.650100 13.832800
-1.636500 11.630000
-1.622900 9.312300
-1.609300 7.146500
-1.595700 9.204800
-1.582100 15.207400
-1.568600 23.084000
-1.555000 37.952900
-1.541400 60.291700
-1.527800 52.699800
-1.514200 24.974900
-1.500600 21.277400
-1.487000 13.190600
-1.473400 7.526700
-1.459800 4.649900
-1.446200 2.621600
-1.432600 2.436000
-1.419000 4.839900
-1.405400 13.272000
-1.391800 41.135400
-1.378200 33.802200
-1.364600 18.502600
-1.351000 17.924000
-1.337400 17.344500
-1.323800 16.763900
-1.310300 16.182300
-1.296700 15.599600
-1.283100 14.109400
-1.269500 12.081800
-1.255900 8.870000
-1.242300 6.859300
-1.228700 6.129500
-1.215100 5.579800
-1.201500 5.063300
-1.187900 4.549300
-1.174300 4.037900
-1.160700 3.529100
-1.147100 3.022800
-1.133500 2.529900
-1.119900 2.308500
-1.106300 2.468900
-1.092700 3.011300
-1.079100 4.084000
-1.065600 5.654400
-1.052000 7.351400
-1.038400 9.208800
-1.024800 11.392400
-1.011200 18.077000
-0.997600 25.254400
-0.984000 32.246700
-0.970400 35.194500
-0.956800 32.583600
-0.943200 29.365200
-0.929600 25.135600
-0.916000 19.894900
-0.902400 15.813200
-0.888800 8.973400
-0.875200 6.101500
-0.861600 3.504100
-0.848000 1.181200
-0.834400 0.000000
-0.820900 0.000000
-0.807300 0.000000
-0.793700 0.000000
-0.780100 0.000000
-0.766500 0.000000
-0.752900 0.000000
-0.739300 0.000000
-0.725700 0.000000
-0.712100 0.000000
-0.698500 0.000000
-0.684900 0.000000
-0.671300 0.000000
-0.657700 0.000000
-0.644100 0.000000
-0.630500 0.000000
-0.616900 0.000000
-0.603300 0.000000
-0.589700 0.000000
-0.576200 0.000000
-0.562600 0.000000
-0.549000 0.000000
-0.535400 0.000000
-0.521800 0.000000
-0.508200 0.000000
-0.494600 0.000000
-0.481000 0.000000
-0.467400 0.000000
-0.453800 0.000000
-0.440200 0.000000
-0.426600 1.705400
-0.413000 3.371700
-0.399400 5.413800
-0.385800 8.135400
-0.372200 9.858700
-0.358600 11.384400
-0.345000 12.681500
-0.331500 15.314000
-0.317900 27.906100
-0.304300 33.972100
-0.290700 34.400000
-0.277100 31.167400
-0.263500 30.433800
-0.249900 28.833900
-0.236300 22.383000
-0.222700 11.026200
-0.209100 5.438900
-0.195500 5.169100
-0.181900 6.286500
-0.168300 9.807000
-0.154700 13.468600
-0.141100 17.791100
-0.127500 20.268300
-0.113900 20.527100
-0.100300 29.816700
-0.086800 42.518300
-0.073200 52.193200
-0.059600 38.557800
-0.046000 24.803500
-0.032400 21.170100
-0.018800 24.645600
-0.005200 32.547800
0.008400 44.840600
0.022000 54.617800
0.035600 71.502100
0.049200 41.644000
0.062800 18.265200
0.076400 14.893700
0.090000 13.363800
0.103600 13.917600
0.117200 17.825500
0.130800 33.640200
0.144400 33.073300
0.157900 30.425300
0.171500 28.026500
0.185100 36.275700
0.198700 45.725800
0.212300 22.918600
0.225900 29.563700
0.239500 44.418900
0.253100 53.516600
0.266700 41.638600
0.280300 38.830800
0.293900 36.002000
0.307500 33.642300
0.321100 33.391300
0.334700 9.217800
0.348300 7.912500
0.361900 7.832100
0.375500 10.669500
0.389100 21.625800
0.402600 41.668400
0.416200 60.867300
0.429800 80.922900
0.443400 32.666800
0.457000 17.001300
0.470600 16.321100
0.484200 25.839000
0.497800 50.488500
0.511400 51.828900
0.525000 62.770800
0.538600 53.862700
0.552200 28.354200
0.565800 11.066100
0.579400 12.804200
0.593000 34.373600
0.606600 70.973700
0.620200 79.657900
0.633800 38.681100
0.647300 30.598100
0.660900 29.891200
0.674500 32.827700
0.688100 35.123500
0.701700 35.544400
0.715300 42.378300
0.728900 44.351300
0.742500 40.668000
0.756100 37.578000
0.769700 37.851500
0.783300 38.786800
0.796900 44.395200
0.810500 64.992600
0.824100 58.132700
0.837700 38.787900
0.851300 21.482000
0.864900 12.223200
0.878500 23.266800
0.892000 32.777200
0.905600 46.851300
0.919200 56.131500
0.932800 57.433300
0.946400 41.558700
0.960000 20.625800
0.973600 12.464900
0.987200 11.184400
1.000800 20.294100
1.014400 27.116900
1.028000 31.505000
1.041600 33.544500
1.055200 35.109200
1.068800 34.410800
1.082400 31.935800
1.096000 27.009700
1.109600 19.813900
1.123200 10.838100
1.136700 7.998200
1.150300 5.351900
1.163900 3.284300
1.177500 1.483800
1.191100 0.000000
1.204700 0.000000
1.218300 0.000000
1.231900 0.000000
1.245500 0.000000
1.259100 0.000000
1.272700 0.000000
1.286300 0.000000
1.299900 0.000000
1.313500 0.000000
1.327100 0.000000
1.340700 0.000000
1.354300 0.000000
1.367900 0.000000
1.381400 0.000000
1.395000 0.000000
1.408600 0.000000
1.422200 0.000000
1.435800 0.000000
1.449400 0.000000
1.463000 0.000000
1.476600 0.000000
1.490200 0.000000
1.503800 0.000000
1.517400 0.000000
1.531000 0.000000
1.544600 0.000000
1.558200 0.000000
1.571800 0.000000
1.585400 0.000000
1.599000 0.000000
1.612600 0.000000
1.626100 0.000000
1.639700 0.000000
1.653300 0.000000
1.666900 0.000000
1.680500 0.000000
1.694100 0.000000
1.707700 0.000000
1.721300 0.000000
1.734900 0.000000
1.748500 0.000000
1.762100 0.000000
1.775700 0.000000
1.789300 0.000000
1.802900 0.000000
1.816500 0.000000
1.830100 0.000000
1.843700 0.000000
1.857300 0.000000
1.870800 0.000000
1.884400 0.000000
1.898000 0.000000
1.911600 0.000000
1.925200 0.000000
1.938800 0.000000
1.952400 0.000000
1.966000 0.000000
1.979600 0.000000
1.993200 0.000000
2.006800 0.000000
2.020400 0.000000
2.034000 0.000000
2.047600 0.000000
2.061200 0.000000
2.074800 0.000000
2.088400 0.000000
2.102000 0.000000
2.115500 0.000000
2.129100 0.000000
2.142700 0.000000
2.156300 0.000000
2.169900 0.000000
2.183500 0.000000
2.197100 0.000000
2.210700 0.000000
2.224300 0.000000
2.237900 0.000000
2.251500 0.000000
2.265100 0.000000
2.278700 0.000000
2.292300 0.000000
2.305900 0.000000
2.319500 0.000000
2.333100 0.000000
2.346700 0.000000
2.360200 0.000000
2.373800 0.000000
2.387400 0.000000
2.401000 0.000000
2.414600 0.000000
2.428200 0.000000
2.441800 0.000000
2.455400 0.000000
2.469000 0.000000
2.482600 0.000000
2.496200 0.000000
2.509800 0.000000
2.523400 0.000000
2.537000 0.000000
2.550600 0.000000
2.564200 0.000000
2.577800 0.000000
2.591400 0.000000
2.604900 0.000000
2.618500 0.000000
2.632100 0.000000
2.645700 0.000000
2.659300 0.000000
2.672900 0.000000
2.686500 0.000000
2.700100 0.000000
2.713700 0.000000
2.727300 0.000000
2.740900 0.000000
2.754500 0.000000
2.768100 0.000000
2.781700 0.000000
2.795300 0.000000
2.808900 0.000000
2.822500 0.000000
2.836100 0.000000
2.849600 0.000000
2.863200 0.000000
2.876800 0.000000
2.890400 0.000000
2.904000 0.000000
2.917600 0.000000
2.931200 0.000000
2.944800 0.000000
2.958400 0.000000
2.972000 0.000000
2.985600 0.000000
2.999200 0.000000
3.012800 0.000000
3.026400 0.000000
3.040000 0.000000
3.053600 0.000000
3.067200 0.000000
3.080800 0.000000
3.094300 0.000000
3.107900 0.000000
3.121500 0.000000
3.135100 0.000000
3.148700 0.000000
3.162300 0.000000
3.175900 0.000000
3.189500 0.000000
3.203100 0.000000
3.216700 0.000000
3.230300 0.000000
3.243900 0.000000
3.257500 0.000000
3.271100 0.000000
3.284700 0.000000
3.298300 0.000000
3.311900 0.000000
3.325500 0.000000
3.339000 0.000000
3.352600 0.000000
3.366200 0.000000
3.379800 0.000000
3.393400 0.000000
3.407000 0.155700
3.420600 1.041200
3.434200 2.482500
3.447800 4.191700
3.461400 5.933000
3.475000 7.706400
3.488600 9.511900
3.502200 31.156800
3.515800 30.822100
3.529400 31.267600
3.543000 31.502200
3.556600 31.215400
3.570200 30.407000
3.583800 25.695300
3.597300 24.406800
3.610900 18.324500
3.624500 8.065600
3.638100 1.661600
3.651700 7.046800
3.665300 11.585700
3.678900 15.193800
3.692500 16.658300
3.706100 18.523300
3.719700 20.080000
3.733300 21.328400
3.746900 21.800100
3.760500 21.574600
3.774100 21.247900
3.787700 32.447400
3.801300 42.491900
3.814900 39.573600
3.828500 6.313900
3.842000 15.674100
3.855600 18.569200
3.869200 21.713600
3.882800 25.107300
3.896400 28.731800
3.910000 31.924900
3.923600 31.885800
3.937200 32.647200
3.950800 32.619200
3.964400 31.829500
3.978000 30.278100
3.991600 17.192300
4.005200 18.170400
4.018800 19.619800
4.032400 22.704300
4.046000 28.218800
4.059600 29.224900
4.073200 31.284200
4.086700 26.774200
4.100300 20.235500
4.113900 14.784000
4.127500 11.854100
4.141100 10.609100
4.154700 9.497200
4.168300 8.483700
4.181900 7.568500
4.195500 6.505000
4.209100 5.897100
4.222700 5.395200
4.236300 4.861100
4.249900 8.272000
4.263500 12.510200
4.277100 16.185100
4.290700 21.147500
4.304300 29.157200
4.317900 35.319900
4.331400 39.468800
4.345000 42.361200
4.358600 32.563800
4.372200 25.401900
4.385800 16.038700
4.399400 6.473400
4.413000 0.289300
4.426600 0.903500
4.440200 2.535700
4.453800 5.494300
4.467400 8.482100
4.481000 11.076800
4.494600 12.938800
4.508200 14.675000
4.521800 16.285600
4.535400 18.204400
4.549000 21.719000
4.562600 27.433300
4.576100 27.797000
4.589700 27.446300
4.603300 25.492600
4.616900 23.196300
4.630500 20.663000
4.644100 17.082300
4.657700 9.952800
4.671300 2.580400
4.684900 0.000000
4.698500 0.000000
4.712100 0.000000
4.725700 0.000000
4.739300 0.000000
4.752900 0.000000
4.766500 0.000000
4.780100 0.000000
4.793700 0.000000
4.807300 0.000000
4.820800 0.000000
4.834400 0.000000
4.848000 0.000000
4.861600 0.000000
4.875200 0.000000
4.888800 0.000000
4.902400 0.000000
4.916000 0.000000
4.929600 0.000000
4.943200 0.000000
4.956800 0.000000
4.970400 0.000000
4.984000 0.000000
4.997600 0.000000
5.011200 0.000000
5.024800 0.000000
5.038400 0.000000
5.052000 0.000000
5.065500 0.000000
5.079100 0.000000
5.092700 0.000000
5.106300 0.000000
5.119900 0.000000
5.133500 0.000000
5.147100 0.000000
5.160700 0.000000
5.174300 0.000000
5.187900 0.000000
5.201500 0.000000
5.215100 0.000000
5.228700 0.000000
5.242300 0.000000
5.255900 0.000000
5.269500 0.000000
5.283100 0.000000
5.296700 0.000000
5.310200 0.000000
5.323800 0.000000
5.337400 0.000000
5.351000 0.000000
5.364600 0.000000
5.378200 0.000000
5.391800 0.000000
5.405400 0.000000
5.419000 0.000000
5.432600 0.000000
5.446200 0.000000
5.459800 0.000000
5.473400 0.000000
5.487000 0.000000
5.500600 0.000000
5.514200 0.000000
5.527800 0.000000
5.541400 0.000000
5.554900 0.000000
5.568500 0.000000
5.582100 0.000000
5.595700 0.000000
5.609300 0.000000
5.622900 0.000000
5.636500 0.000000
5.650100 0.000000
5.663700 0.000000
5.677300 0.000000
5.690900 0.000000
5.704500 0.000000
5.718100 0.000000
5.731700 0.000000
5.745300 0.000000
5.758900 0.000000
5.772500 0.000000
5.786100 0.000000
5.799600 0.000000
5.813200 0.000000
5.826800 0.000000
5.840400 0.000000
5.854000 0.000000
5.867600 0.000000
5.881200 0.000000
5.894800 0.000000
5.908400 0.000000
5.922000 0.000000
5.935600 0.000000
5.949200 0.000000
5.962800 0.000000
5.976400 0.000000
5.990000 0.000000
6.003600 0.000000
6.017200 0.000000
6.030800 0.000000
6.044300 0.000000
6.057900 0.000000
6.071500 0.000000
6.085100 0.000000
6.098700 0.000000
6.112300 0.000000
6.125900 0.000000
6.139500 0.000000
6.153100 0.000000
6.166700 0.000000
6.180300 0.000000
6.193900 0.000000
6.207500 0.000000
6.221100 0.000000
6.234700 0.000000
6.248300 0.000000
6.261900 0.000000
6.275500 0.000000
6.289000 0.000000
6.302600 0.000000
6.316200 0.000000
6.329800 0.000000
6.343400 0.000000
6.357000 0.000000
6.370600 0.000000
6.384200 0.000000
6.397800 0.000000
6.411400 0.000000
6.425000 0.000000
6.438600 0.000000
6.452200 0.000000
6.465800 0.000000
6.479400 0.000000
6.493000 0.000000
6.506600 0.000000
6.520200 0.000000
6.533700 0.000000
6.547300 0.000000
6.560900 0.000000
6.574500 0.000000
6.588100 0.000000
6.601700 0.000000
6.615300 0.000000
6.628900 0.000000
6.642500 0.000000
6.656100 0.000000
6.669700 0.000000
6.683300 0.000000
6.696900 0.000000
6.710500 0.000000
6.724100 0.000000
6.737700 0.000000
6.751300 0.000000
6.764900 0.000000
6.778400 0.000000
6.792000 0.000000
6.805600 0.000000
6.819200 0.003700
6.832800 0.017000
6.846400 0.040100
6.860000 0.072800
6.873600 0.115300
6.887200 0.167400
6.900800 0.229300
6.914400 0.300900
6.928000 0.382200
6.941600 0.473200
6.955200 0.573900
6.968800 0.684300
6.982400 0.804400
6.996000 0.934200
7.009600 1.073700
7.023100 1.222900
7.036700 1.381900
7.050300 1.550500
7.063900 1.732200
7.077500 2.049800
7.091100 2.564400
7.104700 3.616400
7.118300 5.364400
7.131900 7.559800
7.145500 9.809100
7.159100 12.003100
7.172700 16.304500
7.186300 17.257500
7.199900 18.409600
7.213500 18.965400
7.227100 19.284200
7.240700 20.680000
7.254300 20.525000
7.267800 18.230700
7.281400 16.093200
7.295000 14.530400
7.308600 14.723100
7.322200 14.677000
7.335800 12.351400
7.349400 13.005800
7.363000 14.080000
7.376600 13.871500
7.390200 13.538900
7.403800 13.082300
7.417400 12.501700
7.431000 11.968100
7.444600 12.494500
7.458200 15.278300
7.471800 17.550400
7.485400 18.772000
7.499000 19.262000
7.512500 19.356500
7.526100 21.085700
7.539700 20.301600
7.553300 17.391800
7.566900 14.852100
7.580500 11.182300
7.594100 11.163300
7.607700 11.486900
7.621300 12.038800
7.634900 12.819000
7.648500 13.649700
7.662100 14.011100
7.675700 14.395200
7.689300 14.742900
7.702900 15.054100
7.716500 22.498300
7.730100 21.546700
7.743700 21.772100
7.757200 21.196400
7.770800 19.930400
7.784400 18.183300
7.798000 16.473300
7.811600 16.974200
7.825200 16.822200
7.838800 17.308800
7.852400 18.608800
7.866000 18.339000
7.879600 19.601500
7.893200 24.687500
7.906800 25.376600
7.920400 26.311500
7.934000 27.088900
7.947600 24.425400
7.961200 17.895300
7.974800 15.221400
7.988400 16.568300
8.001900 17.491000
8.015500 18.700700
8.029100 20.046900
8.042700 21.203400
8.056300 21.809100
8.069900 22.354600
8.083500 21.720600
8.097100 21.153000
8.110700 20.797100
8.124300 29.025500
8.137900 33.661100
8.151500 38.912800
8.165100 40.777000
8.178700 37.318700
8.192300 21.607600
8.205900 14.730300
8.219500 11.393300
8.233100 11.177600
8.246700 12.670900
8.260200 15.245400
8.273800 18.138900
8.287400 20.803600
8.301000 23.876100
8.314600 25.245500
8.328200 22.323400
8.341800 16.214800
8.355400 13.417800
8.369000 13.239000
8.382600 12.706700
8.396200 11.856300
8.409800 12.534200
8.423400 13.930400
8.437000 16.002500
8.450600 16.332000
8.464200 16.956800
8.477800 18.665400
8.491400 20.617400
8.504900 22.683300
8.518500 24.403800
8.532100 25.866800
8.545700 28.269900
8.559300 23.370100
8.572900 20.063500
8.586500 17.484500
8.600100 14.925500
8.613700 12.141500
8.627300 9.520700
8.640900 7.082300
8.654500 4.826200
8.668100 2.755800
8.681700 2.320400
8.695300 5.563300
8.708900 11.958700
8.722500 19.790100
8.736100 26.828700
8.749600 39.077000
8.763200 47.031500
8.776800 46.181600
8.790400 38.740900
8.804000 28.233500
8.817600 15.888700
8.831200 6.704600
8.844800 3.919300
8.858400 1.877300
8.872000 0.772900
8.885600 10.313700
8.899200 21.150200
8.912800 31.209500
8.926400 41.334800
8.940000 43.456500
8.953600 42.585800
8.967200 36.947500
8.980800 29.189500
8.994300 19.481200
9.007900 12.871500
9.021500 4.974300
9.035100 6.291700
9.048700 10.928700
9.062300 14.750300
9.075900 16.114900
9.089500 17.621900
9.103100 19.306800
9.116700 21.986000
9.130300 20.953300
9.143900 21.857100
9.157500 22.630600
9.171100 23.797200
9.184700 23.816300
9.198300 22.613200
9.211900 20.815400
9.225500 21.224700
9.239000 21.807100
9.252600 22.224900
9.266200 22.697200
9.279800 22.812400
9.293400 22.860800
9.307000 23.426200
9.320600 24.231700
9.334200 24.403800
9.347800 24.910500
9.361400 26.250600
9.375000 28.103100
9.388600 27.448300
9.402200 15.618800
9.415800 13.584700
9.429400 13.085300
9.443000 12.819600
9.456600 21.779000
9.470200 28.776500
9.483700 29.686400
9.497300 29.770300
9.510900 29.292400
9.524500 29.536000
9.538100 28.241100
9.551700 26.848300
9.565300 15.837700
9.578900 12.751100
9.592500 11.876300
9.606100 11.538800
9.619700 14.143800
9.633300 20.312200
9.646900 26.114800
9.660500 25.377200
9.674100 24.174500
9.687700 22.789500
9.701300 23.517500
9.714900 25.528800
9.728400 27.932900
9.742000 32.325400
9.755600 27.425700
9.769200 22.782100
9.782800 19.470600
9.796400 12.974000
9.810000 13.749200
9.823600 14.382900
9.837200 14.896600
9.850800 15.387800
9.864400 15.908100
9.878000 16.371300
9.891600 16.777600
9.905200 17.214400
9.918800 20.899600
9.932400 22.979100
9.946000 22.578000
9.959600 19.894500
9.973100 23.020400
9.986700 20.429800
10.000300 6.765400
10.013900 8.938500
10.027500 11.770800
10.041100 14.444400
10.054700 16.948800
10.068300 19.284100
10.081900 22.573200
10.095500 25.058800
10.109100 27.465600
10.122700 29.388200
10.136300 28.770600
10.149900 27.085600
10.163500 25.217500
10.177100 23.166600
10.190700 20.524300
10.204300 13.568200
10.217800 14.148400
10.231400 15.546500
10.245000 16.953500
10.258600 18.360600
10.272200 20.338000
10.285800 22.972300
10.299400 25.902100
10.313000 28.755000
10.326600 40.157300
10.340200 36.539600
10.353800 28.641700
10.367400 25.640900
10.381000 23.634500
10.394600 21.264400
10.408200 88.488700
10.421800 18.234900
10.435400 17.296700
10.449000 16.009200
10.462500 14.865200
10.476100 15.581100
10.489700 16.446500
10.503300 17.373600
10.516900 18.348200
10.530500 19.304800
10.544100 19.923500
10.557700 21.643300
10.571300 18.095400
10.584900 17.079000
10.598500 17.167000
10.612100 17.151900
10.625700 17.040700
10.639300 17.016100
10.652900 17.161700
10.666500 16.907700
10.680100 16.765900
10.693700 18.392600
10.707200 19.934100
10.720800 21.748800
10.734400 23.374500
10.748000 24.586800
10.761600 26.062600
10.775200 21.327600
10.788800 19.436300
10.802400 18.841100
10.816000 20.227500
10.829600 22.178700
10.843200 23.687000
10.856800 22.305500
10.870400 16.998200
10.884000 15.198400
10.897600 13.924800
10.911200 12.391200
10.924800 10.597600
10.938400 8.678600
10.951900 7.665900
10.965500 6.626900
10.979100 5.561700
10.992700 4.944500
11.006300 11.188900
11.019900 13.986800
11.033500 17.207400
11.047100 19.015800
11.060700 19.875000
11.074300 21.703600
11.087900 24.090300
11.101500 26.443500
11.115100 28.801600
11.128700 25.266500
11.142300 23.076400
11.155900 20.095500
11.169500 17.298700
11.183100 16.706800
11.196600 17.293600
11.210200 18.143100
11.223800 19.468700
11.237400 20.973600
11.251000 21.634200
11.264600 21.529500
11.278200 20.754000
11.291800 19.910000
11.305400 19.122000
11.319000 17.855600
11.332600 16.441000
11.346200 15.067200
11.359800 13.742500
11.373400 12.573300
11.387000 11.476600
11.400600 11.870300
11.414200 14.069900
11.427800 15.609500
11.441300 17.250700
11.454900 18.879700
11.468500 20.213900
11.482100 21.843700
11.495700 21.721800
11.509300 20.999600
11.522900 21.338100
11.536500 21.328000
11.550100 20.824700
11.563700 19.731700
11.577300 18.297300
11.590900 16.708300
11.604500 14.947400
11.618100 17.128500
11.631700 21.209500
11.645300 22.925900
11.658900 24.631700
11.672500 26.951400
11.686000 30.621400
11.699600 31.856200
11.713200 33.290100
11.726800 32.448900
11.740400 21.134500
11.754000 12.631100
11.767600 12.003300
11.781200 11.750500
11.794800 11.872800
11.808400 12.353500
11.822000 13.706800
11.835600 15.010300
11.849200 14.493900
11.862800 15.493500
11.876400 16.626200
11.890000 17.868000
11.903600 19.218700
11.917200 20.679100
11.930700 22.557900
11.944300 24.479000
11.957900 24.489700
11.971500 22.774100
11.985100 18.991500
11.998700 15.659400
12.012300 18.838400
12.025900 29.642300
12.039500 38.539900
12.053100 29.850300
12.066700 31.442700
12.080300 30.935800
12.093900 28.508800
12.107500 25.858900
12.121100 23.680600
12.134700 22.152000
12.148300 20.517700
12.161900 18.022200
12.175400 18.818800
12.189000 14.101800
12.202600 14.146600
12.216200 14.843100
12.229800 15.579700
12.243400 16.515900
12.257000 17.707000
12.270600 18.282700
12.284200 17.015400
12.297800 15.361100
12.311400 15.632200
12.325000 16.118200
12.338600 16.655700
12.352200 17.049400
12.365800 16.767200
12.379400 17.449600
12.393000 18.983600
12.406600 29.855100
12.420100 29.892500
12.433700 27.983600
12.447300 27.444200
12.460900 27.446900
12.474500 27.118600
12.488100 26.597100
12.501700 24.617800
12.515300 20.997300
12.528900 17.422500
12.542500 14.523200
12.556100 13.169300
12.569700 22.617100
12.583300 25.353300
12.596900 26.029600
12.610500 25.519200
12.624100 24.614300
12.637700 22.868000
12.651300 21.959000
12.664800 21.491800
12.678400 21.026500
12.692000 19.339800
12.705600 17.501800
12.719200 15.641700
12.732800 13.868900
12.746400 12.183200
12.760000 11.097100
12.773600 10.980600
12.787200 11.329700
12.800800 10.255500
12.814400 11.705200
12.828000 15.042000
12.841600 18.259500
12.855200 20.698600
12.868800 27.073700
12.882400 26.422900
12.896000 25.632000
12.909600 24.658100
12.923100 25.259000
12.936700 27.614500
12.950300 33.221800
12.963900 31.159800
12.977500 28.849800
12.991100 26.904200
13.004700 22.267900
13.018300 20.909800
13.031900 20.170000
13.045500 20.708300
13.059100 21.833800
13.072700 21.933100
13.086300 21.424100
13.099900 20.048800
13.113500 19.842600
13.127100 19.870500
13.140700 22.970100
13.154300 18.671300
13.167800 19.905200
13.181400 21.486500
13.195000 22.360000
13.208600 23.389100
13.222200 24.954900
13.235800 29.209200
13.249400 33.112500
13.263000 30.576600
13.276600 25.056500
13.290200 18.063800
13.303800 11.240100
13.317400 8.204100
13.331000 6.601400
13.344600 5.454700
13.358200 4.371400
13.371800 3.278600
13.385400 13.912200
13.399000 19.034200
13.412500 25.021600
13.426100 31.874400
13.439700 37.369600
13.453300 30.560800
13.466900 23.793600
13.480500 28.339200
13.494100 21.540900
13.507700 14.262200
13.521300 12.821500
13.534900 11.519900
13.548500 9.906100
13.562100 7.933000
13.575700 5.943200
13.589300 3.249500
13.602900 0.099500
13.616500 0.000000
13.630100 0.000000
13.643700 0.000000
13.657200 0.000000
13.670800 0.000000
13.684400 0.000000
13.698000 0.000000
13.711600 0.000000
13.725200 0.000000
13.738800 0.000000
13.752400 0.000000
13.766000 0.000000
13.779600 0.000000
13.793200 0.000000
13.806800 0.000000
13.820400 0.000000
13.834000 0.000000
13.847600 0.000000
13.861200 0.000000
13.874800 0.000000
13.888400 0.000000
13.901900 0.000000
13.915500 0.000000
13.929100 0.000000
13.942700 0.000000
13.956300 0.000000
13.969900 0.000000
13.983500 0.000000
13.997100 0.000000
14.010700 0.000000
14.024300 0.000000
14.037900 0.000000
14.051500 0.000000
14.065100 0.000000
14.078700 0.000000
14.092300 0.000000
14.105900 0.000000
14.119500 0.000000
14.133100 0.000000
14.146600 0.000000
14.160200 0.000000
14.173800 0.000000
14.187400 0.000000
14.201000 0.000000
14.214600 0.000000
14.228200 0.000000
14.241800 0.000000
14.255400 0.000000
14.269000 0.000000
14.282600 0.000000
14.296200 0.000000
14.309800 0.000000
14.323400 0.000000
14.337000 0.000000
14.350600 0.000000
14.364200 0.000000
14.377800 0.000000
14.391300 0.000000
14.404900 0.000000
14.418500 0.000000
14.432100 0.000000
14.445700 0.000000
14.459300 0.000000
14.472900 0.000000
14.486500 0.000000
14.500100 0.000000
14.513700 0.000000
14.527300 0.000000
14.540900 0.000000
14.554500 0.000000
14.568100 0.000000
14.581700 0.000000
14.595300 0.000000
14.608900 0.000000
14.622500 0.000000
14.636000 0.000000
14.649600 0.000000
14.663200 0.000000
14.676800 0.000000
14.690400 0.000000
14.704000 0.000000
14.717600 0.000000
14.731200 0.000000
14.744800 0.000000
14.758400 0.000000
14.772000 0.000000
14.785600 0.000000
14.799200 0.000000
14.812800 0.000000
14.826400 0.000000
14.840000 0.000000
e
