set title 'mp-21848 - Density of States'
set xlabel 'Energy (eV)'
set ylabel 'DOS (states/eV)'
set grid
set xrange [-10:10]
set yrange [0:30.585]
set xzeroaxis lt -1
set terminal png size 800,600
set output 'mp-21848_dos_gnuplot.png'
plot '-' using 1:2 with lines title 'DOS'
-29.205300 0.000000
-29.172700 0.000000
-29.140100 0.000000
-29.107500 0.000000
-29.074900 0.000000
-29.042300 0.000000
-29.009700 0.000000
-28.977100 0.000000
-28.944500 0.000000
-28.911900 0.000000
-28.879200 0.000000
-28.846600 0.000000
-28.814000 0.000000
-28.781400 0.000000
-28.748800 0.000000
-28.716200 0.000000
-28.683600 0.000000
-28.651000 0.000000
-28.618400 0.000000
-28.585800 0.000000
-28.553200 0.000000
-28.520600 0.000000
-28.488000 0.000000
-28.455400 0.000000
-28.422800 0.000000
-28.390200 0.000000
-28.357600 0.000000
-28.325000 0.000000
-28.292400 0.000000
-28.259800 0.000000
-28.227200 0.000000
-28.194600 0.000000
-28.162000 0.000000
-28.129400 0.000000
-28.096800 0.000000
-28.064200 0.000000
-28.031600 0.000000
-27.999000 0.000000
-27.966400 0.000000
-27.933700 0.000000
-27.901100 0.000000
-27.868500 0.000000
-27.835900 0.000000
-27.803300 0.000000
-27.770700 0.000000
-27.738100 0.000000
-27.705500 0.000000
-27.672900 0.000000
-27.640300 0.000000
-27.607700 0.000000
-27.575100 0.000000
-27.542500 0.000000
-27.509900 0.000000
-27.477300 0.000000
-27.444700 0.000000
-27.412100 0.000000
-27.379500 0.000000
-27.346900 0.000000
-27.314300 0.000000
-27.281700 0.000000
-27.249100 0.000000
-27.216500 0.000000
-27.183900 0.000000
-27.151300 0.000000
-27.118700 0.000000
-27.086100 0.000000
-27.053500 0.000000
-27.020800 0.000000
-26.988200 0.000000
-26.955600 0.000000
-26.923000 0.000000
-26.890400 0.000000
-26.857800 0.000000
-26.825200 0.000000
-26.792600 0.000000
-26.760000 0.000000
-26.727400 0.000000
-26.694800 0.000000
-26.662200 0.000000
-26.629600 0.000000
-26.597000 0.000000
-26.564400 0.000000
-26.531800 0.000000
-26.499200 0.000000
-26.466600 0.000000
-26.434000 0.000000
-26.401400 0.000000
-26.368800 0.000000
-26.336200 0.000000
-26.303600 0.000000
-26.271000 0.000000
-26.238400 0.004700
-26.205800 0.336300
-26.173200 0.495800
-26.140600 0.608700
-26.108000 0.729200
-26.075300 0.858000
-26.042700 0.943200
-26.010100 1.038200
-25.977500 1.154600
-25.944900 1.254000
-25.912300 1.351700
-25.879700 1.460700
-25.847100 1.576400
-25.814500 2.041700
-25.781900 1.999800
-25.749300 1.848000
-25.716700 1.784100
-25.684100 2.296300
-25.651500 2.445100
-25.618900 2.629900
-25.586300 2.899900
-25.553700 3.203400
-25.521100 3.898600
-25.488500 4.795000
-25.455900 5.680700
-25.423300 5.022800
-25.390700 5.197900
-25.358100 2.537200
-25.325500 1.468300
-25.292900 0.802500
-25.260300 1.868200
-25.227700 2.656500
-25.195100 4.693900
-25.162500 11.559500
-25.129800 6.642100
-25.097200 5.670400
-25.064600 4.705100
-25.032000 23.533300
-24.999400 5.343200
-24.966800 0.898100
-24.934200 3.132300
-24.901600 6.684000
-24.869000 7.603200
-24.836400 8.400700
-24.803800 5.852200
-24.771200 2.829500
-24.738600 5.830500
-24.706000 5.969100
-24.673400 4.781800
-24.640800 4.777600
-24.608200 5.020100
-24.575600 5.463700
-24.543000 5.954500
-24.510400 6.653800
-24.477800 7.817400
-24.445200 10.858100
-24.412600 27.976400
-24.380000 0.000000
-24.347400 0.000000
-24.314800 0.000000
-24.282200 0.000000
-24.249600 0.000000
-24.217000 0.000000
-24.184300 0.000000
-24.151700 0.000000
-24.119100 0.000000
-24.086500 0.000000
-24.053900 0.000000
-24.021300 0.000000
-23.988700 0.000000
-23.956100 0.000000
-23.923500 0.000000
-23.890900 0.000000
-23.858300 0.000000
-23.825700 0.000000
-23.793100 0.000000
-23.760500 0.000000
-23.727900 0.000000
-23.695300 0.000000
-23.662700 0.000000
-23.630100 0.000000
-23.597500 0.000000
-23.564900 0.000000
-23.532300 0.000000
-23.499700 0.000000
-23.467100 0.000000
-23.434500 0.000000
-23.401900 0.000000
-23.369300 0.000000
-23.336700 0.000000
-23.304100 0.000000
-23.271500 0.000000
-23.238800 0.000000
-23.206200 0.000000
-23.173600 0.000000
-23.141000 0.000000
-23.108400 0.000000
-23.075800 0.000000
-23.043200 0.000000
-23.010600 0.000000
-22.978000 0.000000
-22.945400 0.000000
-22.912800 0.000000
-22.880200 0.000000
-22.847600 0.000000
-22.815000 0.000000
-22.782400 0.000000
-22.749800 0.000000
-22.717200 0.000000
-22.684600 0.000000
-22.652000 0.000000
-22.619400 0.000000
-22.586800 0.000000
-22.554200 0.000000
-22.521600 0.000000
-22.489000 0.000000
-22.456400 0.000000
-22.423800 0.000000
-22.391200 0.000000
-22.358600 0.000000
-22.326000 0.000000
-22.293300 0.000000
-22.260700 0.000000
-22.228100 0.000000
-22.195500 0.000000
-22.162900 0.000000
-22.130300 0.000000
-22.097700 0.000000
-22.065100 0.000000
-22.032500 0.000000
-21.999900 0.000000
-21.967300 0.000000
-21.934700 0.000000
-21.902100 0.000000
-21.869500 0.000000
-21.836900 0.000000
-21.804300 0.000000
-21.771700 0.000000
-21.739100 0.000000
-21.706500 0.000000
-21.673900 0.000000
-21.641300 0.000000
-21.608700 0.000000
-21.576100 0.000000
-21.543500 0.000000
-21.510900 0.000000
-21.478300 0.000000
-21.445700 0.000000
-21.413100 0.000000
-21.380400 0.000000
-21.347800 0.000000
-21.315200 0.000000
-21.282600 0.000000
-21.250000 0.000000
-21.217400 0.000000
-21.184800 0.000000
-21.152200 0.000000
-21.119600 0.000000
-21.087000 0.000000
-21.054400 0.000000
-21.021800 0.000000
-20.989200 0.000000
-20.956600 0.000000
-20.924000 0.000000
-20.891400 0.000000
-20.858800 0.000000
-20.826200 0.000000
-20.793600 0.000000
-20.761000 0.000000
-20.728400 0.000000
-20.695800 0.000000
-20.663200 0.000000
-20.630600 0.000000
-20.598000 0.000000
-20.565400 0.000000
-20.532800 0.000000
-20.500200 0.000000
-20.467600 0.000000
-20.434900 0.000000
-20.402300 0.000000
-20.369700 0.000000
-20.337100 0.000000
-20.304500 0.000000
-20.271900 0.000000
-20.239300 0.000000
-20.206700 0.000000
-20.174100 0.000000
-20.141500 0.000000
-20.108900 0.000000
-20.076300 0.000000
-20.043700 0.000000
-20.011100 0.000000
-19.978500 0.000000
-19.945900 0.000000
-19.913300 0.000000
-19.880700 0.000000
-19.848100 0.000000
-19.815500 0.000000
-19.782900 0.000000
-19.750300 0.000000
-19.717700 0.000000
-19.685100 0.000000
-19.652500 0.000000
-19.619900 0.000000
-19.587300 0.000000
-19.554700 0.000000
-19.522100 0.000000
-19.489400 0.000000
-19.456800 0.000000
-19.424200 0.000000
-19.391600 0.000000
-19.359000 0.000000
-19.326400 0.000000
-19.293800 0.000000
-19.261200 0.000000
-19.228600 0.000000
-19.196000 0.000000
-19.163400 0.000000
-19.130800 0.000000
-19.098200 0.000000
-19.065600 0.000000
-19.033000 0.000000
-19.000400 0.000000
-18.967800 0.000000
-18.935200 0.000000
-18.902600 0.000000
-18.870000 0.000000
-18.837400 0.000000
-18.804800 0.000000
-18.772200 0.000000
-18.739600 0.000000
-18.707000 0.000000
-18.674400 0.000000
-18.641800 0.000000
-18.609200 0.000000
-18.576600 0.000000
-18.543900 0.000000
-18.511300 0.000000
-18.478700 0.000000
-18.446100 0.000000
-18.413500 0.000000
-18.380900 0.000000
-18.348300 0.000000
-18.315700 0.000000
-18.283100 0.000000
-18.250500 0.000000
-18.217900 0.000000
-18.185300 0.000000
-18.152700 0.000000
-18.120100 0.000000
-18.087500 0.000000
-18.054900 0.000000
-18.022300 0.000000
-17.989700 0.000000
-17.957100 0.000000
-17.924500 0.000000
-17.891900 0.000000
-17.859300 0.000000
-17.826700 0.000000
-17.794100 0.000000
-17.761500 0.000000
-17.728900 0.000000
-17.696300 0.000000
-17.663700 0.000000
-17.631100 0.000000
-17.598400 0.000000
-17.565800 0.000000
-17.533200 0.000000
-17.500600 0.000000
-17.468000 0.000000
-17.435400 0.000000
-17.402800 0.000000
-17.370200 0.000000
-17.337600 0.000000
-17.305000 0.000000
-17.272400 0.000000
-17.239800 0.000000
-17.207200 0.000000
-17.174600 0.000000
-17.142000 0.000000
-17.109400 0.000000
-17.076800 0.000000
-17.044200 0.000000
-17.011600 0.000000
-16.979000 0.000000
-16.946400 0.000000
-16.913800 0.000000
-16.881200 0.000000
-16.848600 0.000000
-16.816000 0.000000
-16.783400 0.000000
-16.750800 0.000000
-16.718200 0.000000
-16.685600 0.000000
-16.652900 0.000000
-16.620300 0.000000
-16.587700 0.000000
-16.555100 0.000000
-16.522500 0.000000
-16.489900 0.000000
-16.457300 0.000000
-16.424700 0.000000
-16.392100 0.000000
-16.359500 0.000000
-16.326900 0.000000
-16.294300 0.000000
-16.261700 0.000000
-16.229100 0.000000
-16.196500 0.000000
-16.163900 0.000000
-16.131300 0.000000
-16.098700 0.000000
-16.066100 0.000000
-16.033500 0.000000
-16.000900 0.000000
-15.968300 0.000000
-15.935700 0.000000
-15.903100 0.000000
-15.870500 0.000000
-15.837900 0.000000
-15.805300 0.000000
-15.772700 0.000000
-15.740000 0.000000
-15.707400 0.000000
-15.674800 0.000000
-15.642200 0.000000
-15.609600 0.000000
-15.577000 0.000000
-15.544400 0.000000
-15.511800 0.000000
-15.479200 0.000000
-15.446600 0.000000
-15.414000 0.000000
-15.381400 0.000000
-15.348800 0.000000
-15.316200 0.000000
-15.283600 0.000000
-15.251000 0.000000
-15.218400 0.000000
-15.185800 0.000000
-15.153200 0.000000
-15.120600 0.000000
-15.088000 0.000000
-15.055400 0.000000
-15.022800 0.000000
-14.990200 0.000000
-14.957600 0.000000
-14.925000 0.000000
-14.892400 0.000000
-14.859800 0.000000
-14.827200 0.000000
-14.794500 0.000000
-14.761900 0.000000
-14.729300 0.000000
-14.696700 0.000000
-14.664100 0.000000
-14.631500 0.000000
-14.598900 0.000000
-14.566300 0.000000
-14.533700 0.000000
-14.501100 0.000000
-14.468500 0.000000
-14.435900 0.000000
-14.403300 0.000000
-14.370700 0.000000
-14.338100 0.000000
-14.305500 0.000000
-14.272900 0.000000
-14.240300 0.000000
-14.207700 0.000000
-14.175100 0.000000
-14.142500 0.000000
-14.109900 0.000000
-14.077300 0.000000
-14.044700 0.000000
-14.012100 0.000000
-13.979500 0.000000
-13.946900 0.000000
-13.914300 0.000000
-13.881700 0.000000
-13.849000 0.000000
-13.816400 0.000000
-13.783800 0.000000
-13.751200 0.000000
-13.718600 0.000000
-13.686000 0.000000
-13.653400 0.000000
-13.620800 0.000000
-13.588200 0.000000
-13.555600 0.000000
-13.523000 0.000000
-13.490400 0.000000
-13.457800 0.000000
-13.425200 0.000000
-13.392600 0.000000
-13.360000 0.000000
-13.327400 0.000000
-13.294800 0.000000
-13.262200 0.000000
-13.229600 0.000000
-13.197000 0.000000
-13.164400 0.000000
-13.131800 0.000000
-13.099200 0.000000
-13.066600 0.000000
-13.034000 0.000000
-13.001400 0.000000
-12.968800 0.000000
-12.936200 0.000000
-12.903500 0.000000
-12.870900 0.000000
-12.838300 0.000000
-12.805700 0.000000
-12.773100 0.000000
-12.740500 0.000000
-12.707900 0.000000
-12.675300 0.000000
-12.642700 0.000000
-12.610100 0.000000
-12.577500 0.000000
-12.544900 0.000000
-12.512300 0.000000
-12.479700 0.000000
-12.447100 0.000000
-12.414500 0.000000
-12.381900 0.000000
-12.349300 0.000000
-12.316700 0.000000
-12.284100 0.000000
-12.251500 0.000000
-12.218900 0.000000
-12.186300 0.000000
-12.153700 0.000000
-12.121100 0.000000
-12.088500 0.000000
-12.055900 0.000000
-12.023300 0.000000
-11.990700 0.000000
-11.958000 0.000000
-11.925400 0.000000
-11.892800 0.000000
-11.860200 0.000000
-11.827600 0.000000
-11.795000 0.000000
-11.762400 0.000000
-11.729800 0.000000
-11.697200 0.000000
-11.664600 0.000000
-11.632000 0.000000
-11.599400 0.000000
-11.566800 0.000000
-11.534200 0.000000
-11.501600 0.000000
-11.469000 0.000000
-11.436400 0.000000
-11.403800 0.000000
-11.371200 0.000000
-11.338600 0.000000
-11.306000 0.000000
-11.273400 0.000000
-11.240800 0.000000
-11.208200 0.000000
-11.175600 0.000000
-11.143000 0.000000
-11.110400 0.000000
-11.077800 0.000000
-11.045200 0.000000
-11.012500 0.000000
-10.979900 0.000000
-10.947300 0.000000
-10.914700 0.000000
-10.882100 0.000000
-10.849500 0.000000
-10.816900 0.000000
-10.784300 0.000000
-10.751700 0.000000
-10.719100 0.000000
-10.686500 0.000000
-10.653900 0.000000
-10.621300 0.000000
-10.588700 0.000000
-10.556100 0.000000
-10.523500 0.000000
-10.490900 0.000000
-10.458300 0.000000
-10.425700 0.000000
-10.393100 0.000000
-10.360500 0.000000
-10.327900 0.000000
-10.295300 0.000000
-10.262700 0.000000
-10.230100 0.000000
-10.197500 0.000000
-10.164900 0.000000
-10.132300 0.000000
-10.099600 0.000000
-10.067000 0.000000
-10.034400 0.000000
-10.001800 0.000000
-9.969200 0.000000
-9.936600 0.000000
-9.904000 0.000000
-9.871400 0.000000
-9.838800 0.000000
-9.806200 0.000000
-9.773600 0.000000
-9.741000 0.000000
-9.708400 0.000000
-9.675800 0.000000
-9.643200 0.000000
-9.610600 0.000000
-9.578000 0.000000
-9.545400 0.000000
-9.512800 0.000000
-9.480200 0.000000
-9.447600 0.000000
-9.415000 0.000000
-9.382400 0.000000
-9.349800 0.000000
-9.317200 0.000000
-9.284600 0.000000
-9.252000 0.000000
-9.219400 0.000000
-9.186800 0.000000
-9.154100 0.000000
-9.121500 0.000000
-9.088900 0.000000
-9.056300 0.000000
-9.023700 0.000000
-8.991100 0.000000
-8.958500 0.000000
-8.925900 0.000000
-8.893300 0.000000
-8.860700 0.000000
-8.828100 0.000000
-8.795500 0.000000
-8.762900 0.000000
-8.730300 0.000000
-8.697700 0.000000
-8.665100 0.000000
-8.632500 0.000000
-8.599900 0.000000
-8.567300 0.000000
-8.534700 0.000000
-8.502100 0.000000
-8.469500 0.000000
-8.436900 0.000000
-8.404300 0.472700
-8.371700 1.009800
-8.339100 1.336800
-8.306500 1.719100
-8.273900 2.228100
-8.241300 4.672400
-8.208600 5.236500
-8.176000 3.371500
-8.143400 2.356100
-8.110800 2.886900
-8.078200 2.237000
-8.045600 2.511400
-8.013000 2.979300
-7.980400 2.968300
-7.947800 2.946300
-7.915200 3.960300
-7.882600 4.754000
-7.850000 5.887000
-7.817400 5.787100
-7.784800 5.264500
-7.752200 5.415200
-7.719600 5.431300
-7.687000 5.502500
-7.654400 5.330500
-7.621800 5.213000
-7.589200 5.212500
-7.556600 5.443400
-7.524000 6.282100
-7.491400 8.424600
-7.458800 5.676100
-7.426200 4.245300
-7.393600 6.677200
-7.361000 6.783300
-7.328400 9.382900
-7.295800 7.138500
-7.263100 10.786200
-7.230500 9.098500
-7.197900 5.842100
-7.165300 4.055300
-7.132700 3.329600
-7.100100 2.853800
-7.067500 2.441700
-7.034900 1.939700
-7.002300 1.978400
-6.969700 2.434200
-6.937100 2.627500
-6.904500 2.543500
-6.871900 2.606700
-6.839300 2.700200
-6.806700 3.088600
-6.774100 4.704900
-6.741500 5.099000
-6.708900 1.771500
-6.676300 2.053400
-6.643700 2.412000
-6.611100 2.747800
-6.578500 3.171400
-6.545900 4.040300
-6.513300 7.737500
-6.480700 3.563200
-6.448100 4.211900
-6.415500 5.050600
-6.382900 6.554200
-6.350300 3.751700
-6.317600 2.595400
-6.285000 2.852400
-6.252400 3.183800
-6.219800 5.497500
-6.187200 5.019200
-6.154600 4.185100
-6.122000 3.913200
-6.089400 4.097100
-6.056800 4.155700
-6.024200 4.352900
-5.991600 4.913100
-5.959000 5.490500
-5.926400 9.927600
-5.893800 6.689500
-5.861200 7.193800
-5.828600 7.692700
-5.796000 9.011300
-5.763400 6.887900
-5.730800 7.792700
-5.698200 6.270100
-5.665600 9.747400
-5.633000 8.796100
-5.600400 8.978700
-5.567800 7.188800
-5.535200 8.983000
-5.502600 8.434600
-5.470000 7.761200
-5.437400 7.617100
-5.404800 13.547000
-5.372100 19.558800
-5.339500 17.092100
-5.306900 21.365500
-5.274300 27.804100
-5.241700 19.786400
-5.209100 16.957100
-5.176500 14.387300
-5.143900 12.347800
-5.111300 13.432300
-5.078700 15.575500
-5.046100 11.621300
-5.013500 13.749500
-4.980900 8.102100
-4.948300 2.521100
-4.915700 2.308200
-4.883100 2.154500
-4.850500 2.157900
-4.817900 2.203800
-4.785300 2.247200
-4.752700 2.789300
-4.720100 2.867200
-4.687500 2.848000
-4.654900 2.804000
-4.622300 2.858900
-4.589700 3.260100
-4.557100 7.161600
-4.524500 7.364900
-4.491900 3.260100
-4.459200 0.000000
-4.426600 0.000000
-4.394000 0.000000
-4.361400 0.000000
-4.328800 0.000000
-4.296200 0.000000
-4.263600 0.000000
-4.231000 0.000000
-4.198400 0.000000
-4.165800 0.000000
-4.133200 0.000000
-4.100600 0.000000
-4.068000 0.000000
-4.035400 0.000000
-4.002800 0.000000
-3.970200 0.000000
-3.937600 0.000000
-3.905000 0.000000
-3.872400 0.000000
-3.839800 0.000000
-3.807200 0.000000
-3.774600 0.000000
-3.742000 0.000000
-3.709400 0.000000
-3.676800 0.000000
-3.644200 0.000000
-3.611600 0.000000
-3.579000 0.000000
-3.546400 0.000000
-3.513700 0.000000
-3.481100 0.000000
-3.448500 0.000000
-3.415900 0.000000
-3.383300 0.000000
-3.350700 0.000000
-3.318100 0.000000
-3.285500 0.000000
-3.252900 0.000000
-3.220300 0.000000
-3.187700 0.000000
-3.155100 0.000000
-3.122500 0.000000
-3.089900 0.000000
-3.057300 0.000000
-3.024700 0.000000
-2.992100 0.000000
-2.959500 0.000000
-2.926900 0.000000
-2.894300 0.000000
-2.861700 0.000000
-2.829100 0.000000
-2.796500 0.000000
-2.763900 0.000000
-2.731300 0.000000
-2.698700 0.000000
-2.666100 0.000000
-2.633500 0.000000
-2.600900 0.000000
-2.568200 0.000000
-2.535600 0.000000
-2.503000 0.000000
-2.470400 0.000000
-2.437800 0.000000
-2.405200 0.000000
-2.372600 0.000000
-2.340000 0.000000
-2.307400 0.000000
-2.274800 0.000000
-2.242200 0.000000
-2.209600 0.000000
-2.177000 0.000000
-2.144400 0.000000
-2.111800 0.000000
-2.079200 0.000000
-2.046600 0.000000
-2.014000 0.000000
-1.981400 0.000000
-1.948800 0.000000
-1.916200 0.000000
-1.883600 0.000000
-1.851000 0.000000
-1.818400 0.000000
-1.785800 0.000000
-1.753200 0.000000
-1.720600 0.000000
-1.688000 0.000000
-1.655400 0.000000
-1.622700 0.000000
-1.590100 0.000000
-1.557500 0.000000
-1.524900 0.000000
-1.492300 0.000000
-1.459700 0.000000
-1.427100 0.000000
-1.394500 0.000000
-1.361900 0.000000
-1.329300 0.000000
-1.296700 0.000000
-1.264100 0.000000
-1.231500 0.000000
-1.198900 0.000000
-1.166300 0.000000
-1.133700 0.000000
-1.101100 0.000000
-1.068500 0.000000
-1.035900 0.000000
-1.003300 0.000000
-0.970700 0.000000
-0.938100 0.000000
-0.905500 0.000000
-0.872900 0.000000
-0.840300 0.000000
-0.807700 0.000000
-0.775100 0.000000
-0.742500 0.000000
-0.709900 0.000000
-0.677200 0.000000
-0.644600 0.000000
-0.612000 0.000000
-0.579400 0.000000
-0.546800 0.000000
-0.514200 0.000000
-0.481600 0.000000
-0.449000 0.000000
-0.416400 0.000000
-0.383800 0.000000
-0.351200 0.000000
-0.318600 0.000000
-0.286000 0.000000
-0.253400 0.000000
-0.220800 0.000000
-0.188200 0.000000
-0.155600 0.000000
-0.123000 0.000000
-0.090400 0.000000
-0.057800 0.000000
-0.025200 0.000000
0.007400 0.000000
0.040000 0.000000
0.072600 0.000000
0.105200 0.000000
0.137800 0.000000
0.170400 0.000000
0.203000 0.000000
0.235600 0.000000
0.268300 0.000000
0.300900 0.000000
0.333500 0.000000
0.366100 0.000000
0.398700 0.000000
0.431300 0.000000
0.463900 0.000000
0.496500 0.000000
0.529100 0.000000
0.561700 0.000000
0.594300 0.000000
0.626900 0.000000
0.659500 0.000000
0.692100 0.000000
0.724700 0.000000
0.757300 0.000000
0.789900 0.000000
0.822500 0.000000
0.855100 0.000000
0.887700 0.000000
0.920300 0.000000
0.952900 0.000000
0.985500 0.000000
1.018100 0.000000
1.050700 0.000000
1.083300 0.000000
1.115900 0.000000
1.148500 0.000000
1.181200 0.000000
1.213800 0.000000
1.246400 0.000000
1.279000 0.000000
1.311600 0.000000
1.344200 0.000000
1.376800 0.000000
1.409400 0.000000
1.442000 0.000000
1.474600 0.000000
1.507200 0.000000
1.539800 0.000000
1.572400 0.000000
1.605000 0.000000
1.637600 0.000000
1.670200 0.000000
1.702800 0.000000
1.735400 0.000000
1.768000 0.000000
1.800600 0.000000
1.833200 0.000000
1.865800 0.000000
1.898400 0.000000
1.931000 0.000000
1.963600 0.000000
1.996200 0.000000
2.028800 0.000000
2.061400 0.000000
2.094000 0.000000
2.126700 0.000000
2.159300 0.000000
2.191900 0.000000
2.224500 0.000000
2.257100 0.000000
2.289700 0.000000
2.322300 0.000000
2.354900 0.000000
2.387500 0.000000
2.420100 0.000000
2.452700 0.000000
2.485300 0.000000
2.517900 0.000000
2.550500 0.000000
2.583100 0.000000
2.615700 0.000000
2.648300 0.000000
2.680900 0.000000
2.713500 0.000000
2.746100 0.000000
2.778700 0.000000
2.811300 0.000000
2.843900 0.000000
2.876500 0.000000
2.909100 0.000000
2.941700 0.000000
2.974300 0.000000
3.006900 0.000000
3.039500 0.000000
3.072200 0.000000
3.104800 0.000000
3.137400 0.000000
3.170000 0.000000
3.202600 0.000000
3.235200 0.000000
3.267800 0.000000
3.300400 0.000000
3.333000 0.000000
3.365600 0.000000
3.398200 0.000000
3.430800 0.000000
3.463400 0.000000
3.496000 0.000000
3.528600 0.000000
3.561200 0.000000
3.593800 0.000000
3.626400 0.000000
3.659000 0.000000
3.691600 0.000000
3.724200 0.000000
3.756800 0.000000
3.789400 0.000000
3.822000 0.000000
3.854600 0.000000
3.887200 0.000000
3.919800 0.000000
3.952400 0.000000
3.985000 0.000000
4.017700 0.000000
4.050300 0.000000
4.082900 0.000000
4.115500 0.000000
4.148100 0.000000
4.180700 0.000000
4.213300 0.000000
4.245900 0.000000
4.278500 0.000000
4.311100 0.000000
4.343700 0.000000
4.376300 0.000000
4.408900 0.000000
4.441500 0.000000
4.474100 0.000000
4.506700 0.000000
4.539300 0.000000
4.571900 0.000000
4.604500 0.000000
4.637100 0.000000
4.669700 0.000000
4.702300 0.000000
4.734900 0.000000
4.767500 0.000000
4.800100 0.000000
4.832700 0.000000
4.865300 0.000000
4.897900 0.000000
4.930500 0.000000
4.963200 0.000000
4.995800 0.000000
5.028400 0.000000
5.061000 0.000000
5.093600 0.000000
5.126200 0.000000
5.158800 0.000000
5.191400 0.000000
5.224000 0.000000
5.256600 0.000000
5.289200 0.000000
5.321800 0.000000
5.354400 0.000000
5.387000 0.000000
5.419600 0.000000
5.452200 0.000000
5.484800 0.000000
5.517400 0.000000
5.550000 0.000000
5.582600 0.000000
5.615200 0.000000
5.647800 0.000000
5.680400 0.000000
5.713000 0.000000
5.745600 0.000000
5.778200 0.000000
5.810800 0.000000
5.843400 0.000000
5.876000 0.000000
5.908700 0.000000
5.941300 0.000000
5.973900 0.000000
6.006500 0.000000
6.039100 0.000000
6.071700 0.000000
6.104300 0.000000
6.136900 0.000000
6.169500 0.000000
6.202100 0.000000
6.234700 0.000000
6.267300 0.000000
6.299900 0.000000
6.332500 0.000000
6.365100 0.000000
6.397700 0.000000
6.430300 0.000000
6.462900 0.000000
6.495500 0.000000
6.528100 0.000000
6.560700 0.000000
6.593300 0.000000
6.625900 0.000000
6.658500 0.000000
6.691100 0.000000
6.723700 0.000000
6.756300 0.000000
6.788900 0.000000
6.821600 0.000000
6.854200 0.000000
6.886800 0.000000
6.919400 0.000000
6.952000 0.000000
6.984600 0.000000
7.017200 0.000000
7.049800 0.000000
7.082400 0.000000
7.115000 0.000000
7.147600 0.000000
7.180200 0.000000
7.212800 0.000000
7.245400 0.000000
7.278000 0.000000
7.310600 0.000000
7.343200 0.000000
7.375800 0.000000
7.408400 0.000000
7.441000 0.000000
7.473600 0.000000
7.506200 0.000000
7.538800 0.000000
7.571400 0.000000
7.604000 0.000000
7.636600 0.000000
7.669200 0.000000
7.701800 0.000000
7.734400 0.000000
7.767100 0.000000
7.799700 0.000000
7.832300 0.000000
7.864900 0.000000
7.897500 0.000000
7.930100 0.000000
7.962700 0.000000
7.995300 0.000000
8.027900 0.000000
8.060500 0.000000
8.093100 0.000000
8.125700 0.000000
8.158300 0.000000
8.190900 0.000000
8.223500 0.000000
8.256100 0.000000
8.288700 0.000000
8.321300 0.000000
8.353900 0.000000
8.386500 0.000000
8.419100 0.000000
8.451700 0.000500
8.484300 0.008300
8.516900 0.025200
8.549500 0.048000
8.582100 0.063200
8.614700 0.069400
8.647300 0.071300
8.679900 0.076400
8.712600 0.084800
8.745200 0.094300
8.777800 0.104300
8.810400 0.113900
8.843000 0.120100
8.875600 0.122900
8.908200 0.125600
8.940800 0.129900
8.973400 0.135600
9.006000 0.141300
9.038600 0.146900
9.071200 0.152500
9.103800 0.158000
9.136400 0.163600
9.169000 0.169800
9.201600 0.176700
9.234200 0.183000
9.266800 0.187700
9.299400 0.191200
9.332000 0.195200
9.364600 0.199700
9.397200 0.204400
9.429800 0.208900
9.462400 0.213400
9.495000 0.217700
9.527600 0.222400
9.560200 0.227700
9.592800 0.233400
9.625400 0.239000
9.658100 0.244700
9.690700 0.250500
9.723300 0.256400
9.755900 0.262200
9.788500 0.267000
9.821100 0.270900
9.853700 0.274900
9.886300 0.279200
9.918900 0.283700
9.951500 0.288600
9.984100 0.293600
10.016700 0.298600
10.049300 0.303700
10.081900 0.308900
10.114500 0.314200
10.147100 0.319600
10.179700 0.324900
10.212300 0.330300
10.244900 0.335700
10.277500 0.341100
10.310100 0.346500
10.342700 0.351900
10.375300 0.379900
10.407900 0.449200
10.440500 0.484000
10.473100 0.455000
10.505700 0.438700
10.538300 0.442800
10.570900 0.446100
10.603600 0.448500
10.636200 0.442100
10.668800 0.425800
10.701400 0.417500
10.734000 0.414100
10.766600 0.410500
10.799200 0.406600
10.831800 0.402700
10.864400 0.399100
10.897000 0.397000
10.929600 0.394300
10.962200 0.384200
10.994800 0.375400
11.027400 0.370200
11.060000 0.364900
11.092600 0.422900
11.125200 0.514900
11.157800 0.502400
11.190400 0.486400
11.223000 0.502200
11.255600 0.518800
11.288200 0.536100
11.320800 0.537000
11.353400 0.528500
11.386000 0.534200
11.418600 0.541800
11.451200 0.549900
11.483800 0.558600
11.516400 0.567600
11.549100 0.578900
11.581700 0.587600
11.614300 0.588700
11.646900 0.594200
11.679500 0.601500
11.712100 0.608900
11.744700 0.616300
11.777300 0.625000
11.809900 0.718800
11.842500 0.704900
11.875100 0.644600
11.907700 0.648500
11.940300 0.656800
11.972900 0.685900
12.005500 0.690100
12.038100 0.702800
12.070700 0.715600
12.103300 0.728100
12.135900 0.738600
12.168500 0.746900
12.201100 0.755300
12.233700 0.763400
12.266300 0.771300
12.298900 0.811400
12.331500 0.918000
12.364100 0.817500
12.396700 0.801700
12.429300 0.781700
12.462000 0.869000
12.494600 0.786400
12.527200 0.771800
12.559800 0.762600
12.592400 0.760200
12.625000 0.747600
12.657600 0.748700
12.690200 0.746500
12.722800 0.750700
12.755400 0.755300
12.788000 0.760400
12.820600 0.814500
12.853200 0.830200
12.885800 0.832600
12.918400 0.961400
12.951000 0.891400
12.983600 0.884800
13.016200 0.874600
13.048800 0.900900
13.081400 0.909300
13.114000 1.000400
13.146600 1.038800
13.179200 1.075900
13.211800 1.123700
13.244400 1.174900
13.277000 1.189200
13.309600 1.131600
13.342200 1.095900
13.374800 1.056000
13.407500 1.006300
13.440100 0.978800
13.472700 1.079800
13.505300 1.204900
13.537900 1.224100
13.570500 1.093900
13.603100 1.056700
13.635700 1.047100
13.668300 1.207600
13.700900 1.413400
13.733500 1.374500
13.766100 1.340500
13.798700 1.172700
13.831300 1.237900
13.863900 1.143700
13.896500 1.152300
13.929100 1.174000
13.961700 1.219800
13.994300 1.257300
14.026900 1.289400
14.059500 1.441800
14.092100 1.421400
14.124700 1.471600
14.157300 1.469000
14.189900 1.367400
14.222500 1.339100
14.255100 1.349000
14.287700 1.680500
14.320300 1.388000
14.353000 1.570900
14.385600 1.580900
14.418200 1.570000
14.450800 1.824000
14.483400 1.761900
14.516000 1.702700
14.548600 1.738800
14.581200 1.768100
14.613800 1.864200
14.646400 1.963300
14.679000 2.033100
14.711600 1.973700
14.744200 2.032600
14.776800 2.058000
14.809400 2.277800
14.842000 2.429200
14.874600 2.601800
14.907200 2.610600
14.939800 2.624400
14.972400 2.676600
15.005000 2.234000
15.037600 2.224000
15.070200 1.272200
15.102800 1.297100
15.135400 1.321000
15.168000 1.295500
15.200600 1.310300
15.233200 1.384100
15.265800 1.419200
15.298500 1.501500
15.331100 1.677700
15.363700 1.891000
15.396300 1.988700
15.428900 2.083500
15.461500 2.173400
15.494100 2.072100
15.526700 2.046000
15.559300 1.989200
15.591900 1.823800
15.624500 1.715900
15.657100 1.931900
15.689700 1.873900
15.722300 1.665500
15.754900 1.126800
15.787500 1.208000
15.820100 1.242400
15.852700 1.300300
15.885300 1.400700
15.917900 1.539600
15.950500 1.677300
15.983100 1.995900
16.015700 1.833400
16.048300 2.117900
16.080900 2.436500
16.113500 2.798600
16.146100 3.456900
16.178700 3.861400
16.211300 2.986600
16.244000 2.651500
16.276600 1.609200
16.309200 1.469400
16.341800 1.424600
16.374400 1.434000
16.407000 1.420100
16.439600 1.399300
16.472200 1.352900
16.504800 1.343300
16.537400 1.330900
16.570000 1.318000
16.602600 1.242100
16.635200 1.163400
16.667800 1.081000
16.700400 0.986900
16.733000 0.858800
16.765600 0.758100
16.798200 0.670900
16.830800 0.612200
16.863400 0.578800
16.896000 0.550200
16.928600 0.999700
16.961200 0.996700
16.993800 1.238200
17.026400 1.249500
17.059000 1.473500
17.091600 1.945000
17.124200 2.633900
17.156800 2.564700
17.189500 2.059100
17.222100 1.760100
17.254700 1.813800
17.287300 1.947900
17.319900 2.162600
17.352500 3.011500
17.385100 2.541700
17.417700 2.131900
17.450300 1.873500
17.482900 1.640300
17.515500 1.393900
17.548100 1.375200
17.580700 1.530000
17.613300 1.852900
17.645900 2.014600
17.678500 2.011100
17.711100 2.016900
17.743700 1.961400
17.776300 1.941600
17.808900 1.980400
17.841500 2.172400
17.874100 2.543200
17.906700 2.734100
17.939300 2.553900
17.971900 2.359700
18.004500 2.280800
18.037100 2.215300
18.069700 2.179500
18.102400 2.198400
18.135000 2.242800
18.167600 2.336500
18.200200 2.530400
18.232800 3.220100
18.265400 2.675800
18.298000 2.123700
18.330600 1.526300
18.363200 1.470500
18.395800 1.509800
18.428400 1.595500
18.461000 1.693600
18.493600 1.625300
18.526200 1.531200
18.558800 1.535700
18.591400 1.539900
18.624000 1.591900
18.656600 1.637300
18.689200 1.661800
18.721800 1.959100
18.754400 1.721000
18.787000 1.671600
18.819600 1.662100
18.852200 1.716200
18.884800 1.892700
18.917400 1.977400
18.950000 2.255900
18.982600 2.587700
19.015200 2.782700
19.047900 2.758800
19.080500 2.788200
19.113100 2.744300
19.145700 2.623100
19.178300 2.483700
19.210900 2.492000
19.243500 2.486400
19.276100 2.492500
19.308700 2.462400
19.341300 2.462700
19.373900 2.696600
19.406500 2.718400
19.439100 2.687600
19.471700 2.628500
19.504300 2.603000
19.536900 2.657100
19.569500 2.685400
19.602100 2.672700
19.634700 2.647900
19.667300 3.056700
19.699900 2.776400
19.732500 2.677400
19.765100 2.652200
19.797700 2.462600
19.830300 2.162500
19.862900 2.047800
19.895500 2.021900
19.928100 1.860200
19.960700 1.818800
19.993400 1.815200
20.026000 1.832400
20.058600 1.953300
20.091200 2.932100
20.123800 2.176900
20.156400 2.350600
20.189000 2.675300
20.221600 2.602300
20.254200 2.859800
20.286800 2.540400
20.319400 2.238100
20.352000 2.153700
20.384600 2.137600
20.417200 2.432600
20.449800 2.644000
20.482400 2.284100
20.515000 2.263900
20.547600 2.312500
20.580200 2.383300
20.612800 2.753300
20.645400 3.062800
20.678000 3.167500
20.710600 2.477000
20.743200 2.420600
20.775800 1.946300
20.808400 1.657700
20.841000 1.896600
20.873600 2.083900
20.906200 2.139800
20.938900 2.348400
20.971500 2.239200
21.004100 2.250700
21.036700 2.674700
21.069300 2.569100
21.101900 2.521800
21.134500 2.565000
21.167100 2.948200
21.199700 1.907400
21.232300 1.732600
21.264900 1.530400
21.297500 1.451800
21.330100 1.598600
21.362700 1.663200
21.395300 1.757700
21.427900 1.728100
21.460500 1.702700
21.493100 1.577000
21.525700 1.382000
21.558300 0.922600
21.590900 0.874900
21.623500 0.857400
21.656100 1.072600
21.688700 0.972600
21.721300 1.112900
21.753900 1.532700
21.786500 1.708800
21.819100 1.961100
21.851700 2.103400
21.884400 2.167000
21.917000 2.252200
21.949600 2.342400
21.982200 2.270800
22.014800 1.962500
22.047400 1.841000
22.080000 1.843500
22.112600 1.524300
22.145200 1.421400
22.177800 1.372000
22.210400 1.337300
22.243000 1.282500
22.275600 1.227500
22.308200 1.194500
22.340800 1.434400
22.373400 1.243000
22.406000 1.118500
22.438600 0.819500
22.471200 0.826700
22.503800 0.825200
22.536400 0.852200
22.569000 0.858500
22.601600 0.862000
22.634200 0.872100
22.666800 0.846300
22.699400 0.848500
22.732000 0.841700
22.764600 0.838100
22.797300 0.855300
22.829900 0.881100
22.862500 0.876200
22.895100 0.854300
22.927700 0.831400
22.960300 0.817700
22.992900 0.830000
23.025500 0.847300
23.058100 0.864500
23.090700 0.881600
23.123300 0.899000
23.155900 0.915400
23.188500 0.934100
23.221100 0.957300
23.253700 0.978200
23.286300 1.021700
23.318900 1.052700
23.351500 1.085800
23.384100 1.111400
23.416700 1.138200
23.449300 1.169000
23.481900 1.207600
23.514500 1.261400
23.547100 1.323500
23.579700 1.393000
23.612300 1.471200
23.644900 1.571500
23.677500 1.711300
23.710100 1.933900
23.742800 2.058600
23.775400 2.169600
23.808000 2.265000
23.840600 2.344700
23.873200 2.561700
23.905800 2.335600
23.938400 1.900000
23.971000 1.612800
24.003600 1.382700
24.036200 1.301000
24.068800 1.579300
24.101400 1.816400
24.134000 1.643200
24.166600 1.732300
24.199200 1.849400
24.231800 2.163000
24.264400 2.581300
24.297000 2.657900
24.329600 2.221600
24.362200 1.950300
24.394800 1.942300
24.427400 1.906200
24.460000 1.835800
24.492600 0.566300
24.525200 0.308300
24.557800 0.317700
24.590400 0.324800
24.623000 0.330700
24.655600 0.319300
24.688300 0.323100
24.720900 0.327900
24.753500 0.333000
24.786100 0.338000
24.818700 0.343000
24.851300 0.347800
24.883900 0.352700
24.916500 0.365200
24.949100 0.370500
24.981700 0.375800
25.014300 0.381100
25.046900 0.387300
25.079500 0.394000
25.112100 0.401000
25.144700 0.408200
25.177300 0.414900
25.209900 0.417700
25.242500 0.409200
25.275100 0.417500
25.307700 0.425500
25.340300 0.431500
25.372900 0.437600
25.405500 0.443600
25.438100 0.449600
25.470700 0.455500
25.503300 0.461500
25.535900 0.468100
25.568500 0.475300
25.601100 0.483000
25.633800 0.491100
25.666400 0.500400
25.699000 0.510700
25.731600 0.521800
25.764200 0.533700
25.796800 0.546500
25.829400 0.571400
25.862000 0.595600
25.894600 0.623100
25.927200 0.785600
25.959800 0.823600
25.992400 0.854500
26.025000 0.887600
26.057600 0.922900
26.090200 0.953300
26.122800 0.984200
26.155400 1.234500
26.188000 1.630900
26.220600 2.122600
26.253200 2.157600
26.285800 2.120800
26.318400 2.158500
26.351000 1.600000
26.383600 1.312800
26.416200 1.107900
26.448800 1.125800
26.481400 1.303000
26.514000 2.026000
26.546600 1.500200
26.579300 1.614700
26.611900 1.632800
26.644500 1.554000
26.677100 1.467900
26.709700 1.456300
26.742300 1.445800
26.774900 1.448700
26.807500 1.657200
26.840100 1.545100
26.872700 1.447500
26.905300 1.380000
26.937900 1.378300
26.970500 1.385400
27.003100 1.385800
27.035700 1.411300
27.068300 1.438800
27.100900 1.485500
27.133500 1.514200
27.166100 1.546900
27.198700 1.566600
27.231300 1.541100
27.263900 1.688100
27.296500 1.536700
27.329100 1.487600
27.361700 1.429500
27.394300 1.377000
27.426900 1.353500
27.459500 1.272600
27.492100 1.258500
27.524800 1.248900
27.557400 1.236700
27.590000 1.219800
27.622600 1.203200
27.655200 1.176900
27.687800 1.156000
27.720400 1.138900
27.753000 1.118700
27.785600 1.112800
27.818200 1.109800
27.850800 1.110600
27.883400 1.114800
27.916000 1.123500
27.948600 1.206700
27.981200 1.477100
28.013800 2.072600
28.046400 1.293500
28.079000 1.240300
28.111600 1.275300
28.144200 1.403800
28.176800 1.633900
28.209400 1.734000
28.242000 1.750600
28.274600 1.781600
28.307200 1.728000
28.339800 1.693900
28.372400 1.650900
28.405000 1.724300
28.437700 2.108500
28.470300 1.397100
28.502900 1.255800
28.535500 1.142900
28.568100 1.047000
28.600700 0.976500
28.633300 0.940400
28.665900 0.958100
28.698500 0.962100
28.731100 0.995100
28.763700 1.070300
28.796300 1.093900
28.828900 1.082900
28.861500 1.127900
28.894100 1.205300
28.926700 0.821400
28.959300 0.800200
28.991900 0.800700
29.024500 0.793100
29.057100 0.766100
29.089700 0.734600
29.122300 0.697400
29.154900 0.666900
29.187500 0.640300
29.220100 0.626400
29.252700 0.614400
29.285300 0.604200
29.317900 0.597900
29.350500 0.594900
29.383200 0.595200
29.415800 0.597700
29.448400 0.600900
29.481000 0.604200
29.513600 0.607500
29.546200 0.610900
29.578800 0.620200
29.611400 0.639400
29.644000 0.656700
29.676600 0.669600
29.709200 0.681100
29.741800 0.698300
29.774400 0.725200
29.807000 0.763300
29.839600 0.795100
29.872200 0.831500
29.904800 0.879400
29.937400 0.927200
29.970000 0.992400
30.002600 1.065900
30.035200 1.169600
30.067800 1.087100
30.100400 1.088200
30.133000 1.072500
30.165600 1.057400
30.198200 1.030400
30.230800 1.037600
30.263400 1.008100
30.296000 0.999800
30.328700 0.969100
30.361300 0.951200
30.393900 0.945000
30.426500 0.960400
30.459100 0.983900
30.491700 0.945900
30.524300 0.919800
30.556900 0.892700
30.589500 0.861500
30.622100 0.999000
30.654700 1.244000
30.687300 1.295000
30.719900 1.387000
30.752500 1.455000
30.785100 1.676300
30.817700 1.785800
30.850300 2.002300
30.882900 2.014100
30.915500 1.756200
30.948100 1.787100
30.980700 1.855800
31.013300 1.856100
31.045900 1.886800
31.078500 1.857100
31.111100 1.826300
31.143700 1.768900
31.176300 1.751300
31.208900 1.821300
31.241500 2.031200
31.274200 3.673800
31.306800 2.059400
31.339400 2.031600
31.372000 2.044300
31.404600 2.083200
31.437200 2.116600
31.469800 2.173700
31.502400 2.239400
31.535000 2.355800
31.567600 2.255100
31.600200 2.080400
31.632800 1.994200
31.665400 1.998000
31.698000 2.030200
31.730600 2.074800
31.763200 2.153400
31.795800 2.325200
31.828400 2.328200
31.861000 2.661800
31.893600 2.883000
31.926200 3.054800
31.958800 2.868100
31.991400 2.801000
32.024000 2.837600
32.056600 3.043500
32.089200 3.218800
32.121800 3.456000
32.154400 3.690300
32.187000 2.545300
32.219700 1.687400
32.252300 1.217600
32.284900 0.729800
32.317500 0.540600
32.350100 0.440500
32.382700 0.351400
32.415300 0.272900
32.447900 0.204100
32.480500 0.142800
32.513100 0.091500
32.545700 0.057400
32.578300 0.021600
32.610900 0.004500
32.643500 0.001100
32.676100 0.000000
32.708700 0.000000
32.741300 0.000000
32.773900 0.000000
32.806500 0.000000
32.839100 0.000000
32.871700 0.000000
32.904300 0.000000
32.936900 0.000000
32.969500 0.000000
33.002100 0.000000
33.034700 0.000000
33.067300 0.000000
33.099900 0.000000
33.132500 0.000000
33.165200 0.000000
33.197800 0.000000
33.230400 0.000000
33.263000 0.000000
33.295600 0.000000
33.328200 0.000000
33.360800 0.000000
33.393400 0.000000
33.426000 0.000000
33.458600 0.000000
33.491200 0.000000
33.523800 0.000000
33.556400 0.000000
33.589000 0.000000
33.621600 0.000000
33.654200 0.000000
33.686800 0.000000
33.719400 0.000000
33.752000 0.000000
33.784600 0.000000
33.817200 0.000000
33.849800 0.000000
33.882400 0.000000
33.915000 0.000000
33.947600 0.000000
33.980200 0.000000
34.012800 0.000000
34.045400 0.000000
34.078100 0.000000
34.110700 0.000000
34.143300 0.000000
34.175900 0.000000
34.208500 0.000000
34.241100 0.000000
34.273700 0.000000
34.306300 0.000000
34.338900 0.000000
34.371500 0.000000
34.404100 0.000000
34.436700 0.000000
34.469300 0.000000
34.501900 0.000000
34.534500 0.000000
34.567100 0.000000
34.599700 0.000000
34.632300 0.000000
34.664900 0.000000
34.697500 0.000000
34.730100 0.000000
34.762700 0.000000
34.795300 0.000000
34.827900 0.000000
34.860500 0.000000
34.893100 0.000000
34.925700 0.000000
34.958300 0.000000
34.990900 0.000000
35.023600 0.000000
35.056200 0.000000
35.088800 0.000000
35.121400 0.000000
35.154000 0.000000
35.186600 0.000000
35.219200 0.000000
35.251800 0.000000
35.284400 0.000000
35.317000 0.000000
35.349600 0.000000
35.382200 0.000000
35.414800 0.000000
35.447400 0.000000
35.480000 0.000000
35.512600 0.000000
35.545200 0.000000
35.577800 0.000000
35.610400 0.000000
35.643000 0.000000
35.675600 0.000000
35.708200 0.000000
35.740800 0.000000
35.773400 0.000000
35.806000 0.000000
35.838600 0.000000
35.871200 0.000000
35.903800 0.000000
35.936400 0.000000
35.969100 0.000000
36.001700 0.000000
e
