set title 'mp-19033 - Density of States'
set xlabel 'Energy (eV)'
set ylabel 'DOS (states/eV)'
set grid
set xrange [-10:10]
set yrange [0:27.871]
set xzeroaxis lt -1
set terminal png size 800,600
set output 'mp-19033_dos_gnuplot.png'
plot '-' using 1:2 with lines title 'DOS'
-43.643400 0.000000
-43.600500 0.000000
-43.557500 0.000000
-43.514600 0.000000
-43.471700 0.000000
-43.428800 0.000000
-43.385900 0.000000
-43.343000 0.000000
-43.300100 0.000000
-43.257200 0.000000
-43.214300 0.000000
-43.171300 0.000000
-43.128400 0.000000
-43.085500 0.000000
-43.042600 0.000000
-42.999700 0.000000
-42.956800 0.000000
-42.913900 0.000000
-42.871000 0.000000
-42.828000 0.000000
-42.785100 0.000000
-42.742200 0.000000
-42.699300 0.000000
-42.656400 0.000000
-42.613500 0.000000
-42.570600 0.000000
-42.527700 0.000000
-42.484700 0.000000
-42.441800 0.000000
-42.398900 0.000000
-42.356000 0.000000
-42.313100 0.000000
-42.270200 0.000000
-42.227300 0.000000
-42.184400 0.000000
-42.141500 0.000000
-42.098500 0.000000
-42.055600 0.000000
-42.012700 0.000000
-41.969800 0.000000
-41.926900 0.000000
-41.884000 0.000000
-41.841100 0.000000
-41.798200 0.000000
-41.755200 0.000000
-41.712300 0.000000
-41.669400 0.000000
-41.626500 0.000000
-41.583600 0.000000
-41.540700 0.000000
-41.497800 0.000000
-41.454900 0.000000
-41.412000 0.000000
-41.369000 0.000000
-41.326100 0.000000
-41.283200 0.000000
-41.240300 0.000000
-41.197400 0.000000
-41.154500 0.000000
-41.111600 0.000000
-41.068700 0.000000
-41.025700 0.000000
-40.982800 0.000000
-40.939900 0.000000
-40.897000 0.000000
-40.854100 0.000000
-40.811200 0.000000
-40.768300 0.000000
-40.725400 0.000000
-40.682400 0.000000
-40.639500 0.000000
-40.596600 0.000000
-40.553700 0.000000
-40.510800 0.000000
-40.467900 0.000000
-40.425000 0.000000
-40.382100 0.000000
-40.339200 0.000000
-40.296200 0.000000
-40.253300 0.000000
-40.210400 0.000000
-40.167500 0.000000
-40.124600 0.000000
-40.081700 0.000000
-40.038800 0.000000
-39.995900 0.000000
-39.952900 0.000000
-39.910000 0.000000
-39.867100 0.000000
-39.824200 0.000000
-39.781300 0.000000
-39.738400 238.131700
-39.695500 278.156000
-39.652600 0.000000
-39.609700 0.000000
-39.566700 0.000000
-39.523800 0.000000
-39.480900 0.000000
-39.438000 0.000000
-39.395100 0.000000
-39.352200 0.000000
-39.309300 0.000000
-39.266400 0.000000
-39.223400 0.000000
-39.180500 0.000000
-39.137600 0.000000
-39.094700 0.000000
-39.051800 0.000000
-39.008900 0.000000
-38.966000 0.000000
-38.923100 0.000000
-38.880100 0.000000
-38.837200 0.000000
-38.794300 0.000000
-38.751400 0.000000
-38.708500 0.000000
-38.665600 0.000000
-38.622700 0.000000
-38.579800 0.000000
-38.536900 0.000000
-38.493900 0.000000
-38.451000 0.000000
-38.408100 0.000000
-38.365200 0.000000
-38.322300 0.000000
-38.279400 0.000000
-38.236500 0.000000
-38.193600 0.000000
-38.150600 0.000000
-38.107700 0.000000
-38.064800 0.000000
-38.021900 0.000000
-37.979000 0.000000
-37.936100 0.000000
-37.893200 0.000000
-37.850300 0.000000
-37.807400 0.000000
-37.764400 0.000000
-37.721500 0.000000
-37.678600 0.000000
-37.635700 0.000000
-37.592800 0.000000
-37.549900 0.000000
-37.507000 0.000000
-37.464100 0.000000
-37.421100 0.000000
-37.378200 0.000000
-37.335300 0.000000
-37.292400 0.000000
-37.249500 0.000000
-37.206600 0.000000
-37.163700 0.000000
-37.120800 0.000000
-37.077800 0.000000
-37.034900 0.000000
-36.992000 0.000000
-36.949100 0.000000
-36.906200 0.000000
-36.863300 0.000000
-36.820400 0.000000
-36.777500 0.000000
-36.734600 0.000000
-36.691600 0.000000
-36.648700 0.000000
-36.605800 0.000000
-36.562900 0.000000
-36.520000 0.000000
-36.477100 0.000000
-36.434200 0.000000
-36.391300 0.000000
-36.348300 0.000000
-36.305400 0.000000
-36.262500 0.000000
-36.219600 0.000000
-36.176700 0.000000
-36.133800 0.000000
-36.090900 0.000000
-36.048000 0.000000
-36.005100 0.000000
-35.962100 0.000000
-35.919200 0.000000
-35.876300 0.000000
-35.833400 0.000000
-35.790500 0.000000
-35.747600 0.000000
-35.704700 0.000000
-35.661800 0.000000
-35.618800 0.000000
-35.575900 0.000000
-35.533000 0.000000
-35.490100 0.000000
-35.447200 0.000000
-35.404300 0.000000
-35.361400 0.000000
-35.318500 0.000000
-35.275500 0.000000
-35.232600 0.000000
-35.189700 0.000000
-35.146800 0.000000
-35.103900 0.000000
-35.061000 0.000000
-35.018100 0.000000
-34.975200 0.000000
-34.932300 0.000000
-34.889300 0.000000
-34.846400 0.000000
-34.803500 0.000000
-34.760600 0.000000
-34.717700 0.000000
-34.674800 0.000000
-34.631900 0.000000
-34.589000 0.000000
-34.546000 0.000000
-34.503100 0.000000
-34.460200 0.000000
-34.417300 0.000000
-34.374400 0.000000
-34.331500 0.000000
-34.288600 0.000000
-34.245700 0.000000
-34.202800 0.000000
-34.159800 0.000000
-34.116900 0.000000
-34.074000 0.000000
-34.031100 0.000000
-33.988200 0.000000
-33.945300 0.000000
-33.902400 0.000000
-33.859500 0.000000
-33.816500 0.000000
-33.773600 0.000000
-33.730700 0.000000
-33.687800 0.000000
-33.644900 0.000000
-33.602000 0.000000
-33.559100 0.000000
-33.516200 0.000000
-33.473200 0.000000
-33.430300 0.000000
-33.387400 0.000000
-33.344500 0.000000
-33.301600 0.000000
-33.258700 0.000000
-33.215800 0.000000
-33.172900 0.000000
-33.130000 0.000000
-33.087000 0.000000
-33.044100 0.000000
-33.001200 0.000000
-32.958300 0.000000
-32.915400 0.000000
-32.872500 0.000000
-32.829600 0.000000
-32.786700 0.000000
-32.743700 0.000000
-32.700800 0.000000
-32.657900 0.000000
-32.615000 0.000000
-32.572100 0.000000
-32.529200 0.000000
-32.486300 0.000000
-32.443400 0.000000
-32.400500 0.000000
-32.357500 0.000000
-32.314600 0.000000
-32.271700 0.000000
-32.228800 0.000000
-32.185900 0.000000
-32.143000 0.000000
-32.100100 0.000000
-32.057200 0.000000
-32.014200 0.000000
-31.971300 0.000000
-31.928400 0.000000
-31.885500 0.000000
-31.842600 0.000000
-31.799700 0.000000
-31.756800 0.000000
-31.713900 0.000000
-31.670900 0.000000
-31.628000 0.000000
-31.585100 0.000000
-31.542200 0.000000
-31.499300 0.000000
-31.456400 0.000000
-31.413500 0.000000
-31.370600 0.000000
-31.327700 0.000000
-31.284700 0.000000
-31.241800 0.000000
-31.198900 0.000000
-31.156000 0.000000
-31.113100 0.000000
-31.070200 0.000000
-31.027300 0.000000
-30.984400 0.000000
-30.941400 0.000000
-30.898500 0.000000
-30.855600 0.000000
-30.812700 0.000000
-30.769800 0.000000
-30.726900 0.000000
-30.684000 0.000000
-30.641100 0.000000
-30.598200 0.000000
-30.555200 0.000000
-30.512300 0.000000
-30.469400 0.000000
-30.426500 0.000000
-30.383600 0.000000
-30.340700 0.000000
-30.297800 0.000000
-30.254900 0.000000
-30.211900 0.000000
-30.169000 0.000000
-30.126100 0.000000
-30.083200 0.000000
-30.040300 0.000000
-29.997400 0.000000
-29.954500 0.000000
-29.911600 0.000000
-29.868600 0.000000
-29.825700 0.000000
-29.782800 0.000000
-29.739900 0.000000
-29.697000 0.000000
-29.654100 0.000000
-29.611200 0.000000
-29.568300 0.000000
-29.525400 0.000000
-29.482400 0.000000
-29.439500 0.000000
-29.396600 0.000000
-29.353700 0.000000
-29.310800 0.000000
-29.267900 0.000000
-29.225000 0.000000
-29.182100 0.000000
-29.139100 0.000000
-29.096200 0.000000
-29.053300 0.000000
-29.010400 0.000000
-28.967500 0.000000
-28.924600 0.000000
-28.881700 0.000000
-28.838800 0.000000
-28.795900 0.000000
-28.752900 0.000000
-28.710000 0.000000
-28.667100 0.000000
-28.624200 0.000000
-28.581300 0.000000
-28.538400 0.000000
-28.495500 0.000000
-28.452600 0.000000
-28.409600 0.000000
-28.366700 0.000000
-28.323800 0.000000
-28.280900 0.000000
-28.238000 0.000000
-28.195100 0.000000
-28.152200 0.000000
-28.109300 0.000000
-28.066300 0.000000
-28.023400 0.000000
-27.980500 0.000000
-27.937600 0.000000
-27.894700 0.000000
-27.851800 0.000000
-27.808900 0.000000
-27.766000 0.000000
-27.723100 0.000000
-27.680100 0.000000
-27.637200 0.000000
-27.594300 0.000000
-27.551400 0.000000
-27.508500 0.000000
-27.465600 0.000000
-27.422700 0.000000
-27.379800 0.000000
-27.336800 0.000000
-27.293900 0.000000
-27.251000 0.000000
-27.208100 0.000000
-27.165200 0.000000
-27.122300 0.000000
-27.079400 0.000000
-27.036500 0.000000
-26.993600 0.000000
-26.950600 0.000000
-26.907700 0.000000
-26.864800 0.000000
-26.821900 0.000000
-26.779000 0.000000
-26.736100 0.000000
-26.693200 0.000000
-26.650300 0.000000
-26.607300 0.000000
-26.564400 0.000000
-26.521500 0.000000
-26.478600 0.000000
-26.435700 0.000000
-26.392800 0.000000
-26.349900 0.000000
-26.307000 0.000000
-26.264000 0.000000
-26.221100 0.000000
-26.178200 0.000000
-26.135300 0.000000
-26.092400 0.000000
-26.049500 0.000000
-26.006600 0.000000
-25.963700 0.000000
-25.920800 0.000000
-25.877800 0.000000
-25.834900 0.000000
-25.792000 0.000000
-25.749100 0.000000
-25.706200 0.000000
-25.663300 0.000000
-25.620400 0.000000
-25.577500 0.000000
-25.534500 0.000000
-25.491600 0.000000
-25.448700 0.000000
-25.405800 0.000000
-25.362900 0.000000
-25.320000 0.000000
-25.277100 0.000000
-25.234200 0.000000
-25.191300 0.000000
-25.148300 0.000000
-25.105400 0.000000
-25.062500 0.000000
-25.019600 0.000000
-24.976700 0.000000
-24.933800 0.000000
-24.890900 0.000000
-24.848000 0.000000
-24.805000 0.000000
-24.762100 0.000000
-24.719200 0.000000
-24.676300 0.000000
-24.633400 0.000000
-24.590500 0.000000
-24.547600 0.000000
-24.504700 0.000000
-24.461700 0.000000
-24.418800 0.000000
-24.375900 0.000000
-24.333000 0.000000
-24.290100 0.000000
-24.247200 0.000000
-24.204300 0.000000
-24.161400 0.000000
-24.118500 0.000000
-24.075500 0.000000
-24.032600 0.000000
-23.989700 0.000000
-23.946800 0.000000
-23.903900 0.000000
-23.861000 0.000000
-23.818100 0.000000
-23.775200 0.000000
-23.732200 0.000000
-23.689300 0.000000
-23.646400 0.000000
-23.603500 0.000000
-23.560600 0.000000
-23.517700 0.000000
-23.474800 0.000000
-23.431900 0.000000
-23.389000 0.000000
-23.346000 0.000000
-23.303100 0.000000
-23.260200 0.000000
-23.217300 0.000000
-23.174400 0.000000
-23.131500 0.000000
-23.088600 0.000000
-23.045700 0.000000
-23.002700 0.000000
-22.959800 0.000000
-22.916900 0.000000
-22.874000 0.000000
-22.831100 0.000000
-22.788200 0.000000
-22.745300 0.000000
-22.702400 0.000000
-22.659400 0.000000
-22.616500 0.000000
-22.573600 0.000000
-22.530700 0.000000
-22.487800 0.000000
-22.444900 0.000000
-22.402000 0.000000
-22.359100 0.000000
-22.316200 0.000000
-22.273200 0.000000
-22.230300 0.000000
-22.187400 0.000000
-22.144500 0.000000
-22.101600 0.000000
-22.058700 0.000000
-22.015800 0.000000
-21.972900 0.000000
-21.929900 0.000000
-21.887000 0.000000
-21.844100 0.000000
-21.801200 0.000000
-21.758300 0.000000
-21.715400 0.000000
-21.672500 0.000000
-21.629600 0.000000
-21.586700 0.000000
-21.543700 0.000000
-21.500800 0.000000
-21.457900 0.000000
-21.415000 0.000000
-21.372100 0.000000
-21.329200 0.000000
-21.286300 0.000000
-21.243400 0.000000
-21.200400 0.000000
-21.157500 0.000000
-21.114600 0.000000
-21.071700 0.000000
-21.028800 0.000000
-20.985900 0.000000
-20.943000 0.000000
-20.900100 0.000000
-20.857100 0.000000
-20.814200 0.000000
-20.771300 0.000000
-20.728400 0.000000
-20.685500 0.000000
-20.642600 0.000000
-20.599700 0.000000
-20.556800 0.000000
-20.513900 0.000000
-20.470900 0.000000
-20.428000 0.000000
-20.385100 0.000000
-20.342200 0.000000
-20.299300 0.000000
-20.256400 0.000000
-20.213500 0.000000
-20.170600 0.000000
-20.127600 0.000000
-20.084700 0.000000
-20.041800 0.000000
-19.998900 0.000000
-19.956000 0.000000
-19.913100 0.000000
-19.870200 0.000000
-19.827300 0.000000
-19.784400 0.000000
-19.741400 0.000000
-19.698500 0.000000
-19.655600 0.000000
-19.612700 0.000000
-19.569800 0.000000
-19.526900 0.000000
-19.484000 0.000000
-19.441100 0.000000
-19.398100 0.000000
-19.355200 0.000000
-19.312300 0.000000
-19.269400 0.000000
-19.226500 0.000000
-19.183600 0.000000
-19.140700 0.000000
-19.097800 0.000000
-19.054800 0.000000
-19.011900 0.000000
-18.969000 0.000000
-18.926100 0.000000
-18.883200 0.000000
-18.840300 0.000000
-18.797400 0.000000
-18.754500 0.000000
-18.711600 0.000000
-18.668600 0.000000
-18.625700 0.000000
-18.582800 0.000000
-18.539900 0.000000
-18.497000 0.000000
-18.454100 0.000000
-18.411200 0.000000
-18.368300 0.000000
-18.325300 0.000000
-18.282400 0.000000
-18.239500 0.000000
-18.196600 0.000000
-18.153700 0.000000
-18.110800 0.000000
-18.067900 0.000000
-18.025000 0.000000
-17.982100 0.000000
-17.939100 0.000000
-17.896200 0.000000
-17.853300 0.000000
-17.810400 0.000000
-17.767500 0.017500
-17.724600 0.308500
-17.681700 0.957300
-17.638800 2.076900
-17.595800 2.828600
-17.552900 3.726200
-17.510000 3.496100
-17.467100 4.490000
-17.424200 9.330900
-17.381300 10.172300
-17.338400 10.891900
-17.295500 10.408200
-17.252500 7.268500
-17.209600 8.743400
-17.166700 9.396900
-17.123800 8.776500
-17.080900 11.262400
-17.038000 12.163300
-16.995100 10.696900
-16.952200 6.591400
-16.909300 5.809900
-16.866300 6.649600
-16.823400 6.652000
-16.780500 20.786300
-16.737600 18.069700
-16.694700 20.805000
-16.651800 22.418500
-16.608900 20.638600
-16.566000 13.526100
-16.523000 1.273500
-16.480100 3.279200
-16.437200 4.631300
-16.394300 8.742600
-16.351400 21.430000
-16.308500 18.480500
-16.265600 13.415700
-16.222700 22.276300
-16.179800 19.691900
-16.136800 19.971700
-16.093900 20.266100
-16.051000 20.361800
-16.008100 25.913900
-15.965200 35.313700
-15.922300 25.571300
-15.879400 6.891300
-15.836500 0.000000
-15.793500 0.000000
-15.750600 0.000000
-15.707700 0.000000
-15.664800 0.000000
-15.621900 0.000000
-15.579000 0.000000
-15.536100 0.000000
-15.493200 0.000000
-15.450200 0.000000
-15.407300 0.000000
-15.364400 0.000000
-15.321500 0.000000
-15.278600 0.000000
-15.235700 0.000000
-15.192800 0.000000
-15.149900 0.000000
-15.107000 0.000000
-15.064000 0.000000
-15.021100 0.000000
-14.978200 0.000000
-14.935300 0.000000
-14.892400 0.000000
-14.849500 0.000000
-14.806600 0.000000
-14.763700 0.000000
-14.720700 0.000000
-14.677800 0.000000
-14.634900 0.000000
-14.592000 0.000000
-14.549100 0.000000
-14.506200 0.000000
-14.463300 0.000000
-14.420400 0.000000
-14.377400 0.000000
-14.334500 0.000000
-14.291600 0.000000
-14.248700 0.000000
-14.205800 0.000000
-14.162900 0.000000
-14.120000 0.000000
-14.077100 0.000000
-14.034200 0.000000
-13.991200 0.000000
-13.948300 0.000000
-13.905400 0.000000
-13.862500 0.000000
-13.819600 0.000000
-13.776700 0.000000
-13.733800 0.000000
-13.690900 0.000000
-13.647900 0.000000
-13.605000 0.000000
-13.562100 0.000000
-13.519200 0.000000
-13.476300 0.000000
-13.433400 0.000000
-13.390500 0.000000
-13.347600 0.000000
-13.304700 0.000000
-13.261700 0.000000
-13.218800 0.000000
-13.175900 0.000000
-13.133000 0.000000
-13.090100 0.000000
-13.047200 0.000000
-13.004300 0.000000
-12.961400 0.000000
-12.918400 0.000000
-12.875500 0.000000
-12.832600 0.000000
-12.789700 0.000000
-12.746800 0.000000
-12.703900 0.000000
-12.661000 0.000000
-12.618100 0.000000
-12.575100 0.000000
-12.532200 0.000000
-12.489300 0.000000
-12.446400 0.000000
-12.403500 0.000000
-12.360600 0.000000
-12.317700 0.000000
-12.274800 0.000000
-12.231900 0.000000
-12.188900 0.000000
-12.146000 0.000000
-12.103100 0.000000
-12.060200 0.000000
-12.017300 0.000000
-11.974400 0.000000
-11.931500 0.000000
-11.888600 0.000000
-11.845600 0.000000
-11.802700 0.000000
-11.759800 0.000000
-11.716900 0.000000
-11.674000 0.000000
-11.631100 0.000000
-11.588200 0.000000
-11.545300 0.000000
-11.502400 0.000000
-11.459400 0.000000
-11.416500 0.000000
-11.373600 0.000000
-11.330700 0.000000
-11.287800 0.000000
-11.244900 0.000000
-11.202000 0.000000
-11.159100 0.000000
-11.116100 0.000000
-11.073200 0.000000
-11.030300 0.000000
-10.987400 0.000000
-10.944500 0.000000
-10.901600 0.000000
-10.858700 0.000000
-10.815800 0.000000
-10.772800 0.000000
-10.729900 0.000000
-10.687000 0.000000
-10.644100 0.000000
-10.601200 0.000000
-10.558300 0.000000
-10.515400 0.000000
-10.472500 0.000000
-10.429600 0.000000
-10.386600 0.000000
-10.343700 0.000000
-10.300800 0.000000
-10.257900 0.000000
-10.215000 0.000000
-10.172100 0.000000
-10.129200 0.000000
-10.086300 0.000000
-10.043300 0.000000
-10.000400 0.000000
-9.957500 0.000000
-9.914600 0.000000
-9.871700 0.000000
-9.828800 0.000000
-9.785900 0.000000
-9.743000 0.000000
-9.700100 0.000000
-9.657100 0.000000
-9.614200 0.000000
-9.571300 0.000000
-9.528400 0.000000
-9.485500 0.000000
-9.442600 0.000000
-9.399700 0.000000
-9.356800 0.000000
-9.313800 0.000000
-9.270900 0.000000
-9.228000 0.000000
-9.185100 0.000000
-9.142200 0.000000
-9.099300 0.000000
-9.056400 0.000000
-9.013500 0.000000
-8.970500 0.000000
-8.927600 0.000000
-8.884700 0.000000
-8.841800 0.000000
-8.798900 0.000000
-8.756000 0.000000
-8.713100 0.000000
-8.670200 0.000000
-8.627300 0.000000
-8.584300 0.000000
-8.541400 0.000000
-8.498500 0.000000
-8.455600 0.000000
-8.412700 0.000000
-8.369800 0.000000
-8.326900 0.000000
-8.284000 0.000000
-8.241000 0.000000
-8.198100 0.000000
-8.155200 0.000000
-8.112300 0.000000
-8.069400 0.000000
-8.026500 0.000000
-7.983600 0.000000
-7.940700 0.000000
-7.897800 0.000000
-7.854800 0.000000
-7.811900 0.000000
-7.769000 0.000000
-7.726100 0.000000
-7.683200 0.000000
-7.640300 0.000000
-7.597400 0.000000
-7.554500 0.000000
-7.511500 0.000000
-7.468600 0.000000
-7.425700 0.000000
-7.382800 0.000000
-7.339900 0.000000
-7.297000 0.000000
-7.254100 0.000000
-7.211200 0.000000
-7.168200 0.000000
-7.125300 0.000000
-7.082400 0.000000
-7.039500 0.000000
-6.996600 0.000000
-6.953700 0.000000
-6.910800 0.000000
-6.867900 0.000000
-6.825000 0.000000
-6.782000 0.000000
-6.739100 0.000000
-6.696200 0.000000
-6.653300 0.000000
-6.610400 0.000000
-6.567500 0.000000
-6.524600 0.000000
-6.481700 0.000000
-6.438700 0.000000
-6.395800 0.000000
-6.352900 0.000000
-6.310000 0.000000
-6.267100 0.000000
-6.224200 0.000000
-6.181300 7.389000
-6.138400 9.997200
-6.095500 11.112400
-6.052500 13.482000
-6.009600 12.506600
-5.966700 11.617900
-5.923800 11.053800
-5.880900 10.055400
-5.838000 7.362500
-5.795100 7.016000
-5.752200 6.797400
-5.709200 6.759800
-5.666300 6.717300
-5.623400 6.674300
-5.580500 6.637400
-5.537600 6.606600
-5.494700 6.581900
-5.451800 6.563300
-5.408900 6.550800
-5.365900 6.544400
-5.323000 6.544200
-5.280100 11.686000
-5.237200 6.820700
-5.194300 8.427500
-5.151400 8.771000
-5.108500 9.640900
-5.065600 9.740700
-5.022700 9.052400
-4.979700 11.280000
-4.936800 13.084900
-4.893900 7.602800
-4.851000 4.711000
-4.808100 1.444200
-4.765200 0.280100
-4.722300 0.000000
-4.679400 0.000000
-4.636400 0.000000
-4.593500 0.000000
-4.550600 0.000000
-4.507700 0.000000
-4.464800 0.721700
-4.421900 1.712000
-4.379000 3.587300
-4.336100 5.796400
-4.293200 7.333900
-4.250200 9.008100
-4.207300 10.962100
-4.164400 12.559900
-4.121500 14.718200
-4.078600 17.369300
-4.035700 14.725900
-3.992800 14.096200
-3.949900 13.799900
-3.906900 11.082400
-3.864000 9.703400
-3.821100 6.122900
-3.778200 6.275500
-3.735300 6.429100
-3.692400 6.602400
-3.649500 8.229600
-3.606600 11.761500
-3.563600 17.505700
-3.520700 19.352300
-3.477800 20.576000
-3.434900 17.805400
-3.392000 17.074700
-3.349100 16.822500
-3.306200 14.575500
-3.263300 13.898500
-3.220400 13.228300
-3.177400 12.788300
-3.134500 13.367300
-3.091600 12.498800
-3.048700 11.898100
-3.005800 12.017000
-2.962900 12.159200
-2.920000 11.777700
-2.877100 13.168500
-2.834100 12.894300
-2.791200 15.434900
-2.748300 14.924400
-2.705400 14.924300
-2.662500 15.267500
-2.619600 17.030400
-2.576700 14.920400
-2.533800 15.364900
-2.490900 14.633100
-2.447900 14.381900
-2.405000 13.804700
-2.362100 12.977300
-2.319200 11.785100
-2.276300 14.086700
-2.233400 10.795700
-2.190500 11.167000
-2.147600 9.751100
-2.104600 13.178800
-2.061700 6.946600
-2.018800 6.779500
-1.975900 7.041200
-1.933000 7.391400
-1.890100 7.682200
-1.847200 7.815000
-1.804300 8.332000
-1.761300 8.503400
-1.718400 7.595600
-1.675500 9.277200
-1.632600 9.653300
-1.589700 8.608400
-1.546800 8.106900
-1.503900 7.487900
-1.461000 5.500400
-1.418100 4.386700
-1.375100 5.234100
-1.332200 4.936100
-1.289300 8.537600
-1.246400 7.892000
-1.203500 7.892500
-1.160600 13.848500
-1.117700 10.047200
-1.074800 9.634600
-1.031800 10.640700
-0.988900 11.074500
-0.946000 13.588700
-0.903100 17.035000
-0.860200 19.209600
-0.817300 19.895200
-0.774400 20.129300
-0.731500 18.620500
-0.688600 19.507800
-0.645600 19.742400
-0.602700 25.337300
-0.559800 20.802100
-0.516900 22.128500
-0.474000 25.130400
-0.431100 22.429200
-0.388200 19.444700
-0.345300 14.554600
-0.302300 13.161300
-0.259400 14.946200
-0.216500 11.345300
-0.173600 8.683800
-0.130700 7.644100
-0.087800 7.693600
-0.044900 7.888200
-0.002000 7.072200
0.041000 15.657800
0.083900 17.763200
0.126800 19.545100
0.169700 23.022300
0.212600 13.666500
0.255500 12.153600
0.298400 10.741600
0.341300 8.817400
0.384200 2.530800
0.427200 0.000000
0.470100 0.000000
0.513000 0.000000
0.555900 0.000000
0.598800 0.000000
0.641700 0.000000
0.684600 0.000000
0.727500 0.000000
0.770500 0.000000
0.813400 0.000000
0.856300 0.000000
0.899200 0.000000
0.942100 0.000000
0.985000 0.000000
1.027900 0.000000
1.070800 0.000000
1.113700 0.000000
1.156700 0.000000
1.199600 0.000000
1.242500 0.000000
1.285400 0.000000
1.328300 0.000000
1.371200 0.000000
1.414100 0.000000
1.457000 0.000000
1.500000 0.000000
1.542900 0.000000
1.585800 0.000000
1.628700 0.000000
1.671600 0.000000
1.714500 0.000000
1.757400 0.000000
1.800300 0.000000
1.843300 0.000000
1.886200 0.000000
1.929100 0.000000
1.972000 0.000000
2.014900 0.050700
2.057800 0.175600
2.100700 0.294600
2.143600 0.478800
2.186500 0.654500
2.229500 0.849000
2.272400 1.063700
2.315300 1.299600
2.358200 1.556700
2.401100 1.834900
2.444000 2.124400
2.486900 2.364800
2.529800 2.479100
2.572800 2.626800
2.615700 2.903300
2.658600 3.085900
2.701500 3.229900
2.744400 3.381500
2.787300 3.540400
2.830200 3.706800
2.873100 3.918100
2.916000 5.147900
2.959000 5.337600
3.001900 5.552400
3.044800 5.725600
3.087700 5.974900
3.130600 5.000600
3.173500 4.896300
3.216400 4.909100
3.259300 4.946900
3.302300 5.073500
3.345200 4.884500
3.388100 4.654300
3.431000 4.436100
3.473900 4.230100
3.516800 4.036200
3.559700 3.737200
3.602600 3.517500
3.645600 4.889000
3.688500 2.274200
3.731400 2.669500
3.774300 3.802800
3.817200 4.678000
3.860100 5.069200
3.903000 4.803800
3.945900 4.543600
3.988800 4.636600
4.031800 5.932600
4.074700 8.182700
4.117600 9.460700
4.160500 10.145000
4.203400 9.420100
4.246300 10.388400
4.289200 7.907100
4.332100 13.513700
4.375100 10.392200
4.418000 6.834000
4.460900 5.912000
4.503800 6.427500
4.546700 7.222800
4.589600 11.979400
4.632500 11.654000
4.675400 13.156200
4.718300 7.707500
4.761300 15.448700
4.804200 11.996300
4.847100 7.371100
4.890000 8.698000
4.932900 11.699700
4.975800 19.245300
5.018700 12.251100
5.061600 12.246000
5.104600 11.543800
5.147500 10.475000
5.190400 10.334300
5.233300 8.655700
5.276200 8.614800
5.319100 7.664500
5.362000 7.472900
5.404900 7.828100
5.447900 9.093400
5.490800 11.052000
5.533700 10.300300
5.576600 10.467900
5.619500 7.191000
5.662400 3.609700
5.705300 2.712500
5.748200 2.085200
5.791100 1.625400
5.834100 1.170300
5.877000 0.719800
5.919900 0.429600
5.962800 0.268300
6.005700 0.144800
6.048600 0.059100
6.091500 0.011100
6.134400 0.000000
6.177400 0.000000
6.220300 0.000000
6.263200 0.000000
6.306100 0.000000
6.349000 0.000000
6.391900 0.000000
6.434800 2.832900
6.477700 4.951200
6.520600 4.808800
6.563600 5.509500
6.606500 7.817100
6.649400 7.225900
6.692300 8.463400
6.735200 10.174500
6.778100 5.515200
6.821000 5.231500
6.863900 4.777100
6.906900 4.178600
6.949800 4.017600
6.992700 4.668100
7.035600 4.819200
7.078500 4.364100
7.121400 4.270500
7.164300 4.187000
7.207200 4.113900
7.250200 4.051500
7.293100 4.003800
7.336000 3.801700
7.378900 3.727900
7.421800 3.744200
7.464700 4.040600
7.507600 4.159700
7.550500 4.348300
7.593400 3.822100
7.636400 3.456100
7.679300 3.435700
7.722200 3.446100
7.765100 3.454300
7.808000 3.475400
7.850900 3.522600
7.893800 3.517000
7.936700 3.727300
7.979700 4.054600
8.022600 5.459700
8.065500 4.421300
8.108400 3.843300
8.151300 3.563300
8.194200 4.308400
8.237100 3.899200
8.280000 3.537300
8.322900 3.336800
8.365900 3.136800
8.408800 2.603700
8.451700 2.703500
8.494600 2.966400
8.537500 3.347600
8.580400 3.655800
8.623300 5.831400
8.666200 5.788200
8.709200 5.371500
8.752100 4.870900
8.795000 2.706400
8.837900 2.313300
8.880800 1.766800
8.923700 1.647800
8.966600 1.765500
9.009500 1.886400
9.052500 2.205000
9.095400 2.958300
9.138300 3.468200
9.181200 3.743600
9.224100 3.526800
9.267000 3.124800
9.309900 2.900200
9.352800 2.592800
9.395700 2.212300
9.438700 3.673100
9.481600 4.312800
9.524500 4.412300
9.567400 4.251800
9.610300 4.023300
9.653200 3.688500
9.696100 3.097000
9.739000 2.451100
9.782000 2.576000
9.824900 4.390000
9.867800 5.982600
9.910700 5.334700
9.953600 5.644500
9.996500 5.867400
10.039400 5.866400
10.082300 6.182400
10.125200 5.989000
10.168200 6.312100
10.211100 6.482700
10.254000 6.744600
10.296900 7.141700
10.339800 7.651000
10.382700 9.704800
10.425600 6.847800
10.468500 6.761000
10.511500 7.171100
10.554400 10.726700
10.597300 7.115200
10.640200 7.837300
10.683100 9.033600
10.726000 8.467900
10.768900 8.494200
10.811800 8.493500
10.854800 8.033700
10.897700 7.139100
10.940600 6.520200
10.983500 5.522300
11.026400 5.028600
11.069300 4.540000
11.112200 4.165600
11.155100 3.801800
11.198000 3.580100
11.241000 3.381500
11.283900 3.150000
11.326800 2.677200
11.369700 2.395000
11.412600 2.257600
11.455500 2.130300
11.498400 1.972800
11.541300 1.771800
11.584300 1.484600
11.627200 1.181900
11.670100 0.898400
11.713000 0.603500
11.755900 0.431800
11.798800 0.912500
11.841700 1.099900
11.884600 3.460800
11.927500 1.317500
11.970500 1.470500
12.013400 1.619100
12.056300 2.147600
12.099200 2.482200
12.142100 2.848600
12.185000 3.281700
12.227900 3.666000
12.270800 4.077200
12.313800 4.195600
12.356700 4.170500
12.399600 4.130700
12.442500 5.961200
12.485400 6.485500
12.528300 6.026700
12.571200 5.112900
12.614100 4.590800
12.657100 4.405500
12.700000 4.297900
12.742900 7.065700
12.785800 8.186500
12.828700 8.174600
12.871600 7.265400
12.914500 6.980900
12.957400 5.703400
13.000300 12.270700
13.043300 7.503700
13.086200 7.172600
13.129100 6.699300
13.172000 5.753500
13.214900 5.704500
13.257800 5.666100
13.300700 5.682000
13.343600 5.991800
13.386600 6.433200
13.429500 6.979500
13.472400 7.342000
13.515300 8.320300
13.558200 6.593200
13.601100 8.787900
13.644000 7.471000
13.686900 7.583000
13.729800 5.558100
13.772800 5.401500
13.815700 5.596900
13.858600 6.101300
13.901500 5.023200
13.944400 4.003600
13.987300 2.425700
14.030200 1.404500
14.073100 0.593300
14.116100 0.334400
14.159000 1.048800
14.201900 1.734600
14.244800 2.754700
14.287700 4.276900
14.330600 5.648300
14.373500 6.358500
14.416400 6.210900
14.459400 5.411300
14.502300 5.066800
14.545200 5.683700
14.588100 7.105700
14.631000 8.558700
14.673900 8.063600
14.716800 7.520200
14.759700 6.777200
14.802600 6.432600
14.845600 8.684200
14.888500 11.602500
14.931400 12.382200
14.974300 12.145000
15.017200 10.855600
15.060100 8.210000
15.103000 7.686300
15.145900 8.599900
15.188900 12.239500
15.231800 13.373500
15.274700 10.438900
15.317600 8.341400
15.360500 11.347100
15.403400 6.487800
15.446300 6.645800
15.489200 6.111800
15.532200 7.192600
15.575100 8.301600
15.618000 5.279600
15.660900 4.107200
15.703800 4.763200
15.746700 5.495600
15.789600 6.342300
15.832500 7.342700
15.875400 7.975400
15.918400 7.895600
15.961300 8.207100
16.004200 7.361600
16.047100 5.846400
16.090000 7.579900
16.132900 9.534500
16.175800 11.650900
16.218700 9.498400
16.261700 10.111300
16.304600 10.586500
16.347500 13.761500
16.390400 11.739700
16.433300 9.789500
16.476200 9.835300
16.519100 10.467000
16.562000 8.457500
16.604900 5.825500
16.647900 4.379100
16.690800 5.609500
16.733700 7.540600
16.776600 6.138300
16.819500 5.217400
16.862400 4.987600
16.905300 5.308700
16.948200 6.323200
16.991200 6.598900
17.034100 7.904700
17.077000 8.247200
17.119900 6.253000
17.162800 5.675400
17.205700 6.227800
17.248600 6.300600
17.291500 6.375200
17.334500 6.423400
17.377400 5.824600
17.420300 5.495700
17.463200 6.991100
17.506100 6.793300
17.549000 6.840200
17.591900 8.052800
17.634800 7.990200
17.677700 8.185000
17.720700 7.745800
17.763600 8.107800
17.806500 8.981300
17.849400 9.155600
17.892300 9.041200
17.935200 9.035300
17.978100 9.222200
18.021000 9.793700
18.064000 9.716500
18.106900 9.599500
18.149800 9.515000
18.192700 9.556900
18.235600 9.582600
18.278500 10.904100
18.321400 10.277200
18.364300 11.073200
18.407200 11.485600
18.450200 10.673500
18.493100 10.388300
18.536000 15.029900
18.578900 12.146500
18.621800 12.483800
18.664700 10.281200
18.707600 9.385700
18.750500 8.462200
18.793500 9.581200
18.836400 9.205500
18.879300 9.492700
18.922200 8.214400
18.965100 7.662800
19.008000 8.250600
19.050900 8.742300
19.093800 7.766300
19.136800 6.981300
19.179700 7.038500
19.222600 6.827700
19.265500 5.881700
19.308400 5.356100
19.351300 5.017900
19.394200 4.824200
19.437100 4.774600
19.480000 4.526100
19.523000 4.114600
19.565900 2.814600
19.608800 2.768900
19.651700 2.939000
19.694600 3.224400
19.737500 3.398400
19.780400 3.596900
19.823300 3.546800
19.866300 6.560600
19.909200 5.729300
19.952100 4.987700
19.995000 4.921600
20.037900 4.245500
20.080800 4.009400
20.123700 3.596700
20.166600 3.870200
20.209500 4.465000
20.252500 5.111300
20.295400 5.685600
20.338300 5.703000
20.381200 5.598800
20.424100 5.038800
20.467000 4.452700
20.509900 3.891400
20.552800 4.366700
20.595800 3.958400
20.638700 4.395100
20.681600 3.852100
20.724500 4.857900
20.767400 5.665100
20.810300 7.677600
20.853200 8.461900
20.896100 9.221600
20.939100 9.648700
20.982000 8.132600
21.024900 7.393500
21.067800 7.080400
21.110700 6.955500
21.153600 6.974300
21.196500 7.476500
21.239400 7.234300
21.282300 6.722200
21.325300 7.074400
21.368200 7.195800
21.411100 6.510300
21.454000 7.428200
21.496900 7.986300
21.539800 8.433000
21.582700 8.521100
21.625600 11.183400
21.668600 10.224200
21.711500 10.996500
21.754400 10.912700
21.797300 9.735400
21.840200 9.037800
21.883100 8.412600
21.926000 8.164800
21.968900 8.176300
22.011800 8.087200
22.054800 6.946500
22.097700 6.871400
22.140600 6.914900
22.183500 6.598100
22.226400 5.269700
22.269300 4.654900
22.312200 4.359200
22.355100 4.935800
22.398100 5.322300
22.441000 4.792100
22.483900 5.337900
22.526800 5.535900
22.569700 6.460800
22.612600 6.714300
22.655500 6.777700
22.698400 6.920800
22.741400 7.529900
22.784300 8.208000
22.827200 7.389000
22.870100 7.123800
22.913000 7.679300
22.955900 8.171600
22.998800 8.641400
23.041700 7.869500
23.084600 7.030900
23.127600 6.941300
23.170500 7.215300
23.213400 7.363300
23.256300 7.521400
23.299200 5.940800
23.342100 6.472700
23.385000 5.836000
23.427900 4.773600
23.470900 5.323200
23.513800 6.136700
23.556700 6.967100
23.599600 7.542200
23.642500 7.589900
23.685400 9.085400
23.728300 9.657300
23.771200 8.798200
23.814100 8.553600
23.857100 7.940200
23.900000 8.507600
23.942900 9.657700
23.985800 11.028200
24.028700 10.579900
24.071600 9.285000
24.114500 7.786000
24.157400 7.688800
24.200400 7.105000
24.243300 6.246200
24.286200 5.708600
24.329100 5.097900
24.372000 4.493400
24.414900 3.974700
24.457800 4.153100
24.500700 4.609800
24.543700 5.382100
24.586600 6.026400
24.629500 6.941700
24.672400 7.860000
24.715300 8.199600
24.758200 8.454200
24.801100 8.256000
24.844000 7.906100
24.886900 8.696700
24.929900 9.342100
24.972800 8.020300
25.015700 7.821300
25.058600 8.387200
25.101500 7.845700
25.144400 7.214500
25.187300 6.129000
25.230200 5.750600
25.273200 5.553500
25.316100 5.704300
25.359000 6.754000
25.401900 7.987500
25.444800 9.499200
25.487700 9.242400
25.530600 9.100500
25.573500 9.489200
25.616400 8.111700
25.659400 7.021900
25.702300 8.428000
25.745200 9.140100
25.788100 9.363300
25.831000 9.642900
25.873900 9.673400
25.916800 8.517800
25.959700 7.574300
26.002700 7.213600
26.045600 6.736400
26.088500 8.862200
26.131400 10.497100
26.174300 8.177200
26.217200 7.834700
26.260100 8.072000
26.303000 7.802000
26.346000 12.860300
26.388900 11.464800
26.431800 8.014000
26.474700 6.989300
26.517600 6.511100
26.560500 7.977100
26.603400 10.172800
26.646300 10.150200
26.689200 8.574500
26.732200 8.562200
26.775100 9.162700
26.818000 8.439700
26.860900 9.838900
26.903800 8.209700
26.946700 8.355300
26.989600 8.413100
27.032500 9.582500
27.075500 10.284000
27.118400 14.869900
27.161300 13.254900
27.204200 12.324300
27.247100 11.847900
27.290000 8.638300
27.332900 8.209500
27.375800 10.133300
27.418700 11.015400
27.461700 9.270500
27.504600 8.121100
27.547500 9.956800
27.590400 10.043500
27.633300 9.915400
27.676200 8.938400
27.719100 8.896900
27.762000 8.556100
27.805000 8.244200
27.847900 8.247500
27.890800 7.618300
27.933700 8.377100
27.976600 9.954600
28.019500 12.262500
28.062400 9.010000
28.105300 7.318300
28.148300 8.312000
28.191200 12.251300
28.234100 13.833100
28.277000 13.786400
28.319900 13.670100
28.362800 20.618900
28.405700 21.004300
28.448600 30.823600
28.491500 21.351800
28.534500 18.075300
28.577400 26.496300
28.620300 22.863500
28.663200 16.005000
28.706100 10.660300
28.749000 10.273800
28.791900 11.330600
28.834800 13.375300
28.877800 9.760900
28.920700 10.378400
28.963600 11.019900
29.006500 9.630800
29.049400 10.520300
29.092300 10.181300
29.135200 10.466200
29.178100 9.681900
29.221000 9.252700
29.264000 8.586100
29.306900 8.617900
29.349800 10.810300
29.392700 8.740500
29.435600 7.307600
29.478500 6.804800
29.521400 5.672800
29.564300 7.201800
29.607300 7.747900
29.650200 7.612300
29.693100 6.798300
29.736000 6.077100
29.778900 5.527000
29.821800 4.999800
29.864700 5.017500
29.907600 8.122500
29.950600 6.960100
29.993500 6.411300
30.036400 6.257700
30.079300 7.062700
30.122200 7.747300
30.165100 7.278300
30.208000 8.518200
30.250900 9.725200
30.293800 8.151500
30.336800 7.071100
30.379700 5.868900
30.422600 5.454400
30.465500 6.099500
30.508400 7.087600
30.551300 11.137500
30.594200 11.915800
30.637100 4.418600
30.680100 5.156900
30.723000 5.983800
30.765900 7.878200
30.808800 7.855500
30.851700 6.885300
30.894600 5.558000
30.937500 5.586500
30.980400 6.267700
31.023300 6.127100
31.066300 5.945700
31.109200 5.902700
31.152100 5.640500
31.195000 6.202300
31.237900 7.087500
31.280800 7.959100
31.323700 8.498900
31.366600 8.345700
31.409600 9.915200
31.452500 9.689400
31.495400 9.043600
31.538300 8.315800
31.581200 8.792800
31.624100 9.518200
31.667000 7.903600
31.709900 9.381700
31.752900 10.659800
31.795800 8.813600
31.838700 7.278900
31.881600 8.817600
31.924500 9.269200
31.967400 9.559200
32.010300 9.573900
32.053200 9.638900
32.096100 9.772500
32.139100 7.849300
32.182000 6.644400
32.224900 7.551500
32.267800 11.723600
32.310700 11.550000
32.353600 10.468000
32.396500 10.224200
32.439400 8.394700
32.482400 7.405200
32.525300 6.656300
32.568200 7.048400
32.611100 8.056000
32.654000 9.289800
32.696900 9.641400
32.739800 9.798300
32.782700 10.273200
32.825600 9.876500
32.868600 8.967300
32.911500 8.737700
32.954400 8.997700
32.997300 8.994900
33.040200 9.656300
33.083100 7.948800
33.126000 7.237000
33.168900 7.002500
33.211900 6.989600
33.254800 7.841000
33.297700 9.813600
33.340600 9.128900
33.383500 8.769700
33.426400 9.647200
33.469300 10.846800
33.512200 9.708200
33.555200 7.789700
33.598100 7.964700
33.641000 10.133800
33.683900 9.783300
33.726800 8.716200
33.769700 7.960100
33.812600 7.916000
33.855500 9.077400
33.898400 11.358600
33.941400 8.642300
33.984300 6.570300
34.027200 6.604600
34.070100 6.679300
34.113000 7.597100
34.155900 8.775000
34.198800 9.374100
34.241700 9.185000
34.284700 9.448100
34.327600 8.254100
34.370500 8.731400
34.413400 9.593300
34.456300 7.999800
34.499200 9.196200
34.542100 10.161400
34.585000 10.247300
34.627900 14.498600
34.670900 9.556600
34.713800 9.169900
34.756700 9.891700
34.799600 10.552700
34.842500 13.076800
34.885400 11.464200
34.928300 13.044800
34.971200 10.207400
35.014200 8.478100
35.057100 8.417200
35.100000 8.634600
35.142900 9.726300
35.185800 9.908300
35.228700 11.699800
35.271600 10.673000
35.314500 9.091000
35.357500 8.828700
35.400400 8.929400
35.443300 9.167000
35.486200 12.584100
35.529100 11.965800
35.572000 18.502700
35.614900 10.051300
35.657800 8.265400
35.700700 9.670600
35.743700 11.720900
35.786600 12.562100
35.829500 10.924800
35.872400 9.957800
35.915300 9.260000
35.958200 9.067200
36.001100 9.303700
36.044000 10.281300
36.087000 9.996900
36.129900 12.533000
36.172800 15.794500
36.215700 9.974000
36.258600 8.544500
36.301500 9.235100
36.344400 7.979100
36.387300 8.022200
36.430200 7.795600
36.473200 8.385100
36.516100 8.961000
36.559000 10.492100
36.601900 11.399100
36.644800 15.008100
36.687700 12.149000
36.730600 11.430300
36.773500 10.349800
36.816500 14.972700
36.859400 11.279400
36.902300 11.552800
36.945200 8.630100
36.988100 10.419600
37.031000 12.211800
37.073900 15.151400
37.116800 15.880200
37.159800 15.125100
37.202700 10.932600
37.245600 11.541000
37.288500 8.785900
37.331400 8.374600
37.374300 7.849800
37.417200 7.856300
37.460100 9.529500
37.503000 12.384200
37.546000 11.755400
37.588900 11.333300
37.631800 11.691600
37.674700 12.365100
37.717600 10.233000
37.760500 10.714300
37.803400 10.600900
37.846300 11.585300
37.889300 12.101500
37.932200 10.028000
37.975100 10.651100
38.018000 7.397800
38.060900 3.973900
38.103800 2.787000
38.146700 1.935300
38.189600 0.874800
38.232500 0.355000
38.275500 0.034300
38.318400 0.000000
38.361300 0.000000
38.404200 0.000000
38.447100 0.000000
38.490000 0.000000
38.532900 0.000000
38.575800 0.000000
38.618800 0.000000
38.661700 0.000000
38.704600 0.000000
38.747500 0.000000
38.790400 0.000000
38.833300 0.000000
38.876200 0.000000
38.919100 0.000000
38.962100 0.000000
39.005000 0.000000
39.047900 0.000000
39.090800 0.000000
39.133700 0.000000
39.176600 0.000000
39.219500 0.000000
39.262400 0.000000
39.305300 0.000000
39.348300 0.000000
39.391200 0.000000
39.434100 0.000000
39.477000 0.000000
39.519900 0.000000
39.562800 0.000000
39.605700 0.000000
39.648600 0.000000
39.691600 0.000000
39.734500 0.000000
39.777400 0.000000
39.820300 0.000000
39.863200 0.000000
39.906100 0.000000
39.949000 0.000000
39.991900 0.000000
40.034800 0.000000
40.077800 0.000000
40.120700 0.000000
40.163600 0.000000
40.206500 0.000000
40.249400 0.000000
40.292300 0.000000
40.335200 0.000000
40.378100 0.000000
40.421100 0.000000
40.464000 0.000000
40.506900 0.000000
40.549800 0.000000
40.592700 0.000000
40.635600 0.000000
40.678500 0.000000
40.721400 0.000000
40.764400 0.000000
40.807300 0.000000
40.850200 0.000000
40.893100 0.000000
40.936000 0.000000
40.978900 0.000000
41.021800 0.000000
41.064700 0.000000
41.107600 0.000000
41.150600 0.000000
41.193500 0.000000
41.236400 0.000000
41.279300 0.000000
41.322200 0.000000
41.365100 0.000000
41.408000 0.000000
41.450900 0.000000
41.493900 0.000000
41.536800 0.000000
41.579700 0.000000
41.622600 0.000000
41.665500 0.000000
41.708400 0.000000
41.751300 0.000000
41.794200 0.000000
41.837100 0.000000
41.880100 0.000000
41.923000 0.000000
41.965900 0.000000
42.008800 0.000000
42.051700 0.000000
42.094600 0.000000
42.137500 0.000000
42.180400 0.000000
e
