set title 'mp-635425 - Density of States'
set xlabel 'Energy (eV)'
set ylabel 'DOS (states/eV)'
set grid
set xrange [-10:10]
set yrange [0:18.338]
set xzeroaxis lt -1
set terminal png size 800,600
set output 'mp-635425_dos_gnuplot.png'
plot '-' using 1:2 with lines title 'DOS'
-24.210200 0.000000
-24.182800 0.000000
-24.155400 0.000000
-24.128100 0.000000
-24.100700 0.000000
-24.073300 0.000000
-24.046000 0.000000
-24.018600 0.000000
-23.991300 0.000000
-23.963900 0.000000
-23.936500 0.000000
-23.909200 0.000000
-23.881800 0.000000
-23.854400 0.000000
-23.827100 0.000000
-23.799700 0.000000
-23.772300 0.000000
-23.745000 0.000000
-23.717600 0.000000
-23.690200 0.000000
-23.662900 0.000000
-23.635500 0.000000
-23.608100 0.000000
-23.580800 0.000000
-23.553400 0.000000
-23.526000 0.000000
-23.498700 0.000000
-23.471300 0.000000
-23.444000 0.000000
-23.416600 0.000000
-23.389200 0.000000
-23.361900 0.000000
-23.334500 0.000000
-23.307100 0.000000
-23.279800 0.000000
-23.252400 0.000000
-23.225000 0.000000
-23.197700 0.000000
-23.170300 0.000000
-23.142900 0.000000
-23.115600 0.000000
-23.088200 0.000000
-23.060800 0.000000
-23.033500 0.000000
-23.006100 0.000000
-22.978700 0.000000
-22.951400 0.000000
-22.924000 0.000000
-22.896700 0.000000
-22.869300 0.000000
-22.841900 0.000000
-22.814600 0.000000
-22.787200 0.000000
-22.759800 0.000000
-22.732500 0.000000
-22.705100 0.000000
-22.677700 0.000000
-22.650400 0.000000
-22.623000 0.000000
-22.595600 0.000000
-22.568300 0.000000
-22.540900 0.000000
-22.513500 0.000000
-22.486200 0.000000
-22.458800 0.000000
-22.431400 0.000000
-22.404100 0.000000
-22.376700 0.000000
-22.349400 0.000000
-22.322000 0.000000
-22.294600 0.000000
-22.267300 0.000000
-22.239900 0.000000
-22.212500 0.000000
-22.185200 0.000000
-22.157800 0.000000
-22.130400 0.000000
-22.103100 0.000000
-22.075700 0.000000
-22.048300 0.000000
-22.021000 0.000000
-21.993600 0.000000
-21.966200 0.000000
-21.938900 0.000000
-21.911500 0.000000
-21.884200 0.000000
-21.856800 0.000000
-21.829400 0.000000
-21.802100 0.000000
-21.774700 0.000000
-21.747300 0.000000
-21.720000 0.001600
-21.692600 0.236100
-21.665200 0.824200
-21.637900 1.203600
-21.610500 1.435400
-21.583100 1.748400
-21.555800 2.132000
-21.528400 2.776900
-21.501000 3.613700
-21.473700 4.471700
-21.446300 5.182300
-21.418900 4.177900
-21.391600 3.021400
-21.364200 2.981900
-21.336900 2.902400
-21.309500 2.775200
-21.282100 2.566600
-21.254800 2.335600
-21.227400 2.344000
-21.200000 2.360400
-21.172700 2.433100
-21.145300 2.547600
-21.117900 2.743000
-21.090600 3.165300
-21.063200 3.611400
-21.035800 4.431700
-21.008500 4.488100
-20.981100 4.285200
-20.953700 1.922600
-20.926400 3.010700
-20.899000 3.304100
-20.871600 3.382800
-20.844300 3.699400
-20.816900 4.192900
-20.789600 4.789100
-20.762200 7.042800
-20.734800 11.588100
-20.707500 16.493600
-20.680100 7.208800
-20.652700 2.838800
-20.625400 0.000000
-20.598000 0.000000
-20.570600 0.000000
-20.543300 0.000000
-20.515900 1.098400
-20.488500 3.763800
-20.461200 12.074000
-20.433800 17.529900
-20.406400 16.653100
-20.379100 7.580900
-20.351700 6.582200
-20.324300 4.107500
-20.297000 3.352400
-20.269600 8.032600
-20.242300 5.474700
-20.214900 4.886100
-20.187500 6.486300
-20.160200 6.789400
-20.132800 6.869300
-20.105400 6.804800
-20.078100 6.949400
-20.050700 7.816500
-20.023300 5.157200
-19.996000 3.374900
-19.968600 2.222700
-19.941200 0.476200
-19.913900 0.000000
-19.886500 0.000000
-19.859100 0.000000
-19.831800 0.110100
-19.804400 3.540600
-19.777000 7.307700
-19.749700 12.168100
-19.722300 14.784000
-19.695000 13.189400
-19.667600 12.997100
-19.640200 7.143400
-19.612900 0.112600
-19.585500 0.000000
-19.558100 0.000000
-19.530800 0.000000
-19.503400 0.000000
-19.476000 0.000000
-19.448700 2.337900
-19.421300 16.801100
-19.393900 15.247400
-19.366600 10.256300
-19.339200 8.070700
-19.311800 7.136800
-19.284500 6.254400
-19.257100 6.033300
-19.229700 2.572700
-19.202400 0.000000
-19.175000 0.000000
-19.147700 0.000000
-19.120300 0.000000
-19.092900 0.000000
-19.065600 0.000000
-19.038200 0.000000
-19.010800 0.000000
-18.983500 0.000000
-18.956100 0.000000
-18.928700 0.000000
-18.901400 0.000000
-18.874000 0.000000
-18.846600 0.000000
-18.819300 0.000000
-18.791900 0.000000
-18.764500 0.000000
-18.737200 0.000000
-18.709800 0.000000
-18.682400 0.000000
-18.655100 0.000000
-18.627700 0.000000
-18.600400 0.000000
-18.573000 0.000000
-18.545600 0.000000
-18.518300 0.000000
-18.490900 0.000000
-18.463500 0.000000
-18.436200 0.000000
-18.408800 0.000000
-18.381400 0.000000
-18.354100 0.000000
-18.326700 0.000000
-18.299300 0.000000
-18.272000 0.000000
-18.244600 0.000000
-18.217200 0.000000
-18.189900 0.000000
-18.162500 0.000000
-18.135200 0.000000
-18.107800 0.000000
-18.080400 0.000000
-18.053100 0.000000
-18.025700 0.000000
-17.998300 0.000000
-17.971000 0.000000
-17.943600 0.000000
-17.916200 0.000000
-17.888900 0.000000
-17.861500 0.000000
-17.834100 0.000000
-17.806800 0.000000
-17.779400 0.000000
-17.752000 0.000000
-17.724700 0.000000
-17.697300 0.000000
-17.669900 0.000000
-17.642600 0.000000
-17.615200 0.000000
-17.587900 0.000000
-17.560500 0.000000
-17.533100 0.000000
-17.505800 0.000000
-17.478400 0.000000
-17.451000 0.000000
-17.423700 0.000000
-17.396300 0.000000
-17.368900 0.000000
-17.341600 0.000000
-17.314200 0.000000
-17.286800 0.000000
-17.259500 0.000000
-17.232100 0.000000
-17.204700 0.000000
-17.177400 0.000000
-17.150000 0.000000
-17.122600 0.000000
-17.095300 0.000000
-17.067900 0.000000
-17.040600 0.000000
-17.013200 0.000000
-16.985800 0.000000
-16.958500 0.000000
-16.931100 0.000000
-16.903700 0.000000
-16.876400 0.000000
-16.849000 0.000000
-16.821600 0.000000
-16.794300 0.000000
-16.766900 0.000000
-16.739500 0.000000
-16.712200 0.000000
-16.684800 0.000000
-16.657400 0.000000
-16.630100 0.000000
-16.602700 0.000000
-16.575300 0.000000
-16.548000 0.000000
-16.520600 0.000000
-16.493300 0.000000
-16.465900 0.000000
-16.438500 0.000000
-16.411200 0.000000
-16.383800 0.000000
-16.356400 0.000000
-16.329100 0.000000
-16.301700 0.000000
-16.274300 0.000000
-16.247000 0.000000
-16.219600 0.000000
-16.192200 0.000000
-16.164900 0.000000
-16.137500 0.000000
-16.110100 0.000000
-16.082800 0.000000
-16.055400 0.000000
-16.028000 0.000000
-16.000700 0.000000
-15.973300 0.000000
-15.946000 0.000000
-15.918600 0.000000
-15.891200 0.000000
-15.863900 0.000000
-15.836500 0.000000
-15.809100 0.000000
-15.781800 0.000000
-15.754400 0.000000
-15.727000 0.000000
-15.699700 0.000000
-15.672300 0.000000
-15.644900 0.000000
-15.617600 0.000000
-15.590200 0.000000
-15.562800 0.000000
-15.535500 0.000000
-15.508100 0.000000
-15.480700 0.000000
-15.453400 0.000000
-15.426000 0.000000
-15.398700 0.000000
-15.371300 0.000000
-15.343900 0.000000
-15.316600 0.000000
-15.289200 0.000000
-15.261800 0.000000
-15.234500 0.000000
-15.207100 0.000000
-15.179700 0.000000
-15.152400 0.000000
-15.125000 0.000000
-15.097600 0.000000
-15.070300 0.000000
-15.042900 0.000000
-15.015500 0.000000
-14.988200 0.000000
-14.960800 0.000000
-14.933400 0.000000
-14.906100 0.000000
-14.878700 0.000000
-14.851400 0.000000
-14.824000 0.000000
-14.796600 0.000000
-14.769300 0.000000
-14.741900 0.000000
-14.714500 0.000000
-14.687200 0.000000
-14.659800 0.000000
-14.632400 0.000000
-14.605100 0.000000
-14.577700 0.000000
-14.550300 0.000000
-14.523000 0.000000
-14.495600 0.000000
-14.468200 0.000000
-14.440900 0.000000
-14.413500 0.000000
-14.386200 0.000000
-14.358800 0.000000
-14.331400 0.000000
-14.304100 0.000000
-14.276700 0.000000
-14.249300 0.000000
-14.222000 0.000000
-14.194600 0.000000
-14.167200 0.000000
-14.139900 0.000000
-14.112500 0.000000
-14.085100 0.000000
-14.057800 0.000000
-14.030400 0.000000
-14.003000 0.000000
-13.975700 0.000000
-13.948300 0.000000
-13.920900 0.000000
-13.893600 0.000000
-13.866200 0.000000
-13.838900 0.000000
-13.811500 0.000000
-13.784100 0.000000
-13.756800 0.000000
-13.729400 0.000000
-13.702000 0.000000
-13.674700 0.000000
-13.647300 0.000000
-13.619900 0.000000
-13.592600 0.000000
-13.565200 0.000000
-13.537800 0.000000
-13.510500 0.000000
-13.483100 0.000000
-13.455700 0.000000
-13.428400 0.000000
-13.401000 0.000000
-13.373600 0.000000
-13.346300 0.000000
-13.318900 0.000000
-13.291600 0.000000
-13.264200 0.000000
-13.236800 0.000000
-13.209500 0.000000
-13.182100 0.000000
-13.154700 0.000000
-13.127400 0.000000
-13.100000 0.000000
-13.072600 0.000000
-13.045300 0.000000
-13.017900 0.000000
-12.990500 0.000000
-12.963200 0.000000
-12.935800 0.000000
-12.908400 0.000000
-12.881100 0.000000
-12.853700 0.000000
-12.826300 0.000000
-12.799000 0.000000
-12.771600 0.000000
-12.744300 0.000000
-12.716900 0.000000
-12.689500 0.000000
-12.662200 0.000000
-12.634800 0.000000
-12.607400 0.000000
-12.580100 0.000000
-12.552700 0.000000
-12.525300 0.000000
-12.498000 0.000000
-12.470600 0.000000
-12.443200 0.000000
-12.415900 0.000000
-12.388500 0.000000
-12.361100 0.000000
-12.333800 0.000000
-12.306400 0.000000
-12.279000 0.000000
-12.251700 0.000000
-12.224300 0.000000
-12.197000 0.000000
-12.169600 0.000000
-12.142200 0.000000
-12.114900 0.000000
-12.087500 0.000000
-12.060100 0.000000
-12.032800 0.000000
-12.005400 0.000000
-11.978000 0.000000
-11.950700 0.000000
-11.923300 0.000000
-11.895900 0.000000
-11.868600 0.000000
-11.841200 0.000000
-11.813800 0.000000
-11.786500 0.000000
-11.759100 0.000000
-11.731700 0.000000
-11.704400 0.000000
-11.677000 0.000000
-11.649700 0.000000
-11.622300 0.000000
-11.594900 0.000000
-11.567600 0.000000
-11.540200 0.000000
-11.512800 0.000000
-11.485500 0.000000
-11.458100 0.000000
-11.430700 0.000000
-11.403400 0.000000
-11.376000 0.000000
-11.348600 0.000000
-11.321300 0.000000
-11.293900 0.000000
-11.266500 0.000000
-11.239200 0.000000
-11.211800 0.000000
-11.184500 0.000000
-11.157100 0.000000
-11.129700 0.000000
-11.102400 0.000000
-11.075000 0.000000
-11.047600 0.000000
-11.020300 0.000000
-10.992900 0.000000
-10.965500 0.000000
-10.938200 0.000000
-10.910800 0.000000
-10.883400 0.000000
-10.856100 0.000000
-10.828700 0.000000
-10.801300 0.000000
-10.774000 0.000000
-10.746600 0.000000
-10.719200 0.000000
-10.691900 0.000000
-10.664500 0.000000
-10.637200 0.000000
-10.609800 0.000000
-10.582400 0.000000
-10.555100 0.000000
-10.527700 0.000000
-10.500300 0.000000
-10.473000 0.000000
-10.445600 0.000000
-10.418200 0.000000
-10.390900 0.000000
-10.363500 0.000000
-10.336100 0.000000
-10.308800 0.000000
-10.281400 0.000000
-10.254000 0.000000
-10.226700 0.000000
-10.199300 0.000000
-10.171900 0.000000
-10.144600 0.000000
-10.117200 0.000000
-10.089900 0.000000
-10.062500 0.000000
-10.035100 0.000000
-10.007800 0.000000
-9.980400 0.000000
-9.953000 0.000000
-9.925700 0.000000
-9.898300 0.000000
-9.870900 0.000000
-9.843600 0.000000
-9.816200 0.000000
-9.788800 0.000000
-9.761500 0.000000
-9.734100 0.000000
-9.706700 0.000000
-9.679400 0.000000
-9.652000 0.000000
-9.624600 0.000000
-9.597300 0.000000
-9.569900 0.000000
-9.542600 0.000000
-9.515200 0.000000
-9.487800 0.000000
-9.460500 0.000000
-9.433100 0.000000
-9.405700 0.000000
-9.378400 0.000000
-9.351000 0.000000
-9.323600 0.000000
-9.296300 0.000000
-9.268900 0.000000
-9.241500 0.000000
-9.214200 0.000000
-9.186800 0.000000
-9.159400 0.000000
-9.132100 0.000000
-9.104700 0.000000
-9.077300 0.000000
-9.050000 0.000000
-9.022600 0.000000
-8.995300 0.000000
-8.967900 0.000000
-8.940500 0.000000
-8.913200 0.000000
-8.885800 0.000000
-8.858400 0.000000
-8.831100 0.000000
-8.803700 0.000000
-8.776300 0.000000
-8.749000 0.000000
-8.721600 0.000000
-8.694200 0.000000
-8.666900 0.000000
-8.639500 0.000000
-8.612100 0.000000
-8.584800 0.000000
-8.557400 0.000000
-8.530000 0.000000
-8.502700 0.000000
-8.475300 0.000000
-8.448000 0.000000
-8.420600 0.000000
-8.393200 0.000000
-8.365900 0.000000
-8.338500 0.000000
-8.311100 0.000000
-8.283800 0.000000
-8.256400 0.000000
-8.229000 0.000000
-8.201700 0.000000
-8.174300 0.000000
-8.146900 0.000000
-8.119600 0.000000
-8.092200 0.000000
-8.064800 0.000000
-8.037500 0.000000
-8.010100 0.000000
-7.982700 0.000000
-7.955400 0.000000
-7.928000 0.000000
-7.900700 0.000000
-7.873300 0.000000
-7.845900 0.000000
-7.818600 0.000000
-7.791200 0.000000
-7.763800 0.000000
-7.736500 0.000000
-7.709100 0.000000
-7.681700 0.000000
-7.654400 0.000000
-7.627000 0.000000
-7.599600 0.000000
-7.572300 0.000000
-7.544900 0.000000
-7.517500 0.000000
-7.490200 0.000000
-7.462800 0.000000
-7.435500 0.000000
-7.408100 0.000000
-7.380700 0.000000
-7.353400 0.000000
-7.326000 0.000000
-7.298600 0.000000
-7.271300 0.000000
-7.243900 0.000000
-7.216500 0.000000
-7.189200 0.000000
-7.161800 0.000000
-7.134400 0.000000
-7.107100 0.000000
-7.079700 0.000000
-7.052300 0.000000
-7.025000 0.000000
-6.997600 0.000000
-6.970200 0.000000
-6.942900 0.000000
-6.915500 0.000000
-6.888200 0.000000
-6.860800 0.000000
-6.833400 0.000000
-6.806100 0.000000
-6.778700 0.000000
-6.751300 0.000000
-6.724000 0.000000
-6.696600 0.000000
-6.669200 0.000000
-6.641900 0.000000
-6.614500 0.000000
-6.587100 0.000000
-6.559800 0.000000
-6.532400 0.000000
-6.505000 0.000000
-6.477700 0.000000
-6.450300 0.000000
-6.422900 0.000000
-6.395600 0.000000
-6.368200 0.000000
-6.340900 0.000000
-6.313500 0.000000
-6.286100 0.000000
-6.258800 0.000000
-6.231400 0.000000
-6.204000 0.000000
-6.176700 0.000000
-6.149300 0.000000
-6.121900 0.000000
-6.094600 0.000000
-6.067200 0.000100
-6.039800 0.056800
-6.012500 0.215700
-5.985100 0.453600
-5.957700 0.712100
-5.930400 1.026700
-5.903000 1.383100
-5.875600 1.501800
-5.848300 1.626700
-5.820900 1.757800
-5.793600 1.917100
-5.766200 2.129700
-5.738800 2.435600
-5.711500 2.537900
-5.684100 2.277500
-5.656700 2.001500
-5.629400 1.700300
-5.602000 1.474100
-5.574600 1.380000
-5.547300 1.369200
-5.519900 1.352800
-5.492500 1.331500
-5.465200 1.310600
-5.437800 1.287800
-5.410400 1.262100
-5.383100 1.232600
-5.355700 1.196600
-5.328300 1.147100
-5.301000 1.104800
-5.273600 1.057700
-5.246300 1.029000
-5.218900 1.018100
-5.191500 1.018300
-5.164200 1.018600
-5.136800 1.018900
-5.109400 1.019300
-5.082100 1.019600
-5.054700 1.020000
-5.027300 1.020500
-5.000000 1.023500
-4.972600 1.311200
-4.945200 1.834500
-4.917900 2.516600
-4.890500 2.856400
-4.863100 3.102600
-4.835800 3.335600
-4.808400 3.576100
-4.781000 4.067800
-4.753700 4.468400
-4.726300 4.814200
-4.699000 4.952200
-4.671600 4.518100
-4.644200 4.006600
-4.616900 3.823100
-4.589500 3.690300
-4.562100 3.408100
-4.534800 3.059200
-4.507400 2.566700
-4.480000 2.048100
-4.452700 2.485000
-4.425300 2.670100
-4.397900 2.885500
-4.370600 3.138900
-4.343200 2.705400
-4.315800 2.545500
-4.288500 2.522800
-4.261100 2.390100
-4.233700 2.230200
-4.206400 2.055200
-4.179000 1.737100
-4.151700 1.318500
-4.124300 0.979200
-4.096900 0.732400
-4.069600 0.571900
-4.042200 0.417400
-4.014800 0.265300
-3.987500 0.137600
-3.960100 0.046000
-3.932700 0.000400
-3.905400 0.000000
-3.878000 0.195800
-3.850600 1.030900
-3.823300 0.749800
-3.795900 1.286600
-3.768500 2.080600
-3.741200 2.832600
-3.713800 3.416900
-3.686500 3.613300
-3.659100 3.806400
-3.631700 4.031300
-3.604400 4.171700
-3.577000 5.182100
-3.549600 7.683200
-3.522300 6.786900
-3.494900 7.259700
-3.467500 8.690000
-3.440200 10.461700
-3.412800 8.681200
-3.385400 8.022200
-3.358100 7.811300
-3.330700 8.252700
-3.303300 7.709600
-3.276000 8.852200
-3.248600 10.743900
-3.221200 11.665000
-3.193900 8.990900
-3.166500 7.061900
-3.139200 5.815300
-3.111800 6.674200
-3.084400 8.897600
-3.057100 9.460200
-3.029700 8.516000
-3.002300 8.744500
-2.975000 6.638600
-2.947600 5.050000
-2.920200 3.572600
-2.892900 4.403400
-2.865500 4.562100
-2.838100 5.935100
-2.810800 7.411700
-2.783400 10.150800
-2.756000 9.337100
-2.728700 7.773500
-2.701300 5.674700
-2.673900 4.931000
-2.646600 3.797600
-2.619200 3.674500
-2.591900 2.834200
-2.564500 2.767200
-2.537100 4.023000
-2.509800 6.788100
-2.482400 9.763600
-2.455000 10.287700
-2.427700 10.060500
-2.400300 7.441600
-2.372900 5.855700
-2.345600 5.143800
-2.318200 4.345500
-2.290800 4.267700
-2.263500 5.145400
-2.236100 4.397500
-2.208700 3.373200
-2.181400 3.366800
-2.154000 3.222800
-2.126600 3.097800
-2.099300 3.323500
-2.071900 3.925900
-2.044600 4.755700
-2.017200 5.179600
-1.989800 5.572500
-1.962500 6.302300
-1.935100 7.169100
-1.907700 7.909200
-1.880400 7.072000
-1.853000 7.266700
-1.825600 7.685000
-1.798300 8.037800
-1.770900 7.016300
-1.743500 6.170400
-1.716200 5.831700
-1.688800 5.647300
-1.661400 5.437300
-1.634100 5.244200
-1.606700 5.467700
-1.579300 6.260500
-1.552000 7.008600
-1.524600 6.841900
-1.497300 6.663700
-1.469900 6.584500
-1.442500 6.148000
-1.415200 5.381900
-1.387800 4.888200
-1.360400 4.174700
-1.333100 3.830900
-1.305700 4.045200
-1.278300 4.980000
-1.251000 6.423000
-1.223600 6.595800
-1.196200 7.050500
-1.168900 12.828100
-1.141500 11.021000
-1.114100 8.422700
-1.086800 7.552100
-1.059400 9.909200
-1.032000 7.566800
-1.004700 5.582900
-0.977300 3.342900
-0.950000 3.289000
-0.922600 5.365600
-0.895200 8.918600
-0.867900 10.939300
-0.840500 12.609000
-0.813100 12.065200
-0.785800 9.103400
-0.758400 6.054300
-0.731000 3.441800
-0.703700 2.803900
-0.676300 3.139700
-0.648900 5.807500
-0.621600 8.970300
-0.594200 10.586500
-0.566800 11.416800
-0.539500 11.781600
-0.512100 9.059100
-0.484700 5.968900
-0.457400 4.109200
-0.430000 4.313000
-0.402700 6.917100
-0.375300 9.982600
-0.347900 11.393900
-0.320600 9.508900
-0.293200 8.043500
-0.265800 6.674000
-0.238500 5.106200
-0.211100 4.806000
-0.183700 7.061100
-0.156400 9.184700
-0.129000 9.471400
-0.101600 14.354500
-0.074300 14.525600
-0.046900 13.039700
-0.019500 10.112300
0.007800 7.455800
0.035200 8.924200
0.062500 15.728200
0.089900 13.155800
0.117300 10.428100
0.144600 10.324400
0.172000 11.080000
0.199400 16.671000
0.226700 9.477700
0.254100 7.176700
0.281500 5.183000
0.308800 4.355300
0.336200 4.766800
0.363600 8.355900
0.390900 9.887600
0.418300 10.284700
0.445700 7.973200
0.473000 5.956800
0.500400 5.494500
0.527800 7.093200
0.555100 6.585500
0.582500 5.189900
0.609800 4.984500
0.637200 4.988600
0.664600 4.942500
0.691900 4.877800
0.719300 4.859800
0.746700 4.999300
0.774000 2.232900
0.801400 0.260500
0.828800 0.000000
0.856100 0.000000
0.883500 0.000000
0.910900 0.000000
0.938200 0.000000
0.965600 0.000000
0.993000 0.000000
1.020300 0.000000
1.047700 0.000000
1.075100 0.000000
1.102400 0.000000
1.129800 0.000000
1.157100 0.000000
1.184500 0.000000
1.211900 0.000000
1.239200 0.000000
1.266600 0.000000
1.294000 0.000000
1.321300 0.000000
1.348700 0.000000
1.376100 0.000000
1.403400 0.000000
1.430800 0.000000
1.458200 0.000000
1.485500 0.000000
1.512900 0.000000
1.540300 0.000000
1.567600 0.000000
1.595000 0.000000
1.622400 0.000000
1.649700 0.000000
1.677100 0.000000
1.704400 0.000000
1.731800 0.000000
1.759200 0.000000
1.786500 0.000000
1.813900 0.000000
1.841300 0.000000
1.868600 0.000000
1.896000 0.000000
1.923400 0.000000
1.950700 0.000000
1.978100 0.000000
2.005500 0.000000
2.032800 0.000000
2.060200 0.000000
2.087600 0.000000
2.114900 0.000000
2.142300 0.000000
2.169700 0.000000
2.197000 0.000000
2.224400 0.000000
2.251700 0.000000
2.279100 0.000000
2.306500 0.000000
2.333800 0.000000
2.361200 0.000000
2.388600 0.000000
2.415900 0.000000
2.443300 0.000000
2.470700 0.000000
2.498000 0.000000
2.525400 0.000000
2.552800 0.000000
2.580100 0.000000
2.607500 0.000000
2.634900 0.000000
2.662200 0.000000
2.689600 0.000000
2.717000 0.000000
2.744300 0.000000
2.771700 0.000000
2.799000 0.000000
2.826400 0.000000
2.853800 0.000000
2.881100 0.000000
2.908500 0.000000
2.935900 0.000000
2.963200 0.000000
2.990600 0.000000
3.018000 0.000000
3.045300 0.000000
3.072700 0.000000
3.100100 0.000000
3.127400 0.000000
3.154800 0.000000
3.182200 0.000000
3.209500 0.000000
3.236900 0.000000
3.264200 0.000000
3.291600 0.000000
3.319000 0.000000
3.346300 0.000000
3.373700 0.000000
3.401100 0.000000
3.428400 0.000000
3.455800 0.000000
3.483200 0.000000
3.510500 0.000000
3.537900 0.000000
3.565300 0.000000
3.592600 0.000000
3.620000 0.000000
3.647400 0.000000
3.674700 0.000000
3.702100 0.000000
3.729500 0.000000
3.756800 0.000000
3.784200 0.000000
3.811500 0.000000
3.838900 0.000000
3.866300 0.000000
3.893600 0.000000
3.921000 0.000000
3.948400 0.000000
3.975700 0.000000
4.003100 0.000000
4.030500 0.000000
4.057800 0.000000
4.085200 0.000000
4.112600 0.000000
4.139900 0.000000
4.167300 0.000000
4.194700 0.000000
4.222000 0.000000
4.249400 0.000000
4.276800 0.000000
4.304100 0.000000
4.331500 0.000000
4.358800 0.000000
4.386200 0.000000
4.413600 0.000000
4.440900 0.000000
4.468300 0.000000
4.495700 0.000000
4.523000 0.000000
4.550400 0.000000
4.577800 0.000000
4.605100 0.000000
4.632500 0.000000
4.659900 0.000000
4.687200 0.000000
4.714600 0.000000
4.742000 0.000000
4.769300 0.000000
4.796700 0.000000
4.824100 0.000000
4.851400 0.000000
4.878800 0.000000
4.906100 0.000000
4.933500 0.000000
4.960900 0.000000
4.988200 0.000000
5.015600 0.000000
5.043000 0.000000
5.070300 0.000000
5.097700 0.000000
5.125100 0.000000
5.152400 0.000000
5.179800 0.000000
5.207200 0.000000
5.234500 0.000000
5.261900 0.000000
5.289300 0.000000
5.316600 0.000000
5.344000 0.000000
5.371400 0.000000
5.398700 0.000000
5.426100 0.000000
5.453400 0.000000
5.480800 0.000000
5.508200 0.000000
5.535500 0.000000
5.562900 0.000000
5.590300 0.000000
5.617600 0.000000
5.645000 0.000000
5.672400 0.000000
5.699700 0.000000
5.727100 0.000000
5.754500 0.000000
5.781800 0.000000
5.809200 0.000000
5.836600 0.000000
5.863900 0.000000
5.891300 0.000000
5.918700 0.000000
5.946000 0.000000
5.973400 0.000000
6.000700 0.000000
6.028100 0.000000
6.055500 0.000000
6.082800 0.000000
6.110200 0.000000
6.137600 0.000000
6.164900 0.000000
6.192300 0.000000
6.219700 0.000000
6.247000 0.000000
6.274400 0.000000
6.301800 0.000000
6.329100 0.000000
6.356500 0.000000
6.383900 0.000000
6.411200 0.000000
6.438600 0.000000
6.466000 0.000000
6.493300 0.000000
6.520700 0.000000
6.548000 0.000000
6.575400 0.000000
6.602800 0.000000
6.630100 0.000000
6.657500 0.000000
6.684900 0.000000
6.712200 0.000000
6.739600 0.000000
6.767000 0.000000
6.794300 0.000000
6.821700 0.000000
6.849100 0.000000
6.876400 0.000000
6.903800 0.000000
6.931200 0.000000
6.958500 0.000000
6.985900 0.000000
7.013200 0.000000
7.040600 0.000000
7.068000 0.000000
7.095300 0.000000
7.122700 0.000000
7.150100 0.000000
7.177400 0.000000
7.204800 0.000000
7.232200 0.000000
7.259500 0.000000
7.286900 0.000000
7.314300 0.000000
7.341600 0.000000
7.369000 0.000000
7.396400 0.000000
7.423700 0.000000
7.451100 0.000000
7.478500 0.000000
7.505800 0.000000
7.533200 0.000000
7.560500 0.000000
7.587900 0.000000
7.615300 0.000200
7.642600 0.001600
7.670000 0.004500
7.697400 0.008800
7.724700 0.014600
7.752100 0.021800
7.779500 0.030500
7.806800 0.040500
7.834200 0.052100
7.861600 0.065100
7.888900 0.079500
7.916300 0.095400
7.943700 0.112700
7.971000 0.131300
7.998400 0.147800
8.025800 0.159600
8.053100 0.169000
8.080500 0.176800
8.107800 0.183000
8.135200 0.188000
8.162600 0.192400
8.189900 0.197200
8.217300 0.203800
8.244700 0.211300
8.272000 0.219000
8.299400 0.226900
8.326800 0.234800
8.354100 0.242800
8.381500 0.251000
8.408900 0.259200
8.436200 0.267500
8.463600 0.275900
8.491000 0.284300
8.518300 0.293100
8.545700 0.302200
8.573100 0.311700
8.600400 0.321500
8.627800 0.331800
8.655100 0.342500
8.682500 0.353500
8.709900 0.364900
8.737200 0.376800
8.764600 0.389400
8.792000 0.402600
8.819300 0.416100
8.846700 0.432200
8.874100 0.451000
8.901400 0.472800
8.928800 0.498500
8.956200 0.523000
8.983500 0.546300
9.010900 0.568200
9.038300 0.588000
9.065600 0.605900
9.093000 0.621700
9.120400 0.635600
9.147700 0.647600
9.175100 0.657600
9.202400 0.665800
9.229800 0.672300
9.257200 0.678000
9.284500 0.694300
9.311900 0.712300
9.339300 0.730600
9.366600 0.751700
9.394000 0.777000
9.421400 0.806400
9.448700 0.837800
9.476100 0.869700
9.503500 0.903700
9.530800 0.940400
9.558200 1.034800
9.585600 1.075500
9.612900 1.131000
9.640300 1.052300
9.667700 0.978000
9.695000 0.908000
9.722400 0.852200
9.749700 0.809500
9.777100 0.773700
9.804500 0.745000
9.831800 0.726700
9.859200 0.719300
9.886600 0.719700
9.913900 0.720300
9.941300 0.720300
9.968700 0.720000
9.996000 0.720300
10.023400 0.721600
10.050800 0.725700
10.078100 0.730800
10.105500 0.734100
10.132900 0.733000
10.160200 0.730600
10.187600 0.732400
10.215000 0.735200
10.242300 0.738300
10.269700 0.743300
10.297000 0.750400
10.324400 0.759500
10.351800 0.770900
10.379100 0.784300
10.406500 0.798800
10.433900 0.817000
10.461200 0.840300
10.488600 0.869100
10.516000 0.903800
10.543300 0.944400
10.570700 0.991500
10.598100 1.052800
10.625400 1.140900
10.652800 1.184800
10.680200 1.166400
10.707500 1.112800
10.734900 1.028500
10.762200 0.949400
10.789600 0.886700
10.817000 1.121500
10.844300 0.970100
10.871700 0.944200
10.899100 0.963000
10.926400 0.955700
10.953800 0.951100
10.981200 0.950200
11.008500 0.950100
11.035900 0.952000
11.063300 0.956900
11.090600 0.930600
11.118000 0.964800
11.145400 1.028900
11.172700 1.119000
11.200100 1.228800
11.227500 1.361400
11.254800 1.432700
11.282200 1.399100
11.309500 1.122300
11.336900 1.120900
11.364300 1.118900
11.391600 1.123200
11.419000 1.129100
11.446400 1.136800
11.473700 1.146400
11.501100 1.158100
11.528500 1.182100
11.555800 1.231800
11.583200 1.247800
11.610600 1.254700
11.637900 1.272800
11.665300 1.308300
11.692700 1.357700
11.720000 1.402900
11.747400 1.452300
11.774800 1.505900
11.802100 1.563600
11.829500 1.624400
11.856800 1.713400
11.884200 1.827000
11.911600 1.944100
11.938900 2.106800
11.966300 2.288200
11.993700 2.491400
12.021000 2.700600
12.048400 2.893600
12.075800 3.084700
12.103100 3.673300
12.130500 4.014000
12.157900 3.998300
12.185200 3.867500
12.212600 3.981600
12.240000 3.103700
12.267300 2.214500
12.294700 1.216200
12.322100 1.130100
12.349400 1.208400
12.376800 1.291300
12.404100 1.396800
12.431500 1.604900
12.458900 1.897000
12.486200 2.086600
12.513600 2.071000
12.541000 1.895200
12.568300 1.904800
12.595700 1.739000
12.623100 1.661300
12.650400 1.626600
12.677800 1.592700
12.705200 1.561100
12.732500 1.659100
12.759900 1.707000
12.787300 1.747300
12.814600 1.771100
12.842000 1.773600
12.869400 1.749500
12.896700 1.601400
12.924100 1.494100
12.951400 1.428000
12.978800 1.385900
13.006200 1.352900
13.033500 1.318000
13.060900 1.284900
13.088300 1.258700
13.115600 1.242300
13.143000 1.233400
13.170400 1.214100
13.197700 1.167200
13.225100 1.141000
13.252500 1.140200
13.279800 1.165100
13.307200 1.260300
13.334600 1.864800
13.361900 1.658700
13.389300 1.087300
13.416700 0.695600
13.444000 0.423600
13.471400 0.252900
13.498700 0.231500
13.526100 0.274600
13.553500 0.371600
13.580800 0.516400
13.608200 0.761000
13.635600 0.957900
13.662900 1.206800
13.690300 1.519400
13.717700 1.886800
13.745000 2.133400
13.772400 2.415100
13.799800 2.619900
13.827100 2.544200
13.854500 2.505800
13.881900 2.480000
13.909200 2.452100
13.936600 2.421000
13.963900 2.396200
13.991300 2.427600
14.018700 2.470200
14.046000 2.513100
14.073400 2.605900
14.100800 2.685500
14.128100 2.743100
14.155500 2.726900
14.182900 2.652000
14.210200 2.545100
14.237600 2.432800
14.265000 2.416700
14.292300 2.319100
14.319700 2.390800
14.347100 2.576100
14.374400 3.495000
14.401800 3.851100
14.429200 3.853400
14.456500 4.152700
14.483900 4.049100
14.511200 4.282600
14.538600 4.294500
14.566000 3.872500
14.593300 3.498100
14.620700 3.306000
14.648100 3.198500
14.675400 3.112500
14.702800 3.003100
14.730200 3.007500
14.757500 3.129800
14.784900 3.042900
14.812300 3.139600
14.839600 3.323400
14.867000 3.385600
14.894400 3.297900
14.921700 3.407500
14.949100 3.746000
14.976500 3.502600
15.003800 3.443800
15.031200 3.268800
15.058500 2.798900
15.085900 2.464000
15.113300 2.294000
15.140600 1.868800
15.168000 1.683500
15.195400 1.632600
15.222700 1.634800
15.250100 1.660600
15.277500 1.703700
15.304800 1.718700
15.332200 1.741900
15.359600 1.831900
15.386900 1.936800
15.414300 2.053000
15.441700 2.186800
15.469000 2.360500
15.496400 2.519100
15.523800 2.645100
15.551100 2.773800
15.578500 2.760000
15.605800 2.638800
15.633200 2.537200
15.660600 2.487900
15.687900 2.443000
15.715300 2.369000
15.742700 2.128900
15.770000 2.094900
15.797400 2.040900
15.824800 1.898500
15.852100 1.753400
15.879500 1.583900
15.906900 1.689400
15.934200 1.941700
15.961600 2.289200
15.989000 2.484600
16.016300 2.638400
16.043700 2.630600
16.071100 2.800000
16.098400 2.861800
16.125800 2.960900
16.153100 3.093700
16.180500 3.180600
16.207900 3.345500
16.235200 3.492300
16.262600 3.619700
16.290000 3.845900
16.317300 4.222200
16.344700 4.796900
16.372100 5.140800
16.399400 4.993200
16.426800 3.507600
16.454200 2.049800
16.481500 1.594600
16.508900 1.393600
16.536300 1.460400
16.563600 1.442500
16.591000 2.640100
16.618400 2.870500
16.645700 3.050400
16.673100 3.235900
16.700400 3.589400
16.727800 4.032700
16.755200 4.804500
16.782500 4.925500
16.809900 4.474700
16.837300 3.726800
16.864600 3.159500
16.892000 2.758900
16.919400 2.447700
16.946700 2.295300
16.974100 2.136200
17.001500 2.089800
17.028800 2.191100
17.056200 2.329700
17.083600 2.502500
17.110900 2.623100
17.138300 2.812900
17.165700 3.108800
17.193000 3.587600
17.220400 3.802900
17.247700 3.849300
17.275100 3.972900
17.302500 4.837100
17.329800 4.999100
17.357200 5.249900
17.384600 4.910100
17.411900 4.900800
17.439300 4.518700
17.466700 3.930300
17.494000 3.405500
17.521400 3.163800
17.548800 3.067800
17.576100 2.657000
17.603500 2.452100
17.630900 2.424500
17.658200 2.619300
17.685600 3.017800
17.712900 3.748200
17.740300 4.309900
17.767700 4.546100
17.795000 4.591400
17.822400 4.715100
17.849800 5.042800
17.877100 5.285400
17.904500 5.487200
17.931900 5.361200
17.959200 4.708400
17.986600 4.288700
18.014000 3.528800
18.041300 3.630100
18.068700 3.992900
18.096100 4.299100
18.123400 4.590900
18.150800 4.683500
18.178200 4.710200
18.205500 4.810900
18.232900 4.937500
18.260200 4.838300
18.287600 4.730000
18.315000 4.383800
18.342300 4.272700
18.369700 3.953100
18.397100 3.703800
18.424400 3.388100
18.451800 3.146400
18.479200 2.886900
18.506500 2.807700
18.533900 2.950400
18.561300 2.874600
18.588600 2.870400
18.616000 2.947500
18.643400 2.822600
18.670700 2.860000
18.698100 2.835900
18.725500 2.774000
18.752800 2.705800
18.780200 2.826000
18.807500 3.131200
18.834900 3.579500
18.862300 3.545200
18.889600 3.731300
18.917000 4.246200
18.944400 4.298100
18.971700 4.197900
18.999100 4.334800
19.026500 4.741900
19.053800 4.247400
19.081200 3.991300
19.108600 3.617900
19.135900 3.301600
19.163300 3.080600
19.190700 2.835000
19.218000 2.478400
19.245400 2.116600
19.272800 1.770000
19.300100 1.580000
19.327500 1.668600
19.354800 1.868100
19.382200 1.900400
19.409600 1.966500
19.436900 2.049400
19.464300 2.173900
19.491700 2.356600
19.519000 2.557000
19.546400 2.827400
19.573800 3.248700
19.601100 3.671000
19.628500 3.994100
19.655900 4.108800
19.683200 4.580000
19.710600 4.694300
19.738000 4.680900
19.765300 4.843600
19.792700 4.989900
19.820100 4.748100
19.847400 4.066800
19.874800 3.619000
19.902100 3.143100
19.929500 2.995700
19.956900 3.060800
19.984200 3.371000
20.011600 3.955600
20.039000 4.016500
20.066300 4.273000
20.093700 4.677200
20.121100 5.536900
20.148400 6.548900
20.175800 5.548900
20.203200 5.050600
20.230500 4.753200
20.257900 4.358400
20.285300 4.052000
20.312600 3.722600
20.340000 3.398600
20.367400 3.351900
20.394700 3.053700
20.422100 2.309300
20.449400 1.537400
20.476800 1.170800
20.504200 1.262300
20.531500 1.374300
20.558900 1.480100
20.586300 1.568400
20.613600 1.666700
20.641000 1.705700
20.668400 1.744700
20.695700 1.815200
20.723100 1.924600
20.750500 2.138400
20.777800 2.368800
20.805200 2.628500
20.832600 3.025600
20.859900 3.405000
20.887300 3.740100
20.914700 4.097900
20.942000 4.592000
20.969400 5.281300
20.996700 5.322600
21.024100 4.780800
21.051500 4.255600
21.078800 4.165800
21.106200 3.739900
21.133600 2.665400
21.160900 2.346600
21.188300 2.154300
21.215700 1.993300
21.243000 1.841500
21.270400 1.712700
21.297800 1.561800
21.325100 1.400000
21.352500 1.271900
21.379900 1.236800
21.407200 1.319300
21.434600 1.487400
21.461900 1.700800
21.489300 1.907300
21.516700 2.093900
21.544000 2.441400
21.571400 2.919800
21.598800 3.202700
21.626100 2.840100
21.653500 2.863600
21.680900 3.036300
21.708200 3.205300
21.735600 3.434300
21.763000 3.776500
21.790300 4.265100
21.817700 4.494300
21.845100 4.367100
21.872400 3.923200
21.899800 3.873800
21.927200 4.123400
21.954500 4.118300
21.981900 3.810800
22.009200 3.332600
22.036600 2.810400
22.064000 2.471500
22.091300 2.269900
22.118700 2.118900
22.146100 1.916900
22.173400 1.837600
22.200800 1.932000
22.228200 2.077500
22.255500 2.268200
22.282900 2.691700
22.310300 3.123500
22.337600 3.745000
22.365000 4.326300
22.392400 4.739400
22.419700 4.652000
22.447100 4.996000
22.474500 5.179500
22.501800 4.883100
22.529200 4.581200
22.556500 4.051600
22.583900 3.359900
22.611300 2.847900
22.638600 2.274700
22.666000 1.938400
22.693400 1.760100
22.720700 1.649400
22.748100 1.607600
22.775500 1.687500
22.802800 1.836600
22.830200 2.146400
22.857600 2.483100
22.884900 2.451700
22.912300 2.681300
22.939700 2.902900
22.967000 3.063900
22.994400 3.224400
23.021800 3.341600
23.049100 3.277800
23.076500 3.369700
23.103800 3.391900
23.131200 3.010400
23.158600 2.909900
23.185900 2.805900
23.213300 2.696700
23.240700 2.600400
23.268000 2.516900
23.295400 2.432500
23.322800 2.354100
23.350100 2.373100
23.377500 2.278900
23.404900 2.016800
23.432200 1.942000
23.459600 2.065100
23.487000 2.121600
23.514300 2.060600
23.541700 2.069400
23.569100 2.076600
23.596400 2.095400
23.623800 2.252100
23.651100 2.421700
23.678500 2.539700
23.705900 2.723900
23.733200 2.946200
23.760600 3.050200
23.788000 3.156100
23.815300 3.043400
23.842700 2.999800
23.870100 2.933100
23.897400 2.847500
23.924800 2.801600
23.952200 2.689600
23.979500 2.584400
24.006900 2.504600
24.034300 2.453200
24.061600 2.206100
24.089000 2.015100
24.116400 1.854900
24.143700 1.712600
24.171100 1.610500
24.198400 1.552200
24.225800 1.543900
24.253200 1.592500
24.280500 1.651900
24.307900 1.750000
24.335300 1.846700
24.362600 1.921100
24.390000 1.921200
24.417400 1.861300
24.444700 1.830500
24.472100 1.876500
24.499500 1.985900
24.526800 2.125200
24.554200 2.293000
24.581600 2.490300
24.608900 2.713400
24.636300 3.207600
24.663600 3.358900
24.691000 3.343600
24.718400 3.401100
24.745700 3.684300
24.773100 4.186900
24.800500 3.966900
24.827800 4.295100
24.855200 4.129300
24.882600 3.490000
24.909900 3.167700
24.937300 2.932300
24.964700 2.780300
24.992000 2.771700
25.019400 2.945400
25.046800 3.118200
25.074100 3.140600
25.101500 3.119600
25.128900 2.987200
25.156200 2.991900
25.183600 3.181400
25.210900 3.393900
25.238300 3.331300
25.265700 3.343500
25.293000 2.910800
25.320400 2.638200
25.347800 2.422300
25.375100 2.312900
25.402500 2.240700
25.429900 2.124600
25.457200 2.051800
25.484600 2.000100
25.512000 1.882500
25.539300 1.829600
25.566700 1.919300
25.594100 2.163200
25.621400 2.393300
25.648800 2.602700
25.676200 2.828700
25.703500 3.236300
25.730900 3.757100
25.758200 4.959000
25.785600 5.305000
25.813000 4.049200
25.840300 3.959300
25.867700 3.779200
25.895100 3.560500
25.922400 3.332500
25.949800 3.013900
25.977200 2.753300
26.004500 2.585500
26.031900 2.483200
26.059300 2.423900
26.086600 2.451900
26.114000 2.568300
26.141400 2.727600
26.168700 2.878900
26.196100 3.015100
26.223500 3.137300
26.250800 3.163100
26.278200 3.092500
26.305500 3.065500
26.332900 3.072600
26.360300 2.758100
26.387600 2.647700
26.415000 2.592500
26.442400 2.552800
26.469700 2.533700
26.497100 2.596000
26.524500 2.535500
26.551800 2.508600
26.579200 2.524500
26.606600 2.596100
26.633900 2.407600
26.661300 2.144700
26.688700 2.051100
26.716000 2.084400
26.743400 2.257200
26.770800 2.500200
26.798100 2.652000
26.825500 2.854600
26.852800 3.158600
26.880200 3.427100
26.907600 3.502800
26.934900 3.640900
26.962300 3.671600
26.989700 3.711000
27.017000 3.613300
27.044400 3.426400
27.071800 3.338900
27.099100 3.282000
27.126500 3.241300
27.153900 3.268900
27.181200 3.515400
27.208600 3.593900
27.236000 3.254600
27.263300 3.227500
27.290700 3.249700
27.318100 2.926300
27.345400 2.698700
27.372800 2.324400
27.400100 1.994800
27.427500 1.741300
27.454900 1.544200
27.482200 1.403300
27.509600 1.284600
27.537000 1.197800
27.564300 1.162400
27.591700 1.134700
27.619100 1.073500
27.646400 1.013700
27.673800 0.981000
27.701200 0.846300
27.728500 0.709100
27.755900 0.593100
27.783300 0.480500
27.810600 0.368100
27.838000 0.257700
27.865400 0.172900
27.892700 0.106500
27.920100 0.058600
27.947400 0.027000
27.974800 0.008200
28.002200 0.001600
28.029500 0.000000
28.056900 0.000000
28.084300 0.000000
28.111600 0.000000
28.139000 0.000000
28.166400 0.000000
28.193700 0.000000
28.221100 0.000000
28.248500 0.000000
28.275800 0.000000
28.303200 0.000000
28.330600 0.000000
28.357900 0.000000
28.385300 0.000000
28.412600 0.000000
28.440000 0.000000
28.467400 0.000000
28.494700 0.000000
28.522100 0.000000
28.549500 0.000000
28.576800 0.000000
28.604200 0.000000
28.631600 0.000000
28.658900 0.000000
28.686300 0.000000
28.713700 0.000000
28.741000 0.000000
28.768400 0.000000
28.795800 0.000000
28.823100 0.000000
28.850500 0.000000
28.877900 0.000000
28.905200 0.000000
28.932600 0.000000
28.959900 0.000000
28.987300 0.000000
29.014700 0.000000
29.042000 0.000000
29.069400 0.000000
29.096800 0.000000
29.124100 0.000000
29.151500 0.000000
29.178900 0.000000
29.206200 0.000000
29.233600 0.000000
29.261000 0.000000
29.288300 0.000000
29.315700 0.000000
29.343100 0.000000
29.370400 0.000000
29.397800 0.000000
29.425200 0.000000
29.452500 0.000000
29.479900 0.000000
29.507200 0.000000
29.534600 0.000000
29.562000 0.000000
29.589300 0.000000
29.616700 0.000000
29.644100 0.000000
29.671400 0.000000
29.698800 0.000000
29.726200 0.000000
29.753500 0.000000
29.780900 0.000000
29.808300 0.000000
29.835600 0.000000
29.863000 0.000000
29.890400 0.000000
29.917700 0.000000
29.945100 0.000000
29.972500 0.000000
29.999800 0.000000
30.027200 0.000000
30.054500 0.000000
30.081900 0.000000
30.109300 0.000000
30.136600 0.000000
30.164000 0.000000
30.191400 0.000000
30.218700 0.000000
30.246100 0.000000
30.273500 0.000000
30.300800 0.000000
30.328200 0.000000
30.355600 0.000000
30.382900 0.000000
30.410300 0.000000
30.437700 0.000000
30.465000 0.000000
30.492400 0.000000
30.519800 0.000000
e
