set title 'mp-635425 - Band Structure'
set xlabel 'k-path'
set ylabel 'Energy (eV)'
set grid y
set yrange [-5:5]
set terminal png size 800,600
set output 'mp-635425_bands_gnuplot.png'
plot '-' using 1:2 with lines notitle, '-' using 1:2 with lines notitle, '-' using 1:2 with lines notitle, '-' using 1:2 with lines notitle, '-' using 1:2 with lines notitle, '-' using 1:2 with lines notitle, '-' using 1:2 with lines notitle, '-' using 1:2 with lines notitle, '-' using 1:2 with lines notitle, '-' using 1:2 with lines notitle, '-' using 1:2 with lines notitle, '-' using 1:2 with lines notitle, '-' using 1:2 with lines notitle, '-' using 1:2 with lines notitle, '-' using 1:2 with lines notitle, '-' using 1:2 with lines notitle, '-' using 1:2 with lines notitle, '-' using 1:2 with lines notitle, '-' using 1:2 with lines notitle, '-' using 1:2 with lines notitle, '-' using 1:2 with lines notitle, '-' using 1:2 with lines notitle, '-' using 1:2 with lines notitle, '-' using 1:2 with lines notitle, '-' using 1:2 with lines notitle, '-' using 1:2 with lines notitle, '-' using 1:2 with lines notitle, '-' using 1:2 with lines notitle, '-' using 1:2 with lines notitle, '-' using 1:2 with lines notitle, '-' using 1:2 with lines notitle, '-' using 1:2 with lines notitle, '-' using 1:2 with lines notitle, '-' using 1:2 with lines notitle, '-' using 1:2 with lines notitle, '-' using 1:2 with lines notitle, '-' using 1:2 with lines notitle, '-' using 1:2 with lines notitle, '-' using 1:2 with lines notitle, '-' using 1:2 with lines notitle, '-' using 1:2 with lines notitle, '-' using 1:2 with lines notitle, '-' using 1:2 with lines notitle, '-' using 1:2 with lines notitle, '-' using 1:2 with lines notitle, '-' using 1:2 with lines notitle, '-' using 1:2 with lines notitle, '-' using 1:2 with lines notitle
0.000000 -21.879050
0.047657 -21.889350
0.095314 -21.917250
0.142971 -21.957350
0.190629 -22.004650
0.238286 -22.056350
0.285943 -22.110350
0.333600 -22.165050
0.381257 -22.219450
0.428914 -22.272550
0.476571 -22.323650
0.524229 -22.372050
0.571886 -22.417350
0.619543 -22.458950
0.667200 -22.496550
0.714857 -22.529850
0.762514 -22.558550
0.810171 -22.582250
0.857829 -22.600950
0.905486 -22.614350
0.953143 -22.622450
1.000800 -22.625050
1.000800 -22.625050
1.048240 -22.623150
1.095679 -22.617350
1.143119 -22.607650
1.190559 -22.594450
1.237999 -22.577850
1.285438 -22.558150
1.332878 -22.535950
1.380318 -22.511750
1.427757 -22.486450
1.475197 -22.460850
1.522637 -22.436350
1.570077 -22.414450
1.617516 -22.396650
1.664956 -22.385050
1.712396 -22.381050
1.712396 -21.878950
1.762116 -21.887450
1.811836 -21.911250
1.861556 -21.946550
1.911276 -21.989950
1.960996 -22.038550
2.010717 -22.090550
2.060437 -22.144250
2.110157 -22.198650
2.159877 -22.252450
2.209597 -22.304950
2.259317 -22.355350
2.309037 -22.402850
2.358758 -22.446850
2.408478 -22.486850
2.458198 -22.522450
2.507918 -22.553150
2.557638 -22.578750
2.607358 -22.598950
2.657078 -22.613450
2.706799 -22.622250
2.756519 -22.625050
2.756519 -22.625050
2.804172 -22.622850
2.851825 -22.616250
2.899479 -22.605250
2.947132 -22.590150
2.994785 -22.571450
3.042438 -22.549350
3.090092 -22.524650
3.137745 -22.498250
3.185398 -22.471350
3.233052 -22.445750
3.280705 -22.423850
3.328358 -22.408850
3.376011 -22.403450
3.376011 -21.877450
3.425767 -21.885250
3.475523 -21.907550
3.525279 -21.941250
3.575035 -21.983250
3.624791 -22.031250
3.674547 -22.083050
3.724303 -22.137050
3.774058 -22.191850
3.823814 -22.246350
3.873570 -22.299650
3.923326 -22.350750
3.973082 -22.398950
4.022838 -22.443750
4.072594 -22.484450
4.122350 -22.520650
4.172105 -22.551950
4.221861 -22.577950
4.271617 -22.598450
4.321373 -22.613250
4.371129 -22.622150
4.420885 -22.625050
4.420885 -22.625050
4.470643 -22.623050
4.520401 -22.616950
4.570159 -22.606750
4.619918 -22.592850
4.669676 -22.575450
4.719434 -22.555150
4.769192 -22.532450
4.818951 -22.507950
4.868709 -22.482550
4.918467 -22.456850
4.968225 -22.431950
5.017984 -22.408650
5.067742 -22.388150
5.117500 -22.371250
5.167258 -22.358550
5.217017 -22.350850
5.266775 -22.348150
5.266775 -21.882650
5.314531 -21.892050
5.362286 -21.918250
5.410042 -21.956750
5.457797 -22.003050
5.505553 -22.054250
5.553308 -22.107950
5.601064 -22.162650
5.648820 -22.217150
5.696575 -22.270350
5.744331 -22.321750
5.792086 -22.370450
5.839842 -22.415950
5.887598 -22.457850
5.935353 -22.495750
5.983109 -22.529250
6.030864 -22.558050
6.078620 -22.581950
6.126375 -22.600750
6.174131 -22.614250
6.221887 -22.622450
6.269642 -22.625050
e
0.000000 -21.654350
0.047657 -21.649850
0.095314 -21.638950
0.142971 -21.626250
0.190629 -21.614550
0.238286 -21.605250
0.285943 -21.598350
0.333600 -21.593750
0.381257 -21.591150
0.428914 -21.590050
0.476571 -21.590050
0.524229 -21.591050
0.571886 -21.592650
0.619543 -21.594650
0.667200 -21.597050
0.714857 -21.599350
0.762514 -21.601750
0.810171 -21.603850
0.857829 -21.605550
0.905486 -21.606950
0.953143 -21.607650
1.000800 -21.607950
1.000800 -21.607950
1.048240 -21.610250
1.095679 -21.617050
1.143119 -21.628150
1.190559 -21.643050
1.237999 -21.661550
1.285438 -21.682950
1.332878 -21.706950
1.380318 -21.732750
1.427757 -21.759550
1.475197 -21.786450
1.522637 -21.812250
1.570077 -21.835150
1.617516 -21.853550
1.664956 -21.865650
1.712396 -21.869950
1.712396 -21.620450
1.762116 -21.617850
1.811836 -21.611750
1.861556 -21.605850
1.911276 -21.602950
1.960996 -21.604050
2.010717 -21.608350
2.060437 -21.614450
2.110157 -21.620750
2.159877 -21.626550
2.209597 -21.631150
2.259317 -21.634050
2.309037 -21.635150
2.358758 -21.634450
2.408478 -21.632250
2.458198 -21.628850
2.507918 -21.624550
2.557638 -21.619750
2.607358 -21.615250
2.657078 -21.611350
2.706799 -21.608850
2.756519 -21.607950
2.756519 -21.607950
2.804172 -21.613950
2.851825 -21.630950
2.899479 -21.656850
2.947132 -21.689250
2.994785 -21.726450
3.042438 -21.766650
3.090092 -21.808450
3.137745 -21.850350
3.185398 -21.890450
3.233052 -21.926750
3.280705 -21.956450
3.328358 -21.976250
3.376011 -21.983250
3.376011 -21.611350
3.425767 -21.610750
3.475523 -21.609950
3.525279 -21.610850
3.575035 -21.614650
3.624791 -21.621050
3.674547 -21.628950
3.724303 -21.636950
3.774058 -21.644050
3.823814 -21.649450
3.873570 -21.653150
3.923326 -21.654650
3.973082 -21.653950
4.022838 -21.651250
4.072594 -21.646650
4.122350 -21.640550
4.172105 -21.633550
4.221861 -21.626150
4.271617 -21.619150
4.321373 -21.613250
4.371129 -21.609350
4.420885 -21.607950
4.420885 -21.607950
4.470643 -21.608850
4.520401 -21.611550
4.570159 -21.615750
4.619918 -21.621050
4.669676 -21.627050
4.719434 -21.633250
4.769192 -21.639150
4.818951 -21.644150
4.868709 -21.647850
4.918467 -21.649750
4.968225 -21.649550
5.017984 -21.647350
5.067742 -21.643450
5.117500 -21.638450
5.167258 -21.633350
5.217017 -21.629650
5.266775 -21.628350
5.266775 -21.623550
5.314531 -21.620450
5.362286 -21.612950
5.410042 -21.604150
5.457797 -21.596450
5.505553 -21.590450
5.553308 -21.586450
5.601064 -21.584250
5.648820 -21.583350
5.696575 -21.583650
5.744331 -21.584850
5.792086 -21.586850
5.839842 -21.589250
5.887598 -21.592050
5.935353 -21.594850
5.983109 -21.597750
6.030864 -21.600550
6.078620 -21.603050
6.126375 -21.605150
6.174131 -21.606650
6.221887 -21.607550
6.269642 -21.607950
e
0.000000 -21.313850
0.047657 -21.314150
0.095314 -21.315050
0.142971 -21.316250
0.190629 -21.317550
0.238286 -21.318950
0.285943 -21.320250
0.333600 -21.321450
0.381257 -21.322650
0.428914 -21.323650
0.476571 -21.324550
0.524229 -21.325250
0.571886 -21.325750
0.619543 -21.326050
0.667200 -21.326350
0.714857 -21.326350
0.762514 -21.326350
0.810171 -21.326150
0.857829 -21.326050
0.905486 -21.325950
0.953143 -21.325850
1.000800 -21.325750
1.000800 -21.325750
1.048240 -21.324550
1.095679 -21.321250
1.143119 -21.315850
1.190559 -21.308850
1.237999 -21.300650
1.285438 -21.291550
1.332878 -21.281950
1.380318 -21.272250
1.427757 -21.262750
1.475197 -21.253750
1.522637 -21.245850
1.570077 -21.239050
1.617516 -21.233950
1.664956 -21.230750
1.712396 -21.229750
1.712396 -21.338950
1.762116 -21.341350
1.811836 -21.346250
1.861556 -21.349850
1.911276 -21.349450
1.960996 -21.344550
2.010717 -21.336250
2.060437 -21.326150
2.110157 -21.315950
2.159877 -21.307050
2.209597 -21.300150
2.259317 -21.295750
2.309037 -21.293850
2.358758 -21.294250
2.408478 -21.296750
2.458198 -21.301050
2.507918 -21.306250
2.557638 -21.311950
2.607358 -21.317350
2.657078 -21.321750
2.706799 -21.324750
2.756519 -21.325750
2.756519 -21.325750
2.804172 -21.322250
2.851825 -21.312450
2.899479 -21.298150
2.947132 -21.281250
2.994785 -21.263350
3.042438 -21.245250
3.090092 -21.227750
3.137745 -21.211350
3.185398 -21.196350
3.233052 -21.183650
3.280705 -21.173750
3.328358 -21.167350
3.376011 -21.165150
3.376011 -21.357250
3.425767 -21.357150
3.475523 -21.355950
3.525279 -21.351550
3.575035 -21.343050
3.624791 -21.330950
3.674547 -21.316950
3.724303 -21.302750
3.774058 -21.289750
3.823814 -21.279150
3.873570 -21.271950
3.923326 -21.268250
3.973082 -21.267950
4.022838 -21.271050
4.072594 -21.276750
4.122350 -21.284550
4.172105 -21.293650
4.221861 -21.303150
4.271617 -21.311950
4.321373 -21.319250
4.371129 -21.324050
4.420885 -21.325750
4.420885 -21.325750
4.470643 -21.326950
4.520401 -21.330250
4.570159 -21.335650
4.619918 -21.342950
4.669676 -21.351750
4.719434 -21.361750
4.769192 -21.372850
4.818951 -21.384550
4.868709 -21.396650
4.918467 -21.408850
4.968225 -21.420850
5.017984 -21.432250
5.067742 -21.442750
5.117500 -21.452050
5.167258 -21.459550
5.217017 -21.464450
5.266775 -21.466250
5.266775 -21.337650
5.314531 -21.336050
5.362286 -21.331950
5.410042 -21.326550
5.457797 -21.321550
5.505553 -21.317750
5.553308 -21.315350
5.601064 -21.314350
5.648820 -21.314250
5.696575 -21.314950
5.744331 -21.316250
5.792086 -21.317650
5.839842 -21.319150
5.887598 -21.320550
5.935353 -21.321850
5.983109 -21.322950
6.030864 -21.323850
6.078620 -21.324650
6.126375 -21.325150
6.174131 -21.325550
6.221887 -21.325750
6.269642 -21.325750
e
0.000000 -21.197550
0.047657 -21.193150
0.095314 -21.180250
0.142971 -21.160450
0.190629 -21.135150
0.238286 -21.106450
0.285943 -21.076050
0.333600 -21.045250
0.381257 -21.015150
0.428914 -20.986750
0.476571 -20.960450
0.524229 -20.936550
0.571886 -20.915150
0.619543 -20.896250
0.667200 -20.879850
0.714857 -20.865750
0.762514 -20.854050
0.810171 -20.844550
0.857829 -20.837150
0.905486 -20.832050
0.953143 -20.828850
1.000800 -20.827850
1.000800 -20.827850
1.048240 -20.829050
1.095679 -20.832650
1.143119 -20.838450
1.190559 -20.846250
1.237999 -20.855450
1.285438 -20.865850
1.332878 -20.876950
1.380318 -20.888250
1.427757 -20.899250
1.475197 -20.909650
1.522637 -20.918950
1.570077 -20.926650
1.617516 -20.932350
1.664956 -20.935950
1.712396 -20.937250
1.712396 -21.173950
1.762116 -21.167750
1.811836 -21.151050
1.861556 -21.127850
1.911276 -21.101250
1.960996 -21.073550
2.010717 -21.045950
2.060437 -21.019150
2.110157 -20.993650
2.159877 -20.969650
2.209597 -20.947150
2.259317 -20.926450
2.309037 -20.907450
2.358758 -20.890450
2.408478 -20.875350
2.458198 -20.862550
2.507918 -20.851550
2.557638 -20.842950
2.607358 -20.836250
2.657078 -20.831550
2.706799 -20.828750
2.756519 -20.827850
2.756519 -20.827850
2.804172 -20.829350
2.851825 -20.834150
2.899479 -20.841650
2.947132 -20.851550
2.994785 -20.863650
3.042438 -20.877150
3.090092 -20.891450
3.137745 -20.905750
3.185398 -20.919150
3.233052 -20.931150
3.280705 -20.940850
3.328358 -20.947050
3.376011 -20.949250
3.376011 -21.167950
3.425767 -21.162750
3.475523 -21.148750
3.525279 -21.128450
3.575035 -21.104850
3.624791 -21.079950
3.674547 -21.055050
3.724303 -21.030750
3.774058 -21.007450
3.823814 -20.985050
3.873570 -20.963850
3.923326 -20.943350
3.973082 -20.923850
4.022838 -20.905450
4.072594 -20.888450
4.122350 -20.873150
4.172105 -20.859750
4.221861 -20.848550
4.271617 -20.839550
4.321373 -20.833050
4.371129 -20.829150
4.420885 -20.827850
4.420885 -20.827850
4.470643 -20.829550
4.520401 -20.834650
4.570159 -20.843050
4.619918 -20.854850
4.669676 -20.869750
4.719434 -20.887550
4.769192 -20.908150
4.818951 -20.931050
4.868709 -20.956150
4.918467 -20.982550
4.968225 -21.009450
5.017984 -21.035850
5.067742 -21.060450
5.117500 -21.081950
5.167258 -21.098650
5.217017 -21.109450
5.266775 -21.113150
5.266775 -21.173050
5.314531 -21.170050
5.362286 -21.161050
5.410042 -21.145950
5.457797 -21.125450
5.505553 -21.100450
5.553308 -21.072750
5.601064 -21.043750
5.648820 -21.014950
5.696575 -20.987250
5.744331 -20.961550
5.792086 -20.937850
5.839842 -20.916450
5.887598 -20.897550
5.935353 -20.880950
5.983109 -20.866650
6.030864 -20.854750
6.078620 -20.845050
6.126375 -20.837550
6.174131 -20.832150
6.221887 -20.828950
6.269642 -20.827850
e
0.000000 -20.612950
0.047657 -20.612350
0.095314 -20.610450
0.142971 -20.607450
0.190629 -20.603150
0.238286 -20.597750
0.285943 -20.591250
0.333600 -20.583850
0.381257 -20.575750
0.428914 -20.567150
0.476571 -20.558450
0.524229 -20.550050
0.571886 -20.542350
0.619543 -20.535650
0.667200 -20.530050
0.714857 -20.525550
0.762514 -20.522150
0.810171 -20.519750
0.857829 -20.518050
0.905486 -20.517050
0.953143 -20.516450
1.000800 -20.516250
1.000800 -20.516250
1.048240 -20.516350
1.095679 -20.516550
1.143119 -20.516950
1.190559 -20.517350
1.237999 -20.517750
1.285438 -20.518050
1.332878 -20.518450
1.380318 -20.518650
1.427757 -20.518550
1.475197 -20.518550
1.522637 -20.518450
1.570077 -20.518050
1.617516 -20.517750
1.664956 -20.517550
1.712396 -20.517550
1.712396 -20.637350
1.762116 -20.636650
1.811836 -20.634750
1.861556 -20.631450
1.911276 -20.626850
1.960996 -20.621150
2.010717 -20.614450
2.060437 -20.606650
2.110157 -20.598150
2.159877 -20.589150
2.209597 -20.580050
2.259317 -20.571050
2.309037 -20.562250
2.358758 -20.553750
2.408478 -20.545950
2.458198 -20.538750
2.507918 -20.532350
2.557638 -20.526850
2.607358 -20.522350
2.657078 -20.518950
2.706799 -20.516950
2.756519 -20.516250
2.756519 -20.516250
2.804172 -20.517950
2.851825 -20.522450
2.899479 -20.528750
2.947132 -20.535350
2.994785 -20.541950
3.042438 -20.547650
3.090092 -20.552450
3.137745 -20.556150
3.185398 -20.558850
3.233052 -20.560850
3.280705 -20.562150
3.328358 -20.563050
3.376011 -20.563250
3.376011 -20.681350
3.425767 -20.680550
3.475523 -20.678050
3.525279 -20.673850
3.575035 -20.668050
3.624791 -20.660550
3.674547 -20.651650
3.724303 -20.641350
3.774058 -20.629950
3.823814 -20.617850
3.873570 -20.605450
3.923326 -20.592850
3.973082 -20.580450
4.022838 -20.568650
4.072594 -20.557550
4.122350 -20.547450
4.172105 -20.538550
4.221861 -20.530850
4.271617 -20.524550
4.321373 -20.519950
4.371129 -20.517250
4.420885 -20.516250
4.420885 -20.516250
4.470643 -20.515950
4.520401 -20.515450
4.570159 -20.515250
4.619918 -20.516050
4.669676 -20.518650
4.719434 -20.523550
4.769192 -20.530750
4.818951 -20.539750
4.868709 -20.550050
4.918467 -20.560750
4.968225 -20.571350
5.017984 -20.581050
5.067742 -20.589650
5.117500 -20.596650
5.167258 -20.601850
5.217017 -20.605050
5.266775 -20.606150
5.266775 -20.635350
5.314531 -20.634850
5.362286 -20.633350
5.410042 -20.630650
5.457797 -20.626850
5.505553 -20.621850
5.553308 -20.615750
5.601064 -20.608450
5.648820 -20.600150
5.696575 -20.591050
5.744331 -20.581450
5.792086 -20.571650
5.839842 -20.561950
5.887598 -20.552750
5.935353 -20.544350
5.983109 -20.536950
6.030864 -20.530650
6.078620 -20.525450
6.126375 -20.521450
6.174131 -20.518550
6.221887 -20.516850
6.269642 -20.516250
e
0.000000 -20.319950
0.047657 -20.319950
0.095314 -20.320150
0.142971 -20.320550
0.190629 -20.320850
0.238286 -20.321350
0.285943 -20.321950
0.333600 -20.322350
0.381257 -20.322550
0.428914 -20.322350
0.476571 -20.321750
0.524229 -20.320550
0.571886 -20.318750
0.619543 -20.316350
0.667200 -20.313450
0.714857 -20.310250
0.762514 -20.306850
0.810171 -20.303650
0.857829 -20.300950
0.905486 -20.298850
0.953143 -20.297550
1.000800 -20.297050
1.000800 -20.297050
1.048240 -20.297250
1.095679 -20.297950
1.143119 -20.298950
1.190559 -20.300450
1.237999 -20.302450
1.285438 -20.304650
1.332878 -20.307350
1.380318 -20.310250
1.427757 -20.313250
1.475197 -20.316350
1.522637 -20.319350
1.570077 -20.321750
1.617516 -20.323550
1.664956 -20.324750
1.712396 -20.325250
1.712396 -20.339050
1.762116 -20.338850
1.811836 -20.338150
1.861556 -20.336850
1.911276 -20.335250
1.960996 -20.333250
2.010717 -20.330950
2.060437 -20.328250
2.110157 -20.325550
2.159877 -20.322650
2.209597 -20.319650
2.259317 -20.316750
2.309037 -20.313750
2.358758 -20.310750
2.408478 -20.307950
2.458198 -20.305450
2.507918 -20.303050
2.557638 -20.300950
2.607358 -20.299350
2.657078 -20.298050
2.706799 -20.297350
2.756519 -20.297050
2.756519 -20.297050
2.804172 -20.293850
2.851825 -20.284650
2.899479 -20.270850
2.947132 -20.254150
2.994785 -20.236150
3.042438 -20.217950
3.090092 -20.200550
3.137745 -20.184750
3.185398 -20.171150
3.233052 -20.160150
3.280705 -20.152150
3.328358 -20.147150
3.376011 -20.145650
3.376011 -20.288750
3.425767 -20.288750
3.475523 -20.288550
3.525279 -20.288150
3.575035 -20.287850
3.624791 -20.287350
3.674547 -20.286950
3.724303 -20.286550
3.774058 -20.286350
3.823814 -20.286250
3.873570 -20.286550
3.923326 -20.287050
3.973082 -20.287850
4.022838 -20.288850
4.072594 -20.290050
4.122350 -20.291450
4.172105 -20.292850
4.221861 -20.294250
4.271617 -20.295350
4.321373 -20.296250
4.371129 -20.296850
4.420885 -20.297050
4.420885 -20.297050
4.470643 -20.296350
4.520401 -20.293850
4.570159 -20.289250
4.619918 -20.282050
4.669676 -20.271750
4.719434 -20.258350
4.769192 -20.242350
4.818951 -20.224350
4.868709 -20.205250
4.918467 -20.185950
4.968225 -20.167250
5.017984 -20.150150
5.067742 -20.135150
5.117500 -20.122950
5.167258 -20.113750
5.217017 -20.108250
5.266775 -20.106350
5.266775 -20.334450
5.314531 -20.334250
5.362286 -20.333450
5.410042 -20.332350
5.457797 -20.330850
5.505553 -20.328950
5.553308 -20.326950
5.601064 -20.324650
5.648820 -20.322350
5.696575 -20.319850
5.744331 -20.317550
5.792086 -20.314950
5.839842 -20.312350
5.887598 -20.309850
5.935353 -20.307350
5.983109 -20.304950
6.030864 -20.302750
6.078620 -20.300850
6.126375 -20.299250
6.174131 -20.298050
6.221887 -20.297350
6.269642 -20.297050
e
0.000000 -6.971250
0.047657 -6.966250
0.095314 -6.951150
0.142971 -6.926250
0.190629 -6.891450
0.238286 -6.847250
0.285943 -6.793850
0.333600 -6.731550
0.381257 -6.660950
0.428914 -6.582550
0.476571 -6.497050
0.524229 -6.405150
0.571886 -6.307950
0.619543 -6.206350
0.667200 -6.101750
0.714857 -5.995950
0.762514 -5.890850
0.810171 -5.788950
0.857829 -5.693550
0.905486 -5.609150
0.953143 -5.543250
1.000800 -5.514850
1.000800 -5.514850
1.048240 -5.509450
1.095679 -5.493350
1.143119 -5.467350
1.190559 -5.433050
1.237999 -5.397550
1.285438 -5.381950
1.332878 -5.380250
1.380318 -5.381250
1.427757 -5.382950
1.475197 -5.384650
1.522637 -5.386250
1.570077 -5.387650
1.617516 -5.388650
1.664956 -5.389350
1.712396 -5.389550
1.712396 -6.613150
1.762116 -6.612550
1.811836 -6.610550
1.861556 -6.605750
1.911276 -6.596650
1.960996 -6.581650
2.010717 -6.559150
2.060437 -6.527950
2.110157 -6.487250
2.159877 -6.436850
2.209597 -6.376650
2.259317 -6.307050
2.309037 -6.228950
2.358758 -6.143450
2.408478 -6.052250
2.458198 -5.957350
2.507918 -5.861350
2.557638 -5.767150
2.607358 -5.678550
2.657078 -5.600350
2.706799 -5.540150
2.756519 -5.514850
2.756519 -5.514850
2.804172 -5.511650
2.851825 -5.502050
2.899479 -5.486450
2.947132 -5.465450
2.994785 -5.440550
3.042438 -5.415450
3.090092 -5.397550
3.137745 -5.389750
3.185398 -5.387050
3.233052 -5.386150
3.280705 -5.385950
3.328358 -5.385950
3.376011 -5.386050
3.376011 -6.620050
3.425767 -6.620050
3.475523 -6.619550
3.525279 -6.617150
3.575035 -6.611150
3.624791 -6.599550
3.674547 -6.580750
3.724303 -6.553150
3.774058 -6.515950
3.823814 -6.468550
3.873570 -6.410950
3.923326 -6.343250
3.973082 -6.266350
4.022838 -6.181050
4.072594 -6.089050
4.122350 -5.992150
4.172105 -5.892750
4.221861 -5.793750
4.271617 -5.698950
4.321373 -5.613350
4.371129 -5.545050
4.420885 -5.514850
4.420885 -5.514850
4.470643 -5.510850
4.520401 -5.498750
4.570159 -5.479050
4.619918 -5.452350
4.669676 -5.420950
4.719434 -5.408650
4.769192 -5.419350
4.818951 -5.432450
4.868709 -5.446050
4.918467 -5.459450
4.968225 -5.472150
5.017984 -5.483650
5.067742 -5.493550
5.117500 -5.501550
5.167258 -5.507450
5.217017 -5.511050
5.266775 -5.512250
5.266775 -6.822450
5.314531 -6.818350
5.362286 -6.805950
5.410042 -6.785450
5.457797 -6.756750
5.505553 -6.720150
5.553308 -6.675650
5.601064 -6.623550
5.648820 -6.563950
5.696575 -6.497150
5.744331 -6.423650
5.792086 -6.343850
5.839842 -6.258350
5.887598 -6.167850
5.935353 -6.073450
5.983109 -5.976550
6.030864 -5.878750
6.078620 -5.782550
6.126375 -5.690850
6.174131 -5.608350
6.221887 -5.543150
6.269642 -5.514850
e
0.000000 -5.597650
0.047657 -5.595950
0.095314 -5.590750
0.142971 -5.581950
0.190629 -5.569450
0.238286 -5.553150
0.285943 -5.532950
0.333600 -5.508750
0.381257 -5.480750
0.428914 -5.449150
0.476571 -5.414750
0.524229 -5.378850
0.571886 -5.343350
0.619543 -5.310850
0.667200 -5.285150
0.714857 -5.269350
0.762514 -5.265650
0.810171 -5.273650
0.857829 -5.291750
0.905486 -5.317650
0.953143 -5.346450
1.000800 -5.362150
1.000800 -5.362150
1.048240 -5.362250
1.095679 -5.362650
1.143119 -5.363050
1.190559 -5.362250
1.237999 -5.354050
1.285438 -5.318450
1.332878 -5.262850
1.380318 -5.199950
1.427757 -5.133750
1.475197 -5.066750
1.522637 -5.001350
1.570077 -4.940250
1.617516 -4.887050
1.664956 -4.847950
1.712396 -4.832850
1.712396 -5.901850
1.762116 -5.895550
1.811836 -5.877050
1.861556 -5.847650
1.911276 -5.808950
1.960996 -5.763050
2.010717 -5.711550
2.060437 -5.656050
2.110157 -5.597950
2.159877 -5.538550
2.209597 -5.479350
2.259317 -5.421950
2.309037 -5.368750
2.358758 -5.323050
2.408478 -5.288650
2.458198 -5.269150
2.507918 -5.265550
2.557638 -5.275550
2.607358 -5.295350
2.657078 -5.321250
2.706799 -5.348250
2.756519 -5.362150
2.756519 -5.362150
2.804172 -5.362150
2.851825 -5.362250
2.899479 -5.362150
2.947132 -5.361450
2.994785 -5.359050
3.042438 -5.351350
3.090092 -5.331650
3.137745 -5.297850
3.185398 -5.255750
3.233052 -5.210450
3.280705 -5.166450
3.328358 -5.131350
3.376011 -5.116950
3.376011 -5.862850
3.425767 -5.856350
3.475523 -5.837550
3.525279 -5.807550
3.575035 -5.768250
3.624791 -5.721650
3.674547 -5.669650
3.724303 -5.613650
3.774058 -5.555250
3.823814 -5.495650
3.873570 -5.436550
3.923326 -5.379550
3.973082 -5.327450
4.022838 -5.283550
4.072594 -5.252150
4.122350 -5.236650
4.172105 -5.237650
4.221861 -5.252650
4.271617 -5.277850
4.321373 -5.309950
4.371129 -5.343850
4.420885 -5.362150
4.420885 -5.362150
4.470643 -5.363350
4.520401 -5.367150
4.570159 -5.373150
4.619918 -5.381050
4.669676 -5.388950
4.719434 -5.373750
4.769192 -5.332250
4.818951 -5.286050
4.868709 -5.238450
4.918467 -5.191450
4.968225 -5.147050
5.017984 -5.106750
5.067742 -5.071850
5.117500 -5.043550
5.167258 -5.022650
5.217017 -5.009750
5.266775 -5.005450
5.266775 -5.687550
5.314531 -5.685250
5.362286 -5.678350
5.410042 -5.666750
5.457797 -5.650550
5.505553 -5.629550
5.553308 -5.603650
5.601064 -5.573150
5.648820 -5.538250
5.696575 -5.499350
5.744331 -5.457550
5.792086 -5.414250
5.839842 -5.371450
5.887598 -5.332350
5.935353 -5.300550
5.983109 -5.279750
6.030864 -5.272050
6.078620 -5.277250
6.126375 -5.293450
6.174131 -5.318150
6.221887 -5.346550
6.269642 -5.362150
e
0.000000 -4.279650
0.047657 -4.281550
0.095314 -4.287850
0.142971 -4.299950
0.190629 -4.319050
0.238286 -4.345350
0.285943 -4.379050
0.333600 -4.420750
0.381257 -4.469750
0.428914 -4.523050
0.476571 -4.576750
0.524229 -4.626950
0.571886 -4.670050
0.619543 -4.702350
0.667200 -4.720350
0.714857 -4.721050
0.762514 -4.703750
0.810171 -4.670650
0.857829 -4.625750
0.905486 -4.573850
0.953143 -4.520850
1.000800 -4.488350
1.000800 -4.488350
1.048240 -4.488450
1.095679 -4.488650
1.143119 -4.488950
1.190559 -4.489450
1.237999 -4.490450
1.285438 -4.492450
1.332878 -4.496250
1.380318 -4.502450
1.427757 -4.511550
1.475197 -4.523950
1.522637 -4.540050
1.570077 -4.560450
1.617516 -4.584050
1.664956 -4.605450
1.712396 -4.614750
1.712396 -4.177550
1.762116 -4.185050
1.811836 -4.206950
1.861556 -4.236850
1.911276 -4.270350
1.960996 -4.307050
2.010717 -4.348250
2.060437 -4.395150
2.110157 -4.447450
2.159877 -4.503250
2.209597 -4.559850
2.259317 -4.613950
2.309037 -4.661550
2.358758 -4.698350
2.408478 -4.719250
2.458198 -4.720750
2.507918 -4.702050
2.557638 -4.666550
2.607358 -4.620050
2.657078 -4.568150
2.706799 -4.517550
2.756519 -4.488350
2.756519 -4.488350
2.804172 -4.487350
2.851825 -4.484950
2.899479 -4.483450
2.947132 -4.486350
2.994785 -4.496950
3.042438 -4.517950
3.090092 -4.552950
3.137745 -4.602750
3.185398 -4.661350
3.233052 -4.721750
3.280705 -4.777450
3.328358 -4.819950
3.376011 -4.836750
3.376011 -4.342750
3.425767 -4.347950
3.475523 -4.361150
3.525279 -4.378050
3.575035 -4.395550
3.624791 -4.412650
3.674547 -4.430550
3.724303 -4.451850
3.774058 -4.480250
3.823814 -4.517850
3.873570 -4.562650
3.923326 -4.609850
3.973082 -4.653750
4.022838 -4.688350
4.072594 -4.708050
4.122350 -4.709050
4.172105 -4.690950
4.221861 -4.657450
4.271617 -4.613950
4.321373 -4.565350
4.371129 -4.517050
4.420885 -4.488350
4.420885 -4.488350
4.470643 -4.488550
4.520401 -4.489050
4.570159 -4.489150
4.619918 -4.487950
4.669676 -4.483950
4.719434 -4.475950
4.769192 -4.463050
4.818951 -4.446250
4.868709 -4.429750
4.918467 -4.418950
4.968225 -4.414350
5.017984 -4.414050
5.067742 -4.416350
5.117500 -4.420450
5.167258 -4.425050
5.217017 -4.428650
5.266775 -4.430050
5.266775 -4.292750
5.314531 -4.302850
5.362286 -4.328150
5.410042 -4.359650
5.457797 -4.391550
5.505553 -4.421150
5.553308 -4.448250
5.601064 -4.474750
5.648820 -4.504150
5.696575 -4.539650
5.744331 -4.580650
5.792086 -4.623050
5.839842 -4.661450
5.887598 -4.690950
5.935353 -4.706750
5.983109 -4.705750
6.030864 -4.686950
6.078620 -4.652950
6.126375 -4.608650
6.174131 -4.560150
6.221887 -4.513950
6.269642 -4.488350
e
0.000000 -4.037450
0.047657 -4.050250
0.095314 -4.072650
0.142971 -4.094150
0.190629 -4.116550
0.238286 -4.148150
0.285943 -4.185450
0.333600 -4.218550
0.381257 -4.241650
0.428914 -4.254250
0.476571 -4.257650
0.524229 -4.254150
0.571886 -4.245750
0.619543 -4.234550
0.667200 -4.222650
0.714857 -4.212450
0.762514 -4.207250
0.810171 -4.214950
0.857829 -4.249050
0.905486 -4.305350
0.953143 -4.365050
1.000800 -4.400150
1.000800 -4.400150
1.048240 -4.400650
1.095679 -4.402150
1.143119 -4.404750
1.190559 -4.408250
1.237999 -4.412750
1.285438 -4.418050
1.332878 -4.424150
1.380318 -4.431550
1.427757 -4.441250
1.475197 -4.453650
1.522637 -4.467750
1.570077 -4.481250
1.617516 -4.491650
1.664956 -4.497950
1.712396 -4.500050
1.712396 -4.157750
1.762116 -4.161250
1.811836 -4.167850
1.861556 -4.175950
1.911276 -4.185450
1.960996 -4.194750
2.010717 -4.201650
2.060437 -4.204150
2.110157 -4.201850
2.159877 -4.195550
2.209597 -4.187050
2.259317 -4.178450
2.309037 -4.171550
2.358758 -4.166750
2.408478 -4.163750
2.458198 -4.163150
2.507918 -4.169650
2.557638 -4.199350
2.607358 -4.253350
2.657078 -4.313550
2.706799 -4.369250
2.756519 -4.400150
2.756519 -4.400150
2.804172 -4.400450
2.851825 -4.400850
2.899479 -4.399250
2.947132 -4.393150
2.994785 -4.383850
3.042438 -4.392150
3.090092 -4.426150
3.137745 -4.454850
3.185398 -4.474550
3.233052 -4.488150
3.280705 -4.497250
3.328358 -4.502650
3.376011 -4.504450
3.376011 -4.090350
3.425767 -4.085650
3.475523 -4.076550
3.525279 -4.075850
3.575035 -4.092850
3.624791 -4.123250
3.674547 -4.160250
3.724303 -4.197550
3.774058 -4.228950
3.823814 -4.249950
3.873570 -4.260150
3.923326 -4.261450
3.973082 -4.256450
4.022838 -4.247150
4.072594 -4.235450
4.122350 -4.223850
4.172105 -4.216550
4.221861 -4.222750
4.271617 -4.255650
4.321373 -4.310550
4.371129 -4.367850
4.420885 -4.400150
4.420885 -4.400150
4.470643 -4.399250
4.520401 -4.396850
4.570159 -4.393150
4.619918 -4.388550
4.669676 -4.383450
4.719434 -4.378150
4.769192 -4.371850
4.818951 -4.361750
4.868709 -4.342150
4.918467 -4.306850
4.968225 -4.259250
5.017984 -4.254050
5.067742 -4.262750
5.117500 -4.271850
5.167258 -4.279250
5.217017 -4.283850
5.266775 -4.285450
5.266775 -4.097250
5.314531 -4.097950
5.362286 -4.099250
5.410042 -4.102850
5.457797 -4.115150
5.505553 -4.142950
5.553308 -4.183750
5.601064 -4.227750
5.648820 -4.265050
5.696575 -4.288650
5.744331 -4.296550
5.792086 -4.291150
5.839842 -4.276450
5.887598 -4.256350
5.935353 -4.234550
5.983109 -4.215350
6.030864 -4.204550
6.078620 -4.214150
6.126375 -4.256850
6.174131 -4.316450
6.221887 -4.371550
6.269642 -4.400150
e
0.000000 -4.009150
0.047657 -4.005950
0.095314 -4.010850
0.142971 -4.028650
0.190629 -4.049150
0.238286 -4.056050
0.285943 -4.046950
0.333600 -4.027650
0.381257 -4.003050
0.428914 -3.977750
0.476571 -3.956250
0.524229 -3.943050
0.571886 -3.940150
0.619543 -3.948350
0.667200 -3.968650
0.714857 -4.002550
0.762514 -4.048150
0.810171 -4.094550
0.857829 -4.122450
0.905486 -4.129950
0.953143 -4.130050
1.000800 -4.129550
1.000800 -4.129550
1.048240 -4.131250
1.095679 -4.136150
1.143119 -4.143750
1.190559 -4.153150
1.237999 -4.163250
1.285438 -4.173050
1.332878 -4.181150
1.380318 -4.186050
1.427757 -4.186250
1.475197 -4.180950
1.522637 -4.170650
1.570077 -4.157450
1.617516 -4.144350
1.664956 -4.134750
1.712396 -4.131250
1.712396 -3.955850
1.762116 -3.950050
1.811836 -3.938550
1.861556 -3.930450
1.911276 -3.929450
1.960996 -3.935250
2.010717 -3.946150
2.060437 -3.960650
2.110157 -3.977050
2.159877 -3.993050
2.209597 -4.006150
2.259317 -4.015050
2.309037 -4.020150
2.358758 -4.025250
2.408478 -4.036950
2.458198 -4.061450
2.507918 -4.096150
2.557638 -4.120750
2.607358 -4.127450
2.657078 -4.128750
2.706799 -4.129250
2.756519 -4.129550
2.756519 -4.129550
2.804172 -4.139250
2.851825 -4.166850
2.899479 -4.208150
2.947132 -4.257850
2.994785 -4.307450
3.042438 -4.330250
3.090092 -4.312250
3.137745 -4.282150
3.185398 -4.248050
3.233052 -4.213750
3.280705 -4.182750
3.328358 -4.160150
3.376011 -4.151650
3.376011 -4.005250
3.425767 -4.007650
3.475523 -4.013350
3.525279 -4.016950
3.575035 -4.014350
3.624791 -4.010450
3.674547 -4.007750
3.724303 -4.005250
3.774058 -4.001450
3.823814 -3.995350
3.873570 -3.986650
3.923326 -3.975950
3.973082 -3.964750
4.022838 -3.955850
4.072594 -3.954950
4.122350 -3.973650
4.172105 -4.019050
4.221861 -4.072150
4.271617 -4.107450
4.321373 -4.122050
4.371129 -4.127750
4.420885 -4.129550
4.420885 -4.129550
4.470643 -4.137950
4.520401 -4.158750
4.570159 -4.183250
4.619918 -4.205350
4.669676 -4.222050
4.719434 -4.232450
4.769192 -4.237250
4.818951 -4.238550
4.868709 -4.238550
4.918467 -4.239650
4.968225 -4.239450
5.017984 -4.187450
5.067742 -4.115850
5.117500 -4.042750
5.167258 -3.980450
5.217017 -3.958050
5.266775 -3.956450
5.266775 -4.032050
5.314531 -4.024250
5.362286 -4.009450
5.410042 -4.001550
5.457797 -4.001750
5.505553 -3.998950
5.553308 -3.986950
5.601064 -3.967650
5.648820 -3.944350
5.696575 -3.920650
5.744331 -3.900250
5.792086 -3.886750
5.839842 -3.882450
5.887598 -3.889250
5.935353 -3.912950
5.983109 -3.961350
6.030864 -4.026450
6.078620 -4.084550
6.126375 -4.113950
6.174131 -4.123850
6.221887 -4.128050
6.269642 -4.129550
e
0.000000 -3.690450
0.047657 -3.690650
0.095314 -3.690250
0.142971 -3.688950
0.190629 -3.688350
0.238286 -3.690350
0.285943 -3.695050
0.333600 -3.701450
0.381257 -3.707750
0.428914 -3.711950
0.476571 -3.712450
0.524229 -3.710150
0.571886 -3.710250
0.619543 -3.718950
0.667200 -3.737350
0.714857 -3.759150
0.762514 -3.777950
0.810171 -3.792550
0.857829 -3.805650
0.905486 -3.818550
0.953143 -3.829350
1.000800 -3.833650
1.000800 -3.833650
1.048240 -3.832450
1.095679 -3.828750
1.143119 -3.823150
1.190559 -3.815850
1.237999 -3.807150
1.285438 -3.796850
1.332878 -3.784150
1.380318 -3.768650
1.427757 -3.749850
1.475197 -3.728250
1.522637 -3.705650
1.570077 -3.686750
1.617516 -3.678050
1.664956 -3.678350
1.712396 -3.679650
1.712396 -3.624850
1.762116 -3.619750
1.811836 -3.606350
1.861556 -3.592450
1.911276 -3.589850
1.960996 -3.599650
2.010717 -3.612150
2.060437 -3.619250
2.110157 -3.618050
2.159877 -3.610450
2.209597 -3.604050
2.259317 -3.611750
2.309037 -3.641050
2.358758 -3.684250
2.408478 -3.728250
2.458198 -3.763050
2.507918 -3.785550
2.557638 -3.799650
2.607358 -3.810950
2.657078 -3.821650
2.706799 -3.830350
2.756519 -3.833650
2.756519 -3.833650
2.804172 -3.832350
2.851825 -3.828250
2.899479 -3.822050
2.947132 -3.814850
2.994785 -3.808250
3.042438 -3.804650
3.090092 -3.805650
3.137745 -3.812650
3.185398 -3.825550
3.233052 -3.843050
3.280705 -3.861950
3.328358 -3.877250
3.376011 -3.883350
3.376011 -3.701050
3.425767 -3.702850
3.475523 -3.706650
3.525279 -3.709050
3.575035 -3.707550
3.624791 -3.702150
3.674547 -3.694150
3.724303 -3.684550
3.774058 -3.674250
3.823814 -3.665250
3.873570 -3.661450
3.923326 -3.669150
3.973082 -3.694150
4.022838 -3.736450
4.072594 -3.787550
4.122350 -3.830450
4.172105 -3.850350
4.221861 -3.853850
4.271617 -3.850250
4.321373 -3.843350
4.371129 -3.836550
4.420885 -3.833650
4.420885 -3.833650
4.470643 -3.824350
4.520401 -3.802550
4.570159 -3.781250
4.619918 -3.770650
4.669676 -3.774250
4.719434 -3.790250
4.769192 -3.814450
4.818951 -3.842850
4.868709 -3.871750
4.918467 -3.898150
4.968225 -3.919450
5.017984 -3.934550
5.067742 -3.943750
5.117500 -3.948050
5.167258 -3.946550
5.217017 -3.922650
5.266775 -3.907250
5.266775 -3.712950
5.314531 -3.714150
5.362286 -3.713850
5.410042 -3.704550
5.457797 -3.684150
5.505553 -3.660350
5.553308 -3.642150
5.601064 -3.632850
5.648820 -3.630950
5.696575 -3.633450
5.744331 -3.639450
5.792086 -3.652750
5.839842 -3.680650
5.887598 -3.724350
5.935353 -3.771750
5.983109 -3.804350
6.030864 -3.819450
6.078620 -3.825350
6.126375 -3.827950
6.174131 -3.830150
6.221887 -3.832550
6.269642 -3.833650
e
0.000000 -3.470850
0.047657 -3.462650
0.095314 -3.439850
0.142971 -3.406150
0.190629 -3.366750
0.238286 -3.327350
0.285943 -3.293550
0.333600 -3.269850
0.381257 -3.258650
0.428914 -3.259950
0.476571 -3.270350
0.524229 -3.283550
0.571886 -3.290950
0.619543 -3.285850
0.667200 -3.273050
0.714857 -3.278150
0.762514 -3.319350
0.810171 -3.375250
0.857829 -3.426550
0.905486 -3.464950
0.953143 -3.487550
1.000800 -3.494950
1.000800 -3.494950
1.048240 -3.496350
1.095679 -3.500450
1.143119 -3.506750
1.190559 -3.514750
1.237999 -3.524150
1.285438 -3.534650
1.332878 -3.546450
1.380318 -3.559550
1.427757 -3.574050
1.475197 -3.589450
1.522637 -3.603950
1.570077 -3.613950
1.617516 -3.614150
1.664956 -3.607550
1.712396 -3.604050
1.712396 -3.357250
1.762116 -3.361350
1.811836 -3.369350
1.861556 -3.368650
1.911276 -3.347150
1.960996 -3.311150
2.010717 -3.284750
2.060437 -3.284550
2.110157 -3.305950
2.159877 -3.337350
2.209597 -3.366250
2.259317 -3.377650
2.309037 -3.363250
2.358758 -3.331050
2.408478 -3.300050
2.458198 -3.299850
2.507918 -3.337450
2.557638 -3.387550
2.607358 -3.433350
2.657078 -3.467650
2.706799 -3.488250
2.756519 -3.494950
2.756519 -3.494950
2.804172 -3.487350
2.851825 -3.466350
2.899479 -3.435850
2.947132 -3.399850
2.994785 -3.361150
3.042438 -3.321150
3.090092 -3.280150
3.137745 -3.238350
3.185398 -3.196650
3.233052 -3.157150
3.280705 -3.123650
3.328358 -3.100650
3.376011 -3.092450
3.376011 -3.288750
3.425767 -3.285050
3.475523 -3.276150
3.525279 -3.264350
3.575035 -3.248550
3.624791 -3.228450
3.674547 -3.208950
3.724303 -3.199150
3.774058 -3.204250
3.823814 -3.221950
3.873570 -3.243750
3.923326 -3.259450
3.973082 -3.260650
4.022838 -3.246750
4.072594 -3.231550
4.122350 -3.248950
4.172105 -3.299750
4.221861 -3.357750
4.271617 -3.411450
4.321373 -3.455250
4.371129 -3.484550
4.420885 -3.494950
4.420885 -3.494950
4.470643 -3.493350
4.520401 -3.487650
4.570159 -3.474850
4.619918 -3.453150
4.669676 -3.424650
4.719434 -3.394450
4.769192 -3.366950
4.818951 -3.344350
4.868709 -3.326650
4.918467 -3.312550
4.968225 -3.299950
5.017984 -3.286850
5.067742 -3.270750
5.117500 -3.248750
5.167258 -3.217350
5.217017 -3.176350
5.266775 -3.148750
5.266775 -3.361650
5.314531 -3.362650
5.362286 -3.364750
5.410042 -3.365850
5.457797 -3.363050
5.505553 -3.353950
5.553308 -3.338850
5.601064 -3.323250
5.648820 -3.315150
5.696575 -3.319450
5.744331 -3.333550
5.792086 -3.347050
5.839842 -3.346550
5.887598 -3.326550
5.935353 -3.296450
5.983109 -3.282350
6.030864 -3.310650
6.078620 -3.363950
6.126375 -3.417650
6.174131 -3.460050
6.221887 -3.486150
6.269642 -3.494950
e
0.000000 -2.969450
0.047657 -2.963050
0.095314 -2.943950
0.142971 -2.912550
0.190629 -2.869550
0.238286 -2.816750
0.285943 -2.757750
0.333600 -2.706750
0.381257 -2.705450
0.428914 -2.737850
0.476571 -2.785650
0.524229 -2.845450
0.571886 -2.913450
0.619543 -2.983650
0.667200 -3.043750
0.714857 -3.067450
0.762514 -3.039150
0.810171 -2.982350
0.857829 -2.918950
0.905486 -2.861750
0.953143 -2.821450
1.000800 -2.806750
1.000800 -2.806750
1.048240 -2.802550
1.095679 -2.790050
1.143119 -2.770350
1.190559 -2.745250
1.237999 -2.716950
1.285438 -2.688550
1.332878 -2.663750
1.380318 -2.646250
1.427757 -2.638850
1.475197 -2.642550
1.522637 -2.655650
1.570077 -2.674850
1.617516 -2.694950
1.664956 -2.710350
1.712396 -2.716150
1.712396 -3.017250
1.762116 -3.018850
1.811836 -3.022950
1.861556 -3.028350
1.911276 -3.032350
1.960996 -3.027950
2.010717 -3.004550
2.060437 -2.963050
2.110157 -2.924750
2.159877 -2.908650
2.209597 -2.917950
2.259317 -2.948050
2.309037 -2.992450
2.358758 -3.043050
2.408478 -3.084650
2.458198 -3.088750
2.507918 -3.047750
2.557638 -2.985850
2.607358 -2.920450
2.657078 -2.862350
2.706799 -2.821550
2.756519 -2.806750
2.756519 -2.806750
2.804172 -2.804450
2.851825 -2.797150
2.899479 -2.783850
2.947132 -2.763450
2.994785 -2.734850
3.042438 -2.697650
3.090092 -2.652550
3.137745 -2.601350
3.185398 -2.546750
3.233052 -2.492850
3.280705 -2.444650
3.328358 -2.409250
3.376011 -2.395650
3.376011 -3.137150
3.425767 -3.131950
3.475523 -3.113550
3.525279 -3.078850
3.575035 -3.031650
3.624791 -2.982150
3.674547 -2.939550
3.724303 -2.902650
3.774058 -2.868250
3.823814 -2.846950
3.873570 -2.860550
3.923326 -2.905050
3.973082 -2.964350
4.022838 -3.026850
4.072594 -3.076050
4.122350 -3.079350
4.172105 -3.037450
4.221861 -2.978750
4.271617 -2.917050
4.321373 -2.861550
4.371129 -2.821550
4.420885 -2.806750
4.420885 -2.806750
4.470643 -2.802850
4.520401 -2.790650
4.570159 -2.769550
4.619918 -2.738650
4.669676 -2.697550
4.719434 -2.646950
4.769192 -2.589750
4.818951 -2.531750
4.868709 -2.481750
4.918467 -2.451050
4.968225 -2.452450
5.017984 -2.500550
5.067742 -2.594350
5.117500 -2.712150
5.167258 -2.832650
5.217017 -2.936650
5.266775 -2.987150
5.266775 -2.924650
5.314531 -2.916950
5.362286 -2.895550
5.410042 -2.864350
5.457797 -2.828950
5.505553 -2.796250
5.553308 -2.771650
5.601064 -2.753450
5.648820 -2.735150
5.696575 -2.712850
5.744331 -2.736350
5.792086 -2.802050
5.839842 -2.876450
5.887598 -2.952750
5.935353 -3.020650
5.983109 -3.057350
6.030864 -3.039450
6.078620 -2.985650
6.126375 -2.922250
6.174131 -2.863950
6.221887 -2.822150
6.269642 -2.806750
e
0.000000 -2.723750
0.047657 -2.718950
0.095314 -2.705550
0.142971 -2.686650
0.190629 -2.667350
0.238286 -2.653550
0.285943 -2.649450
0.333600 -2.647850
0.381257 -2.615950
0.428914 -2.581450
0.476571 -2.564750
0.524229 -2.557850
0.571886 -2.552550
0.619543 -2.545350
0.667200 -2.534950
0.714857 -2.521050
0.762514 -2.502950
0.810171 -2.480350
0.857829 -2.453150
0.905486 -2.422450
0.953143 -2.393050
1.000800 -2.378950
1.000800 -2.378950
1.048240 -2.377450
1.095679 -2.373150
1.143119 -2.366150
1.190559 -2.356850
1.237999 -2.345450
1.285438 -2.332350
1.332878 -2.317450
1.380318 -2.300350
1.427757 -2.281650
1.475197 -2.262450
1.522637 -2.244850
1.570077 -2.230450
1.617516 -2.220050
1.664956 -2.213750
1.712396 -2.211650
1.712396 -2.902650
1.762116 -2.894050
1.811836 -2.870650
1.861556 -2.837750
1.911276 -2.800350
1.960996 -2.762050
2.010717 -2.723050
2.060437 -2.678750
2.110157 -2.623550
2.159877 -2.561650
2.209597 -2.510550
2.259317 -2.480950
2.309037 -2.468150
2.358758 -2.463650
2.408478 -2.462050
2.458198 -2.460150
2.507918 -2.455750
2.557638 -2.447550
2.607358 -2.434050
2.657078 -2.414550
2.706799 -2.391650
2.756519 -2.378950
2.756519 -2.378950
2.804172 -2.376250
2.851825 -2.368250
2.899479 -2.355250
2.947132 -2.337850
2.994785 -2.316950
3.042438 -2.293750
3.090092 -2.269750
3.137745 -2.247050
3.185398 -2.228250
3.233052 -2.217850
3.280705 -2.222450
3.328358 -2.238250
3.376011 -2.246750
3.376011 -2.905950
3.425767 -2.899550
3.475523 -2.882650
3.525279 -2.859150
3.575035 -2.830850
3.624791 -2.793950
3.674547 -2.749050
3.724303 -2.723550
3.774058 -2.721750
3.823814 -2.723450
3.873570 -2.706450
3.923326 -2.673650
3.973082 -2.637750
4.022838 -2.603250
4.072594 -2.570550
4.122350 -2.539150
4.172105 -2.507750
4.221861 -2.475650
4.271617 -2.442950
4.321373 -2.411850
4.371129 -2.388050
4.420885 -2.378950
4.420885 -2.378950
4.470643 -2.376750
4.520401 -2.370350
4.570159 -2.360050
4.619918 -2.346250
4.669676 -2.329550
4.719434 -2.310550
4.769192 -2.289650
4.818951 -2.267050
4.868709 -2.244050
4.918467 -2.229350
4.968225 -2.240150
5.017984 -2.264550
5.067742 -2.280650
5.117500 -2.288450
5.167258 -2.292050
5.217017 -2.293850
5.266775 -2.294350
5.266775 -2.714050
5.314531 -2.710850
5.362286 -2.702250
5.410042 -2.690750
5.457797 -2.678050
5.505553 -2.663650
5.553308 -2.647950
5.601064 -2.638250
5.648820 -2.646950
5.696575 -2.677550
5.744331 -2.676250
5.792086 -2.642850
5.839842 -2.607950
5.887598 -2.574350
5.935353 -2.543050
5.983109 -2.513850
6.030864 -2.486250
6.078620 -2.459250
6.126375 -2.432650
6.174131 -2.407450
6.221887 -2.387250
6.269642 -2.378950
e
0.000000 -2.444050
0.047657 -2.444950
0.095314 -2.447550
0.142971 -2.451150
0.190629 -2.454250
0.238286 -2.454150
0.285943 -2.448650
0.333600 -2.437150
0.381257 -2.415850
0.428914 -2.375350
0.476571 -2.313450
0.524229 -2.239950
0.571886 -2.164450
0.619543 -2.092950
0.667200 -2.031850
0.714857 -1.996650
0.762514 -2.019150
0.810171 -2.075050
0.857829 -2.134550
0.905486 -2.188450
0.953143 -2.230150
1.000800 -2.247850
1.000800 -2.247850
1.048240 -2.246250
1.095679 -2.241850
1.143119 -2.235050
1.190559 -2.226450
1.237999 -2.216650
1.285438 -2.205950
1.332878 -2.193850
1.380318 -2.179750
1.427757 -2.162850
1.475197 -2.143250
1.522637 -2.122250
1.570077 -2.102950
1.617516 -2.088950
1.664956 -2.082150
1.712396 -2.080550
1.712396 -2.735650
1.762116 -2.729950
1.811836 -2.712850
1.861556 -2.684350
1.911276 -2.644550
1.960996 -2.594150
2.010717 -2.534850
2.060437 -2.468950
2.110157 -2.398250
2.159877 -2.320350
2.209597 -2.229650
2.259317 -2.128650
2.309037 -2.034850
2.358758 -1.970250
2.408478 -1.962550
2.458198 -1.997150
2.507918 -2.042850
2.557638 -2.091650
2.607358 -2.140650
2.657078 -2.187850
2.706799 -2.228750
2.756519 -2.247850
2.756519 -2.247850
2.804172 -2.243550
2.851825 -2.231250
2.899479 -2.211850
2.947132 -2.186950
2.994785 -2.158250
3.042438 -2.127550
3.090092 -2.096350
3.137745 -2.066450
3.185398 -2.058650
3.233052 -2.101250
3.280705 -2.129950
3.328358 -2.139450
3.376011 -2.140850
3.376011 -2.710950
3.425767 -2.711250
3.475523 -2.711650
3.525279 -2.710350
3.575035 -2.705050
3.624791 -2.693250
3.674547 -2.666850
3.724303 -2.599250
3.774058 -2.493250
3.823814 -2.367150
3.873570 -2.231250
3.923326 -2.103150
3.973082 -2.037550
4.022838 -2.002050
4.072594 -1.985550
4.122350 -2.000050
4.172105 -2.043250
4.221861 -2.099050
4.271617 -2.155250
4.321373 -2.203550
4.371129 -2.236450
4.420885 -2.247850
4.420885 -2.247850
4.470643 -2.244350
4.520401 -2.234150
4.570159 -2.217750
4.619918 -2.196550
4.669676 -2.172450
4.719434 -2.148850
4.769192 -2.131350
4.818951 -2.125950
4.868709 -2.131250
4.918467 -2.135050
4.968225 -2.119850
5.017984 -2.090850
5.067742 -2.063750
5.117500 -2.044850
5.167258 -2.033650
5.217017 -2.027750
5.266775 -2.025850
5.266775 -2.412750
5.314531 -2.410650
5.362286 -2.404250
5.410042 -2.393750
5.457797 -2.380450
5.505553 -2.366450
5.553308 -2.352550
5.601064 -2.334350
5.648820 -2.303650
5.696575 -2.257050
5.744331 -2.198250
5.792086 -2.132850
5.839842 -2.065250
5.887598 -1.999250
5.935353 -1.941550
5.983109 -1.965350
6.030864 -2.027550
6.078620 -2.090650
6.126375 -2.149550
6.174131 -2.199550
6.221887 -2.234750
6.269642 -2.247850
e
0.000000 -1.915850
0.047657 -1.914950
0.095314 -1.911850
0.142971 -1.905450
0.190629 -1.896250
0.238286 -1.885350
0.285943 -1.872450
0.333600 -1.852050
0.381257 -1.818250
0.428914 -1.769950
0.476571 -1.718450
0.524229 -1.702650
0.571886 -1.730750
0.619543 -1.778950
0.667200 -1.834250
0.714857 -1.878750
0.762514 -1.881850
0.810171 -1.874450
0.857829 -1.894550
0.905486 -1.937150
0.953143 -1.976650
1.000800 -1.992550
1.000800 -1.992550
1.048240 -1.991450
1.095679 -1.988150
1.143119 -1.982650
1.190559 -1.974850
1.237999 -1.964750
1.285438 -1.952350
1.332878 -1.938350
1.380318 -1.924150
1.427757 -1.913150
1.475197 -1.911350
1.522637 -1.923150
1.570077 -1.943950
1.617516 -1.963250
1.664956 -1.974550
1.712396 -1.977850
1.712396 -1.966250
1.762116 -1.966850
1.811836 -1.969050
1.861556 -1.974350
1.911276 -1.984250
1.960996 -1.999450
2.010717 -2.018250
2.060437 -2.036450
2.110157 -2.047650
2.159877 -2.044250
2.209597 -2.021150
2.259317 -1.979150
2.309037 -1.927750
2.358758 -1.900850
2.408478 -1.879850
2.458198 -1.847350
2.507918 -1.828650
2.557638 -1.840650
2.607358 -1.884750
2.657078 -1.937650
2.706799 -1.977750
2.756519 -1.992550
2.756519 -1.992550
2.804172 -1.989550
2.851825 -1.980550
2.899479 -1.965550
2.947132 -1.944850
2.994785 -1.919950
3.042438 -1.903650
3.090092 -1.938350
3.137745 -1.993050
3.185398 -2.026750
3.233052 -2.003950
3.280705 -1.979750
3.328358 -1.961150
3.376011 -1.953650
3.376011 -1.982150
3.425767 -1.986650
3.475523 -1.999550
3.525279 -2.019550
3.575035 -2.044550
3.624791 -2.071450
3.674547 -2.096150
3.724303 -2.113950
3.774058 -2.120150
3.823814 -2.111650
3.873570 -2.088050
3.923326 -2.042350
3.973082 -1.934850
4.022838 -1.824450
4.072594 -1.785150
4.122350 -1.792150
4.172105 -1.796550
4.221861 -1.818050
4.271617 -1.868350
4.321373 -1.927350
4.371129 -1.974250
4.420885 -1.992550
4.420885 -1.992550
4.470643 -1.991250
4.520401 -1.987850
4.570159 -1.982650
4.619918 -1.977250
4.669676 -1.974750
4.719434 -1.979350
4.769192 -1.988350
4.818951 -1.990750
4.868709 -1.986050
4.918467 -1.985450
4.968225 -1.993850
5.017984 -2.001550
5.067742 -2.000350
5.117500 -1.991250
5.167258 -1.979650
5.217017 -1.971050
5.266775 -1.967950
5.266775 -1.977850
5.314531 -1.975750
5.362286 -1.969350
5.410042 -1.958850
5.457797 -1.944650
5.505553 -1.928950
5.553308 -1.911650
5.601064 -1.889750
5.648820 -1.863650
5.696575 -1.837050
5.744331 -1.815850
5.792086 -1.807550
5.839842 -1.818950
5.887598 -1.851350
5.935353 -1.896050
5.983109 -1.876050
6.030864 -1.835850
6.078620 -1.832850
6.126375 -1.878850
6.174131 -1.934050
6.221887 -1.976450
6.269642 -1.992550
e
0.000000 -1.822150
0.047657 -1.819350
0.095314 -1.812050
0.142971 -1.802550
0.190629 -1.791950
0.238286 -1.777650
0.285943 -1.755850
0.333600 -1.726450
0.381257 -1.694150
0.428914 -1.665050
0.476571 -1.641250
0.524229 -1.597850
0.571886 -1.539450
0.619543 -1.513450
0.667200 -1.527750
0.714857 -1.566250
0.762514 -1.616850
0.810171 -1.662150
0.857829 -1.683250
0.905486 -1.682350
0.953143 -1.675850
1.000800 -1.672950
1.000800 -1.672950
1.048240 -1.676850
1.095679 -1.687950
1.143119 -1.704150
1.190559 -1.723150
1.237999 -1.742350
1.285438 -1.759850
1.332878 -1.774850
1.380318 -1.787050
1.427757 -1.796150
1.475197 -1.799950
1.522637 -1.795550
1.570077 -1.784950
1.617516 -1.773250
1.664956 -1.764550
1.712396 -1.761350
1.712396 -1.792950
1.762116 -1.793550
1.811836 -1.794950
1.861556 -1.796050
1.911276 -1.795450
1.960996 -1.792450
2.010717 -1.787650
2.060437 -1.782750
2.110157 -1.780150
2.159877 -1.782150
2.209597 -1.789750
2.259317 -1.801650
2.309037 -1.807550
2.358758 -1.772750
2.408478 -1.710450
2.458198 -1.674450
2.507918 -1.676550
2.557638 -1.688850
2.607358 -1.688350
2.657078 -1.681250
2.706799 -1.675150
2.756519 -1.672950
2.756519 -1.672950
2.804172 -1.679150
2.851825 -1.697550
2.899479 -1.726950
2.947132 -1.765450
2.994785 -1.810050
3.042438 -1.846750
3.090092 -1.831750
3.137745 -1.795150
3.185398 -1.757750
3.233052 -1.729550
3.280705 -1.725050
3.328358 -1.742250
3.376011 -1.752650
3.376011 -1.696250
3.425767 -1.693450
3.475523 -1.685350
3.525279 -1.672450
3.575035 -1.655250
3.624791 -1.634450
3.674547 -1.610650
3.724303 -1.584750
3.774058 -1.557850
3.823814 -1.532550
3.873570 -1.526250
3.923326 -1.571850
3.973082 -1.628650
4.022838 -1.674150
4.072594 -1.667450
4.122350 -1.648550
4.172105 -1.665750
4.221861 -1.686350
4.271617 -1.688150
4.321373 -1.681350
4.371129 -1.675250
4.420885 -1.672950
4.420885 -1.672950
4.470643 -1.684850
4.520401 -1.716850
4.570159 -1.760850
4.619918 -1.807450
4.669676 -1.846950
4.719434 -1.869350
4.769192 -1.871450
4.818951 -1.860650
4.868709 -1.844050
4.918467 -1.826250
4.968225 -1.808450
5.017984 -1.789050
5.067742 -1.768950
5.117500 -1.750650
5.167258 -1.736150
5.217017 -1.726950
5.266775 -1.723750
5.266775 -1.878650
5.314531 -1.880450
5.362286 -1.885450
5.410042 -1.890850
5.457797 -1.891750
5.505553 -1.880550
5.553308 -1.852050
5.601064 -1.807550
5.648820 -1.749850
5.696575 -1.683950
5.744331 -1.621150
5.792086 -1.586350
5.839842 -1.583550
5.887598 -1.596650
5.935353 -1.622350
5.983109 -1.660950
6.030864 -1.705750
6.078620 -1.728750
6.126375 -1.713450
6.174131 -1.692450
6.221887 -1.677950
6.269642 -1.672950
e
0.000000 -1.564450
0.047657 -1.568150
0.095314 -1.577050
0.142971 -1.585250
0.190629 -1.586650
0.238286 -1.578250
0.285943 -1.560750
0.333600 -1.538350
0.381257 -1.516950
0.428914 -1.501650
0.476571 -1.490950
0.524229 -1.478050
0.571886 -1.457350
0.619543 -1.413550
0.667200 -1.356750
0.714857 -1.308550
0.762514 -1.273550
0.810171 -1.250150
0.857829 -1.235350
0.905486 -1.226750
0.953143 -1.222450
1.000800 -1.221150
1.000800 -1.221150
1.048240 -1.220350
1.095679 -1.218950
1.143119 -1.220450
1.190559 -1.232950
1.237999 -1.266550
1.285438 -1.320250
1.332878 -1.386050
1.380318 -1.456550
1.427757 -1.524350
1.475197 -1.581750
1.522637 -1.623650
1.570077 -1.650050
1.617516 -1.664750
1.664956 -1.672050
1.712396 -1.674250
1.712396 -1.570250
1.762116 -1.569850
1.811836 -1.568350
1.861556 -1.565050
1.911276 -1.558850
1.960996 -1.548750
2.010717 -1.533850
2.060437 -1.513450
2.110157 -1.487350
2.159877 -1.455950
2.209597 -1.420550
2.259317 -1.383250
2.309037 -1.347250
2.358758 -1.316050
2.408478 -1.291950
2.458198 -1.271450
2.507918 -1.251250
2.557638 -1.237150
2.607358 -1.229150
2.657078 -1.224450
2.706799 -1.221950
2.756519 -1.221150
2.756519 -1.221150
2.804172 -1.222750
2.851825 -1.228050
2.899479 -1.238450
2.947132 -1.256550
2.994785 -1.285450
3.042438 -1.327750
3.090092 -1.382550
3.137745 -1.445450
3.185398 -1.509550
3.233052 -1.564550
3.280705 -1.594250
3.328358 -1.596750
3.376011 -1.594350
3.376011 -1.320650
3.425767 -1.321250
3.475523 -1.323050
3.525279 -1.326650
3.575035 -1.332750
3.624791 -1.342750
3.674547 -1.358250
3.724303 -1.381050
3.774058 -1.412550
3.823814 -1.452050
3.873570 -1.482350
3.923326 -1.469250
3.973082 -1.449750
4.022838 -1.431950
4.072594 -1.408650
4.122350 -1.364250
4.172105 -1.307950
4.221861 -1.266150
4.271617 -1.242750
4.321373 -1.230050
4.371129 -1.223250
4.420885 -1.221150
4.420885 -1.221150
4.470643 -1.220650
4.520401 -1.222350
4.570159 -1.232350
4.619918 -1.253750
4.669676 -1.287550
4.719434 -1.334750
4.769192 -1.396250
4.818951 -1.469450
4.868709 -1.543050
4.918467 -1.595150
4.968225 -1.606650
5.017984 -1.580950
5.067742 -1.533850
5.117500 -1.478450
5.167258 -1.424950
5.217017 -1.382550
5.266775 -1.361050
5.266775 -1.638950
5.314531 -1.637750
5.362286 -1.634050
5.410042 -1.627050
5.457797 -1.616450
5.505553 -1.602350
5.553308 -1.585050
5.601064 -1.565850
5.648820 -1.545950
5.696575 -1.526350
5.744331 -1.502550
5.792086 -1.456850
5.839842 -1.394350
5.887598 -1.347850
5.935353 -1.315350
5.983109 -1.287250
6.030864 -1.263350
6.078620 -1.244950
6.126375 -1.232650
6.174131 -1.225550
6.221887 -1.222150
6.269642 -1.221150
e
0.000000 -1.388050
0.047657 -1.386650
0.095314 -1.383650
0.142971 -1.380450
0.190629 -1.378550
0.238286 -1.378350
0.285943 -1.379150
0.333600 -1.379350
0.381257 -1.374450
0.428914 -1.357750
0.476571 -1.326250
0.524229 -1.283250
0.571886 -1.233050
0.619543 -1.178650
0.667200 -1.124250
0.714857 -1.088250
0.762514 -1.082850
0.810171 -1.083150
0.857829 -1.082650
0.905486 -1.081550
0.953143 -1.080550
1.000800 -1.080150
1.000800 -1.080150
1.048240 -1.084850
1.095679 -1.098550
1.143119 -1.118950
1.190559 -1.139350
1.237999 -1.150250
1.285438 -1.152150
1.332878 -1.150350
1.380318 -1.147750
1.427757 -1.145250
1.475197 -1.143250
1.522637 -1.141950
1.570077 -1.141150
1.617516 -1.140750
1.664956 -1.140550
1.712396 -1.140550
1.712396 -1.025050
1.762116 -1.024650
1.811836 -1.023450
1.861556 -1.022050
1.911276 -1.020850
1.960996 -1.020350
2.010717 -1.020950
2.060437 -1.022850
2.110157 -1.026150
2.159877 -1.031350
2.209597 -1.041150
2.259317 -1.068350
2.309037 -1.110150
2.358758 -1.153050
2.408478 -1.184450
2.458198 -1.192250
2.507918 -1.175150
2.557638 -1.143950
2.607358 -1.114650
2.657078 -1.094550
2.706799 -1.083550
2.756519 -1.080150
2.756519 -1.080150
2.804172 -1.084150
2.851825 -1.096050
2.899479 -1.115450
2.947132 -1.140650
2.994785 -1.168950
3.042438 -1.196550
3.090092 -1.221250
3.137745 -1.242850
3.185398 -1.260950
3.233052 -1.275050
3.280705 -1.284250
3.328358 -1.288450
3.376011 -1.289450
3.376011 -1.002250
3.425767 -1.002650
3.475523 -1.004350
3.525279 -1.008550
3.575035 -1.016450
3.624791 -1.027950
3.674547 -1.041850
3.724303 -1.056150
3.774058 -1.069050
3.823814 -1.079850
3.873570 -1.089750
3.923326 -1.102750
3.973082 -1.123150
4.022838 -1.148950
4.072594 -1.170650
4.122350 -1.178750
4.172105 -1.169250
4.221861 -1.144450
4.271617 -1.116450
4.321373 -1.095650
4.371129 -1.083850
4.420885 -1.080150
4.420885 -1.080150
4.470643 -1.077650
4.520401 -1.069950
4.570159 -1.057350
4.619918 -1.042650
4.669676 -1.029850
4.719434 -1.023850
4.769192 -1.035550
4.818951 -1.076050
4.868709 -1.128250
4.918467 -1.176350
4.968225 -1.217350
5.017984 -1.251450
5.067742 -1.279650
5.117500 -1.302350
5.167258 -1.320150
5.217017 -1.334450
5.266775 -1.345150
5.266775 -1.226050
5.314531 -1.226350
5.362286 -1.227450
5.410042 -1.230550
5.457797 -1.236850
5.505553 -1.247450
5.553308 -1.262950
5.601064 -1.282950
5.648820 -1.305750
5.696575 -1.327150
5.744331 -1.340150
5.792086 -1.337150
5.839842 -1.308650
5.887598 -1.243350
5.935353 -1.157550
5.983109 -1.082650
6.030864 -1.085750
6.078620 -1.088450
6.126375 -1.087150
6.174131 -1.084050
6.221887 -1.081250
6.269642 -1.080150
e
0.000000 -1.059250
0.047657 -1.055050
0.095314 -1.043150
0.142971 -1.025150
0.190629 -1.003350
0.238286 -0.980350
0.285943 -0.958950
0.333600 -0.942450
0.381257 -0.935350
0.428914 -0.940750
0.476571 -0.956650
0.524229 -0.977350
0.571886 -0.999650
0.619543 -1.021550
0.667200 -1.036350
0.714857 -1.023350
0.762514 -0.973250
0.810171 -0.918050
0.857829 -0.869750
0.905486 -0.832850
0.953143 -0.809550
1.000800 -0.801550
1.000800 -0.801550
1.048240 -0.802350
1.095679 -0.804650
1.143119 -0.808750
1.190559 -0.814950
1.237999 -0.823950
1.285438 -0.836450
1.332878 -0.852950
1.380318 -0.873550
1.427757 -0.897950
1.475197 -0.925150
1.522637 -0.953150
1.570077 -0.979550
1.617516 -1.001250
1.664956 -1.015650
1.712396 -1.020650
1.712396 -0.962650
1.762116 -0.961850
1.811836 -0.959650
1.861556 -0.956150
1.911276 -0.951750
1.960996 -0.947550
2.010717 -0.945350
2.060437 -0.948450
2.110157 -0.960450
2.159877 -0.983050
2.209597 -1.011450
2.259317 -1.028450
2.309037 -1.031450
2.358758 -1.025950
2.408478 -1.010950
2.458198 -0.986250
2.507918 -0.952750
2.557638 -0.912750
2.607358 -0.870950
2.657078 -0.834450
2.706799 -0.810050
2.756519 -0.801550
2.756519 -0.801550
2.804172 -0.804050
2.851825 -0.811750
2.899479 -0.825350
2.947132 -0.845550
2.994785 -0.872550
3.042438 -0.905550
3.090092 -0.942750
3.137745 -0.982750
3.185398 -1.023650
3.233052 -1.063350
3.280705 -1.098350
3.328358 -1.123650
3.376011 -1.133050
3.376011 -0.933850
3.425767 -0.933850
3.475523 -0.933450
3.525279 -0.931450
3.575035 -0.927550
3.624791 -0.923950
3.674547 -0.926850
3.724303 -0.936350
3.774058 -0.949150
3.823814 -0.963750
3.873570 -0.979150
3.923326 -0.992050
3.973082 -0.997450
4.022838 -0.993150
4.072594 -0.979950
4.122350 -0.958950
4.172105 -0.929850
4.221861 -0.893250
4.271617 -0.854350
4.321373 -0.823250
4.371129 -0.806450
4.420885 -0.801550
4.420885 -0.801550
4.470643 -0.803450
4.520401 -0.809350
4.570159 -0.819550
4.619918 -0.834550
4.669676 -0.855250
4.719434 -0.885250
4.769192 -0.925050
4.818951 -0.947850
4.868709 -0.960550
4.918467 -0.986350
4.968225 -1.015450
5.017984 -1.042450
5.067742 -1.065550
5.117500 -1.082550
5.167258 -1.091350
5.217017 -1.090150
5.266775 -1.084150
5.266775 -1.050950
5.314531 -1.049750
5.362286 -1.046150
5.410042 -1.040550
5.457797 -1.033650
5.505553 -1.026650
5.553308 -1.020450
5.601064 -1.015750
5.648820 -1.012950
5.696575 -1.012150
5.744331 -1.013950
5.792086 -1.019350
5.839842 -1.029750
5.887598 -1.044750
5.935353 -1.061050
5.983109 -1.061450
6.030864 -0.984650
6.078620 -0.914150
6.126375 -0.859850
6.174131 -0.824750
6.221887 -0.806850
6.269642 -0.801550
e
0.000000 -0.613150
0.047657 -0.616750
0.095314 -0.627450
0.142971 -0.645250
0.190629 -0.669750
0.238286 -0.699550
0.285943 -0.732250
0.333600 -0.764150
0.381257 -0.790650
0.428914 -0.808650
0.476571 -0.822650
0.524229 -0.840950
0.571886 -0.861950
0.619543 -0.873850
0.667200 -0.869650
0.714857 -0.850250
0.762514 -0.821250
0.810171 -0.789450
0.857829 -0.761650
0.905486 -0.742650
0.953143 -0.733150
1.000800 -0.730450
1.000800 -0.730450
1.048240 -0.730950
1.095679 -0.732450
1.143119 -0.735250
1.190559 -0.739250
1.237999 -0.743950
1.285438 -0.748850
1.332878 -0.753950
1.380318 -0.760050
1.427757 -0.770850
1.475197 -0.789050
1.522637 -0.808250
1.570077 -0.824450
1.617516 -0.836550
1.664956 -0.844050
1.712396 -0.846550
1.712396 -0.603850
1.762116 -0.608250
1.811836 -0.620850
1.861556 -0.640450
1.911276 -0.665750
1.960996 -0.695050
2.010717 -0.725750
2.060437 -0.753850
2.110157 -0.774750
2.159877 -0.785750
2.209597 -0.788750
2.259317 -0.788450
2.309037 -0.791350
2.358758 -0.800150
2.408478 -0.806950
2.458198 -0.805850
2.507918 -0.795950
2.557638 -0.779550
2.607358 -0.760550
2.657078 -0.743950
2.706799 -0.733750
2.756519 -0.730450
2.756519 -0.730450
2.804172 -0.733150
2.851825 -0.741050
2.899479 -0.754350
2.947132 -0.772850
2.994785 -0.796350
3.042438 -0.823750
3.090092 -0.853750
3.137745 -0.884550
3.185398 -0.914150
3.233052 -0.940150
3.280705 -0.960550
3.328358 -0.973550
3.376011 -0.978050
3.376011 -0.875250
3.425767 -0.876350
3.475523 -0.879850
3.525279 -0.885150
3.575035 -0.891450
3.624791 -0.895750
3.674547 -0.892350
3.724303 -0.881650
3.774058 -0.867850
3.823814 -0.852950
3.873570 -0.838150
3.923326 -0.823950
3.973082 -0.811150
4.022838 -0.800450
4.072594 -0.792350
4.122350 -0.786050
4.172105 -0.779850
4.221861 -0.772550
4.271617 -0.762950
4.321373 -0.749950
4.371129 -0.736450
4.420885 -0.730450
4.420885 -0.730450
4.470643 -0.730850
4.520401 -0.733350
4.570159 -0.740750
4.619918 -0.756050
4.669676 -0.789750
4.719434 -0.842250
4.769192 -0.884850
4.818951 -0.916850
4.868709 -0.940750
4.918467 -0.947550
4.968225 -0.951150
5.017984 -0.957650
5.067742 -0.969750
5.117500 -0.988750
5.167258 -1.014150
5.217017 -1.041350
5.266775 -1.057350
5.266775 -0.797950
5.314531 -0.798550
5.362286 -0.800250
5.410042 -0.802750
5.457797 -0.805250
5.505553 -0.807150
5.553308 -0.807550
5.601064 -0.806150
5.648820 -0.803250
5.696575 -0.800150
5.744331 -0.799350
5.792086 -0.804050
5.839842 -0.813950
5.887598 -0.822050
5.935353 -0.822750
5.983109 -0.815850
6.030864 -0.803450
6.078620 -0.787750
6.126375 -0.769750
6.174131 -0.751050
6.221887 -0.736150
6.269642 -0.730450
e
0.000000 -0.492150
0.047657 -0.494250
0.095314 -0.500550
0.142971 -0.510550
0.190629 -0.524050
0.238286 -0.541150
0.285943 -0.562450
0.333600 -0.588850
0.381257 -0.620450
0.428914 -0.655250
0.476571 -0.687550
0.524229 -0.708750
0.571886 -0.717050
0.619543 -0.717650
0.667200 -0.715350
0.714857 -0.712350
0.762514 -0.709350
0.810171 -0.706250
0.857829 -0.702350
0.905486 -0.696950
0.953143 -0.691550
1.000800 -0.689350
1.000800 -0.689350
1.048240 -0.688650
1.095679 -0.686750
1.143119 -0.684250
1.190559 -0.682450
1.237999 -0.683950
1.285438 -0.691750
1.332878 -0.707450
1.380318 -0.728150
1.427757 -0.745850
1.475197 -0.754350
1.522637 -0.758350
1.570077 -0.760650
1.617516 -0.762250
1.664956 -0.763050
1.712396 -0.763350
1.712396 -0.562050
1.762116 -0.561450
1.811836 -0.560150
1.861556 -0.558950
1.911276 -0.558450
1.960996 -0.559850
2.010717 -0.565050
2.060437 -0.577550
2.110157 -0.600450
2.159877 -0.633250
2.209597 -0.671350
2.259317 -0.707150
2.309037 -0.730950
2.358758 -0.737550
2.408478 -0.733950
2.458198 -0.727150
2.507918 -0.719550
2.557638 -0.712250
2.607358 -0.705250
2.657078 -0.698250
2.706799 -0.692050
2.756519 -0.689350
2.756519 -0.689350
2.804172 -0.691850
2.851825 -0.699050
2.899479 -0.709150
2.947132 -0.719850
2.994785 -0.728550
3.042438 -0.734250
3.090092 -0.737050
3.137745 -0.737650
3.185398 -0.736750
3.233052 -0.735250
3.280705 -0.733750
3.328358 -0.732650
3.376011 -0.732250
3.376011 -0.424050
3.425767 -0.425650
3.475523 -0.430850
3.525279 -0.439850
3.575035 -0.453350
3.624791 -0.472050
3.674547 -0.496850
3.724303 -0.527650
3.774058 -0.563650
3.823814 -0.602750
3.873570 -0.641750
3.923326 -0.676550
3.973082 -0.703650
4.022838 -0.720750
4.072594 -0.727550
4.122350 -0.726250
4.172105 -0.719950
4.221861 -0.711550
4.271617 -0.703050
4.321373 -0.695850
4.371129 -0.691050
4.420885 -0.689350
4.420885 -0.689350
4.470643 -0.689150
4.520401 -0.689050
4.570159 -0.693350
4.619918 -0.710850
4.669676 -0.737950
4.719434 -0.759350
4.769192 -0.777450
4.818951 -0.795150
4.868709 -0.813350
4.918467 -0.832250
4.968225 -0.851550
5.017984 -0.870750
5.067742 -0.888550
5.117500 -0.903350
5.167258 -0.913950
5.217017 -0.920150
5.266775 -0.922150
5.266775 -0.455850
5.314531 -0.458850
5.362286 -0.467550
5.410042 -0.481750
5.457797 -0.500850
5.505553 -0.524250
5.553308 -0.551650
5.601064 -0.582650
5.648820 -0.616850
5.696575 -0.652650
5.744331 -0.686250
5.792086 -0.711050
5.839842 -0.722750
5.887598 -0.724650
5.935353 -0.721850
5.983109 -0.717050
6.030864 -0.711450
6.078620 -0.705550
6.126375 -0.699750
6.174131 -0.694550
6.221887 -0.690750
6.269642 -0.689350
e
0.000000 -0.078450
0.047657 -0.083050
0.095314 -0.096450
0.142971 -0.118050
0.190629 -0.146850
0.238286 -0.181150
0.285943 -0.218750
0.333600 -0.256650
0.381257 -0.292150
0.428914 -0.322650
0.476571 -0.347050
0.524229 -0.365150
0.571886 -0.377650
0.619543 -0.385550
0.667200 -0.389750
0.714857 -0.390950
0.762514 -0.389750
0.810171 -0.386550
0.857829 -0.382150
0.905486 -0.377350
0.953143 -0.373650
1.000800 -0.372250
1.000800 -0.372250
1.048240 -0.378550
1.095679 -0.396550
1.143119 -0.423850
1.190559 -0.456350
1.237999 -0.488850
1.285438 -0.515550
1.332878 -0.532450
1.380318 -0.539750
1.427757 -0.540750
1.475197 -0.538750
1.522637 -0.535550
1.570077 -0.532350
1.617516 -0.529750
1.664956 -0.528050
1.712396 -0.527550
1.712396 -0.306150
1.762116 -0.308550
1.811836 -0.315850
1.861556 -0.327950
1.911276 -0.344350
1.960996 -0.364150
2.010717 -0.385150
2.060437 -0.403650
2.110157 -0.415850
2.159877 -0.420350
2.209597 -0.418550
2.259317 -0.413050
2.309037 -0.405650
2.358758 -0.397850
2.408478 -0.390450
2.458198 -0.384150
2.507918 -0.379250
2.557638 -0.375850
2.607358 -0.373850
2.657078 -0.372750
2.706799 -0.372350
2.756519 -0.372250
2.756519 -0.372250
2.804172 -0.373250
2.851825 -0.375650
2.899479 -0.378450
2.947132 -0.380450
2.994785 -0.380750
3.042438 -0.379350
3.090092 -0.376650
3.137745 -0.373050
3.185398 -0.369250
3.233052 -0.365850
3.280705 -0.363050
3.328358 -0.361350
3.376011 -0.360750
3.376011 -0.275850
3.425767 -0.278050
3.475523 -0.284450
3.525279 -0.294450
3.575035 -0.306950
3.624791 -0.320750
3.674547 -0.334350
3.724303 -0.346450
3.774058 -0.356350
3.823814 -0.363950
3.873570 -0.369250
3.923326 -0.372650
3.973082 -0.374550
4.022838 -0.375250
4.072594 -0.375150
4.122350 -0.374750
4.172105 -0.374050
4.221861 -0.373350
4.271617 -0.372850
4.321373 -0.372550
4.371129 -0.372350
4.420885 -0.372250
4.420885 -0.372250
4.470643 -0.381650
4.520401 -0.407450
4.570159 -0.441250
4.619918 -0.468450
4.669676 -0.477250
4.719434 -0.470750
4.769192 -0.458450
4.818951 -0.447050
4.868709 -0.439950
4.918467 -0.438550
4.968225 -0.442850
5.017984 -0.451650
5.067742 -0.463050
5.117500 -0.475050
5.167258 -0.485350
5.217017 -0.492350
5.266775 -0.494750
5.266775 -0.096250
5.314531 -0.100550
5.362286 -0.113050
5.410042 -0.133250
5.457797 -0.160150
5.505553 -0.192250
5.553308 -0.227650
5.601064 -0.263850
5.648820 -0.298350
5.696575 -0.328650
5.744331 -0.353250
5.792086 -0.371450
5.839842 -0.383850
5.887598 -0.390950
5.935353 -0.393950
5.983109 -0.393750
6.030864 -0.391150
6.078620 -0.386950
6.126375 -0.381950
6.174131 -0.377150
6.221887 -0.373550
6.269642 -0.372250
e
0.000000 9.713150
0.047657 9.693150
0.095314 9.633550
0.142971 9.536150
0.190629 9.404450
0.238286 9.243450
0.285943 9.059650
0.333600 8.859050
0.381257 8.647350
0.428914 8.429750
0.476571 8.210650
0.524229 7.994150
0.571886 7.783650
0.619543 7.582850
0.667200 7.395050
0.714857 7.223550
0.762514 7.071450
0.810171 6.941950
0.857829 6.837750
0.905486 6.761350
0.953143 6.714750
1.000800 6.699050
1.000800 6.699050
1.048240 6.714350
1.095679 6.759850
1.143119 6.834450
1.190559 6.935850
1.237999 7.061550
1.285438 7.208450
1.332878 7.373350
1.380318 7.552550
1.427757 7.742250
1.475197 7.937750
1.522637 8.133450
1.570077 8.321350
1.617516 8.488150
1.664956 8.610850
1.712396 8.657850
1.712396 10.370050
1.762116 10.338750
1.811836 10.246850
1.861556 10.101050
1.911276 9.912550
1.960996 9.693750
2.010717 9.454850
2.060437 9.204050
2.110157 8.947350
2.159877 8.689150
2.209597 8.433050
2.259317 8.182750
2.309037 7.941150
2.358758 7.711650
2.408478 7.497250
2.458198 7.301350
2.507918 7.127350
2.557638 6.978850
2.607358 6.859050
2.657078 6.771050
2.706799 6.717150
2.756519 6.699050
2.756519 6.699050
2.804172 6.714850
2.851825 6.761650
2.899479 6.838350
2.947132 6.942450
2.994785 7.071050
3.042438 7.220550
3.090092 7.386650
3.137745 7.563850
3.185398 7.745650
3.233052 7.922250
3.280705 8.078650
3.328358 8.192150
3.376011 8.234850
3.376011 10.227550
3.425767 10.199950
3.475523 10.118550
3.525279 9.988550
3.575035 9.817750
3.624791 9.615950
3.674547 9.392250
3.724303 9.154350
3.774058 8.908150
3.823814 8.658650
3.873570 8.409750
3.923326 8.165050
3.973082 7.928150
4.022838 7.702250
4.072594 7.490650
4.122350 7.296950
4.172105 7.124550
4.221861 6.977150
4.271617 6.858150
4.321373 6.770650
4.371129 6.717050
4.420885 6.699050
4.420885 6.699050
4.470643 6.713950
4.520401 6.758150
4.570159 6.830050
4.619918 6.927450
4.669676 7.047350
4.719434 7.186150
4.769192 7.340350
4.818951 7.506150
4.868709 7.679450
4.918467 7.856250
4.968225 8.031850
5.017984 8.201250
5.067742 8.358050
5.117500 8.495150
5.167258 8.603650
5.217017 8.674050
5.266775 8.698550
5.266775 9.852450
5.314531 9.832150
5.362286 9.771050
5.410042 9.670250
5.457797 9.532550
5.505553 9.363350
5.553308 9.169750
5.601064 8.958750
5.648820 8.736450
5.696575 8.508250
5.744331 8.278850
5.792086 8.052250
5.839842 7.832350
5.887598 7.622550
5.935353 7.426450
5.983109 7.247350
6.030864 7.088450
6.078620 6.953050
6.126375 6.844050
6.174131 6.764250
6.221887 6.715450
6.269642 6.699050
e
0.000000 11.191050
0.047657 11.186750
0.095314 11.176850
0.142971 11.168150
0.190629 11.166650
0.238286 11.174850
0.285943 11.192350
0.333600 11.216450
0.381257 11.243250
0.428914 11.268750
0.476571 11.288750
0.524229 11.300150
0.571886 11.300850
0.619543 11.290950
0.667200 11.271750
0.714857 11.246350
0.762514 11.218050
0.810171 11.190250
0.857829 11.165650
0.905486 11.146650
0.953143 11.134650
1.000800 11.130550
1.000800 11.130550
1.048240 11.124650
1.095679 11.106650
1.143119 11.075950
1.190559 11.031050
1.237999 10.970550
1.285438 10.892450
1.332878 10.795150
1.380318 10.678450
1.427757 10.543850
1.475197 10.394450
1.522637 10.235850
1.570077 10.076450
1.617516 9.929750
1.664956 9.818750
1.712396 9.775650
1.712396 11.400150
1.762116 11.384950
1.811836 11.352650
1.861556 11.324250
1.911276 11.309250
1.960996 11.307650
2.010717 11.315950
2.060437 11.329750
2.110157 11.344750
2.159877 11.356250
2.209597 11.360150
2.259317 11.353450
2.309037 11.335850
2.358758 11.309850
2.408478 11.278750
2.458198 11.245950
2.507918 11.214450
2.557638 11.186050
2.607358 11.162650
2.657078 11.145050
2.706799 11.134250
2.756519 11.130550
2.756519 11.130550
2.804172 11.116950
2.851825 11.076250
2.899479 11.008650
2.947132 10.914950
2.994785 10.795850
3.042438 10.653750
3.090092 10.492250
3.137745 10.316750
3.185398 10.134850
3.233052 9.957050
3.280705 9.799050
3.328358 9.684350
3.376011 9.641250
3.376011 11.364050
3.425767 11.357050
3.475523 11.341050
3.525279 11.326450
3.575035 11.320150
3.624791 11.323850
3.674547 11.335950
3.724303 11.353250
3.774058 11.371450
3.823814 11.385950
3.873570 11.391650
3.923326 11.384850
3.973082 11.365250
4.022838 11.335450
4.072594 11.299950
4.122350 11.262550
4.172105 11.226450
4.221861 11.194150
4.271617 11.167250
4.321373 11.147150
4.371129 11.134750
4.420885 11.130550
4.420885 11.130550
4.470643 11.116750
4.520401 11.077850
4.570159 11.019450
4.619918 10.948150
4.669676 10.869450
4.719434 10.787750
4.769192 10.706050
4.818951 10.626650
4.868709 10.550850
4.918467 10.479450
4.968225 10.412750
5.017984 10.351050
5.067742 10.294650
5.117500 10.244850
5.167258 10.204150
5.217017 10.176850
5.266775 10.167150
5.266775 11.196150
5.314531 11.188350
5.362286 11.169850
5.410042 11.151250
5.457797 11.141050
5.505553 11.142950
5.553308 11.155850
5.601064 11.176250
5.648820 11.199650
5.696575 11.221650
5.744331 11.238550
5.792086 11.247950
5.839842 11.248750
5.887598 11.241550
5.935353 11.227950
5.983109 11.210150
6.030864 11.190650
6.078620 11.171450
6.126375 11.154650
6.174131 11.141650
6.221887 11.133350
6.269642 11.130550
e
0.000000 12.438850
0.047657 12.453450
0.095314 12.492050
0.142971 12.539750
0.190629 12.575650
0.238286 12.578850
0.285943 12.544750
0.333600 12.486150
0.381257 12.416550
0.428914 12.345050
0.476571 12.276650
0.524229 12.214550
0.571886 12.160650
0.619543 12.115250
0.667200 12.077950
0.714857 12.047650
0.762514 12.023150
0.810171 12.003650
0.857829 11.988550
0.905486 11.977750
0.953143 11.971350
1.000800 11.969250
1.000800 11.969250
1.048240 11.961850
1.095679 11.940350
1.143119 11.906250
1.190559 11.862250
1.237999 11.811950
1.285438 11.759950
1.332878 11.710350
1.380318 11.666450
1.427757 11.630150
1.475197 11.601750
1.522637 11.580950
1.570077 11.566550
1.617516 11.557450
1.664956 11.552450
1.712396 11.550850
1.712396 11.988450
1.762116 12.004550
1.811836 12.037150
1.861556 12.061050
1.911276 12.063750
1.960996 12.045950
2.010717 12.013350
2.060437 11.973150
2.110157 11.931850
2.159877 11.895150
2.209597 11.867950
2.259317 11.853450
2.309037 11.851750
2.358758 11.860550
2.408478 11.876150
2.458198 11.894950
2.507918 11.914350
2.557638 11.932450
2.607358 11.947850
2.657078 11.959450
2.706799 11.966750
2.756519 11.969250
2.756519 11.969250
2.804172 11.962350
2.851825 11.942350
2.899479 11.910850
2.947132 11.870550
2.994785 11.825050
3.042438 11.778650
3.090092 11.734650
3.137745 11.695650
3.185398 11.663050
3.233052 11.637450
3.280705 11.619150
3.328358 11.608150
3.376011 11.604550
3.376011 12.208750
3.425767 12.208250
3.475523 12.202250
3.525279 12.183750
3.575035 12.150750
3.624791 12.105750
3.674547 12.053750
3.724303 11.999850
3.774058 11.948850
3.823814 11.905550
3.873570 11.874350
3.923326 11.858150
3.973082 11.857050
4.022838 11.867050
4.072594 11.883750
4.122350 11.902850
4.172105 11.921650
4.221861 11.938150
4.271617 11.951550
4.321373 11.961350
4.371129 11.967250
4.420885 11.969250
4.420885 11.969250
4.470643 11.974650
4.520401 11.988550
4.570159 12.004350
4.619918 12.014550
4.669676 12.012750
4.719434 11.994350
4.769192 11.957150
4.818951 11.901850
4.868709 11.831250
4.918467 11.749850
4.968225 11.662750
5.017984 11.575450
5.067742 11.493150
5.117500 11.421450
5.167258 11.365450
5.217017 11.329550
5.266775 11.317350
5.266775 12.430250
5.314531 12.451750
5.362286 12.510750
5.410042 12.591550
5.457797 12.655750
5.505553 12.623550
5.553308 12.552350
5.601064 12.479050
5.648820 12.410050
5.696575 12.347150
5.744331 12.291050
5.792086 12.241050
5.839842 12.196350
5.887598 12.155550
5.935353 12.117750
5.983109 12.082950
6.030864 12.051150
6.078620 12.023250
6.126375 12.000350
6.174131 11.983250
6.221887 11.972750
6.269642 11.969250
e
0.000000 13.251850
0.047657 13.233850
0.095314 13.188650
0.142971 13.136450
0.190629 13.100150
0.238286 13.098950
0.285943 13.135250
0.333600 13.195150
0.381257 13.264450
0.428914 13.334650
0.476571 13.400250
0.524229 13.457050
0.571886 13.501550
0.619543 13.532850
0.667200 13.554650
0.714857 13.571950
0.762514 13.587550
0.810171 13.602150
0.857829 13.614950
0.905486 13.625150
0.953143 13.631650
1.000800 13.633950
1.000800 13.633950
1.048240 13.627050
1.095679 13.607050
1.143119 13.576250
1.190559 13.537450
1.237999 13.493650
1.285438 13.447650
1.332878 13.400950
1.380318 13.355450
1.427757 13.312050
1.475197 13.271250
1.522637 13.234050
1.570077 13.201750
1.617516 13.176350
1.664956 13.159950
1.712396 13.154150
1.712396 12.849050
1.762116 12.864150
1.811836 12.908950
1.861556 12.978950
1.911276 13.063550
1.960996 13.150250
2.010717 13.231350
2.060437 13.305950
2.110157 13.376050
2.159877 13.444150
2.209597 13.511450
2.259317 13.577850
2.309037 13.641350
2.358758 13.695550
2.408478 13.727550
2.458198 13.729250
2.507918 13.711650
2.557638 13.688250
2.607358 13.666250
2.657078 13.648750
2.706799 13.637650
2.756519 13.633950
2.756519 13.633950
2.804172 13.633550
2.851825 13.632750
2.899479 13.632550
2.947132 13.633350
2.994785 13.633350
3.042438 13.630350
3.090092 13.622050
3.137745 13.608250
3.185398 13.591050
3.233052 13.573650
3.280705 13.559050
3.328358 13.549550
3.376011 13.546350
3.376011 12.873450
3.425767 12.884250
3.475523 12.914850
3.525279 12.959550
3.575035 13.011750
3.624791 13.067050
3.674547 13.124050
3.724303 13.182950
3.774058 13.243650
3.823814 13.305950
3.873570 13.368750
3.923326 13.430350
3.973082 13.487750
4.022838 13.537450
4.072594 13.576050
4.122350 13.602050
4.172105 13.617550
4.221861 13.625850
4.271617 13.630150
4.321373 13.632450
4.371129 13.633550
4.420885 13.633950
4.420885 13.633950
4.470643 13.609750
4.520401 13.543050
4.570159 13.447550
4.619918 13.336850
4.669676 13.221750
4.719434 13.109550
4.769192 13.004250
4.818951 12.908350
4.868709 12.822050
4.918467 12.744950
4.968225 12.676350
5.017984 12.616450
5.067742 12.565250
5.117500 12.523950
5.167258 12.493350
5.217017 12.474250
5.266775 12.467950
5.266775 12.954350
5.314531 12.936350
5.362286 12.888750
5.410042 12.826250
5.457797 12.784550
5.505553 12.839950
5.553308 12.931650
5.601064 13.020650
5.648820 13.099750
5.696575 13.167150
5.744331 13.223650
5.792086 13.271950
5.839842 13.315750
5.887598 13.358450
5.935353 13.402450
5.983109 13.448250
6.030864 13.494350
6.078620 13.538450
6.126375 13.577250
6.174131 13.607750
6.221887 13.627250
6.269642 13.633950
e
0.000000 13.705450
0.047657 13.703850
0.095314 13.710850
0.142971 13.734350
0.190629 13.771950
0.238286 13.817150
0.285943 13.859650
0.333600 13.885650
0.381257 13.886250
0.428914 13.868150
0.476571 13.846550
0.524229 13.835050
0.571886 13.843450
0.619543 13.875050
0.667200 13.926150
0.714857 13.990150
0.762514 14.060650
0.810171 14.132650
0.857829 14.200450
0.905486 14.257750
0.953143 14.297050
1.000800 14.311250
1.000800 14.311250
1.048240 14.299650
1.095679 14.265750
1.143119 14.212150
1.190559 14.143150
1.237999 14.063150
1.285438 13.976650
1.332878 13.887350
1.380318 13.798950
1.427757 13.715450
1.475197 13.640150
1.522637 13.576350
1.570077 13.526350
1.617516 13.490850
1.664956 13.469850
1.712396 13.462850
1.712396 13.637950
1.762116 13.640150
1.811836 13.649750
1.861556 13.672950
1.911276 13.714850
1.960996 13.775150
2.010717 13.846350
2.060437 13.916350
2.110157 13.972350
2.159877 14.004950
2.209597 14.011550
2.259317 13.997950
2.309037 13.975050
2.358758 13.956950
2.408478 13.961350
2.458198 13.999150
2.507918 14.059950
2.557638 14.129450
2.607358 14.197750
2.657078 14.256350
2.706799 14.296650
2.756519 14.311250
2.756519 14.311250
2.804172 14.297750
2.851825 14.261650
2.899479 14.212950
2.947132 14.161650
2.994785 14.115750
3.042438 14.081250
3.090092 14.060850
3.137745 14.054150
3.185398 14.057550
3.233052 14.066150
3.280705 14.075350
3.328358 14.082150
3.376011 14.084650
3.376011 13.395250
3.425767 13.413850
3.475523 13.468950
3.525279 13.557550
3.575035 13.669450
3.624791 13.788250
3.674547 13.894450
3.724303 13.974450
3.774058 14.023550
3.823814 14.044550
3.873570 14.044650
3.923326 14.033950
3.973082 14.022650
4.022838 14.019450
4.072594 14.031050
4.122350 14.059650
4.172105 14.103150
4.221861 14.155850
4.271617 14.211050
4.321373 14.261350
4.371129 14.297650
4.420885 14.311250
4.420885 14.311250
4.470643 14.303250
4.520401 14.280850
4.570159 14.247150
4.619918 14.206450
4.669676 14.161950
4.719434 14.114050
4.769192 14.059750
4.818951 13.994850
4.868709 13.916650
4.918467 13.828250
4.968225 13.736150
5.017984 13.647650
5.067742 13.568450
5.117500 13.503350
5.167258 13.455050
5.217017 13.425350
5.266775 13.415450
5.266775 13.662150
5.314531 13.671150
5.362286 13.695250
5.410042 13.730350
5.457797 13.774450
5.505553 13.825550
5.553308 13.879450
5.601064 13.928650
5.648820 13.964150
5.696575 13.984050
5.744331 13.995350
5.792086 14.007350
5.839842 14.025850
5.887598 14.052150
5.935353 14.085450
5.983109 14.123950
6.030864 14.165250
6.078620 14.207350
6.126375 14.246950
6.174131 14.280350
6.221887 14.303050
6.269642 14.311250
e
0.000000 13.864450
0.047657 13.895650
0.095314 13.967950
0.142971 14.053250
0.190629 14.132950
0.238286 14.194750
0.285943 14.238750
0.333600 14.280250
0.381257 14.338250
0.428914 14.416650
0.476571 14.508350
0.524229 14.604750
0.571886 14.699150
0.619543 14.785350
0.667200 14.857150
0.714857 14.907950
0.762514 14.932050
0.810171 14.930150
0.857829 14.911150
0.905486 14.886950
0.953143 14.867750
1.000800 14.860450
1.000800 14.860450
1.048240 14.857350
1.095679 14.850150
1.143119 14.841950
1.190559 14.835050
1.237999 14.830050
1.285438 14.827350
1.332878 14.826550
1.380318 14.827450
1.427757 14.829550
1.475197 14.831950
1.522637 14.834050
1.570077 14.835750
1.617516 14.836850
1.664956 14.837350
1.712396 14.837450
1.712396 14.002850
1.762116 14.015350
1.811836 14.050550
1.861556 14.102550
1.911276 14.165750
1.960996 14.234050
2.010717 14.300450
2.060437 14.357250
2.110157 14.401250
2.159877 14.438550
2.209597 14.479250
2.259317 14.527350
2.309037 14.580950
2.358758 14.636050
2.408478 14.688850
2.458198 14.736550
2.507918 14.776950
2.557638 14.808950
2.607358 14.832450
2.657078 14.848350
2.706799 14.857350
2.756519 14.860450
2.756519 14.860450
2.804172 14.868750
2.851825 14.892150
2.899479 14.926750
2.947132 14.968750
2.994785 15.013850
3.042438 15.058450
3.090092 15.099050
3.137745 15.133150
3.185398 15.159550
3.233052 15.178250
3.280705 15.190450
3.328358 15.197250
3.376011 15.199450
3.376011 14.083450
3.425767 14.094050
3.475523 14.125550
3.525279 14.178150
3.575035 14.252850
3.624791 14.352150
3.674547 14.476250
3.724303 14.611850
3.774058 14.723050
3.823814 14.786950
3.873570 14.829250
3.923326 14.869650
3.973082 14.910450
4.022838 14.948350
4.072594 14.978550
4.122350 14.995750
4.172105 14.995450
4.221861 14.976050
4.271617 14.942050
4.321373 14.903350
4.371129 14.872350
4.420885 14.860450
4.420885 14.860450
4.470643 14.865450
4.520401 14.872650
4.570159 14.865450
4.619918 14.833850
4.669676 14.778950
4.719434 14.710650
4.769192 14.642350
4.818951 14.587350
4.868709 14.553650
4.918467 14.542250
4.968225 14.548250
5.017984 14.564950
5.067742 14.585950
5.117500 14.606550
5.167258 14.622850
5.217017 14.633150
5.266775 14.636750
5.266775 13.835950
5.314531 13.853550
5.362286 13.902450
5.410042 13.971850
5.457797 14.047750
5.505553 14.118550
5.553308 14.178150
5.601064 14.230450
5.648820 14.287250
5.696575 14.357550
5.744331 14.440250
5.792086 14.529250
5.839842 14.617850
5.887598 14.700150
5.935353 14.771250
5.983109 14.826750
6.030864 14.863350
6.078620 14.880650
6.126375 14.881750
6.174131 14.873550
6.221887 14.864350
6.269642 14.860450
e
0.000000 15.298350
0.047657 15.285850
0.095314 15.252050
0.142971 15.208250
0.190629 15.172850
0.238286 15.165250
0.285943 15.196850
0.333600 15.265450
0.381257 15.357650
0.428914 15.455950
0.476571 15.540150
0.524229 15.586750
0.571886 15.582150
0.619543 15.539350
0.667200 15.482650
0.714857 15.430350
0.762514 15.392850
0.810171 15.371550
0.857829 15.358350
0.905486 15.346150
0.953143 15.335050
1.000800 15.330550
1.000800 15.330550
1.048240 15.335350
1.095679 15.348850
1.143119 15.367950
1.190559 15.387750
1.237999 15.403250
1.285438 15.411950
1.332878 15.413950
1.380318 15.411850
1.427757 15.408750
1.475197 15.406350
1.522637 15.405750
1.570077 15.406850
1.617516 15.408850
1.664956 15.410550
1.712396 15.411150
1.712396 15.527750
1.762116 15.503450
1.811836 15.444550
1.861556 15.372650
1.911276 15.303050
1.960996 15.248350
2.010717 15.221550
2.060437 15.235850
2.110157 15.296950
2.159877 15.396850
2.209597 15.516350
2.259317 15.629350
2.309037 15.705650
2.358758 15.723250
2.408478 15.692650
2.458198 15.637850
2.507918 15.572950
2.557638 15.505550
2.607358 15.440650
2.657078 15.384350
2.706799 15.344850
2.756519 15.330550
2.756519 15.330550
2.804172 15.345550
2.851825 15.385650
2.899479 15.437050
2.947132 15.480850
2.994785 15.500950
3.042438 15.501650
3.090092 15.495150
3.137745 15.488250
3.185398 15.482750
3.233052 15.478750
3.280705 15.476150
3.328358 15.474650
3.376011 15.474150
3.376011 15.271550
3.425767 15.261450
3.475523 15.232150
3.525279 15.187150
3.575035 15.132750
3.624791 15.078050
3.674547 15.035450
3.724303 15.025650
3.774058 15.083350
3.823814 15.222650
3.873570 15.401850
3.923326 15.565350
3.973082 15.604650
4.022838 15.563150
4.072594 15.508050
4.122350 15.453350
4.172105 15.406650
4.221861 15.372550
4.271617 15.351150
4.321373 15.338850
4.371129 15.332450
4.420885 15.330550
4.420885 15.330550
4.470643 15.334350
4.520401 15.340450
4.570159 15.336650
4.619918 15.317550
4.669676 15.288950
4.719434 15.256150
4.769192 15.222150
4.818951 15.188150
4.868709 15.155150
4.918467 15.124550
4.968225 15.097450
5.017984 15.075050
5.067742 15.058050
5.117500 15.046550
5.167258 15.039950
5.217017 15.036850
5.266775 15.036050
5.266775 15.474050
5.314531 15.477350
5.362286 15.486650
5.410042 15.497250
5.457797 15.485150
5.505553 15.451850
5.553308 15.438650
5.601064 15.454250
5.648820 15.490450
5.696575 15.531850
5.744331 15.564350
5.792086 15.581550
5.839842 15.582150
5.887598 15.566850
5.935353 15.537850
5.983109 15.499350
6.030864 15.456950
6.078620 15.416450
6.126375 15.381450
6.174131 15.354150
6.221887 15.336550
6.269642 15.330550
e
0.000000 15.858850
0.047657 15.845250
0.095314 15.823450
0.142971 15.814650
0.190629 15.824050
0.238286 15.849750
0.285943 15.888350
0.333600 15.935250
0.381257 15.982950
0.428914 16.015350
0.476571 16.012450
0.524229 15.993750
0.571886 15.982950
0.619543 15.969250
0.667200 15.937450
0.714857 15.888150
0.762514 15.830050
0.810171 15.773950
0.857829 15.728750
0.905486 15.699650
0.953143 15.685450
1.000800 15.681350
1.000800 15.681350
1.048240 15.704050
1.095679 15.767650
1.143119 15.862450
1.190559 15.975950
1.237999 16.093750
1.285438 16.200850
1.332878 16.291750
1.380318 16.368650
1.427757 16.431950
1.475197 16.480950
1.522637 16.516550
1.570077 16.541150
1.617516 16.557250
1.664956 16.566450
1.712396 16.569450
1.712396 15.842650
1.762116 15.858650
1.811836 15.894450
1.861556 15.933850
1.911276 15.969350
1.960996 15.998150
2.010717 16.018950
2.060437 16.030750
2.110157 16.032950
2.159877 16.026150
2.209597 16.012350
2.259317 15.996650
2.309037 15.989650
2.358758 15.998650
2.408478 16.003350
2.458198 15.973050
2.507918 15.908250
2.557638 15.834950
2.607358 15.769950
2.657078 15.721050
2.706799 15.691250
2.756519 15.681350
2.756519 15.681350
2.804172 15.677350
2.851825 15.667550
2.899479 15.659150
2.947132 15.664050
2.994785 15.693050
3.042438 15.740450
3.090092 15.794650
3.137745 15.850650
3.185398 15.906550
3.233052 15.959550
3.280705 16.004950
3.328358 16.036250
3.376011 16.047550
3.376011 15.636750
3.425767 15.638950
3.475523 15.646050
3.525279 15.658950
3.575035 15.677250
3.624791 15.699650
3.674547 15.723350
3.724303 15.744350
3.774058 15.757250
3.823814 15.757050
3.873570 15.743450
3.923326 15.737350
3.973082 15.826950
4.022838 15.934650
4.072594 15.944350
4.122350 15.894350
4.172105 15.835050
4.221861 15.781150
4.271617 15.737650
4.321373 15.706250
4.371129 15.687550
4.420885 15.681350
4.420885 15.681350
4.470643 15.682850
4.520401 15.698050
4.570159 15.748650
4.619918 15.841950
4.669676 15.965550
4.719434 16.100550
4.769192 16.230250
4.818951 16.342150
4.868709 16.428250
4.918467 16.487650
4.968225 16.523250
5.017984 16.540950
5.067742 16.546650
5.117500 16.545750
5.167258 16.542150
5.217017 16.538950
5.266775 16.537650
5.266775 15.722450
5.314531 15.702650
5.362286 15.651550
5.410042 15.591450
5.457797 15.564650
5.505553 15.585650
5.553308 15.623950
5.601064 15.673450
5.648820 15.735650
5.696575 15.813650
5.744331 15.903950
5.792086 15.990050
5.839842 16.025350
5.887598 15.980850
5.935353 15.909050
5.983109 15.840050
6.030864 15.782850
6.078620 15.739550
6.126375 15.710250
6.174131 15.692650
6.221887 15.683950
6.269642 15.681350
e
0.000000 16.106550
0.047657 16.131850
0.095314 16.186350
0.142971 16.241150
0.190629 16.280550
0.238286 16.296550
0.285943 16.288150
0.333600 16.259950
0.381257 16.222150
0.428914 16.196150
0.476571 16.208650
0.524229 16.249950
0.571886 16.296350
0.619543 16.333050
0.667200 16.346850
0.714857 16.335650
0.762514 16.309650
0.810171 16.279350
0.857829 16.251050
0.905486 16.228450
0.953143 16.213850
1.000800 16.208850
1.000800 16.208850
1.048240 16.210150
1.095679 16.216150
1.143119 16.232650
1.190559 16.268450
1.237999 16.334850
1.285438 16.439850
1.332878 16.577750
1.380318 16.730650
1.427757 16.876150
1.475197 16.970650
1.522637 16.983150
1.570077 16.962850
1.617516 16.938950
1.664956 16.921450
1.712396 16.915150
1.712396 16.237650
1.762116 16.248350
1.811836 16.278250
1.861556 16.320050
1.911276 16.362050
1.960996 16.392050
2.010717 16.406350
2.060437 16.410650
2.110157 16.412350
2.159877 16.416450
2.209597 16.425050
2.259317 16.430350
2.309037 16.390350
2.358758 16.308050
2.408478 16.230250
2.458198 16.185850
2.507918 16.176850
2.557638 16.182850
2.607358 16.192350
2.657078 16.200950
2.706799 16.206750
2.756519 16.208850
2.756519 16.208850
2.804172 16.219650
2.851825 16.251050
2.899479 16.301550
2.947132 16.368650
2.994785 16.448850
3.042438 16.537750
3.090092 16.628350
3.137745 16.712350
3.185398 16.781450
3.233052 16.829250
3.280705 16.855250
3.328358 16.865250
3.376011 16.867350
3.376011 16.552350
3.425767 16.544050
3.475523 16.520150
3.525279 16.484050
3.575035 16.439250
3.624791 16.389850
3.674547 16.339950
3.724303 16.294250
3.774058 16.257250
3.823814 16.231850
3.873570 16.215650
3.923326 16.199250
3.973082 16.174250
4.022838 16.159650
4.072594 16.199650
4.122350 16.244650
4.172105 16.258450
4.221861 16.251450
4.271617 16.236850
4.321373 16.222350
4.371129 16.212350
4.420885 16.208850
4.420885 16.208850
4.470643 16.228050
4.520401 16.281950
4.570159 16.362950
4.619918 16.463250
4.669676 16.577250
4.719434 16.699250
4.769192 16.823150
4.818951 16.940450
4.868709 17.037950
4.918467 17.103750
4.968225 17.134550
5.017984 17.136450
5.067742 17.119250
5.117500 17.092750
5.167258 17.066550
5.217017 17.047550
5.266775 17.040650
5.266775 16.604250
5.314531 16.615150
5.362286 16.641150
5.410042 16.667650
5.457797 16.682150
5.505553 16.676650
5.553308 16.648650
5.601064 16.599550
5.648820 16.533250
5.696575 16.454350
5.744331 16.368950
5.792086 16.291650
5.839842 16.261350
5.887598 16.294550
5.935353 16.324550
5.983109 16.323050
6.030864 16.301250
6.078620 16.273450
6.126375 16.247250
6.174131 16.226550
6.221887 16.213350
6.269642 16.208850
e
0.000000 17.115150
0.047657 17.106850
0.095314 17.083950
0.142971 17.051750
0.190629 17.016150
0.238286 16.980550
0.285943 16.945550
0.333600 16.909150
0.381257 16.868750
0.428914 16.824550
0.476571 16.780650
0.524229 16.743350
0.571886 16.721350
0.619543 16.724850
0.667200 16.764850
0.714857 16.841350
0.762514 16.940650
0.810171 17.048950
0.857829 17.154050
0.905486 17.243250
0.953143 17.303650
1.000800 17.324950
1.000800 17.324950
1.048240 17.321650
1.095679 17.311750
1.143119 17.295550
1.190559 17.273550
1.237999 17.247150
1.285438 17.218450
1.332878 17.189250
1.380318 17.162750
1.427757 17.146850
1.475197 17.172950
1.522637 17.262850
1.570077 17.362050
1.617516 17.439550
1.664956 17.487150
1.712396 17.503050
1.712396 16.574250
1.762116 16.575450
1.811836 16.579850
1.861556 16.590350
1.911276 16.613150
1.960996 16.655250
2.010717 16.715950
2.060437 16.781750
2.110157 16.809450
2.159877 16.753850
2.209597 16.668050
2.259317 16.589650
2.309037 16.576850
2.358758 16.638650
2.408478 16.736650
2.458198 16.850550
2.507918 16.967550
2.557638 17.078850
2.607358 17.177450
2.657078 17.256050
2.706799 17.307150
2.756519 17.324950
2.756519 17.324950
2.804172 17.327150
2.851825 17.334050
2.899479 17.345950
2.947132 17.362650
2.994785 17.383350
3.042438 17.406350
3.090092 17.429150
3.137745 17.449950
3.185398 17.469450
3.233052 17.489550
3.280705 17.510550
3.328358 17.527650
3.376011 17.534350
3.376011 17.058750
3.425767 17.062650
3.475523 17.073450
3.525279 17.087650
3.575035 17.096150
3.624791 17.083850
3.674547 17.043850
3.724303 16.980250
3.774058 16.899450
3.823814 16.809550
3.873570 16.721750
3.923326 16.650450
3.973082 16.610250
4.022838 16.608050
4.072594 16.647950
4.122350 16.733150
4.172105 16.852450
4.221861 16.985550
4.271617 17.114850
4.321373 17.224750
4.371129 17.298850
4.420885 17.324950
4.420885 17.324950
4.470643 17.327150
4.520401 17.333450
4.570159 17.343750
4.619918 17.357650
4.669676 17.375250
4.719434 17.397350
4.769192 17.425350
4.818951 17.461950
4.868709 17.509350
4.918467 17.564650
4.968225 17.616850
5.017984 17.656550
5.067742 17.682750
5.117500 17.699950
5.167258 17.711150
5.217017 17.717750
5.266775 17.719950
5.266775 17.136950
5.314531 17.134250
5.362286 17.124850
5.410042 17.105850
5.457797 17.077650
5.505553 17.044950
5.553308 17.011350
5.601064 16.976550
5.648820 16.936450
5.696575 16.888450
5.744331 16.834750
5.792086 16.782750
5.839842 16.742350
5.887598 16.729050
5.935353 16.761050
5.983109 16.838450
6.030864 16.942150
6.078620 17.053350
6.126375 17.158850
6.174131 17.246550
6.221887 17.304650
6.269642 17.324950
e
0.000000 17.334450
0.047657 17.336750
0.095314 17.342350
0.142971 17.348150
0.190629 17.350450
0.238286 17.344650
0.285943 17.327350
0.333600 17.297550
0.381257 17.257750
0.428914 17.211950
0.476571 17.165650
0.524229 17.126650
0.571886 17.106650
0.619543 17.115650
0.667200 17.155650
0.714857 17.220150
0.762514 17.299650
0.810171 17.385950
0.857829 17.472050
0.905486 17.551350
0.953143 17.612750
1.000800 17.637350
1.000800 17.637350
1.048240 17.641450
1.095679 17.653750
1.143119 17.674250
1.190559 17.702350
1.237999 17.737050
1.285438 17.776950
1.332878 17.820250
1.380318 17.865350
1.427757 17.911150
1.475197 17.957050
1.522637 18.001350
1.570077 18.041150
1.617516 18.072450
1.664956 18.092250
1.712396 18.099050
1.712396 17.187850
1.762116 17.181350
1.811836 17.163050
1.861556 17.135850
1.911276 17.101750
1.960996 17.061650
2.010717 17.015050
2.060437 16.965050
2.110157 16.943650
2.159877 16.989650
2.209597 17.051650
2.259317 17.109050
2.309037 17.161350
2.358758 17.211850
2.408478 17.264650
2.458198 17.321850
2.507918 17.383850
2.557638 17.448750
2.607358 17.513650
2.657078 17.573650
2.706799 17.619450
2.756519 17.637350
2.756519 17.637350
2.804172 17.638450
2.851825 17.641650
2.899479 17.647050
2.947132 17.654750
2.994785 17.664950
3.042438 17.679150
3.090092 17.699550
3.137745 17.727950
3.185398 17.763550
3.233052 17.800450
3.280705 17.830050
3.328358 17.846450
3.376011 17.851050
3.376011 17.172850
3.425767 17.175050
3.475523 17.179750
3.525279 17.184450
3.575035 17.190550
3.624791 17.205850
3.674547 17.231750
3.724303 17.261250
3.774058 17.287750
3.823814 17.306150
3.873570 17.313550
3.923326 17.312350
3.973082 17.310150
4.022838 17.316750
4.072594 17.338450
4.122350 17.375650
4.172105 17.423850
4.221861 17.477250
4.271617 17.531150
4.321373 17.581350
4.371129 17.621050
4.420885 17.637350
4.420885 17.637350
4.470643 17.637550
4.520401 17.638450
4.570159 17.640550
4.619918 17.644550
4.669676 17.651250
4.719434 17.661850
4.769192 17.677550
4.818951 17.699750
4.868709 17.728550
4.918467 17.763150
4.968225 17.800550
5.017984 17.836550
5.067742 17.867450
5.117500 17.891950
5.167258 17.909450
5.217017 17.919850
5.266775 17.923350
5.266775 17.589850
5.314531 17.579950
5.362286 17.559550
5.410042 17.542550
5.457797 17.532250
5.505553 17.520750
5.553308 17.498950
5.601064 17.466950
5.648820 17.433950
5.696575 17.409850
5.744331 17.397650
5.792086 17.395450
5.839842 17.400550
5.887598 17.411850
5.935353 17.430350
5.983109 17.455850
6.030864 17.487150
6.078620 17.522650
6.126375 17.560050
6.174131 17.596350
6.221887 17.625550
6.269642 17.637350
e
0.000000 18.207350
0.047657 18.209150
0.095314 18.212850
0.142971 18.213150
0.190629 18.204350
0.238286 18.183750
0.285943 18.154250
0.333600 18.120050
0.381257 18.084950
0.428914 18.055350
0.476571 18.041650
0.524229 18.052250
0.571886 18.090150
0.619543 18.153150
0.667200 18.235450
0.714857 18.329050
0.762514 18.421050
0.810171 18.486750
0.857829 18.488250
0.905486 18.429450
0.953143 18.363350
1.000800 18.334850
1.000800 18.334850
1.048240 18.332550
1.095679 18.324750
1.143119 18.310550
1.190559 18.289050
1.237999 18.262250
1.285438 18.235250
1.332878 18.216450
1.380318 18.216150
1.427757 18.243550
1.475197 18.301950
1.522637 18.382250
1.570077 18.446450
1.617516 18.465050
1.664956 18.465350
1.712396 18.464350
1.712396 18.137350
1.762116 18.140350
1.811836 18.145050
1.861556 18.139550
1.911276 18.111550
1.960996 18.061750
2.010717 18.003950
2.060437 17.952750
2.110157 17.918550
2.159877 17.907450
2.209597 17.921550
2.259317 17.959750
2.309037 18.018350
2.358758 18.093350
2.408478 18.180250
2.458198 18.273650
2.507918 18.363750
2.557638 18.429850
2.607358 18.443550
2.657078 18.405250
2.706799 18.356150
2.756519 18.334850
2.756519 18.334850
2.804172 18.331450
2.851825 18.320450
2.899479 18.300550
2.947132 18.271950
2.994785 18.236350
3.042438 18.196750
3.090092 18.155450
3.137745 18.114850
3.185398 18.078050
3.233052 18.049150
3.280705 18.032650
3.328358 18.028150
3.376011 18.028250
3.376011 18.030050
3.425767 18.036650
3.475523 18.053350
3.525279 18.071350
3.575035 18.076050
3.624791 18.055250
3.674547 18.012950
3.724303 17.963350
3.774058 17.919050
3.823814 17.889550
3.873570 17.882350
3.923326 17.902150
3.973082 17.949250
4.022838 18.020450
4.072594 18.111550
4.122350 18.214250
4.172105 18.314650
4.221861 18.389750
4.271617 18.415250
4.321373 18.392350
4.371129 18.353350
4.420885 18.334850
4.420885 18.334850
4.470643 18.337050
4.520401 18.342850
4.570159 18.351050
4.619918 18.359850
4.669676 18.368150
4.719434 18.375550
4.769192 18.382950
4.818951 18.393350
4.868709 18.412550
4.918467 18.451650
4.968225 18.521550
5.017984 18.622650
5.067742 18.733150
5.117500 18.807050
5.167258 18.830150
5.217017 18.833950
5.266775 18.834250
5.266775 17.954950
5.314531 17.971450
5.362286 18.011850
5.410042 18.058450
5.457797 18.097150
5.505553 18.119850
5.553308 18.125850
5.601064 18.116350
5.648820 18.091550
5.696575 18.058550
5.744331 18.032250
5.792086 18.027250
5.839842 18.050550
5.887598 18.101150
5.935353 18.172450
5.983109 18.253550
6.030864 18.330950
6.078620 18.386650
6.126375 18.403750
6.174131 18.382950
6.221887 18.350050
6.269642 18.334850
e
0.000000 18.859150
0.047657 18.846850
0.095314 18.812950
0.142971 18.766250
0.190629 18.718750
0.238286 18.676350
0.285943 18.636450
0.333600 18.599650
0.381257 18.577950
0.428914 18.581550
0.476571 18.610150
0.524229 18.657250
0.571886 18.715550
0.619543 18.777750
0.667200 18.834350
0.714857 18.871350
0.762514 18.873750
0.810171 18.854350
0.857829 18.864450
0.905486 18.921050
0.953143 18.989050
1.000800 19.023950
1.000800 19.023950
1.048240 19.017250
1.095679 18.998550
1.143119 18.970650
1.190559 18.936250
1.237999 18.896850
1.285438 18.853150
1.332878 18.805250
1.380318 18.754850
1.427757 18.705750
1.475197 18.664450
1.522637 18.646450
1.570077 18.689850
1.617516 18.816850
1.664956 18.984050
1.712396 19.115650
1.712396 18.757150
1.762116 18.695650
1.811836 18.608050
1.861556 18.535350
1.911276 18.488450
1.960996 18.465050
2.010717 18.453350
2.060437 18.445250
2.110157 18.440450
2.159877 18.443450
2.209597 18.460350
2.259317 18.496650
2.309037 18.555650
2.358758 18.636450
2.408478 18.732950
2.458198 18.831050
2.507918 18.897950
2.557638 18.899550
2.607358 18.898150
2.657078 18.938350
2.706799 18.994650
2.756519 19.023950
2.756519 19.023950
2.804172 19.030850
2.851825 19.050650
2.899479 19.077150
2.947132 19.093550
2.994785 19.088250
3.042438 19.067150
3.090092 19.034250
3.137745 18.988250
3.185398 18.929950
3.233052 18.868550
3.280705 18.816750
3.328358 18.783350
3.376011 18.772050
3.376011 18.647150
3.425767 18.623850
3.475523 18.569350
3.525279 18.510250
3.575035 18.468450
3.624791 18.457150
3.674547 18.472850
3.724303 18.504450
3.774058 18.545050
3.823814 18.593150
3.873570 18.648750
3.923326 18.711450
3.973082 18.778550
4.022838 18.843050
4.072594 18.892250
4.122350 18.911050
4.172105 18.901350
4.221861 18.888750
4.271617 18.902550
4.321373 18.946550
4.371129 18.998050
4.420885 19.023950
4.420885 19.023950
4.470643 19.021550
4.520401 19.014550
4.570159 19.003350
4.619918 18.988950
4.669676 18.972850
4.719434 18.956650
4.769192 18.942150
4.818951 18.930850
4.868709 18.924250
4.918467 18.923350
4.968225 18.925750
5.017984 18.929450
5.067742 18.940550
5.117500 18.976250
5.167258 19.023250
5.217017 19.052750
5.266775 19.062250
5.266775 18.832850
5.314531 18.812950
5.362286 18.760450
5.410042 18.692550
5.457797 18.628450
5.505553 18.582550
5.553308 18.557550
5.601064 18.551050
5.648820 18.564850
5.696575 18.600450
5.744331 18.653150
5.792086 18.716150
5.839842 18.783150
5.887598 18.848450
5.935353 18.905050
5.983109 18.942650
6.030864 18.951750
6.078620 18.941250
6.126375 18.940350
6.174131 18.965550
6.221887 19.003650
6.269642 19.023950
e
0.000000 19.130550
0.047657 19.127650
0.095314 19.117450
0.142971 19.094750
0.190629 19.056050
0.238286 19.010450
0.285943 18.979250
0.333600 18.977550
0.381257 19.003550
0.428914 19.047350
0.476571 19.099750
0.524229 19.153250
0.571886 19.200950
0.619543 19.235750
0.667200 19.252450
0.714857 19.255250
0.762514 19.260950
0.810171 19.277950
0.857829 19.289850
0.905486 19.276450
0.953143 19.239350
1.000800 19.214250
1.000800 19.214250
1.048240 19.216550
1.095679 19.222250
1.143119 19.229550
1.190559 19.235850
1.237999 19.239850
1.285438 19.241550
1.332878 19.241350
1.380318 19.240050
1.427757 19.238250
1.475197 19.235150
1.522637 19.230050
1.570077 19.223150
1.617516 19.215250
1.664956 19.208550
1.712396 19.202750
1.712396 18.868650
1.762116 18.932150
1.811836 19.027550
1.861556 19.120150
1.911276 19.205050
1.960996 19.282750
2.010717 19.354650
2.060437 19.421050
2.110157 19.478850
2.159877 19.521850
2.209597 19.542050
2.259317 19.532150
2.309037 19.489350
2.358758 19.416950
2.408478 19.324350
2.458198 19.228750
2.507918 19.168550
2.557638 19.186550
2.607358 19.232750
2.657078 19.249250
2.706799 19.231150
2.756519 19.214250
2.756519 19.214250
2.804172 19.212950
2.851825 19.210450
2.899479 19.213550
2.947132 19.235850
2.994785 19.279350
3.042438 19.315150
3.090092 19.287150
3.137745 19.219350
3.185398 19.160150
3.233052 19.112850
3.280705 19.071950
3.328358 19.038950
3.376011 19.025550
3.376011 19.037950
3.425767 19.058250
3.475523 19.105050
3.525279 19.159550
3.575035 19.212750
3.624791 19.263750
3.674547 19.313050
3.724303 19.358050
3.774058 19.392350
3.823814 19.409050
3.873570 19.403950
3.923326 19.379750
3.973082 19.343550
4.022838 19.306550
4.072594 19.283350
4.122350 19.289050
4.172105 19.319850
4.221861 19.347450
4.271617 19.340750
4.321373 19.296450
4.371129 19.241650
4.420885 19.214250
4.420885 19.214250
4.470643 19.216850
4.520401 19.224350
4.570159 19.235250
4.619918 19.245550
4.669676 19.248450
4.719434 19.236550
4.769192 19.206850
4.818951 19.165450
4.868709 19.123950
4.918467 19.094050
4.968225 19.083350
5.017984 19.097550
5.067742 19.140550
5.117500 19.222750
5.167258 19.353150
5.217017 19.507150
5.266775 19.601450
5.266775 19.269650
5.314531 19.262850
5.362286 19.240750
5.410042 19.201050
5.457797 19.145850
5.505553 19.086050
5.553308 19.039050
5.601064 19.019250
5.648820 19.029450
5.696575 19.061950
5.744331 19.107450
5.792086 19.158850
5.839842 19.210550
5.887598 19.256250
5.935353 19.289250
5.983109 19.304950
6.030864 19.310050
6.078620 19.311650
6.126375 19.301250
6.174131 19.272050
6.221887 19.234050
6.269642 19.214250
e
0.000000 20.117350
0.047657 20.101850
0.095314 20.067250
0.142971 20.039550
0.190629 20.041850
0.238286 20.081850
0.285943 20.152650
0.333600 20.240950
0.381257 20.332750
0.428914 20.415450
0.476571 20.476750
0.524229 20.501150
0.571886 20.467350
0.619543 20.371950
0.667200 20.255650
0.714857 20.151150
0.762514 20.063250
0.810171 19.988250
0.857829 19.932050
0.905486 19.908050
0.953143 19.913250
1.000800 19.921350
1.000800 19.921350
1.048240 19.915950
1.095679 19.900350
1.143119 19.875550
1.190559 19.843150
1.237999 19.805250
1.285438 19.764350
1.332878 19.722350
1.380318 19.681150
1.427757 19.642350
1.475197 19.606750
1.522637 19.573150
1.570077 19.534350
1.617516 19.466050
1.664956 19.346750
1.712396 19.234450
1.712396 20.097850
1.762116 20.102550
1.811836 20.117450
1.861556 20.143850
1.911276 20.180050
1.960996 20.218850
2.010717 20.247250
2.060437 20.254450
2.110157 20.240150
2.159877 20.213850
2.209597 20.186850
2.259317 20.166750
2.309037 20.154750
2.358758 20.144650
2.408478 20.123650
2.458198 20.077450
2.507918 20.009350
2.557638 19.940850
2.607358 19.895250
2.657078 19.887750
2.706799 19.907750
2.756519 19.921350
2.756519 19.921350
2.804172 19.903050
2.851825 19.850050
2.899479 19.768850
2.947132 19.669650
2.994785 19.565050
3.042438 19.477150
3.090092 19.454850
3.137745 19.469150
3.185398 19.457450
3.233052 19.404550
3.280705 19.342550
3.328358 19.300450
3.376011 19.286150
3.376011 20.089650
3.425767 20.100950
3.475523 20.135150
3.525279 20.192150
3.575035 20.268150
3.624791 20.353450
3.674547 20.429150
3.724303 20.464550
3.774058 20.447250
3.823814 20.408850
3.873570 20.370950
3.923326 20.333250
3.973082 20.285850
4.022838 20.220650
4.072594 20.137350
4.122350 20.042150
4.172105 19.947750
4.221861 19.874350
4.271617 19.846850
4.321373 19.866250
4.371129 19.902950
4.420885 19.921350
4.420885 19.921350
4.470643 19.918150
4.520401 19.909250
4.570159 19.896050
4.619918 19.879850
4.669676 19.862050
4.719434 19.844450
4.769192 19.830950
4.818951 19.825250
4.868709 19.828250
4.918467 19.839550
4.968225 19.858050
5.017984 19.882950
5.067742 19.911850
5.117500 19.941450
5.167258 19.965750
5.217017 19.956250
5.266775 19.882750
5.266775 20.282250
5.314531 20.268550
5.362286 20.239450
5.410042 20.212650
5.457797 20.200150
5.505553 20.205350
5.553308 20.223650
5.601064 20.246350
5.648820 20.264450
5.696575 20.268350
5.744331 20.248850
5.792086 20.198050
5.839842 20.115150
5.887598 20.013450
5.935353 19.916950
5.983109 19.849150
6.030864 19.818150
6.078620 19.816050
6.126375 19.834450
6.174131 19.868350
6.221887 19.904650
6.269642 19.921350
e
0.000000 20.762250
0.047657 20.786050
0.095314 20.850850
0.142971 20.943050
0.190629 21.048250
0.238286 21.152250
0.285943 21.241050
0.333600 21.298950
0.381257 21.302450
0.428914 21.223250
0.476571 21.080950
0.524229 20.924150
0.571886 20.795650
0.619543 20.714550
0.667200 20.655550
0.714857 20.598050
0.762514 20.538950
0.810171 20.474850
0.857829 20.400350
0.905486 20.321750
0.953143 20.256850
1.000800 20.230050
1.000800 20.230050
1.048240 20.220150
1.095679 20.192650
1.143119 20.154550
1.190559 20.114050
1.237999 20.077750
1.285438 20.047650
1.332878 20.020550
1.380318 19.990750
1.427757 19.950750
1.475197 19.895250
1.522637 19.822650
1.570077 19.739750
1.617516 19.669350
1.664956 19.634650
1.712396 19.625950
1.712396 21.032050
1.762116 21.024450
1.811836 21.002050
1.861556 20.967050
1.911276 20.924650
1.960996 20.883350
2.010717 20.851950
2.060437 20.832150
2.110157 20.813350
2.159877 20.779150
2.209597 20.720850
2.259317 20.640550
2.309037 20.547550
2.358758 20.454750
2.408478 20.377450
2.458198 20.330950
2.507918 20.313050
2.557638 20.305950
2.607358 20.294350
2.657078 20.271550
2.706799 20.243750
2.756519 20.230050
2.756519 20.230050
2.804172 20.219550
2.851825 20.192450
2.899479 20.155650
2.947132 20.110750
2.994785 20.055050
3.042438 19.984750
3.090092 19.897850
3.137745 19.805550
3.185398 19.739150
3.233052 19.722650
3.280705 19.735550
3.328358 19.752350
3.376011 19.759350
3.376011 21.306050
3.425767 21.288250
3.475523 21.232250
3.525279 21.140450
3.575035 21.028450
3.624791 20.916250
3.674547 20.824950
3.724303 20.782050
3.774058 20.792850
3.823814 20.817450
3.873570 20.826250
3.923326 20.816050
3.973082 20.796950
4.022838 20.779850
4.072594 20.769350
4.122350 20.740050
4.172105 20.594150
4.221861 20.470550
4.271617 20.374850
4.321373 20.302050
4.371129 20.250450
4.420885 20.230050
4.420885 20.230050
4.470643 20.229150
4.520401 20.225050
4.570159 20.215050
4.619918 20.197550
4.669676 20.177150
4.719434 20.164850
4.769192 20.171450
4.818951 20.199850
4.868709 20.245050
4.918467 20.297650
4.968225 20.344150
5.017984 20.366250
5.067742 20.342450
5.117500 20.262250
5.167258 20.136550
5.217017 20.016050
5.266775 20.004550
5.266775 20.411450
5.314531 20.443150
5.362286 20.528450
5.410042 20.652550
5.457797 20.801650
5.505553 20.959750
5.553308 21.102750
5.601064 21.187950
5.648820 21.180150
5.696575 21.101850
5.744331 20.991950
5.792086 20.878950
5.839842 20.778550
5.887598 20.691550
5.935353 20.609950
5.983109 20.528250
6.030864 20.449850
6.078620 20.382550
6.126375 20.328550
6.174131 20.283050
6.221887 20.245950
6.269642 20.230050
e
0.000000 21.550250
0.047657 21.567750
0.095314 21.611150
0.142971 21.659050
0.190629 21.690850
0.238286 21.695250
0.285943 21.668750
0.333600 21.612050
0.381257 21.540050
0.428914 21.485450
0.476571 21.446050
0.524229 21.399650
0.571886 21.336850
0.619543 21.252050
0.667200 21.143250
0.714857 21.021650
0.762514 20.911350
0.810171 20.838450
0.857829 20.813750
0.905486 20.823450
0.953143 20.842650
1.000800 20.851550
1.000800 20.851550
1.048240 20.854650
1.095679 20.864950
1.143119 20.884450
1.190559 20.913150
1.237999 20.949050
1.285438 20.988750
1.332878 21.027650
1.380318 21.059650
1.427757 21.077050
1.475197 21.070050
1.522637 21.027950
1.570077 20.948450
1.617516 20.852450
1.664956 20.776150
1.712396 20.747450
1.712396 21.941450
1.762116 21.912850
1.811836 21.852750
1.861556 21.794950
1.911276 21.754150
1.960996 21.734950
2.010717 21.737350
2.060437 21.760850
2.110157 21.802550
2.159877 21.851250
2.209597 21.876750
2.259317 21.823450
2.309037 21.686150
2.358758 21.521550
2.408478 21.358050
2.458198 21.206850
2.507918 21.075950
2.557638 20.972550
2.607358 20.902650
2.657078 20.866150
2.706799 20.853550
2.756519 20.851550
2.756519 20.851550
2.804172 20.871250
2.851825 20.923550
2.899479 20.992750
2.947132 21.039850
2.994785 20.931750
3.042438 20.787250
3.090092 20.684850
3.137745 20.632350
3.185398 20.616950
3.233052 20.619850
3.280705 20.627150
3.328358 20.632050
3.376011 20.633750
3.376011 21.664950
3.425767 21.644250
3.475523 21.604650
3.525279 21.576550
3.575035 21.566650
3.624791 21.570450
3.674547 21.583050
3.724303 21.599950
3.774058 21.615250
3.823814 21.616350
3.873570 21.576050
3.923326 21.468850
3.973082 21.306950
4.022838 21.119550
4.072594 20.929750
4.122350 20.778350
4.172105 20.773450
4.221861 20.782350
4.271617 20.799150
4.321373 20.821650
4.371129 20.842650
4.420885 20.851550
4.420885 20.851550
4.470643 20.858650
4.520401 20.878850
4.570159 20.910050
4.619918 20.948350
4.669676 20.988150
4.719434 21.022550
4.769192 21.047650
4.818951 21.066550
4.868709 21.080750
4.918467 21.088350
4.968225 21.087650
5.017984 21.084750
5.067742 21.094250
5.117500 21.126750
5.167258 21.175050
5.217017 21.219550
5.266775 21.237950
5.266775 21.364350
5.314531 21.378850
5.362286 21.416450
5.410042 21.463650
5.457797 21.506850
5.505553 21.537550
5.553308 21.558450
5.601064 21.591750
5.648820 21.645850
5.696575 21.667350
5.744331 21.619450
5.792086 21.521250
5.839842 21.398350
5.887598 21.268150
5.935353 21.144250
5.983109 21.037250
6.030864 20.952850
6.078620 20.893250
6.126375 20.858950
6.174131 20.847350
6.221887 20.849050
6.269642 20.851550
e
0.000000 21.966650
0.047657 21.974750
0.095314 22.001050
0.142971 22.049750
0.190629 22.122550
0.238286 22.211150
0.285943 22.303250
0.333600 22.387850
0.381257 22.458150
0.428914 22.505250
0.476571 22.497750
0.524229 22.384250
0.571886 22.200350
0.619543 22.022350
0.667200 21.888450
0.714857 21.806150
0.762514 21.763650
0.810171 21.744850
0.857829 21.736850
0.905486 21.731650
0.953143 21.726850
1.000800 21.724550
1.000800 21.724550
1.048240 21.722050
1.095679 21.710050
1.143119 21.681750
1.190559 21.635350
1.237999 21.576050
1.285438 21.512950
1.332878 21.455250
1.380318 21.411750
1.427757 21.387150
1.475197 21.378050
1.522637 21.374450
1.570077 21.372050
1.617516 21.372250
1.664956 21.374050
1.712396 21.374950
1.712396 22.426150
1.762116 22.470450
1.811836 22.575250
1.861556 22.699450
1.911276 22.810750
1.960996 22.875050
2.010717 22.859450
2.060437 22.757950
2.110157 22.597750
2.159877 22.415850
2.209597 22.249050
2.259317 22.143750
2.309037 22.095050
2.358758 22.049450
2.408478 21.994450
2.458198 21.937150
2.507918 21.884150
2.557638 21.837150
2.607358 21.795850
2.657078 21.760250
2.706799 21.734350
2.756519 21.724550
2.756519 21.724550
2.804172 21.673850
2.851825 21.539950
2.899479 21.362050
2.947132 21.201650
2.994785 21.210550
3.042438 21.287550
3.090092 21.366250
3.137745 21.438150
3.185398 21.500050
3.233052 21.550050
3.280705 21.586950
3.328358 21.609350
3.376011 21.616850
3.376011 22.357950
3.425767 22.395750
3.475523 22.485050
3.525279 22.580050
3.575035 22.634050
3.624791 22.618550
3.674547 22.544250
3.724303 22.434850
3.774058 22.307950
3.823814 22.182350
3.873570 22.087450
3.923326 22.045350
3.973082 22.034750
4.022838 22.020750
4.072594 21.990250
4.122350 21.947650
4.172105 21.900650
4.221861 21.853750
4.271617 21.808450
4.321373 21.767350
4.371129 21.736350
4.420885 21.724550
4.420885 21.724550
4.470643 21.684650
4.520401 21.582650
4.570159 21.457150
4.619918 21.344250
4.669676 21.268450
4.719434 21.239650
4.769192 21.253150
4.818951 21.292550
4.868709 21.342350
4.918467 21.395050
4.968225 21.447450
5.017984 21.499050
5.067742 21.549150
5.117500 21.596250
5.167258 21.636750
5.217017 21.665850
5.266775 21.678150
5.266775 22.172750
5.314531 22.174150
5.362286 22.177950
5.410042 22.184450
5.457797 22.193150
5.505553 22.202050
5.553308 22.206250
5.601064 22.200150
5.648820 22.193350
5.696575 22.217750
5.744331 22.284150
5.792086 22.357350
5.839842 22.388250
5.887598 22.330450
5.935353 22.217350
5.983109 22.100650
6.030864 21.996450
6.078620 21.907650
6.126375 21.834050
6.174131 21.776350
6.221887 21.738150
6.269642 21.724550
e
0.000000 23.292450
0.047657 23.287050
0.095314 23.268150
0.142971 23.230950
0.190629 23.176550
0.238286 23.115250
0.285943 23.064150
0.333600 23.040250
0.381257 23.046550
0.428914 23.039850
0.476571 22.949550
0.524229 22.883250
0.571886 22.875450
0.619543 22.874250
0.667200 22.853550
0.714857 22.806350
0.762514 22.736150
0.810171 22.652950
0.857829 22.569550
0.905486 22.499650
0.953143 22.453850
1.000800 22.438050
1.000800 22.438050
1.048240 22.453150
1.095679 22.498150
1.143119 22.568950
1.190559 22.650950
1.237999 22.717450
1.285438 22.731150
1.332878 22.664350
1.380318 22.527050
1.427757 22.357050
1.475197 22.197950
1.522637 22.092350
1.570077 22.061450
1.617516 22.089250
1.664956 22.136650
1.712396 22.159950
1.712396 23.866850
1.762116 23.828950
1.811836 23.754650
1.861556 23.671050
1.911276 23.584450
1.960996 23.495250
2.010717 23.398850
2.060437 23.297950
2.110157 23.206750
2.159877 23.133050
2.209597 23.078750
2.259317 23.045350
2.309037 23.030450
2.358758 23.019450
2.408478 22.988450
2.458198 22.922950
2.507918 22.827550
2.557638 22.717250
2.607358 22.609050
2.657078 22.518650
2.706799 22.458850
2.756519 22.438050
2.756519 22.438050
2.804172 22.450850
2.851825 22.486650
2.899479 22.540050
2.947132 22.604750
2.994785 22.673750
3.042438 22.740850
3.090092 22.800550
3.137745 22.850150
3.185398 22.888650
3.233052 22.916950
3.280705 22.936850
3.328358 22.949050
3.376011 22.953250
3.376011 23.366350
3.425767 23.342850
3.475523 23.289950
3.525279 23.239450
3.575035 23.217950
3.624791 23.226450
3.674547 23.223050
3.724303 23.181550
3.774058 23.117150
3.823814 23.045350
3.873570 22.967950
3.923326 22.890450
3.973082 22.827550
4.022838 22.789950
4.072594 22.770150
4.122350 22.747450
4.172105 22.705350
4.221861 22.642150
4.271617 22.569150
4.321373 22.501950
4.371129 22.454850
4.420885 22.438050
4.420885 22.438050
4.470643 22.438050
4.520401 22.438150
4.570159 22.436850
4.619918 22.430850
4.669676 22.417050
4.719434 22.391850
4.769192 22.353150
4.818951 22.299850
4.868709 22.232050
4.918467 22.152350
4.968225 22.066150
5.017984 21.980750
5.067742 21.902050
5.117500 21.832850
5.167258 21.774350
5.217017 21.730450
5.266775 21.711950
5.266775 23.011250
5.314531 23.011250
5.362286 23.009850
5.410042 23.002950
5.457797 22.985450
5.505553 22.956250
5.553308 22.925950
5.601064 22.918550
5.648820 22.957250
5.696575 23.043250
5.744331 23.036550
5.792086 22.865550
5.839842 22.725350
5.887598 22.666150
5.935353 22.654450
5.983109 22.638850
6.030864 22.607050
6.078620 22.562850
6.126375 22.515650
6.174131 22.474850
6.221887 22.447550
6.269642 22.438050
e
0.000000 23.732150
0.047657 23.730950
0.095314 23.732450
0.142971 23.747150
0.190629 23.777850
0.238286 23.808150
0.285943 23.794550
0.333600 23.693450
0.381257 23.523750
0.428914 23.375450
0.476571 23.373450
0.524229 23.467850
0.571886 23.586950
0.619543 23.700850
0.667200 23.788450
0.714857 23.835050
0.762514 23.838450
0.810171 23.808650
0.857829 23.761250
0.905486 23.712950
0.953143 23.677750
1.000800 23.664950
1.000800 23.664950
1.048240 23.653850
1.095679 23.626350
1.143119 23.588950
1.190559 23.542850
1.237999 23.492250
1.285438 23.450650
1.332878 23.427750
1.380318 23.407950
1.427757 23.368250
1.475197 23.300950
1.522637 23.209450
1.570077 23.102150
1.617516 22.992350
1.664956 22.903050
1.712396 22.866750
1.712396 24.022550
1.762116 24.055950
1.811836 24.114850
1.861556 24.163750
1.911276 24.170150
1.960996 24.112450
2.010717 24.068850
2.060437 24.095450
2.110157 24.152250
2.159877 24.148450
2.209597 24.077350
2.259317 24.002450
2.309037 23.940850
2.358758 23.893750
2.408478 23.865150
2.458198 23.852750
2.507918 23.840650
2.557638 23.812450
2.607358 23.766250
2.657078 23.715950
2.706799 23.678650
2.756519 23.664950
2.756519 23.664950
2.804172 23.701650
2.851825 23.779750
2.899479 23.858250
2.947132 23.938050
2.994785 24.017850
3.042438 24.084450
3.090092 24.107450
3.137745 24.066850
3.185398 23.998950
3.233052 23.935250
3.280705 23.886750
3.328358 23.857050
3.376011 23.847050
3.376011 23.710450
3.425767 23.729450
3.475523 23.769350
3.525279 23.805450
3.575035 23.825450
3.624791 23.838450
3.674547 23.873150
3.724303 23.927850
3.774058 23.937750
3.823814 23.902750
3.873570 23.888250
3.923326 23.916850
3.973082 23.963750
4.022838 23.968950
4.072594 23.915250
4.122350 23.854150
4.172105 23.811150
4.221861 23.785250
4.271617 23.762350
4.321373 23.724650
4.371129 23.682350
4.420885 23.664950
4.420885 23.664950
4.470643 23.688250
4.520401 23.741750
4.570159 23.809950
4.619918 23.882750
4.669676 23.933350
4.719434 23.925750
4.769192 23.859350
4.818951 23.761550
4.868709 23.656550
4.918467 23.560350
4.968225 23.477950
5.017984 23.401150
5.067742 23.312850
5.117500 23.210750
5.167258 23.115250
5.217017 23.048250
5.266775 23.024250
5.266775 24.098850
5.314531 24.092350
5.362286 24.067650
5.410042 24.009950
5.457797 23.915250
5.505553 23.803550
5.553308 23.689050
5.601064 23.567050
5.648820 23.424450
5.696575 23.260950
5.744331 23.217850
5.792086 23.373150
5.839842 23.546350
5.887598 23.704250
5.935353 23.822750
5.983109 23.888750
6.030864 23.906350
6.078620 23.890850
6.126375 23.847950
6.174131 23.763150
6.221887 23.691150
6.269642 23.664950
e
0.000000 24.265050
0.047657 24.265750
0.095314 24.264150
0.142971 24.253050
0.190629 24.228550
0.238286 24.197850
0.285943 24.185450
0.333600 24.203750
0.381257 24.222750
0.428914 24.232950
0.476571 24.247450
0.524229 24.268350
0.571886 24.290550
0.619543 24.307450
0.667200 24.308750
0.714857 24.275850
0.762514 24.198850
0.810171 24.095350
0.857829 23.990650
0.905486 23.903250
0.953143 23.845750
1.000800 23.825750
1.000800 23.825750
1.048240 23.832950
1.095679 23.848150
1.143119 23.863450
1.190559 23.878750
1.237999 23.897450
1.285438 23.923250
1.332878 23.961050
1.380318 24.015450
1.427757 24.082250
1.475197 24.145750
1.522637 24.187250
1.570077 24.198050
1.617516 24.187350
1.664956 24.172550
1.712396 24.166350
1.712396 25.199050
1.762116 25.115050
1.811836 24.928050
1.861556 24.715550
1.911276 24.546550
1.960996 24.479650
2.010717 24.467450
2.060437 24.441550
2.110157 24.392150
2.159877 24.377950
2.209597 24.374650
2.259317 24.322150
2.309037 24.258550
2.358758 24.205750
2.408478 24.158050
2.458198 24.104050
2.507918 24.040550
2.557638 23.973950
2.607358 23.914150
2.657078 23.867050
2.706799 23.836350
2.756519 23.825750
2.756519 23.825750
2.804172 23.850450
2.851825 23.938250
2.899479 24.090050
2.947132 24.256950
2.994785 24.370950
3.042438 24.378150
3.090092 24.349150
3.137745 24.353450
3.185398 24.372250
3.233052 24.383750
3.280705 24.385750
3.328358 24.383250
3.376011 24.381650
3.376011 25.047850
3.425767 25.002350
3.475523 24.883350
3.525279 24.728850
3.575035 24.575450
3.624791 24.446250
3.674547 24.346250
3.724303 24.286450
3.774058 24.315550
3.823814 24.427050
3.873570 24.539450
3.923326 24.429350
3.973082 24.314550
4.022838 24.261250
4.072594 24.253250
4.122350 24.215350
4.172105 24.129050
4.221861 24.019050
4.271617 23.917250
4.321373 23.854450
4.371129 23.831050
4.420885 23.825750
4.420885 23.825750
4.470643 23.865150
4.520401 23.975050
4.570159 24.112450
4.619918 24.225750
4.669676 24.310750
4.719434 24.408450
4.769192 24.523950
4.818951 24.563350
4.868709 24.407650
4.918467 24.189450
4.968225 23.981150
5.017984 23.808850
5.067742 23.690750
5.117500 23.626150
5.167258 23.592950
5.217017 23.575250
5.266775 23.569450
5.266775 24.511950
5.314531 24.480650
5.362286 24.411750
5.410042 24.354050
5.457797 24.337850
5.505553 24.357850
5.553308 24.394750
5.601064 24.420650
5.648820 24.409150
5.696575 24.376850
5.744331 24.352650
5.792086 24.342250
5.839842 24.337950
5.887598 24.330350
5.935353 24.308950
5.983109 24.257450
6.030864 24.162350
6.078620 24.036250
6.126375 23.917450
6.174131 23.858950
6.221887 23.833850
6.269642 23.825750
e
0.000000 25.097250
0.047657 25.095850
0.095314 25.089250
0.142971 25.068350
0.190629 25.011550
0.238286 24.899050
0.285943 24.760850
0.333600 24.668550
0.381257 24.672150
0.428914 24.750850
0.476571 24.850050
0.524229 24.927850
0.571886 24.960750
0.619543 24.940650
0.667200 24.889750
0.714857 24.854350
0.762514 24.862150
0.810171 24.899850
0.857829 24.944750
0.905486 24.983450
0.953143 25.009150
1.000800 25.018050
1.000800 25.018050
1.048240 25.035550
1.095679 25.084750
1.143119 25.156950
1.190559 25.236750
1.237999 25.305250
1.285438 25.340450
1.332878 25.268250
1.380318 25.123250
1.427757 24.989350
1.475197 24.885750
1.522637 24.825550
1.570077 24.813450
1.617516 24.836550
1.664956 24.869850
1.712396 24.886050
1.712396 25.472650
1.762116 25.472350
1.811836 25.431950
1.861556 25.339950
1.911276 25.218350
1.960996 25.089250
2.010717 24.967950
2.060437 24.863650
2.110157 24.770250
2.159877 24.688350
2.209597 24.660650
2.259317 24.700250
2.309037 24.757350
2.358758 24.806150
2.408478 24.839550
2.458198 24.860050
2.507918 24.879050
2.557638 24.906550
2.607358 24.943350
2.657078 24.980750
2.706799 25.008050
2.756519 25.018050
2.756519 25.018050
2.804172 24.999450
2.851825 24.946950
2.899479 24.871850
2.947132 24.795250
2.994785 24.764450
3.042438 24.832550
3.090092 24.947850
3.137745 25.055350
3.185398 25.138450
3.233052 25.193650
3.280705 25.223850
3.328358 25.236850
3.376011 25.240450
3.376011 25.428050
3.425767 25.417250
3.475523 25.382550
3.525279 25.324850
3.575035 25.250950
3.624791 25.171850
3.674547 25.096850
3.724303 25.018050
3.774058 24.894950
3.823814 24.739850
3.873570 24.601050
3.923326 24.676950
3.973082 24.749450
4.022838 24.784950
4.072594 24.804150
4.122350 24.834450
4.172105 24.879750
4.221861 24.926950
4.271617 24.966550
4.321373 24.995350
4.371129 25.012350
4.420885 25.018050
4.420885 25.018050
4.470643 25.020350
4.520401 25.033350
4.570159 25.075150
4.619918 25.160950
4.669676 25.257750
4.719434 25.245750
4.769192 25.067250
4.818951 24.937150
4.868709 24.960850
4.918467 24.796550
4.968225 24.635750
5.017984 24.486650
5.067742 24.357650
5.117500 24.257650
5.167258 24.191550
5.217017 24.157050
5.266775 24.146850
5.266775 24.933750
5.314531 24.950850
5.362286 24.991250
5.410042 25.039250
5.457797 25.080450
5.505553 25.080150
5.553308 25.009250
5.601064 24.937450
5.648820 24.938350
5.696575 25.007950
5.744331 25.091450
5.792086 25.135050
5.839842 25.127850
5.887598 25.086250
5.935353 25.020150
5.983109 24.957850
6.030864 24.929650
6.078620 24.937450
6.126375 24.963250
6.174131 24.990950
6.221887 25.010850
6.269642 25.018050
e
0.000000 25.967650
0.047657 25.928350
0.095314 25.823550
0.142971 25.685950
0.190629 25.558850
0.238286 25.484650
0.285943 25.466350
0.333600 25.481150
0.381257 25.515750
0.428914 25.569950
0.476571 25.649450
0.524229 25.708150
0.571886 25.646550
0.619543 25.606950
0.667200 25.618750
0.714857 25.672350
0.762514 25.755950
0.810171 25.863750
0.857829 25.981650
0.905486 26.093050
0.953143 26.174250
1.000800 26.204250
1.000800 26.204250
1.048240 26.178950
1.095679 26.100150
1.143119 25.977550
1.190559 25.824050
1.237999 25.656150
1.285438 25.497250
1.332878 25.432350
1.380318 25.447250
1.427757 25.465950
1.475197 25.467850
1.522637 25.436150
1.570077 25.372750
1.617516 25.297250
1.664956 25.234150
1.712396 25.208350
1.712396 26.019150
1.762116 26.005250
1.811836 25.960650
1.861556 25.882850
1.911276 25.747550
1.960996 25.588750
2.010717 25.426450
2.060437 25.298050
2.110157 25.245350
2.159877 25.279550
2.209597 25.377150
2.259317 25.507750
2.309037 25.623550
2.358758 25.682850
2.408478 25.728750
2.458198 25.793950
2.507918 25.879250
2.557638 25.973950
2.607358 26.063950
2.657078 26.138050
2.706799 26.187350
2.756519 26.204850
2.756519 26.204550
2.804172 26.197350
2.851825 26.175050
2.899479 26.137650
2.947132 26.088650
2.994785 26.032450
3.042438 25.975550
3.090092 25.926350
3.137745 25.888650
3.185398 25.870650
3.233052 25.875250
3.280705 25.898750
3.328358 25.927950
3.376011 25.944150
3.376011 25.827650
3.425767 25.823750
3.475523 25.811050
3.525279 25.777650
3.575035 25.692750
3.624791 25.544350
3.674547 25.368350
3.724303 25.216350
3.774058 25.147550
3.823814 25.153550
3.873570 25.200050
3.923326 25.270250
3.973082 25.347650
4.022838 25.425550
4.072594 25.516250
4.122350 25.629250
4.172105 25.759350
4.221861 25.894550
4.271617 26.017650
4.321373 26.117550
4.371129 26.181750
4.420885 26.204250
4.420885 26.204350
4.470643 26.182950
4.520401 26.114950
4.570159 25.997450
4.619918 25.818350
4.669676 25.606650
4.719434 25.408550
4.769192 25.273650
4.818951 25.125550
4.868709 25.001650
4.918467 25.107950
4.968225 25.165050
5.017984 25.146950
5.067742 25.074550
5.117500 24.982650
5.167258 24.898050
5.217017 24.839150
5.266775 24.818150
5.266775 25.286550
5.314531 25.295350
5.362286 25.312650
5.410042 25.318350
5.457797 25.298150
5.505553 25.273050
5.553308 25.287350
5.601064 25.319450
5.648820 25.346550
5.696575 25.366250
5.744331 25.396550
5.792086 25.471750
5.839842 25.584750
5.887598 25.707650
5.935353 25.813650
5.983109 25.910850
6.030864 26.007450
6.078620 26.084650
6.126375 26.139350
6.174131 26.175950
6.221887 26.198350
6.269642 26.204450
e
0.000000 27.093050
0.047657 27.156650
0.095314 27.191650
0.142971 27.042550
0.190629 26.711950
0.238286 26.486350
0.285943 26.302350
0.333600 26.170050
0.381257 26.061450
0.428914 25.966350
0.476571 25.872750
0.524229 25.845350
0.571886 26.005950
0.619543 26.209950
0.667200 26.394050
0.714857 26.427650
0.762514 26.496650
0.810171 26.562250
0.857829 26.622550
0.905486 26.667050
0.953143 26.688550
1.000800 26.694950
1.000800 26.694450
1.048240 26.651750
1.095679 26.542250
1.143119 26.422050
1.190559 26.308050
1.237999 26.220350
1.285438 26.165850
1.332878 26.132150
1.380318 26.095350
1.427757 26.040050
1.475197 25.976150
1.522637 25.925050
1.570077 25.895450
1.617516 25.879650
1.664956 25.872350
1.712396 25.870150
1.712396 26.231150
1.762116 26.225750
1.811836 26.206350
1.861556 26.189150
1.911276 26.140750
1.960996 26.087550
2.010717 26.029450
2.060437 25.962850
2.110157 25.903050
2.159877 25.853950
2.209597 25.816950
2.259317 25.806150
2.309037 25.848950
2.358758 25.978250
2.408478 26.125850
2.458198 26.267750
2.507918 26.388750
2.557638 26.492950
2.607358 26.577950
2.657078 26.641750
2.706799 26.681250
2.756519 26.696350
2.756519 26.696050
2.804172 26.705650
2.851825 26.736950
2.899479 26.680250
2.947132 26.649750
2.994785 26.610350
3.042438 26.575350
3.090092 26.547850
3.137745 26.517150
3.185398 26.472950
3.233052 26.410950
3.280705 26.345450
3.328358 26.293650
3.376011 26.273250
3.376011 26.347350
3.425767 26.311750
3.475523 26.216850
3.525279 26.091950
3.575035 25.989950
3.624791 25.925150
3.674547 25.885950
3.724303 25.859750
3.774058 25.822550
3.823814 25.790950
3.873570 25.765050
3.923326 25.761250
3.973082 25.798350
4.022838 25.896950
4.072594 26.036150
4.122350 26.188250
4.172105 26.328450
4.221861 26.448450
4.271617 26.549550
4.321373 26.624750
4.371129 26.676650
4.420885 26.694950
4.420885 26.695550
4.470643 26.648850
4.520401 26.528750
4.570159 26.377250
4.619918 26.219450
4.669676 26.122550
4.719434 26.141650
4.769192 26.283050
4.818951 26.401550
4.868709 26.338950
4.918467 26.242450
4.968225 26.210350
5.017984 26.156550
5.067742 26.128350
5.117500 26.093850
5.167258 26.066450
5.217017 26.044850
5.266775 26.038450
5.266775 26.990650
5.314531 26.928750
5.362286 26.855150
5.410042 26.733450
5.457797 26.589150
5.505553 26.434850
5.553308 26.310450
5.601064 26.235450
5.648820 26.195750
5.696575 26.182750
5.744331 26.172450
5.792086 26.124750
5.839842 26.012350
5.887598 25.933450
5.935353 25.930950
5.983109 26.008850
6.030864 26.128850
6.078620 26.280150
6.126375 26.437050
6.174131 26.571350
6.221887 26.662350
6.269642 26.697550
e
