set title 'mp-1187325 - Density of States'
set xlabel 'Energy (eV)'
set ylabel 'DOS (states/eV)'
set grid
set xrange [-10:10]
set yrange [0:9.905]
set xzeroaxis lt -1
set terminal png size 800,600
set output 'mp-1187325_dos_gnuplot.png'
plot '-' using 1:2 with lines title 'DOS'
-20.145900 0.000000
-20.125800 0.000000
-20.105600 0.000000
-20.085500 0.000000
-20.065300 0.000000
-20.045100 0.000000
-20.025000 0.000000
-20.004800 0.000000
-19.984700 0.000000
-19.964500 0.000000
-19.944400 0.000000
-19.924200 0.000000
-19.904000 0.000000
-19.883900 0.000000
-19.863700 0.000000
-19.843600 0.000000
-19.823400 0.000000
-19.803200 0.000000
-19.783100 0.000000
-19.762900 0.000000
-19.742800 0.000000
-19.722600 0.000000
-19.702500 0.000000
-19.682300 0.000000
-19.662100 0.000000
-19.642000 0.000000
-19.621800 0.000000
-19.601700 0.000000
-19.581500 0.000000
-19.561300 0.000000
-19.541200 0.000000
-19.521000 0.000000
-19.500900 0.000000
-19.480700 0.000000
-19.460600 0.000000
-19.440400 0.000000
-19.420200 0.000000
-19.400100 0.000000
-19.379900 0.000000
-19.359800 0.000000
-19.339600 0.000000
-19.319400 0.000000
-19.299300 0.000000
-19.279100 0.000000
-19.259000 0.000000
-19.238800 0.000000
-19.218600 0.000000
-19.198500 0.000000
-19.178300 0.000000
-19.158200 0.000000
-19.138000 0.000000
-19.117900 0.000000
-19.097700 0.000000
-19.077500 0.000000
-19.057400 0.000000
-19.037200 0.000000
-19.017100 0.000000
-18.996900 0.000000
-18.976700 0.000000
-18.956600 0.000000
-18.936400 0.000000
-18.916300 0.000000
-18.896100 0.000000
-18.876000 0.000000
-18.855800 0.000000
-18.835600 0.000000
-18.815500 0.000000
-18.795300 0.000000
-18.775200 0.000000
-18.755000 0.000000
-18.734800 0.000000
-18.714700 0.000000
-18.694500 0.000000
-18.674400 0.000000
-18.654200 0.000000
-18.634000 0.000000
-18.613900 0.000000
-18.593700 0.000000
-18.573600 0.000000
-18.553400 0.000000
-18.533300 0.000000
-18.513100 0.000000
-18.492900 0.000000
-18.472800 0.000000
-18.452600 0.000100
-18.432500 0.000600
-18.412300 0.004500
-18.392100 0.025700
-18.372000 0.111700
-18.351800 0.368600
-18.331700 0.941600
-18.311500 1.918200
-18.291400 3.272700
-18.271200 4.994800
-18.251000 7.241200
-18.230900 10.190100
-18.210700 13.696100
-18.190600 17.261700
-18.170400 20.523300
-18.150200 23.607600
-18.130100 26.647600
-18.109900 29.096100
-18.089800 30.094500
-18.069600 29.464800
-18.049400 27.768800
-18.029300 25.522600
-18.009100 22.987700
-17.989000 20.596600
-17.968800 18.943000
-17.948700 18.392800
-17.928500 19.012800
-17.908300 20.644700
-17.888200 22.846500
-17.868000 24.960700
-17.847900 26.405900
-17.827700 27.003000
-17.807500 27.114800
-17.787400 27.246500
-17.767200 27.324300
-17.747100 26.728600
-17.726900 25.290800
-17.706800 23.714300
-17.686600 22.644500
-17.666400 22.009400
-17.646300 21.643700
-17.626100 21.638000
-17.606000 21.697300
-17.585800 21.194800
-17.565600 20.200200
-17.545500 19.383600
-17.525300 18.712900
-17.505200 17.239400
-17.485000 14.261000
-17.464800 10.125600
-17.444700 5.958500
-17.424500 2.820300
-17.404400 1.047600
-17.384200 0.299800
-17.364100 0.065200
-17.343900 0.010700
-17.323700 0.001300
-17.303600 0.000100
-17.283400 0.000000
-17.263300 0.000000
-17.243100 0.000000
-17.222900 0.000000
-17.202800 0.000000
-17.182600 0.000000
-17.162500 0.000000
-17.142300 0.000000
-17.122200 0.000000
-17.102000 0.000000
-17.081800 0.000000
-17.061700 0.000000
-17.041500 0.000000
-17.021400 0.000000
-17.001200 0.000000
-16.981000 0.000000
-16.960900 0.000000
-16.940700 0.000000
-16.920600 0.000000
-16.900400 0.000000
-16.880300 0.000000
-16.860100 0.000000
-16.839900 0.000000
-16.819800 0.000000
-16.799600 0.000000
-16.779500 0.000000
-16.759300 0.000000
-16.739100 0.000000
-16.719000 0.000000
-16.698800 0.000000
-16.678700 0.000000
-16.658500 0.000000
-16.638300 0.000000
-16.618200 0.000000
-16.598000 0.000000
-16.577900 0.000000
-16.557700 0.000000
-16.537600 0.000000
-16.517400 0.000000
-16.497200 0.000000
-16.477100 0.000000
-16.456900 0.000000
-16.436800 0.000000
-16.416600 0.000000
-16.396400 0.000000
-16.376300 0.000000
-16.356100 0.000000
-16.336000 0.000000
-16.315800 0.000000
-16.295700 0.000000
-16.275500 0.000000
-16.255300 0.000000
-16.235200 0.000000
-16.215000 0.000000
-16.194900 0.000000
-16.174700 0.000000
-16.154500 0.000000
-16.134400 0.000000
-16.114200 0.000000
-16.094100 0.000000
-16.073900 0.000000
-16.053700 0.000000
-16.033600 0.000000
-16.013400 0.000000
-15.993300 0.000000
-15.973100 0.000000
-15.953000 0.000000
-15.932800 0.000000
-15.912600 0.000000
-15.892500 0.000000
-15.872300 0.000000
-15.852200 0.000000
-15.832000 0.000000
-15.811800 0.000000
-15.791700 0.000000
-15.771500 0.000000
-15.751400 0.000000
-15.731200 0.000000
-15.711100 0.000000
-15.690900 0.000000
-15.670700 0.000000
-15.650600 0.000000
-15.630400 0.000000
-15.610300 0.000000
-15.590100 0.000000
-15.569900 0.000000
-15.549800 0.000000
-15.529600 0.000000
-15.509500 0.000000
-15.489300 0.000000
-15.469100 0.000000
-15.449000 0.000000
-15.428800 0.000000
-15.408700 0.000000
-15.388500 0.000000
-15.368400 0.000000
-15.348200 0.000000
-15.328000 0.000000
-15.307900 0.000000
-15.287700 0.000000
-15.267600 0.000000
-15.247400 0.000000
-15.227200 0.000000
-15.207100 0.000000
-15.186900 0.000000
-15.166800 0.000000
-15.146600 0.000000
-15.126500 0.000000
-15.106300 0.000000
-15.086100 0.000000
-15.066000 0.000000
-15.045800 0.000000
-15.025700 0.000000
-15.005500 0.000000
-14.985300 0.000000
-14.965200 0.000000
-14.945000 0.000000
-14.924900 0.000000
-14.904700 0.000000
-14.884600 0.000000
-14.864400 0.000000
-14.844200 0.000000
-14.824100 0.000000
-14.803900 0.000000
-14.783800 0.000000
-14.763600 0.000000
-14.743400 0.000000
-14.723300 0.000000
-14.703100 0.000000
-14.683000 0.000000
-14.662800 0.000000
-14.642600 0.000000
-14.622500 0.000000
-14.602300 0.000000
-14.582200 0.000000
-14.562000 0.000000
-14.541900 0.000000
-14.521700 0.000000
-14.501500 0.000000
-14.481400 0.000000
-14.461200 0.000000
-14.441100 0.000000
-14.420900 0.000000
-14.400700 0.000000
-14.380600 0.000000
-14.360400 0.000000
-14.340300 0.000000
-14.320100 0.000000
-14.300000 0.000000
-14.279800 0.000000
-14.259600 0.000000
-14.239500 0.000000
-14.219300 0.000000
-14.199200 0.000000
-14.179000 0.000000
-14.158800 0.000000
-14.138700 0.000000
-14.118500 0.000000
-14.098400 0.000000
-14.078200 0.000000
-14.058000 0.000000
-14.037900 0.000000
-14.017700 0.000000
-13.997600 0.000000
-13.977400 0.000000
-13.957300 0.000000
-13.937100 0.000000
-13.916900 0.000000
-13.896800 0.000000
-13.876600 0.000000
-13.856500 0.000000
-13.836300 0.000000
-13.816100 0.000000
-13.796000 0.000000
-13.775800 0.000000
-13.755700 0.000000
-13.735500 0.000000
-13.715400 0.000000
-13.695200 0.000000
-13.675000 0.000000
-13.654900 0.000000
-13.634700 0.000000
-13.614600 0.000000
-13.594400 0.000000
-13.574200 0.000000
-13.554100 0.000000
-13.533900 0.000000
-13.513800 0.000000
-13.493600 0.000000
-13.473400 0.000000
-13.453300 0.000000
-13.433100 0.000000
-13.413000 0.000000
-13.392800 0.000000
-13.372700 0.000000
-13.352500 0.000000
-13.332300 0.000000
-13.312200 0.000000
-13.292000 0.000000
-13.271900 0.000000
-13.251700 0.000000
-13.231500 0.000000
-13.211400 0.000000
-13.191200 0.000000
-13.171100 0.000000
-13.150900 0.000000
-13.130800 0.000000
-13.110600 0.000000
-13.090400 0.000000
-13.070300 0.000000
-13.050100 0.000000
-13.030000 0.000000
-13.009800 0.000000
-12.989600 0.000000
-12.969500 0.000000
-12.949300 0.000000
-12.929200 0.000000
-12.909000 0.000000
-12.888900 0.000000
-12.868700 0.000000
-12.848500 0.000000
-12.828400 0.000000
-12.808200 0.000000
-12.788100 0.000000
-12.767900 0.000000
-12.747700 0.000000
-12.727600 0.000000
-12.707400 0.000000
-12.687300 0.000000
-12.667100 0.000000
-12.646900 0.000000
-12.626800 0.000000
-12.606600 0.000000
-12.586500 0.000000
-12.566300 0.000000
-12.546200 0.000000
-12.526000 0.000000
-12.505800 0.000000
-12.485700 0.000000
-12.465500 0.000000
-12.445400 0.000000
-12.425200 0.000000
-12.405000 0.000000
-12.384900 0.000000
-12.364700 0.000000
-12.344600 0.000000
-12.324400 0.000000
-12.304300 0.000000
-12.284100 0.000000
-12.263900 0.000000
-12.243800 0.000000
-12.223600 0.000000
-12.203500 0.000000
-12.183300 0.000000
-12.163100 0.000000
-12.143000 0.000000
-12.122800 0.000000
-12.102700 0.000000
-12.082500 0.000000
-12.062300 0.000000
-12.042200 0.000000
-12.022000 0.000000
-12.001900 0.000000
-11.981700 0.000000
-11.961600 0.000000
-11.941400 0.000700
-11.921200 0.008700
-11.901100 0.078900
-11.880900 0.534000
-11.860800 2.687100
-11.840600 10.065000
-11.820400 28.084500
-11.800300 58.440400
-11.780100 90.840800
-11.760000 105.736200
-11.739800 92.456900
-11.719700 60.966100
-11.699500 30.434400
-11.679300 11.538400
-11.659200 3.327300
-11.639000 0.729200
-11.618900 0.121100
-11.598700 0.015200
-11.578500 0.001400
-11.558400 0.000100
-11.538200 0.000000
-11.518100 0.000000
-11.497900 0.000000
-11.477700 0.000000
-11.457600 0.000000
-11.437400 0.000000
-11.417300 0.000000
-11.397100 0.000000
-11.377000 0.000000
-11.356800 0.000000
-11.336600 0.000000
-11.316500 0.000000
-11.296300 0.000000
-11.276200 0.000000
-11.256000 0.000000
-11.235800 0.000000
-11.215700 0.000000
-11.195500 0.000000
-11.175400 0.000000
-11.155200 0.000000
-11.135100 0.000000
-11.114900 0.000000
-11.094700 0.000000
-11.074600 0.000000
-11.054400 0.000000
-11.034300 0.000000
-11.014100 0.000000
-10.993900 0.000000
-10.973800 0.000000
-10.953600 0.000000
-10.933500 0.000000
-10.913300 0.000000
-10.893100 0.000000
-10.873000 0.000000
-10.852800 0.000000
-10.832700 0.000000
-10.812500 0.000000
-10.792400 0.000000
-10.772200 0.000000
-10.752000 0.000000
-10.731900 0.000000
-10.711700 0.000000
-10.691600 0.000000
-10.671400 0.000000
-10.651200 0.000000
-10.631100 0.000000
-10.610900 0.000000
-10.590800 0.000000
-10.570600 0.000000
-10.550500 0.000000
-10.530300 0.000000
-10.510100 0.000000
-10.490000 0.000000
-10.469800 0.000000
-10.449700 0.000000
-10.429500 0.000000
-10.409300 0.000000
-10.389200 0.000000
-10.369000 0.000000
-10.348900 0.000000
-10.328700 0.000000
-10.308600 0.000000
-10.288400 0.000000
-10.268200 0.000000
-10.248100 0.000000
-10.227900 0.000000
-10.207800 0.000000
-10.187600 0.000000
-10.167400 0.000000
-10.147300 0.000000
-10.127100 0.000000
-10.107000 0.000000
-10.086800 0.000000
-10.066600 0.000000
-10.046500 0.000000
-10.026300 0.000000
-10.006200 0.000000
-9.986000 0.000000
-9.965900 0.000000
-9.945700 0.000000
-9.925500 0.000000
-9.905400 0.000000
-9.885200 0.000000
-9.865100 0.000000
-9.844900 0.000000
-9.824700 0.000000
-9.804600 0.000000
-9.784400 0.000000
-9.764300 0.000000
-9.744100 0.000000
-9.724000 0.000000
-9.703800 0.000000
-9.683600 0.000000
-9.663500 0.000000
-9.643300 0.000000
-9.623200 0.000000
-9.603000 0.000000
-9.582800 0.000000
-9.562700 0.000000
-9.542500 0.000000
-9.522400 0.000000
-9.502200 0.000000
-9.482000 0.000000
-9.461900 0.000000
-9.441700 0.000000
-9.421600 0.000000
-9.401400 0.000000
-9.381300 0.000000
-9.361100 0.000000
-9.340900 0.000000
-9.320800 0.000000
-9.300600 0.000000
-9.280500 0.000000
-9.260300 0.000000
-9.240100 0.000000
-9.220000 0.000000
-9.199800 0.000000
-9.179700 0.000000
-9.159500 0.000000
-9.139400 0.000000
-9.119200 0.000000
-9.099000 0.000000
-9.078900 0.000000
-9.058700 0.000000
-9.038600 0.000000
-9.018400 0.000000
-8.998200 0.000000
-8.978100 0.000000
-8.957900 0.000000
-8.937800 0.000000
-8.917600 0.000000
-8.897400 0.000000
-8.877300 0.000000
-8.857100 0.000000
-8.837000 0.000000
-8.816800 0.000000
-8.796700 0.000000
-8.776500 0.000000
-8.756300 0.000000
-8.736200 0.000000
-8.716000 0.000000
-8.695900 0.000000
-8.675700 0.000000
-8.655500 0.000000
-8.635400 0.000000
-8.615200 0.000000
-8.595100 0.000000
-8.574900 0.000000
-8.554800 0.000000
-8.534600 0.000000
-8.514400 0.000000
-8.494300 0.000000
-8.474100 0.000000
-8.454000 0.000000
-8.433800 0.000000
-8.413600 0.000000
-8.393500 0.000000
-8.373300 0.000000
-8.353200 0.000000
-8.333000 0.000000
-8.312900 0.000000
-8.292700 0.000000
-8.272500 0.000000
-8.252400 0.000000
-8.232200 0.000000
-8.212100 0.000000
-8.191900 0.000000
-8.171700 0.000000
-8.151600 0.000000
-8.131400 0.000000
-8.111300 0.000000
-8.091100 0.000000
-8.070900 0.000000
-8.050800 0.000000
-8.030600 0.000000
-8.010500 0.000000
-7.990300 0.000000
-7.970200 0.000000
-7.950000 0.000000
-7.929800 0.000000
-7.909700 0.000000
-7.889500 0.000000
-7.869400 0.000000
-7.849200 0.000000
-7.829000 0.000000
-7.808900 0.000000
-7.788700 0.000000
-7.768600 0.000000
-7.748400 0.000000
-7.728300 0.000000
-7.708100 0.000000
-7.687900 0.000000
-7.667800 0.000000
-7.647600 0.000000
-7.627500 0.000000
-7.607300 0.000000
-7.587100 0.000000
-7.567000 0.000000
-7.546800 0.000000
-7.526700 0.000000
-7.506500 0.000000
-7.486300 0.000000
-7.466200 0.000000
-7.446000 0.000000
-7.425900 0.000000
-7.405700 0.000000
-7.385600 0.000000
-7.365400 0.000000
-7.345200 0.000000
-7.325100 0.000000
-7.304900 0.000000
-7.284800 0.000000
-7.264600 0.000000
-7.244400 0.000000
-7.224300 0.000000
-7.204100 0.000000
-7.184000 0.000000
-7.163800 0.000000
-7.143700 0.000000
-7.123500 0.000000
-7.103300 0.000000
-7.083200 0.000000
-7.063000 0.000000
-7.042900 0.000000
-7.022700 0.000000
-7.002500 0.000000
-6.982400 0.000000
-6.962200 0.000000
-6.942100 0.000000
-6.921900 0.000000
-6.901700 0.000000
-6.881600 0.000000
-6.861400 0.000000
-6.841300 0.000000
-6.821100 0.000000
-6.801000 0.000000
-6.780800 0.000000
-6.760600 0.000000
-6.740500 0.000000
-6.720300 0.000000
-6.700200 0.000000
-6.680000 0.000000
-6.659800 0.000000
-6.639700 0.000000
-6.619500 0.000000
-6.599400 0.000000
-6.579200 0.000000
-6.559100 0.000000
-6.538900 0.000000
-6.518700 0.000000
-6.498600 0.000000
-6.478400 0.000000
-6.458300 0.000000
-6.438100 0.000000
-6.417900 0.000000
-6.397800 0.000000
-6.377600 0.000000
-6.357500 0.000000
-6.337300 0.000000
-6.317200 0.000000
-6.297000 0.000000
-6.276800 0.000000
-6.256700 0.000000
-6.236500 0.000000
-6.216400 0.000000
-6.196200 0.000000
-6.176000 0.000000
-6.155900 0.000000
-6.135700 0.000000
-6.115600 0.000000
-6.095400 0.000000
-6.075200 0.000000
-6.055100 0.000000
-6.034900 0.000000
-6.014800 0.000000
-5.994600 0.000000
-5.974500 0.000000
-5.954300 0.000000
-5.934100 0.000000
-5.914000 0.000000
-5.893800 0.000000
-5.873700 0.000000
-5.853500 0.000000
-5.833300 0.000000
-5.813200 0.000000
-5.793000 0.000000
-5.772900 0.000000
-5.752700 0.000000
-5.732600 0.000000
-5.712400 0.000000
-5.692200 0.000000
-5.672100 0.000000
-5.651900 0.000000
-5.631800 0.000000
-5.611600 0.000000
-5.591400 0.000000
-5.571300 0.000000
-5.551100 0.000000
-5.531000 0.000000
-5.510800 0.000000
-5.490600 0.000000
-5.470500 0.000000
-5.450300 0.000000
-5.430200 0.000000
-5.410000 0.000000
-5.389900 0.000000
-5.369700 0.000000
-5.349500 0.000000
-5.329400 0.000000
-5.309200 0.000000
-5.289100 0.000000
-5.268900 0.000000
-5.248700 0.000000
-5.228600 0.000000
-5.208400 0.000000
-5.188300 0.000000
-5.168100 0.000000
-5.148000 0.000000
-5.127800 0.000000
-5.107600 0.000000
-5.087500 0.000000
-5.067300 0.000000
-5.047200 0.000000
-5.027000 0.000000
-5.006800 0.000000
-4.986700 0.000000
-4.966500 0.000000
-4.946400 0.000000
-4.926200 0.000000
-4.906000 0.000000
-4.885900 0.000000
-4.865700 0.000000
-4.845600 0.000000
-4.825400 0.000000
-4.805300 0.000000
-4.785100 0.000000
-4.764900 0.000000
-4.744800 0.000000
-4.724600 0.000000
-4.704500 0.000000
-4.684300 0.000000
-4.664100 0.000000
-4.644000 0.000000
-4.623800 0.000000
-4.603700 0.000000
-4.583500 0.000000
-4.563400 0.000000
-4.543200 0.000000
-4.523000 0.000000
-4.502900 0.000000
-4.482700 0.000000
-4.462600 0.000000
-4.442400 0.000000
-4.422200 0.000300
-4.402100 0.001400
-4.381900 0.005400
-4.361800 0.015800
-4.341600 0.036100
-4.321400 0.068600
-4.301300 0.117500
-4.281100 0.190000
-4.261000 0.284600
-4.240800 0.376700
-4.220700 0.428500
-4.200500 0.428500
-4.180300 0.418700
-4.160200 0.453800
-4.140000 0.531300
-4.119900 0.599900
-4.099700 0.648800
-4.079500 0.737400
-4.059400 0.899800
-4.039200 1.057600
-4.019100 1.091600
-3.998900 1.005000
-3.978800 0.938600
-3.958600 0.995800
-3.938400 1.137800
-3.918300 1.286100
-3.898100 1.445600
-3.878000 1.659500
-3.857800 1.891300
-3.837600 2.041600
-3.817500 2.089900
-3.797300 2.124900
-3.777200 2.206300
-3.757000 2.281900
-3.736900 2.276700
-3.716700 2.237100
-3.696500 2.350800
-3.676400 2.779200
-3.656200 3.480700
-3.636100 4.288800
-3.615900 5.165900
-3.595700 6.280200
-3.575600 7.708400
-3.555400 8.954500
-3.535300 9.004800
-3.515100 7.318300
-3.494900 4.614200
-3.474800 2.207000
-3.454600 0.790900
-3.434500 0.210700
-3.414300 0.041600
-3.394200 0.006000
-3.374000 0.000600
-3.353800 0.000100
-3.333700 0.000000
-3.313500 0.000000
-3.293400 0.000000
-3.273200 0.000000
-3.253000 0.000000
-3.232900 0.000000
-3.212700 0.000000
-3.192600 0.000000
-3.172400 0.000000
-3.152300 0.000000
-3.132100 0.000000
-3.111900 0.000000
-3.091800 0.000000
-3.071600 0.000000
-3.051500 0.000000
-3.031300 0.000000
-3.011100 0.000000
-2.991000 0.000000
-2.970800 0.000000
-2.950700 0.000000
-2.930500 0.000000
-2.910300 0.000000
-2.890200 0.000000
-2.870000 0.000000
-2.849900 0.000000
-2.829700 0.000000
-2.809600 0.000000
-2.789400 0.000000
-2.769200 0.000000
-2.749100 0.000000
-2.728900 0.000000
-2.708800 0.000000
-2.688600 0.000000
-2.668400 0.000000
-2.648300 0.000000
-2.628100 0.000000
-2.608000 0.000000
-2.587800 0.000000
-2.567700 0.000000
-2.547500 0.000000
-2.527300 0.000000
-2.507200 0.000000
-2.487000 0.000000
-2.466900 0.000000
-2.446700 0.000000
-2.426500 0.000000
-2.406400 0.000000
-2.386200 0.000000
-2.366100 0.000000
-2.345900 0.000000
-2.325700 0.000000
-2.305600 0.000000
-2.285400 0.000000
-2.265300 0.000000
-2.245100 0.000000
-2.225000 0.000000
-2.204800 0.000000
-2.184600 0.000000
-2.164500 0.000000
-2.144300 0.000000
-2.124200 0.000000
-2.104000 0.000000
-2.083800 0.000000
-2.063700 0.000000
-2.043500 0.000000
-2.023400 0.000000
-2.003200 0.000000
-1.983100 0.000000
-1.962900 0.000000
-1.942700 0.000000
-1.922600 0.000000
-1.902400 0.000000
-1.882300 0.000000
-1.862100 0.000000
-1.841900 0.000000
-1.821800 0.000000
-1.801600 0.000000
-1.781500 0.000000
-1.761300 0.000000
-1.741200 0.000000
-1.721000 0.000000
-1.700800 0.000000
-1.680700 0.000000
-1.660500 0.000000
-1.640400 0.000000
-1.620200 0.000000
-1.600000 0.000000
-1.579900 0.000000
-1.559700 0.000000
-1.539600 0.000000
-1.519400 0.000000
-1.499200 0.000000
-1.479100 0.000000
-1.458900 0.000000
-1.438800 0.000000
-1.418600 0.000000
-1.398500 0.000000
-1.378300 0.000000
-1.358100 0.000000
-1.338000 0.000000
-1.317800 0.000000
-1.297700 0.000000
-1.277500 0.000000
-1.257300 0.000000
-1.237200 0.000000
-1.217000 0.000000
-1.196900 0.000000
-1.176700 0.000000
-1.156600 0.000000
-1.136400 0.000000
-1.116200 0.000000
-1.096100 0.000000
-1.075900 0.000000
-1.055800 0.000000
-1.035600 0.000000
-1.015400 0.000000
-0.995300 0.000000
-0.975100 0.000000
-0.955000 0.000000
-0.934800 0.000000
-0.914600 0.000000
-0.894500 0.000000
-0.874300 0.000000
-0.854200 0.000000
-0.834000 0.000000
-0.813900 0.000000
-0.793700 0.000000
-0.773500 0.000000
-0.753400 0.000000
-0.733200 0.000000
-0.713100 0.000000
-0.692900 0.000000
-0.672700 0.000000
-0.652600 0.000000
-0.632400 0.000000
-0.612300 0.000000
-0.592100 0.000000
-0.572000 0.000000
-0.551800 0.000000
-0.531600 0.000000
-0.511500 0.000000
-0.491300 0.000000
-0.471200 0.000000
-0.451000 0.000000
-0.430800 0.000000
-0.410700 0.000000
-0.390500 0.000000
-0.370400 0.000000
-0.350200 0.000000
-0.330000 0.000000
-0.309900 0.000000
-0.289700 0.000000
-0.269600 0.000000
-0.249400 0.000000
-0.229300 0.000000
-0.209100 0.000000
-0.188900 0.000000
-0.168800 0.000000
-0.148600 0.000000
-0.128500 0.000000
-0.108300 0.000000
-0.088100 0.000000
-0.068000 0.000000
-0.047800 0.000000
-0.027700 0.000000
-0.007500 0.000000
0.012600 0.000000
0.032800 0.000000
0.053000 0.000000
0.073100 0.000000
0.093300 0.000000
0.113400 0.000000
0.133600 0.000000
0.153800 0.000000
0.173900 0.000000
0.194100 0.000000
0.214200 0.000000
0.234400 0.000000
0.254600 0.000000
0.274700 0.000000
0.294900 0.000000
0.315000 0.000000
0.335200 0.000000
0.355300 0.000000
0.375500 0.000000
0.395700 0.000000
0.415800 0.000000
0.436000 0.000000
0.456100 0.000000
0.476300 0.000000
0.496500 0.000000
0.516600 0.000000
0.536800 0.000000
0.556900 0.000000
0.577100 0.000100
0.597200 0.000600
0.617400 0.002500
0.637600 0.008400
0.657700 0.020800
0.677900 0.038800
0.698000 0.058400
0.718200 0.078000
0.738400 0.101100
0.758500 0.132900
0.778700 0.181500
0.798800 0.256200
0.819000 0.341600
0.839100 0.386500
0.859300 0.352200
0.879500 0.267200
0.899600 0.208700
0.919800 0.236600
0.939900 0.359200
0.960100 0.557000
0.980300 0.806500
1.000400 1.070200
1.020600 1.297600
1.040700 1.470900
1.060900 1.634200
1.081100 1.842100
1.101200 2.073800
1.121400 2.228400
1.141500 2.207600
1.161700 1.993200
1.181800 1.698900
1.202000 1.551900
1.222200 1.734300
1.242300 2.212400
1.262500 2.750300
1.282600 3.105100
1.302800 3.233400
1.323000 3.289500
1.343100 3.390900
1.363300 3.449400
1.383400 3.303400
1.403600 2.969200
1.423700 2.651600
1.443900 2.492700
1.464100 2.443300
1.484200 2.425700
1.504400 2.464100
1.524500 2.586300
1.544700 2.698900
1.564900 2.634000
1.585000 2.309600
1.605200 1.811000
1.625300 1.307600
1.645500 0.937500
1.665700 0.780800
1.685800 0.865400
1.706000 1.128300
1.726100 1.395600
1.746300 1.496400
1.766400 1.418000
1.786600 1.287000
1.806800 1.225600
1.826900 1.269500
1.847100 1.388000
1.867200 1.559100
1.887400 1.786100
1.907600 1.995500
1.927700 2.018600
1.947900 1.779400
1.968000 1.418500
1.988200 1.142000
2.008300 1.023800
2.028500 1.017200
2.048700 1.060800
2.068800 1.102600
2.089000 1.115100
2.109100 1.145600
2.129300 1.269500
2.149500 1.475400
2.169600 1.670800
2.189800 1.778100
2.209900 1.765400
2.230100 1.643100
2.250300 1.498600
2.270400 1.473200
2.290600 1.628700
2.310700 1.897900
2.330900 2.184400
2.351000 2.397600
2.371200 2.426700
2.391400 2.254100
2.411500 2.076800
2.431700 2.174700
2.451800 2.627900
2.472000 3.218100
2.492200 3.618700
2.512300 3.667300
2.532500 3.456800
2.552600 3.197200
2.572800 3.056100
2.592900 3.125200
2.613100 3.389800
2.633300 3.676600
2.653400 3.769100
2.673600 3.622600
2.693700 3.402000
2.713900 3.317200
2.734100 3.437800
2.754200 3.645400
2.774400 3.754200
2.794500 3.673100
2.814700 3.455700
2.834800 3.221100
2.855000 3.012000
2.875200 2.744900
2.895300 2.379800
2.915500 2.098300
2.935600 2.167100
2.955800 2.610600
2.976000 3.117600
2.996100 3.312800
3.016300 3.113500
3.036400 2.809000
3.056600 2.761000
3.076800 3.043400
3.096900 3.426400
3.117100 3.668800
3.137200 3.734200
3.157400 3.724000
3.177500 3.710700
3.197700 3.722500
3.217900 3.790600
3.238000 3.859400
3.258200 3.756300
3.278300 3.427900
3.298500 3.095800
3.318700 3.009300
3.338800 3.127800
3.359000 3.173100
3.379100 2.937600
3.399300 2.473500
3.419400 2.025000
3.439600 1.819300
3.459800 1.900600
3.479900 2.115200
3.500100 2.236300
3.520200 2.147700
3.540400 1.950200
3.560600 1.898700
3.580700 2.218800
3.600900 2.916100
3.621000 3.714400
3.641200 4.228300
3.661400 4.249100
3.681500 3.876400
3.701700 3.397800
3.721800 3.111600
3.742000 3.244500
3.762100 3.860200
3.782300 4.758700
3.802500 5.573000
3.822600 6.064800
3.842800 6.284800
3.862900 6.385300
3.883100 6.325900
3.903300 5.876200
3.923400 4.945700
3.943600 3.829900
3.963700 3.003600
3.983900 2.662700
4.004000 2.595300
4.024200 2.501700
4.044400 2.310400
4.064500 2.173200
4.084700 2.261900
4.104800 2.626700
4.125000 3.199600
4.145200 3.820500
4.165300 4.261600
4.185500 4.353100
4.205600 4.117100
4.225800 3.763000
4.246000 3.578200
4.266100 3.759800
4.286300 4.264800
4.306400 4.849200
4.326600 5.277000
4.346700 5.459500
4.366900 5.409200
4.387100 5.173800
4.407200 4.832400
4.427400 4.468400
4.447500 4.140200
4.467700 3.876300
4.487900 3.664800
4.508000 3.471500
4.528200 3.287100
4.548300 3.169300
4.568500 3.241300
4.588600 3.582300
4.608800 4.095100
4.629000 4.528400
4.649100 4.644300
4.669300 4.437300
4.689400 4.216800
4.709600 4.315300
4.729800 4.709800
4.749900 5.084400
4.770100 5.202900
4.790200 5.111100
4.810400 5.027800
4.830500 5.066800
4.850700 5.081400
4.870900 4.878700
4.891000 4.531700
4.911200 4.311400
4.931300 4.359000
4.951500 4.559600
4.971700 4.693800
4.991800 4.638500
5.012000 4.425400
5.032100 4.188600
5.052300 4.132200
5.072500 4.442400
5.092600 5.057400
5.112800 5.596600
5.132900 5.704400
5.153100 5.443100
5.173200 5.141400
5.193400 4.861800
5.213600 4.336200
5.233700 3.482000
5.253900 2.645400
5.274000 2.242400
5.294200 2.359900
5.314400 2.738000
5.334500 3.040700
5.354700 3.093500
5.374800 2.898100
5.395000 2.547700
5.415100 2.169200
5.435300 1.868700
5.455500 1.698300
5.475600 1.689400
5.495800 1.905200
5.515900 2.438500
5.536100 3.325400
5.556300 4.442900
5.576400 5.538500
5.596600 6.356700
5.616700 6.727600
5.636900 6.645100
5.657100 6.322900
5.677200 6.087200
5.697400 6.145400
5.717500 6.431000
5.737700 6.686000
5.757800 6.737700
5.778000 6.614000
5.798200 6.360400
5.818300 5.940200
5.838500 5.422100
5.858600 5.060400
5.878800 5.042400
5.899000 5.343400
5.919100 5.863300
5.939300 6.456500
5.959400 6.882700
5.979600 6.960500
5.999700 6.694600
6.019900 6.187900
6.040100 5.558700
6.060200 4.951000
6.080400 4.490500
6.100500 4.189100
6.120700 3.936600
6.140900 3.616900
6.161000 3.253300
6.181200 3.019900
6.201300 3.053200
6.221500 3.263500
6.241700 3.407100
6.261800 3.337300
6.282000 3.095700
6.302100 2.794500
6.322300 2.534600
6.342400 2.405700
6.362600 2.427500
6.382800 2.489300
6.402900 2.446000
6.423100 2.283000
6.443200 2.140800
6.463400 2.179700
6.483600 2.432600
6.503700 2.782400
6.523900 3.063600
6.544000 3.188600
6.564200 3.201600
6.584300 3.208300
6.604500 3.257800
6.624700 3.330300
6.644800 3.408900
6.665000 3.478800
6.685100 3.498000
6.705300 3.447800
6.725500 3.350900
6.745600 3.213700
6.765800 3.026800
6.785900 2.841900
6.806100 2.810000
6.826300 3.049000
6.846400 3.478800
6.866600 3.913600
6.886700 4.259300
6.906900 4.495600
6.927000 4.596200
6.947200 4.591300
6.967400 4.600900
6.987500 4.699400
7.007700 4.802000
7.027800 4.781400
7.048000 4.686300
7.068200 4.754100
7.088300 5.173800
7.108500 5.823800
7.128600 6.248800
7.148800 6.023300
7.168900 5.192400
7.189100 4.237000
7.209300 3.618100
7.229400 3.516400
7.249600 3.907200
7.269700 4.587200
7.289900 5.154700
7.310100 5.251400
7.330200 4.889900
7.350400 4.442500
7.370500 4.311500
7.390700 4.592200
7.410800 4.998600
7.431000 5.204600
7.451200 5.232200
7.471300 5.299200
7.491500 5.398100
7.511600 5.307400
7.531800 4.952700
7.552000 4.548000
7.572100 4.387500
7.592300 4.600500
7.612400 5.104800
7.632600 5.699300
7.652800 6.150600
7.672900 6.287400
7.693100 6.105200
7.713200 5.730800
7.733400 5.286400
7.753500 4.887500
7.773700 4.696700
7.793900 4.806300
7.814000 5.071100
7.834200 5.170300
7.854300 4.917400
7.874500 4.484700
7.894700 4.243700
7.914800 4.411500
7.935000 4.898100
7.955100 5.422500
7.975300 5.755100
7.995400 5.898100
8.015600 6.017100
8.035800 6.212700
8.055900 6.400700
8.076100 6.394000
8.096200 6.121700
8.116400 5.759500
8.136600 5.543200
8.156700 5.510100
8.176900 5.554000
8.197000 5.624200
8.217200 5.730300
8.237400 5.836300
8.257500 5.871500
8.277700 5.823900
8.297800 5.709700
8.318000 5.461000
8.338100 4.990200
8.358300 4.399400
8.378500 3.986200
8.398600 3.949400
8.418800 4.170300
8.438900 4.383000
8.459100 4.494800
8.479300 4.616700
8.499400 4.803800
8.519600 4.913600
8.539700 4.759700
8.559900 4.302100
8.580000 3.687700
8.600200 3.185400
8.620400 3.015200
8.640500 3.151200
8.660700 3.363200
8.680800 3.487100
8.701000 3.559900
8.721200 3.684400
8.741300 3.875000
8.761500 4.081900
8.781600 4.287000
8.801800 4.505400
8.822000 4.753100
8.842100 5.063500
8.862300 5.428100
8.882400 5.712500
8.902600 5.810800
8.922700 5.834200
8.942900 5.921500
8.963100 5.960200
8.983200 5.770800
9.003400 5.479700
9.023500 5.379400
9.043700 5.439200
9.063900 5.323500
9.084000 4.955400
9.104200 4.714300
9.124300 4.945500
9.144500 5.490200
9.164600 5.831000
9.184800 5.643400
9.205000 5.094000
9.225100 4.529900
9.245300 4.011500
9.265400 3.376300
9.285600 2.674400
9.305800 2.220500
9.325900 2.185300
9.346100 2.396400
9.366200 2.612000
9.386400 2.796500
9.406500 3.034800
9.426700 3.307600
9.446900 3.487800
9.467000 3.549600
9.487200 3.646900
9.507300 3.865400
9.527500 3.984000
9.547700 3.708400
9.567800 3.090900
9.588000 2.488200
9.608100 2.232600
9.628300 2.543800
9.648500 3.488500
9.668600 4.740900
9.688800 5.625600
9.708900 5.698200
9.729100 5.164800
9.749200 4.576500
9.769400 4.286900
9.789600 4.305200
9.809700 4.481800
9.829900 4.674700
9.850000 4.772200
9.870200 4.663700
9.890400 4.285600
9.910500 3.711300
9.930700 3.176700
9.950800 2.992100
9.971000 3.317300
9.991100 3.942700
10.011300 4.420200
10.031500 4.496600
10.051600 4.327600
10.071800 4.245300
10.091900 4.390900
10.112100 4.590600
10.132300 4.563200
10.152400 4.214400
10.172600 3.703000
10.192700 3.270700
10.212900 3.057500
10.233100 3.047500
10.253200 3.146500
10.273400 3.286400
10.293500 3.448000
10.313700 3.676300
10.333800 4.108100
10.354000 4.815100
10.374200 5.584100
10.394300 6.018100
10.414500 5.838400
10.434600 5.027700
10.454800 3.849600
10.475000 2.777300
10.495100 2.244400
10.515300 2.409100
10.535400 3.095900
10.555600 3.868600
10.575700 4.277700
10.595900 4.237900
10.616100 4.099200
10.636200 4.194000
10.656400 4.463400
10.676500 4.690800
10.696700 4.843900
10.716900 4.926000
10.737000 4.755900
10.757200 4.195100
10.777300 3.416900
10.797500 2.736200
10.817700 2.286000
10.837800 1.987000
10.858000 1.744700
10.878100 1.566800
10.898300 1.526900
10.918400 1.675400
10.938600 1.951300
10.958800 2.170300
10.978900 2.159100
10.999100 1.914800
11.019200 1.603500
11.039400 1.405700
11.059600 1.373400
11.079700 1.444900
11.099900 1.583300
11.120000 1.785800
11.140200 1.928800
11.160300 1.816500
11.180500 1.455500
11.200700 1.081800
11.220800 0.896600
11.241000 0.936200
11.261100 1.175700
11.281300 1.603300
11.301500 2.159100
11.321600 2.666300
11.341800 2.900300
11.361900 2.760900
11.382100 2.364200
11.402300 1.938400
11.422400 1.651400
11.442600 1.589500
11.462700 1.826600
11.482900 2.321400
11.503000 2.773100
11.523200 2.837200
11.543400 2.534300
11.563500 2.241600
11.583700 2.268300
11.603800 2.604600
11.624000 3.043900
11.644200 3.387300
11.664300 3.540700
11.684500 3.539900
11.704600 3.539000
11.724800 3.671900
11.744900 3.832900
11.765100 3.716600
11.785300 3.169400
11.805400 2.387400
11.825600 1.731200
11.845700 1.430300
11.865900 1.455400
11.886100 1.620300
11.906200 1.782900
11.926400 1.952300
11.946500 2.251500
11.966700 2.760400
11.986800 3.351700
12.007000 3.757500
12.027200 3.823200
12.047300 3.605700
12.067500 3.258500
12.087600 2.916700
12.107800 2.635900
12.128000 2.381900
12.148100 2.139600
12.168300 1.997500
12.188400 2.031000
12.208600 2.148100
12.228800 2.160500
12.248900 2.005600
12.269100 1.800000
12.289200 1.680400
12.309400 1.716400
12.329500 1.941400
12.349700 2.315400
12.369900 2.698400
12.390000 2.970400
12.410200 3.124700
12.430300 3.179900
12.450500 3.092700
12.470700 2.875700
12.490800 2.727200
12.511000 2.855500
12.531100 3.198700
12.551300 3.475600
12.571400 3.485000
12.591600 3.255600
12.611800 2.949800
12.631900 2.695000
12.652100 2.514900
12.672200 2.405000
12.692400 2.394900
12.712600 2.508400
12.732700 2.727800
12.752900 2.984600
12.773000 3.182200
12.793200 3.292100
12.813400 3.401000
12.833500 3.605800
12.853700 3.864800
12.873800 3.969600
12.894000 3.707700
12.914100 3.090600
12.934300 2.394700
12.954500 1.947300
12.974600 1.877900
12.994800 2.044000
13.014900 2.157700
13.035100 2.026500
13.055300 1.733400
13.075400 1.567400
13.095600 1.745800
13.115700 2.222300
13.135900 2.773700
13.156000 3.230500
13.176200 3.581700
13.196400 3.888400
13.216500 4.187700
13.236700 4.477600
13.256800 4.737300
13.277000 4.957900
13.297200 5.130900
13.317300 5.207800
13.337500 5.136900
13.357600 4.908000
13.377800 4.518100
13.398000 3.991000
13.418100 3.461500
13.438300 3.141500
13.458400 3.188700
13.478600 3.600800
13.498700 4.156900
13.518900 4.510800
13.539100 4.490900
13.559200 4.261900
13.579400 4.068800
13.599500 3.940400
13.619700 3.797100
13.639900 3.701100
13.660000 3.812800
13.680200 4.135400
13.700300 4.403100
13.720500 4.291600
13.740600 3.747600
13.760800 3.034500
13.781000 2.462400
13.801100 2.170500
13.821300 2.164000
13.841400 2.452100
13.861600 3.059500
13.881800 3.891100
13.901900 4.653200
13.922100 4.992100
13.942200 4.763900
13.962400 4.182000
13.982500 3.650800
14.002700 3.425600
14.022900 3.463000
14.043000 3.580400
14.063200 3.700000
14.083300 3.902700
14.103500 4.229300
14.123700 4.511300
14.143800 4.518300
14.164000 4.191700
14.184100 3.647800
14.204300 3.089000
14.224500 2.740500
14.244600 2.683100
14.264800 2.767800
14.284900 2.862400
14.305100 3.068500
14.325200 3.497800
14.345400 3.971200
14.365600 4.168400
14.385700 4.014600
14.405900 3.742500
14.426000 3.560500
14.446200 3.414400
14.466400 3.165500
14.486500 2.862800
14.506700 2.722100
14.526800 2.898800
14.547000 3.334900
14.567100 3.878200
14.587300 4.724400
14.607500 7.025100
14.627600 13.017400
14.647800 24.629500
14.667900 40.807000
14.688100 55.974800
14.708300 62.146000
14.728400 54.859400
14.748600 38.136400
14.768700 21.356900
14.788900 10.726300
14.809100 5.994700
14.829200 4.163300
14.849400 3.213400
14.869500 2.597100
14.889700 2.297200
14.909800 2.288400
14.930000 2.570500
14.950200 3.158200
14.970300 3.848400
14.990500 4.222800
15.010600 4.053700
15.030800 3.564800
15.051000 3.135000
15.071100 2.883400
15.091300 2.701200
15.111400 2.552100
15.131600 2.568600
15.151700 2.871600
15.171900 3.388300
15.192100 3.895400
15.212200 4.186800
15.232400 4.168700
15.252500 3.881100
15.272700 3.470500
15.292900 3.097900
15.313000 2.873600
15.333200 2.873300
15.353300 3.137000
15.373500 3.600000
15.393700 4.057000
15.413800 4.313100
15.434000 4.419700
15.454100 4.621400
15.474300 4.983900
15.494400 5.260600
15.514600 5.226700
15.534800 4.961800
15.554900 4.701700
15.575100 4.538300
15.595200 4.345000
15.615400 3.970200
15.635600 3.460700
15.655700 3.044500
15.675900 2.916400
15.696000 3.099600
15.716200 3.479800
15.736300 3.883900
15.756500 4.153200
15.776700 4.284300
15.796800 4.484200
15.817000 4.902600
15.837100 5.326900
15.857300 5.375600
15.877500 5.010400
15.897600 4.630200
15.917800 4.605500
15.937900 4.881100
15.958100 5.103800
15.978200 5.010900
15.998400 4.581400
16.018600 3.952500
16.038700 3.333100
16.058900 2.905000
16.079000 2.717500
16.099200 2.702300
16.119400 2.776600
16.139500 2.917600
16.159700 3.148700
16.179800 3.415100
16.200000 3.539000
16.220200 3.440700
16.240300 3.285100
16.260500 3.252800
16.280600 3.354200
16.300800 3.562300
16.320900 3.890300
16.341100 4.264600
16.361300 4.492000
16.381400 4.418400
16.401600 4.076600
16.421700 3.664300
16.441900 3.385200
16.462100 3.351900
16.482200 3.602200
16.502400 4.080200
16.522500 4.612900
16.542700 5.002600
16.562800 5.128700
16.583000 4.940100
16.603200 4.457400
16.623300 3.835600
16.643500 3.319500
16.663600 3.056700
16.683800 2.988800
16.704000 2.959900
16.724100 2.897300
16.744300 2.837600
16.764400 2.805100
16.784600 2.765000
16.804800 2.710700
16.824900 2.695300
16.845100 2.735000
16.865200 2.740100
16.885400 2.601100
16.905500 2.367400
16.925700 2.258300
16.945900 2.424300
16.966000 2.778800
16.986200 3.102600
17.006300 3.235300
17.026500 3.163900
17.046700 2.980600
17.066800 2.790700
17.087000 2.642400
17.107100 2.480900
17.127300 2.210400
17.147400 1.836000
17.167600 1.468200
17.187800 1.213400
17.207900 1.132700
17.228100 1.247400
17.248200 1.541100
17.268400 2.003800
17.288600 2.615300
17.308700 3.210500
17.328900 3.546900
17.349000 3.656900
17.369200 3.884700
17.389400 4.395700
17.409500 4.859100
17.429700 4.788200
17.449800 4.099400
17.470000 3.204900
17.490100 2.601300
17.510300 2.508100
17.530500 2.817300
17.550600 3.188300
17.570800 3.268900
17.590900 3.022000
17.611100 2.757600
17.631300 2.725400
17.651400 2.820300
17.671600 2.776000
17.691700 2.503700
17.711900 2.136100
17.732000 1.834400
17.752200 1.649200
17.772400 1.518000
17.792500 1.335700
17.812700 1.057200
17.832800 0.753500
17.853000 0.552800
17.873200 0.518500
17.893300 0.598100
17.913500 0.702300
17.933600 0.795900
17.953800 0.879100
17.974000 0.931000
17.994100 0.917300
18.014300 0.828300
18.034400 0.693300
18.054600 0.566600
18.074700 0.488700
18.094900 0.443600
18.115100 0.376100
18.135200 0.265400
18.155400 0.151700
18.175500 0.083300
18.195700 0.073000
18.215900 0.116200
18.236000 0.218200
18.256200 0.370700
18.276300 0.507100
18.296500 0.533500
18.316600 0.429800
18.336800 0.271200
18.357000 0.140500
18.377100 0.063000
18.397300 0.024900
18.417400 0.008300
18.437600 0.002200
18.457800 0.000400
18.477900 0.000100
18.498100 0.000000
18.518200 0.000000
18.538400 0.000000
18.558500 0.000000
18.578700 0.000000
18.598900 0.000000
18.619000 0.000000
18.639200 0.000000
18.659300 0.000000
18.679500 0.000000
18.699700 0.000000
18.719800 0.000000
18.740000 0.000000
18.760100 0.000000
18.780300 0.000000
18.800500 0.000000
18.820600 0.000000
18.840800 0.000000
18.860900 0.000000
18.881100 0.000000
18.901200 0.000000
18.921400 0.000000
18.941600 0.000000
18.961700 0.000000
18.981900 0.000000
19.002000 0.000000
19.022200 0.000000
19.042400 0.000000
19.062500 0.000000
19.082700 0.000000
19.102800 0.000000
19.123000 0.000000
19.143100 0.000000
19.163300 0.000000
19.183500 0.000000
19.203600 0.000000
19.223800 0.000000
19.243900 0.000000
19.264100 0.000000
19.284300 0.000000
19.304400 0.000000
19.324600 0.000000
19.344700 0.000000
19.364900 0.000000
19.385100 0.000000
19.405200 0.000000
19.425400 0.000000
19.445500 0.000000
19.465700 0.000000
19.485800 0.000000
19.506000 0.000000
19.526200 0.000000
19.546300 0.000000
19.566500 0.000000
19.586600 0.000000
19.606800 0.000000
19.627000 0.000000
19.647100 0.000000
19.667300 0.000000
19.687400 0.000000
19.707600 0.000000
19.727700 0.000000
19.747900 0.000000
19.768100 0.000000
19.788200 0.000000
19.808400 0.000000
19.828500 0.000000
19.848700 0.000000
19.868900 0.000000
19.889000 0.000000
19.909200 0.000000
19.929300 0.000000
19.949500 0.000000
19.969700 0.000000
19.989800 0.000000
20.010000 0.000000
20.030100 0.000000
20.050300 0.000000
20.070400 0.000000
20.090600 0.000000
20.110800 0.000000
20.130900 0.000000
20.151100 0.000000
20.171200 0.000000
e
