set title 'mp-1091371 - Density of States'
set xlabel 'Energy (eV)'
set ylabel 'DOS (states/eV)'
set grid
set xrange [-10:10]
set yrange [0:58.624]
set xzeroaxis lt -1
set terminal png size 800,600
set output 'mp-1091371_dos_gnuplot.png'
plot '-' using 1:2 with lines title 'DOS'
-16.639300 0.000000
-16.620000 0.000000
-16.600800 0.000000
-16.581600 0.000000
-16.562400 0.000000
-16.543100 0.000000
-16.523900 0.000000
-16.504700 0.000000
-16.485400 0.000000
-16.466200 0.000000
-16.447000 0.000000
-16.427800 0.000000
-16.408500 0.000000
-16.389300 0.000000
-16.370100 0.000000
-16.350800 0.000000
-16.331600 0.000000
-16.312400 0.000000
-16.293100 0.000000
-16.273900 0.000000
-16.254700 0.000000
-16.235500 0.000000
-16.216200 0.000000
-16.197000 0.000000
-16.177800 0.000000
-16.158500 0.000000
-16.139300 0.000000
-16.120100 0.000000
-16.100800 0.000000
-16.081600 0.000000
-16.062400 0.000000
-16.043200 0.000000
-16.023900 0.000000
-16.004700 0.000000
-15.985500 0.000000
-15.966200 0.000000
-15.947000 0.000000
-15.927800 0.000000
-15.908600 0.000000
-15.889300 0.000000
-15.870100 0.000000
-15.850900 0.000000
-15.831600 0.000000
-15.812400 0.000000
-15.793200 0.000000
-15.773900 0.000000
-15.754700 0.000000
-15.735500 0.000000
-15.716300 0.000000
-15.697000 0.000000
-15.677800 0.000000
-15.658600 0.000000
-15.639300 0.000000
-15.620100 0.000000
-15.600900 0.000000
-15.581700 0.000000
-15.562400 0.000000
-15.543200 0.000000
-15.524000 0.000000
-15.504700 0.000000
-15.485500 0.000000
-15.466300 0.000000
-15.447000 0.000000
-15.427800 0.000000
-15.408600 0.000000
-15.389400 0.000000
-15.370100 0.000000
-15.350900 0.000000
-15.331700 0.000000
-15.312400 0.000000
-15.293200 0.000000
-15.274000 0.000000
-15.254700 0.000000
-15.235500 0.000000
-15.216300 0.000000
-15.197100 0.000000
-15.177800 0.000000
-15.158600 0.000000
-15.139400 0.000000
-15.120100 0.000000
-15.100900 0.000000
-15.081700 0.000000
-15.062500 0.000000
-15.043200 0.000000
-15.024000 0.000000
-15.004800 0.000000
-14.985500 0.000000
-14.966300 0.000000
-14.947100 0.000000
-14.927800 0.000000
-14.908600 0.000000
-14.889400 0.000900
-14.870200 0.122500
-14.850900 0.450100
-14.831700 0.983600
-14.812500 1.521700
-14.793200 1.831000
-14.774000 1.998500
-14.754800 2.188800
-14.735600 2.430800
-14.716300 2.686900
-14.697100 2.959900
-14.677900 3.249900
-14.658600 3.559100
-14.639400 3.893500
-14.620200 5.101300
-14.600900 5.975100
-14.581700 6.533200
-14.562500 6.775500
-14.543300 7.218500
-14.524000 7.926000
-14.504800 8.261200
-14.485600 8.133000
-14.466300 7.443800
-14.447100 5.737900
-14.427900 4.019600
-14.408700 2.499600
-14.389400 0.591300
-14.370200 0.000000
-14.351000 5.078200
-14.331700 5.114500
-14.312500 6.430000
-14.293300 7.365100
-14.274000 7.790700
-14.254800 7.194000
-14.235600 6.729300
-14.216400 6.729500
-14.197100 6.453200
-14.177900 5.884500
-14.158700 5.477700
-14.139400 4.966000
-14.120200 4.451600
-14.101000 3.989500
-14.081700 3.600300
-14.062500 3.362000
-14.043300 2.985500
-14.024100 2.598800
-14.004800 2.212300
-13.985600 2.280600
-13.966400 2.922100
-13.947100 3.935700
-13.927900 4.990400
-13.908700 7.076400
-13.889500 10.354300
-13.870200 12.995800
-13.851000 26.568800
-13.831800 13.608900
-13.812500 12.501400
-13.793300 10.007500
-13.774100 6.381500
-13.754800 4.014800
-13.735600 1.701700
-13.716400 2.288900
-13.697200 3.087900
-13.677900 3.946600
-13.658700 6.514200
-13.639500 8.696100
-13.620200 7.280700
-13.601000 7.509200
-13.581800 7.576500
-13.562600 7.510400
-13.543300 7.833500
-13.524100 8.534000
-13.504900 8.969700
-13.485600 8.083700
-13.466400 6.557700
-13.447200 16.268900
-13.427900 6.972200
-13.408700 8.795200
-13.389500 13.510000
-13.370300 17.105600
-13.351000 25.395700
-13.331800 26.522400
-13.312600 13.301500
-13.293300 22.856600
-13.274100 35.919700
-13.254900 19.784800
-13.235700 9.032000
-13.216400 4.902800
-13.197200 0.000000
-13.178000 0.000000
-13.158700 0.000000
-13.139500 0.000000
-13.120300 0.000000
-13.101000 0.000000
-13.081800 0.000000
-13.062600 0.000000
-13.043400 0.000000
-13.024100 0.000000
-13.004900 0.000000
-12.985700 0.000000
-12.966400 0.000000
-12.947200 0.000000
-12.928000 0.000000
-12.908700 0.000000
-12.889500 0.000000
-12.870300 0.000000
-12.851100 0.000000
-12.831800 0.000000
-12.812600 0.000000
-12.793400 0.000000
-12.774100 0.000000
-12.754900 0.000000
-12.735700 0.000000
-12.716500 0.000000
-12.697200 0.000000
-12.678000 0.000000
-12.658800 0.000000
-12.639500 0.000000
-12.620300 0.000000
-12.601100 0.000000
-12.581800 0.000000
-12.562600 0.000000
-12.543400 0.000000
-12.524200 0.000000
-12.504900 0.000000
-12.485700 0.000000
-12.466500 0.000000
-12.447200 0.000000
-12.428000 0.000000
-12.408800 0.000000
-12.389600 0.000000
-12.370300 0.000000
-12.351100 0.000000
-12.331900 0.000000
-12.312600 0.000000
-12.293400 0.000000
-12.274200 0.000000
-12.254900 0.000000
-12.235700 0.000000
-12.216500 0.000000
-12.197300 0.000000
-12.178000 0.000000
-12.158800 0.000000
-12.139600 0.000000
-12.120300 0.000000
-12.101100 0.000000
-12.081900 0.000000
-12.062700 0.000000
-12.043400 0.000000
-12.024200 0.000000
-12.005000 0.000000
-11.985700 0.000000
-11.966500 0.000000
-11.947300 0.000000
-11.928000 0.000000
-11.908800 0.000000
-11.889600 0.000000
-11.870400 0.000000
-11.851100 0.000000
-11.831900 0.000000
-11.812700 0.000000
-11.793400 0.000000
-11.774200 0.000000
-11.755000 0.000000
-11.735700 0.000000
-11.716500 0.000000
-11.697300 0.000000
-11.678100 0.000000
-11.658800 0.000000
-11.639600 0.000000
-11.620400 0.000000
-11.601100 0.000000
-11.581900 0.000000
-11.562700 0.000000
-11.543500 0.000000
-11.524200 0.000000
-11.505000 0.000000
-11.485800 0.000000
-11.466500 0.000000
-11.447300 0.000000
-11.428100 0.000000
-11.408800 0.000000
-11.389600 0.000000
-11.370400 0.000000
-11.351200 0.000000
-11.331900 0.000000
-11.312700 0.000000
-11.293500 0.000000
-11.274200 0.000000
-11.255000 0.000000
-11.235800 0.000000
-11.216600 0.000000
-11.197300 0.000000
-11.178100 0.000000
-11.158900 0.000000
-11.139600 0.000000
-11.120400 0.000000
-11.101200 0.000000
-11.081900 0.000000
-11.062700 0.000000
-11.043500 0.000000
-11.024300 0.000000
-11.005000 0.000000
-10.985800 0.000000
-10.966600 0.000000
-10.947300 0.000000
-10.928100 0.000000
-10.908900 0.000000
-10.889600 0.000000
-10.870400 0.000000
-10.851200 0.000000
-10.832000 0.000000
-10.812700 0.000000
-10.793500 0.000000
-10.774300 0.000000
-10.755000 0.000000
-10.735800 0.000000
-10.716600 0.000000
-10.697400 0.000000
-10.678100 0.000000
-10.658900 0.000000
-10.639700 0.000000
-10.620400 0.000000
-10.601200 0.000000
-10.582000 0.000000
-10.562700 0.000000
-10.543500 0.000000
-10.524300 0.000000
-10.505100 0.000000
-10.485800 0.000000
-10.466600 0.000000
-10.447400 0.000000
-10.428100 0.000000
-10.408900 0.000000
-10.389700 0.000000
-10.370500 0.000000
-10.351200 0.000000
-10.332000 0.000000
-10.312800 0.000000
-10.293500 0.000000
-10.274300 0.000000
-10.255100 0.000000
-10.235800 0.000000
-10.216600 0.000000
-10.197400 0.000000
-10.178200 0.000000
-10.158900 0.000000
-10.139700 0.000000
-10.120500 0.000000
-10.101200 0.000000
-10.082000 0.000000
-10.062800 0.000000
-10.043600 0.000000
-10.024300 0.000000
-10.005100 0.000000
-9.985900 0.000000
-9.966600 0.000000
-9.947400 0.000000
-9.928200 0.000000
-9.908900 0.000000
-9.889700 0.000000
-9.870500 0.000000
-9.851300 0.000000
-9.832000 0.000000
-9.812800 0.000000
-9.793600 0.000000
-9.774300 0.000000
-9.755100 0.000000
-9.735900 0.000000
-9.716600 0.000000
-9.697400 0.000000
-9.678200 0.000000
-9.659000 0.000000
-9.639700 0.000000
-9.620500 0.000000
-9.601300 0.000000
-9.582000 0.000000
-9.562800 0.000000
-9.543600 0.000000
-9.524400 0.000000
-9.505100 0.000000
-9.485900 0.000000
-9.466700 0.000000
-9.447400 0.000000
-9.428200 0.000000
-9.409000 0.000000
-9.389700 0.000000
-9.370500 0.000000
-9.351300 0.000000
-9.332100 0.000000
-9.312800 0.000000
-9.293600 0.000000
-9.274400 0.000000
-9.255100 0.000000
-9.235900 0.000000
-9.216700 0.000000
-9.197500 0.000000
-9.178200 0.000000
-9.159000 0.000000
-9.139800 0.000000
-9.120500 0.000000
-9.101300 0.000000
-9.082100 0.000000
-9.062800 0.000000
-9.043600 0.000000
-9.024400 0.000000
-9.005200 0.000000
-8.985900 0.000000
-8.966700 0.000000
-8.947500 0.000000
-8.928200 0.000000
-8.909000 0.000000
-8.889800 0.000000
-8.870600 0.000000
-8.851300 0.000000
-8.832100 0.000000
-8.812900 0.000000
-8.793600 0.000000
-8.774400 0.000000
-8.755200 0.000000
-8.735900 0.000000
-8.716700 0.000000
-8.697500 0.000000
-8.678300 0.000000
-8.659000 0.000000
-8.639800 0.000000
-8.620600 0.000000
-8.601300 0.000000
-8.582100 0.000000
-8.562900 0.000000
-8.543600 0.000000
-8.524400 0.000000
-8.505200 0.000000
-8.486000 0.000000
-8.466700 0.000000
-8.447500 0.000000
-8.428300 0.000000
-8.409000 0.000000
-8.389800 0.000000
-8.370600 0.000000
-8.351400 0.000000
-8.332100 0.000000
-8.312900 0.000000
-8.293700 0.000000
-8.274400 0.000000
-8.255200 0.000000
-8.236000 0.000000
-8.216700 0.000000
-8.197500 0.000000
-8.178300 0.000000
-8.159100 0.000000
-8.139800 0.000000
-8.120600 0.000000
-8.101400 0.000000
-8.082100 0.000000
-8.062900 0.000000
-8.043700 0.000000
-8.024500 0.000000
-8.005200 0.000000
-7.986000 0.000000
-7.966800 0.000000
-7.947500 0.000000
-7.928300 0.000000
-7.909100 0.000000
-7.889800 0.000000
-7.870600 0.000000
-7.851400 0.000000
-7.832200 0.000000
-7.812900 0.000000
-7.793700 0.000000
-7.774500 0.000000
-7.755200 0.000000
-7.736000 0.000000
-7.716800 0.000000
-7.697500 0.000000
-7.678300 0.000000
-7.659100 0.000000
-7.639900 0.000000
-7.620600 0.000000
-7.601400 0.000000
-7.582200 0.000000
-7.562900 0.000000
-7.543700 0.000000
-7.524500 0.000000
-7.505300 0.000000
-7.486000 0.000000
-7.466800 0.000000
-7.447600 0.000000
-7.428300 0.000000
-7.409100 0.000000
-7.389900 0.000000
-7.370600 0.000000
-7.351400 0.000000
-7.332200 0.000000
-7.313000 0.000000
-7.293700 0.000000
-7.274500 0.000000
-7.255300 0.000000
-7.236000 0.000000
-7.216800 0.000000
-7.197600 0.000000
-7.178400 0.000000
-7.159100 0.000000
-7.139900 8.428000
-7.120700 8.710500
-7.101400 8.637700
-7.082200 7.730900
-7.063000 7.130500
-7.043700 6.884500
-7.024500 6.644800
-7.005300 6.522000
-6.986100 5.521400
-6.966800 4.387400
-6.947600 3.600400
-6.928400 2.890100
-6.909100 2.595200
-6.889900 2.387200
-6.870700 2.189400
-6.851500 2.001800
-6.832200 1.825000
-6.813000 1.659600
-6.793800 1.505600
-6.774500 1.363000
-6.755300 1.230900
-6.736100 1.100500
-6.716800 0.969200
-6.697600 0.959800
-6.678400 1.539600
-6.659200 2.065400
-6.639900 2.923600
-6.620700 4.206700
-6.601500 5.589700
-6.582200 6.734900
-6.563000 7.579900
-6.543800 7.828700
-6.524500 7.409100
-6.505300 6.887900
-6.486100 6.465300
-6.466900 6.205900
-6.447600 6.284200
-6.428400 6.212500
-6.409200 5.921200
-6.389900 5.770400
-6.370700 5.948900
-6.351500 6.167800
-6.332300 3.962100
-6.313000 2.868200
-6.293800 2.508700
-6.274600 0.404600
-6.255300 0.447700
-6.236100 0.490900
-6.216900 0.534200
-6.197600 0.577600
-6.178400 0.621100
-6.159200 0.664600
-6.140000 0.715000
-6.120700 0.818500
-6.101500 0.905700
-6.082300 0.973300
-6.063000 1.042100
-6.043800 1.112000
-6.024600 1.183000
-6.005400 1.255100
-5.986100 1.328400
-5.966900 1.403600
-5.947700 1.481400
-5.928400 1.561500
-5.909200 1.642800
-5.890000 1.725400
-5.870700 1.809300
-5.851500 1.894400
-5.832300 1.980700
-5.813100 2.068200
-5.793800 2.154300
-5.774600 2.270900
-5.755400 2.616400
-5.736100 3.144800
-5.716900 3.779600
-5.697700 4.040300
-5.678500 4.191800
-5.659200 4.312300
-5.640000 4.436500
-5.620800 4.564400
-5.601500 4.693400
-5.582300 4.798000
-5.563100 4.877900
-5.543800 4.933200
-5.524600 4.571500
-5.505400 4.396600
-5.486200 3.874100
-5.466900 3.003900
-5.447700 1.786600
-5.428500 0.594900
-5.409200 0.000000
-5.390000 0.000000
-5.370800 0.000000
-5.351500 0.000000
-5.332300 0.000000
-5.313100 0.000000
-5.293900 0.000000
-5.274600 0.244600
-5.255400 0.493300
-5.236200 0.672600
-5.216900 0.782600
-5.197700 0.823100
-5.178500 0.805000
-5.159300 0.900300
-5.140000 0.998100
-5.120800 1.098400
-5.101600 1.201300
-5.082300 1.312300
-5.063100 1.559000
-5.043900 1.886900
-5.024600 2.296000
-5.005400 2.754500
-4.986200 3.147700
-4.967000 3.470000
-4.947700 3.751600
-4.928500 4.073600
-4.909300 4.463500
-4.890000 4.930300
-4.870800 5.549000
-4.851600 3.948500
-4.832400 3.837300
-4.813100 3.664200
-4.793900 3.554900
-4.774700 3.409000
-4.755400 3.226500
-4.736200 3.007300
-4.717000 2.750200
-4.697700 2.429800
-4.678500 2.084000
-4.659300 1.969500
-4.640100 1.862400
-4.620800 1.755800
-4.601600 1.654500
-4.582400 1.559900
-4.563100 1.471900
-4.543900 1.390600
-4.524700 1.315900
-4.505500 1.247300
-4.486200 1.180500
-4.467000 1.114800
-4.447800 1.050200
-4.428500 0.987900
-4.409300 0.933500
-4.390100 0.887400
-4.370800 0.847800
-4.351600 0.800900
-4.332400 0.743800
-4.313200 0.676600
-4.293900 0.551600
-4.274700 0.411800
-4.255500 0.292400
-4.236200 0.193400
-4.217000 0.114800
-4.197800 0.056500
-4.178500 0.018700
-4.159300 0.001300
-4.140100 0.000000
-4.120900 0.000000
-4.101600 0.000000
-4.082400 0.000000
-4.063200 0.000000
-4.043900 0.000000
-4.024700 0.000000
-4.005500 0.000000
-3.986300 0.000000
-3.967000 0.000000
-3.947800 0.000000
-3.928600 0.000000
-3.909300 0.000000
-3.890100 0.000000
-3.870900 0.000000
-3.851600 0.000000
-3.832400 0.000000
-3.813200 0.000000
-3.794000 0.000000
-3.774700 0.000000
-3.755500 0.000000
-3.736300 0.000000
-3.717000 0.000000
-3.697800 0.000000
-3.678600 0.000000
-3.659400 0.000000
-3.640100 0.000000
-3.620900 0.000000
-3.601700 0.000000
-3.582400 0.000000
-3.563200 0.000000
-3.544000 0.000000
-3.524700 0.000000
-3.505500 0.000000
-3.486300 0.000000
-3.467100 0.000000
-3.447800 0.000000
-3.428600 0.000000
-3.409400 0.000000
-3.390100 0.000000
-3.370900 0.000000
-3.351700 0.000000
-3.332400 0.000000
-3.313200 0.000000
-3.294000 0.000000
-3.274800 0.000000
-3.255500 0.000000
-3.236300 0.000000
-3.217100 0.000000
-3.197800 0.000000
-3.178600 0.000000
-3.159400 0.000000
-3.140200 0.000000
-3.120900 0.000000
-3.101700 0.000000
-3.082500 0.000000
-3.063200 0.000000
-3.044000 0.000000
-3.024800 0.000000
-3.005500 0.000000
-2.986300 0.000000
-2.967100 0.000000
-2.947900 0.000000
-2.928600 0.000000
-2.909400 0.000000
-2.890200 0.000000
-2.870900 0.000000
-2.851700 0.000000
-2.832500 0.000000
-2.813300 0.000000
-2.794000 0.000000
-2.774800 0.000000
-2.755600 0.000000
-2.736300 0.000000
-2.717100 0.000000
-2.697900 0.000000
-2.678600 0.000000
-2.659400 0.000000
-2.640200 0.000000
-2.621000 0.000000
-2.601700 0.000000
-2.582500 0.000000
-2.563300 0.000000
-2.544000 0.000000
-2.524800 0.000000
-2.505600 0.000000
-2.486400 0.000000
-2.467100 0.000000
-2.447900 0.000000
-2.428700 0.000000
-2.409400 0.000000
-2.390200 0.000000
-2.371000 0.000000
-2.351700 0.000000
-2.332500 0.000000
-2.313300 0.000000
-2.294100 0.000000
-2.274800 0.000000
-2.255600 0.000000
-2.236400 0.000000
-2.217100 0.000000
-2.197900 0.000000
-2.178700 0.000000
-2.159400 0.000000
-2.140200 0.000000
-2.121000 0.000000
-2.101800 0.000000
-2.082500 0.000000
-2.063300 0.000000
-2.044100 0.000000
-2.024800 0.000000
-2.005600 0.000000
-1.986400 0.000000
-1.967200 0.000000
-1.947900 0.000000
-1.928700 0.000000
-1.909500 0.000000
-1.890200 0.000000
-1.871000 0.000000
-1.851800 0.000000
-1.832500 0.000000
-1.813300 0.000000
-1.794100 0.000000
-1.774900 0.000000
-1.755600 0.000000
-1.736400 0.000000
-1.717200 0.000000
-1.697900 0.000000
-1.678700 0.000000
-1.659500 0.000000
-1.640300 0.000000
-1.621000 0.000000
-1.601800 0.000000
-1.582600 0.000000
-1.563300 0.000000
-1.544100 0.000000
-1.524900 0.000000
-1.505600 0.000000
-1.486400 0.000000
-1.467200 0.000000
-1.448000 0.000000
-1.428700 0.000000
-1.409500 0.000000
-1.390300 0.000000
-1.371000 0.000000
-1.351800 0.000000
-1.332600 0.000000
-1.313400 0.000000
-1.294100 0.000000
-1.274900 4.060800
-1.255700 10.629000
-1.236400 11.247000
-1.217200 10.116200
-1.198000 8.651800
-1.178700 7.675800
-1.159500 7.268000
-1.140300 6.979100
-1.121100 6.799300
-1.101800 6.728500
-1.082600 4.989200
-1.063400 7.406700
-1.044100 8.770600
-1.024900 21.719700
-1.005700 33.510500
-0.986400 19.526600
-0.967200 9.590800
-0.948000 7.725800
-0.928800 5.703200
-0.909500 2.777100
-0.890300 1.705500
-0.871100 2.628600
-0.851800 8.730800
-0.832600 12.871100
-0.813400 14.216200
-0.794200 15.273400
-0.774900 16.975600
-0.755700 17.237400
-0.736500 12.169400
-0.717200 4.540500
-0.698000 2.115100
-0.678800 0.904500
-0.659500 0.453900
-0.640300 0.678800
-0.621100 1.161100
-0.601900 1.748900
-0.582600 3.833700
-0.563400 7.763500
-0.544200 10.529900
-0.524900 12.631600
-0.505700 14.371200
-0.486500 9.911600
-0.467300 6.395400
-0.448000 4.585400
-0.428800 3.269300
-0.409600 2.447100
-0.390300 2.116100
-0.371100 1.990200
-0.351900 1.878200
-0.332600 1.780200
-0.313400 1.696000
-0.294200 1.623400
-0.275000 1.553700
-0.255700 1.485900
-0.236500 1.420200
-0.217300 1.356500
-0.198000 1.287700
-0.178800 1.186700
-0.159600 1.050900
-0.140300 0.880300
-0.121100 0.705900
-0.101900 0.687300
-0.082700 9.159900
-0.063400 14.596900
-0.044200 16.273800
-0.025000 18.060900
-0.005700 19.561400
0.013500 11.442800
0.032700 5.817100
0.051900 3.501300
0.071200 3.758100
0.090400 5.638800
0.109600 7.066300
0.128900 8.192100
0.148100 9.698400
0.167300 10.436300
0.186600 12.692700
0.205800 9.059300
0.225000 8.297600
0.244200 7.743800
0.263500 6.946500
0.282700 6.522500
0.301900 6.939700
0.321200 6.999800
0.340400 4.534700
0.359600 3.380300
0.378800 4.017200
0.398100 4.852200
0.417300 5.547900
0.436500 5.950100
0.455800 6.065500
0.475000 6.604900
0.494200 8.119900
0.513500 11.435000
0.532700 12.415400
0.551900 10.599400
0.571100 9.873600
0.590400 7.990200
0.609600 0.418200
0.628800 0.659600
0.648100 1.814200
0.667300 3.544800
0.686500 6.951600
0.705700 11.121900
0.725000 20.872000
0.744200 16.912400
0.763400 14.370100
0.782700 9.068200
0.801900 6.281700
0.821100 4.142800
0.840400 8.705900
0.859600 10.863000
0.878800 12.812600
0.898000 15.577300
0.917300 11.324500
0.936500 8.107700
0.955700 7.894700
0.975000 7.001000
0.994200 6.779600
1.013400 6.381300
1.032700 6.033300
1.051900 4.359500
1.071100 2.595800
1.090300 2.019000
1.109600 5.917200
1.128800 9.432200
1.148000 5.744000
1.167300 5.655400
1.186500 6.527800
1.205700 8.094800
1.224900 10.431400
1.244200 11.480900
1.263400 9.307900
1.282600 7.571800
1.301900 7.698500
1.321100 8.207900
1.340300 12.266900
1.359600 8.896600
1.378800 7.901900
1.398000 7.790000
1.417200 7.833300
1.436500 8.011100
1.455700 9.146600
1.474900 10.228600
1.494200 10.968100
1.513400 11.791300
1.532600 11.687500
1.551800 10.474000
1.571100 3.758400
1.590300 5.482400
1.609500 8.383000
1.628800 10.974500
1.648000 12.708500
1.667200 14.495800
1.686500 17.042800
1.705700 11.326000
1.724900 7.702200
1.744100 6.106000
1.763400 5.421500
1.782600 6.183800
1.801800 7.874000
1.821100 9.363000
1.840300 11.413800
1.859500 13.656100
1.878700 18.474800
1.898000 10.954600
1.917200 9.020000
1.936400 7.359600
1.955700 17.988500
1.974900 19.692400
1.994100 14.833100
2.013400 13.454600
2.032600 13.932900
2.051800 12.311900
2.071000 10.701000
2.090300 9.100300
2.109500 3.026800
2.128700 3.772900
2.148000 5.437800
2.167200 7.743600
2.186400 8.961400
2.205700 53.294900
2.224900 19.043500
2.244100 8.946200
2.263300 14.695000
2.282600 19.644500
2.301800 21.298800
2.321000 20.607900
2.340300 24.575300
2.359500 0.674500
2.378700 3.142700
2.397900 8.203700
2.417200 12.240600
2.436400 12.859900
2.455600 12.839900
2.474900 12.386500
2.494100 9.772200
2.513300 7.559000
2.532600 6.676800
2.551800 5.937100
2.571000 5.461600
2.590200 4.601100
2.609500 2.679200
2.628700 2.567000
2.647900 3.662600
2.667200 7.117200
2.686400 13.311600
2.705600 27.104700
2.724800 44.829300
2.744100 8.973000
2.763300 0.904900
2.782500 0.000000
2.801800 0.000000
2.821000 0.000000
2.840200 0.000000
2.859500 0.000000
2.878700 0.000000
2.897900 0.000000
2.917100 0.000000
2.936400 0.000000
2.955600 0.000000
2.974800 0.000000
2.994100 0.000000
3.013300 0.000000
3.032500 0.000000
3.051800 0.000000
3.071000 0.000000
3.090200 0.000000
3.109400 0.000000
3.128700 0.000000
3.147900 0.000000
3.167100 0.000000
3.186400 0.000000
3.205600 0.000000
3.224800 0.000000
3.244000 0.000000
3.263300 0.000000
3.282500 0.000000
3.301700 0.000000
3.321000 0.000000
3.340200 0.000000
3.359400 0.000000
3.378700 0.000000
3.397900 0.000000
3.417100 0.000000
3.436300 0.000000
3.455600 0.000000
3.474800 0.000000
3.494000 0.000000
3.513300 0.000000
3.532500 0.000000
3.551700 0.000000
3.570900 0.000000
3.590200 0.000000
3.609400 0.000000
3.628600 0.000000
3.647900 0.000000
3.667100 0.000000
3.686300 0.000000
3.705600 0.000000
3.724800 0.000000
3.744000 0.000000
3.763200 0.000000
3.782500 0.000000
3.801700 0.000000
3.820900 0.000000
3.840200 0.000000
3.859400 0.000000
3.878600 0.000000
3.897800 0.000000
3.917100 0.000000
3.936300 0.000000
3.955500 0.000000
3.974800 0.000000
3.994000 0.000000
4.013200 0.000000
4.032500 0.000000
4.051700 0.000000
4.070900 0.000000
4.090100 0.000000
4.109400 0.000000
4.128600 0.000000
4.147800 0.000000
4.167100 0.000000
4.186300 0.000000
4.205500 0.000000
4.224800 0.000000
4.244000 0.000000
4.263200 0.000000
4.282400 0.000000
4.301700 0.000000
4.320900 0.000000
4.340100 0.000000
4.359400 0.000000
4.378600 0.000000
4.397800 0.000000
4.417000 0.000000
4.436300 0.000000
4.455500 0.000000
4.474700 0.000000
4.494000 0.000000
4.513200 0.000000
4.532400 0.000000
4.551700 0.000000
4.570900 0.000000
4.590100 0.000000
4.609300 0.000000
4.628600 0.000000
4.647800 0.000000
4.667000 0.000000
4.686300 0.000000
4.705500 0.000000
4.724700 0.000000
4.743900 0.000000
4.763200 0.000000
4.782400 0.000000
4.801600 0.000000
4.820900 0.000000
4.840100 0.000000
4.859300 0.000000
4.878600 0.000000
4.897800 0.000000
4.917000 0.000000
4.936200 0.000000
4.955500 0.000000
4.974700 0.000000
4.993900 0.000000
5.013200 0.000000
5.032400 0.000000
5.051600 0.000000
5.070800 0.000000
5.090100 0.000000
5.109300 0.000000
5.128500 0.000000
5.147800 0.000000
5.167000 0.000000
5.186200 0.000000
5.205500 0.000000
5.224700 0.006300
5.243900 0.066200
5.263100 0.189400
5.282400 0.375700
5.301600 0.624900
5.320800 0.872600
5.340100 1.073600
5.359300 1.227800
5.378500 1.335400
5.397800 1.408100
5.417000 1.464000
5.436200 1.505900
5.455400 1.596400
5.474700 1.738400
5.493900 1.930100
5.513100 2.194000
5.532400 2.546000
5.551600 2.986200
5.570800 3.514500
5.590000 4.519000
5.609300 6.867200
5.628500 11.713700
5.647700 20.675100
5.667000 15.105800
5.686200 10.534100
5.705400 5.471900
5.724700 1.362000
5.743900 0.364400
5.763100 0.191100
5.782300 0.068500
5.801600 0.000000
5.820800 0.000000
5.840000 0.000000
5.859300 0.000000
5.878500 0.000000
5.897700 0.543300
5.916900 0.715500
5.936200 0.549500
5.955400 0.649100
5.974600 0.783800
5.993900 0.953700
6.013100 1.158800
6.032300 1.399000
6.051600 1.674400
6.070800 1.924700
6.090000 2.190300
6.109200 2.519400
6.128500 2.959000
6.147700 3.673900
6.166900 4.678700
6.186200 5.859800
6.205400 5.693300
6.224600 6.149200
6.243800 8.612900
6.263100 11.024500
6.282300 12.499500
6.301500 12.352000
6.320800 11.303000
6.340000 9.986600
6.359200 9.074400
6.378500 8.092500
6.397700 7.049400
6.416900 2.978600
6.436100 3.065200
6.455400 3.285500
6.474600 3.654900
6.493800 4.176100
6.513100 4.710700
6.532300 4.838400
6.551500 4.903900
6.570800 4.956000
6.590000 4.994800
6.609200 5.050500
6.628400 5.500000
6.647700 5.886400
6.666900 6.051300
6.686100 5.924100
6.705400 4.985800
6.724600 1.179500
6.743800 0.542800
6.763000 0.571800
6.782300 0.633500
6.801500 0.696400
6.820700 0.760700
6.840000 0.826300
6.859200 0.893100
6.878400 0.961300
6.897700 1.030800
6.916900 1.101500
6.936100 1.173600
6.955300 1.412500
6.974600 7.936900
6.993800 8.056000
7.013000 8.017600
7.032300 7.858600
7.051500 7.793200
7.070700 7.540100
7.089900 7.175300
7.109200 6.694600
7.128400 6.125900
7.147600 5.639700
7.166900 5.273500
7.186100 4.744300
7.205300 3.780700
7.224600 2.733800
7.243800 2.125900
7.263000 1.823300
7.282200 1.784500
7.301500 1.989600
7.320700 2.416900
7.339900 3.025800
7.359200 3.691900
7.378400 4.010300
7.397600 4.028900
7.416900 4.225600
7.436100 4.306700
7.455300 4.272200
7.474500 4.127300
7.493800 3.959700
7.513000 3.840000
7.532200 3.773900
7.551500 3.757300
7.570700 3.750300
7.589900 3.700400
7.609100 3.605300
7.628400 3.479400
7.647600 3.449100
7.666800 3.551800
7.686100 3.787100
7.705300 4.154600
7.724500 4.654300
7.743800 5.286300
7.763000 6.050500
7.782200 10.976000
7.801400 14.257300
7.820700 17.612400
7.839900 11.553400
7.859100 11.881900
7.878400 13.146900
7.897600 9.591000
7.916800 8.455300
7.936000 5.759800
7.955300 3.641900
7.974500 2.554700
7.993700 0.932500
8.013000 0.000000
8.032200 0.000000
8.051400 0.000000
8.070700 0.000000
8.089900 0.990200
8.109100 2.020800
8.128300 2.633600
8.147600 3.235200
8.166800 4.285600
8.186000 5.553200
8.205300 7.311300
8.224500 8.617000
8.243700 9.377100
8.262900 8.835200
8.282200 7.859400
8.301400 6.674200
8.320600 6.000200
8.339900 5.160800
8.359100 4.972000
8.378300 4.511300
8.397600 4.248000
8.416800 4.074300
8.436000 3.981800
8.455200 3.985800
8.474500 4.087200
8.493700 4.278300
8.512900 4.493100
8.532200 4.723800
8.551400 5.104000
8.570600 5.791700
8.589900 6.735700
8.609100 7.289500
8.628300 7.131300
8.647500 6.252500
8.666800 5.178900
8.686000 4.483500
8.705200 4.103800
8.724500 3.983500
8.743700 3.892700
8.762900 4.045100
8.782100 5.120000
8.801400 5.839500
8.820600 5.010100
8.839800 4.353100
8.859100 4.002800
8.878300 3.618300
8.897500 3.655100
8.916800 3.743000
8.936000 3.846000
8.955200 3.962700
8.974400 4.116000
8.993700 4.316000
9.012900 4.562800
9.032100 4.856300
9.051400 5.501200
9.070600 6.052800
9.089800 6.369400
9.109000 6.451200
9.128300 6.838900
9.147500 6.826700
9.166700 8.093900
9.186000 8.391700
9.205200 4.200800
9.224400 2.118700
9.243700 2.259400
9.262900 2.436300
9.282100 2.665200
9.301300 2.905600
9.320600 3.154800
9.339800 3.416700
9.359000 4.640800
9.378300 7.706800
9.397500 11.101700
9.416700 14.423200
9.435900 10.441400
9.455200 4.897400
9.474400 4.207400
9.493600 4.009800
9.512900 3.955100
9.532100 4.716700
9.551300 5.971900
9.570600 6.225100
9.589800 6.577000
9.609000 6.974100
9.628200 7.438900
9.647500 7.694600
9.666700 7.635000
9.685900 7.662700
9.705200 7.664400
9.724400 7.511300
9.743600 7.398400
9.762900 7.142800
9.782100 6.610200
9.801300 5.852900
9.820500 4.908800
9.839800 4.419700
9.859000 4.187100
9.878200 3.490100
9.897500 2.608800
9.916700 2.110300
9.935900 1.605400
9.955100 1.148600
9.974400 2.104300
9.993600 3.604400
10.012800 4.710900
10.032100 5.626100
10.051300 6.544900
10.070500 7.297700
10.089800 7.656000
10.109000 8.379100
10.128200 10.247400
10.147400 10.441500
10.166700 8.242600
10.185900 8.154900
10.205100 7.647100
10.224400 6.290700
10.243600 4.453800
10.262800 2.773100
10.282000 1.484700
10.301300 0.572800
10.320500 0.087100
10.339700 0.000000
10.359000 0.000000
10.378200 0.000000
10.397400 0.000000
10.416700 0.000100
10.435900 0.000700
10.455100 0.001600
10.474300 0.002800
10.493600 0.004400
10.512800 0.006400
10.532000 0.008800
10.551300 0.011600
10.570500 0.014700
10.589700 0.018100
10.609000 0.022000
10.628200 0.026200
10.647400 0.030800
10.666600 0.035800
10.685900 0.041100
10.705100 0.046800
10.724300 0.052900
10.743600 0.434000
10.762800 0.605100
10.782000 0.300400
10.801200 0.230400
10.820500 0.248800
10.839700 0.268000
10.858900 0.288000
10.878200 0.308700
10.897400 0.330200
10.916600 0.352500
10.935900 0.375500
10.955100 0.399300
10.974300 0.423900
10.993500 0.466100
11.012800 0.539300
11.032000 0.627700
11.051200 0.731400
11.070500 0.850400
11.089700 0.984700
11.108900 1.134200
11.128100 1.299000
11.147400 1.541800
11.166600 1.841800
11.185800 2.144800
11.205100 2.450700
11.224300 2.759700
11.243500 3.130600
11.262800 3.605000
11.282000 3.681700
11.301200 3.751100
11.320400 3.858000
11.339700 3.966300
11.358900 5.099900
11.378100 5.908600
11.397400 5.919800
11.416600 5.869000
11.435800 5.944100
11.455000 6.301800
11.474300 6.732000
11.493500 7.308400
11.512700 7.341300
11.532000 6.184400
11.551200 5.484100
11.570400 4.622800
11.589700 4.035800
11.608900 3.652600
11.628100 3.329500
11.647300 3.066400
11.666600 2.632500
11.685800 2.407000
11.705000 2.517800
11.724300 2.756200
11.743500 3.021600
11.762700 3.289500
11.782000 3.558000
11.801200 3.826900
11.820400 4.061500
11.839600 4.289900
11.858900 4.517700
11.878100 4.758700
11.897300 5.387800
11.916600 6.573200
11.935800 8.315000
11.955000 9.892000
11.974200 6.224200
11.993500 4.663200
12.012700 4.096100
12.031900 4.126300
12.051200 4.169600
12.070400 4.189600
12.089600 4.186300
12.108900 4.159700
12.128100 4.109700
12.147300 4.036500
12.166500 3.881500
12.185800 3.357100
12.205000 3.337600
12.224200 3.337200
12.243500 3.380400
12.262700 3.511200
12.281900 3.931300
12.301100 4.344500
12.320400 4.508000
12.339600 3.539800
12.358800 3.467900
12.378100 3.510800
12.397300 3.563300
12.416500 3.625500
12.435800 3.703500
12.455000 3.849000
12.474200 4.206700
12.493400 4.629400
12.512700 5.101700
12.531900 5.424400
12.551100 5.246900
12.570400 4.939300
12.589600 4.642600
12.608800 4.354400
12.628000 4.190300
12.647300 4.260400
12.666500 4.318300
12.685700 4.330300
12.705000 4.290100
12.724200 4.185000
12.743400 4.014600
12.762700 3.778900
12.781900 3.526000
12.801100 3.441900
12.820300 3.362500
12.839600 3.280300
12.858800 3.224200
12.878000 3.182500
12.897300 3.045000
12.916500 2.698400
12.935700 2.214400
12.955000 1.624400
12.974200 1.124600
12.993400 1.069100
13.012600 1.073400
13.031900 1.068100
13.051100 1.066500
13.070300 1.062900
13.089600 1.057200
13.108800 1.049600
13.128000 1.040000
13.147200 1.028400
13.166500 1.014800
13.185700 0.656700
13.204900 0.755500
13.224200 0.862700
13.243400 0.978300
13.262600 1.102600
13.281900 1.259000
13.301100 1.474000
13.320300 1.995300
13.339500 2.926300
13.358800 5.458200
13.378000 4.923700
13.397200 4.755100
13.416500 4.871900
13.435700 4.922300
13.454900 4.901100
13.474100 4.867700
13.493400 4.822600
13.512600 4.765700
13.531800 4.818700
13.551100 4.402100
13.570300 3.993900
13.589500 3.688100
13.608800 3.472400
13.628000 4.523400
13.647200 2.534200
13.666400 2.794100
13.685700 3.017200
13.704900 3.168700
13.724100 3.242800
13.743400 3.239300
13.762600 3.158200
13.781800 3.000600
13.801000 2.934300
13.820300 2.884900
13.839500 2.835500
13.858700 2.771000
13.878000 2.702500
13.897200 2.640300
13.916400 2.580700
13.935700 2.523100
13.954900 2.467200
13.974100 2.413300
13.993300 2.361200
14.012600 2.311000
14.031800 2.274200
14.051000 2.273400
14.070300 2.269200
14.089500 2.281100
14.108700 2.287000
14.128000 2.284600
14.147200 2.274100
14.166400 2.257500
14.185600 2.235200
14.204900 2.207300
14.224100 2.173800
14.243300 2.135900
14.262600 2.107500
14.281800 2.092200
14.301000 2.258400
14.320200 3.164300
14.339500 3.819300
14.358700 4.250000
14.377900 6.584700
14.397200 3.293400
14.416400 2.187200
14.435600 1.746000
14.454900 1.467200
14.474100 1.389600
14.493300 1.516100
14.512500 1.815200
14.531800 2.534800
14.551000 3.148000
14.570200 3.655900
14.589500 3.992000
14.608700 3.999900
14.627900 3.679700
14.647100 3.351700
14.666400 3.460800
14.685600 3.585300
14.704800 3.691700
14.724100 3.780400
14.743300 3.857600
14.762500 3.926900
14.781800 3.988400
14.801000 4.054800
14.820200 4.213200
14.839400 4.413000
14.858700 4.737000
14.877900 5.176100
14.897100 5.833100
14.916400 6.516700
14.935600 7.162100
14.954800 7.959200
14.974100 9.555900
14.993300 9.377300
15.012500 7.933300
15.031700 7.728500
15.051000 7.753500
15.070200 7.679800
15.089400 7.954100
15.108700 8.329500
15.127900 8.758100
15.147100 9.142400
15.166300 9.482300
15.185600 9.755500
15.204800 9.324200
15.224000 9.458500
15.243300 9.112600
15.262500 9.262300
15.281700 9.188400
15.301000 8.975800
15.320200 8.809300
15.339400 8.982100
15.358600 10.752000
15.377900 6.671900
15.397100 6.003300
15.416300 6.620600
15.435600 7.736400
15.454800 8.413800
15.474000 7.763700
15.493200 7.905300
15.512500 8.962800
15.531700 9.337500
15.550900 9.692000
15.570200 10.177400
15.589400 10.217900
15.608600 9.779500
15.627900 9.116100
15.647100 8.141500
15.666300 7.617700
15.685500 7.091800
15.704800 6.996000
15.724000 7.109800
15.743200 7.109400
15.762500 7.163900
15.781700 7.246200
15.800900 7.300200
15.820100 7.308400
15.839400 7.283300
15.858600 7.348900
15.877800 7.383500
15.897100 7.374500
15.916300 7.807700
15.935500 6.757000
15.954800 6.459900
15.974000 6.349200
15.993200 6.071300
16.012400 5.518900
16.031700 5.508200
16.050900 5.497400
16.070100 5.495400
16.089400 5.505400
16.108600 5.524500
16.127800 5.561300
16.147100 5.565600
16.166300 5.617500
16.185500 6.150700
16.204700 6.396300
16.224000 6.382400
16.243200 7.063600
16.262400 8.179900
16.281700 9.265700
16.300900 9.565700
16.320100 9.108900
16.339300 7.797900
16.358600 7.970200
16.377800 8.455500
16.397000 8.660500
16.416300 8.340600
16.435500 8.153300
16.454700 8.589200
16.474000 8.878600
16.493200 8.952000
16.512400 8.814000
16.531600 8.654400
16.550900 8.505100
16.570100 8.289000
16.589300 7.980800
16.608600 7.612200
16.627800 7.151500
16.647000 6.978700
16.666200 6.900200
16.685500 7.027300
16.704700 8.509400
16.723900 9.109000
16.743200 8.602700
16.762400 8.869800
16.781600 8.964900
16.800900 8.817500
16.820100 8.433400
16.839300 7.940800
16.858500 7.372800
16.877800 9.536600
16.897000 9.262900
16.916200 8.509500
16.935500 7.898500
16.954700 8.145900
16.973900 9.525900
16.993100 7.460000
17.012400 7.535300
17.031600 7.562100
17.050800 7.569900
17.070100 7.462700
17.089300 7.240600
17.108500 7.115000
17.127800 7.168700
17.147000 7.800200
17.166200 8.558600
17.185400 8.311900
17.204700 6.866500
17.223900 6.538600
17.243100 6.241100
17.262400 5.966200
17.281600 5.708700
17.300800 5.500200
17.320100 5.420100
17.339300 6.473300
17.358500 10.461300
17.377700 7.332000
17.397000 6.911500
17.416200 6.515100
17.435400 6.176200
17.454700 6.138600
17.473900 6.247200
17.493100 6.336900
17.512300 6.200500
17.531600 5.842000
17.550800 5.508400
17.570000 5.286800
17.589300 5.236300
17.608500 5.228400
17.627700 5.229400
17.647000 5.239300
17.666200 5.258000
17.685400 5.285500
17.704600 7.285300
17.723900 8.135200
17.743100 7.715000
17.762300 7.178000
17.781600 6.524000
17.800800 6.257900
17.820000 6.881300
17.839200 7.331700
17.858500 8.011100
17.877700 8.048100
17.896900 8.117100
17.916200 8.892000
17.935400 8.099800
17.954600 8.130000
17.973900 8.026000
17.993100 7.677000
18.012300 7.448300
18.031500 6.934700
18.050800 5.904200
18.070000 4.779500
18.089200 4.976600
18.108500 5.307700
18.127700 5.756000
18.146900 6.388500
18.166200 7.128700
18.185400 7.971700
18.204600 8.853900
18.223800 7.140100
18.243100 6.762100
18.262300 6.246700
18.281500 5.709400
18.300800 5.693900
18.320000 6.241400
18.339200 3.471600
18.358400 3.671000
18.377700 4.060600
18.396900 4.740700
18.416100 5.386400
18.435400 5.968700
18.454600 6.290800
18.473800 6.118800
18.493100 5.794400
18.512300 5.896100
18.531500 6.456500
18.550700 7.818700
18.570000 8.354400
18.589200 7.752500
18.608400 7.069700
18.627700 6.383800
18.646900 7.126900
18.666100 6.239500
18.685300 5.578800
18.704600 5.123900
18.723800 5.003500
18.743000 6.052600
18.762300 7.542700
18.781500 9.166600
18.800700 10.245500
18.820000 10.792900
18.839200 11.547100
18.858400 11.236800
18.877600 8.292500
18.896900 6.677800
18.916100 6.059600
18.935300 5.412400
18.954600 4.703900
18.973800 4.002000
18.993000 3.491700
19.012200 3.046100
19.031500 2.556600
19.050700 2.312100
19.069900 2.358600
19.089200 2.315100
19.108400 2.158400
19.127600 7.023800
19.146900 5.700000
19.166100 5.136100
19.185300 5.057600
19.204500 5.566400
19.223800 6.154400
19.243000 6.821700
19.262200 7.483500
19.281500 7.732200
19.300700 7.640700
19.319900 7.676400
19.339200 7.551200
19.358400 6.901300
19.377600 5.599700
19.396800 4.714000
19.416100 3.881100
19.435300 3.038700
19.454500 2.193100
19.473800 1.362200
19.493000 0.884100
19.512200 2.017400
19.531400 4.680200
19.550700 8.081800
19.569900 9.395800
19.589100 9.427200
19.608400 9.079700
19.627600 8.530100
19.646800 7.844600
19.666100 7.263000
19.685300 6.906100
19.704500 6.696900
19.723700 6.800700
19.743000 6.378700
19.762200 4.980000
19.781400 3.686000
19.800700 0.870300
19.819900 0.279600
19.839100 0.248300
19.858300 0.218600
19.877600 0.190500
19.896800 0.164100
19.916000 0.139400
19.935300 0.116300
19.954500 0.094900
19.973700 0.075100
19.993000 0.057000
20.012200 0.040500
20.031400 0.025700
20.050600 0.012500
20.069900 0.001000
20.089100 0.000000
20.108300 0.000000
20.127600 0.000000
20.146800 0.000000
20.166000 0.000000
20.185200 0.000000
20.204500 0.000000
20.223700 0.000000
20.242900 0.000000
20.262200 0.000000
20.281400 0.000000
20.300600 0.000000
20.319900 0.000000
20.339100 0.000000
20.358300 0.000000
20.377500 0.000000
20.396800 0.000000
20.416000 0.000000
20.435200 0.000000
20.454500 0.000000
20.473700 0.000000
20.492900 0.000000
20.512200 0.000000
20.531400 0.000000
20.550600 0.000000
20.569800 0.000000
20.589100 0.000000
20.608300 0.000000
20.627500 0.000000
20.646800 0.000000
20.666000 0.000000
20.685200 0.000000
20.704400 0.000000
20.723700 0.000000
20.742900 0.000000
20.762100 0.000000
20.781400 0.000000
20.800600 0.000000
20.819800 0.000000
20.839100 0.000000
20.858300 0.000000
20.877500 0.000000
20.896700 0.000000
20.916000 0.000000
20.935200 0.000000
20.954400 0.000000
20.973700 0.000000
20.992900 0.000000
21.012100 0.000000
21.031300 0.000000
21.050600 0.000000
21.069800 0.000000
21.089000 0.000000
21.108300 0.000000
21.127500 0.000000
21.146700 0.000000
21.166000 0.000000
21.185200 0.000000
21.204400 0.000000
21.223600 0.000000
21.242900 0.000000
21.262100 0.000000
21.281300 0.000000
21.300600 0.000000
21.319800 0.000000
21.339000 0.000000
21.358300 0.000000
21.377500 0.000000
21.396700 0.000000
21.415900 0.000000
21.435200 0.000000
21.454400 0.000000
21.473600 0.000000
21.492900 0.000000
21.512100 0.000000
21.531300 0.000000
21.550500 0.000000
21.569800 0.000000
21.589000 0.000000
21.608200 0.000000
21.627500 0.000000
21.646700 0.000000
21.665900 0.000000
21.685200 0.000000
21.704400 0.000000
21.723600 0.000000
21.742800 0.000000
21.762100 0.000000
21.781300 0.000000
21.800500 0.000000
21.819800 0.000000
e
