set title 'mp-1221793 - Density of States'
set xlabel 'Energy (eV)'
set ylabel 'DOS (states/eV)'
set grid
set xrange [-10:10]
set yrange [0:4.884]
set xzeroaxis lt -1
set terminal png size 800,600
set output 'mp-1221793_dos_gnuplot.png'
plot '-' using 1:2 with lines title 'DOS'
-47.895800 0.000000
-47.841000 0.000000
-47.786200 0.000000
-47.731400 0.000000
-47.676500 0.000000
-47.621700 0.000000
-47.566900 0.000000
-47.512100 0.000000
-47.457300 0.000000
-47.402500 0.000000
-47.347700 0.000000
-47.292900 0.000000
-47.238000 0.000000
-47.183200 0.000000
-47.128400 0.000000
-47.073600 0.000000
-47.018800 0.000000
-46.964000 0.000000
-46.909200 0.000000
-46.854400 0.000000
-46.799500 0.000000
-46.744700 0.000000
-46.689900 0.000000
-46.635100 0.000000
-46.580300 0.000000
-46.525500 0.000000
-46.470700 0.000000
-46.415800 0.000000
-46.361000 0.000000
-46.306200 0.000000
-46.251400 0.000000
-46.196600 0.000000
-46.141800 0.000000
-46.087000 0.000000
-46.032200 0.000000
-45.977300 0.000000
-45.922500 0.000000
-45.867700 0.000000
-45.812900 0.000000
-45.758100 0.000000
-45.703300 0.000000
-45.648500 0.000000
-45.593700 0.000000
-45.538800 0.000000
-45.484000 0.000000
-45.429200 0.000000
-45.374400 0.000000
-45.319600 0.000000
-45.264800 0.000000
-45.210000 0.000000
-45.155100 0.000000
-45.100300 0.000000
-45.045500 0.000000
-44.990700 0.000000
-44.935900 0.000000
-44.881100 0.000000
-44.826300 0.000000
-44.771500 0.000000
-44.716600 0.000000
-44.661800 0.000000
-44.607000 0.000000
-44.552200 0.000000
-44.497400 0.000000
-44.442600 0.000000
-44.387800 0.000000
-44.333000 0.000000
-44.278100 0.000000
-44.223300 0.000000
-44.168500 0.000000
-44.113700 0.000000
-44.058900 0.000000
-44.004100 0.000000
-43.949300 0.000000
-43.894400 0.000000
-43.839600 0.000000
-43.784800 0.000000
-43.730000 0.000000
-43.675200 0.000000
-43.620400 0.000000
-43.565600 0.000000
-43.510800 0.000000
-43.455900 0.000000
-43.401100 0.000000
-43.346300 0.000000
-43.291500 0.000000
-43.236700 0.000000
-43.181900 0.000000
-43.127100 0.000000
-43.072300 0.000000
-43.017400 0.000000
-42.962600 0.000000
-42.907800 5.455100
-42.853000 21.423700
-42.798200 16.233700
-42.743400 29.798600
-42.688600 17.137400
-42.633700 5.914000
-42.578900 0.000000
-42.524100 0.000000
-42.469300 0.000000
-42.414500 0.000000
-42.359700 0.000000
-42.304900 0.000000
-42.250100 0.000000
-42.195200 0.000000
-42.140400 0.000000
-42.085600 0.000000
-42.030800 0.000000
-41.976000 0.000000
-41.921200 0.000000
-41.866400 0.000000
-41.811600 0.000000
-41.756700 0.000000
-41.701900 0.000000
-41.647100 0.000000
-41.592300 0.000000
-41.537500 0.000000
-41.482700 0.000000
-41.427900 0.000000
-41.373000 0.000000
-41.318200 0.000000
-41.263400 0.000000
-41.208600 0.000000
-41.153800 0.000000
-41.099000 0.000000
-41.044200 0.000000
-40.989400 0.000000
-40.934500 0.000000
-40.879700 0.000000
-40.824900 0.000000
-40.770100 0.000000
-40.715300 0.000000
-40.660500 0.000000
-40.605700 0.000000
-40.550900 0.000000
-40.496000 0.000000
-40.441200 0.000000
-40.386400 0.000000
-40.331600 0.000000
-40.276800 0.000000
-40.222000 0.000000
-40.167200 0.000000
-40.112300 0.000000
-40.057500 0.000000
-40.002700 0.000000
-39.947900 0.000000
-39.893100 0.000000
-39.838300 0.000000
-39.783500 0.000000
-39.728700 0.000000
-39.673800 0.000000
-39.619000 0.000000
-39.564200 0.000000
-39.509400 0.000000
-39.454600 0.000000
-39.399800 0.000000
-39.345000 0.000000
-39.290200 0.000000
-39.235300 0.000000
-39.180500 0.000000
-39.125700 0.000000
-39.070900 0.000000
-39.016100 0.000000
-38.961300 0.000000
-38.906500 0.000000
-38.851600 0.000000
-38.796800 0.000000
-38.742000 0.000000
-38.687200 0.000000
-38.632400 0.000000
-38.577600 0.000000
-38.522800 0.000000
-38.468000 0.000000
-38.413100 0.000000
-38.358300 0.000000
-38.303500 0.000000
-38.248700 0.000000
-38.193900 0.000000
-38.139100 0.000000
-38.084300 0.000000
-38.029500 0.000000
-37.974600 0.000000
-37.919800 0.000000
-37.865000 0.000000
-37.810200 0.000000
-37.755400 0.000000
-37.700600 0.000000
-37.645800 0.000000
-37.590900 0.000000
-37.536100 0.000000
-37.481300 0.000000
-37.426500 0.000000
-37.371700 0.000000
-37.316900 0.000000
-37.262100 0.000000
-37.207300 0.000000
-37.152400 0.000000
-37.097600 0.000000
-37.042800 0.000000
-36.988000 0.000000
-36.933200 0.000000
-36.878400 0.000000
-36.823600 0.000000
-36.768800 0.000000
-36.713900 0.000000
-36.659100 0.000000
-36.604300 0.000000
-36.549500 0.000000
-36.494700 0.000000
-36.439900 0.000000
-36.385100 0.000000
-36.330200 0.000000
-36.275400 0.000000
-36.220600 0.000000
-36.165800 0.000000
-36.111000 0.000000
-36.056200 0.000000
-36.001400 0.000000
-35.946600 0.000000
-35.891700 0.000000
-35.836900 0.000000
-35.782100 0.000000
-35.727300 0.000000
-35.672500 0.000000
-35.617700 0.000000
-35.562900 0.000000
-35.508000 0.000000
-35.453200 0.000000
-35.398400 0.000000
-35.343600 0.000000
-35.288800 0.000000
-35.234000 0.000000
-35.179200 0.000000
-35.124400 0.000000
-35.069500 0.000000
-35.014700 0.000000
-34.959900 0.000000
-34.905100 0.000000
-34.850300 0.000000
-34.795500 0.000000
-34.740700 0.000000
-34.685900 0.000000
-34.631000 0.000000
-34.576200 0.000000
-34.521400 0.000000
-34.466600 0.000000
-34.411800 0.000000
-34.357000 0.000000
-34.302200 0.000000
-34.247300 0.000000
-34.192500 0.000000
-34.137700 0.000000
-34.082900 0.000000
-34.028100 0.000000
-33.973300 0.000000
-33.918500 0.000000
-33.863700 0.000000
-33.808800 0.000000
-33.754000 0.000000
-33.699200 0.000000
-33.644400 0.000000
-33.589600 0.000000
-33.534800 0.000000
-33.480000 0.000000
-33.425200 0.000000
-33.370300 0.000000
-33.315500 0.000000
-33.260700 0.000000
-33.205900 0.000000
-33.151100 0.000000
-33.096300 0.000000
-33.041500 0.000000
-32.986600 0.000000
-32.931800 0.000000
-32.877000 0.000000
-32.822200 0.000000
-32.767400 0.000000
-32.712600 0.000000
-32.657800 0.000000
-32.603000 0.000000
-32.548100 0.000000
-32.493300 0.000000
-32.438500 0.000000
-32.383700 0.000000
-32.328900 0.000000
-32.274100 0.000000
-32.219300 0.000000
-32.164500 0.000000
-32.109600 0.000000
-32.054800 0.000000
-32.000000 0.000000
-31.945200 0.000000
-31.890400 0.000000
-31.835600 0.000000
-31.780800 0.000000
-31.725900 0.000000
-31.671100 0.000000
-31.616300 0.000000
-31.561500 0.000000
-31.506700 0.000000
-31.451900 0.000000
-31.397100 0.000000
-31.342300 0.000000
-31.287400 0.000000
-31.232600 0.000000
-31.177800 0.000000
-31.123000 0.000000
-31.068200 0.000000
-31.013400 0.000000
-30.958600 0.000000
-30.903800 0.000000
-30.848900 0.000000
-30.794100 0.000000
-30.739300 0.000000
-30.684500 0.000000
-30.629700 0.000000
-30.574900 0.000000
-30.520100 0.000000
-30.465200 0.000000
-30.410400 0.000000
-30.355600 0.000000
-30.300800 0.000000
-30.246000 0.000000
-30.191200 0.000000
-30.136400 0.000000
-30.081600 0.000000
-30.026700 0.000000
-29.971900 0.000000
-29.917100 0.000000
-29.862300 0.000000
-29.807500 0.000000
-29.752700 0.000000
-29.697900 0.000000
-29.643100 0.000000
-29.588200 0.000000
-29.533400 0.000000
-29.478600 0.000000
-29.423800 0.000000
-29.369000 0.000000
-29.314200 0.000000
-29.259400 0.000000
-29.204500 0.000000
-29.149700 0.000000
-29.094900 0.000000
-29.040100 0.000000
-28.985300 0.000000
-28.930500 0.000000
-28.875700 0.000000
-28.820900 0.000000
-28.766000 0.000000
-28.711200 0.000000
-28.656400 0.000000
-28.601600 0.000000
-28.546800 0.000000
-28.492000 0.000000
-28.437200 0.000000
-28.382400 0.000000
-28.327500 0.000000
-28.272700 0.000000
-28.217900 0.000000
-28.163100 0.000000
-28.108300 0.000000
-28.053500 0.000000
-27.998700 0.000000
-27.943800 0.000000
-27.889000 0.000000
-27.834200 0.000000
-27.779400 0.000000
-27.724600 0.000000
-27.669800 0.000000
-27.615000 0.000000
-27.560200 0.000000
-27.505300 0.000000
-27.450500 0.000000
-27.395700 0.000000
-27.340900 0.000000
-27.286100 0.000000
-27.231300 0.000000
-27.176500 0.000000
-27.121700 0.000000
-27.066800 0.000000
-27.012000 0.000000
-26.957200 0.000000
-26.902400 0.000000
-26.847600 0.000000
-26.792800 0.000000
-26.738000 0.000000
-26.683100 0.000000
-26.628300 0.000000
-26.573500 0.000000
-26.518700 0.000000
-26.463900 0.000000
-26.409100 0.000000
-26.354300 0.000000
-26.299500 0.000000
-26.244600 0.000000
-26.189800 0.000000
-26.135000 0.000000
-26.080200 0.000000
-26.025400 0.000000
-25.970600 0.000000
-25.915800 0.000000
-25.861000 0.000000
-25.806100 0.000000
-25.751300 0.000000
-25.696500 0.000000
-25.641700 0.000000
-25.586900 0.000000
-25.532100 0.000000
-25.477300 0.000000
-25.422400 0.000000
-25.367600 0.000000
-25.312800 0.000000
-25.258000 0.000000
-25.203200 0.000000
-25.148400 0.000000
-25.093600 0.000000
-25.038800 0.000000
-24.983900 0.000000
-24.929100 0.000000
-24.874300 0.000000
-24.819500 0.000000
-24.764700 0.000000
-24.709900 0.000000
-24.655100 0.000000
-24.600300 0.000000
-24.545400 0.000000
-24.490600 0.000000
-24.435800 0.000000
-24.381000 0.000000
-24.326200 0.000000
-24.271400 0.000000
-24.216600 0.000000
-24.161700 0.000000
-24.106900 0.000000
-24.052100 0.000000
-23.997300 0.000000
-23.942500 0.000000
-23.887700 0.000000
-23.832900 0.000000
-23.778100 0.000000
-23.723200 0.000000
-23.668400 0.000000
-23.613600 0.000000
-23.558800 0.000000
-23.504000 0.000000
-23.449200 0.000000
-23.394400 0.000000
-23.339600 0.000000
-23.284700 0.000000
-23.229900 0.000000
-23.175100 0.000000
-23.120300 0.000000
-23.065500 0.000000
-23.010700 0.000000
-22.955900 0.000000
-22.901000 0.000000
-22.846200 0.000000
-22.791400 0.000000
-22.736600 0.000000
-22.681800 0.000000
-22.627000 0.000000
-22.572200 0.000000
-22.517400 0.000000
-22.462500 0.000000
-22.407700 0.000000
-22.352900 0.000000
-22.298100 0.000000
-22.243300 0.000000
-22.188500 0.000000
-22.133700 0.000000
-22.078800 0.000000
-22.024000 0.000000
-21.969200 0.000000
-21.914400 0.000000
-21.859600 0.000000
-21.804800 0.000000
-21.750000 0.000000
-21.695200 0.000000
-21.640300 0.000000
-21.585500 0.000000
-21.530700 0.000000
-21.475900 0.000000
-21.421100 0.000000
-21.366300 0.000000
-21.311500 0.000000
-21.256700 0.000000
-21.201800 0.000000
-21.147000 0.000000
-21.092200 0.000000
-21.037400 0.000000
-20.982600 0.000000
-20.927800 0.000000
-20.873000 0.000000
-20.818100 0.000000
-20.763300 0.000000
-20.708500 0.000000
-20.653700 0.000000
-20.598900 0.000000
-20.544100 0.000000
-20.489300 0.000000
-20.434500 0.000000
-20.379600 0.000000
-20.324800 0.000000
-20.270000 0.000000
-20.215200 0.000000
-20.160400 0.000000
-20.105600 0.000000
-20.050800 0.000000
-19.996000 0.000000
-19.941100 0.000000
-19.886300 0.000000
-19.831500 0.000000
-19.776700 0.000000
-19.721900 0.000000
-19.667100 0.000000
-19.612300 0.000000
-19.557400 0.000000
-19.502600 0.000000
-19.447800 0.000000
-19.393000 0.000000
-19.338200 0.000000
-19.283400 0.000000
-19.228600 0.000000
-19.173800 0.000000
-19.118900 0.000000
-19.064100 0.000000
-19.009300 0.000000
-18.954500 0.000000
-18.899700 0.000000
-18.844900 0.000000
-18.790100 0.000000
-18.735300 0.000000
-18.680400 0.000000
-18.625600 0.000000
-18.570800 0.000000
-18.516000 0.000000
-18.461200 0.000000
-18.406400 0.000000
-18.351600 0.000000
-18.296700 0.000000
-18.241900 0.000000
-18.187100 0.000000
-18.132300 0.000000
-18.077500 0.000000
-18.022700 0.000000
-17.967900 0.000000
-17.913100 0.000000
-17.858200 0.000000
-17.803400 0.000000
-17.748600 0.000000
-17.693800 0.000000
-17.639000 0.000000
-17.584200 0.000000
-17.529400 0.000000
-17.474600 0.000000
-17.419700 0.000000
-17.364900 0.000000
-17.310100 0.000000
-17.255300 0.000000
-17.200500 0.000000
-17.145700 0.000000
-17.090900 0.000000
-17.036000 0.000000
-16.981200 0.000000
-16.926400 0.000000
-16.871600 0.000000
-16.816800 0.000000
-16.762000 0.000000
-16.707200 0.000000
-16.652400 0.000000
-16.597500 0.000000
-16.542700 0.000000
-16.487900 0.000000
-16.433100 0.000000
-16.378300 0.000000
-16.323500 0.000000
-16.268700 0.000000
-16.213900 0.000000
-16.159000 0.000000
-16.104200 0.000000
-16.049400 0.000000
-15.994600 0.000000
-15.939800 0.000000
-15.885000 0.000000
-15.830200 0.000000
-15.775300 0.000000
-15.720500 0.000000
-15.665700 0.000000
-15.610900 0.000000
-15.556100 0.000000
-15.501300 0.000000
-15.446500 0.000000
-15.391700 0.000000
-15.336800 0.000000
-15.282000 0.000000
-15.227200 0.000000
-15.172400 0.000000
-15.117600 0.000000
-15.062800 0.000000
-15.008000 0.000000
-14.953200 0.000000
-14.898300 0.000000
-14.843500 0.000000
-14.788700 0.000000
-14.733900 0.000000
-14.679100 0.000000
-14.624300 0.000000
-14.569500 0.000000
-14.514600 0.000000
-14.459800 0.000000
-14.405000 0.000000
-14.350200 0.000000
-14.295400 0.000000
-14.240600 0.000000
-14.185800 0.000000
-14.131000 0.000000
-14.076100 0.000000
-14.021300 0.000000
-13.966500 0.000000
-13.911700 0.000000
-13.856900 0.000000
-13.802100 0.000000
-13.747300 0.000000
-13.692500 0.000000
-13.637600 0.000000
-13.582800 0.000000
-13.528000 0.000000
-13.473200 0.000000
-13.418400 0.000000
-13.363600 0.000000
-13.308800 0.000000
-13.253900 0.000000
-13.199100 0.000000
-13.144300 0.000000
-13.089500 0.000000
-13.034700 0.000000
-12.979900 0.000000
-12.925100 0.000000
-12.870300 0.000000
-12.815400 0.000000
-12.760600 0.000000
-12.705800 0.000000
-12.651000 0.000000
-12.596200 0.000000
-12.541400 0.000000
-12.486600 0.000000
-12.431800 0.000000
-12.376900 0.000000
-12.322100 0.000000
-12.267300 0.000000
-12.212500 0.000000
-12.157700 0.000000
-12.102900 0.000000
-12.048100 0.000000
-11.993200 0.000000
-11.938400 0.000000
-11.883600 0.000000
-11.828800 0.000000
-11.774000 0.000000
-11.719200 0.000000
-11.664400 0.000000
-11.609600 0.000000
-11.554700 0.000000
-11.499900 0.000000
-11.445100 0.000000
-11.390300 0.000000
-11.335500 0.000000
-11.280700 0.000000
-11.225900 0.000000
-11.171100 0.000000
-11.116200 0.000000
-11.061400 0.000000
-11.006600 0.000000
-10.951800 0.000000
-10.897000 0.000000
-10.842200 0.000000
-10.787400 0.000000
-10.732500 0.084600
-10.677700 0.159800
-10.622900 0.279700
-10.568100 0.313100
-10.513300 0.325900
-10.458500 0.333000
-10.403700 0.341000
-10.348900 0.348600
-10.294000 0.361700
-10.239200 0.371000
-10.184400 0.380900
-10.129600 0.394900
-10.074800 0.410700
-10.020000 0.426200
-9.965200 0.442900
-9.910300 0.460000
-9.855500 0.485500
-9.800700 0.516100
-9.745900 0.543100
-9.691100 0.569800
-9.636300 0.627200
-9.581500 0.686900
-9.526700 0.744800
-9.471800 0.815300
-9.417000 1.013100
-9.362200 1.239100
-9.307400 1.839100
-9.252600 1.321100
-9.197800 1.339400
-9.143000 1.130800
-9.088200 0.000000
-9.033300 0.000000
-8.978500 0.000000
-8.923700 0.000000
-8.868900 0.000000
-8.814100 0.000000
-8.759300 0.000000
-8.704500 0.000000
-8.649600 0.000000
-8.594800 0.000000
-8.540000 0.000000
-8.485200 0.000000
-8.430400 0.000000
-8.375600 0.000000
-8.320800 0.000000
-8.266000 0.000000
-8.211100 0.000000
-8.156300 0.000000
-8.101500 0.000000
-8.046700 0.000000
-7.991900 0.000000
-7.937100 0.000000
-7.882300 0.000000
-7.827500 0.000000
-7.772600 0.000000
-7.717800 0.000000
-7.663000 0.000000
-7.608200 0.000000
-7.553400 0.000000
-7.498600 0.000000
-7.443800 0.000000
-7.388900 0.000000
-7.334100 0.000000
-7.279300 0.000000
-7.224500 0.000000
-7.169700 0.000000
-7.114900 0.000000
-7.060100 0.000000
-7.005300 0.000000
-6.950400 0.000000
-6.895600 0.000000
-6.840800 0.000000
-6.786000 0.000000
-6.731200 0.000000
-6.676400 0.000000
-6.621600 0.000000
-6.566800 0.000000
-6.511900 0.000000
-6.457100 0.000000
-6.402300 0.000000
-6.347500 0.000000
-6.292700 0.000000
-6.237900 0.000000
-6.183100 0.000000
-6.128200 0.000000
-6.073400 0.000000
-6.018600 0.000000
-5.963800 0.000000
-5.909000 0.000000
-5.854200 0.000000
-5.799400 0.000000
-5.744600 0.000000
-5.689700 0.000000
-5.634900 0.000000
-5.580100 0.000000
-5.525300 0.000000
-5.470500 0.000000
-5.415700 0.000000
-5.360900 0.000000
-5.306100 0.000000
-5.251200 0.000000
-5.196400 0.000000
-5.141600 0.000000
-5.086800 0.000000
-5.032000 0.000000
-4.977200 0.000000
-4.922400 0.000000
-4.867500 0.000000
-4.812700 0.000000
-4.757900 0.000000
-4.703100 0.000000
-4.648300 0.000000
-4.593500 0.000000
-4.538700 0.000000
-4.483900 0.000000
-4.429000 0.000000
-4.374200 0.000000
-4.319400 0.000000
-4.264600 0.000000
-4.209800 0.000000
-4.155000 0.000000
-4.100200 0.000000
-4.045400 0.000000
-3.990500 0.000000
-3.935700 0.000000
-3.880900 0.000000
-3.826100 0.000000
-3.771300 0.000000
-3.716500 0.000000
-3.661700 0.000000
-3.606800 0.000000
-3.552000 0.000000
-3.497200 0.000000
-3.442400 0.000000
-3.387600 0.000000
-3.332800 0.000000
-3.278000 0.000000
-3.223200 0.000000
-3.168300 0.000000
-3.113500 0.000000
-3.058700 0.000000
-3.003900 0.000000
-2.949100 0.000000
-2.894300 0.000000
-2.839500 0.000000
-2.784700 0.000000
-2.729800 0.000000
-2.675000 0.000000
-2.620200 0.000000
-2.565400 0.000000
-2.510600 0.000000
-2.455800 0.000000
-2.401000 0.000000
-2.346100 0.000000
-2.291300 0.000000
-2.236500 0.000000
-2.181700 0.000000
-2.126900 0.000000
-2.072100 0.000000
-2.017300 0.000000
-1.962500 0.000000
-1.907600 0.000000
-1.852800 0.000000
-1.798000 0.000000
-1.743200 0.022400
-1.688400 0.036600
-1.633600 0.421600
-1.578800 0.616500
-1.524000 0.677900
-1.469100 0.686400
-1.414300 0.731200
-1.359500 0.763400
-1.304700 0.799200
-1.249900 0.854100
-1.195100 0.923900
-1.140300 1.009100
-1.085400 1.266600
-1.030600 1.238700
-0.975800 1.262300
-0.921000 0.878300
-0.866200 0.793900
-0.811400 0.745400
-0.756600 0.741800
-0.701800 0.725200
-0.646900 0.719500
-0.592100 0.657100
-0.537300 0.643300
-0.482500 0.626600
-0.427700 0.504600
-0.372900 0.298700
-0.318100 0.164000
-0.263300 0.187800
-0.208400 0.344800
-0.153600 0.672800
-0.098800 1.292800
-0.044000 1.209400
0.010800 1.072200
0.065600 1.083700
0.120400 1.214800
0.175300 1.307800
0.230100 1.440300
0.284900 1.804700
0.339700 2.153600
0.394500 1.964200
0.449300 1.940300
0.504100 1.180800
0.558900 1.094300
0.613800 1.655400
0.668600 1.267100
0.723400 0.884600
0.778200 0.890300
0.833000 0.989800
0.887800 1.219600
0.942600 1.257900
0.997400 1.315500
1.052300 1.261200
1.107100 1.102200
1.161900 1.146500
1.216700 1.216300
1.271500 0.874700
1.326300 0.644600
1.381100 0.208400
1.436000 0.000000
1.490800 0.000000
1.545600 0.000000
1.600400 0.000000
1.655200 0.000000
1.710000 0.000000
1.764800 0.000000
1.819600 0.000000
1.874500 0.000000
1.929300 0.000000
1.984100 0.000000
2.038900 0.000000
2.093700 0.000000
2.148500 0.000000
2.203300 0.000000
2.258200 0.029800
2.313000 0.144600
2.367800 0.200400
2.422600 0.265000
2.477400 0.319000
2.532200 0.375100
2.587000 0.436600
2.641800 0.500000
2.696700 0.577800
2.751500 0.674000
2.806300 0.796200
2.861100 0.985000
2.915900 1.327800
2.970700 1.590000
3.025500 2.104100
3.080300 1.384000
3.135200 1.373200
3.190000 1.376900
3.244800 1.607200
3.299600 2.108200
3.354400 2.535100
3.409200 2.484400
3.464000 2.515200
3.518900 2.361200
3.573700 2.335900
3.628500 1.972000
3.683300 1.756300
3.738100 1.540500
3.792900 1.442000
3.847700 1.815600
3.902500 1.902200
3.957400 2.232800
4.012200 2.292300
4.067000 2.027700
4.121800 1.886700
4.176600 1.820400
4.231400 1.871300
4.286200 1.751800
4.341000 1.639700
4.395900 1.342600
4.450700 1.137300
4.505500 0.986000
4.560300 1.125600
4.615100 1.252000
4.669900 1.330300
4.724700 1.358900
4.779600 1.410600
4.834400 1.453400
4.889200 1.484100
4.944000 1.514200
4.998800 1.561600
5.053600 1.654900
5.108400 1.779100
5.163200 2.038000
5.218100 2.695000
5.272900 3.076100
5.327700 3.282700
5.382500 3.557900
5.437300 3.195000
5.492100 3.845000
5.546900 3.997000
5.601700 4.371200
5.656600 4.225600
5.711400 4.440300
5.766200 4.252100
5.821000 2.527100
5.875800 2.775600
5.930600 1.873100
5.985400 1.639200
6.040300 1.604400
6.095100 1.522200
6.149900 1.538800
6.204700 1.618500
6.259500 1.634000
6.314300 1.785100
6.369100 1.137000
6.423900 1.200600
6.478800 1.352800
6.533600 1.147500
6.588400 1.113700
6.643200 0.774900
6.698000 0.803300
6.752800 0.802500
6.807600 0.813300
6.862400 0.854500
6.917300 0.840600
6.972100 0.901500
7.026900 0.946800
7.081700 0.969000
7.136500 1.010300
7.191300 1.027100
7.246100 1.045100
7.301000 1.125500
7.355800 1.259200
7.410600 1.269500
7.465400 1.271600
7.520200 1.211700
7.575000 0.823500
7.629800 0.742700
7.684600 0.883200
7.739500 1.290100
7.794300 1.341700
7.849100 1.386900
7.903900 1.378100
7.958700 1.171500
8.013500 1.180300
8.068300 1.064500
8.123100 1.039200
8.178000 0.998500
8.232800 0.969100
8.287600 0.934600
8.342400 0.883900
8.397200 0.901800
8.452000 0.878300
8.506800 0.866400
8.561700 0.830100
8.616500 0.781400
8.671300 0.776300
8.726100 0.805000
8.780900 0.802000
8.835700 0.740500
8.890500 0.696900
8.945300 0.647900
9.000200 0.612500
9.055000 0.567700
9.109800 0.673300
9.164600 0.391600
9.219400 0.235700
9.274200 0.226500
9.329000 0.219400
9.383800 0.215400
9.438700 0.212600
9.493500 0.211800
9.548300 0.211600
9.603100 0.211600
9.657900 0.212800
9.712700 0.214700
9.767500 0.216500
9.822400 0.217900
9.877200 0.219900
9.932000 0.223000
9.986800 0.229100
10.041600 0.234500
10.096400 0.239400
10.151200 0.244500
10.206000 0.249300
10.260900 0.257900
10.315700 0.269300
10.370500 0.283100
10.425300 0.298000
10.480100 0.341000
10.534900 0.344400
10.589700 0.352400
10.644500 0.349600
10.699400 0.356800
10.754200 0.361300
10.809000 0.362800
10.863800 0.370800
10.918600 0.374500
10.973400 0.374500
11.028200 0.374800
11.083100 0.391500
11.137900 0.390700
11.192700 0.374100
11.247500 0.356900
11.302300 0.313900
11.357100 0.293300
11.411900 0.239700
11.466700 0.212600
11.521600 0.177500
11.576400 0.142900
11.631200 0.120200
11.686000 0.107700
11.740800 0.096200
11.795600 0.085300
11.850400 0.077500
11.905200 0.073700
11.960100 0.070800
12.014900 0.072800
12.069700 0.083600
12.124500 0.098000
12.179300 0.109300
12.234100 0.120600
12.288900 0.131300
12.343800 0.142900
12.398600 0.161900
12.453400 0.173900
12.508200 0.162800
12.563000 0.171500
12.617800 0.178600
12.672600 0.188700
12.727400 0.203100
12.782300 0.217300
12.837100 0.228300
12.891900 0.241400
12.946700 0.262500
13.001500 0.291700
13.056300 0.324200
13.111100 0.331100
13.165900 0.327300
13.220800 0.329800
13.275600 0.335800
13.330400 0.342300
13.385200 0.348700
13.440000 0.357100
13.494800 0.371700
13.549600 0.383900
13.604500 0.406200
13.659300 0.434900
13.714100 0.398600
13.768900 0.388000
13.823700 0.395200
13.878500 0.390900
13.933300 0.391200
13.988100 0.380800
14.043000 0.372800
14.097800 0.366200
14.152600 0.358800
14.207400 0.353400
14.262200 0.349400
14.317000 0.346000
14.371800 0.347900
14.426600 0.336500
14.481500 0.318300
14.536300 0.307200
14.591100 0.302900
14.645900 0.298700
14.700700 0.294000
14.755500 0.291400
14.810300 0.291400
14.865200 0.287200
14.920000 0.280000
14.974800 0.277000
15.029600 0.276400
15.084400 0.276100
15.139200 0.277300
15.194000 0.280700
15.248800 0.284600
15.303700 0.283000
15.358500 0.284700
15.413300 0.303900
15.468100 0.305000
15.522900 0.317700
15.577700 0.338600
15.632500 0.373300
15.687400 0.403000
15.742200 0.407200
15.797000 0.397800
15.851800 0.398200
15.906600 0.399600
15.961400 0.399500
16.016200 0.400600
16.071000 0.404800
16.125900 0.407600
16.180700 0.415000
16.235500 0.409900
16.290300 0.409200
16.345100 0.386000
16.399900 0.354600
16.454700 0.348600
16.509500 0.382600
16.564400 0.461400
16.619200 0.508600
16.674000 0.546300
16.728800 0.543800
16.783600 0.446700
16.838400 0.405200
16.893200 0.385300
16.948100 0.376900
17.002900 0.378300
17.057700 0.390100
17.112500 0.436800
17.167300 0.462600
17.222100 0.445800
17.276900 0.416900
17.331700 0.384200
17.386600 0.380700
17.441400 0.467800
17.496200 0.498100
17.551000 0.492500
17.605800 0.512300
17.660600 0.583900
17.715400 0.591600
17.770200 0.635600
17.825100 0.681000
17.879900 0.683400
17.934700 0.655200
17.989500 0.654800
18.044300 0.674700
18.099100 0.691500
18.153900 0.694900
18.208800 0.716600
18.263600 0.757000
18.318400 0.785900
18.373200 0.777400
18.428000 0.762500
18.482800 0.829300
18.537600 0.816700
18.592400 0.754700
18.647300 0.747900
18.702100 0.765300
18.756900 0.790700
18.811700 0.887700
18.866500 1.038200
18.921300 1.044200
18.976100 0.960800
19.030900 0.817100
19.085800 0.745700
19.140600 0.690000
19.195400 0.645100
19.250200 0.595800
19.305000 0.575300
19.359800 0.559200
19.414600 0.533200
19.469500 0.518000
19.524300 0.514400
19.579100 0.500800
19.633900 0.486300
19.688700 0.474400
19.743500 0.475300
19.798300 0.478900
19.853100 0.472100
19.908000 0.458600
19.962800 0.439100
20.017600 0.423500
20.072400 0.414800
20.127200 0.404400
20.182000 0.398100
20.236800 0.394300
20.291600 0.391000
20.346500 0.386600
20.401300 0.389000
20.456100 0.397800
20.510900 0.412900
20.565700 0.446900
20.620500 0.477600
20.675300 0.537200
20.730200 0.570900
20.785000 0.593200
20.839800 0.627400
20.894600 0.627400
20.949400 0.642200
21.004200 0.665800
21.059000 0.697200
21.113800 0.751700
21.168700 0.805000
21.223500 0.831700
21.278300 0.849200
21.333100 0.962400
21.387900 0.927400
21.442700 0.904900
21.497500 0.867000
21.552300 0.839700
21.607200 0.833500
21.662000 0.758900
21.716800 0.683700
21.771600 0.589800
21.826400 0.514500
21.881200 0.456600
21.936000 0.409000
21.990900 0.366000
22.045700 0.352100
22.100500 0.359700
22.155300 0.375200
22.210100 0.433700
22.264900 0.478200
22.319700 0.516300
22.374500 0.512300
22.429400 0.522400
22.484200 0.531200
22.539000 0.544300
22.593800 0.556600
22.648600 0.576500
22.703400 0.586600
22.758200 0.601700
22.813000 0.625200
22.867900 0.682000
22.922700 0.679200
22.977500 0.634000
23.032300 0.618600
23.087100 0.610800
23.141900 0.595000
23.196700 0.568100
23.251600 0.551800
23.306400 0.533800
23.361200 0.520300
23.416000 0.509600
23.470800 0.501000
23.525600 0.495200
23.580400 0.491000
23.635200 0.484900
23.690100 0.486700
23.744900 0.490900
23.799700 0.505100
23.854500 0.561300
23.909300 0.627100
23.964100 0.624300
24.018900 0.636400
24.073700 0.687800
24.128600 0.675600
24.183400 0.642600
24.238200 0.629300
24.293000 0.623500
24.347800 0.607500
24.402600 0.594000
24.457400 0.586400
24.512300 0.580400
24.567100 0.584000
24.621900 0.609800
24.676700 0.635400
24.731500 0.612400
24.786300 0.578200
24.841100 0.555600
24.895900 0.536200
24.950800 0.521100
25.005600 0.507700
25.060400 0.488500
25.115200 0.473100
25.170000 0.466000
25.224800 0.464700
25.279600 0.455400
25.334400 0.458200
25.389300 0.471900
25.444100 0.490800
25.498900 0.515300
25.553700 0.557200
25.608500 0.615300
25.663300 0.646200
25.718100 0.679700
25.773000 0.711100
25.827800 0.730000
25.882600 0.718000
25.937400 0.647700
25.992200 0.600900
26.047000 0.620600
26.101800 0.639400
26.156600 0.604600
26.211500 0.573100
26.266300 0.563500
26.321100 0.554600
26.375900 0.565200
26.430700 0.555900
26.485500 0.557200
26.540300 0.567400
26.595100 0.583200
26.650000 0.576900
26.704800 0.554100
26.759600 0.532300
26.814400 0.515000
26.869200 0.501400
26.924000 0.490300
26.978800 0.490600
27.033700 0.490000
27.088500 0.488200
27.143300 0.472000
27.198100 0.442400
27.252900 0.415700
27.307700 0.381500
27.362500 0.370300
27.417300 0.364200
27.472200 0.367900
27.527000 0.380400
27.581800 0.433700
27.636600 0.457700
27.691400 0.492100
27.746200 0.464700
27.801000 0.474300
27.855900 0.494800
27.910700 0.502100
27.965500 0.496400
28.020300 0.454300
28.075100 0.416100
28.129900 0.393000
28.184700 0.354500
28.239500 0.341500
28.294400 0.332300
28.349200 0.323400
28.404000 0.315900
28.458800 0.312500
28.513600 0.312300
28.568400 0.314100
28.623200 0.318200
28.678000 0.324200
28.732900 0.330900
28.787700 0.344400
28.842500 0.367200
28.897300 0.425700
28.952100 0.455200
29.006900 0.483300
29.061700 0.491700
29.116600 0.489700
29.171400 0.492300
29.226200 0.477800
29.281000 0.470400
29.335800 0.463700
29.390600 0.455300
29.445400 0.447900
29.500200 0.454000
29.555100 0.455800
29.609900 0.433000
29.664700 0.415400
29.719500 0.413900
29.774300 0.440900
29.829100 0.466000
29.883900 0.460700
29.938700 0.447900
29.993600 0.437300
30.048400 0.429300
30.103200 0.409100
30.158000 0.396300
30.212800 0.413100
30.267600 0.429900
30.322400 0.470900
30.377300 0.519700
30.432100 0.589400
30.486900 0.611500
30.541700 0.614000
30.596500 0.627600
30.651300 0.633200
30.706100 0.644200
30.760900 0.661700
30.815800 0.687600
30.870600 0.698900
30.925400 0.711700
30.980200 0.725300
31.035000 0.745200
31.089800 0.758100
31.144600 0.764300
31.199400 0.771700
31.254300 0.740700
31.309100 0.697500
31.363900 0.692300
31.418700 0.684400
31.473500 0.673400
31.528300 0.668300
31.583100 0.665400
31.638000 0.681600
31.692800 0.692600
31.747600 0.692700
31.802400 0.670100
31.857200 0.638600
31.912000 0.603100
31.966800 0.607000
32.021600 0.621400
32.076500 0.644200
32.131300 0.665400
32.186100 0.678900
32.240900 0.699300
32.295700 0.715800
32.350500 0.739600
32.405300 0.767400
32.460100 0.805300
32.515000 0.844800
32.569800 0.895600
32.624600 0.887500
32.679400 0.871500
32.734200 0.847200
32.789000 0.792500
32.843800 0.752200
32.898700 0.722700
32.953500 0.690900
33.008300 0.659900
33.063100 0.635500
33.117900 0.608500
33.172700 0.582400
33.227500 0.551900
33.282300 0.528300
33.337200 0.504900
33.392000 0.490700
33.446800 0.474300
33.501600 0.472600
33.556400 0.471200
33.611200 0.477500
33.666000 0.488700
33.720800 0.493200
33.775700 0.513900
33.830500 0.513800
33.885300 0.509800
33.940100 0.566500
33.994900 0.604900
34.049700 0.632600
34.104500 0.667800
34.159400 0.702000
34.214200 0.718900
34.269000 0.770000
34.323800 0.787900
34.378600 0.801700
34.433400 0.812100
34.488200 0.880300
34.543000 0.920500
34.597900 0.781700
34.652700 0.678600
34.707500 0.596200
34.762300 0.568500
34.817100 0.560600
34.871900 0.585700
34.926700 0.585400
34.981500 0.586600
35.036400 0.614300
35.091200 0.602800
35.146000 0.617000
35.200800 0.642100
35.255600 0.664900
35.310400 0.671000
35.365200 0.682900
35.420100 0.702600
35.474900 0.712700
35.529700 0.731200
35.584500 0.680100
35.639300 0.648600
35.694100 0.625000
35.748900 0.618700
35.803700 0.609200
35.858600 0.598800
35.913400 0.539000
35.968200 0.556100
36.023000 0.588200
36.077800 0.618100
36.132600 0.682100
36.187400 0.760500
36.242200 0.768500
36.297100 0.768500
36.351900 0.763000
36.406700 0.749400
36.461500 0.752000
36.516300 0.750900
36.571100 0.732300
36.625900 0.727000
36.680800 0.694400
36.735600 0.647800
36.790400 0.595700
36.845200 0.564300
36.900000 0.536700
36.954800 0.528900
37.009600 0.538500
37.064400 0.557700
37.119300 0.579800
37.174100 0.595600
37.228900 0.608400
37.283700 0.608500
37.338500 0.593000
37.393300 0.581500
37.448100 0.583600
37.502900 0.591900
37.557800 0.607700
37.612600 0.616400
37.667400 0.629300
37.722200 0.665000
37.777000 0.717000
37.831800 0.782900
37.886600 0.827400
37.941500 0.848200
37.996300 0.869600
38.051100 0.901600
38.105900 0.938000
38.160700 0.960100
38.215500 0.972600
38.270300 0.998800
38.325100 1.055400
38.380000 0.897500
38.434800 0.843000
38.489600 0.870900
38.544400 0.963900
38.599200 0.858200
38.654000 0.805400
38.708800 0.753700
38.763600 0.670200
38.818500 0.684400
38.873300 0.710400
38.928100 0.773100
38.982900 0.837000
39.037700 0.870100
39.092500 0.853200
39.147300 0.843100
39.202200 0.852800
39.257000 0.853400
39.311800 0.847600
39.366600 0.862600
39.421400 0.857600
39.476200 0.838700
39.531000 0.819200
39.585800 0.788000
39.640700 0.756000
39.695500 0.738600
39.750300 0.728000
39.805100 0.715300
39.859900 0.693300
39.914700 0.635300
39.969500 0.578800
40.024300 0.555800
40.079200 0.534100
40.134000 0.517700
40.188800 0.512100
40.243600 0.516300
40.298400 0.526800
40.353200 0.544500
40.408000 0.562100
40.462900 0.578600
40.517700 0.597900
40.572500 0.608400
40.627300 0.608100
40.682100 0.598400
40.736900 0.596400
40.791700 0.586200
40.846500 0.599600
40.901400 0.586400
40.956200 0.607600
41.011000 0.628000
41.065800 0.636200
41.120600 0.648300
41.175400 0.651500
41.230200 0.649300
41.285100 0.635400
41.339900 0.621800
41.394700 0.649500
41.449500 0.686400
41.504300 0.725400
41.559100 0.753800
41.613900 0.821400
41.668700 0.853100
41.723600 0.891900
41.778400 0.914200
41.833200 0.918400
41.888000 0.936900
41.942800 0.958800
41.997600 0.987800
42.052400 1.028700
42.107200 1.051800
42.162100 1.030200
42.216900 1.002000
42.271700 0.930600
42.326500 0.888000
42.381300 0.855100
42.436100 0.855900
42.490900 0.927800
42.545800 0.888800
42.600600 0.857600
42.655400 0.865000
42.710200 0.884500
42.765000 0.905700
42.819800 0.935000
42.874600 0.922700
42.929400 0.915800
42.984300 0.914300
43.039100 0.927000
43.093900 0.928400
43.148700 0.932500
43.203500 0.957800
43.258300 0.991900
43.313100 0.992400
43.367900 0.946800
43.422800 0.901200
43.477600 0.848200
43.532400 0.788800
43.587200 0.746000
43.642000 0.721600
43.696800 0.700800
43.751600 0.693600
43.806500 0.678700
43.861300 0.675900
43.916100 0.670900
43.970900 0.659700
44.025700 0.648200
44.080500 0.637200
44.135300 0.627400
44.190100 0.620000
44.245000 0.610600
44.299800 0.604700
44.354600 0.604500
44.409400 0.602100
44.464200 0.600600
44.519000 0.600700
44.573800 0.613200
44.628600 0.633800
44.683500 0.628900
44.738300 0.646900
44.793100 0.633000
44.847900 0.652100
44.902700 0.682100
44.957500 0.722500
45.012300 0.754500
45.067200 0.767700
45.122000 0.772300
45.176800 0.765200
45.231600 0.765900
45.286400 0.776600
45.341200 0.765600
45.396000 0.760400
45.450800 0.762800
45.505700 0.765200
45.560500 0.753000
45.615300 0.736400
45.670100 0.718700
45.724900 0.703500
45.779700 0.689400
45.834500 0.696300
45.889300 0.694700
45.944200 0.700800
45.999000 0.712800
46.053800 0.720400
46.108600 0.724800
46.163400 0.726200
46.218200 0.708000
46.273000 0.719100
46.327900 0.733400
46.382700 0.729700
46.437500 0.717800
46.492300 0.710100
46.547100 0.705200
46.601900 0.704200
46.656700 0.706900
46.711500 0.713300
46.766400 0.731500
46.821200 0.740100
46.876000 0.748500
46.930800 0.738900
46.985600 0.738000
47.040400 0.731200
47.095200 0.744100
47.150000 0.747300
47.204900 0.746000
47.259700 0.752900
47.314500 0.773700
47.369300 0.788100
47.424100 0.802900
47.478900 0.794100
47.533700 0.802500
47.588600 0.838600
47.643400 0.824400
47.698200 0.801000
47.753000 0.798400
47.807800 0.787800
47.862600 0.833900
47.917400 0.835900
47.972200 0.833900
48.027100 0.851500
48.081900 0.850700
48.136700 0.841100
48.191500 0.834900
48.246300 0.824700
48.301100 0.819700
48.355900 0.815800
48.410700 0.797900
48.465600 0.828500
48.520400 0.815100
48.575200 0.827200
48.630000 0.831400
48.684800 0.826500
48.739600 0.841100
48.794400 0.855200
48.849300 0.854700
48.904100 0.849100
48.958900 0.826600
49.013700 0.826300
49.068500 0.787000
49.123300 0.753400
49.178100 0.734300
49.232900 0.725000
49.287800 0.725600
49.342600 0.760400
49.397400 0.796600
49.452200 0.813100
49.507000 0.854800
49.561800 0.896000
49.616600 0.944800
49.671400 0.997200
49.726300 1.027500
49.781100 0.991800
49.835900 0.959700
49.890700 0.948700
49.945500 0.930000
50.000300 0.953100
50.055100 0.973400
50.110000 1.012600
50.164800 0.968400
50.219600 0.928100
50.274400 0.917700
50.329200 0.911700
50.384000 0.924800
50.438800 0.935600
50.493600 0.941700
50.548500 0.970000
50.603300 1.020300
50.658100 1.036200
50.712900 1.062000
50.767700 1.082000
50.822500 0.969600
50.877300 0.938100
50.932100 0.938100
50.987000 0.966500
51.041800 0.869100
51.096600 0.885500
51.151400 0.918900
51.206200 0.931000
51.261000 0.934300
51.315800 0.898100
51.370700 0.848600
51.425500 0.805200
51.480300 0.767800
51.535100 0.743400
51.589900 0.729800
51.644700 0.711500
51.699500 0.691700
51.754300 0.684300
51.809200 0.707100
51.864000 0.731700
51.918800 0.785900
51.973600 0.838700
52.028400 0.881100
52.083200 0.945000
52.138000 0.925600
52.192800 0.914400
52.247700 0.914500
52.302500 0.948000
52.357300 0.951300
52.412100 0.978700
52.466900 1.053700
52.521700 1.119900
52.576500 1.123400
52.631400 1.011300
52.686200 0.951600
52.741000 0.908400
52.795800 0.811900
52.850600 0.738100
52.905400 0.705000
52.960200 0.732500
53.015000 0.770600
53.069900 0.790600
53.124700 0.804100
53.179500 0.835800
53.234300 0.903000
53.289100 0.901400
53.343900 0.918400
53.398700 0.896200
53.453600 0.859400
53.508400 0.829900
53.563200 0.809800
53.618000 0.794000
53.672800 0.766900
53.727600 0.750200
53.782400 0.765900
53.837200 0.703500
53.892100 0.652900
53.946900 0.605800
54.001700 0.566500
54.056500 0.497400
54.111300 0.433900
54.166100 0.382000
54.220900 0.353500
54.275700 0.305300
54.330600 0.262600
54.385400 0.229000
54.440200 0.208500
54.495000 0.199100
54.549800 0.190300
54.604600 0.178100
54.659400 0.170700
54.714300 0.165900
54.769100 0.158300
54.823900 0.144500
54.878700 0.123900
54.933500 0.102600
54.988300 0.087000
55.043100 0.075700
55.097900 0.065900
55.152800 0.054700
55.207600 0.042600
55.262400 0.031900
55.317200 0.023500
55.372000 0.016500
55.426800 0.010300
55.481600 0.005300
55.536400 0.002500
55.591300 0.001400
55.646100 0.000700
55.700900 0.000200
55.755700 0.000000
55.810500 0.000000
55.865300 0.000000
55.920100 0.000000
55.975000 0.000000
56.029800 0.000000
56.084600 0.000000
56.139400 0.000000
56.194200 0.000000
56.249000 0.000000
56.303800 0.000000
56.358600 0.000000
56.413500 0.000000
56.468300 0.000000
56.523100 0.000000
56.577900 0.000000
56.632700 0.000000
56.687500 0.000000
56.742300 0.000000
56.797100 0.000000
56.852000 0.000000
56.906800 0.000000
56.961600 0.000000
57.016400 0.000000
57.071200 0.000000
57.126000 0.000000
57.180800 0.000000
57.235700 0.000000
57.290500 0.000000
57.345300 0.000000
57.400100 0.000000
57.454900 0.000000
57.509700 0.000000
57.564500 0.000000
57.619300 0.000000
57.674200 0.000000
57.729000 0.000000
57.783800 0.000000
57.838600 0.000000
57.893400 0.000000
57.948200 0.000000
58.003000 0.000000
58.057800 0.000000
58.112700 0.000000
58.167500 0.000000
58.222300 0.000000
58.277100 0.000000
58.331900 0.000000
58.386700 0.000000
58.441500 0.000000
58.496400 0.000000
58.551200 0.000000
58.606000 0.000000
58.660800 0.000000
58.715600 0.000000
58.770400 0.000000
58.825200 0.000000
58.880000 0.000000
58.934900 0.000000
58.989700 0.000000
59.044500 0.000000
59.099300 0.000000
59.154100 0.000000
59.208900 0.000000
59.263700 0.000000
59.318500 0.000000
59.373400 0.000000
59.428200 0.000000
59.483000 0.000000
59.537800 0.000000
59.592600 0.000000
59.647400 0.000000
59.702200 0.000000
59.757100 0.000000
59.811900 0.000000
59.866700 0.000000
59.921500 0.000000
59.976300 0.000000
60.031100 0.000000
60.085900 0.000000
60.140700 0.000000
60.195600 0.000000
60.250400 0.000000
60.305200 0.000000
60.360000 0.000000
60.414800 0.000000
60.469600 0.000000
60.524400 0.000000
60.579200 0.000000
60.634100 0.000000
60.688900 0.000000
60.743700 0.000000
60.798500 0.000000
60.853300 0.000000
60.908100 0.000000
60.962900 0.000000
61.017800 0.000000
61.072600 0.000000
61.127400 0.000000
61.182200 0.000000
61.237000 0.000000
61.291800 0.000000
61.346600 0.000000
61.401400 0.000000
61.456300 0.000000
61.511100 0.000000
61.565900 0.000000
61.620700 0.000000
61.675500 0.000000
61.730300 0.000000
e
