set title 'mp-12531 - Density of States'
set xlabel 'Energy (eV)'
set ylabel 'DOS (states/eV)'
set grid
set xrange [-10:10]
set yrange [0:8.219]
set xzeroaxis lt -1
set terminal png size 800,600
set output 'mp-12531_dos_gnuplot.png'
plot '-' using 1:2 with lines title 'DOS'
-16.931500 0.000000
-16.913500 0.000000
-16.895400 0.000000
-16.877400 0.000000
-16.859400 0.000000
-16.841400 0.000000
-16.823300 0.000000
-16.805300 0.000000
-16.787300 0.000000
-16.769200 0.000000
-16.751200 0.000000
-16.733200 0.000000
-16.715200 0.000000
-16.697100 0.000000
-16.679100 0.000000
-16.661100 0.000000
-16.643100 0.000000
-16.625000 0.000000
-16.607000 0.000000
-16.589000 0.000000
-16.570900 0.000000
-16.552900 0.000000
-16.534900 0.000000
-16.516900 0.000000
-16.498800 0.000000
-16.480800 0.000000
-16.462800 0.000000
-16.444700 0.000000
-16.426700 0.000000
-16.408700 0.000000
-16.390700 0.000000
-16.372600 0.000000
-16.354600 0.000000
-16.336600 0.000000
-16.318500 0.000000
-16.300500 0.000000
-16.282500 0.000000
-16.264500 0.000000
-16.246400 0.000000
-16.228400 0.000000
-16.210400 0.000000
-16.192400 0.000000
-16.174300 0.000000
-16.156300 0.000000
-16.138300 0.000000
-16.120200 0.000000
-16.102200 0.000000
-16.084200 0.000000
-16.066200 0.000000
-16.048100 0.000000
-16.030100 0.000000
-16.012100 0.000000
-15.994000 0.000000
-15.976000 0.000000
-15.958000 0.000000
-15.940000 0.000000
-15.921900 0.000000
-15.903900 0.000000
-15.885900 0.000000
-15.867800 0.000000
-15.849800 0.000000
-15.831800 0.000000
-15.813800 0.000000
-15.795700 0.000000
-15.777700 0.000000
-15.759700 0.000000
-15.741700 0.000000
-15.723600 0.000000
-15.705600 0.000000
-15.687600 0.000000
-15.669500 0.000000
-15.651500 0.000000
-15.633500 0.000000
-15.615500 0.000000
-15.597400 0.000000
-15.579400 0.000000
-15.561400 0.000000
-15.543300 0.000000
-15.525300 0.000000
-15.507300 0.000000
-15.489300 0.000000
-15.471200 0.000000
-15.453200 0.000000
-15.435200 0.000000
-15.417200 0.000000
-15.399100 0.000000
-15.381100 0.000000
-15.363100 0.000000
-15.345000 0.000000
-15.327000 0.000000
-15.309000 0.000000
-15.291000 190.320700
-15.272900 517.334600
-15.254900 421.026900
-15.236900 160.859000
-15.218800 200.307400
-15.200800 27.955900
-15.182800 240.252600
-15.164800 74.909300
-15.146700 0.000000
-15.128700 0.000000
-15.110700 0.000000
-15.092600 0.000000
-15.074600 0.000000
-15.056600 0.000000
-15.038600 0.000000
-15.020500 0.000000
-15.002500 0.000000
-14.984500 0.000000
-14.966500 0.000000
-14.948400 0.000000
-14.930400 0.000000
-14.912400 0.000000
-14.894300 0.000000
-14.876300 0.000000
-14.858300 0.000000
-14.840300 0.000000
-14.822200 0.000000
-14.804200 0.000000
-14.786200 0.000000
-14.768100 0.000000
-14.750100 0.000000
-14.732100 0.000000
-14.714100 0.000000
-14.696000 0.000000
-14.678000 0.000000
-14.660000 0.000000
-14.641900 0.000000
-14.623900 0.000000
-14.605900 0.000000
-14.587900 0.000000
-14.569800 0.000000
-14.551800 0.000000
-14.533800 0.000000
-14.515800 0.000000
-14.497700 0.000000
-14.479700 0.000000
-14.461700 0.000000
-14.443600 0.000000
-14.425600 0.000000
-14.407600 0.000000
-14.389600 0.000000
-14.371500 0.000000
-14.353500 0.000000
-14.335500 0.000000
-14.317400 0.000000
-14.299400 0.000000
-14.281400 0.000000
-14.263400 0.000000
-14.245300 0.000000
-14.227300 0.000000
-14.209300 0.000000
-14.191200 0.000000
-14.173200 0.000000
-14.155200 0.000000
-14.137200 0.000000
-14.119100 0.000000
-14.101100 0.000000
-14.083100 0.000000
-14.065100 0.000000
-14.047000 0.000000
-14.029000 0.000000
-14.011000 0.000000
-13.992900 0.000000
-13.974900 0.000000
-13.956900 0.000000
-13.938900 0.000000
-13.920800 0.000000
-13.902800 0.000000
-13.884800 0.000000
-13.866700 0.000000
-13.848700 0.000000
-13.830700 0.000000
-13.812700 0.000000
-13.794600 0.000000
-13.776600 0.000000
-13.758600 0.000000
-13.740500 0.000000
-13.722500 0.000000
-13.704500 0.000000
-13.686500 0.000000
-13.668400 0.000000
-13.650400 0.000000
-13.632400 0.000000
-13.614400 0.000000
-13.596300 0.000000
-13.578300 0.000000
-13.560300 0.000000
-13.542200 0.000000
-13.524200 0.000000
-13.506200 0.000000
-13.488200 0.000000
-13.470100 0.000000
-13.452100 0.000000
-13.434100 0.000000
-13.416000 0.000000
-13.398000 0.000000
-13.380000 0.000000
-13.362000 0.000000
-13.343900 0.000000
-13.325900 0.000000
-13.307900 0.000000
-13.289900 0.000000
-13.271800 0.000000
-13.253800 0.000000
-13.235800 0.000000
-13.217700 0.000000
-13.199700 0.000000
-13.181700 0.000000
-13.163700 0.000000
-13.145600 0.000000
-13.127600 0.000000
-13.109600 0.000000
-13.091500 0.000000
-13.073500 0.000000
-13.055500 0.000000
-13.037500 0.000000
-13.019400 0.000000
-13.001400 0.000000
-12.983400 0.000000
-12.965300 0.000000
-12.947300 0.000000
-12.929300 0.000000
-12.911300 0.000000
-12.893200 0.000000
-12.875200 0.000000
-12.857200 0.000000
-12.839200 0.000000
-12.821100 0.000000
-12.803100 0.000000
-12.785100 0.000000
-12.767000 0.000000
-12.749000 0.000000
-12.731000 0.000000
-12.713000 0.000000
-12.694900 0.000000
-12.676900 0.000000
-12.658900 0.000000
-12.640800 0.000000
-12.622800 0.000000
-12.604800 0.000000
-12.586800 0.000000
-12.568700 0.000000
-12.550700 0.000000
-12.532700 0.000000
-12.514600 0.000000
-12.496600 0.000000
-12.478600 0.000000
-12.460600 0.000000
-12.442500 0.000000
-12.424500 0.000000
-12.406500 0.000000
-12.388500 0.000000
-12.370400 0.000000
-12.352400 0.000000
-12.334400 0.000000
-12.316300 0.000000
-12.298300 0.000000
-12.280300 0.000000
-12.262300 0.000000
-12.244200 0.000000
-12.226200 0.000000
-12.208200 0.000000
-12.190100 0.000000
-12.172100 0.000000
-12.154100 0.000000
-12.136100 0.000000
-12.118000 0.000000
-12.100000 0.000000
-12.082000 0.000000
-12.063900 0.000000
-12.045900 0.000000
-12.027900 0.000000
-12.009900 0.000000
-11.991800 0.000000
-11.973800 0.000000
-11.955800 0.000000
-11.937800 0.000000
-11.919700 0.000000
-11.901700 0.000000
-11.883700 0.000000
-11.865600 0.000000
-11.847600 0.000000
-11.829600 0.000000
-11.811600 0.000000
-11.793500 0.000000
-11.775500 0.000000
-11.757500 0.000000
-11.739400 0.000000
-11.721400 0.000000
-11.703400 0.000000
-11.685400 0.000000
-11.667300 0.000000
-11.649300 0.000000
-11.631300 0.000000
-11.613200 0.000000
-11.595200 0.000000
-11.577200 0.000000
-11.559200 0.000000
-11.541100 0.000000
-11.523100 0.000000
-11.505100 0.000000
-11.487100 0.000000
-11.469000 0.000000
-11.451000 0.000000
-11.433000 0.000000
-11.414900 0.000000
-11.396900 0.000000
-11.378900 0.000000
-11.360900 0.000000
-11.342800 0.000000
-11.324800 0.000000
-11.306800 0.000000
-11.288700 0.000000
-11.270700 0.000000
-11.252700 0.000000
-11.234700 0.000000
-11.216600 0.000000
-11.198600 0.000000
-11.180600 0.000000
-11.162600 0.000000
-11.144500 0.000000
-11.126500 0.000000
-11.108500 0.000000
-11.090400 0.000000
-11.072400 0.000000
-11.054400 0.000000
-11.036400 0.000000
-11.018300 0.000000
-11.000300 0.000000
-10.982300 0.000000
-10.964200 0.000000
-10.946200 0.000000
-10.928200 0.000000
-10.910200 0.000000
-10.892100 0.000000
-10.874100 0.000000
-10.856100 0.000000
-10.838000 0.000000
-10.820000 0.000000
-10.802000 0.000000
-10.784000 0.000000
-10.765900 0.000000
-10.747900 0.000000
-10.729900 0.000000
-10.711900 0.000000
-10.693800 0.000000
-10.675800 0.000000
-10.657800 0.000000
-10.639700 0.000000
-10.621700 0.000000
-10.603700 0.000000
-10.585700 0.000000
-10.567600 0.000000
-10.549600 0.000000
-10.531600 0.000000
-10.513500 0.000000
-10.495500 0.000000
-10.477500 0.000000
-10.459500 0.000000
-10.441400 0.000000
-10.423400 0.000000
-10.405400 0.000000
-10.387300 0.000000
-10.369300 0.000000
-10.351300 0.000000
-10.333300 0.000000
-10.315200 0.000000
-10.297200 0.000000
-10.279200 0.000000
-10.261200 0.000000
-10.243100 0.000000
-10.225100 0.000000
-10.207100 0.000000
-10.189000 0.000000
-10.171000 0.000000
-10.153000 0.000000
-10.135000 0.000000
-10.116900 0.000000
-10.098900 0.000000
-10.080900 0.000000
-10.062800 0.000000
-10.044800 0.000000
-10.026800 0.000000
-10.008800 0.000000
-9.990700 0.000000
-9.972700 0.000000
-9.954700 0.000000
-9.936600 0.000000
-9.918600 0.000000
-9.900600 0.000000
-9.882600 0.000000
-9.864500 0.000000
-9.846500 0.000000
-9.828500 0.000000
-9.810500 0.000000
-9.792400 0.000000
-9.774400 0.000000
-9.756400 0.000000
-9.738300 0.000000
-9.720300 0.000000
-9.702300 0.000000
-9.684300 0.000000
-9.666200 0.000000
-9.648200 0.000000
-9.630200 0.000000
-9.612100 0.000000
-9.594100 0.000000
-9.576100 0.000000
-9.558100 0.000000
-9.540000 0.000000
-9.522000 0.000000
-9.504000 0.000000
-9.485900 0.000000
-9.467900 0.000000
-9.449900 0.000000
-9.431900 0.000000
-9.413800 0.000000
-9.395800 0.000000
-9.377800 0.000000
-9.359800 0.000000
-9.341700 0.000000
-9.323700 0.000000
-9.305700 0.000000
-9.287600 0.000000
-9.269600 0.000000
-9.251600 0.000000
-9.233600 0.000000
-9.215500 0.000000
-9.197500 0.000000
-9.179500 0.000000
-9.161400 0.000000
-9.143400 0.000000
-9.125400 0.000000
-9.107400 0.000000
-9.089300 0.000000
-9.071300 0.000000
-9.053300 0.000000
-9.035200 0.000000
-9.017200 0.000000
-8.999200 0.000000
-8.981200 0.000000
-8.963100 0.000000
-8.945100 0.000000
-8.927100 0.000000
-8.909100 0.000000
-8.891000 0.000000
-8.873000 0.000000
-8.855000 0.000000
-8.836900 0.000000
-8.818900 0.000000
-8.800900 0.000000
-8.782900 0.000000
-8.764800 0.000000
-8.746800 0.000000
-8.728800 0.000000
-8.710700 0.000000
-8.692700 0.000000
-8.674700 0.000000
-8.656700 0.000000
-8.638600 0.000000
-8.620600 0.000000
-8.602600 0.000000
-8.584600 0.000000
-8.566500 0.000000
-8.548500 0.000000
-8.530500 0.000000
-8.512400 0.000000
-8.494400 0.000000
-8.476400 0.000000
-8.458400 0.000000
-8.440300 0.000000
-8.422300 0.000000
-8.404300 0.000000
-8.386200 0.000000
-8.368200 0.000000
-8.350200 0.000000
-8.332200 0.000000
-8.314100 0.000000
-8.296100 0.000000
-8.278100 0.000000
-8.260000 0.000000
-8.242000 0.000000
-8.224000 0.000000
-8.206000 0.000000
-8.187900 0.000000
-8.169900 0.000000
-8.151900 0.000000
-8.133900 0.000000
-8.115800 0.000000
-8.097800 0.000000
-8.079800 0.000000
-8.061700 0.000000
-8.043700 0.000000
-8.025700 0.000000
-8.007700 0.000000
-7.989600 0.000000
-7.971600 0.000000
-7.953600 0.000000
-7.935500 0.000000
-7.917500 0.000000
-7.899500 0.000000
-7.881500 0.000000
-7.863400 0.000000
-7.845400 0.000000
-7.827400 0.000000
-7.809300 0.000000
-7.791300 0.000000
-7.773300 0.000000
-7.755300 0.000000
-7.737200 0.000000
-7.719200 0.000000
-7.701200 0.000000
-7.683200 0.000000
-7.665100 0.000000
-7.647100 0.000000
-7.629100 0.000000
-7.611000 0.000000
-7.593000 0.000000
-7.575000 0.000000
-7.557000 0.000000
-7.538900 0.000000
-7.520900 0.000000
-7.502900 0.000000
-7.484800 0.000000
-7.466800 0.000000
-7.448800 0.000000
-7.430800 0.000000
-7.412700 0.000000
-7.394700 0.000000
-7.376700 0.000000
-7.358600 0.000000
-7.340600 0.000000
-7.322600 0.000000
-7.304600 0.000000
-7.286500 0.000000
-7.268500 0.000000
-7.250500 0.000000
-7.232500 0.000000
-7.214400 0.000000
-7.196400 0.000000
-7.178400 0.000000
-7.160300 0.000000
-7.142300 0.000000
-7.124300 0.000000
-7.106300 0.000000
-7.088200 0.000000
-7.070200 0.000000
-7.052200 0.000000
-7.034100 0.000000
-7.016100 0.000000
-6.998100 0.000000
-6.980100 0.000000
-6.962000 0.000000
-6.944000 0.000000
-6.926000 0.000000
-6.907900 0.000000
-6.889900 0.000000
-6.871900 0.000000
-6.853900 0.000000
-6.835800 0.000000
-6.817800 0.000000
-6.799800 0.000000
-6.781800 0.000000
-6.763700 0.000000
-6.745700 0.000000
-6.727700 0.000000
-6.709600 0.000000
-6.691600 0.000000
-6.673600 0.000000
-6.655600 0.000000
-6.637500 0.000000
-6.619500 0.000000
-6.601500 0.000000
-6.583400 0.000000
-6.565400 0.000000
-6.547400 0.000000
-6.529400 0.000000
-6.511300 0.000000
-6.493300 0.000000
-6.475300 0.000000
-6.457300 0.000000
-6.439200 0.000000
-6.421200 0.000000
-6.403200 0.000000
-6.385100 0.000000
-6.367100 0.000000
-6.349100 0.000000
-6.331100 0.000000
-6.313000 0.000000
-6.295000 0.000000
-6.277000 0.000000
-6.258900 0.000000
-6.240900 0.000000
-6.222900 0.031900
-6.204900 0.219700
-6.186800 0.438500
-6.168800 0.487800
-6.150800 0.642300
-6.132700 0.774000
-6.114700 0.713900
-6.096700 0.752800
-6.078700 0.768700
-6.060600 0.767700
-6.042600 0.763000
-6.024600 0.751400
-6.006600 0.739100
-5.988500 0.740200
-5.970500 0.755900
-5.952500 0.772100
-5.934400 0.788400
-5.916400 0.784500
-5.898400 0.783600
-5.880400 0.779200
-5.862300 0.826000
-5.844300 0.955900
-5.826300 1.001100
-5.808200 1.038400
-5.790200 1.090700
-5.772200 1.148500
-5.754200 1.209800
-5.736100 1.266200
-5.718100 1.318100
-5.700100 1.368100
-5.682000 1.417400
-5.664000 1.476700
-5.646000 1.543100
-5.628000 1.596100
-5.609900 1.589400
-5.591900 1.600300
-5.573900 1.619300
-5.555900 1.631100
-5.537800 1.633800
-5.519800 1.626700
-5.501800 1.628500
-5.483700 1.643200
-5.465700 1.659200
-5.447700 1.674400
-5.429700 1.684300
-5.411600 1.693500
-5.393600 1.695100
-5.375600 1.690100
-5.357500 1.701900
-5.339500 1.758000
-5.321500 1.851300
-5.303500 1.918000
-5.285400 1.989600
-5.267400 2.063200
-5.249400 2.132900
-5.231300 2.207400
-5.213300 2.276200
-5.195300 2.342500
-5.177300 2.411000
-5.159200 2.532400
-5.141200 2.709800
-5.123200 2.672700
-5.105200 2.714200
-5.087100 2.754900
-5.069100 2.785400
-5.051100 2.801400
-5.033000 2.806300
-5.015000 2.822600
-4.997000 2.853600
-4.979000 2.885000
-4.960900 2.915700
-4.942900 2.942500
-4.924900 2.966900
-4.906800 2.986200
-4.888800 3.013700
-4.870800 3.044200
-4.852800 3.076000
-4.834700 3.114500
-4.816700 3.155500
-4.798700 3.204400
-4.780600 3.257500
-4.762600 3.314200
-4.744600 3.371600
-4.726600 3.428100
-4.708500 3.491100
-4.690500 3.558400
-4.672500 3.629000
-4.654500 3.707700
-4.636400 3.800500
-4.618400 3.909900
-4.600400 4.029700
-4.582300 4.152200
-4.564300 4.281200
-4.546300 4.643700
-4.528300 4.951100
-4.510200 4.844700
-4.492200 4.690300
-4.474200 5.039200
-4.456100 5.583600
-4.438100 4.883100
-4.420100 4.989100
-4.402100 5.252300
-4.384000 5.582100
-4.366000 5.500300
-4.348000 5.589400
-4.330000 5.402100
-4.311900 5.152100
-4.293900 5.271600
-4.275900 5.334800
-4.257800 5.570700
-4.239800 5.833300
-4.221800 6.951400
-4.203800 6.950200
-4.185700 7.472100
-4.167700 5.798400
-4.149700 5.271700
-4.131600 4.747200
-4.113600 4.480900
-4.095600 3.343400
-4.077600 3.484600
-4.059500 4.299400
-4.041500 0.385900
-4.023500 0.000000
-4.005400 0.000000
-3.987400 0.000000
-3.969400 0.000000
-3.951400 0.000000
-3.933300 0.000000
-3.915300 0.000000
-3.897300 0.000000
-3.879300 0.000000
-3.861200 0.000000
-3.843200 0.000000
-3.825200 0.000000
-3.807100 0.000000
-3.789100 0.000000
-3.771100 0.000000
-3.753100 0.000000
-3.735000 0.000000
-3.717000 0.000000
-3.699000 0.000000
-3.680900 0.000000
-3.662900 0.000000
-3.644900 0.000000
-3.626900 0.000000
-3.608800 0.000000
-3.590800 0.000000
-3.572800 0.000000
-3.554700 0.000000
-3.536700 0.000000
-3.518700 0.000000
-3.500700 0.000000
-3.482600 0.000000
-3.464600 0.000000
-3.446600 0.000000
-3.428600 0.000000
-3.410500 0.000000
-3.392500 0.000000
-3.374500 0.000000
-3.356400 0.000000
-3.338400 0.000000
-3.320400 0.000000
-3.302400 0.000000
-3.284300 0.000000
-3.266300 0.000000
-3.248300 0.000000
-3.230200 0.000000
-3.212200 0.000000
-3.194200 0.000000
-3.176200 0.000000
-3.158100 0.000000
-3.140100 0.000000
-3.122100 0.000000
-3.104000 0.000000
-3.086000 0.000000
-3.068000 0.000000
-3.050000 0.000000
-3.031900 0.000000
-3.013900 0.000000
-2.995900 0.000000
-2.977900 0.000000
-2.959800 0.000000
-2.941800 0.000000
-2.923800 0.000000
-2.905700 0.000000
-2.887700 0.000000
-2.869700 0.000000
-2.851700 0.000000
-2.833600 0.000000
-2.815600 0.000000
-2.797600 0.000000
-2.779500 0.000000
-2.761500 0.000000
-2.743500 0.000000
-2.725500 0.000000
-2.707400 0.000000
-2.689400 0.000000
-2.671400 0.000000
-2.653300 0.000000
-2.635300 0.000000
-2.617300 0.000000
-2.599300 0.000000
-2.581200 0.000000
-2.563200 0.000000
-2.545200 0.000000
-2.527200 0.000000
-2.509100 0.000000
-2.491100 0.000000
-2.473100 0.000000
-2.455000 0.000000
-2.437000 0.000000
-2.419000 0.000000
-2.401000 0.000000
-2.382900 0.000000
-2.364900 0.000000
-2.346900 0.000000
-2.328800 0.000000
-2.310800 0.000000
-2.292800 0.000000
-2.274800 0.000000
-2.256700 0.000000
-2.238700 0.000000
-2.220700 0.000000
-2.202700 0.000000
-2.184600 0.000000
-2.166600 0.000000
-2.148600 0.000000
-2.130500 0.000000
-2.112500 0.073000
-2.094500 0.162500
-2.076500 0.179200
-2.058400 0.198700
-2.040400 0.224300
-2.022400 0.249200
-2.004300 0.276100
-1.986300 0.302900
-1.968300 0.321000
-1.950300 0.343000
-1.932200 0.366400
-1.914200 0.390800
-1.896200 0.415500
-1.878100 0.436100
-1.860100 0.452500
-1.842100 0.470800
-1.824100 0.489800
-1.806000 0.505000
-1.788000 1.041200
-1.770000 0.972800
-1.752000 1.080100
-1.733900 1.198100
-1.715900 1.321600
-1.697900 1.473000
-1.679800 1.647200
-1.661800 1.844200
-1.643800 1.976000
-1.625800 2.013100
-1.607700 2.037100
-1.589700 2.092600
-1.571700 2.147300
-1.553600 2.183500
-1.535600 2.214800
-1.517600 2.303200
-1.499600 2.391900
-1.481500 2.499400
-1.463500 2.616400
-1.445500 2.811100
-1.427400 2.985600
-1.409400 3.122400
-1.391400 3.273300
-1.373400 3.440700
-1.355300 3.622300
-1.337300 3.821100
-1.319300 4.045600
-1.301300 4.456600
-1.283200 5.225700
-1.265200 5.802400
-1.247200 5.845900
-1.229100 5.758600
-1.211100 5.588200
-1.193100 5.430400
-1.175100 5.170400
-1.157000 4.963700
-1.139000 6.259600
-1.121000 4.696400
-1.102900 2.772800
-1.084900 2.242200
-1.066900 2.388200
-1.048900 2.615200
-1.030800 2.770500
-1.012800 3.125100
-0.994800 3.314600
-0.976700 3.320400
-0.958700 3.360900
-0.940700 3.368300
-0.922700 3.290300
-0.904600 2.607300
-0.886600 2.384100
-0.868600 2.474400
-0.850600 2.637500
-0.832500 2.828400
-0.814500 3.106700
-0.796500 3.688800
-0.778400 3.996500
-0.760400 4.279500
-0.742400 4.316000
-0.724400 4.248000
-0.706300 4.290600
-0.688300 4.332200
-0.670300 4.405800
-0.652200 4.299100
-0.634200 4.045900
-0.616200 3.867500
-0.598200 3.740600
-0.580100 3.691500
-0.562100 3.631900
-0.544100 3.592900
-0.526000 3.441000
-0.508000 3.258900
-0.490000 3.187800
-0.472000 3.187900
-0.453900 3.205600
-0.435900 3.187800
-0.417900 3.163200
-0.399900 3.148700
-0.381800 3.146400
-0.363800 3.159100
-0.345800 3.192800
-0.327700 3.248200
-0.309700 3.245900
-0.291700 3.187600
-0.273700 3.117200
-0.255600 3.071400
-0.237600 3.036800
-0.219600 3.072500
-0.201500 3.065500
-0.183500 3.031200
-0.165500 3.206000
-0.147500 2.906100
-0.129400 2.656000
-0.111400 2.407400
-0.093400 2.219600
-0.075400 2.067600
-0.057300 1.936200
-0.039300 1.825200
-0.021300 1.744300
-0.003200 1.710200
0.014800 1.744500
0.032800 1.809100
0.050800 1.857700
0.068900 1.793400
0.086900 1.787100
0.104900 1.791900
0.123000 1.810400
0.141000 1.849800
0.159000 1.914600
0.177000 1.981300
0.195100 2.059100
0.213100 2.189300
0.231100 2.297600
0.249200 2.278400
0.267200 2.223400
0.285200 2.214800
0.303200 2.184200
0.321300 2.160600
0.339300 2.143100
0.357300 2.164400
0.375300 2.192000
0.393400 2.272900
0.411400 2.337800
0.429400 2.372100
0.447500 2.343200
0.465500 2.281200
0.483500 2.190200
0.501500 2.074400
0.519600 1.930100
0.537600 1.831200
0.555600 1.774100
0.573700 1.756400
0.591700 1.634100
0.609700 1.536000
0.627700 1.440500
0.645800 1.358300
0.663800 1.279600
0.681800 1.209700
0.699900 1.156200
0.717900 1.108500
0.735900 1.063400
0.753900 0.945900
0.772000 0.912500
0.790000 0.887900
0.808000 0.869600
0.826000 0.851900
0.844100 0.834800
0.862100 0.819200
0.880100 0.805100
0.898200 0.792400
0.916200 0.781200
0.934200 0.770700
0.952200 0.760900
0.970300 0.750300
0.988300 0.735700
1.006300 0.720200
1.024400 0.704400
1.042400 0.689500
1.060400 0.675000
1.078400 0.660800
1.096500 0.647000
1.114500 0.633800
1.132500 0.620800
1.150600 0.608800
1.168600 0.597600
1.186600 0.586700
1.204600 0.574800
1.222700 0.562600
1.240700 0.551900
1.258700 0.542300
1.276700 0.533000
1.294800 0.523800
1.312800 0.514700
1.330800 0.505700
1.348900 0.496800
1.366900 0.488000
1.384900 0.479400
1.402900 0.471200
1.421000 0.466700
1.439000 0.517800
1.457000 0.652700
1.475100 0.873300
1.493100 1.153200
1.511100 1.283400
1.529100 1.442500
1.547200 1.727100
1.565200 1.769700
1.583200 1.799200
1.601300 1.873300
1.619300 1.960800
1.637300 2.057100
1.655300 2.265100
1.673400 2.332600
1.691400 2.386800
1.709400 2.421600
1.727400 2.447200
1.745500 2.469000
1.763500 2.479900
1.781500 2.521900
1.799600 2.566400
1.817600 2.604500
1.835600 2.676900
1.853600 2.759700
1.871700 2.770500
1.889700 2.571500
1.907700 2.419600
1.925800 2.258700
1.943800 2.123400
1.961800 2.045800
1.979800 2.016400
1.997900 1.985900
2.015900 1.958300
2.033900 1.932400
2.051900 1.944600
2.070000 1.980600
2.088000 2.050200
2.106000 2.151400
2.124100 2.188400
2.142100 2.152800
2.160100 2.125300
2.178100 2.137200
2.196200 2.173800
2.214200 2.241000
2.232200 2.312900
2.250300 2.426400
2.268300 2.557800
2.286300 2.621600
2.304300 2.695200
2.322400 2.760200
2.340400 2.813500
2.358400 2.841800
2.376500 2.838700
2.394500 2.876000
2.412500 2.853600
2.430500 2.812900
2.448600 2.783200
2.466600 2.756800
2.484600 2.779000
2.502600 2.841700
2.520700 2.919800
2.538700 2.984900
2.556700 3.029200
2.574800 3.039800
2.592800 3.023200
2.610800 2.993800
2.628800 3.006100
2.646900 2.979600
2.664900 2.957800
2.682900 2.950200
2.701000 2.965500
2.719000 3.023100
2.737000 3.017100
2.755000 3.036000
2.773100 3.137500
2.791100 3.243400
2.809100 3.313800
2.827200 3.375900
2.845200 3.435500
2.863200 3.478600
2.881200 3.506000
2.899300 3.510800
2.917300 3.569800
2.935300 3.596300
2.953300 3.643000
2.971400 3.634500
2.989400 3.524800
3.007400 3.501200
3.025500 3.517100
3.043500 3.517800
3.061500 3.498800
3.079500 3.468800
3.097600 3.356300
3.115600 3.336100
3.133600 3.328200
3.151700 3.323600
3.169700 3.345000
3.187700 3.443300
3.205700 3.585200
3.223800 3.727500
3.241800 3.868700
3.259800 3.999200
3.277900 4.121300
3.295900 4.268100
3.313900 4.435400
3.331900 4.618600
3.350000 5.020400
3.368000 4.980900
3.386000 4.924300
3.404000 4.824000
3.422100 4.736500
3.440100 4.617700
3.458100 4.649300
3.476200 4.378200
3.494200 4.440800
3.512200 4.610800
3.530200 4.831800
3.548300 4.839800
3.566300 4.775200
3.584300 4.779500
3.602400 4.777000
3.620400 4.759900
3.638400 4.654000
3.656400 4.660200
3.674500 4.855900
3.692500 5.047200
3.710500 5.087500
3.728600 5.132000
3.746600 5.123000
3.764600 5.045100
3.782600 4.956200
3.800700 4.767100
3.818700 4.606900
3.836700 4.388000
3.854700 4.235800
3.872800 4.127400
3.890800 4.068400
3.908800 4.114800
3.926900 4.217700
3.944900 4.352100
3.962900 4.483300
3.980900 4.608100
3.999000 4.769000
4.017000 4.743600
4.035000 4.755800
4.053100 4.796100
4.071100 4.870600
4.089100 4.829600
4.107100 4.868000
4.125200 4.899000
4.143200 4.917200
4.161200 4.980300
4.179200 5.026300
4.197300 5.094800
4.215300 5.121100
4.233300 5.116100
4.251400 5.047200
4.269400 4.980600
4.287400 4.914400
4.305400 4.873500
4.323500 4.871300
4.341500 4.969000
4.359500 5.004100
4.377600 4.986000
4.395600 4.916200
4.413600 4.887700
4.431600 4.866400
4.449700 4.863800
4.467700 4.839500
4.485700 4.820000
4.503800 4.801000
4.521800 4.820300
4.539800 4.870600
4.557800 4.903900
4.575900 4.931400
4.593900 4.744600
4.611900 4.619200
4.629900 4.531700
4.648000 4.373300
4.666000 4.237700
4.684000 4.102900
4.702100 4.009900
4.720100 4.023700
4.738100 3.987500
4.756100 3.949100
4.774200 3.950700
4.792200 3.968400
4.810200 4.001300
4.828300 4.018800
4.846300 4.294300
4.864300 4.305900
4.882300 4.394800
4.900400 4.466300
4.918400 4.592900
4.936400 4.688900
4.954500 4.926900
4.972500 5.236400
4.990500 5.195400
5.008500 5.087600
5.026600 5.129800
5.044600 5.096700
5.062600 5.031000
5.080600 4.935300
5.098700 4.738600
5.116700 4.561200
5.134700 4.366000
5.152800 4.240100
5.170800 4.136500
5.188800 4.047500
5.206800 3.991800
5.224900 3.940300
5.242900 3.902200
5.260900 3.819500
5.279000 3.690900
5.297000 3.632400
5.315000 3.628600
5.333000 3.623900
5.351100 3.582300
5.369100 3.549900
5.387100 3.820000
5.405200 4.236000
5.423200 3.650500
5.441200 3.207300
5.459200 3.091900
5.477300 3.048000
5.495300 3.073600
5.513300 3.157500
5.531300 3.262500
5.549400 3.386900
5.567400 3.410000
5.585400 3.429100
5.603500 3.495300
5.621500 3.581000
5.639500 3.649000
5.657500 3.623300
5.675600 3.421000
5.693600 3.363700
5.711600 3.318500
5.729700 3.293200
5.747700 3.320000
5.765700 3.339600
5.783700 3.353800
5.801800 3.495000
5.819800 3.468300
5.837800 3.526500
5.855900 3.557100
5.873900 3.620500
5.891900 3.552500
5.909900 3.517500
5.928000 3.527400
5.946000 3.549800
5.964000 3.704700
5.982000 3.535600
6.000100 3.162300
6.018100 2.942800
6.036100 2.829200
6.054200 2.727800
6.072200 2.629800
6.090200 2.512700
6.108200 2.412300
6.126300 2.353000
6.144300 2.325800
6.162300 2.300800
6.180400 2.249200
6.198400 2.167400
6.216400 2.107600
6.234400 2.044500
6.252500 1.977100
6.270500 1.893600
6.288500 1.788600
6.306500 1.718100
6.324600 1.668500
6.342600 1.624800
6.360600 1.586000
6.378700 1.575200
6.396700 1.594900
6.414700 1.642800
6.432700 1.637200
6.450800 1.649300
6.468800 1.644800
6.486800 1.636000
6.504900 1.653400
6.522900 1.681800
6.540900 1.755500
6.558900 1.792800
6.577000 1.761800
6.595000 1.722600
6.613000 1.672900
6.631100 1.643500
6.649100 1.679400
6.667100 1.711700
6.685100 1.839200
6.703200 1.850600
6.721200 1.878100
6.739200 1.880500
6.757200 1.793400
6.775300 1.676400
6.793300 1.630600
6.811300 1.705200
6.829400 1.845200
6.847400 1.971500
6.865400 1.903400
6.883400 1.853900
6.901500 1.851100
6.919500 1.875200
6.937500 1.929700
6.955600 1.932400
6.973600 1.875600
6.991600 1.841800
7.009600 1.817300
7.027700 1.806000
7.045700 1.829200
7.063700 1.966700
7.081800 1.988900
7.099800 2.077300
7.117800 2.372200
7.135800 2.386800
7.153900 2.428400
7.171900 2.523500
7.189900 2.612100
7.207900 2.696200
7.226000 2.788300
7.244000 2.884500
7.262000 2.975400
7.280100 3.069900
7.298100 3.161000
7.316100 3.284200
7.334100 3.504700
7.352200 3.965700
7.370200 4.290000
7.388200 4.320000
7.406300 4.169100
7.424300 4.073800
7.442300 3.981600
7.460300 4.035700
7.478400 4.220200
7.496400 4.707500
7.514400 4.833300
7.532500 4.967400
7.550500 5.018100
7.568500 5.030900
7.586500 5.016400
7.604600 4.954100
7.622600 4.757500
7.640600 4.610700
7.658600 4.534600
7.676700 4.569500
7.694700 4.765100
7.712700 4.871700
7.730800 4.977000
7.748800 5.048000
7.766800 5.041200
7.784800 5.046100
7.802900 5.055900
7.820900 5.026100
7.838900 4.998500
7.857000 5.008700
7.875000 4.945100
7.893000 4.868600
7.911000 4.751600
7.929100 4.655300
7.947100 4.575400
7.965100 4.529200
7.983200 4.460300
8.001200 4.419400
8.019200 4.378700
8.037200 4.348600
8.055300 4.323300
8.073300 4.296300
8.091300 4.279600
8.109300 4.286600
8.127400 4.319600
8.145400 4.326000
8.163400 4.472700
8.181500 4.437100
8.199500 4.423800
8.217500 4.200500
8.235500 3.873600
8.253600 3.681300
8.271600 3.556000
8.289600 3.482800
8.307700 3.385100
8.325700 3.283400
8.343700 3.126100
8.361700 2.811100
8.379800 2.681100
8.397800 2.550000
8.415800 2.300200
8.433800 2.090600
8.451900 1.938100
8.469900 1.829600
8.487900 1.762900
8.506000 1.746900
8.524000 1.823000
8.542000 1.957600
8.560000 2.101500
8.578100 2.249400
8.596100 2.388200
8.614100 2.484800
8.632200 2.553700
8.650200 2.653400
8.668200 2.757800
8.686200 2.888400
8.704300 3.003900
8.722300 3.134000
8.740300 3.317100
8.758400 3.547500
8.776400 3.762500
8.794400 3.881700
8.812400 3.967500
8.830500 4.076000
8.848500 4.178600
8.866500 4.380700
8.884500 4.495500
8.902600 4.478600
8.920600 4.406700
8.938600 4.244900
8.956700 4.110900
8.974700 4.114600
8.992700 4.141800
9.010700 4.205700
9.028800 4.209600
9.046800 4.201200
9.064800 4.205600
9.082900 4.230100
9.100900 4.285000
9.118900 4.289300
9.136900 4.356100
9.155000 4.347400
9.173000 4.352800
9.191000 4.373000
9.209100 4.406500
9.227100 4.671300
9.245100 4.334300
9.263100 4.303000
9.281200 4.325000
9.299200 4.403100
9.317200 4.497400
9.335200 4.531600
9.353300 4.545300
9.371300 4.562100
9.389300 4.539200
9.407400 4.518800
9.425400 4.512200
9.443400 4.503900
9.461400 4.495100
9.479500 4.496100
9.497500 4.537500
9.515500 4.529800
9.533600 4.464700
9.551600 4.332100
9.569600 4.211700
9.587600 4.189700
9.605700 4.143200
9.623700 4.135900
9.641700 4.138300
9.659800 4.130400
9.677800 4.113800
9.695800 4.100800
9.713800 4.136300
9.731900 4.174900
9.749900 4.213200
9.767900 4.233800
9.785900 4.308300
9.804000 4.348700
9.822000 4.555800
9.840000 4.330400
9.858100 4.310000
9.876100 4.379900
9.894100 4.447200
9.912100 4.541800
9.930200 4.581400
9.948200 4.615300
9.966200 4.598400
9.984300 4.532600
10.002300 4.396200
10.020300 4.336100
10.038300 4.327900
10.056400 4.368000
10.074400 4.367000
10.092400 4.380100
10.110500 4.476000
10.128500 4.581800
10.146500 4.628800
10.164500 4.670800
10.182600 4.698100
10.200600 4.839600
10.218600 4.966500
10.236600 5.092800
10.254700 5.297200
10.272700 5.320600
10.290700 5.386300
10.308800 5.512300
10.326800 5.610200
10.344800 5.598800
10.362800 5.666400
10.380900 5.775600
10.398900 5.922200
10.416900 6.036100
10.435000 5.810600
10.453000 5.139700
10.471000 4.642700
10.489000 4.283000
10.507100 4.123200
10.525100 4.086500
10.543100 4.112800
10.561200 4.164300
10.579200 4.245300
10.597200 4.310200
10.615200 4.395300
10.633300 4.414400
10.651300 4.495500
10.669300 4.549000
10.687300 4.508200
10.705400 4.447700
10.723400 4.430400
10.741400 4.281300
10.759500 4.216200
10.777500 4.077800
10.795500 4.093100
10.813500 4.089200
10.831600 4.181900
10.849600 4.426000
10.867600 4.452100
10.885700 4.414000
10.903700 4.378500
10.921700 4.380300
10.939700 4.371600
10.957800 4.400200
10.975800 4.416800
10.993800 4.451400
11.011800 4.489000
11.029900 4.519500
11.047900 4.598500
11.065900 4.823000
11.084000 4.782900
11.102000 4.412300
11.120000 4.351500
11.138000 4.409000
11.156100 4.571700
11.174100 4.698200
11.192100 4.885600
11.210200 5.000900
11.228200 5.031300
11.246200 4.999700
11.264200 5.046400
11.282300 5.270700
11.300300 5.208100
11.318300 5.257400
11.336400 5.012600
11.354400 4.946700
11.372400 4.948000
11.390400 4.957800
11.408500 4.972000
11.426500 5.026900
11.444500 5.130300
11.462500 5.203800
11.480600 5.303600
11.498600 5.331300
11.516600 5.058700
11.534700 4.928000
11.552700 4.815900
11.570700 4.647500
11.588700 4.389300
11.606800 4.240500
11.624800 4.139500
11.642800 4.082100
11.660900 3.953800
11.678900 3.903600
11.696900 3.865600
11.714900 3.835100
11.733000 3.827900
11.751000 3.884300
11.769000 3.963100
11.787100 4.080600
11.805100 4.159900
11.823100 4.225100
11.841100 4.346900
11.859200 4.631800
11.877200 4.708600
11.895200 4.888300
11.913200 5.000800
11.931300 5.058700
11.949300 5.105700
11.967300 5.136000
11.985400 5.166100
12.003400 5.234500
12.021400 5.348100
12.039400 5.359500
12.057500 5.164900
12.075500 5.059200
12.093500 5.000200
12.111600 4.968700
12.129600 4.894500
12.147600 4.891000
12.165600 4.977100
12.183700 5.139000
12.201700 5.371600
12.219700 5.135200
12.237800 5.190900
12.255800 5.252900
12.273800 5.276800
12.291800 5.243000
12.309900 5.257500
12.327900 5.404800
12.345900 5.287000
12.363900 5.154900
12.382000 5.000400
12.400000 4.863900
12.418000 4.732600
12.436100 4.639200
12.454100 4.587000
12.472100 4.576100
12.490100 4.590700
12.508200 4.422900
12.526200 4.425900
12.544200 4.486700
12.562300 4.617400
12.580300 4.745200
12.598300 4.940300
12.616300 5.263600
12.634400 5.334400
12.652400 5.461700
12.670400 5.521300
12.688500 5.418900
12.706500 5.309500
12.724500 5.214600
12.742500 5.183100
12.760600 5.299900
12.778600 5.294600
12.796600 5.039500
12.814600 4.906400
12.832700 4.886600
12.850700 4.845100
12.868700 4.889900
12.886800 4.983700
12.904800 5.117700
12.922800 5.214800
12.940800 5.268700
12.958900 5.268200
12.976900 5.276500
12.994900 5.308200
13.013000 5.303400
13.031000 5.251200
13.049000 5.180800
13.067000 5.077600
13.085100 4.961400
13.103100 4.922400
13.121100 4.989800
13.139100 5.042400
13.157200 5.045200
13.175200 5.061200
13.193200 5.108100
13.211300 5.124600
13.229300 5.105800
13.247300 5.116900
13.265300 5.266300
13.283400 4.797500
13.301400 4.423300
13.319400 4.205300
13.337500 3.980700
13.355500 3.783100
13.373500 3.618500
13.391500 3.497200
13.409600 3.504100
13.427600 3.717600
13.445600 4.007700
13.463700 4.227200
13.481700 4.268400
13.499700 4.404100
13.517700 4.825500
13.535800 4.762800
13.553800 4.575700
13.571800 4.467200
13.589800 4.372700
13.607900 4.312200
13.625900 4.271400
13.643900 4.033200
13.662000 4.017400
13.680000 4.059400
13.698000 4.187200
13.716000 4.296100
13.734100 4.455100
13.752100 4.603200
13.770100 4.600500
13.788200 4.554000
13.806200 4.537800
13.824200 4.491500
13.842200 4.444600
13.860300 4.436700
13.878300 4.363500
13.896300 4.255900
13.914400 4.179100
13.932400 4.053700
13.950400 3.981400
13.968400 14.048200
13.986500 3.923700
14.004500 3.941900
14.022500 3.976200
14.040500 3.932200
14.058600 3.768600
14.076600 3.715500
14.094600 3.698200
14.112700 3.687900
14.130700 3.677500
14.148700 3.664000
14.166700 3.648400
14.184800 3.630600
14.202800 3.613500
14.220800 3.584500
14.238900 3.572100
14.256900 3.544300
14.274900 3.510300
14.292900 3.461200
14.311000 3.417800
14.329000 3.351800
14.347000 3.273000
14.365100 3.189200
14.383100 3.157300
14.401100 3.171200
14.419100 3.150700
14.437200 3.195300
14.455200 3.196300
14.473200 3.146900
14.491200 3.105900
14.509300 3.124200
14.527300 3.196100
14.545300 3.268400
14.563400 3.282500
14.581400 3.252500
14.599400 3.212200
14.617400 3.135100
14.635500 3.067800
14.653500 3.067800
14.671500 3.079400
14.689600 3.140300
14.707600 3.172100
14.725600 3.186200
14.743600 3.203500
14.761700 3.231700
14.779700 3.273500
14.797700 3.329200
14.815800 3.381400
14.833800 3.428800
14.851800 3.491000
14.869800 3.604500
14.887900 3.638000
14.905900 3.636500
14.923900 3.605400
14.941900 3.568900
14.960000 3.506600
14.978000 3.467600
14.996000 3.436600
15.014100 3.448700
15.032100 3.481300
15.050100 3.502500
15.068100 3.497100
15.086200 3.602100
15.104200 3.411200
15.122200 3.352100
15.140300 3.290700
15.158300 3.226500
15.176300 3.172900
15.194300 3.181000
15.212400 3.177900
15.230400 3.182200
15.248400 3.184900
15.266400 3.202900
15.284500 3.225700
15.302500 3.192100
15.320500 3.167200
15.338600 3.139000
15.356600 3.086000
15.374600 3.057900
15.392600 3.030300
15.410700 2.994100
15.428700 2.958300
15.446700 2.947100
15.464800 2.946300
15.482800 2.960400
15.500800 2.960300
15.518800 2.939500
15.536900 2.913600
15.554900 2.905200
15.572900 2.915200
15.591000 2.948200
15.609000 3.001500
15.627000 3.043800
15.645000 3.060300
15.663100 3.063300
15.681100 3.080500
15.699100 3.104700
15.717100 3.123800
15.735200 3.143300
15.753200 3.160200
15.771200 3.181300
15.789300 3.190600
15.807300 3.169400
15.825300 3.126000
15.843300 3.091100
15.861400 3.039300
15.879400 2.975100
15.897400 2.912100
15.915500 2.847200
15.933500 2.759300
15.951500 2.683400
15.969500 2.622800
15.987600 2.570100
16.005600 2.525100
16.023600 2.490800
16.041700 2.460200
16.059700 2.430300
16.077700 2.403500
16.095700 2.383000
16.113800 2.367800
16.131800 2.357000
16.149800 2.353800
16.167800 2.352900
16.185900 2.351800
16.203900 2.350600
16.221900 2.346700
16.240000 2.344900
16.258000 2.345800
16.276000 2.363600
16.294000 2.395000
16.312100 2.442100
16.330100 2.397800
16.348100 2.403000
16.366200 2.406800
16.384200 2.412300
16.402200 2.418000
16.420200 2.420900
16.438300 2.423600
16.456300 2.426500
16.474300 2.423400
16.492400 2.418800
16.510400 2.411200
16.528400 2.387500
16.546400 2.367300
16.564500 2.349800
16.582500 2.337900
16.600500 2.318900
16.618500 2.307200
16.636600 2.355000
16.654600 2.393600
16.672600 2.396100
16.690700 2.404500
16.708700 2.383500
16.726700 2.348100
16.744700 2.301900
16.762800 2.246600
16.780800 2.120700
16.798800 2.057700
16.816900 1.983200
16.834900 1.915800
16.852900 1.851200
16.870900 1.783100
16.889000 1.727500
16.907000 1.672100
16.925000 1.601600
16.943100 1.555300
16.961100 1.515000
16.979100 1.481700
16.997100 1.455900
17.015200 1.429700
17.033200 1.391200
17.051200 1.346600
17.069200 1.297300
17.087300 1.244100
17.105300 1.188900
17.123300 1.131700
17.141400 1.064400
17.159400 0.937000
17.177400 0.815800
17.195400 0.675300
17.213500 0.579300
17.231500 0.454100
17.249500 0.357100
17.267600 0.295600
17.285600 0.271800
17.303600 0.248200
17.321600 0.224800
17.339700 0.201400
17.357700 0.184800
17.375700 0.165800
17.393700 0.143500
17.411800 0.117200
17.429800 0.085700
17.447800 0.049100
17.465900 0.012800
17.483900 0.000100
17.501900 0.000000
17.519900 0.000000
17.538000 0.000000
17.556000 0.000000
17.574000 0.000000
17.592100 0.000000
17.610100 0.000000
17.628100 0.000000
17.646100 0.000000
17.664200 0.000000
17.682200 0.000000
17.700200 0.000000
17.718300 0.000000
17.736300 0.000000
17.754300 0.000000
17.772300 0.000000
17.790400 0.000000
17.808400 0.000000
17.826400 0.000000
17.844400 0.000000
17.862500 0.000000
17.880500 0.000000
17.898500 0.000000
17.916600 0.000000
17.934600 0.000000
17.952600 0.000000
17.970600 0.000000
17.988700 0.000000
18.006700 0.000000
18.024700 0.000000
18.042800 0.000000
18.060800 0.000000
18.078800 0.000000
18.096800 0.000000
18.114900 0.000000
18.132900 0.000000
18.150900 0.000000
18.169000 0.000000
18.187000 0.000000
18.205000 0.000000
18.223000 0.000000
18.241100 0.000000
18.259100 0.000000
18.277100 0.000000
18.295100 0.000000
18.313200 0.000000
18.331200 0.000000
18.349200 0.000000
18.367300 0.000000
18.385300 0.000000
18.403300 0.000000
18.421300 0.000000
18.439400 0.000000
18.457400 0.000000
18.475400 0.000000
18.493500 0.000000
18.511500 0.000000
18.529500 0.000000
18.547500 0.000000
18.565600 0.000000
18.583600 0.000000
18.601600 0.000000
18.619700 0.000000
18.637700 0.000000
18.655700 0.000000
18.673700 0.000000
18.691800 0.000000
18.709800 0.000000
18.727800 0.000000
18.745800 0.000000
18.763900 0.000000
18.781900 0.000000
18.799900 0.000000
18.818000 0.000000
18.836000 0.000000
18.854000 0.000000
18.872000 0.000000
18.890100 0.000000
18.908100 0.000000
18.926100 0.000000
18.944200 0.000000
18.962200 0.000000
18.980200 0.000000
18.998200 0.000000
19.016300 0.000000
19.034300 0.000000
19.052300 0.000000
19.070400 0.000000
19.088400 0.000000
19.106400 0.000000
19.124400 0.000000
e
