set title 'mp-1101301 - Density of States'
set xlabel 'Energy (eV)'
set ylabel 'DOS (states/eV)'
set grid
set xrange [-10:10]
set yrange [0:27.746]
set xzeroaxis lt -1
set terminal png size 800,600
set output 'mp-1101301_dos_gnuplot.png'
plot '-' using 1:2 with lines title 'DOS'
-21.131700 0.000000
-21.109600 0.000000
-21.087500 0.000000
-21.065500 0.000000
-21.043400 0.000000
-21.021300 0.000000
-20.999200 0.000000
-20.977200 0.000000
-20.955100 0.000000
-20.933000 0.000000
-20.910900 0.000000
-20.888900 0.000000
-20.866800 0.000000
-20.844700 0.000000
-20.822600 0.000000
-20.800600 0.000000
-20.778500 0.000000
-20.756400 0.000000
-20.734300 0.000000
-20.712300 0.000000
-20.690200 0.000000
-20.668100 0.000000
-20.646100 0.000000
-20.624000 0.000000
-20.601900 0.000000
-20.579800 0.000000
-20.557800 0.000000
-20.535700 0.000000
-20.513600 0.000000
-20.491500 0.000000
-20.469500 0.000000
-20.447400 0.000000
-20.425300 0.000000
-20.403200 0.000000
-20.381200 0.000000
-20.359100 0.000000
-20.337000 0.000000
-20.314900 0.000000
-20.292900 0.000000
-20.270800 0.000000
-20.248700 0.000000
-20.226600 0.000000
-20.204600 0.000000
-20.182500 0.000000
-20.160400 0.000000
-20.138300 0.000000
-20.116300 0.000000
-20.094200 0.000000
-20.072100 0.000000
-20.050100 0.000000
-20.028000 0.000000
-20.005900 0.000000
-19.983800 0.000000
-19.961800 0.000000
-19.939700 0.000000
-19.917600 0.000000
-19.895500 0.000000
-19.873500 0.000000
-19.851400 0.000000
-19.829300 0.000000
-19.807200 0.000000
-19.785200 0.000000
-19.763100 0.000000
-19.741000 0.000000
-19.718900 0.000000
-19.696900 0.000000
-19.674800 0.000000
-19.652700 0.000000
-19.630600 0.000000
-19.608600 0.000000
-19.586500 0.000000
-19.564400 0.000000
-19.542400 0.000000
-19.520300 0.000000
-19.498200 0.000000
-19.476100 0.000000
-19.454100 0.000000
-19.432000 0.000000
-19.409900 0.000000
-19.387800 0.000000
-19.365800 0.000000
-19.343700 0.000000
-19.321600 0.000000
-19.299500 0.000000
-19.277500 0.000000
-19.255400 0.000000
-19.233300 0.000000
-19.211200 0.000000
-19.189200 0.000000
-19.167100 0.000000
-19.145000 0.000000
-19.122900 0.001400
-19.100900 0.175500
-19.078800 0.561400
-19.056700 0.964400
-19.034600 1.367500
-19.012600 1.770700
-18.990500 2.173900
-18.968400 2.577100
-18.946400 2.173900
-18.924300 1.645900
-18.902200 1.699800
-18.880100 1.753600
-18.858100 1.807500
-18.836000 1.861300
-18.813900 1.915200
-18.791800 1.969000
-18.769800 2.022900
-18.747700 2.076800
-18.725600 2.130600
-18.703500 2.184500
-18.681500 2.238400
-18.659400 2.292400
-18.637300 2.369500
-18.615200 2.478900
-18.593200 2.591000
-18.571100 2.703200
-18.549000 3.022600
-18.526900 4.079300
-18.504900 4.285400
-18.482800 4.007400
-18.460700 3.729400
-18.438600 3.451300
-18.416600 3.173300
-18.394500 2.895200
-18.372400 2.617200
-18.350400 2.339100
-18.328300 2.061100
-18.306200 1.783000
-18.284100 1.911700
-18.262100 3.396700
-18.240000 0.000000
-18.217900 0.000000
-18.195800 0.000000
-18.173800 0.000000
-18.151700 0.000000
-18.129600 0.000000
-18.107500 0.000000
-18.085500 0.000000
-18.063400 0.000000
-18.041300 0.000000
-18.019200 0.000000
-17.997200 0.000000
-17.975100 0.000000
-17.953000 0.000000
-17.930900 0.000000
-17.908900 0.000000
-17.886800 0.000000
-17.864700 0.000000
-17.842700 0.000000
-17.820600 0.000000
-17.798500 0.000000
-17.776400 2.560300
-17.754400 2.063400
-17.732300 1.271400
-17.710200 1.460100
-17.688100 1.648800
-17.666100 1.837500
-17.644000 2.026300
-17.621900 2.215000
-17.599800 2.403700
-17.577800 2.592500
-17.555700 2.781200
-17.533600 2.969900
-17.511500 3.158700
-17.489500 3.347400
-17.467400 3.536200
-17.445300 2.737800
-17.423200 2.365900
-17.401200 2.038800
-17.379100 1.926800
-17.357000 1.814800
-17.334900 1.702900
-17.312900 1.590900
-17.290800 1.479500
-17.268700 1.385700
-17.246700 1.345900
-17.224600 1.326900
-17.202500 1.307900
-17.180400 1.289000
-17.158400 1.270000
-17.136300 1.251000
-17.114200 1.232000
-17.092100 1.213000
-17.070100 1.194000
-17.048000 1.175000
-17.025900 1.156000
-17.003800 1.137100
-16.981800 1.118100
-16.959700 1.099100
-16.937600 1.080100
-16.915500 1.061100
-16.893500 1.042100
-16.871400 1.023100
-16.849300 1.004100
-16.827200 0.985200
-16.805200 0.966200
-16.783100 0.947200
-16.761000 0.928200
-16.739000 1.118600
-16.716900 1.228200
-16.694800 1.148900
-16.672700 1.069600
-16.650700 0.990300
-16.628600 0.911000
-16.606500 0.831700
-16.584400 0.752400
-16.562400 5.760900
-16.540300 16.435300
-16.518200 22.634400
-16.496100 11.993700
-16.474100 10.085200
-16.452000 8.176900
-16.429900 6.317700
-16.407800 4.639400
-16.385800 2.885200
-16.363700 1.171300
-16.341600 0.000000
-16.319500 0.000000
-16.297500 0.000000
-16.275400 0.000000
-16.253300 0.000000
-16.231200 0.000000
-16.209200 0.000000
-16.187100 0.252100
-16.165000 0.702000
-16.143000 1.441600
-16.120900 2.329400
-16.098800 3.136600
-16.076700 3.422700
-16.054700 3.624300
-16.032600 3.580100
-16.010500 3.841700
-15.988400 4.104100
-15.966400 4.367100
-15.944300 4.643000
-15.922200 5.120000
-15.900100 6.192600
-15.878100 7.975400
-15.856000 9.093900
-15.833900 8.294200
-15.811800 6.684000
-15.789800 5.473600
-15.767700 3.841000
-15.745600 2.519500
-15.723500 0.000000
-15.701500 0.000000
-15.679400 0.000000
-15.657300 0.000000
-15.635300 0.000000
-15.613200 0.000000
-15.591100 0.000000
-15.569000 0.000000
-15.547000 0.000000
-15.524900 2.923100
-15.502800 4.584400
-15.480700 4.058200
-15.458700 4.715000
-15.436600 5.372400
-15.414500 6.030400
-15.392400 6.689000
-15.370400 7.358000
-15.348300 7.262000
-15.326200 6.469900
-15.304100 5.542900
-15.282100 5.029000
-15.260000 4.514600
-15.237900 3.999800
-15.215800 3.484500
-15.193800 5.398600
-15.171700 5.562600
-15.149600 0.588100
-15.127500 7.262800
-15.105500 19.879600
-15.083400 20.776500
-15.061300 14.758500
-15.039300 13.089600
-15.017200 9.326500
-14.995100 0.000000
-14.973000 0.000000
-14.951000 0.000000
-14.928900 0.000000
-14.906800 0.000000
-14.884700 0.000000
-14.862700 0.000000
-14.840600 0.000000
-14.818500 0.000000
-14.796400 0.000000
-14.774400 0.000000
-14.752300 0.000000
-14.730200 0.000000
-14.708100 0.000000
-14.686100 0.000000
-14.664000 0.000000
-14.641900 0.000000
-14.619800 0.000000
-14.597800 0.000000
-14.575700 0.000000
-14.553600 0.000000
-14.531500 0.000000
-14.509500 0.000000
-14.487400 0.000000
-14.465300 0.000000
-14.443300 0.000000
-14.421200 0.000000
-14.399100 0.000000
-14.377000 0.000000
-14.355000 0.000000
-14.332900 0.000000
-14.310800 0.000000
-14.288700 0.000000
-14.266700 0.000000
-14.244600 0.000000
-14.222500 0.000000
-14.200400 0.000000
-14.178400 0.000000
-14.156300 0.000000
-14.134200 0.000000
-14.112100 0.000000
-14.090100 0.000000
-14.068000 0.000000
-14.045900 0.000000
-14.023800 0.000000
-14.001800 0.000000
-13.979700 0.000000
-13.957600 0.000000
-13.935600 0.000000
-13.913500 0.000000
-13.891400 0.000000
-13.869300 0.000000
-13.847300 0.000000
-13.825200 0.000000
-13.803100 0.000000
-13.781000 0.000000
-13.759000 0.000000
-13.736900 0.000000
-13.714800 0.000000
-13.692700 0.000000
-13.670700 0.000000
-13.648600 0.000000
-13.626500 0.000000
-13.604400 0.000000
-13.582400 0.000000
-13.560300 0.000000
-13.538200 0.000000
-13.516100 0.000000
-13.494100 0.000000
-13.472000 0.000000
-13.449900 0.000000
-13.427800 0.000000
-13.405800 0.000000
-13.383700 0.000000
-13.361600 0.000000
-13.339600 0.000000
-13.317500 0.000000
-13.295400 0.000000
-13.273300 0.000000
-13.251300 0.000000
-13.229200 0.000000
-13.207100 0.000000
-13.185000 0.000000
-13.163000 0.000000
-13.140900 0.000000
-13.118800 0.000000
-13.096700 0.000000
-13.074700 0.000000
-13.052600 0.000000
-13.030500 0.000000
-13.008400 0.000000
-12.986400 0.000000
-12.964300 0.000000
-12.942200 0.000000
-12.920100 0.000000
-12.898100 0.000000
-12.876000 0.000000
-12.853900 0.000000
-12.831900 0.000000
-12.809800 0.000000
-12.787700 0.000000
-12.765600 0.000000
-12.743600 0.000000
-12.721500 0.000000
-12.699400 0.000000
-12.677300 0.000000
-12.655300 0.000000
-12.633200 0.000000
-12.611100 0.000000
-12.589000 0.000000
-12.567000 0.000000
-12.544900 0.000000
-12.522800 0.000000
-12.500700 0.000000
-12.478700 0.000000
-12.456600 0.000000
-12.434500 0.000000
-12.412400 0.000000
-12.390400 0.000000
-12.368300 0.000000
-12.346200 0.000000
-12.324100 0.000000
-12.302100 0.000000
-12.280000 0.000000
-12.257900 0.000000
-12.235900 0.000000
-12.213800 0.000000
-12.191700 0.000000
-12.169600 0.000000
-12.147600 0.000000
-12.125500 0.000000
-12.103400 0.000000
-12.081300 0.000000
-12.059300 0.000000
-12.037200 0.000000
-12.015100 0.000000
-11.993000 0.000000
-11.971000 0.000000
-11.948900 0.000000
-11.926800 0.000000
-11.904700 0.000000
-11.882700 0.000000
-11.860600 0.000000
-11.838500 0.000000
-11.816400 0.000000
-11.794400 0.000000
-11.772300 0.000000
-11.750200 0.000000
-11.728200 0.000000
-11.706100 0.000000
-11.684000 0.000000
-11.661900 0.000000
-11.639900 0.000000
-11.617800 0.000000
-11.595700 0.000000
-11.573600 0.000000
-11.551600 0.000000
-11.529500 0.000000
-11.507400 0.000000
-11.485300 0.000000
-11.463300 0.000000
-11.441200 0.000000
-11.419100 0.000000
-11.397000 0.000000
-11.375000 0.000000
-11.352900 0.000000
-11.330800 0.000000
-11.308700 0.000000
-11.286700 0.000000
-11.264600 0.000000
-11.242500 0.000000
-11.220400 0.000000
-11.198400 0.000000
-11.176300 0.000000
-11.154200 0.000000
-11.132200 0.000000
-11.110100 0.000000
-11.088000 0.000000
-11.065900 0.000000
-11.043900 0.000000
-11.021800 0.000000
-10.999700 0.000000
-10.977600 0.000000
-10.955600 0.000000
-10.933500 0.000000
-10.911400 0.000000
-10.889300 0.000000
-10.867300 0.000000
-10.845200 0.000000
-10.823100 0.000000
-10.801000 0.000000
-10.779000 0.000000
-10.756900 0.000000
-10.734800 0.000000
-10.712700 0.000000
-10.690700 0.000000
-10.668600 0.000000
-10.646500 0.000000
-10.624400 0.000000
-10.602400 0.000000
-10.580300 0.000000
-10.558200 0.000000
-10.536200 0.000000
-10.514100 0.006300
-10.492000 0.048300
-10.469900 0.090200
-10.447900 0.132200
-10.425800 0.174100
-10.403700 0.216100
-10.381600 0.258000
-10.359600 0.300000
-10.337500 0.341900
-10.315400 0.383900
-10.293300 0.425800
-10.271300 0.467800
-10.249200 0.509700
-10.227100 0.551600
-10.205000 0.593600
-10.183000 0.635500
-10.160900 0.677500
-10.138800 0.719400
-10.116700 0.761400
-10.094700 0.803300
-10.072600 0.845300
-10.050500 0.887200
-10.028500 0.929200
-10.006400 0.633500
-9.984300 0.620600
-9.962200 0.629800
-9.940200 0.638900
-9.918100 0.648100
-9.896000 0.657200
-9.873900 0.666400
-9.851900 0.675500
-9.829800 0.684700
-9.807700 0.693800
-9.785600 0.703000
-9.763600 0.712100
-9.741500 0.721300
-9.719400 0.730400
-9.697300 0.739600
-9.675300 0.748700
-9.653200 0.757900
-9.631100 0.767000
-9.609000 0.776200
-9.587000 0.785300
-9.564900 0.794500
-9.542800 0.803600
-9.520700 0.812800
-9.498700 0.821900
-9.476600 0.831100
-9.454500 0.840200
-9.432500 0.849400
-9.410400 0.858500
-9.388300 0.867700
-9.366200 0.876800
-9.344200 0.886000
-9.322100 0.895100
-9.300000 0.904300
-9.277900 0.913400
-9.255900 0.922600
-9.233800 0.932100
-9.211700 0.959100
-9.189600 0.997500
-9.167600 1.036200
-9.145500 1.074900
-9.123400 1.113700
-9.101300 1.152400
-9.079300 1.191200
-9.057200 1.229900
-9.035100 1.268600
-9.013000 1.307400
-8.991000 1.667600
-8.968900 2.129500
-8.946800 2.068500
-8.924800 2.007500
-8.902700 1.946600
-8.880600 1.885600
-8.858500 1.824700
-8.836500 1.763700
-8.814400 1.702800
-8.792300 1.641800
-8.770200 1.580900
-8.748200 1.519900
-8.726100 1.458900
-8.704000 1.398000
-8.681900 1.337000
-8.659900 1.276100
-8.637800 1.215100
-8.615700 1.154200
-8.593600 1.093200
-8.571600 1.032300
-8.549500 0.971300
-8.527400 0.910400
-8.505300 0.849400
-8.483300 0.788500
-8.461200 0.727500
-8.439100 0.666600
-8.417000 5.416600
-8.395000 0.000000
-8.372900 0.000000
-8.350800 0.000000
-8.328800 0.000000
-8.306700 0.000000
-8.284600 0.000000
-8.262500 0.000000
-8.240500 0.000000
-8.218400 0.000000
-8.196300 0.000000
-8.174200 0.000000
-8.152200 0.000000
-8.130100 0.000000
-8.108000 0.000000
-8.085900 0.000000
-8.063900 0.000000
-8.041800 0.000000
-8.019700 0.000000
-7.997600 0.000000
-7.975600 0.000000
-7.953500 0.000000
-7.931400 0.000000
-7.909300 0.000000
-7.887300 0.000000
-7.865200 0.000000
-7.843100 0.000000
-7.821100 0.000000
-7.799000 0.000000
-7.776900 0.000000
-7.754800 0.000000
-7.732800 0.000000
-7.710700 0.000000
-7.688600 0.000000
-7.666500 0.000000
-7.644500 0.000000
-7.622400 0.000000
-7.600300 0.000000
-7.578200 0.000000
-7.556200 0.000000
-7.534100 0.000000
-7.512000 0.000000
-7.489900 0.000000
-7.467900 0.000000
-7.445800 0.000000
-7.423700 0.000000
-7.401600 1.129000
-7.379600 1.025800
-7.357500 0.731600
-7.335400 0.794200
-7.313300 0.856800
-7.291300 0.919400
-7.269200 0.982000
-7.247100 1.044600
-7.225100 1.107100
-7.203000 1.169700
-7.180900 1.232300
-7.158800 1.294900
-7.136800 1.357500
-7.114700 1.420100
-7.092600 1.482600
-7.070500 1.545200
-7.048500 1.607800
-7.026400 1.670400
-7.004300 1.733000
-6.982200 1.795500
-6.960200 1.858100
-6.938100 1.920700
-6.916000 1.983300
-6.893900 2.045900
-6.871900 2.108400
-6.849800 2.171000
-6.827700 2.000100
-6.805600 1.388900
-6.783600 1.353100
-6.761500 1.317300
-6.739400 1.281400
-6.717300 1.245600
-6.695300 1.209800
-6.673200 1.173900
-6.651100 1.138100
-6.629100 1.108400
-6.607000 1.088900
-6.584900 1.075900
-6.562800 1.063000
-6.540800 1.050000
-6.518700 1.037100
-6.496600 1.024100
-6.474500 1.011200
-6.452500 0.998300
-6.430400 0.985300
-6.408300 0.972400
-6.386200 0.959500
-6.364200 0.946500
-6.342100 0.933600
-6.320000 0.920700
-6.297900 0.907800
-6.275900 0.894900
-6.253800 0.882000
-6.231700 0.869100
-6.209600 0.856200
-6.187600 0.843300
-6.165500 0.830400
-6.143400 0.817500
-6.121400 0.804600
-6.099300 0.791700
-6.077200 0.778900
-6.055100 0.766000
-6.033100 0.753100
-6.011000 0.766700
-5.988900 0.865100
-5.966800 0.917900
-5.944800 0.937000
-5.922700 0.945100
-5.900600 0.956100
-5.878500 0.978200
-5.856500 0.908100
-5.834400 0.838300
-5.812300 0.768800
-5.790200 0.699700
-5.768200 0.631000
-5.746100 0.562500
-5.724000 0.494500
-5.701900 0.426800
-5.679900 0.359400
-5.657800 0.293900
-5.635700 0.236400
-5.613600 0.187600
-5.591600 0.147600
-5.569500 0.114400
-5.547400 0.085000
-5.525400 0.059300
-5.503300 0.037500
-5.481200 0.019500
-5.459100 0.005200
-5.437100 0.000000
-5.415000 0.000000
-5.392900 0.000000
-5.370800 0.000000
-5.348800 0.000000
-5.326700 0.000000
-5.304600 0.000000
-5.282500 0.000000
-5.260500 0.000000
-5.238400 0.000000
-5.216300 0.000000
-5.194200 0.000000
-5.172200 0.000000
-5.150100 0.000000
-5.128000 0.000000
-5.105900 0.000000
-5.083900 0.000000
-5.061800 0.000000
-5.039700 0.000000
-5.017700 0.000000
-4.995600 0.000000
-4.973500 0.000000
-4.951400 0.100100
-4.929400 8.452100
-4.907300 3.813600
-4.885200 2.779800
-4.863100 2.919500
-4.841100 3.059200
-4.819000 3.199100
-4.796900 3.339100
-4.774800 3.479200
-4.752800 3.614900
-4.730700 3.697500
-4.708600 3.608800
-4.686500 3.509500
-4.664500 4.220000
-4.642400 4.689300
-4.620300 4.637500
-4.598200 4.297500
-4.576200 3.958100
-4.554100 3.619300
-4.532000 3.281100
-4.509900 2.943500
-4.487900 2.606500
-4.465800 2.270100
-4.443700 2.440400
-4.421700 2.350000
-4.399600 1.841500
-4.377500 0.419200
-4.355400 0.000000
-4.333400 0.000000
-4.311300 0.000000
-4.289200 0.000000
-4.267100 0.000000
-4.245100 0.000000
-4.223000 0.000000
-4.200900 0.000000
-4.178800 0.000000
-4.156800 0.000000
-4.134700 0.000000
-4.112600 0.000000
-4.090500 0.079300
-4.068500 1.522300
-4.046400 2.064000
-4.024300 2.836800
-4.002200 4.166900
-3.980200 4.855800
-3.958100 6.074700
-3.936000 7.267300
-3.914000 7.164300
-3.891900 5.301400
-3.869800 4.492600
-3.847700 4.169500
-3.825700 3.910700
-3.803600 3.712700
-3.781500 3.554800
-3.759400 3.442400
-3.737400 3.352400
-3.715300 3.269500
-3.693200 3.193700
-3.671100 3.150200
-3.649100 3.355400
-3.627000 3.356200
-3.604900 3.117000
-3.582800 2.001500
-3.560800 0.876900
-3.538700 0.000000
-3.516600 1.366000
-3.494500 6.428000
-3.472500 4.809800
-3.450400 4.146100
-3.428300 4.865100
-3.406200 5.704100
-3.384200 6.587000
-3.362100 7.422900
-3.340000 8.860700
-3.318000 9.852500
-3.295900 10.948700
-3.273800 12.033000
-3.251700 12.884400
-3.229700 12.499000
-3.207600 13.052800
-3.185500 11.097800
-3.163400 12.322900
-3.141400 10.475600
-3.119300 11.720200
-3.097200 10.839900
-3.075100 9.359200
-3.053100 5.893800
-3.031000 1.583700
-3.008900 1.240800
-2.986800 1.292700
-2.964800 1.344600
-2.942700 1.396600
-2.920600 1.448600
-2.898500 1.500600
-2.876500 1.552600
-2.854400 1.604700
-2.832300 1.656900
-2.810200 1.709100
-2.788200 1.761300
-2.766100 1.813500
-2.744000 1.865800
-2.722000 1.918100
-2.699900 1.970500
-2.677800 2.087700
-2.655700 2.441200
-2.633700 5.943700
-2.611600 9.835200
-2.589500 8.562100
-2.567400 6.625400
-2.545400 4.882100
-2.523300 3.732900
-2.501200 2.868900
-2.479100 2.215100
-2.457100 1.662000
-2.435000 1.240100
-2.412900 0.390700
-2.390800 0.000100
-2.368800 0.000000
-2.346700 0.000000
-2.324600 0.000000
-2.302500 0.000000
-2.280500 0.000000
-2.258400 0.000000
-2.236300 0.000000
-2.214300 0.000000
-2.192200 0.000000
-2.170100 0.012800
-2.148000 0.351500
-2.126000 0.890600
-2.103900 1.120500
-2.081800 1.223900
-2.059700 1.431300
-2.037700 1.695800
-2.015600 2.314800
-1.993500 2.539900
-1.971400 2.512400
-1.949400 2.676600
-1.927300 2.843000
-1.905200 3.011700
-1.883100 3.182600
-1.861100 3.355500
-1.839000 3.502900
-1.816900 3.596600
-1.794800 3.624800
-1.772800 3.572700
-1.750700 3.395700
-1.728600 3.178200
-1.706500 1.734300
-1.684500 1.590700
-1.662400 1.554200
-1.640300 1.517700
-1.618300 1.481200
-1.596200 1.444800
-1.574100 1.408300
-1.552000 1.371900
-1.530000 1.335500
-1.507900 1.299100
-1.485800 1.262800
-1.463700 1.226400
-1.441700 1.190000
-1.419600 1.153700
-1.397500 1.117400
-1.375400 1.081100
-1.353400 1.044800
-1.331300 1.008500
-1.309200 0.972200
-1.287100 0.936000
-1.265100 0.899700
-1.243000 0.865200
-1.220900 2.217000
-1.198800 2.419000
-1.176800 3.018800
-1.154700 2.843900
-1.132600 2.882700
-1.110600 3.168200
-1.088500 3.454800
-1.066400 3.742500
-1.044300 4.031200
-1.022300 4.321100
-1.000200 4.612100
-0.978100 4.898400
-0.956000 4.944900
-0.934000 4.029300
-0.911900 3.553600
-0.889800 3.316600
-0.867700 3.228700
-0.845700 3.139500
-0.823600 3.052200
-0.801500 2.965600
-0.779400 2.996300
-0.757400 3.069800
-0.735300 3.433600
-0.713200 4.064400
-0.691100 4.869400
-0.669100 5.872300
-0.647000 7.341100
-0.624900 8.869900
-0.602800 10.357600
-0.580800 11.264200
-0.558700 12.880700
-0.536600 10.747300
-0.514600 7.494500
-0.492500 3.162100
-0.470400 2.440100
-0.448300 2.045600
-0.426300 1.920300
-0.404200 1.862700
-0.382100 1.805300
-0.360000 1.763000
-0.338000 2.060200
-0.315900 2.911200
-0.293800 11.924500
-0.271700 5.452000
-0.249700 3.265200
-0.227600 4.543200
-0.205500 6.272900
-0.183400 9.280500
-0.161400 10.035400
-0.139300 10.122300
-0.117200 10.753800
-0.095100 9.333400
-0.073100 7.751800
-0.051000 6.327100
-0.028900 4.551200
-0.006900 2.913400
0.015200 2.043500
0.037300 6.066700
0.059400 12.751500
0.081400 14.560000
0.103500 13.004200
0.125600 10.699100
0.147700 9.847100
0.169700 11.194000
0.191800 8.761300
0.213900 8.703600
0.236000 9.900800
0.258000 9.812200
0.280100 11.518200
0.302200 13.753100
0.324300 15.892300
0.346300 17.049300
0.368400 15.686000
0.390500 8.534100
0.412600 10.248800
0.434600 18.329600
0.456700 21.934300
0.478800 16.701300
0.500900 19.928800
0.522900 20.158400
0.545000 25.223800
0.567100 17.568800
0.589100 12.834000
0.611200 7.009100
0.633300 10.463700
0.655400 15.244300
0.677400 19.033200
0.699500 14.461900
0.721600 15.584700
0.743700 22.343900
0.765700 21.573900
0.787800 24.520400
0.809900 21.981300
0.832000 14.596100
0.854000 6.924800
0.876100 10.475400
0.898200 15.735200
0.920300 19.659100
0.942300 24.954300
0.964400 11.738100
0.986500 0.000400
1.008600 0.000000
1.030600 0.000000
1.052700 0.000000
1.074800 0.000000
1.096900 0.000000
1.118900 0.000000
1.141000 0.000000
1.163100 0.000000
1.185100 0.000000
1.207200 0.000000
1.229300 0.000000
1.251400 0.000000
1.273400 0.000000
1.295500 0.000000
1.317600 0.000000
1.339700 0.000000
1.361700 0.000000
1.383800 0.000000
1.405900 0.000000
1.428000 0.000000
1.450000 0.000000
1.472100 0.000000
1.494200 0.000000
1.516300 0.000000
1.538300 0.000000
1.560400 0.000000
1.582500 0.000000
1.604600 0.000000
1.626600 0.000000
1.648700 0.000000
1.670800 0.000000
1.692800 0.000000
1.714900 0.000000
1.737000 0.000000
1.759100 0.000000
1.781100 0.000000
1.803200 0.000000
1.825300 0.000000
1.847400 0.000000
1.869400 0.000000
1.891500 0.000000
1.913600 0.000000
1.935700 0.000000
1.957700 0.000000
1.979800 0.000000
2.001900 0.000000
2.024000 0.000000
2.046000 0.000000
2.068100 0.000000
2.090200 0.000000
2.112300 0.000000
2.134300 0.000000
2.156400 0.000000
2.178500 0.000000
2.200600 0.000000
2.222600 0.000000
2.244700 0.000000
2.266800 0.000000
2.288800 0.000000
2.310900 0.000000
2.333000 0.000000
2.355100 0.000000
2.377100 0.000000
2.399200 0.000000
2.421300 0.000000
2.443400 0.000000
2.465400 0.000000
2.487500 0.000000
2.509600 0.000000
2.531700 0.000000
2.553700 0.000000
2.575800 0.000000
2.597900 0.000000
2.620000 0.000000
2.642000 0.000000
2.664100 0.000000
2.686200 0.000000
2.708300 0.000000
2.730300 0.000000
2.752400 0.000000
2.774500 0.000000
2.796500 0.000000
2.818600 0.000000
2.840700 0.000000
2.862800 0.000000
2.884800 0.000000
2.906900 0.000000
2.929000 0.000000
2.951100 0.000000
2.973100 0.000000
2.995200 0.000000
3.017300 0.000000
3.039400 0.000000
3.061400 0.000000
3.083500 0.000000
3.105600 0.000000
3.127700 0.000000
3.149700 0.000000
3.171800 0.001200
3.193900 0.004100
3.216000 0.008800
3.238000 0.015300
3.260100 0.023600
3.282200 0.033700
3.304300 0.045600
3.326300 0.059300
3.348400 0.074800
3.370500 0.092100
3.392500 0.111400
3.414600 0.132800
3.436700 0.156200
3.458800 0.181600
3.480800 0.209100
3.502900 0.238500
3.525000 0.270000
3.547100 0.303600
3.569100 0.339100
3.591200 0.376700
3.613300 0.416400
3.635400 0.458000
3.657400 0.509800
3.679500 0.568600
3.701600 0.615700
3.723700 0.661800
3.745700 0.706900
3.767800 0.754900
3.789900 0.801500
3.812000 0.846200
3.834000 0.888300
3.856100 0.927500
3.878200 0.963800
3.900200 0.997700
3.922300 1.029200
3.944400 1.058300
3.966500 1.085100
3.988500 1.099800
4.010600 1.104700
4.032700 1.119300
4.054800 1.143100
4.076800 1.167200
4.098900 1.191400
4.121000 1.215700
4.143100 1.240100
4.165100 1.264600
4.187200 1.289200
4.209300 1.313800
4.231400 1.338600
4.253400 1.363500
4.275500 1.388400
4.297600 1.424700
4.319700 1.484700
4.341700 1.558400
4.363800 1.644800
4.385900 1.745200
4.408000 1.863700
4.430000 2.013700
4.452100 2.206000
4.474200 2.709900
4.496200 3.101000
4.518300 3.382700
4.540400 3.635500
4.562500 4.024900
4.584500 3.807000
4.606600 3.501100
4.628700 3.194100
4.650800 2.885900
4.672800 2.576600
4.694900 2.266100
4.717000 1.954400
4.739100 1.641600
4.761100 3.741300
4.783200 1.301400
4.805300 0.000000
4.827400 0.000000
4.849400 0.000000
4.871500 0.000000
4.893600 0.000000
4.915700 0.000000
4.937700 0.000000
4.959800 0.000000
4.981900 0.000000
5.003900 0.000000
5.026000 0.000000
5.048100 0.011400
5.070200 1.587800
5.092200 3.137300
5.114300 3.489200
5.136400 3.558800
5.158500 4.313700
5.180500 5.068700
5.202600 5.810200
5.224700 6.114900
5.246800 5.876200
5.268800 4.953600
5.290900 4.599500
5.313000 4.225900
5.335100 4.149300
5.357100 4.054000
5.379200 3.916300
5.401300 3.774100
5.423400 3.632500
5.445400 3.676000
5.467500 3.927900
5.489600 4.564000
5.511700 3.957900
5.533700 1.559700
5.555800 0.126000
5.577900 0.000000
5.599900 0.000000
5.622000 0.000000
5.644100 0.000000
5.666200 0.000000
5.688200 0.000000
5.710300 0.000000
5.732400 0.000000
5.754500 0.000000
5.776500 0.000000
5.798600 0.000000
5.820700 0.000000
5.842800 0.000000
5.864800 0.000000
5.886900 0.000000
5.909000 0.000000
5.931100 0.000000
5.953100 0.000000
5.975200 0.000000
5.997300 0.000000
6.019400 0.000000
6.041400 0.000000
6.063500 0.000000
6.085600 0.000000
6.107700 0.000000
6.129700 0.000000
6.151800 0.000000
6.173900 0.000000
6.195900 0.000000
6.218000 0.000000
6.240100 0.000000
6.262200 0.000000
6.284200 0.000000
6.306300 0.000000
6.328400 0.000000
6.350500 0.000000
6.372500 0.000000
6.394600 0.000000
6.416700 0.000000
6.438800 0.000000
6.460800 0.000000
6.482900 0.000000
6.505000 0.000000
6.527100 0.000000
6.549100 0.000000
6.571200 0.000000
6.593300 0.000000
6.615400 0.000000
6.637400 0.000000
6.659500 0.000000
6.681600 0.000000
6.703600 0.000000
6.725700 0.000000
6.747800 0.000000
6.769900 0.000000
6.791900 0.000000
6.814000 0.000000
6.836100 0.000000
6.858200 0.000000
6.880200 0.000000
6.902300 0.000000
6.924400 0.000000
6.946500 0.000000
6.968500 0.000000
6.990600 0.019200
7.012700 0.067000
7.034800 0.136300
7.056800 0.238400
7.078900 0.364900
7.101000 0.491900
7.123100 0.619000
7.145100 0.746100
7.167200 0.873400
7.189300 1.000800
7.211400 1.128300
7.233400 1.255800
7.255500 1.383500
7.277600 1.524600
7.299600 1.647700
7.321700 1.758300
7.343800 1.857200
7.365900 1.856500
7.387900 1.856800
7.410000 1.858200
7.432100 1.860600
7.454200 1.864000
7.476200 1.868500
7.498300 1.874000
7.520400 1.929900
7.542500 2.087600
7.564500 2.294200
7.586600 2.549600
7.608700 2.855200
7.630800 3.217700
7.652800 3.639200
7.674900 4.086700
7.697000 4.853900
7.719100 4.926900
7.741100 4.982500
7.763200 5.282000
7.785300 5.022800
7.807300 4.567500
7.829400 4.008800
7.851500 2.389100
7.873600 1.410200
7.895600 0.853200
7.917700 0.480200
7.939800 0.216300
7.961900 0.082600
7.983900 0.083500
8.006000 0.563200
8.028100 0.535800
8.050200 0.591700
8.072200 0.656800
8.094300 0.731000
8.116400 0.822400
8.138500 0.937100
8.160500 1.075900
8.182600 1.221600
8.204700 1.340800
8.226800 1.435900
8.248800 1.507900
8.270900 1.561500
8.293000 1.604300
8.315100 1.717000
8.337100 1.830500
8.359200 1.944700
8.381300 2.059800
8.403300 2.175600
8.425400 2.292200
8.447500 2.401200
8.469600 2.266100
8.491600 2.253100
8.513700 2.226300
8.535800 2.186300
8.557900 2.153400
8.579900 2.111800
8.602000 2.048100
8.624100 1.978800
8.646200 1.891300
8.668200 1.795100
8.690300 1.687400
8.712400 1.521900
8.734500 1.485500
8.756500 1.453000
8.778600 1.424100
8.800700 1.398200
8.822800 1.389200
8.844800 1.442700
8.866900 1.528700
8.889000 1.647300
8.911000 1.798500
8.933100 1.994200
8.955200 3.343000
8.977300 4.599800
8.999300 5.562800
9.021400 6.081700
9.043500 6.655300
9.065600 7.266800
9.087600 7.598200
9.109700 9.199600
9.131800 9.075900
9.153900 6.579500
9.175900 6.527400
9.198000 6.380200
9.220100 5.610000
9.242200 4.337400
9.264200 3.981600
9.286300 3.554400
9.308400 2.933000
9.330500 2.476900
9.352500 2.154400
9.374600 2.020400
9.396700 1.933300
9.418800 1.874900
9.440800 1.843200
9.462900 1.858500
9.485000 1.925100
9.507000 2.087100
9.529100 2.357600
9.551200 2.704800
9.573300 6.656400
9.595300 12.822100
9.617400 10.237800
9.639500 7.119400
9.661600 5.358500
9.683600 5.676200
9.705700 6.765900
9.727800 6.653700
9.749900 6.171500
9.771900 5.943300
9.794000 5.787600
9.816100 5.767300
9.838200 5.881400
9.860200 5.437900
9.882300 4.820500
9.904400 4.220800
9.926500 3.830300
9.948500 3.536100
9.970600 3.449000
9.992700 3.269100
10.014800 2.594300
10.036800 2.432600
10.058900 2.438000
10.081000 2.450100
10.103000 2.543600
10.125100 2.833800
10.147200 3.037000
10.169300 3.241700
10.191300 3.406500
10.213400 3.687100
10.235500 3.494700
10.257600 3.175600
10.279600 2.856000
10.301700 2.535800
10.323800 2.215000
10.345900 1.893600
10.367900 1.571700
10.390000 3.544400
10.412100 2.457400
10.434200 0.081500
10.456200 0.000000
10.478300 0.000000
10.500400 0.000000
10.522500 0.000000
10.544500 0.058600
10.566600 0.318600
10.588700 2.005900
10.610700 2.513700
10.632800 1.427300
10.654900 1.420800
10.677000 1.588800
10.699000 1.779900
10.721100 1.971400
10.743200 2.163300
10.765300 2.355600
10.787300 2.548400
10.809400 2.741600
10.831500 2.935200
10.853600 3.129300
10.875600 3.323800
10.897700 3.319100
10.919800 3.008500
10.941900 2.366000
10.963900 2.215800
10.986000 2.125400
11.008100 2.090100
11.030200 2.055300
11.052200 2.021300
11.074300 1.991500
11.096400 1.967000
11.118500 1.948400
11.140500 1.936800
11.162600 1.930900
11.184700 1.929700
11.206700 1.933400
11.228800 1.941800
11.250900 1.955000
11.273000 1.975300
11.295000 2.036900
11.317100 2.151300
11.339200 2.318300
11.361300 2.538100
11.383300 2.810700
11.405400 2.702700
11.427500 1.792900
11.449600 1.112600
11.471600 0.853200
11.493700 0.627100
11.515800 0.432000
11.537900 0.267800
11.559900 0.134400
11.582000 0.217300
11.604100 1.018400
11.626200 1.116800
11.648200 0.937200
11.670300 0.781500
11.692400 0.729700
11.714400 0.701000
11.736500 0.694400
11.758600 0.695500
11.780700 0.699400
11.802700 0.706000
11.824800 0.715400
11.846900 0.729000
11.869000 0.774300
11.891000 0.819600
11.913100 0.862100
11.935200 0.901700
11.957300 0.938600
11.979300 0.972600
12.001400 1.003800
12.023500 1.032200
12.045600 1.057900
12.067600 1.082600
12.089700 1.106800
12.111800 1.130300
12.133900 1.153300
12.155900 1.176200
12.178000 1.204700
12.200100 1.250300
12.222200 1.320400
12.244200 1.398400
12.266300 1.483100
12.288400 1.574400
12.310400 1.671700
12.332500 1.774900
12.354600 1.884100
12.376700 1.994600
12.398700 2.143200
12.420800 2.325100
12.442900 2.573600
12.465000 2.964400
12.487000 3.220400
12.509100 3.726800
12.531200 3.956700
12.553300 3.058300
12.575300 2.931200
12.597400 2.838700
12.619500 2.737500
12.641600 2.628500
12.663600 2.510700
12.685700 2.350200
12.707800 2.103500
12.729900 1.847400
12.751900 1.542400
12.774000 1.275900
12.796100 1.081400
12.818100 0.976600
12.840200 0.936900
12.862300 0.945900
12.884400 0.944300
12.906400 0.945700
12.928500 0.955100
12.950600 0.973100
12.972700 1.017200
12.994700 1.096000
13.016800 1.188100
13.038900 1.318500
13.061000 1.468000
13.083000 1.618300
13.105100 1.777200
13.127200 2.157900
13.149300 2.349000
13.171300 2.520300
13.193400 2.666900
13.215500 2.901800
13.237600 3.868300
13.259600 3.197400
13.281700 3.213300
13.303800 3.295300
13.325900 3.393900
13.347900 3.508400
13.370000 3.412300
13.392100 3.194900
13.414100 3.314900
13.436200 3.936200
13.458300 4.437600
13.480400 4.852700
13.502400 5.325900
13.524500 5.783500
13.546600 5.755000
13.568700 6.189600
13.590700 6.827700
13.612800 7.579900
13.634900 8.810100
13.657000 8.117300
13.679000 7.429400
13.701100 7.296700
13.723200 7.274200
13.745300 7.540000
13.767300 7.890800
13.789400 8.418000
13.811500 9.030700
13.833600 10.644700
13.855600 11.534500
13.877700 11.801600
13.899800 12.323300
13.921900 12.947800
13.943900 13.426700
13.966000 12.432600
13.988100 11.529000
14.010100 10.533300
14.032200 9.722000
14.054300 9.039900
14.076400 8.344600
14.098400 7.808500
14.120500 7.476900
14.142600 7.210700
14.164700 6.979400
14.186700 6.779400
14.208800 6.599500
14.230900 6.462200
14.253000 6.438000
14.275000 6.547300
14.297100 6.560000
14.319200 6.286100
14.341300 6.407600
14.363300 6.387700
14.385400 6.078400
14.407500 5.774500
14.429600 5.625400
14.451600 5.530900
14.473700 5.554800
14.495800 5.502900
14.517800 5.410800
14.539900 5.471800
14.562000 5.546400
14.584100 5.432500
14.606100 5.390700
14.628200 5.389600
14.650300 5.281800
14.672400 5.125000
14.694400 4.833100
14.716500 4.610400
14.738600 4.503200
14.760700 4.635300
14.782700 4.704200
14.804800 4.629900
14.826900 4.452300
14.849000 4.198300
14.871000 4.178100
14.893100 3.920300
14.915200 3.473700
14.937300 3.104200
14.959300 2.965900
14.981400 2.961300
15.003500 3.036400
15.025600 3.118600
15.047600 3.187300
15.069700 3.254700
15.091800 3.521200
15.113800 3.651400
15.135900 3.798900
15.158000 3.962900
15.180100 4.122100
15.202100 4.241600
15.224200 4.328800
15.246300 4.381300
15.268400 4.379600
15.290400 4.301500
15.312500 4.264300
15.334600 4.204600
15.356700 3.813500
15.378700 3.662600
15.400800 2.980500
15.422900 2.752500
15.445000 2.514200
15.467000 2.286700
15.489100 2.072000
15.511200 1.872100
15.533300 1.688300
15.555300 1.535000
15.577400 1.424000
15.599500 1.354800
15.621500 1.327500
15.643600 1.481300
15.665700 1.642100
15.687800 1.793700
15.709800 1.959200
15.731900 2.138500
15.754000 2.734800
15.776100 2.682500
15.798100 3.179800
15.820200 3.670200
15.842300 4.007900
15.864400 3.828700
15.886400 3.692400
15.908500 3.653000
15.930600 3.563800
15.952700 3.477700
15.974700 3.400000
15.996800 3.330500
16.018900 3.269500
16.041000 3.199600
16.063000 3.112900
16.085100 3.026700
16.107200 2.930400
16.129300 2.849300
16.151300 2.382800
16.173400 2.115700
16.195500 1.924400
16.217500 1.738100
16.239600 1.574700
16.261700 1.456300
16.283800 1.368300
16.305800 1.279400
16.327900 1.189900
16.350000 1.101000
16.372100 1.013100
16.394100 0.926000
16.416200 0.851900
16.438300 0.826000
16.460400 0.989000
16.482400 1.110300
16.504500 1.189100
16.526600 1.276100
16.548700 1.360700
16.570700 1.474800
16.592800 1.598700
16.614900 1.739200
16.637000 1.898500
16.659000 2.060900
16.681100 2.471700
16.703200 2.373100
16.725200 2.124400
16.747300 2.405500
16.769400 2.378800
16.791500 2.747700
16.813500 2.918800
16.835600 3.020500
16.857700 3.109200
16.879800 3.192200
16.901800 3.267000
16.923900 3.262400
16.946000 3.124500
16.968100 3.055700
16.990100 3.032100
17.012200 3.025200
17.034300 3.035000
17.056400 3.064100
17.078400 3.128400
17.100500 3.274400
17.122600 3.629600
17.144700 4.050800
17.166700 4.622500
17.188800 5.064000
17.210900 5.356300
17.233000 5.534400
17.255000 5.611200
17.277100 5.543500
17.299200 5.389400
17.321200 5.199300
17.343300 4.853300
17.365400 4.349800
17.387500 3.918600
17.409500 3.805500
17.431600 3.775900
17.453700 3.787300
17.475800 3.823400
17.497800 3.873100
17.519900 3.929700
17.542000 3.982500
17.564100 3.983100
17.586100 4.007300
17.608200 3.730000
17.630300 3.388200
17.652400 3.192800
17.674400 3.048800
17.696500 2.908200
17.718600 2.790400
17.740700 2.714100
17.762700 2.655300
17.784800 2.619700
17.806900 2.620700
17.829000 2.659600
17.851000 2.724900
17.873100 2.808500
17.895200 2.895300
17.917200 2.980200
17.939300 3.054500
17.961400 3.123500
17.983500 3.189400
18.005500 3.256900
18.027600 3.316200
18.049700 3.367100
18.071800 3.421600
18.093800 3.480400
18.115900 3.553100
18.138000 3.620200
18.160100 3.705300
18.182100 3.774700
18.204200 3.834400
18.226300 3.892500
18.248400 3.948200
18.270400 4.015600
18.292500 4.102400
18.314600 4.210500
18.336700 4.610000
18.358700 4.751300
18.380800 5.584000
18.402900 6.630100
18.424900 5.181000
18.447000 4.020400
18.469100 3.554800
18.491200 3.376600
18.513200 3.281800
18.535300 3.485400
18.557400 4.353100
18.579500 5.235200
18.601500 4.638400
18.623600 4.944300
18.645700 5.556400
18.667800 5.174800
18.689800 4.736400
18.711900 4.357000
18.734000 4.044200
18.756100 3.740400
18.778100 1.992100
18.800200 1.268000
18.822300 1.098000
18.844400 0.932800
18.866400 1.011000
18.888500 1.150300
18.910600 1.294900
18.932700 1.447100
18.954700 1.647600
18.976800 2.000400
18.998900 2.333700
19.020900 2.682000
19.043000 3.076900
19.065100 3.635900
19.087200 3.770300
19.109200 3.714400
19.131300 3.621200
19.153400 3.491400
19.175500 3.347600
19.197500 3.207900
19.219600 3.085100
19.241700 3.009400
19.263800 2.909400
19.285800 2.812600
19.307900 2.753500
19.330000 2.737300
19.352100 2.725700
19.374100 2.719000
19.396200 2.721600
19.418300 2.767600
19.440400 3.191200
19.462400 3.023200
19.484500 2.840500
19.506600 2.789800
19.528600 2.869400
19.550700 3.085700
19.572800 3.069700
19.594900 2.957100
19.616900 2.970900
19.639000 3.098000
19.661100 3.353100
19.683200 3.660700
19.705200 3.415000
19.727300 3.306600
19.749400 3.363800
19.771500 3.380200
19.793500 3.319300
19.815600 3.217800
19.837700 3.054000
19.859800 2.828200
19.881800 2.563000
19.903900 2.303400
19.926000 2.147800
19.948100 2.075900
19.970100 2.017800
19.992200 1.989200
20.014300 2.000900
20.036400 2.019400
20.058400 2.030900
20.080500 2.034400
20.102600 2.029400
20.124600 2.019600
20.146700 2.058700
20.168800 2.204600
20.190900 2.403700
20.212900 2.735500
20.235000 2.523400
20.257100 2.600200
20.279200 2.688200
20.301200 2.784500
20.323300 2.950200
20.345400 3.478700
20.367500 4.560200
20.389500 4.927600
20.411600 5.185600
20.433700 5.372600
20.455800 5.420100
20.477800 5.437000
20.499900 5.334400
20.522000 5.074600
20.544100 4.753200
20.566100 4.393200
20.588200 4.067100
20.610300 3.908200
20.632300 3.989600
20.654400 3.434800
20.676500 2.984400
20.698600 2.731200
20.720600 2.490600
20.742700 2.278200
20.764800 1.999700
20.786900 1.690400
20.808900 1.238600
20.831000 0.720300
20.853100 0.541900
20.875200 0.449200
20.897200 0.354200
20.919300 0.254500
20.941400 0.150000
20.963500 0.053900
20.985500 0.014700
21.007600 0.000100
21.029700 0.000000
21.051800 0.000000
21.073800 0.000000
21.095900 0.000000
21.118000 0.000000
21.140100 0.000000
21.162100 0.000000
21.184200 0.000000
21.206300 0.000000
21.228300 0.000000
21.250400 0.000000
21.272500 0.000000
21.294600 0.000000
21.316600 0.000000
21.338700 0.000000
21.360800 0.000000
21.382900 0.000000
21.404900 0.000000
21.427000 0.000000
21.449100 0.000000
21.471200 0.000000
21.493200 0.000000
21.515300 0.000000
21.537400 0.000000
21.559500 0.000000
21.581500 0.000000
21.603600 0.000000
21.625700 0.000000
21.647800 0.000000
21.669800 0.000000
21.691900 0.000000
21.714000 0.000000
21.736100 0.000000
21.758100 0.000000
21.780200 0.000000
21.802300 0.000000
21.824300 0.000000
21.846400 0.000000
21.868500 0.000000
21.890600 0.000000
21.912600 0.000000
21.934700 0.000000
21.956800 0.000000
21.978900 0.000000
22.000900 0.000000
22.023000 0.000000
22.045100 0.000000
22.067200 0.000000
22.089200 0.000000
22.111300 0.000000
22.133400 0.000000
22.155500 0.000000
22.177500 0.000000
22.199600 0.000000
22.221700 0.000000
22.243800 0.000000
22.265800 0.000000
22.287900 0.000000
22.310000 0.000000
22.332000 0.000000
22.354100 0.000000
22.376200 0.000000
22.398300 0.000000
22.420300 0.000000
22.442400 0.000000
22.464500 0.000000
22.486600 0.000000
22.508600 0.000000
22.530700 0.000000
22.552800 0.000000
22.574900 0.000000
22.596900 0.000000
22.619000 0.000000
22.641100 0.000000
22.663200 0.000000
22.685200 0.000000
22.707300 0.000000
22.729400 0.000000
22.751500 0.000000
22.773500 0.000000
22.795600 0.000000
22.817700 0.000000
22.839800 0.000000
22.861800 0.000000
22.883900 0.000000
22.906000 0.000000
22.928000 0.000000
22.950100 0.000000
22.972200 0.000000
22.994300 0.000000
23.016300 0.000000
e
