set title 'mp-1007862 - Density of States'
set xlabel 'Energy (eV)'
set ylabel 'DOS (states/eV)'
set grid
set xrange [-10:10]
set yrange [0:6.786]
set xzeroaxis lt -1
set terminal png size 800,600
set output 'mp-1007862_dos_gnuplot.png'
plot '-' using 1:2 with lines title 'DOS'
-63.817500 0.000000
-63.754600 0.000000
-63.691800 0.000000
-63.629000 0.000000
-63.566100 0.000000
-63.503300 0.000000
-63.440400 0.000000
-63.377600 0.000000
-63.314700 0.000000
-63.251900 0.000000
-63.189100 0.000000
-63.126200 0.000000
-63.063400 0.000000
-63.000500 0.000000
-62.937700 0.000000
-62.874900 0.000000
-62.812000 0.000000
-62.749200 0.000000
-62.686300 0.000000
-62.623500 0.000000
-62.560600 0.000000
-62.497800 0.000000
-62.435000 0.000000
-62.372100 0.000000
-62.309300 0.000000
-62.246400 0.000000
-62.183600 0.000000
-62.120800 0.000000
-62.057900 0.000000
-61.995100 0.000000
-61.932200 0.000000
-61.869400 0.000000
-61.806500 0.000000
-61.743700 0.000000
-61.680900 0.000000
-61.618000 0.000000
-61.555200 0.000000
-61.492300 0.000000
-61.429500 0.000000
-61.366700 0.000000
-61.303800 0.000000
-61.241000 0.000000
-61.178100 0.000000
-61.115300 0.000000
-61.052400 0.000000
-60.989600 0.000000
-60.926800 0.000000
-60.863900 0.000000
-60.801100 0.000000
-60.738200 0.000000
-60.675400 0.000000
-60.612600 0.000000
-60.549700 0.000000
-60.486900 0.000000
-60.424000 0.000000
-60.361200 0.000000
-60.298300 0.000000
-60.235500 0.000000
-60.172700 0.000000
-60.109800 0.000000
-60.047000 0.000000
-59.984100 0.000000
-59.921300 0.000000
-59.858500 0.000000
-59.795600 0.000000
-59.732800 0.000000
-59.669900 0.000000
-59.607100 0.000000
-59.544200 0.000000
-59.481400 0.000000
-59.418600 0.000000
-59.355700 0.000000
-59.292900 0.000000
-59.230000 0.000000
-59.167200 0.000000
-59.104400 0.000000
-59.041500 0.000000
-58.978700 0.000000
-58.915800 0.000000
-58.853000 0.000000
-58.790100 0.000000
-58.727300 0.000000
-58.664500 0.000000
-58.601600 0.000000
-58.538800 0.000000
-58.475900 0.000000
-58.413100 0.000000
-58.350300 0.000000
-58.287400 0.000000
-58.224600 0.000000
-58.161700 0.000000
-58.098900 0.000000
-58.036000 0.000000
-57.973200 0.000000
-57.910400 0.000000
-57.847500 0.000000
-57.784700 0.000000
-57.721800 0.000000
-57.659000 0.000000
-57.596200 0.000000
-57.533300 1082.355700
-57.470500 0.000000
-57.407600 0.000000
-57.344800 0.000000
-57.281900 0.000000
-57.219100 0.000000
-57.156300 0.000000
-57.093400 0.000000
-57.030600 0.000000
-56.967700 0.000000
-56.904900 0.000000
-56.842100 0.000000
-56.779200 0.000000
-56.716400 0.000000
-56.653500 0.000000
-56.590700 0.000000
-56.527800 0.000000
-56.465000 0.000000
-56.402200 0.000000
-56.339300 0.000000
-56.276500 0.000000
-56.213600 0.000000
-56.150800 0.000000
-56.088000 0.000000
-56.025100 0.000000
-55.962300 0.000000
-55.899400 0.000000
-55.836600 0.000000
-55.773700 0.000000
-55.710900 0.000000
-55.648100 0.000000
-55.585200 0.000000
-55.522400 0.000000
-55.459500 0.000000
-55.396700 0.000000
-55.333900 0.000000
-55.271000 0.000000
-55.208200 0.000000
-55.145300 0.000000
-55.082500 0.000000
-55.019600 0.000000
-54.956800 0.000000
-54.894000 0.000000
-54.831100 0.000000
-54.768300 0.000000
-54.705400 0.000000
-54.642600 0.000000
-54.579800 0.000000
-54.516900 0.000000
-54.454100 0.000000
-54.391200 0.000000
-54.328400 0.000000
-54.265600 0.000000
-54.202700 0.000000
-54.139900 0.000000
-54.077000 0.000000
-54.014200 0.000000
-53.951300 0.000000
-53.888500 0.000000
-53.825700 0.000000
-53.762800 0.000000
-53.700000 0.000000
-53.637100 0.000000
-53.574300 0.000000
-53.511500 0.000000
-53.448600 0.000000
-53.385800 0.000000
-53.322900 0.000000
-53.260100 0.000000
-53.197200 0.000000
-53.134400 0.000000
-53.071600 0.000000
-53.008700 0.000000
-52.945900 0.000000
-52.883000 0.000000
-52.820200 0.000000
-52.757400 0.000000
-52.694500 0.000000
-52.631700 0.000000
-52.568800 0.000000
-52.506000 0.000000
-52.443100 0.000000
-52.380300 0.000000
-52.317500 0.000000
-52.254600 0.000000
-52.191800 0.000000
-52.128900 0.000000
-52.066100 0.000000
-52.003300 0.000000
-51.940400 0.000000
-51.877600 0.000000
-51.814700 0.000000
-51.751900 0.000000
-51.689000 0.000000
-51.626200 0.000000
-51.563400 0.000000
-51.500500 0.000000
-51.437700 0.000000
-51.374800 0.000000
-51.312000 0.000000
-51.249200 0.000000
-51.186300 0.000000
-51.123500 0.000000
-51.060600 0.000000
-50.997800 0.000000
-50.934900 0.000000
-50.872100 0.000000
-50.809300 0.000000
-50.746400 0.000000
-50.683600 0.000000
-50.620700 0.000000
-50.557900 0.000000
-50.495100 0.000000
-50.432200 0.000000
-50.369400 0.000000
-50.306500 0.000000
-50.243700 0.000000
-50.180800 0.000000
-50.118000 0.000000
-50.055200 0.000000
-49.992300 0.000000
-49.929500 0.000000
-49.866600 0.000000
-49.803800 0.000000
-49.741000 0.000000
-49.678100 0.000000
-49.615300 0.000000
-49.552400 0.000000
-49.489600 0.000000
-49.426700 0.000000
-49.363900 0.000000
-49.301100 0.000000
-49.238200 0.000000
-49.175400 0.000000
-49.112500 0.000000
-49.049700 0.000000
-48.986900 0.000000
-48.924000 0.000000
-48.861200 0.000000
-48.798300 0.000000
-48.735500 0.000000
-48.672600 0.000000
-48.609800 0.000000
-48.547000 0.000000
-48.484100 0.000000
-48.421300 0.000000
-48.358400 0.000000
-48.295600 0.000000
-48.232800 0.000000
-48.169900 0.000000
-48.107100 0.000000
-48.044200 0.000000
-47.981400 0.000000
-47.918500 0.000000
-47.855700 0.000000
-47.792900 0.000000
-47.730000 0.000000
-47.667200 0.000000
-47.604300 0.000000
-47.541500 0.000000
-47.478700 0.000000
-47.415800 0.000000
-47.353000 0.000000
-47.290100 0.000000
-47.227300 47.241000
-47.164400 0.000000
-47.101600 0.000000
-47.038800 0.000000
-46.975900 0.000000
-46.913100 0.000000
-46.850200 0.000000
-46.787400 0.000000
-46.724600 0.000000
-46.661700 0.000000
-46.598900 0.000000
-46.536000 0.000000
-46.473200 0.000000
-46.410300 0.000000
-46.347500 0.000000
-46.284700 0.000000
-46.221800 0.000000
-46.159000 18.901100
-46.096100 19.104900
-46.033300 1.375900
-45.970500 11.775400
-45.907600 17.793300
-45.844800 0.000000
-45.781900 0.000000
-45.719100 0.000000
-45.656300 0.000000
-45.593400 0.000000
-45.530600 0.000000
-45.467700 0.000000
-45.404900 0.000000
-45.342000 0.000000
-45.279200 0.000000
-45.216400 0.000000
-45.153500 0.000000
-45.090700 0.000000
-45.027800 0.000000
-44.965000 0.000000
-44.902200 0.000000
-44.839300 0.000000
-44.776500 0.000000
-44.713600 0.000000
-44.650800 0.000000
-44.587900 0.000000
-44.525100 0.000000
-44.462300 0.000000
-44.399400 0.000000
-44.336600 0.000000
-44.273700 0.000000
-44.210900 0.000000
-44.148100 0.000000
-44.085200 0.000000
-44.022400 0.000000
-43.959500 0.000000
-43.896700 0.000000
-43.833800 0.000000
-43.771000 0.000000
-43.708200 0.000000
-43.645300 0.000000
-43.582500 0.000000
-43.519600 0.000000
-43.456800 0.000000
-43.394000 0.000000
-43.331100 0.000000
-43.268300 0.000000
-43.205400 0.000000
-43.142600 0.000000
-43.079700 0.000000
-43.016900 0.000000
-42.954100 0.000000
-42.891200 0.000000
-42.828400 0.000000
-42.765500 0.000000
-42.702700 0.000000
-42.639900 0.000000
-42.577000 0.000000
-42.514200 0.000000
-42.451300 0.000000
-42.388500 0.000000
-42.325600 0.000000
-42.262800 0.000000
-42.200000 0.000000
-42.137100 0.000000
-42.074300 0.000000
-42.011400 0.000000
-41.948600 0.000000
-41.885800 0.000000
-41.822900 0.000000
-41.760100 0.000000
-41.697200 0.000000
-41.634400 0.000000
-41.571500 0.000000
-41.508700 0.000000
-41.445900 0.000000
-41.383000 0.000000
-41.320200 0.000000
-41.257300 0.000000
-41.194500 0.000000
-41.131700 0.000000
-41.068800 0.000000
-41.006000 0.000000
-40.943100 0.000000
-40.880300 0.000000
-40.817400 0.000000
-40.754600 0.000000
-40.691800 0.000000
-40.628900 0.000000
-40.566100 0.000000
-40.503200 0.000000
-40.440400 0.000000
-40.377600 0.000000
-40.314700 0.000000
-40.251900 0.000000
-40.189000 0.000000
-40.126200 0.000000
-40.063300 0.000000
-40.000500 0.000000
-39.937700 0.000000
-39.874800 0.000000
-39.812000 0.000000
-39.749100 0.000000
-39.686300 0.000000
-39.623500 0.000000
-39.560600 0.000000
-39.497800 0.000000
-39.434900 0.000000
-39.372100 0.000000
-39.309200 0.000000
-39.246400 0.000000
-39.183600 0.000000
-39.120700 0.000000
-39.057900 0.000000
-38.995000 0.000000
-38.932200 0.000000
-38.869400 0.000000
-38.806500 0.000000
-38.743700 0.000000
-38.680800 0.000000
-38.618000 0.000000
-38.555100 0.000000
-38.492300 0.000000
-38.429500 0.000000
-38.366600 0.000000
-38.303800 0.000000
-38.240900 0.000000
-38.178100 0.000000
-38.115300 0.000000
-38.052400 0.000000
-37.989600 0.000000
-37.926700 0.000000
-37.863900 0.000000
-37.801000 0.000000
-37.738200 0.000000
-37.675400 0.000000
-37.612500 0.000000
-37.549700 0.000000
-37.486800 0.000000
-37.424000 0.000000
-37.361200 0.000000
-37.298300 0.000000
-37.235500 0.000000
-37.172600 0.000000
-37.109800 0.000000
-37.047000 0.000000
-36.984100 0.000000
-36.921300 0.000000
-36.858400 0.000000
-36.795600 0.000000
-36.732700 0.000000
-36.669900 0.000000
-36.607100 0.000000
-36.544200 0.000000
-36.481400 0.000000
-36.418500 0.000000
-36.355700 0.000000
-36.292900 0.000000
-36.230000 0.000000
-36.167200 0.000000
-36.104300 0.000000
-36.041500 0.000000
-35.978600 0.000000
-35.915800 0.000000
-35.853000 0.000000
-35.790100 0.000000
-35.727300 0.000000
-35.664400 0.000000
-35.601600 0.000000
-35.538800 0.000000
-35.475900 0.000000
-35.413100 0.000000
-35.350200 0.000000
-35.287400 0.000000
-35.224500 0.000000
-35.161700 0.000000
-35.098900 0.000000
-35.036000 0.000000
-34.973200 0.000000
-34.910300 0.000000
-34.847500 0.000000
-34.784700 0.000000
-34.721800 0.000000
-34.659000 0.000000
-34.596100 0.000000
-34.533300 0.000000
-34.470400 0.000000
-34.407600 0.000000
-34.344800 0.000000
-34.281900 0.000000
-34.219100 0.000000
-34.156200 0.000000
-34.093400 0.000000
-34.030600 0.000000
-33.967700 0.000000
-33.904900 0.000000
-33.842000 0.000000
-33.779200 0.000000
-33.716300 0.000000
-33.653500 0.000000
-33.590700 0.000000
-33.527800 0.000000
-33.465000 0.000000
-33.402100 0.000000
-33.339300 0.000000
-33.276500 0.000000
-33.213600 0.000000
-33.150800 0.000000
-33.087900 0.000000
-33.025100 0.000000
-32.962200 0.000000
-32.899400 0.000000
-32.836600 0.000000
-32.773700 0.000000
-32.710900 0.000000
-32.648000 0.000000
-32.585200 0.000000
-32.522400 0.000000
-32.459500 0.000000
-32.396700 0.000000
-32.333800 0.000000
-32.271000 0.000000
-32.208100 0.000000
-32.145300 0.000000
-32.082500 0.000000
-32.019600 0.000000
-31.956800 0.000000
-31.893900 0.000000
-31.831100 0.000000
-31.768300 0.000000
-31.705400 0.000000
-31.642600 0.000000
-31.579700 0.000000
-31.516900 0.000000
-31.454000 0.000000
-31.391200 0.000000
-31.328400 0.000000
-31.265500 0.000000
-31.202700 0.000000
-31.139800 0.000000
-31.077000 0.000000
-31.014200 0.000000
-30.951300 0.000000
-30.888500 0.000000
-30.825600 0.000000
-30.762800 0.000000
-30.699900 0.000000
-30.637100 0.000000
-30.574300 0.000000
-30.511400 0.000000
-30.448600 0.000000
-30.385700 0.000000
-30.322900 0.000000
-30.260100 0.000000
-30.197200 0.000000
-30.134400 0.000000
-30.071500 0.000000
-30.008700 0.000000
-29.945800 0.000000
-29.883000 0.000000
-29.820200 0.000000
-29.757300 0.000000
-29.694500 0.000000
-29.631600 0.000000
-29.568800 0.000000
-29.506000 0.000000
-29.443100 0.000000
-29.380300 0.000000
-29.317400 0.000000
-29.254600 0.000000
-29.191700 0.000000
-29.128900 0.000000
-29.066100 0.000000
-29.003200 0.000000
-28.940400 0.000000
-28.877500 0.000000
-28.814700 0.000000
-28.751900 0.000000
-28.689000 0.000000
-28.626200 0.000000
-28.563300 0.000000
-28.500500 0.000000
-28.437600 0.000000
-28.374800 0.000000
-28.312000 0.000000
-28.249100 0.000000
-28.186300 0.000000
-28.123400 0.000000
-28.060600 0.000000
-27.997800 0.000000
-27.934900 0.000000
-27.872100 0.000000
-27.809200 0.000000
-27.746400 0.000000
-27.683600 0.000000
-27.620700 0.000000
-27.557900 0.000000
-27.495000 0.000000
-27.432200 0.000000
-27.369300 0.000000
-27.306500 0.000000
-27.243700 0.000000
-27.180800 0.000000
-27.118000 0.000000
-27.055100 0.000000
-26.992300 0.000000
-26.929500 0.000000
-26.866600 0.000000
-26.803800 0.000000
-26.740900 0.000000
-26.678100 0.000000
-26.615200 0.000000
-26.552400 0.000000
-26.489600 0.000000
-26.426700 0.000000
-26.363900 0.000000
-26.301000 0.000000
-26.238200 0.000000
-26.175400 0.000000
-26.112500 0.000000
-26.049700 0.000000
-25.986800 0.000000
-25.924000 0.000000
-25.861100 0.000000
-25.798300 0.000000
-25.735500 0.000000
-25.672600 0.000000
-25.609800 0.000000
-25.546900 0.000000
-25.484100 0.000000
-25.421300 0.000000
-25.358400 0.000000
-25.295600 0.000000
-25.232700 0.000000
-25.169900 0.000000
-25.107000 0.000000
-25.044200 0.000000
-24.981400 0.000000
-24.918500 0.000000
-24.855700 0.000000
-24.792800 0.000000
-24.730000 0.000000
-24.667200 0.000000
-24.604300 0.000000
-24.541500 0.000000
-24.478600 0.000000
-24.415800 0.000000
-24.352900 0.000000
-24.290100 0.000000
-24.227300 0.000000
-24.164400 0.000000
-24.101600 0.000000
-24.038700 0.000000
-23.975900 0.000000
-23.913100 0.000000
-23.850200 0.000000
-23.787400 0.000000
-23.724500 0.000000
-23.661700 0.000000
-23.598800 0.000000
-23.536000 0.000000
-23.473200 0.000000
-23.410300 0.000000
-23.347500 0.000000
-23.284600 0.000000
-23.221800 0.000000
-23.159000 0.000000
-23.096100 0.000000
-23.033300 0.000000
-22.970400 0.000000
-22.907600 0.000000
-22.844700 0.000000
-22.781900 0.000000
-22.719100 0.000000
-22.656200 0.000000
-22.593400 0.000000
-22.530500 0.000000
-22.467700 0.000000
-22.404900 0.000000
-22.342000 0.000000
-22.279200 0.000000
-22.216300 0.000000
-22.153500 0.000000
-22.090600 0.000000
-22.027800 0.000000
-21.965000 0.000000
-21.902100 0.000000
-21.839300 0.000000
-21.776400 0.000000
-21.713600 0.000000
-21.650800 0.000000
-21.587900 0.000000
-21.525100 0.000000
-21.462200 0.000000
-21.399400 0.000000
-21.336500 0.000000
-21.273700 0.000000
-21.210900 0.000000
-21.148000 0.000000
-21.085200 0.000000
-21.022300 0.000000
-20.959500 0.000000
-20.896700 0.000000
-20.833800 0.000000
-20.771000 0.000000
-20.708100 0.000000
-20.645300 0.000000
-20.582400 0.000000
-20.519600 0.000000
-20.456800 0.000000
-20.393900 0.000000
-20.331100 0.000000
-20.268200 0.000000
-20.205400 0.000000
-20.142600 0.000000
-20.079700 0.000000
-20.016900 0.000000
-19.954000 0.000000
-19.891200 0.000000
-19.828300 0.000000
-19.765500 0.000000
-19.702700 0.000000
-19.639800 0.000000
-19.577000 0.000000
-19.514100 0.000000
-19.451300 0.000000
-19.388500 0.000000
-19.325600 0.000000
-19.262800 0.000000
-19.199900 0.000000
-19.137100 0.000000
-19.074300 0.000000
-19.011400 0.000000
-18.948600 0.000000
-18.885700 0.000000
-18.822900 0.000000
-18.760000 0.000000
-18.697200 0.000000
-18.634400 0.000000
-18.571500 0.000000
-18.508700 0.000000
-18.445800 0.000000
-18.383000 0.000000
-18.320200 0.000000
-18.257300 0.000000
-18.194500 0.000000
-18.131600 0.000000
-18.068800 0.000000
-18.005900 0.000000
-17.943100 0.000000
-17.880300 0.000000
-17.817400 0.000000
-17.754600 0.000000
-17.691700 0.000000
-17.628900 0.000000
-17.566100 0.000000
-17.503200 0.000000
-17.440400 0.000000
-17.377500 0.000000
-17.314700 0.000000
-17.251800 0.000000
-17.189000 0.000000
-17.126200 0.000000
-17.063300 0.000000
-17.000500 0.000000
-16.937600 0.000000
-16.874800 0.000000
-16.812000 0.000000
-16.749100 0.000000
-16.686300 0.000000
-16.623400 0.000000
-16.560600 0.000000
-16.497700 0.000000
-16.434900 0.000000
-16.372100 0.000000
-16.309200 0.000000
-16.246400 0.000000
-16.183500 0.000000
-16.120700 0.000000
-16.057900 0.000000
-15.995000 0.000000
-15.932200 0.000000
-15.869300 0.000000
-15.806500 0.000000
-15.743600 0.000000
-15.680800 0.000000
-15.618000 0.000000
-15.555100 0.000000
-15.492300 0.000000
-15.429400 0.000000
-15.366600 0.000000
-15.303800 0.000000
-15.240900 0.000000
-15.178100 0.000000
-15.115200 0.000000
-15.052400 0.000000
-14.989500 0.000000
-14.926700 0.000000
-14.863900 0.000000
-14.801000 0.000000
-14.738200 0.000000
-14.675300 0.000000
-14.612500 0.000000
-14.549700 0.000000
-14.486800 0.000000
-14.424000 0.000000
-14.361100 0.000000
-14.298300 0.000000
-14.235400 0.000000
-14.172600 0.000000
-14.109800 0.000000
-14.046900 0.000000
-13.984100 0.000000
-13.921200 0.000000
-13.858400 0.000000
-13.795600 0.000000
-13.732700 0.000000
-13.669900 0.000000
-13.607000 0.000000
-13.544200 0.000000
-13.481300 0.000000
-13.418500 0.000000
-13.355700 0.000000
-13.292800 0.000000
-13.230000 0.000000
-13.167100 0.000000
-13.104300 0.000000
-13.041500 0.000000
-12.978600 0.000000
-12.915800 0.000000
-12.852900 0.000000
-12.790100 0.000000
-12.727200 0.000000
-12.664400 0.000000
-12.601600 0.000000
-12.538700 0.000000
-12.475900 0.000000
-12.413000 0.000000
-12.350200 0.000000
-12.287400 0.000000
-12.224500 0.000000
-12.161700 0.000000
-12.098800 0.000000
-12.036000 0.000000
-11.973100 0.000000
-11.910300 0.000000
-11.847500 0.000000
-11.784600 0.000000
-11.721800 0.000000
-11.658900 0.000000
-11.596100 0.000000
-11.533300 0.000000
-11.470400 0.000000
-11.407600 0.000000
-11.344700 0.000000
-11.281900 0.000000
-11.219000 0.000000
-11.156200 0.000000
-11.093400 0.000000
-11.030500 0.000000
-10.967700 0.000000
-10.904800 0.000000
-10.842000 0.000000
-10.779200 0.000000
-10.716300 0.000000
-10.653500 0.000000
-10.590600 0.000000
-10.527800 0.000000
-10.464900 0.000000
-10.402100 0.000000
-10.339300 0.000000
-10.276400 0.000000
-10.213600 0.000000
-10.150700 0.000000
-10.087900 0.000000
-10.025100 0.000000
-9.962200 0.000000
-9.899400 0.000000
-9.836500 0.000000
-9.773700 0.000000
-9.710900 0.000000
-9.648000 0.000000
-9.585200 0.000000
-9.522300 0.000000
-9.459500 0.000000
-9.396600 0.000000
-9.333800 0.000000
-9.271000 0.000000
-9.208100 0.000000
-9.145300 0.000000
-9.082400 0.000000
-9.019600 0.000000
-8.956800 0.000000
-8.893900 0.000000
-8.831100 0.000000
-8.768200 0.000000
-8.705400 0.000000
-8.642500 0.000000
-8.579700 0.000000
-8.516900 0.000000
-8.454000 0.000000
-8.391200 0.000000
-8.328300 0.000000
-8.265500 0.000000
-8.202700 0.000000
-8.139800 0.000000
-8.077000 0.000000
-8.014100 0.000000
-7.951300 0.000000
-7.888400 0.000000
-7.825600 0.000000
-7.762800 0.000000
-7.699900 0.000000
-7.637100 0.000000
-7.574200 0.000000
-7.511400 0.000000
-7.448600 0.000000
-7.385700 0.000000
-7.322900 0.000000
-7.260000 0.000000
-7.197200 0.000000
-7.134300 0.000000
-7.071500 0.000000
-7.008700 0.000000
-6.945800 0.000000
-6.883000 0.000000
-6.820100 0.000000
-6.757300 0.000000
-6.694500 0.000000
-6.631600 0.000000
-6.568800 0.000000
-6.505900 0.000000
-6.443100 0.000000
-6.380200 0.000000
-6.317400 0.000000
-6.254600 0.000000
-6.191700 0.000000
-6.128900 0.000000
-6.066000 0.000000
-6.003200 0.000000
-5.940400 0.000000
-5.877500 0.000000
-5.814700 0.000000
-5.751800 0.000000
-5.689000 0.000000
-5.626100 0.000000
-5.563300 0.000000
-5.500500 0.000000
-5.437600 0.000000
-5.374800 0.000000
-5.311900 0.000000
-5.249100 0.000000
-5.186300 0.000000
-5.123400 0.000000
-5.060600 0.000000
-4.997700 0.000000
-4.934900 0.000000
-4.872000 0.000000
-4.809200 0.000000
-4.746400 0.000000
-4.683500 0.000000
-4.620700 0.000000
-4.557800 0.000000
-4.495000 0.000000
-4.432200 0.000000
-4.369300 0.000000
-4.306500 0.000000
-4.243600 0.000000
-4.180800 0.000000
-4.117900 0.000000
-4.055100 0.000000
-3.992300 0.000000
-3.929400 0.000000
-3.866600 0.000000
-3.803700 0.000000
-3.740900 0.000000
-3.678100 0.000000
-3.615200 0.000000
-3.552400 0.000000
-3.489500 0.000000
-3.426700 0.000000
-3.363800 0.000000
-3.301000 0.000000
-3.238200 0.000000
-3.175300 0.000000
-3.112500 0.000000
-3.049600 0.000000
-2.986800 0.000000
-2.924000 0.000000
-2.861100 0.000000
-2.798300 0.000000
-2.735400 0.000100
-2.672600 0.021500
-2.609700 0.043800
-2.546900 0.053600
-2.484100 0.064000
-2.421200 0.076400
-2.358400 0.083700
-2.295500 0.090600
-2.232700 0.097400
-2.169900 0.103500
-2.107000 0.110700
-2.044200 0.119000
-1.981300 0.125800
-1.918500 0.130700
-1.855600 0.135500
-1.792800 0.140900
-1.730000 0.146200
-1.667100 0.152600
-1.604300 0.159200
-1.541400 0.166100
-1.478600 0.171700
-1.415800 0.176100
-1.352900 0.181000
-1.290100 0.186200
-1.227200 0.191900
-1.164400 0.197800
-1.101600 0.203700
-1.038700 0.209600
-0.975900 0.215500
-0.913000 0.221500
-0.850200 0.227800
-0.787300 0.233700
-0.724500 0.239700
-0.661700 0.245900
-0.598800 0.252500
-0.536000 0.259200
-0.473100 0.266300
-0.410300 0.275600
-0.347500 0.285300
-0.284600 0.296600
-0.221800 0.305900
-0.158900 0.306000
-0.096100 0.308100
-0.033200 0.312000
0.029600 0.316300
0.092400 0.331600
0.155300 0.338200
0.218100 0.349300
0.281000 0.368400
0.343800 0.392500
0.406600 0.417900
0.469500 0.433800
0.532300 0.446100
0.595200 0.476600
0.658000 0.486500
0.720900 0.459100
0.783700 0.452400
0.846500 0.439900
0.909400 0.428400
0.972200 0.444900
1.035100 0.472800
1.097900 0.516100
1.160700 0.551800
1.223600 0.619000
1.286400 0.719300
1.349300 0.749000
1.412100 0.771400
1.475000 0.780400
1.537800 0.900000
1.600600 1.150200
1.663500 1.174400
1.726300 1.381000
1.789200 1.379100
1.852000 1.912500
1.914800 1.839100
1.977700 1.913600
2.040500 1.935300
2.103400 2.007600
2.166200 1.961200
2.229100 1.951800
2.291900 1.965100
2.354700 2.027200
2.417600 2.068800
2.480400 2.383700
2.543300 2.614800
2.606100 3.099500
2.668900 2.986600
2.731800 3.091700
2.794600 3.632300
2.857500 3.993000
2.920300 3.429200
2.983200 3.897800
3.046000 2.807000
3.108800 2.897800
3.171700 3.092200
3.234500 3.755200
3.297400 3.182400
3.360200 2.841900
3.423000 3.635800
3.485900 3.876100
3.548700 2.922000
3.611600 3.060800
3.674400 2.303600
3.737300 3.025100
3.800100 3.493700
3.862900 4.680500
3.925800 3.420900
3.988600 3.275000
4.051500 3.709800
4.114300 4.359300
4.177100 4.582600
4.240000 4.381600
4.302800 3.557600
4.365700 2.983300
4.428500 3.317400
4.491400 4.380400
4.554200 3.984300
4.617000 4.474400
4.679900 4.322000
4.742700 4.718600
4.805600 6.169500
4.868400 5.119800
4.931200 4.719800
4.994100 4.380400
5.056900 4.373400
5.119800 4.562100
5.182600 4.148500
5.245500 3.775800
5.308300 3.528200
5.371100 3.675200
5.434000 3.373900
5.496800 3.194400
5.559700 2.956000
5.622500 2.864000
5.685300 2.655600
5.748200 2.646800
5.811000 2.375000
5.873900 1.958400
5.936700 1.897500
5.999600 1.921200
6.062400 1.940900
6.125200 2.893900
6.188100 2.495000
6.250900 3.546900
6.313800 3.796900
6.376600 4.579000
6.439400 4.239000
6.502300 4.688000
6.565100 5.034200
6.628000 4.829900
6.690800 5.296500
6.753700 5.031500
6.816500 5.861800
6.879300 3.933800
6.942200 4.179000
7.005000 5.183900
7.067900 4.498700
7.130700 5.642200
7.193500 4.125000
7.256400 3.306400
7.319200 3.801800
7.382100 2.114100
7.444900 1.919000
7.507700 1.514900
7.570600 1.347100
7.633400 1.170700
7.696300 1.071600
7.759100 1.122000
7.822000 1.067500
7.884800 0.955800
7.947600 0.871900
8.010500 0.762000
8.073300 0.743700
8.136200 0.724600
8.199000 0.710000
8.261800 0.680700
8.324700 0.655300
8.387500 0.635800
8.450400 0.647300
8.513200 0.615400
8.576100 0.604800
8.638900 0.591900
8.701700 0.578800
8.764600 0.570100
8.827400 0.580300
8.890300 0.573000
8.953100 0.575200
9.015900 0.593600
9.078800 0.622700
9.141600 0.645000
9.204500 0.656900
9.267300 0.660200
9.330200 0.644100
9.393000 0.641000
9.455800 0.616500
9.518700 0.616700
9.581500 0.621700
9.644400 0.628500
9.707200 0.636100
9.770000 0.633200
9.832900 0.629800
9.895700 0.630800
9.958600 0.633100
10.021400 0.596500
10.084300 0.563700
10.147100 0.519700
10.209900 0.476400
10.272800 0.442900
10.335600 0.389800
10.398500 0.358900
10.461300 0.338800
10.524100 0.334400
10.587000 0.329700
10.649800 0.323000
10.712700 0.333400
10.775500 0.354300
10.838400 0.381100
10.901200 0.416700
10.964000 0.483200
11.026900 0.510500
11.089700 0.490800
11.152600 0.462000
11.215400 0.436300
11.278200 0.410800
11.341100 0.386700
11.403900 0.366100
11.466800 0.350100
11.529600 0.336300
11.592500 0.324700
11.655300 0.314800
11.718100 0.305600
11.781000 0.293200
11.843800 0.284500
11.906700 0.276100
11.969500 0.267100
12.032300 0.257500
12.095200 0.246200
12.158000 0.233800
12.220900 0.220300
12.283700 0.204700
12.346600 0.188100
12.409400 0.176000
12.472200 0.160600
12.535100 0.144200
12.597900 0.130000
12.660800 0.159600
12.723600 0.238000
12.786400 0.429600
12.849300 0.632500
12.912100 0.759300
12.975000 0.587000
13.037800 0.503800
13.100700 0.509100
13.163500 0.616600
13.226300 0.697700
13.289200 0.731200
13.352000 0.771100
13.414900 0.784500
13.477700 0.762700
13.540500 0.736200
13.603400 0.762400
13.666200 0.735800
13.729100 0.706300
13.791900 0.685500
13.854800 0.657400
13.917600 0.634900
13.980400 0.621600
14.043300 0.616900
14.106100 0.616100
14.169000 0.613700
14.231800 0.606900
14.294600 0.610500
14.357500 0.586700
14.420300 0.572600
14.483200 0.563600
14.546000 0.557100
14.608900 0.548800
14.671700 0.544000
14.734500 0.539700
14.797400 0.532500
14.860200 0.528400
14.923100 0.526800
14.985900 0.526000
15.048700 0.525400
15.111600 0.536900
15.174400 0.589400
15.237300 0.558900
15.300100 0.552800
15.363000 0.544600
15.425800 0.540400
15.488600 0.534400
15.551500 0.529500
15.614300 0.525100
15.677200 0.519700
15.740000 0.518500
15.802800 0.519800
15.865700 0.544300
15.928500 0.598900
15.991400 0.603400
16.054200 0.604000
16.117100 0.604600
16.179900 0.608800
16.242700 0.617400
16.305600 0.640600
16.368400 0.717800
16.431300 0.698200
16.494100 0.704800
16.556900 0.712100
16.619800 0.712800
16.682600 0.717600
16.745500 0.768100
16.808300 0.831300
16.871100 0.866100
16.934000 0.875500
16.996800 0.844400
17.059700 0.832100
17.122500 0.825200
17.185400 0.836700
17.248200 0.840300
17.311000 0.835200
17.373900 0.826900
17.436700 0.827200
17.499600 0.814600
17.562400 0.805000
17.625200 0.815100
17.688100 0.795200
17.750900 0.754600
17.813800 0.734700
17.876600 0.734200
17.939500 0.733800
18.002300 0.735500
18.065100 0.768600
18.128000 0.769600
18.190800 0.713500
18.253700 0.690700
18.316500 0.685900
18.379300 0.684800
18.442200 0.692400
18.505000 0.724400
18.567900 0.819500
18.630700 0.816100
18.693600 0.795300
18.756400 0.784000
18.819200 0.784700
18.882100 0.766100
18.944900 0.775800
19.007800 0.816000
19.070600 0.859500
19.133400 0.878400
19.196300 0.876000
19.259100 0.872000
19.322000 0.863300
19.384800 0.836200
19.447700 0.849200
19.510500 0.868600
19.573300 0.896000
19.636200 0.904700
19.699000 0.915900
19.761900 0.923700
19.824700 0.876100
19.887500 0.876600
19.950400 0.932800
20.013200 0.977100
20.076100 1.006600
20.138900 0.977200
20.201800 0.931400
20.264600 0.888600
20.327400 0.852600
20.390300 0.936100
20.453100 0.912800
20.516000 0.921500
20.578800 0.927800
20.641600 0.918900
20.704500 0.912300
20.767300 0.901500
20.830200 0.860300
20.893000 0.872600
20.955900 0.878400
21.018700 0.889900
21.081500 0.919700
21.144400 0.965500
21.207200 0.999600
21.270100 1.025500
21.332900 1.006800
21.395700 0.970100
21.458600 0.939200
21.521400 0.907400
21.584300 0.875400
21.647100 0.854100
21.710000 0.812900
21.772800 0.787000
21.835600 0.777700
21.898500 0.772300
21.961300 0.800500
22.024200 0.854300
22.087000 0.833200
22.149800 0.804000
22.212700 0.793400
22.275500 0.807100
22.338400 0.825300
22.401200 0.848000
22.464100 0.869200
22.526900 0.876200
22.589700 0.886000
22.652600 0.887300
22.715400 0.876000
22.778300 0.863100
22.841100 0.848500
22.903900 0.830300
22.966800 0.813500
23.029600 0.794800
23.092500 0.784800
23.155300 0.782400
23.218200 0.781000
23.281000 0.839600
23.343800 0.864700
23.406700 0.845100
23.469500 0.843800
23.532400 0.824000
23.595200 0.808400
23.658000 0.797900
23.720900 0.811300
23.783700 0.811200
23.846600 0.799900
23.909400 0.787800
23.972300 0.782500
24.035100 0.777200
24.097900 0.769300
24.160800 0.752200
24.223600 0.743100
24.286500 0.736300
24.349300 0.732600
24.412100 0.731600
24.475000 0.738200
24.537800 0.746800
24.600700 0.746400
24.663500 0.753300
24.726400 0.755400
24.789200 0.757800
24.852000 0.753800
24.914900 0.709800
24.977700 0.698900
25.040600 0.716000
25.103400 0.728900
25.166200 0.764400
25.229100 0.750500
25.291900 0.733600
25.354800 0.755200
25.417600 0.776200
25.480400 0.790100
25.543300 0.789200
25.606100 0.783300
25.669000 0.773700
25.731800 0.764900
25.794700 0.786900
25.857500 0.760400
25.920300 0.762400
25.983200 0.753600
26.046000 0.762100
26.108900 0.773500
26.171700 0.793900
26.234500 0.814400
26.297400 0.845200
26.360200 0.903300
26.423100 0.918700
26.485900 0.911900
26.548800 0.927100
26.611600 0.906500
26.674400 0.933400
26.737300 0.874300
26.800100 0.911600
26.863000 0.853500
26.925800 0.855500
26.988600 0.813700
27.051500 0.801500
27.114300 0.828400
27.177200 0.855500
27.240000 0.888600
27.302900 0.924500
27.365700 0.977800
27.428500 1.047800
27.491400 1.111700
27.554200 1.214600
27.617100 1.206800
27.679900 1.127200
27.742700 1.059600
27.805600 0.990400
27.868400 0.953100
27.931300 0.944400
27.994100 0.940100
28.057000 0.937200
28.119800 0.934300
28.182600 0.945800
28.245500 0.966000
28.308300 0.995000
28.371200 1.022600
28.434000 0.994600
28.496800 0.982800
28.559700 0.992500
28.622500 1.019500
28.685400 1.052500
28.748200 1.105600
28.811100 1.117000
28.873900 1.104200
28.936700 1.098600
28.999600 1.088700
29.062400 1.089600
29.125300 1.082500
29.188100 0.965000
29.250900 0.932200
29.313800 0.924000
29.376600 0.916000
29.439500 0.912400
29.502300 0.938800
29.565200 0.901600
29.628000 0.888900
29.690800 0.894600
29.753700 0.885300
29.816500 0.889900
29.879400 0.932700
29.942200 0.952000
30.005000 0.994300
30.067900 1.071700
30.130700 1.042400
30.193600 1.043000
30.256400 1.068000
30.319300 1.099500
30.382100 1.137100
30.444900 1.173100
30.507800 1.122500
30.570600 1.018400
30.633500 0.965300
30.696300 0.942000
30.759100 0.942100
30.822000 0.938400
30.884800 0.915200
30.947700 0.906400
31.010500 0.884900
31.073400 0.846900
31.136200 0.817500
31.199000 0.760800
31.261900 0.736800
31.324700 0.728000
31.387600 0.729100
31.450400 0.702700
31.513200 0.677500
31.576100 0.671700
31.638900 0.690900
31.701800 0.723700
31.764600 0.755500
31.827500 0.792000
31.890300 0.828800
31.953100 0.857300
32.016000 0.835300
32.078800 0.837600
32.141700 0.803000
32.204500 0.790900
32.267300 0.801200
32.330200 0.812800
32.393000 0.829600
32.455900 0.836600
32.518700 0.841600
32.581600 0.914200
32.644400 0.863400
32.707200 0.841200
32.770100 0.814900
32.832900 0.817200
32.895800 0.804200
32.958600 0.792000
33.021400 0.792100
33.084300 0.749000
33.147100 0.711800
33.210000 0.700100
33.272800 0.726800
33.335700 0.783500
33.398500 0.865900
33.461300 0.889800
33.524200 0.866400
33.587000 0.868700
33.649900 0.812700
33.712700 0.835800
33.775500 0.842000
33.838400 0.861400
33.901200 0.861100
33.964100 0.864700
34.026900 0.865300
34.089800 0.883900
34.152600 0.906100
34.215400 0.929700
34.278300 0.943700
34.341100 0.924800
34.404000 0.942800
34.466800 0.938700
34.529600 0.943900
34.592500 0.964000
34.655300 0.969300
34.718200 0.954500
34.781000 1.074300
34.843800 1.097700
34.906700 1.152300
34.969500 1.201700
35.032400 1.233100
35.095200 1.257200
35.158100 1.251200
35.220900 1.226900
35.283700 1.207400
35.346600 1.255000
35.409400 1.234900
35.472300 1.271500
35.535100 1.299300
35.597900 1.277000
35.660800 1.246500
35.723600 1.195500
35.786500 1.123300
35.849300 1.074400
35.912200 1.036300
35.975000 1.006500
36.037800 0.986200
36.100700 0.967800
36.163500 0.955200
36.226400 0.933500
36.289200 0.944300
36.352000 0.966500
36.414900 0.985900
36.477700 1.012000
36.540600 1.027500
36.603400 1.038400
36.666300 1.033800
36.729100 1.017500
36.791900 0.948200
36.854800 0.945100
36.917600 0.961100
36.980500 0.968400
37.043300 1.015200
37.106100 1.008900
37.169000 1.008400
37.231800 1.020300
37.294700 1.016600
37.357500 0.976800
37.420400 0.947800
37.483200 0.939100
37.546000 0.932000
37.608900 0.928900
37.671700 0.929600
37.734600 0.975900
37.797400 0.966800
37.860200 0.931800
37.923100 0.913100
37.985900 0.897400
38.048800 0.915400
38.111600 0.931700
38.174500 0.959000
38.237300 0.980800
38.300100 0.994100
38.363000 0.991900
38.425800 0.997900
38.488700 1.014600
38.551500 1.061600
38.614300 1.156600
38.677200 1.082100
38.740000 1.018900
38.802900 1.020400
38.865700 1.049100
38.928600 1.097000
38.991400 1.136300
39.054200 1.164800
39.117100 1.128600
39.179900 1.172700
39.242800 1.216300
39.305600 1.162400
39.368400 1.148300
39.431300 1.125100
39.494100 1.108600
39.557000 1.105600
39.619800 1.092100
39.682700 1.094600
39.745500 1.125400
39.808300 1.153700
39.871200 1.143900
39.934000 1.124400
39.996900 1.102700
40.059700 1.125600
40.122500 1.115200
40.185400 1.168000
40.248200 1.230100
40.311100 1.247600
40.373900 1.207100
40.436800 1.175500
40.499600 1.111000
40.562400 1.076800
40.625300 1.056500
40.688100 1.040600
40.751000 1.027500
40.813800 1.020500
40.876600 0.991800
40.939500 0.957600
41.002300 0.934200
41.065200 0.943700
41.128000 0.954200
41.190900 0.952800
41.253700 0.958500
41.316500 0.962400
41.379400 0.980500
41.442200 1.007600
41.505100 1.039200
41.567900 1.044500
41.630700 1.048800
41.693600 1.049100
41.756400 1.052300
41.819300 1.066400
41.882100 1.080700
41.945000 1.062400
42.007800 1.005800
42.070600 0.976000
42.133500 0.957400
42.196300 0.970700
42.259200 1.005000
42.322000 1.012200
42.384800 1.050700
42.447700 1.087300
42.510500 1.112300
42.573400 1.137300
42.636200 1.176000
42.699100 1.232300
42.761900 1.259000
42.824700 1.335300
42.887600 1.422500
42.950400 1.492800
43.013300 1.615800
43.076100 1.738700
43.138900 1.758000
43.201800 1.733600
43.264600 2.013500
43.327500 2.415500
43.390300 2.910700
43.453100 1.993900
43.516000 1.743200
43.578800 1.578900
43.641700 1.523000
43.704500 1.493600
43.767400 1.526900
43.830200 1.586400
43.893000 1.510100
43.955900 1.434800
44.018700 1.357300
44.081600 1.306400
44.144400 1.264100
44.207200 1.259300
44.270100 1.192500
44.332900 1.172000
44.395800 1.150600
44.458600 1.109200
44.521500 1.061900
44.584300 1.030100
44.647100 1.069700
44.710000 1.105900
44.772800 1.110400
44.835700 1.114300
44.898500 1.125800
44.961300 1.140500
45.024200 1.186100
45.087000 1.182200
45.149900 1.226200
45.212700 1.259300
45.275600 1.220100
45.338400 1.158700
45.401200 1.118800
45.464100 1.137600
45.526900 1.140000
45.589800 1.146800
45.652600 1.172500
45.715400 1.231100
45.778300 1.197200
45.841100 1.193500
45.904000 1.153500
45.966800 1.135900
46.029700 1.114900
46.092500 1.155300
46.155300 1.154700
46.218200 1.145300
46.281000 1.157900
46.343900 1.168100
46.406700 1.172700
46.469500 1.149000
46.532400 1.142900
46.595200 1.127500
46.658100 1.128200
46.720900 1.141900
46.783800 1.158000
46.846600 1.143200
46.909400 1.102100
46.972300 1.079200
47.035100 1.087500
47.098000 1.090900
47.160800 1.086500
47.223600 1.075000
47.286500 1.076500
47.349300 1.081300
47.412200 1.094800
47.475000 1.118900
47.537900 1.101200
47.600700 1.093600
47.663500 1.127300
47.726400 1.160800
47.789200 1.190700
47.852100 1.249300
47.914900 1.289300
47.977700 1.291500
48.040600 1.265400
48.103400 1.259900
48.166300 1.228300
48.229100 1.197400
48.292000 1.181200
48.354800 1.166200
48.417600 1.175800
48.480500 1.200200
48.543300 1.235900
48.606200 1.222900
48.669000 1.221700
48.731800 1.234200
48.794700 1.228700
48.857500 1.216200
48.920400 1.200400
48.983200 1.184600
49.046100 1.191900
49.108900 1.209500
49.171700 1.250800
49.234600 1.231500
49.297400 1.229200
49.360300 1.230400
49.423100 1.216600
49.485900 1.186500
49.548800 1.190400
49.611600 1.177500
49.674500 1.188500
49.737300 1.225500
49.800200 1.260200
49.863000 1.313600
49.925800 1.350300
49.988700 1.366200
50.051500 1.284500
50.114400 1.230600
50.177200 1.195000
50.240000 1.176300
50.302900 1.169500
50.365700 1.166100
50.428600 1.142400
50.491400 1.160800
50.554300 1.170600
50.617100 1.190000
50.679900 1.232800
50.742800 1.255000
50.805600 1.289300
50.868500 1.297100
50.931300 1.301100
50.994100 1.339100
51.057000 1.379700
51.119800 1.471900
51.182700 1.452600
51.245500 1.462300
51.308400 1.448500
51.371200 1.446000
51.434000 1.368100
51.496900 1.309500
51.559700 1.259200
51.622600 1.224800
51.685400 1.221000
51.748200 1.222400
51.811100 1.247000
51.873900 1.300300
51.936800 1.354400
51.999600 1.387700
52.062400 1.389300
52.125300 1.371400
52.188100 1.359800
52.251000 1.344800
52.313800 1.374000
52.376700 1.421100
52.439500 1.375800
52.502300 1.355100
52.565200 1.331500
52.628000 1.304700
52.690900 1.264700
52.753700 1.246900
52.816500 1.231700
52.879400 1.238500
52.942200 1.250700
53.005100 1.294000
53.067900 1.367500
53.130800 1.387700
53.193600 1.387500
53.256400 1.345500
53.319300 1.340000
53.382100 1.361600
53.445000 1.312000
53.507800 1.264400
53.570600 1.234600
53.633500 1.211200
53.696300 1.235600
53.759200 1.262100
53.822000 1.295500
53.884900 1.343400
53.947700 1.370300
54.010500 1.406200
54.073400 1.539800
54.136200 1.559300
54.199100 1.599100
54.261900 1.632200
54.324700 1.732600
54.387600 1.965700
54.450400 2.195100
54.513300 2.419800
54.576100 2.608900
54.639000 2.439900
54.701800 2.092400
54.764600 1.927100
54.827500 1.990200
54.890300 2.022700
54.953200 2.124100
55.016000 2.091800
55.078800 1.948300
55.141700 1.764100
55.204500 1.639100
55.267400 1.590300
55.330200 1.603300
55.393100 1.601000
55.455900 1.445200
55.518700 1.133400
55.581600 1.008900
55.644400 0.942100
55.707300 0.928400
55.770100 0.540800
55.832900 0.257400
55.895800 0.122500
55.958600 0.051700
56.021500 0.029600
56.084300 0.016200
56.147200 0.006300
56.210000 0.000000
56.272800 0.000000
56.335700 0.000000
56.398500 0.000000
56.461400 0.000000
56.524200 0.000000
56.587000 0.000000
56.649900 0.000000
56.712700 0.000000
56.775600 0.000000
56.838400 0.000000
56.901300 0.000000
56.964100 0.000000
57.026900 0.000000
57.089800 0.000000
57.152600 0.000000
57.215500 0.000000
57.278300 0.000000
57.341100 0.000000
57.404000 0.000000
57.466800 0.000000
57.529700 0.000000
57.592500 0.000000
57.655400 0.000000
57.718200 0.000000
57.781000 0.000000
57.843900 0.000000
57.906700 0.000000
57.969600 0.000000
58.032400 0.000000
58.095200 0.000000
58.158100 0.000000
58.220900 0.000000
58.283800 0.000000
58.346600 0.000000
58.409500 0.000000
58.472300 0.000000
58.535100 0.000000
58.598000 0.000000
58.660800 0.000000
58.723700 0.000000
58.786500 0.000000
58.849300 0.000000
58.912200 0.000000
58.975000 0.000000
59.037900 0.000000
59.100700 0.000000
59.163600 0.000000
59.226400 0.000000
59.289200 0.000000
59.352100 0.000000
59.414900 0.000000
59.477800 0.000000
59.540600 0.000000
59.603400 0.000000
59.666300 0.000000
59.729100 0.000000
59.792000 0.000000
59.854800 0.000000
59.917700 0.000000
59.980500 0.000000
60.043300 0.000000
60.106200 0.000000
60.169000 0.000000
60.231900 0.000000
60.294700 0.000000
60.357500 0.000000
60.420400 0.000000
60.483200 0.000000
60.546100 0.000000
60.608900 0.000000
60.671800 0.000000
60.734600 0.000000
60.797400 0.000000
60.860300 0.000000
60.923100 0.000000
60.986000 0.000000
61.048800 0.000000
61.111600 0.000000
61.174500 0.000000
61.237300 0.000000
61.300200 0.000000
61.363000 0.000000
61.425800 0.000000
61.488700 0.000000
61.551500 0.000000
61.614400 0.000000
61.677200 0.000000
61.740100 0.000000
61.802900 0.000000
61.865700 0.000000
e
