set title 'mp-100 - Density of States'
set xlabel 'Energy (eV)'
set ylabel 'DOS (states/eV)'
set grid
set xrange [-10:10]
set yrange [0:4.538]
set xzeroaxis lt -1
set terminal png size 800,600
set output 'mp-100_dos_gnuplot.png'
plot '-' using 1:2 with lines title 'DOS'
-28.733400 0.000000
-28.702200 0.000000
-28.671000 0.000000
-28.639800 0.000000
-28.608600 0.000000
-28.577500 0.000000
-28.546300 0.000000
-28.515100 0.000000
-28.483900 0.000000
-28.452700 0.000000
-28.421600 0.000000
-28.390400 0.000000
-28.359200 0.000000
-28.328000 0.000000
-28.296800 0.000000
-28.265700 0.000000
-28.234500 0.000000
-28.203300 0.000000
-28.172100 0.000000
-28.140900 0.000000
-28.109800 0.000000
-28.078600 0.000000
-28.047400 0.000000
-28.016200 0.000000
-27.985000 0.000000
-27.953900 0.000000
-27.922700 0.000000
-27.891500 0.000000
-27.860300 0.000000
-27.829200 0.000000
-27.798000 0.000000
-27.766800 0.000000
-27.735600 0.000000
-27.704400 0.000000
-27.673300 0.000000
-27.642100 0.000000
-27.610900 0.000000
-27.579700 0.000000
-27.548500 0.000000
-27.517400 0.000000
-27.486200 0.000000
-27.455000 0.000000
-27.423800 0.000000
-27.392600 0.000000
-27.361500 0.000000
-27.330300 0.000000
-27.299100 0.000000
-27.267900 0.000000
-27.236700 0.000000
-27.205600 0.000000
-27.174400 0.000000
-27.143200 0.000000
-27.112000 0.000000
-27.080900 0.000000
-27.049700 0.000000
-27.018500 0.000000
-26.987300 0.000000
-26.956100 0.000000
-26.925000 0.000000
-26.893800 0.000000
-26.862600 0.000000
-26.831400 0.000000
-26.800200 0.000000
-26.769100 0.000000
-26.737900 0.000000
-26.706700 0.000000
-26.675500 0.000000
-26.644300 0.000000
-26.613200 0.000000
-26.582000 0.000000
-26.550800 0.000000
-26.519600 0.000000
-26.488400 0.000000
-26.457300 0.000000
-26.426100 0.000000
-26.394900 0.000000
-26.363700 0.000000
-26.332600 0.000000
-26.301400 0.000000
-26.270200 0.000000
-26.239000 0.000000
-26.207800 0.000000
-26.176700 0.000000
-26.145500 0.000000
-26.114300 0.000000
-26.083100 0.000000
-26.051900 0.000000
-26.020800 0.000000
-25.989600 0.000000
-25.958400 0.000000
-25.927200 0.000000
-25.896000 0.697300
-25.864900 2.449300
-25.833700 3.765600
-25.802500 5.270100
-25.771300 7.550900
-25.740100 11.391300
-25.709000 8.311800
-25.677800 6.025500
-25.646600 3.726200
-25.615400 4.542600
-25.584300 4.729600
-25.553100 4.817000
-25.521900 5.143100
-25.490700 5.692400
-25.459500 6.499100
-25.428400 7.036900
-25.397200 7.648600
-25.366000 8.525000
-25.334800 9.648000
-25.303600 7.477200
-25.272500 6.978700
-25.241300 7.195400
-25.210100 7.689300
-25.178900 9.697400
-25.147700 13.075100
-25.116600 11.435900
-25.085400 10.928600
-25.054200 0.000000
-25.023000 0.000000
-24.991800 0.000000
-24.960700 0.000000
-24.929500 0.000000
-24.898300 0.000000
-24.867100 0.000000
-24.836000 0.000000
-24.804800 0.000000
-24.773600 0.000000
-24.742400 0.000000
-24.711200 0.000000
-24.680100 0.000000
-24.648900 0.000000
-24.617700 0.000000
-24.586500 0.000000
-24.555300 0.000000
-24.524200 0.000000
-24.493000 0.000000
-24.461800 0.000000
-24.430600 0.000000
-24.399400 0.000000
-24.368300 0.000000
-24.337100 0.000000
-24.305900 0.000000
-24.274700 0.000000
-24.243500 0.000000
-24.212400 0.000000
-24.181200 0.000000
-24.150000 0.000000
-24.118800 0.000000
-24.087700 0.000000
-24.056500 0.000000
-24.025300 0.000000
-23.994100 0.000000
-23.962900 0.000000
-23.931800 0.000000
-23.900600 0.000000
-23.869400 0.000000
-23.838200 0.000000
-23.807000 0.000000
-23.775900 0.000000
-23.744700 0.000000
-23.713500 0.000000
-23.682300 0.000000
-23.651100 0.000000
-23.620000 0.000000
-23.588800 0.000000
-23.557600 0.000000
-23.526400 0.000000
-23.495200 0.000000
-23.464100 0.000000
-23.432900 0.000000
-23.401700 0.000000
-23.370500 0.000000
-23.339300 0.000000
-23.308200 0.000000
-23.277000 0.000000
-23.245800 0.000000
-23.214600 0.000000
-23.183500 0.000000
-23.152300 0.000000
-23.121100 0.000000
-23.089900 0.000000
-23.058700 0.000000
-23.027600 0.000000
-22.996400 0.000000
-22.965200 0.000000
-22.934000 0.000000
-22.902800 0.000000
-22.871700 0.000000
-22.840500 0.000000
-22.809300 0.000000
-22.778100 0.000000
-22.746900 0.000000
-22.715800 0.000000
-22.684600 0.000000
-22.653400 0.000000
-22.622200 0.000000
-22.591000 0.000000
-22.559900 0.000000
-22.528700 0.000000
-22.497500 0.000000
-22.466300 0.000000
-22.435200 0.000000
-22.404000 0.000000
-22.372800 0.000000
-22.341600 0.000000
-22.310400 0.000000
-22.279300 0.000000
-22.248100 0.000000
-22.216900 0.000000
-22.185700 0.000000
-22.154500 0.000000
-22.123400 0.000000
-22.092200 0.000000
-22.061000 0.000000
-22.029800 0.000000
-21.998600 0.000000
-21.967500 0.000000
-21.936300 0.000000
-21.905100 0.000000
-21.873900 0.000000
-21.842700 0.000000
-21.811600 0.000000
-21.780400 0.000000
-21.749200 0.000000
-21.718000 0.000000
-21.686900 0.000000
-21.655700 0.000000
-21.624500 0.000000
-21.593300 0.000000
-21.562100 0.000000
-21.531000 0.000000
-21.499800 0.000000
-21.468600 0.000000
-21.437400 0.000000
-21.406200 0.000000
-21.375100 0.000000
-21.343900 0.000000
-21.312700 0.000000
-21.281500 0.000000
-21.250300 0.000000
-21.219200 0.000000
-21.188000 0.000000
-21.156800 0.000000
-21.125600 0.000000
-21.094400 0.000000
-21.063300 0.000000
-21.032100 0.000000
-21.000900 0.000000
-20.969700 0.000000
-20.938600 0.000000
-20.907400 0.000000
-20.876200 0.000000
-20.845000 0.000000
-20.813800 0.000000
-20.782700 0.000000
-20.751500 0.000000
-20.720300 0.000000
-20.689100 0.000000
-20.657900 0.000000
-20.626800 0.000000
-20.595600 0.000000
-20.564400 0.000000
-20.533200 0.000000
-20.502000 0.000000
-20.470900 0.000000
-20.439700 0.000000
-20.408500 0.000000
-20.377300 0.000000
-20.346100 0.000000
-20.315000 0.000000
-20.283800 0.000000
-20.252600 0.000000
-20.221400 0.000000
-20.190300 0.000000
-20.159100 0.000000
-20.127900 0.000000
-20.096700 0.000000
-20.065500 0.000000
-20.034400 0.000000
-20.003200 0.000000
-19.972000 0.000000
-19.940800 0.000000
-19.909600 0.000000
-19.878500 0.000000
-19.847300 0.000000
-19.816100 0.000000
-19.784900 0.000000
-19.753700 0.000000
-19.722600 0.000000
-19.691400 0.000000
-19.660200 0.000000
-19.629000 0.000000
-19.597800 0.000000
-19.566700 0.000000
-19.535500 0.000000
-19.504300 0.000000
-19.473100 0.000000
-19.441900 0.000000
-19.410800 0.000000
-19.379600 0.000000
-19.348400 0.000000
-19.317200 0.000000
-19.286100 0.000000
-19.254900 0.000000
-19.223700 0.000000
-19.192500 0.000000
-19.161300 0.000000
-19.130200 0.000000
-19.099000 0.000000
-19.067800 0.000000
-19.036600 0.000000
-19.005400 0.000000
-18.974300 0.000000
-18.943100 0.000000
-18.911900 0.000000
-18.880700 0.000000
-18.849500 0.000000
-18.818400 0.000000
-18.787200 0.000000
-18.756000 0.000000
-18.724800 0.000000
-18.693600 0.000000
-18.662500 0.000000
-18.631300 0.000000
-18.600100 0.000000
-18.568900 0.000000
-18.537800 0.000000
-18.506600 0.000000
-18.475400 0.000000
-18.444200 0.000000
-18.413000 0.000000
-18.381900 0.000000
-18.350700 0.000000
-18.319500 0.000000
-18.288300 0.000000
-18.257100 0.000000
-18.226000 0.000000
-18.194800 0.000000
-18.163600 0.000000
-18.132400 0.000000
-18.101200 0.000000
-18.070100 0.000000
-18.038900 0.000000
-18.007700 0.000000
-17.976500 0.000000
-17.945300 0.000000
-17.914200 0.000000
-17.883000 0.000000
-17.851800 0.000000
-17.820600 0.000000
-17.789500 0.000000
-17.758300 0.000000
-17.727100 0.000000
-17.695900 0.000000
-17.664700 0.000000
-17.633600 0.000000
-17.602400 0.000000
-17.571200 0.000000
-17.540000 0.000000
-17.508800 0.000000
-17.477700 0.000000
-17.446500 0.000000
-17.415300 0.000000
-17.384100 0.000000
-17.352900 0.000000
-17.321800 0.000000
-17.290600 0.000000
-17.259400 0.000000
-17.228200 0.000000
-17.197000 0.000000
-17.165900 0.000000
-17.134700 0.000000
-17.103500 0.000000
-17.072300 0.000000
-17.041200 0.000000
-17.010000 0.000000
-16.978800 0.000000
-16.947600 0.000000
-16.916400 0.000000
-16.885300 0.000000
-16.854100 0.000000
-16.822900 0.000000
-16.791700 0.000000
-16.760500 0.000000
-16.729400 0.000000
-16.698200 0.000000
-16.667000 0.000000
-16.635800 0.000000
-16.604600 0.000000
-16.573500 0.000000
-16.542300 0.000000
-16.511100 0.000000
-16.479900 0.000000
-16.448700 0.000000
-16.417600 0.000000
-16.386400 0.000000
-16.355200 0.000000
-16.324000 0.000000
-16.292900 0.000000
-16.261700 0.000000
-16.230500 0.000000
-16.199300 0.000000
-16.168100 0.000000
-16.137000 0.000000
-16.105800 0.000000
-16.074600 0.000000
-16.043400 0.000000
-16.012200 0.000000
-15.981100 0.000000
-15.949900 0.000000
-15.918700 0.000000
-15.887500 0.000000
-15.856300 0.000000
-15.825200 0.000000
-15.794000 0.000000
-15.762800 0.000000
-15.731600 0.000000
-15.700400 0.000000
-15.669300 0.000000
-15.638100 0.000000
-15.606900 0.000000
-15.575700 0.000000
-15.544500 0.000000
-15.513400 0.000000
-15.482200 0.000000
-15.451000 0.000000
-15.419800 0.000000
-15.388700 0.000000
-15.357500 0.000000
-15.326300 0.000000
-15.295100 0.000000
-15.263900 0.000000
-15.232800 0.000000
-15.201600 0.000000
-15.170400 0.000000
-15.139200 0.000000
-15.108000 0.000000
-15.076900 0.000000
-15.045700 0.000000
-15.014500 0.000000
-14.983300 0.000000
-14.952100 0.000000
-14.921000 0.000000
-14.889800 0.000000
-14.858600 0.000000
-14.827400 0.000000
-14.796200 0.000000
-14.765100 0.000000
-14.733900 0.000000
-14.702700 0.000000
-14.671500 0.000000
-14.640400 0.000000
-14.609200 0.000000
-14.578000 0.000000
-14.546800 0.000000
-14.515600 0.000000
-14.484500 0.000000
-14.453300 0.000000
-14.422100 0.000000
-14.390900 0.000000
-14.359700 0.000000
-14.328600 0.000000
-14.297400 0.000000
-14.266200 0.000000
-14.235000 0.000000
-14.203800 0.000000
-14.172700 0.000000
-14.141500 0.000000
-14.110300 0.000000
-14.079100 0.000000
-14.047900 0.000000
-14.016800 0.000000
-13.985600 0.000000
-13.954400 0.000000
-13.923200 0.000000
-13.892100 0.000000
-13.860900 0.000000
-13.829700 0.000000
-13.798500 0.000000
-13.767300 0.000000
-13.736200 0.000000
-13.705000 0.000000
-13.673800 0.000000
-13.642600 0.000000
-13.611400 0.000000
-13.580300 0.000000
-13.549100 0.000000
-13.517900 0.000000
-13.486700 0.000000
-13.455500 0.000000
-13.424400 0.000000
-13.393200 0.000000
-13.362000 0.000000
-13.330800 0.000000
-13.299600 0.000000
-13.268500 0.000000
-13.237300 0.000000
-13.206100 0.000000
-13.174900 0.000000
-13.143800 0.000000
-13.112600 0.000000
-13.081400 0.000000
-13.050200 0.000000
-13.019000 0.000000
-12.987900 0.000000
-12.956700 0.000000
-12.925500 0.000000
-12.894300 0.000000
-12.863100 0.000000
-12.832000 0.000000
-12.800800 0.000000
-12.769600 0.000000
-12.738400 0.000000
-12.707200 0.000000
-12.676100 0.000000
-12.644900 0.000000
-12.613700 0.000000
-12.582500 0.000000
-12.551300 0.000000
-12.520200 0.000000
-12.489000 0.000000
-12.457800 0.000000
-12.426600 0.000000
-12.395500 0.000000
-12.364300 0.000000
-12.333100 0.000000
-12.301900 0.000000
-12.270700 0.000000
-12.239600 0.000000
-12.208400 0.000000
-12.177200 0.000000
-12.146000 0.000000
-12.114800 0.000000
-12.083700 0.000000
-12.052500 0.000000
-12.021300 0.000000
-11.990100 0.000000
-11.958900 0.000000
-11.927800 0.000000
-11.896600 0.000000
-11.865400 0.000000
-11.834200 0.000000
-11.803000 0.000000
-11.771900 0.000000
-11.740700 0.000000
-11.709500 0.000000
-11.678300 0.000000
-11.647100 0.000000
-11.616000 0.000000
-11.584800 0.000000
-11.553600 0.000000
-11.522400 0.000000
-11.491300 0.000000
-11.460100 0.000000
-11.428900 0.000000
-11.397700 0.000000
-11.366500 0.000000
-11.335400 0.000000
-11.304200 0.000000
-11.273000 0.000000
-11.241800 0.000000
-11.210600 0.000000
-11.179500 0.000000
-11.148300 0.000000
-11.117100 0.000000
-11.085900 0.000000
-11.054700 0.000000
-11.023600 0.000000
-10.992400 0.000000
-10.961200 0.000000
-10.930000 0.000000
-10.898800 0.000000
-10.867700 0.000000
-10.836500 0.000000
-10.805300 0.000000
-10.774100 0.000000
-10.743000 0.000000
-10.711800 0.000000
-10.680600 0.000000
-10.649400 0.000000
-10.618200 0.000000
-10.587100 0.000000
-10.555900 0.000000
-10.524700 0.000000
-10.493500 0.000000
-10.462300 0.000000
-10.431200 0.000000
-10.400000 0.000000
-10.368800 0.000000
-10.337600 0.000000
-10.306400 0.000000
-10.275300 0.000000
-10.244100 0.000000
-10.212900 0.000000
-10.181700 0.000000
-10.150500 0.000000
-10.119400 0.000000
-10.088200 0.000000
-10.057000 0.000000
-10.025800 0.000000
-9.994700 0.000000
-9.963500 0.000000
-9.932300 0.000000
-9.901100 0.000000
-9.869900 0.000000
-9.838800 0.000000
-9.807600 0.000000
-9.776400 0.000000
-9.745200 0.000000
-9.714000 0.000000
-9.682900 0.000000
-9.651700 0.000000
-9.620500 0.000000
-9.589300 0.000000
-9.558100 0.000000
-9.527000 0.000000
-9.495800 0.000000
-9.464600 0.000000
-9.433400 0.000000
-9.402200 0.000000
-9.371100 0.000000
-9.339900 0.000000
-9.308700 0.000000
-9.277500 0.000000
-9.246400 0.000000
-9.215200 0.000000
-9.184000 0.000000
-9.152800 0.000000
-9.121600 0.000000
-9.090500 0.000000
-9.059300 0.000000
-9.028100 0.000000
-8.996900 0.000000
-8.965700 0.000000
-8.934600 0.000000
-8.903400 0.000000
-8.872200 0.000000
-8.841000 0.000000
-8.809800 0.000000
-8.778700 0.000000
-8.747500 0.000000
-8.716300 0.000000
-8.685100 0.000000
-8.653900 0.000000
-8.622800 0.000000
-8.591600 0.000000
-8.560400 0.000000
-8.529200 0.000000
-8.498100 0.000000
-8.466900 0.000000
-8.435700 0.000000
-8.404500 0.000000
-8.373300 0.000000
-8.342200 0.000000
-8.311000 0.000000
-8.279800 0.000000
-8.248600 0.000000
-8.217400 0.000000
-8.186300 0.000000
-8.155100 0.000000
-8.123900 0.000000
-8.092700 0.000000
-8.061500 0.000000
-8.030400 0.000000
-7.999200 0.000000
-7.968000 0.000000
-7.936800 0.000000
-7.905600 0.000000
-7.874500 0.000000
-7.843300 0.000000
-7.812100 0.000000
-7.780900 0.000000
-7.749700 0.000000
-7.718600 0.000000
-7.687400 0.000000
-7.656200 0.000000
-7.625000 0.000000
-7.593900 0.000000
-7.562700 0.000000
-7.531500 0.000000
-7.500300 0.000000
-7.469100 0.000000
-7.438000 0.000000
-7.406800 0.000000
-7.375600 0.000000
-7.344400 0.000000
-7.313200 0.000000
-7.282100 0.000000
-7.250900 0.000000
-7.219700 0.000000
-7.188500 0.000000
-7.157300 0.000000
-7.126200 0.000000
-7.095000 0.000000
-7.063800 0.000000
-7.032600 0.000000
-7.001400 0.000000
-6.970300 0.000000
-6.939100 0.000000
-6.907900 0.000000
-6.876700 0.000000
-6.845600 0.000000
-6.814400 0.000000
-6.783200 0.000000
-6.752000 0.000000
-6.720800 0.000000
-6.689700 0.000000
-6.658500 0.000000
-6.627300 0.000000
-6.596100 0.000000
-6.564900 0.000000
-6.533800 0.000000
-6.502600 0.000000
-6.471400 0.000000
-6.440200 0.000000
-6.409000 0.000000
-6.377900 0.000000
-6.346700 0.000000
-6.315500 0.000000
-6.284300 0.000000
-6.253100 0.000000
-6.222000 0.000000
-6.190800 0.000000
-6.159600 0.000000
-6.128400 0.000000
-6.097300 0.000000
-6.066100 0.000000
-6.034900 0.000000
-6.003700 0.000000
-5.972500 0.000000
-5.941400 0.000000
-5.910200 0.000000
-5.879000 0.000000
-5.847800 0.000000
-5.816600 0.000000
-5.785500 0.000000
-5.754300 0.000000
-5.723100 0.000000
-5.691900 0.000000
-5.660700 0.000000
-5.629600 0.000000
-5.598400 0.000000
-5.567200 0.000000
-5.536000 0.000000
-5.504800 0.000000
-5.473700 0.000000
-5.442500 0.000000
-5.411300 0.000000
-5.380100 0.000000
-5.349000 0.000000
-5.317800 0.000000
-5.286600 0.000000
-5.255400 0.000000
-5.224200 0.000000
-5.193100 0.000000
-5.161900 0.000000
-5.130700 0.000000
-5.099500 0.000000
-5.068300 0.000000
-5.037200 0.000000
-5.006000 0.000000
-4.974800 0.000000
-4.943600 0.000000
-4.912400 0.000000
-4.881300 0.000000
-4.850100 0.000000
-4.818900 0.000000
-4.787700 0.000000
-4.756500 0.000000
-4.725400 0.000000
-4.694200 0.000000
-4.663000 0.000000
-4.631800 0.000000
-4.600700 0.000000
-4.569500 0.000000
-4.538300 0.000000
-4.507100 0.000000
-4.475900 0.000000
-4.444800 0.000000
-4.413600 0.000000
-4.382400 0.000000
-4.351200 0.000000
-4.320000 0.000000
-4.288900 0.000000
-4.257700 0.000000
-4.226500 0.000000
-4.195300 0.000000
-4.164100 0.000000
-4.133000 0.000000
-4.101800 0.000000
-4.070600 0.000000
-4.039400 0.000000
-4.008200 0.000000
-3.977100 0.000000
-3.945900 0.000000
-3.914700 0.000000
-3.883500 0.000000
-3.852300 0.000000
-3.821200 0.000000
-3.790000 0.000000
-3.758800 0.000000
-3.727600 0.000000
-3.696500 0.000000
-3.665300 0.000000
-3.634100 0.000000
-3.602900 0.000000
-3.571700 0.000000
-3.540600 0.000000
-3.509400 0.000000
-3.478200 0.000000
-3.447000 0.000000
-3.415800 0.000000
-3.384700 0.000000
-3.353500 0.000000
-3.322300 0.000000
-3.291100 0.000000
-3.259900 0.000000
-3.228800 0.000000
-3.197600 0.000000
-3.166400 0.000000
-3.135200 0.000000
-3.104000 0.000000
-3.072900 0.000000
-3.041700 0.000000
-3.010500 0.000000
-2.979300 0.000000
-2.948200 0.000000
-2.917000 0.000000
-2.885800 0.000000
-2.854600 0.000000
-2.823400 0.000000
-2.792300 0.000000
-2.761100 0.000000
-2.729900 0.000000
-2.698700 0.000000
-2.667500 0.000000
-2.636400 0.000000
-2.605200 0.000000
-2.574000 0.000000
-2.542800 0.000000
-2.511600 0.000000
-2.480500 0.000000
-2.449300 0.000000
-2.418100 0.000000
-2.386900 0.000000
-2.355700 0.000000
-2.324600 0.012100
-2.293400 0.017800
-2.262200 0.022600
-2.231000 0.029200
-2.199900 0.032800
-2.168700 0.032400
-2.137500 0.035600
-2.106300 0.039000
-2.075100 0.042600
-2.044000 0.046400
-2.012800 0.048200
-1.981600 0.050500
-1.950400 0.051800
-1.919200 0.053100
-1.888100 0.055000
-1.856900 0.057600
-1.825700 0.060300
-1.794500 0.063300
-1.763300 0.066400
-1.732200 0.067700
-1.701000 0.069100
-1.669800 0.070500
-1.638600 0.072300
-1.607400 0.074200
-1.576300 0.076000
-1.545100 0.078000
-1.513900 0.080000
-1.482700 0.082100
-1.451600 0.084400
-1.420400 0.086900
-1.389200 0.089100
-1.358000 0.090800
-1.326800 0.092200
-1.295700 0.094000
-1.264500 0.095600
-1.233300 0.097300
-1.202100 0.098900
-1.170900 0.100800
-1.139800 0.103000
-1.108600 0.105200
-1.077400 0.107400
-1.046200 0.109700
-1.015000 0.111600
-0.983900 0.113600
-0.952700 0.115600
-0.921500 0.117500
-0.890300 0.119400
-0.859100 0.121200
-0.828000 0.123200
-0.796800 0.125400
-0.765600 0.127500
-0.734400 0.129500
-0.703300 0.131500
-0.672100 0.133500
-0.640900 0.135600
-0.609700 0.138100
-0.578500 0.140600
-0.547400 0.142900
-0.516200 0.145300
-0.485000 0.147700
-0.453800 0.150200
-0.422600 0.152500
-0.391500 0.154600
-0.360300 0.156800
-0.329100 0.159200
-0.297900 0.161700
-0.266700 0.164400
-0.235600 0.167200
-0.204400 0.170000
-0.173200 0.172700
-0.142000 0.175300
-0.110800 0.177900
-0.079700 0.180500
-0.048500 0.183300
-0.017300 0.186600
0.013900 0.190100
0.045000 0.193400
0.076200 0.196700
0.107400 0.200000
0.138600 0.203200
0.169800 0.206300
0.200900 0.209600
0.232100 0.213200
0.263300 0.217000
0.294500 0.221000
0.325700 0.225200
0.356800 0.229500
0.388000 0.233600
0.419200 0.237700
0.450400 0.241900
0.481600 0.246100
0.512700 0.251400
0.543900 0.257100
0.575100 0.262500
0.606300 0.268000
0.637500 0.273600
0.668600 0.279300
0.699800 0.285300
0.731000 0.291900
0.762200 0.299000
0.793400 0.306600
0.824500 0.314400
0.855700 0.323000
0.886900 0.331500
0.918100 0.341900
0.949200 0.353400
0.980400 0.364400
1.011600 0.375700
1.042800 0.389200
1.074000 0.404200
1.105100 0.420600
1.136300 0.438100
1.167500 0.464800
1.198700 0.500100
1.229900 0.542900
1.261000 0.588900
1.292200 0.666800
1.323400 0.675400
1.354600 0.682600
1.385800 0.673700
1.416900 0.668600
1.448100 0.666200
1.479300 0.670300
1.510500 0.672900
1.541700 0.672600
1.572800 0.664900
1.604000 0.662700
1.635200 0.658800
1.666400 0.655900
1.697500 0.656600
1.728700 0.658000
1.759900 0.659000
1.791100 0.659700
1.822300 0.660700
1.853400 0.658400
1.884600 0.658400
1.915800 0.656400
1.947000 0.654700
1.978200 0.653800
2.009300 0.653200
2.040500 0.652900
2.071700 0.703700
2.102900 0.733000
2.134100 0.760200
2.165200 0.766700
2.196400 0.789800
2.227600 0.812300
2.258800 0.832200
2.290000 0.845400
2.321100 0.864200
2.352300 0.884200
2.383500 0.905400
2.414700 0.927400
2.445800 0.961700
2.477000 1.007200
2.508200 1.049700
2.539400 1.109000
2.570600 1.219800
2.601700 1.275600
2.632900 1.418700
2.664100 1.948100
2.695300 1.093400
2.726500 0.981100
2.757600 0.913800
2.788800 0.834000
2.820000 0.786800
2.851200 0.750500
2.882400 0.720200
2.913500 0.696800
2.944700 0.675100
2.975900 0.658400
3.007100 0.632700
3.038300 0.593900
3.069400 0.553400
3.100600 0.514800
3.131800 0.491000
3.163000 0.474500
3.194100 0.455700
3.225300 0.435200
3.256500 0.424900
3.287700 0.417400
3.318900 0.412200
3.350000 0.404100
3.381200 0.394800
3.412400 0.378100
3.443600 0.370600
3.474800 0.376300
3.505900 0.382500
3.537100 0.390600
3.568300 0.397900
3.599500 0.408500
3.630700 0.421100
3.661800 0.435100
3.693000 0.450100
3.724200 0.465200
3.755400 0.484000
3.786600 0.517100
3.817700 0.548700
3.848900 0.612700
3.880100 1.664700
3.911300 2.078200
3.942400 2.896900
3.973600 2.671600
4.004800 2.382300
4.036000 2.121200
4.067200 1.994800
4.098300 1.956500
4.129500 2.106500
4.160700 2.123600
4.191900 2.119000
4.223100 2.074800
4.254200 2.033700
4.285400 2.092000
4.316600 2.067200
4.347800 2.062900
4.379000 2.059100
4.410100 2.076400
4.441300 2.072400
4.472500 1.989900
4.503700 1.962500
4.534900 1.916000
4.566000 1.872400
4.597200 1.833100
4.628400 1.775800
4.659600 1.693300
4.690800 1.673700
4.721900 1.711000
4.753100 1.746400
4.784300 1.830200
4.815500 2.062200
4.846600 2.372200
4.877800 2.482300
4.909000 2.468300
4.940200 2.200700
4.971400 1.959600
5.002500 1.806100
5.033700 1.681800
5.064900 1.596700
5.096100 1.520200
5.127300 1.451200
5.158400 1.388900
5.189600 1.336000
5.220800 1.287200
5.252000 1.244700
5.283200 1.205700
5.314300 1.162500
5.345500 1.117200
5.376700 1.077300
5.407900 1.039600
5.439100 1.006000
5.470200 0.973000
5.501400 0.941100
5.532600 0.915000
5.563800 0.900700
5.594900 0.856100
5.626100 0.829900
5.657300 0.797900
5.688500 0.767600
5.719700 0.698100
5.750800 0.681300
5.782000 0.662600
5.813200 0.648100
5.844400 0.647900
5.875600 0.647200
5.906700 0.637700
5.937900 0.589600
5.969100 0.528900
6.000300 0.482300
6.031500 0.446000
6.062600 0.396800
6.093800 0.341000
6.125000 0.285700
6.156200 0.198100
6.187400 0.198200
6.218500 0.199900
6.249700 0.205900
6.280900 0.211200
6.312100 0.226100
6.343200 0.216500
6.374400 0.262900
6.405600 0.237200
6.436800 0.242100
6.468000 0.249400
6.499100 0.257900
6.530300 0.269300
6.561500 0.277400
6.592700 0.279700
6.623900 0.281700
6.655000 0.291700
6.686200 0.303900
6.717400 0.325700
6.748600 0.349300
6.779800 0.373800
6.810900 0.402300
6.842100 0.434000
6.873300 0.471300
6.904500 0.513700
6.935700 0.567900
6.966800 0.607400
6.998000 0.633200
7.029200 0.652200
7.060400 0.680000
7.091500 0.688900
7.122700 0.709500
7.153900 0.707100
7.185100 0.715900
7.216300 0.729000
7.247400 0.737000
7.278600 0.740400
7.309800 0.751700
7.341000 0.758900
7.372200 0.755800
7.403300 0.763300
7.434500 0.772100
7.465700 0.779400
7.496900 0.785500
7.528100 0.790900
7.559200 0.796800
7.590400 0.801600
7.621600 0.808000
7.652800 0.817200
7.684000 0.826500
7.715100 0.836100
7.746300 0.846500
7.777500 0.857400
7.808700 0.868900
7.839800 0.897100
7.871000 0.920200
7.902200 0.915200
7.933400 0.928300
7.964600 0.940900
7.995700 0.949100
8.026900 0.961000
8.058100 0.989200
8.089300 0.984900
8.120500 1.000100
8.151600 1.018700
8.182800 1.038900
8.214000 1.060600
8.245200 1.089600
8.276400 1.120900
8.307500 1.141300
8.338700 1.165600
8.369900 1.208000
8.401100 1.185500
8.432300 1.196600
8.463400 1.204600
8.494600 1.216900
8.525800 1.229000
8.557000 1.222500
8.588200 1.216100
8.619300 1.242600
8.650500 1.203800
8.681700 1.199100
8.712900 1.214400
8.744000 1.227100
8.775200 1.255700
8.806400 1.309300
8.837600 1.331600
8.868800 1.205800
8.899900 1.115400
8.931100 1.188900
8.962300 1.218900
8.993500 1.255100
9.024700 1.239400
9.055800 1.210500
9.087000 1.200100
9.118200 1.154900
9.149400 1.150200
9.180600 1.172900
9.211700 1.209200
9.242900 1.245700
9.274100 1.274800
9.305300 1.338600
9.336500 1.442600
9.367600 1.562000
9.398800 1.660400
9.430000 1.773800
9.461200 1.959600
9.492300 2.135400
9.523500 2.221100
9.554700 2.360500
9.585900 2.548000
9.617100 2.775200
9.648200 3.076100
9.679400 4.125900
9.710600 3.470600
9.741800 3.447900
9.773000 3.393000
9.804100 3.489100
9.835300 3.860400
9.866500 3.962400
9.897700 2.690800
9.928900 1.862400
9.960000 1.158700
9.991200 1.071800
10.022400 0.977500
10.053600 0.910700
10.084800 0.854400
10.115900 0.813500
10.147100 0.780200
10.178300 0.750300
10.209500 0.719400
10.240600 0.692400
10.271800 0.670700
10.303000 0.646800
10.334200 0.622100
10.365400 0.598900
10.396500 0.583800
10.427700 0.574300
10.458900 0.562100
10.490100 0.549700
10.521300 0.542000
10.552400 0.534900
10.583600 0.528200
10.614800 0.522700
10.646000 0.534500
10.677200 0.538000
10.708300 0.524600
10.739500 0.505300
10.770700 0.500200
10.801900 0.495400
10.833100 0.490800
10.864200 0.486600
10.895400 0.483400
10.926600 0.482600
10.957800 0.496500
10.988900 0.488200
11.020100 0.482700
11.051300 0.480400
11.082500 0.478900
11.113700 0.475400
11.144800 0.474500
11.176000 0.470200
11.207200 0.465000
11.238400 0.463200
11.269600 0.461700
11.300700 0.460400
11.331900 0.459500
11.363100 0.458000
11.394300 0.457100
11.425500 0.440900
11.456600 0.438000
11.487800 0.437400
11.519000 0.437900
11.550200 0.439200
11.581400 0.440400
11.612500 0.443000
11.643700 0.449900
11.674900 0.465400
11.706100 0.507300
11.737200 0.501600
11.768400 0.509100
11.799600 0.517400
11.830800 0.522500
11.862000 0.530600
11.893100 0.540700
11.924300 0.556200
11.955500 0.565900
11.986700 0.580800
12.017900 0.593400
12.049000 0.605700
12.080200 0.620200
12.111400 0.632400
12.142600 0.642500
12.173800 0.651100
12.204900 0.658000
12.236100 0.656500
12.267300 0.639400
12.298500 0.616900
12.329700 0.597800
12.360800 0.582000
12.392000 0.577900
12.423200 0.576300
12.454400 0.564300
12.485600 0.552500
12.516700 0.752700
12.547900 0.553400
12.579100 0.555700
12.610300 0.560700
12.641400 0.565600
12.672600 0.580000
12.703800 0.602500
12.735000 0.663300
12.766200 0.754300
12.797300 0.865100
12.828500 0.659200
12.859700 0.626500
12.890900 0.606200
12.922100 0.585600
12.953200 0.575600
12.984400 0.572800
13.015600 0.609300
13.046800 0.586600
13.078000 0.541200
13.109100 0.497400
13.140300 0.452200
13.171500 0.407400
13.202700 0.345600
13.233900 0.316000
13.265000 0.265600
13.296200 0.219200
13.327400 0.180600
13.358600 0.144000
13.389700 0.110200
13.420900 0.079200
13.452100 0.052500
13.483300 0.060400
13.514500 0.116000
13.545600 0.184400
13.576800 0.254900
13.608000 0.310400
13.639200 0.364700
13.670400 0.420400
13.701500 0.466100
13.732700 0.507400
13.763900 0.549500
13.795100 0.580200
13.826300 0.611800
13.857400 0.651700
13.888600 0.705600
13.919800 0.752300
13.951000 0.798700
13.982200 0.817100
14.013300 0.808900
14.044500 0.788100
14.075700 0.759700
14.106900 0.745500
14.138000 0.781200
14.169200 0.695000
14.200400 0.643300
14.231600 0.626500
14.262800 0.613900
14.293900 0.606000
14.325100 0.598600
14.356300 0.597500
14.387500 0.596900
14.418700 0.596100
14.449800 0.595700
14.481000 0.596500
14.512200 0.597300
14.543400 0.597900
14.574600 0.601300
14.605700 0.603000
14.636900 0.606700
14.668100 0.608300
14.699300 0.609700
14.730500 0.610800
14.761600 0.613100
14.792800 0.615600
14.824000 0.624800
14.855200 0.624600
14.886300 0.616000
14.917500 0.612600
14.948700 0.599000
14.979900 0.583100
15.011100 0.554900
15.042200 0.515100
15.073400 0.513900
15.104600 0.496000
15.135800 0.486400
15.167000 0.477400
15.198100 0.469000
15.229300 0.469500
15.260500 0.477700
15.291700 0.485000
15.322900 0.487100
15.354000 0.488500
15.385200 0.490400
15.416400 0.493400
15.447600 0.496600
15.478800 0.507400
15.509900 0.503100
15.541100 0.504500
15.572300 0.508700
15.603500 0.511600
15.634600 0.519700
15.665800 0.526700
15.697000 0.534300
15.728200 0.545100
15.759400 0.546500
15.790500 0.555800
15.821700 0.565900
15.852900 0.577100
15.884100 0.600300
15.915300 0.622100
15.946400 0.642100
15.977600 0.657500
16.008800 0.668300
16.040000 0.693000
16.071200 0.717400
16.102300 0.743600
16.133500 0.771800
16.164700 0.817000
16.195900 0.825900
16.227100 0.857800
16.258200 0.896200
16.289400 0.941900
16.320600 1.002100
16.351800 1.068600
16.383000 1.149300
16.414100 1.246800
16.445300 1.362000
16.476500 1.500400
16.507700 1.746500
16.538800 2.110200
16.570000 2.637800
16.601200 3.787500
16.632400 81.552400
16.663600 5.369000
16.694700 2.762800
16.725900 2.204000
16.757100 1.879900
16.788300 1.650300
16.819500 1.472000
16.850600 1.347200
16.881800 1.256900
16.913000 1.196300
16.944200 1.143600
16.975400 1.094300
17.006500 1.057800
17.037700 1.029700
17.068900 1.014800
17.100100 0.995400
17.131300 0.969300
17.162400 0.958800
17.193600 0.942300
17.224800 0.929700
17.256000 0.918200
17.287100 0.907400
17.318300 0.899900
17.349500 0.890800
17.380700 0.879400
17.411900 0.858800
17.443000 0.845400
17.474200 0.835100
17.505400 0.823000
17.536600 0.810900
17.567800 0.801800
17.598900 0.787000
17.630100 0.773500
17.661300 0.761500
17.692500 0.749300
17.723700 0.740300
17.754800 0.733200
17.786000 0.726000
17.817200 0.718500
17.848400 0.710700
17.879600 0.705700
17.910700 0.700200
17.941900 0.695200
17.973100 0.693900
18.004300 0.688800
18.035400 0.698300
18.066600 0.703500
18.097800 0.707400
18.129000 0.710500
18.160200 0.715800
18.191300 0.727200
18.222500 0.726100
18.253700 0.734000
18.284900 0.745400
18.316100 0.749400
18.347200 0.762400
18.378400 0.774000
18.409600 0.791000
18.440800 0.805100
18.472000 0.817600
18.503100 0.836200
18.534300 0.858900
18.565500 0.894200
18.596700 0.943100
18.627900 0.994300
18.659000 0.996100
18.690200 1.050400
18.721400 1.083700
18.752600 1.107900
18.783700 1.111900
18.814900 1.116200
18.846100 1.116600
18.877300 1.108100
18.908500 1.083000
18.939600 1.057200
18.970800 1.035400
19.002000 1.007200
19.033200 0.985600
19.064400 0.964900
19.095500 0.938000
19.126700 0.922300
19.157900 0.907600
19.189100 0.896300
19.220300 0.887200
19.251400 0.881700
19.282600 0.881200
19.313800 0.875600
19.345000 0.875900
19.376200 0.876400
19.407300 0.882500
19.438500 0.897900
19.469700 0.917300
19.500900 0.932000
19.532000 0.948600
19.563200 0.977900
19.594400 0.983400
19.625600 0.990000
19.656800 0.997900
19.687900 0.992000
19.719100 0.999300
19.750300 1.005000
19.781500 1.004700
19.812700 1.007100
19.843800 1.019400
19.875000 1.015600
19.906200 1.000400
19.937400 0.980100
19.968600 0.937300
19.999700 0.919900
20.030900 0.894800
20.062100 0.868700
20.093300 0.859600
20.124500 0.850100
20.155600 0.837500
20.186800 0.812700
20.218000 0.788500
20.249200 0.764900
20.280400 0.743400
20.311500 0.721300
20.342700 0.700900
20.373900 0.680100
20.405100 0.666900
20.436200 0.655400
20.467400 0.647700
20.498600 0.637700
20.529800 0.628200
20.561000 0.619400
20.592100 0.611400
20.623300 0.600100
20.654500 0.592000
20.685700 0.584400
20.716900 0.577300
20.748000 0.570600
20.779200 0.564200
20.810400 0.558400
20.841600 0.553800
20.872800 0.554000
20.903900 0.549500
20.935100 0.544200
20.966300 0.538700
20.997500 0.533500
21.028700 0.527000
21.059800 0.521000
21.091000 0.508300
21.122200 0.501000
21.153400 0.493900
21.184500 0.486400
21.215700 0.478900
21.246900 0.474200
21.278100 0.467700
21.309300 0.460200
21.340400 0.453700
21.371600 0.449000
21.402800 0.445000
21.434000 0.441400
21.465200 0.441600
21.496300 0.441000
21.527500 0.441200
21.558700 0.440500
21.589900 0.439900
21.621100 0.439700
21.652200 0.440000
21.683400 0.442800
21.714600 0.449400
21.745800 0.449900
21.777000 0.450800
21.808100 0.448900
21.839300 0.452600
21.870500 0.456500
21.901700 0.460000
21.932800 0.463700
21.964000 0.468200
21.995200 0.473900
22.026400 0.482800
22.057600 0.496100
22.088700 0.555400
22.119900 0.521600
22.151100 0.477700
22.182300 0.454200
22.213500 0.431700
22.244600 0.416400
22.275800 0.416400
22.307000 0.424000
22.338200 0.457700
22.369400 0.541100
22.400500 0.561000
22.431700 0.563300
22.462900 0.561100
22.494100 0.563700
22.525300 0.576500
22.556400 0.593800
22.587600 0.612500
22.618800 0.650000
22.650000 0.676900
22.681100 0.701000
22.712300 0.725300
22.743500 0.752600
22.774700 0.781800
22.805900 0.808500
22.837000 0.916800
22.868200 0.949400
22.899400 1.031200
22.930600 1.127100
22.961800 1.331600
22.992900 1.455900
23.024100 1.770100
23.055300 1.813100
23.086500 1.469900
23.117700 1.283300
23.148800 1.190700
23.180000 1.130200
23.211200 1.078500
23.242400 1.030700
23.273600 0.996400
23.304700 0.965000
23.335900 0.938200
23.367100 0.923900
23.398300 0.892600
23.429400 0.855200
23.460600 0.826900
23.491800 0.801100
23.523000 0.777400
23.554200 0.759100
23.585300 0.743200
23.616500 0.728400
23.647700 0.714300
23.678900 0.700600
23.710100 0.694500
23.741200 0.680900
23.772400 0.672700
23.803600 0.670800
23.834800 0.670600
23.866000 0.670500
23.897100 0.675100
23.928300 0.676200
23.959500 0.704200
23.990700 0.723500
24.021900 0.742100
24.053000 0.774300
24.084200 0.799700
24.115400 0.824500
24.146600 0.859200
24.177700 0.876000
24.208900 0.880900
24.240100 0.888900
24.271300 0.895200
24.302500 0.932500
24.333600 1.059300
24.364800 1.034200
24.396000 1.014100
24.427200 0.989700
24.458400 0.956100
24.489500 0.940000
24.520700 0.924300
24.551900 0.902600
24.583100 0.886100
24.614300 0.869500
24.645400 0.849700
24.676600 0.828400
24.707800 0.807800
24.739000 0.801400
24.770200 0.779100
24.801300 0.749800
24.832500 0.711500
24.863700 0.676100
24.894900 0.644500
24.926100 0.609600
24.957200 0.590900
24.988400 0.570100
25.019600 0.557200
25.050800 0.546900
25.081900 0.541700
25.113100 0.537900
25.144300 0.541000
25.175500 0.540600
25.206700 0.546500
25.237800 0.548200
25.269000 0.557500
25.300200 0.569900
25.331400 0.581600
25.362600 0.593600
25.393700 0.606500
25.424900 0.621700
25.456100 0.648000
25.487300 0.688800
25.518500 0.725400
25.549600 0.770600
25.580800 0.821600
25.612000 0.831300
25.643200 0.861200
25.674400 0.893100
25.705500 0.931400
25.736700 0.971500
25.767900 1.012900
25.799100 1.057700
25.830200 1.094400
25.861400 1.116200
25.892600 1.136800
25.923800 1.160200
25.955000 1.183100
25.986100 1.188600
26.017300 1.176800
26.048500 1.149000
26.079700 1.114700
26.110900 1.074200
26.142000 1.051200
26.173200 1.029400
26.204400 1.009700
26.235600 0.997600
26.266800 0.985100
26.297900 0.972100
26.329100 0.960700
26.360300 0.954100
26.391500 0.946900
26.422700 0.937700
26.453800 0.928400
26.485000 0.919300
26.516200 0.912100
26.547400 0.909100
26.578500 0.896200
26.609700 0.884000
26.640900 0.874400
26.672100 0.863900
26.703300 0.846100
26.734400 0.826100
26.765600 0.813800
26.796800 0.827300
26.828000 0.801200
26.859200 0.787900
26.890300 0.778200
26.921500 0.770800
26.952700 0.767000
26.983900 0.772400
27.015100 0.756500
27.046200 0.741800
27.077400 0.738000
27.108600 0.698300
27.139800 0.681600
27.171000 0.668500
27.202100 0.656500
27.233300 0.646300
27.264500 0.634500
27.295700 0.622600
27.326800 0.613800
27.358000 0.605000
27.389200 0.596700
27.420400 0.590200
27.451600 0.595200
27.482700 0.595500
27.513900 0.597800
27.545100 0.599200
27.576300 0.592000
27.607500 0.595600
27.638600 0.601000
27.669800 0.613700
27.701000 0.620400
27.732200 0.630100
27.763400 0.649300
27.794500 0.673800
27.825700 0.705400
27.856900 0.742600
27.888100 0.820200
27.919300 0.778600
27.950400 0.750500
27.981600 0.735400
28.012800 0.726900
28.044000 0.720600
28.075100 0.712700
28.106300 0.706200
28.137500 0.712000
28.168700 0.720700
28.199900 0.751700
28.231000 0.790100
28.262200 0.803800
28.293400 0.810900
28.324600 0.812400
28.355800 0.814600
28.386900 0.823800
28.418100 0.826500
28.449300 0.832100
28.480500 0.847900
28.511700 0.874800
28.542800 0.913000
28.574000 0.973800
28.605200 1.148900
28.636400 1.293600
28.667600 1.257400
28.698700 1.219600
28.729900 1.201600
28.761100 1.167700
28.792300 1.074900
28.823500 1.027600
28.854600 0.977700
28.885800 0.924300
28.917000 0.818700
28.948200 0.719100
28.979300 0.627600
29.010500 0.569400
29.041700 0.528400
29.072900 0.488900
29.104100 0.453000
29.135200 0.419600
29.166400 0.389300
29.197600 0.369800
29.228800 0.352300
29.260000 0.336600
29.291100 0.324100
29.322300 0.312300
29.353500 0.297400
29.384700 0.275000
29.415900 0.250800
29.447000 0.241100
29.478200 0.220300
29.509400 0.200000
29.540600 0.173300
29.571800 0.164100
29.602900 0.155700
29.634100 0.147800
29.665300 0.139900
29.696500 0.132100
29.727600 0.124800
29.758800 0.118100
29.790000 0.111900
29.821200 0.106300
29.852400 0.101300
29.883500 0.096700
29.914700 0.092500
29.945900 0.087800
29.977100 0.083300
30.008300 0.078700
30.039400 0.074200
30.070600 0.070700
30.101800 0.067200
30.133000 0.062800
30.164200 0.058800
30.195300 0.055000
30.226500 0.050900
30.257700 0.046500
30.288900 0.041600
30.320100 0.036000
30.351200 0.032100
30.382400 0.028000
30.413600 0.024200
30.444800 0.020800
30.475900 0.017700
30.507100 0.011800
30.538300 0.009300
30.569500 0.007200
30.600700 0.005300
30.631800 0.003700
30.663000 0.002400
30.694200 0.001400
30.725400 0.000600
30.756600 0.000200
30.787700 0.000000
30.818900 0.000000
30.850100 0.000000
30.881300 0.000000
30.912500 0.000000
30.943600 0.000000
30.974800 0.000000
31.006000 0.000000
31.037200 0.000000
31.068400 0.000000
31.099500 0.000000
31.130700 0.000000
31.161900 0.000000
31.193100 0.000000
31.224200 0.000000
31.255400 0.000000
31.286600 0.000000
31.317800 0.000000
31.349000 0.000000
31.380100 0.000000
31.411300 0.000000
31.442500 0.000000
31.473700 0.000000
31.504900 0.000000
31.536000 0.000000
31.567200 0.000000
31.598400 0.000000
31.629600 0.000000
31.660800 0.000000
31.691900 0.000000
31.723100 0.000000
31.754300 0.000000
31.785500 0.000000
31.816700 0.000000
31.847800 0.000000
31.879000 0.000000
31.910200 0.000000
31.941400 0.000000
31.972500 0.000000
32.003700 0.000000
32.034900 0.000000
32.066100 0.000000
32.097300 0.000000
32.128400 0.000000
32.159600 0.000000
32.190800 0.000000
32.222000 0.000000
32.253200 0.000000
32.284300 0.000000
32.315500 0.000000
32.346700 0.000000
32.377900 0.000000
32.409100 0.000000
32.440200 0.000000
32.471400 0.000000
32.502600 0.000000
32.533800 0.000000
32.565000 0.000000
32.596100 0.000000
32.627300 0.000000
32.658500 0.000000
32.689700 0.000000
32.720900 0.000000
32.752000 0.000000
32.783200 0.000000
32.814400 0.000000
32.845600 0.000000
32.876700 0.000000
32.907900 0.000000
32.939100 0.000000
32.970300 0.000000
33.001500 0.000000
33.032600 0.000000
33.063800 0.000000
33.095000 0.000000
33.126200 0.000000
33.157400 0.000000
33.188500 0.000000
33.219700 0.000000
33.250900 0.000000
33.282100 0.000000
33.313300 0.000000
33.344400 0.000000
33.375600 0.000000
33.406800 0.000000
33.438000 0.000000
33.469200 0.000000
33.500300 0.000000
33.531500 0.000000
33.562700 0.000000
33.593900 0.000000
33.625000 0.000000
e
