set title 'mp-23156 - Density of States'
set xlabel 'Energy (eV)'
set ylabel 'DOS (states/eV)'
set grid
set xrange [-10:10]
set yrange [0:7.128]
set xzeroaxis lt -1
set terminal png size 800,600
set output 'mp-23156_dos_gnuplot.png'
plot '-' using 1:2 with lines title 'DOS'
-18.063200 0.000000
-18.038100 0.000000
-18.012900 0.000000
-17.987800 0.000000
-17.962700 0.000000
-17.937600 0.000000
-17.912400 0.000000
-17.887300 0.000000
-17.862200 0.000000
-17.837100 0.000000
-17.811900 0.000000
-17.786800 0.000000
-17.761700 0.000000
-17.736600 0.000000
-17.711400 0.000000
-17.686300 0.000000
-17.661200 0.000000
-17.636100 0.000000
-17.611000 0.000000
-17.585800 0.000000
-17.560700 0.000000
-17.535600 0.000000
-17.510500 0.000000
-17.485300 0.000000
-17.460200 0.000000
-17.435100 0.000000
-17.410000 0.000000
-17.384800 0.000000
-17.359700 0.000000
-17.334600 0.000000
-17.309500 0.000000
-17.284300 0.000000
-17.259200 0.000000
-17.234100 0.000000
-17.209000 0.000000
-17.183800 0.000000
-17.158700 0.000000
-17.133600 0.000000
-17.108500 0.000000
-17.083300 0.000000
-17.058200 0.000000
-17.033100 0.000000
-17.008000 0.000000
-16.982800 0.000000
-16.957700 0.000000
-16.932600 0.000000
-16.907500 0.000000
-16.882300 0.000000
-16.857200 0.000000
-16.832100 0.000000
-16.807000 0.000000
-16.781800 0.000000
-16.756700 0.000000
-16.731600 0.000000
-16.706500 0.000000
-16.681300 0.000000
-16.656200 0.000000
-16.631100 0.000000
-16.606000 0.000000
-16.580800 0.000000
-16.555700 0.000000
-16.530600 0.000000
-16.505500 0.000000
-16.480400 0.000000
-16.455200 0.000000
-16.430100 0.000000
-16.405000 0.000000
-16.379900 0.000000
-16.354700 0.000000
-16.329600 0.000000
-16.304500 0.000000
-16.279400 0.000000
-16.254200 0.000000
-16.229100 0.000000
-16.204000 0.000000
-16.178900 0.000000
-16.153700 0.000000
-16.128600 0.000000
-16.103500 0.000000
-16.078400 0.000000
-16.053200 0.000000
-16.028100 0.000000
-16.003000 0.000000
-15.977900 0.000000
-15.952700 0.000000
-15.927600 0.000000
-15.902500 0.000000
-15.877400 0.000000
-15.852200 0.000000
-15.827100 0.000000
-15.802000 0.000000
-15.776900 0.001700
-15.751700 0.132700
-15.726600 0.206300
-15.701500 0.254000
-15.676400 0.306300
-15.651200 0.352800
-15.626100 0.387700
-15.601000 0.427500
-15.575900 0.469300
-15.550700 0.502200
-15.525600 0.538200
-15.500500 0.576900
-15.475400 0.614100
-15.450300 0.650600
-15.425100 0.686600
-15.400000 0.723500
-15.374900 0.763200
-15.349800 0.801800
-15.324600 0.840400
-15.299500 0.879600
-15.274400 0.922300
-15.249300 0.966200
-15.224100 1.010700
-15.199000 1.057200
-15.173900 1.105800
-15.148800 1.155500
-15.123600 1.206300
-15.098500 1.261500
-15.073400 1.321100
-15.048300 1.382700
-15.023100 1.445800
-14.998000 1.512500
-14.972900 1.585300
-14.947800 1.663600
-14.922600 1.746100
-14.897500 1.836400
-14.872400 1.931900
-14.847300 2.032900
-14.822100 2.146800
-14.797000 2.277000
-14.771900 2.419400
-14.746800 2.570300
-14.721600 2.736900
-14.696500 2.955000
-14.671400 3.205700
-14.646300 3.488900
-14.621100 3.860500
-14.596000 4.440400
-14.570900 5.308200
-14.545800 5.374700
-14.520600 5.490200
-14.495500 5.583200
-14.470400 5.704500
-14.445300 5.854900
-14.420100 5.994800
-14.395000 6.206000
-14.369900 6.438900
-14.344800 6.643400
-14.319700 6.952100
-14.294500 7.910200
-14.269400 9.033200
-14.244300 14.220300
-14.219200 0.000000
-14.194000 0.000000
-14.168900 0.000000
-14.143800 0.000000
-14.118700 0.000000
-14.093500 0.000000
-14.068400 0.000000
-14.043300 0.000000
-14.018200 0.000000
-13.993000 0.000000
-13.967900 0.000000
-13.942800 0.000000
-13.917700 0.000000
-13.892500 0.000000
-13.867400 0.000000
-13.842300 0.000000
-13.817200 0.000000
-13.792000 0.000000
-13.766900 0.000000
-13.741800 0.000000
-13.716700 0.000000
-13.691500 0.000000
-13.666400 0.000000
-13.641300 0.000000
-13.616200 0.000000
-13.591000 0.000000
-13.565900 0.000000
-13.540800 0.000000
-13.515700 0.000000
-13.490500 0.000000
-13.465400 0.000000
-13.440300 0.000000
-13.415200 0.000000
-13.390000 0.000000
-13.364900 0.000000
-13.339800 0.000000
-13.314700 0.000000
-13.289500 0.000000
-13.264400 0.000000
-13.239300 0.000000
-13.214200 0.000000
-13.189100 0.000000
-13.163900 0.000000
-13.138800 0.000000
-13.113700 0.000000
-13.088600 0.000000
-13.063400 0.000000
-13.038300 0.000000
-13.013200 0.000000
-12.988100 0.000000
-12.962900 0.000000
-12.937800 0.000000
-12.912700 0.000000
-12.887600 0.000000
-12.862400 0.000000
-12.837300 0.000000
-12.812200 0.000000
-12.787100 0.000000
-12.761900 0.000000
-12.736800 0.000000
-12.711700 0.000000
-12.686600 0.000000
-12.661400 0.000000
-12.636300 0.000000
-12.611200 0.000000
-12.586100 0.000000
-12.560900 0.000000
-12.535800 0.000000
-12.510700 0.000000
-12.485600 0.000000
-12.460400 0.000000
-12.435300 0.000000
-12.410200 0.000000
-12.385100 0.000000
-12.359900 0.000000
-12.334800 0.000000
-12.309700 0.000000
-12.284600 0.000000
-12.259400 0.000000
-12.234300 0.000000
-12.209200 0.000000
-12.184100 0.000000
-12.158900 0.000000
-12.133800 0.000000
-12.108700 0.000000
-12.083600 0.000000
-12.058500 0.000000
-12.033300 0.000000
-12.008200 0.000000
-11.983100 0.000000
-11.958000 0.000000
-11.932800 0.000000
-11.907700 0.000000
-11.882600 0.000000
-11.857500 0.000000
-11.832300 0.000000
-11.807200 0.000000
-11.782100 0.000000
-11.757000 0.000000
-11.731800 0.000000
-11.706700 0.000000
-11.681600 0.000000
-11.656500 0.000000
-11.631300 0.000000
-11.606200 0.000000
-11.581100 0.000000
-11.556000 0.000000
-11.530800 0.000000
-11.505700 0.000000
-11.480600 0.000000
-11.455500 0.000000
-11.430300 0.000000
-11.405200 0.000000
-11.380100 0.000000
-11.355000 0.000000
-11.329800 0.000000
-11.304700 0.000000
-11.279600 0.000000
-11.254500 0.000000
-11.229300 0.000000
-11.204200 0.000000
-11.179100 0.000000
-11.154000 0.000000
-11.128800 0.000000
-11.103700 0.000000
-11.078600 0.000000
-11.053500 0.000000
-11.028300 0.000000
-11.003200 0.000000
-10.978100 0.000000
-10.953000 0.000000
-10.927900 0.000000
-10.902700 0.000000
-10.877600 0.000000
-10.852500 0.000000
-10.827400 0.000000
-10.802200 0.000000
-10.777100 0.000000
-10.752000 0.000000
-10.726900 0.000000
-10.701700 0.000000
-10.676600 0.000000
-10.651500 0.000000
-10.626400 0.000000
-10.601200 0.000000
-10.576100 0.000000
-10.551000 0.000000
-10.525900 0.000000
-10.500700 0.000000
-10.475600 0.000000
-10.450500 0.000000
-10.425400 0.000000
-10.400200 0.000000
-10.375100 0.000000
-10.350000 0.000000
-10.324900 0.000000
-10.299700 0.000000
-10.274600 0.000000
-10.249500 0.000000
-10.224400 0.000000
-10.199200 0.000000
-10.174100 0.000000
-10.149000 0.000000
-10.123900 0.000000
-10.098700 0.000000
-10.073600 0.000000
-10.048500 0.000000
-10.023400 0.000000
-9.998200 0.000000
-9.973100 0.000000
-9.948000 0.000000
-9.922900 0.000000
-9.897700 0.000000
-9.872600 0.000000
-9.847500 0.000000
-9.822400 0.000000
-9.797300 0.000000
-9.772100 0.000000
-9.747000 0.000000
-9.721900 0.000000
-9.696800 0.000000
-9.671600 0.000000
-9.646500 0.000000
-9.621400 0.000000
-9.596300 0.000000
-9.571100 0.000000
-9.546000 0.000000
-9.520900 0.000000
-9.495800 0.000000
-9.470600 0.000000
-9.445500 0.000000
-9.420400 0.000000
-9.395300 0.000000
-9.370100 0.000000
-9.345000 0.000000
-9.319900 0.000000
-9.294800 0.000000
-9.269600 0.000000
-9.244500 0.000000
-9.219400 0.000000
-9.194300 0.000000
-9.169100 0.000000
-9.144000 0.000000
-9.118900 0.000000
-9.093800 0.000000
-9.068600 0.000000
-9.043500 0.000000
-9.018400 0.000000
-8.993300 0.000000
-8.968100 0.000000
-8.943000 0.000000
-8.917900 0.000000
-8.892800 0.000000
-8.867600 0.000000
-8.842500 0.000000
-8.817400 0.000000
-8.792300 0.000000
-8.767100 0.000000
-8.742000 0.000000
-8.716900 0.000000
-8.691800 0.000000
-8.666700 0.000000
-8.641500 0.000000
-8.616400 0.000000
-8.591300 0.000000
-8.566200 0.000000
-8.541000 0.000000
-8.515900 0.000000
-8.490800 0.000000
-8.465700 0.000000
-8.440500 0.000000
-8.415400 0.000000
-8.390300 0.000000
-8.365200 0.000000
-8.340000 0.000000
-8.314900 0.000000
-8.289800 0.000000
-8.264700 0.000000
-8.239500 0.000000
-8.214400 0.000000
-8.189300 0.000000
-8.164200 0.000000
-8.139000 0.000000
-8.113900 0.000000
-8.088800 0.000000
-8.063700 0.000000
-8.038500 0.000000
-8.013400 0.000000
-7.988300 0.000000
-7.963200 0.000000
-7.938000 0.000000
-7.912900 0.000000
-7.887800 0.000000
-7.862700 0.000000
-7.837500 0.000000
-7.812400 0.000000
-7.787300 0.000000
-7.762200 0.000000
-7.737000 0.000000
-7.711900 0.000000
-7.686800 0.000000
-7.661700 0.000000
-7.636500 0.000000
-7.611400 0.000000
-7.586300 0.000000
-7.561200 0.000000
-7.536100 0.000000
-7.510900 0.000000
-7.485800 0.000000
-7.460700 0.000000
-7.435600 0.000000
-7.410400 0.000000
-7.385300 0.000000
-7.360200 0.000000
-7.335100 0.000000
-7.309900 0.000000
-7.284800 0.000000
-7.259700 0.000000
-7.234600 0.000000
-7.209400 0.000000
-7.184300 0.000000
-7.159200 0.000000
-7.134100 0.000000
-7.108900 0.000000
-7.083800 0.000000
-7.058700 0.000000
-7.033600 0.000000
-7.008400 0.000000
-6.983300 0.000000
-6.958200 0.000000
-6.933100 0.000000
-6.907900 0.000000
-6.882800 0.000000
-6.857700 0.000000
-6.832600 0.000000
-6.807400 0.000000
-6.782300 0.000000
-6.757200 0.000000
-6.732100 0.000000
-6.706900 0.000000
-6.681800 0.000000
-6.656700 0.000000
-6.631600 0.000000
-6.606400 0.000000
-6.581300 0.000000
-6.556200 0.000000
-6.531100 0.000000
-6.506000 0.000000
-6.480800 0.000000
-6.455700 0.000000
-6.430600 0.000000
-6.405500 0.000000
-6.380300 0.000000
-6.355200 0.000000
-6.330100 0.000000
-6.305000 0.000000
-6.279800 0.000000
-6.254700 0.000000
-6.229600 0.000000
-6.204500 0.000000
-6.179300 0.000000
-6.154200 0.000000
-6.129100 0.000000
-6.104000 0.000000
-6.078800 0.000000
-6.053700 0.000000
-6.028600 0.000000
-6.003500 0.000000
-5.978300 0.000000
-5.953200 0.000000
-5.928100 0.000000
-5.903000 0.000000
-5.877800 0.000000
-5.852700 0.000000
-5.827600 0.000000
-5.802500 0.000000
-5.777300 0.000000
-5.752200 0.000000
-5.727100 0.000000
-5.702000 0.000000
-5.676800 0.000000
-5.651700 0.000000
-5.626600 0.000000
-5.601500 0.000000
-5.576300 0.000000
-5.551200 0.000000
-5.526100 0.000000
-5.501000 0.000000
-5.475800 0.000000
-5.450700 0.000000
-5.425600 0.000000
-5.400500 0.000000
-5.375400 0.000000
-5.350200 0.000000
-5.325100 0.000000
-5.300000 0.000000
-5.274900 0.000000
-5.249700 0.000000
-5.224600 0.000000
-5.199500 0.000000
-5.174400 0.000000
-5.149200 0.000000
-5.124100 0.000000
-5.099000 0.000000
-5.073900 0.000000
-5.048700 0.000000
-5.023600 0.000000
-4.998500 0.000000
-4.973400 0.000000
-4.948200 0.000000
-4.923100 0.000000
-4.898000 0.000000
-4.872900 0.000000
-4.847700 0.000000
-4.822600 0.000000
-4.797500 0.000000
-4.772400 0.000000
-4.747200 0.000000
-4.722100 0.000000
-4.697000 0.000000
-4.671900 0.000000
-4.646700 0.000000
-4.621600 0.000000
-4.596500 0.000000
-4.571400 0.000000
-4.546200 0.000000
-4.521100 0.000000
-4.496000 0.000000
-4.470900 0.000000
-4.445700 0.000000
-4.420600 0.000000
-4.395500 0.000000
-4.370400 0.000000
-4.345200 0.000000
-4.320100 0.000000
-4.295000 0.000000
-4.269900 0.000000
-4.244800 0.000000
-4.219600 0.000000
-4.194500 0.000000
-4.169400 0.000000
-4.144300 0.000000
-4.119100 0.000000
-4.094000 0.000000
-4.068900 0.000000
-4.043800 0.000000
-4.018600 0.000000
-3.993500 0.000000
-3.968400 0.000000
-3.943300 0.000000
-3.918100 0.000000
-3.893000 0.000000
-3.867900 0.000000
-3.842800 0.000000
-3.817600 0.000000
-3.792500 0.000000
-3.767400 0.000000
-3.742300 0.000000
-3.717100 0.000000
-3.692000 0.000000
-3.666900 0.000000
-3.641800 0.000000
-3.616600 0.000000
-3.591500 0.000000
-3.566400 0.000000
-3.541300 0.000000
-3.516100 0.000000
-3.491000 0.000000
-3.465900 0.000000
-3.440800 0.000000
-3.415600 0.000000
-3.390500 0.000000
-3.365400 0.000000
-3.340300 0.000000
-3.315100 0.000000
-3.290000 0.000000
-3.264900 0.000000
-3.239800 0.000000
-3.214600 0.000000
-3.189500 0.000000
-3.164400 0.000000
-3.139300 0.000000
-3.114200 0.000000
-3.089000 0.000000
-3.063900 0.000000
-3.038800 0.000000
-3.013700 0.000000
-2.988500 0.000000
-2.963400 0.000000
-2.938300 0.000000
-2.913200 0.000000
-2.888000 0.000000
-2.862900 0.000000
-2.837800 0.000000
-2.812700 0.000000
-2.787500 0.000000
-2.762400 0.000000
-2.737300 0.000000
-2.712200 0.000000
-2.687000 0.000000
-2.661900 0.000000
-2.636800 0.000000
-2.611700 0.000000
-2.586500 0.000000
-2.561400 0.000000
-2.536300 0.000000
-2.511200 0.000000
-2.486000 0.000000
-2.460900 0.000000
-2.435800 0.000000
-2.410700 0.000000
-2.385500 0.000000
-2.360400 0.000000
-2.335300 0.000000
-2.310200 0.000000
-2.285000 0.000000
-2.259900 0.000000
-2.234800 0.000000
-2.209700 0.000000
-2.184500 0.000000
-2.159400 0.000000
-2.134300 0.000000
-2.109200 0.000000
-2.084000 0.000000
-2.058900 0.000000
-2.033800 0.000000
-2.008700 0.000000
-1.983600 0.000000
-1.958400 0.000000
-1.933300 0.000000
-1.908200 0.000000
-1.883100 0.000000
-1.857900 0.000000
-1.832800 0.000000
-1.807700 0.000000
-1.782600 0.000000
-1.757400 0.000000
-1.732300 0.000000
-1.707200 0.000000
-1.682100 0.000000
-1.656900 0.000000
-1.631800 0.000000
-1.606700 0.000000
-1.581600 0.000000
-1.556400 0.000000
-1.531300 0.000000
-1.506200 0.000000
-1.481100 0.000000
-1.455900 0.000000
-1.430800 0.000000
-1.405700 0.000000
-1.380600 0.000000
-1.355400 0.000000
-1.330300 0.000000
-1.305200 0.000000
-1.280100 0.000000
-1.254900 0.000000
-1.229800 0.000000
-1.204700 0.000000
-1.179600 0.000000
-1.154400 0.000000
-1.129300 0.000000
-1.104200 0.000000
-1.079100 0.000000
-1.053900 0.000000
-1.028800 0.000000
-1.003700 0.000000
-0.978600 0.000000
-0.953400 0.000000
-0.928300 0.000000
-0.903200 0.000000
-0.878100 0.000000
-0.853000 0.000000
-0.827800 0.000000
-0.802700 0.000000
-0.777600 0.000000
-0.752500 0.000000
-0.727300 0.000000
-0.702200 0.000000
-0.677100 0.000000
-0.652000 0.000000
-0.626800 0.000000
-0.601700 0.000000
-0.576600 0.000000
-0.551500 0.000000
-0.526300 0.000000
-0.501200 0.000000
-0.476100 0.000000
-0.451000 0.000000
-0.425800 0.000000
-0.400700 0.000000
-0.375600 0.000000
-0.350500 0.000000
-0.325300 0.000000
-0.300200 0.000000
-0.275100 0.000000
-0.250000 0.000000
-0.224800 0.000000
-0.199700 0.000000
-0.174600 0.000000
-0.149500 0.000000
-0.124300 0.000000
-0.099200 0.000000
-0.074100 0.000000
-0.049000 0.000000
-0.023800 0.000000
0.001300 0.000000
0.026400 0.000000
0.051500 0.000000
0.076700 0.000000
0.101800 0.000000
0.126900 0.000000
0.152000 0.000000
0.177200 0.000000
0.202300 0.000000
0.227400 0.000000
0.252500 0.000000
0.277600 0.000000
0.302800 0.000000
0.327900 0.000000
0.353000 0.000000
0.378100 0.000000
0.403300 0.000000
0.428400 0.000000
0.453500 0.000000
0.478600 0.000000
0.503800 0.000000
0.528900 0.000000
0.554000 0.000000
0.579100 0.000000
0.604300 0.000000
0.629400 0.000000
0.654500 0.000000
0.679600 0.000000
0.704800 0.000000
0.729900 0.000000
0.755000 0.000000
0.780100 0.000000
0.805300 0.000000
0.830400 0.000000
0.855500 0.000000
0.880600 0.000000
0.905800 0.000000
0.930900 0.000000
0.956000 0.000000
0.981100 0.000000
1.006300 0.000000
1.031400 0.000000
1.056500 0.000000
1.081600 0.000000
1.106800 0.000000
1.131900 0.000000
1.157000 0.000000
1.182100 0.000000
1.207300 0.000000
1.232400 0.000000
1.257500 0.000000
1.282600 0.000000
1.307700 0.000000
1.332900 0.000000
1.358000 0.000000
1.383100 0.000000
1.408200 0.000000
1.433400 0.000000
1.458500 0.000000
1.483600 0.000000
1.508700 0.000000
1.533900 0.000000
1.559000 0.000000
1.584100 0.000000
1.609200 0.000000
1.634400 0.000000
1.659500 0.000000
1.684600 0.000000
1.709700 0.000000
1.734900 0.000000
1.760000 0.000000
1.785100 0.000000
1.810200 0.000000
1.835400 0.000000
1.860500 0.000000
1.885600 0.000000
1.910700 0.000000
1.935900 0.000000
1.961000 0.000000
1.986100 0.000000
2.011200 0.000000
2.036400 0.000000
2.061500 0.000000
2.086600 0.000000
2.111700 0.000000
2.136900 0.000000
2.162000 0.000000
2.187100 0.000000
2.212200 0.000000
2.237400 0.000000
2.262500 0.000000
2.287600 0.000000
2.312700 0.000000
2.337900 0.000000
2.363000 0.000000
2.388100 0.000000
2.413200 0.000000
2.438300 0.000000
2.463500 0.000000
2.488600 0.000000
2.513700 0.000000
2.538800 0.000000
2.564000 0.000000
2.589100 0.000000
2.614200 0.000000
2.639300 0.000000
2.664500 0.000000
2.689600 0.000000
2.714700 0.000000
2.739800 0.000000
2.765000 0.000000
2.790100 0.000000
2.815200 0.000000
2.840300 0.000000
2.865500 0.000000
2.890600 0.000000
2.915700 0.000000
2.940800 0.000000
2.966000 0.000000
2.991100 0.000000
3.016200 0.000000
3.041300 0.000000
3.066500 0.000000
3.091600 0.000000
3.116700 0.000000
3.141800 0.000000
3.167000 0.000000
3.192100 0.000000
3.217200 0.000000
3.242300 0.000000
3.267500 0.000000
3.292600 0.000000
3.317700 0.000000
3.342800 0.000000
3.368000 0.000000
3.393100 0.000000
3.418200 0.000000
3.443300 0.000000
3.468500 0.000000
3.493600 0.000000
3.518700 0.000000
3.543800 0.000000
3.568900 0.026000
3.594100 0.074600
3.619200 0.084800
3.644300 0.100700
3.669400 0.124500
3.694600 0.144600
3.719700 0.158700
3.744800 0.172600
3.769900 0.188900
3.795100 0.208000
3.820200 0.229000
3.845300 0.613700
3.870400 1.060900
3.895600 1.272600
3.920700 1.488700
3.945800 1.741800
3.970900 1.925600
3.996100 2.118800
4.021200 2.401400
4.046300 2.769800
4.071400 3.181100
4.096600 3.793200
4.121700 4.637800
4.146800 4.819100
4.171900 5.322500
4.197100 6.480000
4.222200 5.523400
4.247300 4.399900
4.272400 3.872000
4.297600 3.202100
4.322700 2.808500
4.347800 2.679800
4.372900 2.738500
4.398100 2.826000
4.423200 2.530000
4.448300 2.327700
4.473400 2.165900
4.498600 2.007900
4.523700 1.875300
4.548800 1.742400
4.573900 1.581100
4.599100 1.468000
4.624200 1.430200
4.649300 1.393600
4.674400 1.357700
4.699500 1.321400
4.724700 1.288100
4.749800 1.258500
4.774900 1.230100
4.800000 1.203200
4.825200 1.178300
4.850300 1.154800
4.875400 1.130400
4.900500 1.105900
4.925700 1.083500
4.950800 1.062600
4.975900 1.051200
5.001000 1.031000
5.026200 1.004900
5.051300 0.978300
5.076400 0.950600
5.101500 0.922800
5.126700 0.901200
5.151800 0.880400
5.176900 0.861700
5.202000 0.844400
5.227200 0.828300
5.252300 0.812400
5.277400 0.798600
5.302500 0.785300
5.327700 0.772400
5.352800 0.759500
5.377900 0.746200
5.403000 0.733500
5.428200 0.720400
5.453300 0.708800
5.478400 0.698000
5.503500 0.688500
5.528700 0.679600
5.553800 0.671000
5.578900 0.662500
5.604000 0.654200
5.629200 0.646000
5.654300 0.637400
5.679400 0.628900
5.704500 0.621200
5.729700 0.613700
5.754800 0.606000
5.779900 0.598900
5.805000 0.592200
5.830100 0.585800
5.855300 0.579600
5.880400 0.573300
5.905500 0.567300
5.930600 0.561700
5.955800 0.556400
5.980900 0.551100
6.006000 0.545800
6.031100 0.541500
6.056300 0.537400
6.081400 0.533700
6.106500 0.530400
6.131600 0.530500
6.156800 0.529800
6.181900 0.528700
6.207000 0.525400
6.232100 0.521800
6.257300 0.518300
6.282400 0.514600
6.307500 0.510700
6.332600 0.507100
6.357800 0.504400
6.382900 0.507600
6.408000 0.523600
6.433100 0.536600
6.458300 0.549200
6.483400 0.556300
6.508500 0.546000
6.533600 0.528500
6.558800 0.520000
6.583900 0.511900
6.609000 0.502800
6.634100 0.492000
6.659300 0.478700
6.684400 0.463700
6.709500 0.453400
6.734600 0.443300
6.759800 0.433800
6.784900 0.424500
6.810000 0.414700
6.835100 0.403800
6.860300 0.389900
6.885400 0.379300
6.910500 0.370300
6.935600 0.362200
6.960700 0.354700
6.985900 0.346300
7.011000 0.337000
7.036100 0.325600
7.061200 0.318200
7.086400 0.310400
7.111500 0.302500
7.136600 0.293300
7.161700 0.282400
7.186900 0.270400
7.212000 0.260700
7.237100 0.261900
7.262200 0.268100
7.287400 0.265900
7.312500 0.232800
7.337600 0.205500
7.362700 0.193400
7.387900 0.186100
7.413000 0.181500
7.438100 0.179200
7.463200 0.177800
7.488400 0.168400
7.513500 0.170900
7.538600 0.174000
7.563700 0.177600
7.588900 0.181400
7.614000 0.185300
7.639100 0.189700
7.664200 0.194600
7.689400 0.199600
7.714500 0.205800
7.739600 0.213900
7.764700 0.223900
7.789900 0.236100
7.815000 0.249500
7.840100 0.261600
7.865200 0.271300
7.890400 0.280600
7.915500 0.289800
7.940600 0.298800
7.965700 0.307400
7.990900 0.316300
8.016000 0.324900
8.041100 0.334500
8.066200 0.343300
8.091300 0.351800
8.116500 0.360100
8.141600 0.368200
8.166700 0.376100
8.191800 0.383700
8.217000 0.391300
8.242100 0.399100
8.267200 0.407900
8.292300 0.415800
8.317500 0.423300
8.342600 0.431000
8.367700 0.438900
8.392800 0.446900
8.418000 0.455300
8.443100 0.476200
8.468200 0.505800
8.493300 0.500100
8.518500 0.509100
8.543600 0.518100
8.568700 0.526700
8.593800 0.535100
8.619000 0.543100
8.644100 0.551000
8.669200 0.558900
8.694300 0.567100
8.719500 0.576700
8.744600 0.587500
8.769700 0.599100
8.794800 0.607400
8.820000 0.614700
8.845100 0.621700
8.870200 0.628500
8.895300 0.634900
8.920500 0.640700
8.945600 0.649100
8.970700 0.671500
8.995800 0.668400
9.021000 0.670600
9.046100 0.677400
9.071200 0.684800
9.096300 0.692300
9.121500 0.699500
9.146600 0.696900
9.171700 0.702600
9.196800 0.709500
9.221900 0.716800
9.247100 0.723300
9.272200 0.729200
9.297300 0.734600
9.322400 0.742800
9.347600 0.756400
9.372700 0.771900
9.397800 0.784600
9.422900 0.799800
9.448100 0.820800
9.473200 0.831200
9.498300 0.836700
9.523400 0.842000
9.548600 0.841700
9.573700 0.839200
9.598800 0.834200
9.623900 0.823900
9.649100 0.815800
9.674200 0.796200
9.699300 0.773100
9.724400 0.731500
9.749600 0.727600
9.774700 0.726300
9.799800 0.725400
9.824900 0.725500
9.850100 0.726000
9.875200 0.721800
9.900300 0.716700
9.925400 0.716100
9.950600 0.716300
9.975700 0.717900
10.000800 0.720600
10.025900 0.724300
10.051100 0.728300
10.076200 0.732600
10.101300 0.737600
10.126400 0.744000
10.151600 0.752000
10.176700 0.759600
10.201800 0.767600
10.226900 0.775700
10.252000 0.782200
10.277200 0.787700
10.302300 0.792700
10.327400 0.797300
10.352500 0.802600
10.377700 0.808900
10.402800 0.815900
10.427900 0.818600
10.453000 0.822700
10.478200 0.825500
10.503300 0.826900
10.528400 0.815800
10.553500 0.804500
10.578700 0.796400
10.603800 0.792400
10.628900 0.788200
10.654000 0.783900
10.679200 0.778700
10.704300 0.772300
10.729400 0.766100
10.754500 0.760200
10.779700 0.751800
10.804800 0.743500
10.829900 0.735200
10.855000 0.729400
10.880200 0.723700
10.905300 0.721900
10.930400 0.728000
10.955500 0.732400
10.980700 0.738800
11.005800 0.752200
11.030900 0.773500
11.056000 0.781900
11.081200 0.790600
11.106300 0.784600
11.131400 0.776300
11.156500 0.769200
11.181700 0.750600
11.206800 0.758000
11.231900 0.760200
11.257000 0.758700
11.282200 0.757300
11.307300 0.786200
11.332400 0.773700
11.357500 0.745600
11.382600 0.752000
11.407800 0.760600
11.432900 0.769200
11.458000 0.776300
11.483100 0.783200
11.508300 0.791200
11.533400 0.798300
11.558500 0.805000
11.583600 0.814000
11.608800 0.819400
11.633900 0.820100
11.659000 0.818200
11.684100 0.808500
11.709300 0.799900
11.734400 0.795400
11.759500 0.793100
11.784600 0.790200
11.809800 0.785500
11.834900 0.775500
11.860000 0.763600
11.885100 0.756700
11.910300 0.751200
11.935400 0.746000
11.960500 0.741700
11.985600 0.738400
12.010800 0.735600
12.035900 0.732600
12.061000 0.729200
12.086100 0.725800
12.111300 0.720800
12.136400 0.715900
12.161500 0.713700
12.186600 0.714200
12.211800 0.716000
12.236900 0.718600
12.262000 0.721300
12.287100 0.724300
12.312300 0.728200
12.337400 0.733300
12.362500 0.737800
12.387600 0.738200
12.412800 0.737400
12.437900 0.735600
12.463000 0.735600
12.488100 0.735500
12.513200 0.735300
12.538400 0.735800
12.563500 0.736700
12.588600 0.737300
12.613700 0.737800
12.638900 0.738400
12.664000 0.739100
12.689100 0.739800
12.714200 0.740400
12.739400 0.740900
12.764500 0.741500
12.789600 0.742500
12.814700 0.744200
12.839900 0.746600
12.865000 0.747900
12.890100 0.751400
12.915200 0.753900
12.940400 0.756700
12.965500 0.760100
12.990600 0.763900
13.015700 0.767900
13.040900 0.772100
13.066000 0.774000
13.091100 0.773200
13.116200 0.773900
13.141400 0.774900
13.166500 0.775600
13.191600 0.776700
13.216700 0.778500
13.241900 0.780700
13.267000 0.783600
13.292100 0.786800
13.317200 0.789900
13.342400 0.793000
13.367500 0.796300
13.392600 0.799700
13.417700 0.803100
13.442900 0.806500
13.468000 0.810000
13.493100 0.813600
13.518200 0.817500
13.543400 0.821500
13.568500 0.825500
13.593600 0.828600
13.618700 0.832100
13.643800 0.836100
13.669000 0.840200
13.694100 0.844400
13.719200 0.848300
13.744300 0.852300
13.769500 0.856700
13.794600 0.861200
13.819700 0.866700
13.844800 0.872900
13.870000 0.879200
13.895100 0.885500
13.920200 0.891300
13.945300 0.895800
13.970500 0.899300
13.995600 0.903400
14.020700 0.907500
14.045800 0.911700
14.071000 0.916600
14.096100 0.921700
14.121200 0.922800
14.146300 0.920200
14.171500 0.917500
14.196600 0.918600
14.221700 0.919700
14.246800 0.921400
14.272000 0.923700
14.297100 0.926400
14.322200 0.930400
14.347300 0.935000
14.372500 0.939800
14.397600 0.945300
14.422700 0.951500
14.447800 0.958400
14.473000 0.962400
14.498100 0.960000
14.523200 0.957300
14.548300 0.955500
14.573500 0.953400
14.598600 0.950500
14.623700 0.948200
14.648800 0.948800
14.674000 0.951800
14.699100 0.953500
14.724200 0.953300
14.749300 0.953300
14.774400 0.952500
14.799600 0.951000
14.824700 0.951000
14.849800 0.952000
14.874900 0.953300
14.900100 0.956200
14.925200 0.959600
14.950300 0.963500
14.975400 0.968100
15.000600 0.973400
15.025700 0.980000
15.050800 0.988700
15.075900 1.000400
15.101100 1.021500
15.126200 1.051700
15.151300 1.083600
15.176400 1.157700
15.201600 1.093400
15.226700 1.065200
15.251800 1.053400
15.276900 1.043500
15.302100 1.033200
15.327200 1.022900
15.352300 1.012700
15.377400 1.006600
15.402600 1.010100
15.427700 1.012700
15.452800 1.051200
15.477900 1.026300
15.503100 0.984100
15.528200 0.976700
15.553300 0.969700
15.578400 0.962600
15.603600 0.957500
15.628700 0.953500
15.653800 0.949100
15.678900 0.944400
15.704100 0.939500
15.729200 0.935000
15.754300 0.930300
15.779400 0.925600
15.804600 0.924500
15.829700 0.912000
15.854800 0.908300
15.879900 0.904800
15.905000 0.901900
15.930200 0.898800
15.955300 0.895500
15.980400 0.891800
16.005500 0.888800
16.030700 0.886300
16.055800 0.884100
16.080900 0.881600
16.106000 0.880100
16.131200 0.880600
16.156300 0.882100
16.181400 0.885400
16.206500 0.878800
16.231700 0.872600
16.256800 0.867200
16.281900 0.862900
16.307000 0.858500
16.332200 0.854100
16.357300 0.849200
16.382400 0.843900
16.407500 0.838100
16.432700 0.831500
16.457800 0.825000
16.482900 0.815300
16.508000 0.802000
16.533200 0.785400
16.558300 0.770200
16.583400 0.754600
16.608500 0.739500
16.633700 0.725900
16.658800 0.714200
16.683900 0.705000
16.709000 0.696600
16.734200 0.688300
16.759300 0.680300
16.784400 0.672800
16.809500 0.664200
16.834700 0.656300
16.859800 0.651800
16.884900 0.642400
16.910000 0.633700
16.935200 0.629400
16.960300 0.626800
16.985400 0.625800
17.010500 0.627000
17.035600 0.630600
17.060800 0.635100
17.085900 0.640600
17.111000 0.646600
17.136100 0.652600
17.161300 0.658200
17.186400 0.664600
17.211500 0.671800
17.236600 0.679800
17.261800 0.685600
17.286900 0.689900
17.312000 0.693600
17.337100 0.697700
17.362300 0.703800
17.387400 0.713200
17.412500 0.723800
17.437600 0.735500
17.462800 0.747800
17.487900 0.755700
17.513000 0.757200
17.538100 0.754900
17.563300 0.757300
17.588400 0.759500
17.613500 0.762500
17.638600 0.768000
17.663800 0.775000
17.688900 0.782500
17.714000 0.789500
17.739100 0.797300
17.764300 0.806400
17.789400 0.815800
17.814500 0.825100
17.839600 0.833300
17.864800 0.840500
17.889900 0.848000
17.915000 0.856300
17.940100 0.865100
17.965300 0.875000
17.990400 0.885700
18.015500 0.896900
18.040600 0.908500
18.065700 0.920600
18.090900 0.933000
18.116000 0.945700
18.141100 0.964600
18.166200 0.983900
18.191400 1.000800
18.216500 1.018200
18.241600 1.035200
18.266700 1.059100
18.291900 1.075000
18.317000 1.087200
18.342100 1.097400
18.367200 1.107500
18.392400 1.120400
18.417500 1.136600
18.442600 1.153100
18.467700 1.172200
18.492900 1.191500
18.518000 1.204100
18.543100 1.217700
18.568200 1.234000
18.593400 1.269600
18.618500 1.308600
18.643600 1.326000
18.668700 1.304200
18.693900 1.299400
18.719000 1.293300
18.744100 1.289000
18.769200 1.286700
18.794400 1.287200
18.819500 1.286000
18.844600 1.284300
18.869700 1.286900
18.894900 1.287900
18.920000 1.287200
18.945100 1.287000
18.970200 1.290800
18.995400 1.298400
19.020500 1.304900
19.045600 1.315500
19.070700 1.342500
19.095900 1.359200
19.121000 1.366600
19.146100 1.385400
19.171200 1.309300
19.196300 1.307000
19.221500 1.263700
19.246600 1.243900
19.271700 1.232400
19.296800 1.220500
19.322000 1.211700
19.347100 1.206400
19.372200 1.205700
19.397300 1.207800
19.422500 1.224000
19.447600 1.214000
19.472700 1.202900
19.497800 1.204300
19.523000 1.205300
19.548100 1.217400
19.573200 1.236600
19.598300 1.241800
19.623500 1.249200
19.648600 1.258900
19.673700 1.270300
19.698800 1.282500
19.724000 1.334500
19.749100 1.362600
19.774200 1.374800
19.799300 1.377000
19.824500 1.383900
19.849600 1.400100
19.874700 1.417200
19.899800 1.434600
19.925000 1.455400
19.950100 1.476700
19.975200 1.540400
20.000300 1.598100
20.025500 1.621700
20.050600 1.865400
20.075700 1.806900
20.100800 1.667100
20.126000 1.426700
20.151100 1.330200
20.176200 1.277100
20.201300 1.233800
20.226500 1.196500
20.251600 1.178300
20.276700 1.173400
20.301800 1.169500
20.326900 1.112600
20.352100 1.086300
20.377200 1.072000
20.402300 1.061600
20.427400 1.021200
20.452600 0.979200
20.477700 0.956200
20.502800 0.936900
20.527900 0.919400
20.553100 0.903700
20.578200 0.889000
20.603300 0.876500
20.628400 0.867000
20.653600 0.858100
20.678700 0.850900
20.703800 0.846000
20.728900 0.841600
20.754100 0.835400
20.779200 0.828700
20.804300 0.821700
20.829400 0.816300
20.854600 0.814100
20.879700 0.813200
20.904800 0.813100
20.929900 0.813800
20.955100 0.816300
20.980200 0.821500
21.005300 0.835400
21.030400 0.854700
21.055600 0.877800
21.080700 0.916800
21.105800 0.987200
21.130900 1.077700
21.156100 1.106900
21.181200 1.161100
21.206300 1.166400
21.231400 1.170500
21.256600 1.176500
21.281700 1.193400
21.306800 1.196900
21.331900 1.199300
21.357100 1.201500
21.382200 1.204500
21.407300 1.199500
21.432400 1.206600
21.457500 1.217500
21.482700 1.230200
21.507800 1.225900
21.532900 1.279300
21.558000 1.317700
21.583200 1.273400
21.608300 1.220900
21.633400 1.208200
21.658500 1.194200
21.683700 1.190900
21.708800 1.191700
21.733900 1.198600
21.759000 1.206000
21.784200 1.210400
21.809300 1.221000
21.834400 1.203400
21.859500 1.190100
21.884700 1.180800
21.909800 1.175000
21.934900 1.171200
21.960000 1.150800
21.985200 1.125300
22.010300 1.107700
22.035400 1.088700
22.060500 1.070700
22.085700 1.059200
22.110800 1.053600
22.135900 1.055600
22.161000 1.073500
22.186200 1.057100
22.211300 1.027800
22.236400 0.997000
22.261500 0.971200
22.286700 0.947900
22.311800 0.935700
22.336900 0.915300
22.362000 0.889200
22.387200 0.858500
22.412300 0.831600
22.437400 0.865500
22.462500 0.879300
22.487700 0.822100
22.512800 0.762600
22.537900 0.733000
22.563000 0.710000
22.588100 0.690800
22.613300 0.667600
22.638400 0.644100
22.663500 0.643600
22.688600 0.650000
22.713800 0.649500
22.738900 0.634900
22.764000 0.617000
22.789100 0.594600
22.814300 0.577900
22.839400 0.570100
22.864500 0.583500
22.889600 0.597000
22.914800 0.611800
22.939900 0.631400
22.965000 0.652000
22.990100 0.673000
23.015300 0.693200
23.040400 0.776700
23.065500 0.792700
23.090600 0.798600
23.115800 0.844200
23.140900 0.917800
23.166000 0.959400
23.191100 0.963700
23.216300 0.947000
23.241400 0.907500
23.266500 0.890100
23.291600 0.882900
23.316800 0.870000
23.341900 0.858200
23.367000 0.852300
23.392100 0.855000
23.417300 0.857500
23.442400 0.859300
23.467500 0.858300
23.492600 0.860500
23.517800 0.862100
23.542900 0.867800
23.568000 0.875600
23.593100 0.887600
23.618300 0.894600
23.643400 0.905000
23.668500 0.916200
23.693600 0.923700
23.718700 0.938700
23.743900 0.958100
23.769000 0.978000
23.794100 0.994400
23.819200 1.009200
23.844400 1.028500
23.869500 1.048200
23.894600 1.065700
23.919700 1.090400
23.944900 1.117900
23.970000 1.157100
23.995100 1.197600
24.020200 1.227100
24.045400 1.255900
24.070500 1.269400
24.095600 1.276300
24.120700 1.297900
24.145900 1.313700
24.171000 1.316700
24.196100 1.312800
24.221200 1.313700
24.246400 1.323300
24.271500 1.318900
24.296600 1.313900
24.321700 1.312100
24.346900 1.311600
24.372000 1.312700
24.397100 1.313600
24.422200 1.309100
24.447400 1.296200
24.472500 1.277400
24.497600 1.274800
24.522700 1.221600
24.547900 1.181000
24.573000 1.152500
24.598100 1.131400
24.623200 1.089100
24.648400 1.032500
24.673500 0.985200
24.698600 0.944000
24.723700 0.902400
24.748900 0.860000
24.774000 0.820400
24.799100 0.780400
24.824200 0.740300
24.849300 0.704700
24.874500 0.668500
24.899600 0.632300
24.924700 0.597900
24.949800 0.564500
24.975000 0.513600
25.000100 0.460300
25.025200 0.442100
25.050300 0.425900
25.075500 0.407800
25.100600 0.393100
25.125700 0.384700
25.150800 0.377300
25.176000 0.370300
25.201100 0.363400
25.226200 0.356700
25.251300 0.350300
25.276500 0.346100
25.301600 0.345700
25.326700 0.346900
25.351800 0.343400
25.377000 0.335500
25.402100 0.320500
25.427200 0.308100
25.452300 0.296300
25.477500 0.286000
25.502600 0.278300
25.527700 0.272400
25.552800 0.267300
25.578000 0.262500
25.603100 0.258000
25.628200 0.254000
25.653300 0.250100
25.678500 0.246400
25.703600 0.242900
25.728700 0.239800
25.753800 0.237200
25.779000 0.235000
25.804100 0.232900
25.829200 0.230600
25.854300 0.228500
25.879400 0.226700
25.904600 0.224800
25.929700 0.224200
25.954800 0.221400
25.979900 0.218500
26.005100 0.215600
26.030200 0.212800
26.055300 0.209900
26.080400 0.207100
26.105600 0.204300
26.130700 0.201500
26.155800 0.198700
26.180900 0.196000
26.206100 0.193300
26.231200 0.190200
26.256300 0.188400
26.281400 0.186600
26.306600 0.184300
26.331700 0.181500
26.356800 0.178500
26.381900 0.176400
26.407100 0.175400
26.432200 0.174700
26.457300 0.176200
26.482400 0.174800
26.507600 0.173300
26.532700 0.172000
26.557800 0.170600
26.582900 0.168100
26.608100 0.164400
26.633200 0.160200
26.658300 0.155500
26.683400 0.150400
26.708600 0.144000
26.733700 0.136100
26.758800 0.127000
26.783900 0.119600
26.809100 0.113200
26.834200 0.107300
26.859300 0.102700
26.884400 0.099300
26.909600 0.096600
26.934700 0.093600
26.959800 0.090200
26.984900 0.086800
27.010000 0.083600
27.035200 0.080600
27.060300 0.077900
27.085400 0.075300
27.110500 0.072900
27.135700 0.070700
27.160800 0.069100
27.185900 0.067800
27.211000 0.066500
27.236200 0.065200
27.261300 0.063700
27.286400 0.062200
27.311500 0.060800
27.336700 0.059300
27.361800 0.058100
27.386900 0.057600
27.412000 0.058600
27.437200 0.057300
27.462300 0.056100
27.487400 0.054900
27.512500 0.053700
27.537700 0.052500
27.562800 0.051300
27.587900 0.050000
27.613000 0.048700
27.638200 0.047200
27.663300 0.045800
27.688400 0.044300
27.713500 0.042900
27.738700 0.041600
27.763800 0.040600
27.788900 0.039600
27.814000 0.038900
27.839200 0.038100
27.864300 0.037400
27.889400 0.036700
27.914500 0.036000
27.939700 0.035300
27.964800 0.034600
27.989900 0.033900
28.015000 0.033300
28.040200 0.033000
28.065300 0.033200
28.090400 0.033800
28.115500 0.034500
28.140600 0.031800
28.165800 0.031200
28.190900 0.030600
28.216000 0.030000
28.241100 0.029400
28.266300 0.028900
28.291400 0.028300
28.316500 0.027800
28.341600 0.027200
28.366800 0.026600
28.391900 0.025900
28.417000 0.025100
28.442100 0.024300
28.467300 0.023600
28.492400 0.022900
28.517500 0.022200
28.542600 0.021500
28.567800 0.020800
28.592900 0.020000
28.618000 0.019300
28.643100 0.018600
28.668300 0.017900
28.693400 0.017200
28.718500 0.016500
28.743600 0.015400
28.768800 0.014300
28.793900 0.013100
28.819000 0.012000
28.844100 0.011300
28.869300 0.010900
28.894400 0.010600
28.919500 0.010200
28.944600 0.009900
28.969800 0.009600
28.994900 0.009200
29.020000 0.008900
29.045100 0.008600
29.070300 0.008300
29.095400 0.008000
29.120500 0.007600
29.145600 0.007300
29.170800 0.007000
29.195900 0.006700
29.221000 0.006400
29.246100 0.006200
29.271200 0.005900
29.296400 0.005600
29.321500 0.005300
29.346600 0.005000
29.371700 0.004700
29.396900 0.004500
29.422000 0.004200
29.447100 0.003900
29.472200 0.003700
29.497400 0.003400
29.522500 0.003200
29.547600 0.002900
29.572700 0.002700
29.597900 0.002400
29.623000 0.002200
29.648100 0.002000
29.673200 0.001700
29.698400 0.001500
29.723500 0.001300
29.748600 0.001100
29.773700 0.000800
29.798900 0.000600
29.824000 0.000400
29.849100 0.000300
29.874200 0.000100
29.899400 0.000000
29.924500 0.000000
29.949600 0.000000
29.974700 0.000000
29.999900 0.000000
30.025000 0.000000
30.050100 0.000000
30.075200 0.000000
30.100400 0.000000
30.125500 0.000000
30.150600 0.000000
30.175700 0.000000
30.200900 0.000000
30.226000 0.000000
30.251100 0.000000
30.276200 0.000000
30.301400 0.000000
30.326500 0.000000
30.351600 0.000000
30.376700 0.000000
30.401800 0.000000
30.427000 0.000000
30.452100 0.000000
30.477200 0.000000
30.502300 0.000000
30.527500 0.000000
30.552600 0.000000
30.577700 0.000000
30.602800 0.000000
30.628000 0.000000
30.653100 0.000000
30.678200 0.000000
30.703300 0.000000
30.728500 0.000000
30.753600 0.000000
30.778700 0.000000
30.803800 0.000000
30.829000 0.000000
30.854100 0.000000
30.879200 0.000000
30.904300 0.000000
30.929500 0.000000
30.954600 0.000000
30.979700 0.000000
31.004800 0.000000
31.030000 0.000000
31.055100 0.000000
31.080200 0.000000
31.105300 0.000000
31.130500 0.000000
31.155600 0.000000
31.180700 0.000000
31.205800 0.000000
31.231000 0.000000
31.256100 0.000000
31.281200 0.000000
31.306300 0.000000
31.331500 0.000000
31.356600 0.000000
31.381700 0.000000
31.406800 0.000000
31.432000 0.000000
31.457100 0.000000
31.482200 0.000000
31.507300 0.000000
31.532400 0.000000
31.557600 0.000000
31.582700 0.000000
31.607800 0.000000
31.632900 0.000000
31.658100 0.000000
31.683200 0.000000
31.708300 0.000000
31.733400 0.000000
31.758600 0.000000
31.783700 0.000000
31.808800 0.000000
31.833900 0.000000
31.859100 0.000000
31.884200 0.000000
31.909300 0.000000
31.934400 0.000000
31.959600 0.000000
31.984700 0.000000
32.009800 0.000000
32.034900 0.000000
32.060100 0.000000
32.085200 0.000000
32.110300 0.000000
32.135400 0.000000
32.160600 0.000000
32.185700 0.000000
e
