set title 'mp-22687 - Density of States'
set xlabel 'Energy (eV)'
set ylabel 'DOS (states/eV)'
set grid
set xrange [-10:10]
set yrange [0:161.149]
set xzeroaxis lt -1
set terminal png size 800,600
set output 'mp-22687_dos_gnuplot.png'
plot '-' using 1:2 with lines title 'DOS'
-25.321200 0.000000
-25.293200 0.000000
-25.265200 0.000000
-25.237200 0.000000
-25.209200 0.000000
-25.181100 0.000000
-25.153100 0.000000
-25.125100 0.000000
-25.097100 0.000000
-25.069100 0.000000
-25.041100 0.000000
-25.013100 0.000000
-24.985100 0.000000
-24.957100 0.000000
-24.929100 0.000000
-24.901100 0.000000
-24.873000 0.000000
-24.845000 0.000000
-24.817000 0.000000
-24.789000 0.000000
-24.761000 0.000000
-24.733000 0.000000
-24.705000 0.000000
-24.677000 0.000000
-24.649000 0.000000
-24.621000 0.000000
-24.593000 0.000000
-24.564900 0.000000
-24.536900 0.000000
-24.508900 0.000000
-24.480900 0.000000
-24.452900 0.000000
-24.424900 0.000000
-24.396900 0.000000
-24.368900 0.000000
-24.340900 0.000000
-24.312900 0.000000
-24.284900 0.000000
-24.256800 0.000000
-24.228800 0.000000
-24.200800 0.000000
-24.172800 0.000000
-24.144800 0.000000
-24.116800 0.000000
-24.088800 0.000000
-24.060800 0.000000
-24.032800 0.000000
-24.004800 0.000000
-23.976800 0.000000
-23.948700 0.000000
-23.920700 0.000000
-23.892700 0.000000
-23.864700 0.000000
-23.836700 0.000000
-23.808700 0.000000
-23.780700 0.000000
-23.752700 0.000000
-23.724700 0.000000
-23.696700 0.000000
-23.668700 0.000000
-23.640600 0.000000
-23.612600 0.000000
-23.584600 0.000000
-23.556600 0.000000
-23.528600 0.000000
-23.500600 0.000000
-23.472600 0.000000
-23.444600 0.000000
-23.416600 0.000000
-23.388600 0.000000
-23.360600 0.000000
-23.332500 0.000000
-23.304500 0.000000
-23.276500 0.000000
-23.248500 0.000000
-23.220500 0.000000
-23.192500 0.000000
-23.164500 0.000000
-23.136500 0.000000
-23.108500 0.000000
-23.080500 0.000000
-23.052500 0.000000
-23.024400 0.000000
-22.996400 0.000000
-22.968400 0.000000
-22.940400 0.000000
-22.912400 0.000000
-22.884400 0.000000
-22.856400 0.000000
-22.828400 0.000000
-22.800400 0.000000
-22.772400 538.662500
-22.744400 0.000000
-22.716300 0.000000
-22.688300 0.000000
-22.660300 0.000000
-22.632300 0.000000
-22.604300 0.000000
-22.576300 0.000000
-22.548300 0.000000
-22.520300 0.000000
-22.492300 0.000000
-22.464300 0.000000
-22.436300 0.000000
-22.408200 0.000000
-22.380200 0.000000
-22.352200 0.000000
-22.324200 0.000000
-22.296200 0.000000
-22.268200 0.000000
-22.240200 0.000000
-22.212200 0.000000
-22.184200 0.000000
-22.156200 0.000000
-22.128200 0.000000
-22.100100 0.000000
-22.072100 0.000000
-22.044100 0.000000
-22.016100 0.000000
-21.988100 0.000000
-21.960100 0.000000
-21.932100 0.000000
-21.904100 0.000000
-21.876100 0.000000
-21.848100 0.000000
-21.820100 0.000000
-21.792000 0.000000
-21.764000 0.000000
-21.736000 0.000000
-21.708000 0.000000
-21.680000 0.000000
-21.652000 0.000000
-21.624000 0.000000
-21.596000 0.000000
-21.568000 0.000000
-21.540000 0.000000
-21.512000 0.000000
-21.484000 0.000000
-21.455900 0.000000
-21.427900 0.000000
-21.399900 0.000000
-21.371900 0.000000
-21.343900 0.000000
-21.315900 0.000000
-21.287900 0.000000
-21.259900 0.000000
-21.231900 0.000000
-21.203900 0.000000
-21.175900 0.000000
-21.147800 0.000000
-21.119800 0.000000
-21.091800 0.000000
-21.063800 0.000000
-21.035800 0.000000
-21.007800 0.000000
-20.979800 0.000000
-20.951800 0.000000
-20.923800 0.000000
-20.895800 0.000000
-20.867800 0.000000
-20.839700 0.000000
-20.811700 0.000000
-20.783700 0.000000
-20.755700 0.000000
-20.727700 0.000000
-20.699700 0.000000
-20.671700 0.000000
-20.643700 0.000000
-20.615700 0.000000
-20.587700 0.000000
-20.559700 0.000000
-20.531600 0.000000
-20.503600 0.000000
-20.475600 0.000000
-20.447600 0.000000
-20.419600 0.000000
-20.391600 0.000000
-20.363600 0.000000
-20.335600 0.000000
-20.307600 0.000000
-20.279600 0.000000
-20.251600 0.000000
-20.223500 0.000000
-20.195500 0.000000
-20.167500 0.000000
-20.139500 0.000000
-20.111500 0.000000
-20.083500 0.000000
-20.055500 0.000000
-20.027500 0.000000
-19.999500 0.000000
-19.971500 0.000000
-19.943500 0.000000
-19.915400 0.000000
-19.887400 0.000000
-19.859400 0.000000
-19.831400 0.000000
-19.803400 0.000000
-19.775400 0.000000
-19.747400 0.000000
-19.719400 0.000000
-19.691400 0.000000
-19.663400 0.000000
-19.635400 0.000000
-19.607300 0.000000
-19.579300 0.000000
-19.551300 0.000000
-19.523300 0.000000
-19.495300 0.000000
-19.467300 0.000000
-19.439300 0.000000
-19.411300 0.000000
-19.383300 0.000000
-19.355300 0.000000
-19.327300 0.000000
-19.299200 0.000000
-19.271200 0.000000
-19.243200 0.000000
-19.215200 0.000000
-19.187200 0.000000
-19.159200 0.000000
-19.131200 0.000000
-19.103200 0.000000
-19.075200 0.000000
-19.047200 0.000000
-19.019200 0.000000
-18.991100 0.000000
-18.963100 0.000000
-18.935100 0.000000
-18.907100 0.000000
-18.879100 0.000000
-18.851100 0.000000
-18.823100 0.000000
-18.795100 0.000000
-18.767100 0.000000
-18.739100 0.000000
-18.711100 0.000000
-18.683000 0.000000
-18.655000 0.000000
-18.627000 0.000000
-18.599000 0.000000
-18.571000 0.000000
-18.543000 0.000000
-18.515000 0.000000
-18.487000 0.000000
-18.459000 0.000000
-18.431000 0.000000
-18.403000 0.000000
-18.374900 0.000000
-18.346900 0.000000
-18.318900 0.000000
-18.290900 0.000000
-18.262900 0.000000
-18.234900 0.000000
-18.206900 0.000000
-18.178900 0.000000
-18.150900 0.000000
-18.122900 0.000000
-18.094900 0.000000
-18.066900 0.000000
-18.038800 0.000000
-18.010800 0.000000
-17.982800 0.000000
-17.954800 0.000000
-17.926800 0.000000
-17.898800 0.000000
-17.870800 0.000000
-17.842800 0.000000
-17.814800 0.000000
-17.786800 0.000000
-17.758800 0.000000
-17.730700 0.000000
-17.702700 0.000000
-17.674700 0.000000
-17.646700 0.000000
-17.618700 0.000000
-17.590700 0.000000
-17.562700 0.000000
-17.534700 0.000000
-17.506700 0.000000
-17.478700 0.000000
-17.450700 0.000000
-17.422600 0.000000
-17.394600 0.000000
-17.366600 0.000000
-17.338600 0.000000
-17.310600 0.000000
-17.282600 0.000000
-17.254600 0.000000
-17.226600 0.000000
-17.198600 0.000000
-17.170600 0.000000
-17.142600 0.000000
-17.114500 0.000000
-17.086500 0.000000
-17.058500 0.000000
-17.030500 0.000000
-17.002500 0.000000
-16.974500 0.000000
-16.946500 0.000000
-16.918500 0.000000
-16.890500 0.000000
-16.862500 0.000000
-16.834500 0.000000
-16.806400 0.000000
-16.778400 0.000000
-16.750400 0.000000
-16.722400 0.000000
-16.694400 0.000000
-16.666400 0.000000
-16.638400 0.000000
-16.610400 0.000000
-16.582400 0.000000
-16.554400 0.000000
-16.526400 0.000000
-16.498300 0.000000
-16.470300 0.000000
-16.442300 0.000000
-16.414300 0.000000
-16.386300 0.000000
-16.358300 0.000000
-16.330300 0.000000
-16.302300 0.000000
-16.274300 0.000000
-16.246300 0.000000
-16.218300 0.000000
-16.190200 0.000000
-16.162200 0.000000
-16.134200 0.000000
-16.106200 0.000000
-16.078200 0.000000
-16.050200 0.000000
-16.022200 0.000000
-15.994200 0.000000
-15.966200 0.000000
-15.938200 0.000000
-15.910200 0.000000
-15.882100 0.000000
-15.854100 0.000000
-15.826100 0.000000
-15.798100 0.000000
-15.770100 0.000000
-15.742100 0.000000
-15.714100 0.000000
-15.686100 0.000000
-15.658100 0.000000
-15.630100 0.000000
-15.602100 0.000000
-15.574000 0.000000
-15.546000 0.000000
-15.518000 0.000000
-15.490000 0.000000
-15.462000 0.000000
-15.434000 0.000000
-15.406000 0.000000
-15.378000 0.000000
-15.350000 0.000000
-15.322000 0.000000
-15.294000 0.000000
-15.265900 0.000000
-15.237900 0.000000
-15.209900 0.000000
-15.181900 0.000000
-15.153900 0.000000
-15.125900 0.000000
-15.097900 0.000000
-15.069900 0.000000
-15.041900 0.000000
-15.013900 0.000000
-14.985900 0.000000
-14.957800 0.000000
-14.929800 0.000000
-14.901800 0.000000
-14.873800 0.000000
-14.845800 0.000000
-14.817800 0.000000
-14.789800 0.000000
-14.761800 0.000000
-14.733800 0.000000
-14.705800 0.000000
-14.677800 0.000000
-14.649700 0.000000
-14.621700 0.000000
-14.593700 0.000000
-14.565700 0.000000
-14.537700 0.000000
-14.509700 0.000000
-14.481700 0.000000
-14.453700 0.000000
-14.425700 0.000000
-14.397700 0.000000
-14.369700 0.000000
-14.341700 0.000000
-14.313600 0.000000
-14.285600 0.000000
-14.257600 0.000000
-14.229600 0.000000
-14.201600 0.000000
-14.173600 0.000000
-14.145600 0.000000
-14.117600 0.000000
-14.089600 0.000000
-14.061600 0.000000
-14.033600 0.000000
-14.005500 0.000000
-13.977500 0.000000
-13.949500 0.000000
-13.921500 0.000000
-13.893500 0.000000
-13.865500 0.000000
-13.837500 0.000000
-13.809500 0.000000
-13.781500 0.000000
-13.753500 0.000000
-13.725500 0.000000
-13.697400 0.000000
-13.669400 0.000000
-13.641400 0.000000
-13.613400 0.000000
-13.585400 0.000000
-13.557400 0.000000
-13.529400 0.000000
-13.501400 0.000000
-13.473400 0.000000
-13.445400 0.000000
-13.417400 0.000000
-13.389300 0.000000
-13.361300 0.000000
-13.333300 0.000000
-13.305300 0.000000
-13.277300 0.000000
-13.249300 0.000000
-13.221300 0.000000
-13.193300 0.000000
-13.165300 0.000000
-13.137300 0.000000
-13.109300 0.000000
-13.081200 0.000000
-13.053200 0.000000
-13.025200 0.000000
-12.997200 0.000000
-12.969200 0.000000
-12.941200 0.000000
-12.913200 0.000000
-12.885200 0.000000
-12.857200 0.000000
-12.829200 0.000000
-12.801200 0.000000
-12.773100 0.000000
-12.745100 0.000000
-12.717100 0.000000
-12.689100 0.000000
-12.661100 0.000000
-12.633100 0.000000
-12.605100 0.000000
-12.577100 0.000000
-12.549100 0.000000
-12.521100 0.000000
-12.493100 0.000000
-12.465000 0.000000
-12.437000 0.000000
-12.409000 0.000000
-12.381000 0.000000
-12.353000 0.000000
-12.325000 0.000000
-12.297000 0.000000
-12.269000 0.000000
-12.241000 0.000000
-12.213000 0.000000
-12.185000 0.000000
-12.156900 0.000000
-12.128900 0.000000
-12.100900 0.000000
-12.072900 0.000000
-12.044900 0.000000
-12.016900 0.000000
-11.988900 0.000000
-11.960900 0.000000
-11.932900 0.000000
-11.904900 0.000000
-11.876900 0.000000
-11.848800 0.000000
-11.820800 0.000000
-11.792800 0.000000
-11.764800 0.000000
-11.736800 0.000000
-11.708800 0.000000
-11.680800 0.000000
-11.652800 0.000000
-11.624800 0.000000
-11.596800 0.000000
-11.568800 0.000000
-11.540700 0.000000
-11.512700 0.000000
-11.484700 0.000000
-11.456700 0.000000
-11.428700 0.000000
-11.400700 0.000000
-11.372700 0.000000
-11.344700 0.000000
-11.316700 0.000000
-11.288700 0.000000
-11.260700 0.000000
-11.232600 0.000000
-11.204600 0.000000
-11.176600 0.000000
-11.148600 0.000000
-11.120600 0.000000
-11.092600 0.000000
-11.064600 0.000000
-11.036600 0.000000
-11.008600 0.000000
-10.980600 0.000000
-10.952600 0.000000
-10.924500 0.000000
-10.896500 0.000000
-10.868500 0.000000
-10.840500 0.000000
-10.812500 0.000000
-10.784500 0.000000
-10.756500 0.000000
-10.728500 0.000000
-10.700500 0.000000
-10.672500 0.000000
-10.644500 0.000000
-10.616500 0.000000
-10.588400 0.000000
-10.560400 0.000000
-10.532400 0.000000
-10.504400 0.000000
-10.476400 0.000000
-10.448400 0.000000
-10.420400 0.000000
-10.392400 0.000000
-10.364400 0.000000
-10.336400 0.000000
-10.308400 0.000000
-10.280300 0.000000
-10.252300 0.000000
-10.224300 0.000000
-10.196300 0.000000
-10.168300 0.000000
-10.140300 0.000000
-10.112300 0.000000
-10.084300 0.000000
-10.056300 0.000000
-10.028300 0.000000
-10.000300 0.000000
-9.972200 0.000000
-9.944200 0.000000
-9.916200 0.000000
-9.888200 0.000000
-9.860200 0.000000
-9.832200 0.000000
-9.804200 0.000000
-9.776200 0.000000
-9.748200 0.000000
-9.720200 0.000000
-9.692200 0.000000
-9.664100 0.000000
-9.636100 0.000000
-9.608100 0.000000
-9.580100 0.000000
-9.552100 0.000000
-9.524100 0.000000
-9.496100 0.000000
-9.468100 0.000000
-9.440100 0.000000
-9.412100 0.000000
-9.384100 0.000000
-9.356000 0.000000
-9.328000 0.000000
-9.300000 0.000000
-9.272000 0.000000
-9.244000 0.000000
-9.216000 0.000000
-9.188000 146.498700
-9.160000 20.218300
-9.132000 50.186700
-9.104000 74.791600
-9.076000 96.479800
-9.047900 103.554000
-9.019900 69.037700
-8.991900 34.140300
-8.963900 48.701700
-8.935900 25.128400
-8.907900 16.898700
-8.879900 22.839300
-8.851900 33.136400
-8.823900 54.064000
-8.795900 69.581900
-8.767900 126.054500
-8.739800 92.928800
-8.711800 82.377800
-8.683800 55.113900
-8.655800 42.130300
-8.627800 65.981300
-8.599800 84.320000
-8.571800 38.327400
-8.543800 0.000000
-8.515800 0.000000
-8.487800 0.000000
-8.459800 0.000000
-8.431700 0.000000
-8.403700 0.000000
-8.375700 0.000000
-8.347700 0.000000
-8.319700 0.000000
-8.291700 0.000000
-8.263700 0.000000
-8.235700 0.000000
-8.207700 0.000000
-8.179700 0.000000
-8.151700 0.000000
-8.123600 0.000000
-8.095600 32.325900
-8.067600 84.912700
-8.039600 42.839400
-8.011600 26.762300
-7.983600 33.408300
-7.955600 7.841700
-7.927600 0.000000
-7.899600 0.000000
-7.871600 0.000000
-7.843600 0.000000
-7.815500 0.000000
-7.787500 0.000000
-7.759500 0.000000
-7.731500 0.000000
-7.703500 0.000000
-7.675500 0.000000
-7.647500 0.000000
-7.619500 0.000000
-7.591500 0.000000
-7.563500 0.000000
-7.535500 0.000000
-7.507400 0.000000
-7.479400 0.000000
-7.451400 0.000000
-7.423400 0.000000
-7.395400 0.000000
-7.367400 0.000000
-7.339400 0.000000
-7.311400 0.000000
-7.283400 0.000000
-7.255400 0.000000
-7.227400 0.000000
-7.199300 0.000000
-7.171300 0.000000
-7.143300 0.000000
-7.115300 0.000000
-7.087300 0.000000
-7.059300 0.000000
-7.031300 0.000000
-7.003300 0.000000
-6.975300 0.000000
-6.947300 0.000000
-6.919300 0.000000
-6.891300 0.000000
-6.863200 0.000000
-6.835200 0.000000
-6.807200 0.000000
-6.779200 0.000000
-6.751200 0.000000
-6.723200 0.000000
-6.695200 0.000000
-6.667200 0.000000
-6.639200 0.000000
-6.611200 0.000000
-6.583200 0.000000
-6.555100 0.000000
-6.527100 0.000000
-6.499100 0.000000
-6.471100 0.000000
-6.443100 0.000000
-6.415100 0.000000
-6.387100 0.000000
-6.359100 0.000000
-6.331100 0.000000
-6.303100 0.000000
-6.275100 0.000000
-6.247000 0.000000
-6.219000 0.000000
-6.191000 0.000000
-6.163000 0.000000
-6.135000 0.000000
-6.107000 0.000000
-6.079000 0.000000
-6.051000 0.000000
-6.023000 0.000000
-5.995000 0.000000
-5.967000 0.000000
-5.938900 0.000000
-5.910900 0.000000
-5.882900 0.000000
-5.854900 0.000000
-5.826900 0.000000
-5.798900 0.000000
-5.770900 0.000000
-5.742900 0.000000
-5.714900 0.000000
-5.686900 0.000000
-5.658900 0.000000
-5.630800 0.000000
-5.602800 0.000000
-5.574800 0.000000
-5.546800 0.000000
-5.518800 0.000000
-5.490800 0.000000
-5.462800 0.000000
-5.434800 0.000000
-5.406800 0.000000
-5.378800 0.000000
-5.350800 0.000000
-5.322700 0.000000
-5.294700 0.000000
-5.266700 0.000000
-5.238700 0.000000
-5.210700 0.000000
-5.182700 0.000000
-5.154700 0.000000
-5.126700 0.000000
-5.098700 0.000000
-5.070700 0.000000
-5.042700 0.000000
-5.014600 0.000000
-4.986600 0.000000
-4.958600 0.000000
-4.930600 0.000000
-4.902600 0.000000
-4.874600 0.000000
-4.846600 0.000000
-4.818600 0.000000
-4.790600 0.000000
-4.762600 0.000000
-4.734600 0.000000
-4.706500 0.000000
-4.678500 0.000000
-4.650500 0.000000
-4.622500 0.000000
-4.594500 0.000000
-4.566500 0.000000
-4.538500 0.000000
-4.510500 0.000000
-4.482500 0.000000
-4.454500 0.000000
-4.426500 0.000000
-4.398400 0.000000
-4.370400 0.000000
-4.342400 0.000000
-4.314400 0.000000
-4.286400 0.000000
-4.258400 0.000000
-4.230400 0.000000
-4.202400 0.000000
-4.174400 0.000000
-4.146400 0.000000
-4.118400 0.000000
-4.090300 0.000000
-4.062300 0.000000
-4.034300 0.000000
-4.006300 0.000000
-3.978300 0.000000
-3.950300 0.000000
-3.922300 0.000000
-3.894300 0.000000
-3.866300 0.000000
-3.838300 0.000000
-3.810300 0.000000
-3.782200 0.000000
-3.754200 0.000000
-3.726200 0.000000
-3.698200 0.000000
-3.670200 0.000000
-3.642200 0.000000
-3.614200 0.000000
-3.586200 0.000000
-3.558200 0.000000
-3.530200 0.000000
-3.502200 0.000000
-3.474200 0.000000
-3.446100 0.000000
-3.418100 0.000000
-3.390100 0.000000
-3.362100 0.000000
-3.334100 0.000000
-3.306100 0.000000
-3.278100 0.000000
-3.250100 0.000000
-3.222100 0.000000
-3.194100 0.000000
-3.166100 0.000000
-3.138000 0.000000
-3.110000 0.000000
-3.082000 0.000000
-3.054000 0.000000
-3.026000 0.000000
-2.998000 0.000000
-2.970000 0.000000
-2.942000 0.026800
-2.914000 0.110100
-2.886000 0.206100
-2.858000 0.290400
-2.829900 0.329700
-2.801900 0.363400
-2.773900 0.385200
-2.745900 0.416300
-2.717900 0.458600
-2.689900 0.502900
-2.661900 0.549100
-2.633900 0.596300
-2.605900 0.629200
-2.577900 0.654200
-2.549900 0.681900
-2.521800 0.714800
-2.493800 0.749000
-2.465800 0.784600
-2.437800 0.823300
-2.409800 0.872100
-2.381800 0.984200
-2.353800 1.044200
-2.325800 1.065400
-2.297800 1.072000
-2.269800 1.054400
-2.241800 1.069700
-2.213700 1.081500
-2.185700 1.090000
-2.157700 1.096000
-2.129700 1.101600
-2.101700 1.085000
-2.073700 1.075400
-2.045700 1.073000
-2.017700 1.078400
-1.989700 1.085000
-1.961700 1.091100
-1.933700 1.101000
-1.905600 1.109400
-1.877600 1.118000
-1.849600 1.125400
-1.821600 1.131200
-1.793600 1.136000
-1.765600 1.139600
-1.737600 1.142200
-1.709600 1.152100
-1.681600 1.178500
-1.653600 1.219300
-1.625600 1.266700
-1.597500 1.404200
-1.569500 1.490900
-1.541500 1.543000
-1.513500 1.568200
-1.485500 1.566500
-1.457500 1.448400
-1.429500 1.395100
-1.401500 1.343700
-1.373500 1.295200
-1.345500 1.241800
-1.317500 1.151700
-1.289400 1.047900
-1.261400 0.964700
-1.233400 0.902000
-1.205400 0.857000
-1.177400 0.819900
-1.149400 0.788500
-1.121400 0.835400
-1.093400 0.877900
-1.065400 0.923900
-1.037400 0.981600
-1.009400 1.053500
-0.981300 1.146200
-0.953300 1.254500
-0.925300 1.378400
-0.897300 1.518200
-0.869300 1.804000
-0.841300 1.801100
-0.813300 1.933700
-0.785300 2.002100
-0.757300 2.094800
-0.729300 2.152400
-0.701300 3.073400
-0.673200 2.052800
-0.645200 1.998900
-0.617200 2.141700
-0.589200 2.214300
-0.561200 2.132500
-0.533200 1.894500
-0.505200 1.675600
-0.477200 1.635500
-0.449200 1.600100
-0.421200 1.567700
-0.393200 1.544800
-0.365100 1.521400
-0.337100 1.490100
-0.309100 1.453700
-0.281100 1.413700
-0.253100 1.369300
-0.225100 1.329200
-0.197100 1.296800
-0.169100 1.266200
-0.141100 1.240500
-0.113100 1.232100
-0.085100 1.215000
-0.057000 1.199400
-0.029000 1.202900
-0.001000 1.173700
0.027000 1.137800
0.055000 1.095600
0.083000 1.038300
0.111000 0.987300
0.139000 0.879600
0.167000 0.836800
0.195000 0.795300
0.223000 0.755000
0.251000 0.716000
0.279100 0.678200
0.307100 0.663200
0.335100 0.619500
0.363100 1.771700
0.391100 0.895200
0.419100 0.919300
0.447100 0.935900
0.475100 0.944800
0.503100 0.945600
0.531100 0.959700
0.559100 0.982400
0.587200 1.007800
0.615200 1.157200
0.643200 1.288600
0.671200 1.297000
0.699200 1.331400
0.727200 1.316900
0.755200 1.385500
0.783200 1.392300
0.811200 1.347600
0.839200 1.359900
0.867200 1.501800
0.895300 1.729600
0.923300 2.012900
0.951300 2.353500
0.979300 2.475600
1.007300 2.340500
1.035300 2.237600
1.063300 2.182200
1.091300 2.168600
1.119300 2.152400
1.147300 2.152500
1.175300 2.150300
1.203400 2.139600
1.231400 2.159600
1.259400 2.307700
1.287400 2.217300
1.315400 2.134900
1.343400 2.119400
1.371400 2.105700
1.399400 2.049400
1.427400 1.880900
1.455400 1.624200
1.483400 1.463100
1.511500 1.406900
1.539500 1.372400
1.567500 1.338700
1.595500 1.308300
1.623500 1.342600
1.651500 1.345900
1.679500 1.292800
1.707500 1.090900
1.735500 1.061000
1.763500 1.062600
1.791500 1.060300
1.819600 1.054000
1.847600 1.043900
1.875600 1.029700
1.903600 0.973500
1.931600 0.971400
1.959600 0.971000
1.987600 0.972300
2.015600 0.975600
2.043600 1.024200
2.071600 1.060600
2.099600 1.096300
2.127700 1.128200
2.155700 1.163700
2.183700 1.203100
2.211700 1.242600
2.239700 1.284700
2.267700 1.321100
2.295700 1.314100
2.323700 1.308200
2.351700 1.288500
2.379700 1.317600
2.407700 1.353000
2.435800 1.409200
2.463800 1.562000
2.491800 1.643800
2.519800 1.640800
2.547800 1.562000
2.575800 1.438500
2.603800 1.297400
2.631800 1.215800
2.659800 1.148300
2.687800 1.120500
2.715800 1.073900
2.743900 1.059000
2.771900 1.033200
2.799900 1.010700
2.827900 0.996600
2.855900 0.991800
2.883900 1.009600
2.911900 1.038500
2.939900 1.016600
2.967900 0.945800
2.995900 0.929900
3.023900 0.947600
3.052000 0.970300
3.080000 0.997900
3.108000 1.112300
3.136000 1.231500
3.164000 1.311600
3.192000 1.390800
3.220000 1.489900
3.248000 1.589800
3.276000 1.672200
3.304000 1.832800
3.332000 2.028500
3.360100 2.025600
3.388100 2.107000
3.416100 2.022800
3.444100 1.971600
3.472100 1.911900
3.500100 1.850400
3.528100 1.798100
3.556100 1.802000
3.584100 1.801600
3.612100 1.785700
3.640100 1.773300
3.668200 1.768400
3.696200 1.768300
3.724200 1.785800
3.752200 1.841200
3.780200 1.912000
3.808200 1.983200
3.836200 2.083900
3.864200 2.295100
3.892200 2.791400
3.920200 3.067600
3.948200 3.397200
3.976200 3.472300
4.004300 4.996100
4.032300 4.544100
4.060300 4.296900
4.088300 3.752000
4.116300 3.938300
4.144300 3.711600
4.172300 3.721600
4.200300 3.837800
4.228300 3.559600
4.256300 3.543200
4.284300 3.499900
4.312400 3.449700
4.340400 3.286000
4.368400 3.198700
4.396400 3.121700
4.424400 3.092100
4.452400 3.092000
4.480400 3.155500
4.508400 3.344400
4.536400 3.582000
4.564400 3.612500
4.592400 3.215800
4.620500 3.038900
4.648500 3.002000
4.676500 2.944900
4.704500 2.870800
4.732500 2.806400
4.760500 2.718600
4.788500 2.645900
4.816500 2.592500
4.844500 2.554200
4.872500 2.525300
4.900500 2.523000
4.928600 2.460200
4.956600 2.401200
4.984600 2.351700
5.012600 2.302100
5.040600 2.273000
5.068600 2.236500
5.096600 2.177600
5.124600 2.153400
5.152600 2.281200
5.180600 2.486200
5.208600 2.773000
5.236700 2.555400
5.264700 2.214900
5.292700 1.995900
5.320700 1.940800
5.348700 1.882000
5.376700 1.821100
5.404700 1.756900
5.432700 1.683200
5.460700 1.620100
5.488700 1.629500
5.516700 1.784900
5.544800 1.782500
5.572800 1.516400
5.600800 1.233300
5.628800 0.920100
5.656800 0.797900
5.684800 0.794800
5.712800 0.905300
5.740800 0.988100
5.768800 1.016200
5.796800 0.999000
5.824800 1.028800
5.852900 1.109500
5.880900 1.201200
5.908900 1.360600
5.936900 1.563000
5.964900 1.758700
5.992900 1.905600
6.020900 1.969600
6.048900 2.149500
6.076900 2.179900
6.104900 2.160000
6.132900 2.159900
6.161000 2.101400
6.189000 2.112000
6.217000 2.157500
6.245000 2.206500
6.273000 2.255200
6.301000 2.594400
6.329000 3.122400
6.357000 3.717500
6.385000 4.053500
6.413000 3.719000
6.441000 3.521300
6.469100 3.503300
6.497100 3.491300
6.525100 3.415600
6.553100 3.259200
6.581100 3.022400
6.609100 2.877300
6.637100 3.150200
6.665100 3.615600
6.693100 3.614500
6.721100 3.646800
6.749100 3.777000
6.777200 3.440600
6.805200 3.115700
6.833200 3.023000
6.861200 2.912900
6.889200 2.777600
6.917200 2.786200
6.945200 2.646100
6.973200 2.632900
7.001200 2.652900
7.029200 3.037100
7.057200 2.919500
7.085300 2.991800
7.113300 3.135900
7.141300 3.307000
7.169300 3.561700
7.197300 3.666000
7.225300 3.691400
7.253300 3.740300
7.281300 3.914000
7.309300 3.867900
7.337300 3.875200
7.365300 4.045300
7.393400 3.726800
7.421400 3.780600
7.449400 3.692500
7.477400 3.679100
7.505400 3.701600
7.533400 3.524300
7.561400 3.385600
7.589400 3.209700
7.617400 3.078200
7.645400 3.043000
7.673400 3.019100
7.701400 3.052400
7.729500 3.076600
7.757500 3.017100
7.785500 2.831700
7.813500 2.940400
7.841500 3.032100
7.869500 3.133200
7.897500 3.352000
7.925500 3.378700
7.953500 3.531600
7.981500 3.733000
8.009500 3.929700
8.037600 4.127900
8.065600 4.240800
8.093600 4.298700
8.121600 4.435400
8.149600 4.491800
8.177600 4.704400
8.205600 3.896400
8.233600 3.819800
8.261600 4.110200
8.289600 3.447600
8.317600 3.398100
8.345700 3.439400
8.373700 3.505400
8.401700 3.680700
8.429700 4.598900
8.457700 4.954400
8.485700 5.281400
8.513700 5.426100
8.541700 5.274800
8.569700 5.315600
8.597700 5.454100
8.625700 5.612500
8.653800 5.357000
8.681800 5.012100
8.709800 4.588400
8.737800 4.705600
8.765800 4.798400
8.793800 4.538200
8.821800 4.494100
8.849800 4.738400
8.877800 5.039400
8.905800 5.181200
8.933800 5.087300
8.961900 5.101100
8.989900 5.299900
9.017900 5.313800
9.045900 5.403500
9.073900 5.292200
9.101900 5.206900
9.129900 5.091400
9.157900 4.790900
9.185900 5.000000
9.213900 5.104100
9.241900 5.391400
9.270000 5.413100
9.298000 5.586600
9.326000 5.945000
9.354000 5.776800
9.382000 5.879100
9.410000 5.812500
9.438000 5.885200
9.466000 6.385300
9.494000 6.134100
9.522000 4.684700
9.550000 4.254600
9.578100 3.896800
9.606100 3.768500
9.634100 3.620600
9.662100 3.309300
9.690100 3.235000
9.718100 3.321000
9.746100 3.539500
9.774100 3.479700
9.802100 3.289800
9.830100 3.292800
9.858100 3.509200
9.886200 3.910600
9.914200 4.674000
9.942200 5.206800
9.970200 4.996500
9.998200 5.072600
10.026200 5.149200
10.054200 5.070000
10.082200 5.045200
10.110200 4.981400
10.138200 4.842800
10.166200 4.775300
10.194300 4.789600
10.222300 4.660900
10.250300 4.462000
10.278300 4.330900
10.306300 4.230400
10.334300 4.172500
10.362300 3.993700
10.390300 3.611600
10.418300 3.326100
10.446300 3.074000
10.474300 2.922100
10.502400 2.756000
10.530400 2.670700
10.558400 2.646100
10.586400 2.735800
10.614400 2.797400
10.642400 2.886900
10.670400 2.988900
10.698400 3.097800
10.726400 3.531200
10.754400 3.601500
10.782400 3.693200
10.810500 4.219300
10.838500 4.383500
10.866500 4.348000
10.894500 4.261900
10.922500 4.201100
10.950500 4.484700
10.978500 4.613900
11.006500 4.516500
11.034500 4.483900
11.062500 4.378200
11.090500 4.268300
11.118500 4.137100
11.146600 3.987800
11.174600 3.845500
11.202600 3.710400
11.230600 3.577400
11.258600 3.413100
11.286600 3.382100
11.314600 3.245800
11.342600 3.259600
11.370600 3.267700
11.398600 3.337200
11.426600 3.403000
11.454700 3.492400
11.482700 3.642700
11.510700 3.964200
11.538700 4.021600
11.566700 4.086400
11.594700 4.096000
11.622700 4.021700
11.650700 3.885700
11.678700 3.626800
11.706700 3.438200
11.734700 3.355700
11.762800 3.313000
11.790800 3.339200
11.818800 3.404400
11.846800 3.461200
11.874800 3.279800
11.902800 3.219300
11.930800 3.030900
11.958800 2.961900
11.986800 2.997700
12.014800 3.133300
12.042800 3.175100
12.070900 3.285200
12.098900 3.368500
12.126900 3.454600
12.154900 3.525700
12.182900 3.649700
12.210900 3.230900
12.238900 3.242000
12.266900 3.143600
12.294900 3.212000
12.322900 3.370400
12.350900 3.528600
12.379000 3.910700
12.407000 4.551000
12.435000 5.104600
12.463000 5.250300
12.491000 5.513600
12.519000 4.969700
12.547000 5.631900
12.575000 5.035600
12.603000 4.991500
12.631000 4.417800
12.659000 3.832000
12.687100 3.353000
12.715100 3.098500
12.743100 3.117900
12.771100 3.178000
12.799100 3.362800
12.827100 3.596700
12.855100 3.810900
12.883100 4.193900
12.911100 4.016300
12.939100 4.313000
12.967100 4.360500
12.995200 4.257500
13.023200 4.018900
13.051200 3.734300
13.079200 3.333000
13.107200 2.885200
13.135200 2.698700
13.163200 2.932800
13.191200 3.382800
13.219200 4.052000
13.247200 4.620800
13.275200 4.770600
13.303300 4.780600
13.331300 4.581200
13.359300 4.174300
13.387300 4.211100
13.415300 5.006600
13.443300 5.611000
13.471300 5.665900
13.499300 4.913800
13.527300 4.842300
13.555300 4.754900
13.583300 4.782900
13.611400 4.676800
13.639400 4.303500
13.667400 4.111900
13.695400 3.922900
13.723400 3.754400
13.751400 3.756300
13.779400 4.012900
13.807400 4.428400
13.835400 4.890200
13.863400 4.691000
13.891400 4.071100
13.919500 3.245600
13.947500 2.925300
13.975500 2.913400
14.003500 2.973800
14.031500 3.373900
14.059500 4.265400
14.087500 4.680900
14.115500 4.357400
14.143500 4.162200
14.171500 4.085500
14.199500 4.054300
14.227600 3.946400
14.255600 3.912500
14.283600 3.750200
14.311600 3.508100
14.339600 3.376500
14.367600 3.297900
14.395600 3.114000
14.423600 2.963500
14.451600 2.828600
14.479600 2.595700
14.507600 2.581200
14.535700 2.720000
14.563700 2.802300
14.591700 3.341900
14.619700 3.691700
14.647700 3.909600
14.675700 5.008100
14.703700 5.126700
14.731700 5.158900
14.759700 5.270000
14.787700 5.380000
14.815700 4.916700
14.843700 4.489000
14.871800 4.103300
14.899800 3.377700
14.927800 3.024300
14.955800 2.667500
14.983800 2.632000
15.011800 2.705200
15.039800 2.872300
15.067800 3.075100
15.095800 2.963700
15.123800 2.862300
15.151800 2.772100
15.179900 2.386600
15.207900 2.395900
15.235900 1.938900
15.263900 1.805200
15.291900 1.749000
15.319900 1.757200
15.347900 1.832800
15.375900 2.109600
15.403900 2.533300
15.431900 3.231300
15.459900 4.019000
15.488000 4.136800
15.516000 4.256000
15.544000 4.202700
15.572000 4.059000
15.600000 4.084900
15.628000 4.102700
15.656000 4.135600
15.684000 4.042000
15.712000 3.982100
15.740000 3.961100
15.768000 3.908800
15.796100 3.912200
15.824100 3.914300
15.852100 3.934900
15.880100 3.985700
15.908100 4.493600
15.936100 4.799200
15.964100 5.000100
15.992100 5.015800
16.020100 4.761500
16.048100 4.763200
16.076100 5.198200
16.104200 5.389100
16.132200 4.880100
16.160200 5.173800
16.188200 4.965200
16.216200 4.711700
16.244200 4.526100
16.272200 4.536000
16.300200 4.513600
16.328200 4.436400
16.356200 4.448500
16.384200 4.725100
16.412300 5.043700
16.440300 5.240500
16.468300 5.025700
16.496300 4.817800
16.524300 5.128700
16.552300 5.301800
16.580300 5.321400
16.608300 5.404900
16.636300 5.439500
16.664300 5.591900
16.692300 5.247700
16.720400 5.128100
16.748400 5.179500
16.776400 5.056000
16.804400 4.838100
16.832400 4.468300
16.860400 4.314800
16.888400 5.503100
16.916400 4.933500
16.944400 4.853000
16.972400 4.795800
17.000400 4.895900
17.028500 5.174500
17.056500 5.039000
17.084500 4.713000
17.112500 4.480300
17.140500 4.271300
17.168500 4.057300
17.196500 3.897200
17.224500 3.791500
17.252500 3.883800
17.280500 3.848700
17.308500 3.933000
17.336600 4.012700
17.364600 4.058400
17.392600 4.119700
17.420600 4.295100
17.448600 4.555600
17.476600 4.732000
17.504600 4.779400
17.532600 4.362300
17.560600 3.747800
17.588600 3.278400
17.616600 2.890600
17.644700 2.705500
17.672700 3.232100
17.700700 3.158500
17.728700 3.196500
17.756700 3.338100
17.784700 3.633700
17.812700 3.926800
17.840700 4.308200
17.868700 4.686800
17.896700 4.901300
17.924700 4.878100
17.952800 4.908400
17.980800 4.994900
18.008800 5.039900
18.036800 5.460600
18.064800 4.635500
18.092800 4.324700
18.120800 3.765600
18.148800 3.551200
18.176800 3.405100
18.204800 3.316200
18.232800 3.263000
18.260900 3.380700
18.288900 3.918800
18.316900 4.515400
18.344900 5.413700
18.372900 5.501800
18.400900 4.712300
18.428900 4.406200
18.456900 3.924500
18.484900 3.571600
18.512900 3.319300
18.540900 3.302800
18.568900 3.384900
18.597000 3.355800
18.625000 3.502300
18.653000 3.857400
18.681000 4.383400
18.709000 4.974900
18.737000 7.341200
18.765000 6.008000
18.793000 5.678900
18.821000 5.469200
18.849000 5.272800
18.877000 5.027400
18.905100 4.826300
18.933100 4.621400
18.961100 4.651100
18.989100 5.267100
19.017100 6.375700
19.045100 6.524300
19.073100 6.334100
19.101100 6.238800
19.129100 5.745600
19.157100 5.286200
19.185100 5.156700
19.213200 5.220700
19.241200 5.108100
19.269200 4.968400
19.297200 4.757400
19.325200 4.553900
19.353200 4.436000
19.381200 4.333800
19.409200 4.265100
19.437200 4.170500
19.465200 4.088400
19.493200 4.129400
19.521300 4.118600
19.549300 4.089200
19.577300 4.378900
19.605300 4.738600
19.633300 5.049100
19.661300 5.469400
19.689300 5.677200
19.717300 5.194600
19.745300 4.847700
19.773300 4.645400
19.801300 4.863700
19.829400 4.967800
19.857400 5.302100
19.885400 5.327300
19.913400 5.223600
19.941400 5.097900
19.969400 5.090200
19.997400 5.055600
20.025400 4.785000
20.053400 5.042500
20.081400 5.368800
20.109400 5.645900
20.137500 6.335800
20.165500 6.173400
20.193500 5.986200
20.221500 6.562500
20.249500 6.438100
20.277500 5.941100
20.305500 5.413200
20.333500 5.356200
20.361500 5.155300
20.389500 5.350100
20.417500 4.900800
20.445600 4.750400
20.473600 4.885400
20.501600 6.713600
20.529600 6.001100
20.557600 5.765200
20.585600 5.634300
20.613600 5.752300
20.641600 5.849000
20.669600 5.871800
20.697600 5.472900
20.725600 4.797400
20.753700 4.557000
20.781700 4.724400
20.809700 4.874300
20.837700 5.152300
20.865700 5.149400
20.893700 5.113900
20.921700 5.281000
20.949700 5.315300
20.977700 5.427600
21.005700 5.653600
21.033700 5.932200
21.061800 6.003000
21.089800 6.120900
21.117800 6.686900
21.145800 6.982800
21.173800 6.680600
21.201800 6.309400
21.229800 6.472300
21.257800 6.213200
21.285800 7.316700
21.313800 6.082600
21.341800 5.543700
21.369900 5.362000
21.397900 5.311600
21.425900 5.195400
21.453900 5.194700
21.481900 5.262100
21.509900 5.390100
21.537900 5.652400
21.565900 5.640200
21.593900 5.585500
21.621900 5.718100
21.649900 5.894200
21.678000 5.988700
21.706000 5.982500
21.734000 5.900800
21.762000 5.573700
21.790000 5.438900
21.818000 5.270500
21.846000 5.017400
21.874000 5.096300
21.902000 4.844600
21.930000 4.577000
21.958000 4.615200
21.986100 4.626300
22.014100 4.842500
22.042100 5.388500
22.070100 5.924000
22.098100 5.842100
22.126100 5.751100
22.154100 5.900900
22.182100 5.836500
22.210100 5.758600
22.238100 5.719400
22.266100 5.751200
22.294100 5.703200
22.322200 5.665900
22.350200 5.566600
22.378200 5.681800
22.406200 5.880600
22.434200 5.897900
22.462200 5.905100
22.490200 5.903700
22.518200 5.666200
22.546200 5.413200
22.574200 5.297400
22.602200 5.307600
22.630300 5.439000
22.658300 5.689400
22.686300 6.132800
22.714300 6.336300
22.742300 5.810200
22.770300 5.505200
22.798300 5.422900
22.826300 5.385300
22.854300 5.604400
22.882300 5.400800
22.910300 5.418300
22.938400 5.457100
22.966400 5.387000
22.994400 5.097300
23.022400 5.019800
23.050400 4.887300
23.078400 4.705000
23.106400 4.533900
23.134400 4.845800
23.162400 5.008000
23.190400 5.189500
23.218400 5.418800
23.246500 5.540600
23.274500 5.348900
23.302500 5.311000
23.330500 5.495300
23.358500 5.905700
23.386500 5.831500
23.414500 5.970000
23.442500 6.029300
23.470500 5.947300
23.498500 5.315400
23.526500 5.151000
23.554600 5.094500
23.582600 5.151100
23.610600 5.201900
23.638600 5.184500
23.666600 5.133000
23.694600 5.004800
23.722600 4.770000
23.750600 4.664100
23.778600 4.604800
23.806600 4.590700
23.834600 4.782700
23.862700 5.303500
23.890700 5.650500
23.918700 6.306600
23.946700 7.353200
23.974700 7.751200
24.002700 7.602200
24.030700 7.102500
24.058700 6.207100
24.086700 5.594100
24.114700 5.170300
24.142700 5.794300
24.170800 5.318000
24.198800 6.070800
24.226800 6.470200
24.254800 6.940700
24.282800 7.534300
24.310800 6.846400
24.338800 6.386000
24.366800 6.295500
24.394800 5.943500
24.422800 5.850000
24.450800 5.918300
24.478900 6.617400
24.506900 6.330600
24.534900 6.330600
24.562900 6.356800
24.590900 6.520400
24.618900 6.512800
24.646900 6.458000
24.674900 6.243600
24.702900 6.094200
24.730900 6.266800
24.758900 5.711400
24.787000 5.825400
24.815000 5.701100
24.843000 5.572400
24.871000 5.461500
24.899000 5.447400
24.927000 5.498200
24.955000 5.707600
24.983000 5.796100
25.011000 5.697300
25.039000 5.414800
25.067000 5.562300
25.095100 6.581300
25.123100 6.845600
25.151100 6.918600
25.179100 7.276800
25.207100 7.810800
25.235100 7.926600
25.263100 7.758700
25.291100 7.467600
25.319100 7.338600
25.347100 6.893400
25.375100 6.457500
25.403200 5.991500
25.431200 5.668300
25.459200 5.785600
25.487200 5.688500
25.515200 5.391900
25.543200 5.206600
25.571200 5.589600
25.599200 5.623800
25.627200 5.758400
25.655200 6.312900
25.683200 6.528800
25.711200 6.930100
25.739300 7.131200
25.767300 7.110900
25.795300 7.005000
25.823300 6.776100
25.851300 6.279900
25.879300 6.100200
25.907300 5.989400
25.935300 6.115300
25.963300 6.363600
25.991300 6.522400
26.019300 6.631100
26.047400 5.734100
26.075400 5.922200
26.103400 6.316500
26.131400 5.562800
26.159400 5.003000
26.187400 4.748200
26.215400 4.745200
26.243400 4.868500
26.271400 5.035500
26.299400 5.382000
26.327400 5.667200
26.355500 6.418200
26.383500 6.098000
26.411500 5.528100
26.439500 5.045200
26.467500 4.797900
26.495500 4.639100
26.523500 4.556200
26.551500 4.510000
26.579500 4.650400
26.607500 4.706500
26.635500 4.979200
26.663600 5.226200
26.691600 4.897600
26.719600 4.684500
26.747600 4.475700
26.775600 4.366800
26.803600 4.372200
26.831600 4.541100
26.859600 4.597700
26.887600 4.543700
26.915600 4.515000
26.943600 4.383600
26.971700 4.262200
26.999700 4.049000
27.027700 3.584600
27.055700 3.187600
27.083700 2.932200
27.111700 2.727200
27.139700 2.471000
27.167700 2.212400
27.195700 2.077100
27.223700 1.731800
27.251700 1.310200
27.279800 1.099800
27.307800 0.962100
27.335800 0.907200
27.363800 0.859600
27.391800 0.813700
27.419800 0.769100
27.447800 0.705500
27.475800 0.596800
27.503800 0.492800
27.531800 0.471600
27.559800 0.309300
27.587900 0.042200
27.615900 0.030800
27.643900 0.028400
27.671900 0.025900
27.699900 0.023600
27.727900 0.021200
27.755900 0.018900
27.783900 0.016600
27.811900 0.014400
27.839900 0.012200
27.867900 0.010000
27.896000 0.007900
27.924000 0.006000
27.952000 0.004600
27.980000 0.003400
28.008000 0.002400
28.036000 0.001500
28.064000 0.000900
28.092000 0.000400
28.120000 0.000100
28.148000 0.000000
28.176000 0.000000
28.204100 0.000000
28.232100 0.000000
28.260100 0.000000
28.288100 0.000000
28.316100 0.000000
28.344100 0.000000
28.372100 0.000000
28.400100 0.000000
28.428100 0.000000
28.456100 0.000000
28.484100 0.000000
28.512200 0.000000
28.540200 0.000000
28.568200 0.000000
28.596200 0.000000
28.624200 0.000000
28.652200 0.000000
28.680200 0.000000
28.708200 0.000000
28.736200 0.000000
28.764200 0.000000
28.792200 0.000000
28.820300 0.000000
28.848300 0.000000
28.876300 0.000000
28.904300 0.000000
28.932300 0.000000
28.960300 0.000000
28.988300 0.000000
29.016300 0.000000
29.044300 0.000000
29.072300 0.000000
29.100300 0.000000
29.128400 0.000000
29.156400 0.000000
29.184400 0.000000
29.212400 0.000000
29.240400 0.000000
29.268400 0.000000
29.296400 0.000000
29.324400 0.000000
29.352400 0.000000
29.380400 0.000000
29.408400 0.000000
29.436400 0.000000
29.464500 0.000000
29.492500 0.000000
29.520500 0.000000
29.548500 0.000000
29.576500 0.000000
29.604500 0.000000
29.632500 0.000000
29.660500 0.000000
29.688500 0.000000
29.716500 0.000000
29.744500 0.000000
29.772600 0.000000
29.800600 0.000000
29.828600 0.000000
29.856600 0.000000
29.884600 0.000000
29.912600 0.000000
29.940600 0.000000
29.968600 0.000000
29.996600 0.000000
30.024600 0.000000
30.052600 0.000000
30.080700 0.000000
30.108700 0.000000
30.136700 0.000000
30.164700 0.000000
30.192700 0.000000
30.220700 0.000000
30.248700 0.000000
30.276700 0.000000
30.304700 0.000000
30.332700 0.000000
30.360700 0.000000
30.388800 0.000000
30.416800 0.000000
30.444800 0.000000
30.472800 0.000000
30.500800 0.000000
30.528800 0.000000
30.556800 0.000000
30.584800 0.000000
30.612800 0.000000
30.640800 0.000000
30.668800 0.000000
30.696900 0.000000
e
