set title 'mp-975912 - Density of States'
set xlabel 'Energy (eV)'
set ylabel 'DOS (states/eV)'
set grid
set xrange [-10:10]
set yrange [0:7.466]
set xzeroaxis lt -1
set terminal png size 800,600
set output 'mp-975912_dos_gnuplot.png'
plot '-' using 1:2 with lines title 'DOS'
-32.230200 0.000000
-32.195800 0.000000
-32.161400 0.000000
-32.127000 0.000000
-32.092600 0.000000
-32.058200 0.000000
-32.023800 0.000000
-31.989400 0.000000
-31.955000 0.000000
-31.920600 0.000000
-31.886200 0.000000
-31.851800 0.000000
-31.817400 0.000000
-31.783000 0.000000
-31.748700 0.000000
-31.714300 0.000000
-31.679900 0.000000
-31.645500 0.000000
-31.611100 0.000000
-31.576700 0.000000
-31.542300 0.000000
-31.507900 0.000000
-31.473500 0.000000
-31.439100 0.000000
-31.404700 0.000000
-31.370300 0.000000
-31.335900 0.000000
-31.301500 0.000000
-31.267100 0.000000
-31.232700 0.000000
-31.198300 0.000000
-31.163900 0.000000
-31.129500 0.000000
-31.095100 0.000000
-31.060700 0.000000
-31.026300 0.000000
-30.991900 0.000000
-30.957600 0.000000
-30.923200 0.000000
-30.888800 0.000000
-30.854400 0.000000
-30.820000 0.000000
-30.785600 0.000000
-30.751200 0.000000
-30.716800 0.000000
-30.682400 0.000000
-30.648000 0.000000
-30.613600 0.000000
-30.579200 0.000000
-30.544800 0.000000
-30.510400 0.000000
-30.476000 0.000000
-30.441600 0.000000
-30.407200 0.000000
-30.372800 0.000000
-30.338400 0.000000
-30.304000 0.000000
-30.269600 0.000000
-30.235200 0.000000
-30.200800 0.000000
-30.166500 0.000000
-30.132100 0.000000
-30.097700 0.000000
-30.063300 0.000000
-30.028900 0.000000
-29.994500 0.000000
-29.960100 0.000000
-29.925700 0.000000
-29.891300 0.000000
-29.856900 0.000000
-29.822500 0.000000
-29.788100 0.000000
-29.753700 0.000000
-29.719300 0.000000
-29.684900 0.000000
-29.650500 0.000000
-29.616100 0.000000
-29.581700 0.000000
-29.547300 0.000000
-29.512900 0.000000
-29.478500 0.000000
-29.444100 0.000000
-29.409700 0.000000
-29.375400 0.000000
-29.341000 0.000000
-29.306600 0.000000
-29.272200 0.000000
-29.237800 0.000000
-29.203400 0.000000
-29.169000 0.000000
-29.134600 0.000000
-29.100200 0.522700
-29.065800 1.760200
-29.031400 1.872400
-28.997000 2.309400
-28.962600 3.692000
-28.928200 4.450900
-28.893800 4.327800
-28.859400 4.587100
-28.825000 5.228700
-28.790600 5.491700
-28.756200 7.944500
-28.721800 6.947200
-28.687400 5.708600
-28.653000 5.027500
-28.618600 4.619600
-28.584300 4.426400
-28.549900 4.313200
-28.515500 4.597200
-28.481100 5.049800
-28.446700 5.809000
-28.412300 7.001900
-28.377900 11.625800
-28.343500 16.195200
-28.309100 23.183700
-28.274700 12.907200
-28.240300 19.105000
-28.205900 8.105200
-28.171500 15.944500
-28.137100 12.770700
-28.102700 13.943300
-28.068300 16.001600
-28.033900 10.591900
-27.999500 7.752100
-27.965100 8.928300
-27.930700 7.829700
-27.896300 7.084100
-27.861900 4.051700
-27.827500 4.212200
-27.793200 7.869700
-27.758800 8.831000
-27.724400 7.413700
-27.690000 11.880600
-27.655600 14.558500
-27.621200 13.203000
-27.586800 19.673900
-27.552400 25.943400
-27.518000 12.182100
-27.483600 9.671700
-27.449200 6.983100
-27.414800 4.896800
-27.380400 4.379500
-27.346000 4.070600
-27.311600 3.983200
-27.277200 4.052100
-27.242800 4.165600
-27.208400 4.317600
-27.174000 4.589400
-27.139600 5.317700
-27.105200 6.103800
-27.070800 9.078300
-27.036400 6.692700
-27.002100 5.175300
-26.967700 4.607000
-26.933300 3.736900
-26.898900 2.359600
-26.864500 0.000000
-26.830100 0.000000
-26.795700 0.000000
-26.761300 0.000000
-26.726900 0.000000
-26.692500 0.000000
-26.658100 0.000000
-26.623700 0.000000
-26.589300 0.000000
-26.554900 0.000000
-26.520500 0.000000
-26.486100 0.000000
-26.451700 0.000000
-26.417300 0.000000
-26.382900 0.000000
-26.348500 0.000000
-26.314100 0.000000
-26.279700 0.000000
-26.245300 0.000000
-26.211000 0.000000
-26.176600 0.000000
-26.142200 0.000000
-26.107800 0.000000
-26.073400 0.000000
-26.039000 0.000000
-26.004600 0.000000
-25.970200 0.000000
-25.935800 0.000000
-25.901400 0.000000
-25.867000 0.000000
-25.832600 0.000000
-25.798200 0.000000
-25.763800 0.000000
-25.729400 0.000000
-25.695000 0.000000
-25.660600 0.000000
-25.626200 0.000000
-25.591800 0.000000
-25.557400 0.000000
-25.523000 0.000000
-25.488600 0.000000
-25.454200 0.000000
-25.419900 0.000000
-25.385500 0.000000
-25.351100 0.000000
-25.316700 0.000000
-25.282300 0.000000
-25.247900 0.000000
-25.213500 0.000000
-25.179100 0.000000
-25.144700 0.000000
-25.110300 0.000000
-25.075900 0.000000
-25.041500 0.000000
-25.007100 0.000000
-24.972700 0.000000
-24.938300 0.000000
-24.903900 0.000000
-24.869500 0.000000
-24.835100 0.000000
-24.800700 0.000000
-24.766300 0.000000
-24.731900 0.000000
-24.697500 0.000000
-24.663100 0.000000
-24.628800 0.000000
-24.594400 0.000000
-24.560000 0.000000
-24.525600 0.000000
-24.491200 0.000000
-24.456800 0.000000
-24.422400 0.000000
-24.388000 0.000000
-24.353600 0.000000
-24.319200 0.000000
-24.284800 0.000000
-24.250400 0.000000
-24.216000 0.000000
-24.181600 0.000000
-24.147200 0.000000
-24.112800 0.000000
-24.078400 0.000000
-24.044000 0.000000
-24.009600 0.000000
-23.975200 0.000000
-23.940800 0.000000
-23.906400 0.000000
-23.872000 0.000000
-23.837700 0.000000
-23.803300 0.000000
-23.768900 0.000000
-23.734500 0.000000
-23.700100 0.000000
-23.665700 0.000000
-23.631300 0.000000
-23.596900 0.000000
-23.562500 0.000000
-23.528100 0.000000
-23.493700 0.000000
-23.459300 0.000000
-23.424900 0.000000
-23.390500 0.000000
-23.356100 0.000000
-23.321700 0.000000
-23.287300 0.000000
-23.252900 0.000000
-23.218500 0.000000
-23.184100 0.000000
-23.149700 0.000000
-23.115300 0.000000
-23.080900 0.000000
-23.046600 0.000000
-23.012200 0.000000
-22.977800 0.000000
-22.943400 0.000000
-22.909000 0.000000
-22.874600 0.000000
-22.840200 0.000000
-22.805800 0.000000
-22.771400 0.000000
-22.737000 0.000000
-22.702600 0.000000
-22.668200 0.000000
-22.633800 0.000000
-22.599400 0.000000
-22.565000 0.000000
-22.530600 0.000000
-22.496200 0.000000
-22.461800 0.000000
-22.427400 0.000000
-22.393000 0.000000
-22.358600 0.000000
-22.324200 0.000000
-22.289800 0.000000
-22.255500 0.000000
-22.221100 0.000000
-22.186700 0.000000
-22.152300 0.000000
-22.117900 0.000000
-22.083500 0.000000
-22.049100 0.000000
-22.014700 0.000000
-21.980300 0.000000
-21.945900 0.000000
-21.911500 0.000000
-21.877100 0.000000
-21.842700 0.000000
-21.808300 0.000000
-21.773900 0.000000
-21.739500 0.000000
-21.705100 0.000000
-21.670700 0.000000
-21.636300 0.000000
-21.601900 0.000000
-21.567500 0.000000
-21.533100 0.000000
-21.498700 0.000000
-21.464400 0.000000
-21.430000 0.000000
-21.395600 0.000000
-21.361200 0.000000
-21.326800 0.000000
-21.292400 0.000000
-21.258000 0.000000
-21.223600 0.000000
-21.189200 0.000000
-21.154800 0.000000
-21.120400 0.000000
-21.086000 0.000000
-21.051600 0.000000
-21.017200 0.000000
-20.982800 0.000000
-20.948400 0.000000
-20.914000 0.000000
-20.879600 0.000000
-20.845200 0.000000
-20.810800 0.000000
-20.776400 0.000000
-20.742000 0.000000
-20.707600 0.000000
-20.673300 0.000000
-20.638900 0.000000
-20.604500 0.000000
-20.570100 0.000000
-20.535700 0.000000
-20.501300 0.000000
-20.466900 0.000000
-20.432500 0.000000
-20.398100 0.000000
-20.363700 0.000000
-20.329300 0.000000
-20.294900 0.000000
-20.260500 0.000000
-20.226100 0.000000
-20.191700 0.000000
-20.157300 0.000000
-20.122900 0.000000
-20.088500 0.000000
-20.054100 0.000000
-20.019700 0.000000
-19.985300 0.000000
-19.950900 0.000000
-19.916500 0.000000
-19.882200 0.000000
-19.847800 0.000000
-19.813400 0.000000
-19.779000 0.000000
-19.744600 0.000000
-19.710200 0.000000
-19.675800 0.000000
-19.641400 0.000000
-19.607000 0.000000
-19.572600 0.000000
-19.538200 0.000000
-19.503800 0.000000
-19.469400 0.000000
-19.435000 0.000000
-19.400600 0.000000
-19.366200 0.000000
-19.331800 0.000000
-19.297400 0.000000
-19.263000 0.000000
-19.228600 0.000000
-19.194200 0.000000
-19.159800 0.000000
-19.125400 0.000000
-19.091100 0.000000
-19.056700 0.000000
-19.022300 0.000000
-18.987900 0.000000
-18.953500 0.000000
-18.919100 0.000000
-18.884700 0.000000
-18.850300 0.000000
-18.815900 0.000000
-18.781500 0.000000
-18.747100 0.000000
-18.712700 0.000000
-18.678300 0.000000
-18.643900 0.000000
-18.609500 0.000000
-18.575100 0.000000
-18.540700 0.000000
-18.506300 0.000000
-18.471900 0.000000
-18.437500 0.000000
-18.403100 0.000000
-18.368700 0.000000
-18.334300 0.000000
-18.300000 0.000000
-18.265600 0.000000
-18.231200 0.000000
-18.196800 0.000000
-18.162400 0.000000
-18.128000 0.000000
-18.093600 0.000000
-18.059200 0.000000
-18.024800 0.000000
-17.990400 0.000000
-17.956000 0.000000
-17.921600 0.000000
-17.887200 0.000000
-17.852800 0.000000
-17.818400 0.000000
-17.784000 0.000000
-17.749600 0.000000
-17.715200 0.000000
-17.680800 0.000000
-17.646400 0.000000
-17.612000 0.000000
-17.577600 0.000000
-17.543200 0.000000
-17.508900 0.000000
-17.474500 0.000000
-17.440100 0.000000
-17.405700 0.000000
-17.371300 0.000000
-17.336900 0.000000
-17.302500 0.000000
-17.268100 0.000000
-17.233700 0.000000
-17.199300 0.000000
-17.164900 0.000000
-17.130500 0.000000
-17.096100 0.000000
-17.061700 0.000000
-17.027300 0.000000
-16.992900 0.000000
-16.958500 0.000000
-16.924100 0.000000
-16.889700 0.000000
-16.855300 0.000000
-16.820900 0.000000
-16.786500 0.000000
-16.752100 0.000000
-16.717800 0.000000
-16.683400 0.000000
-16.649000 0.000000
-16.614600 0.000000
-16.580200 0.000000
-16.545800 0.000000
-16.511400 0.000000
-16.477000 0.000000
-16.442600 0.000000
-16.408200 0.000000
-16.373800 0.000000
-16.339400 0.000000
-16.305000 0.000000
-16.270600 0.000000
-16.236200 0.000000
-16.201800 0.000000
-16.167400 0.000000
-16.133000 0.000000
-16.098600 0.000000
-16.064200 0.000000
-16.029800 0.000000
-15.995400 0.000000
-15.961000 0.000000
-15.926700 0.000000
-15.892300 0.000000
-15.857900 0.000000
-15.823500 0.000000
-15.789100 0.000000
-15.754700 0.000000
-15.720300 0.000000
-15.685900 0.000000
-15.651500 0.000000
-15.617100 0.000000
-15.582700 0.000000
-15.548300 0.000000
-15.513900 0.000000
-15.479500 0.000000
-15.445100 0.000000
-15.410700 0.000000
-15.376300 0.000000
-15.341900 0.000000
-15.307500 0.000000
-15.273100 0.000000
-15.238700 0.000000
-15.204300 0.000000
-15.169900 0.000000
-15.135600 0.000000
-15.101200 0.000000
-15.066800 0.000000
-15.032400 0.000000
-14.998000 0.000000
-14.963600 0.000000
-14.929200 0.000000
-14.894800 0.000000
-14.860400 0.000000
-14.826000 0.000000
-14.791600 0.000000
-14.757200 0.000000
-14.722800 0.000000
-14.688400 0.000000
-14.654000 0.000000
-14.619600 0.000000
-14.585200 0.000000
-14.550800 0.000000
-14.516400 0.000000
-14.482000 0.000000
-14.447600 0.000000
-14.413200 0.000000
-14.378800 0.000000
-14.344500 0.000000
-14.310100 0.000000
-14.275700 0.000000
-14.241300 0.000000
-14.206900 0.000000
-14.172500 0.000000
-14.138100 0.000000
-14.103700 0.000000
-14.069300 0.000000
-14.034900 0.000000
-14.000500 0.000000
-13.966100 0.000000
-13.931700 0.000000
-13.897300 0.000000
-13.862900 0.000000
-13.828500 0.000000
-13.794100 0.000000
-13.759700 0.000000
-13.725300 0.000000
-13.690900 0.000000
-13.656500 0.000000
-13.622100 0.000000
-13.587700 0.000000
-13.553400 0.000000
-13.519000 0.000000
-13.484600 0.000000
-13.450200 0.000000
-13.415800 0.000000
-13.381400 0.000000
-13.347000 0.000000
-13.312600 0.000000
-13.278200 0.000000
-13.243800 0.000000
-13.209400 0.000000
-13.175000 0.000000
-13.140600 0.000000
-13.106200 0.000000
-13.071800 0.000000
-13.037400 0.000000
-13.003000 0.000000
-12.968600 0.000000
-12.934200 0.000000
-12.899800 0.000000
-12.865400 0.000000
-12.831000 0.000000
-12.796600 0.000000
-12.762300 0.000000
-12.727900 0.000000
-12.693500 0.000000
-12.659100 0.000000
-12.624700 0.000000
-12.590300 0.000000
-12.555900 0.000000
-12.521500 0.000000
-12.487100 0.000000
-12.452700 0.000000
-12.418300 0.000000
-12.383900 0.000000
-12.349500 0.000000
-12.315100 0.000000
-12.280700 0.000000
-12.246300 0.000000
-12.211900 0.000000
-12.177500 0.000000
-12.143100 0.000000
-12.108700 0.000000
-12.074300 0.000000
-12.039900 0.000000
-12.005500 0.000000
-11.971200 0.000000
-11.936800 0.000000
-11.902400 0.000000
-11.868000 0.000000
-11.833600 0.000000
-11.799200 0.000000
-11.764800 0.000000
-11.730400 0.000000
-11.696000 0.000000
-11.661600 0.000000
-11.627200 0.000000
-11.592800 0.000000
-11.558400 0.000000
-11.524000 0.000000
-11.489600 0.000000
-11.455200 0.000000
-11.420800 0.000000
-11.386400 0.000000
-11.352000 0.000000
-11.317600 0.000000
-11.283200 0.000000
-11.248800 0.000000
-11.214400 0.000000
-11.180100 0.000000
-11.145700 0.000000
-11.111300 0.000000
-11.076900 0.000000
-11.042500 0.000000
-11.008100 0.000000
-10.973700 0.000000
-10.939300 0.000000
-10.904900 0.000000
-10.870500 0.000000
-10.836100 0.000000
-10.801700 0.000000
-10.767300 0.000000
-10.732900 0.000000
-10.698500 0.000000
-10.664100 0.000000
-10.629700 0.000000
-10.595300 0.000000
-10.560900 0.000000
-10.526500 0.000000
-10.492100 0.000000
-10.457700 0.000000
-10.423300 0.000000
-10.389000 0.000000
-10.354600 0.000000
-10.320200 0.000000
-10.285800 0.000000
-10.251400 0.000000
-10.217000 0.000000
-10.182600 0.000000
-10.148200 0.000000
-10.113800 0.000000
-10.079400 0.000000
-10.045000 0.000000
-10.010600 0.000000
-9.976200 0.000000
-9.941800 0.000000
-9.907400 0.000000
-9.873000 0.000000
-9.838600 0.000000
-9.804200 0.000000
-9.769800 0.000000
-9.735400 0.000000
-9.701000 0.000000
-9.666600 0.000000
-9.632200 0.000000
-9.597900 0.000000
-9.563500 0.000000
-9.529100 0.000000
-9.494700 0.000000
-9.460300 0.000000
-9.425900 0.000000
-9.391500 0.000000
-9.357100 0.000000
-9.322700 0.000000
-9.288300 0.000000
-9.253900 0.000000
-9.219500 0.000000
-9.185100 0.000000
-9.150700 0.000000
-9.116300 0.000000
-9.081900 0.000000
-9.047500 0.000000
-9.013100 0.000000
-8.978700 0.000000
-8.944300 0.000000
-8.909900 0.000000
-8.875500 0.000000
-8.841100 0.000000
-8.806800 0.000000
-8.772400 0.000000
-8.738000 0.000000
-8.703600 0.000000
-8.669200 0.000000
-8.634800 0.000000
-8.600400 0.000000
-8.566000 0.000000
-8.531600 0.000000
-8.497200 0.000000
-8.462800 0.000000
-8.428400 0.000000
-8.394000 0.000000
-8.359600 0.000000
-8.325200 0.000000
-8.290800 0.000000
-8.256400 0.000000
-8.222000 0.000000
-8.187600 0.000000
-8.153200 0.000000
-8.118800 0.000000
-8.084400 0.000000
-8.050000 0.000000
-8.015700 0.000000
-7.981300 0.000000
-7.946900 0.000000
-7.912500 0.000000
-7.878100 0.000000
-7.843700 0.000000
-7.809300 0.000000
-7.774900 0.000000
-7.740500 0.000000
-7.706100 0.000000
-7.671700 0.000000
-7.637300 0.000000
-7.602900 0.000000
-7.568500 0.000000
-7.534100 0.000000
-7.499700 0.000000
-7.465300 0.000000
-7.430900 0.000000
-7.396500 0.000000
-7.362100 0.000000
-7.327700 0.000000
-7.293300 0.000000
-7.258900 0.000000
-7.224600 0.000000
-7.190200 0.000000
-7.155800 0.000000
-7.121400 0.000000
-7.087000 0.000000
-7.052600 0.000000
-7.018200 0.000000
-6.983800 0.000000
-6.949400 0.000000
-6.915000 0.000000
-6.880600 0.000000
-6.846200 0.000000
-6.811800 0.000000
-6.777400 0.000000
-6.743000 0.000000
-6.708600 0.000000
-6.674200 0.000000
-6.639800 0.000000
-6.605400 0.000000
-6.571000 0.000000
-6.536600 0.000000
-6.502200 0.000000
-6.467800 0.000000
-6.433500 0.000000
-6.399100 0.000000
-6.364700 0.000000
-6.330300 0.000000
-6.295900 0.000000
-6.261500 0.000000
-6.227100 0.000000
-6.192700 0.000000
-6.158300 0.000000
-6.123900 0.000000
-6.089500 0.000000
-6.055100 0.000000
-6.020700 0.000000
-5.986300 0.000000
-5.951900 0.000000
-5.917500 0.000000
-5.883100 0.000000
-5.848700 0.000000
-5.814300 0.000000
-5.779900 0.000000
-5.745500 0.000000
-5.711100 0.000000
-5.676700 0.000000
-5.642400 0.000000
-5.608000 0.000000
-5.573600 0.000000
-5.539200 0.000000
-5.504800 0.000000
-5.470400 0.000000
-5.436000 0.000000
-5.401600 0.000000
-5.367200 0.000000
-5.332800 0.000000
-5.298400 0.000000
-5.264000 0.000000
-5.229600 0.000000
-5.195200 0.000000
-5.160800 0.000000
-5.126400 0.000000
-5.092000 0.000000
-5.057600 0.000000
-5.023200 0.000000
-4.988800 0.000000
-4.954400 0.000000
-4.920000 0.000000
-4.885600 0.000000
-4.851300 0.000000
-4.816900 0.000000
-4.782500 0.000000
-4.748100 0.000000
-4.713700 0.000000
-4.679300 0.000000
-4.644900 0.000000
-4.610500 0.000000
-4.576100 0.000000
-4.541700 0.000000
-4.507300 0.000000
-4.472900 0.000000
-4.438500 0.000000
-4.404100 0.000000
-4.369700 0.000000
-4.335300 0.000000
-4.300900 0.000000
-4.266500 0.000000
-4.232100 0.000000
-4.197700 0.000000
-4.163300 0.000000
-4.128900 0.000000
-4.094500 0.000000
-4.060200 0.000000
-4.025800 0.000000
-3.991400 0.000000
-3.957000 0.000000
-3.922600 0.000000
-3.888200 0.000000
-3.853800 0.000000
-3.819400 0.000000
-3.785000 0.000000
-3.750600 0.000000
-3.716200 0.000000
-3.681800 0.000000
-3.647400 0.000000
-3.613000 0.000000
-3.578600 0.000000
-3.544200 0.000000
-3.509800 0.000000
-3.475400 0.000000
-3.441000 0.000000
-3.406600 0.000000
-3.372200 0.000000
-3.337800 0.000000
-3.303400 0.000000
-3.269100 0.000000
-3.234700 0.000000
-3.200300 0.000000
-3.165900 0.000000
-3.131500 0.000000
-3.097100 0.000000
-3.062700 0.000000
-3.028300 0.000000
-2.993900 0.000000
-2.959500 0.000000
-2.925100 0.000000
-2.890700 0.000000
-2.856300 0.000000
-2.821900 0.000000
-2.787500 0.000000
-2.753100 0.000000
-2.718700 0.000000
-2.684300 0.000000
-2.649900 0.000000
-2.615500 0.000000
-2.581100 0.000000
-2.546700 0.000000
-2.512300 0.000000
-2.478000 0.000000
-2.443600 0.000000
-2.409200 0.000000
-2.374800 0.000000
-2.340400 0.000000
-2.306000 0.000000
-2.271600 0.000000
-2.237200 0.000000
-2.202800 0.000000
-2.168400 0.000000
-2.134000 0.000000
-2.099600 0.000000
-2.065200 0.000000
-2.030800 0.000000
-1.996400 0.000000
-1.962000 0.000000
-1.927600 0.000000
-1.893200 0.000000
-1.858800 0.000000
-1.824400 0.000000
-1.790000 0.000000
-1.755600 0.000000
-1.721200 0.000000
-1.686900 0.000000
-1.652500 0.000000
-1.618100 0.000000
-1.583700 0.000000
-1.549300 0.000000
-1.514900 0.000000
-1.480500 0.000000
-1.446100 0.000000
-1.411700 0.000000
-1.377300 0.000000
-1.342900 0.000000
-1.308500 0.000000
-1.274100 0.000000
-1.239700 0.000000
-1.205300 0.000000
-1.170900 0.000000
-1.136500 0.000000
-1.102100 0.000000
-1.067700 0.000000
-1.033300 0.000000
-0.998900 0.000000
-0.964500 0.000000
-0.930100 0.000000
-0.895800 0.000000
-0.861400 0.000000
-0.827000 0.000000
-0.792600 0.000000
-0.758200 0.000000
-0.723800 0.000000
-0.689400 0.000000
-0.655000 0.000100
-0.620600 0.014100
-0.586200 0.048200
-0.551800 0.084800
-0.517400 0.098000
-0.483000 0.109900
-0.448600 0.122500
-0.414200 0.131000
-0.379800 0.146300
-0.345400 0.162400
-0.311000 0.179100
-0.276600 0.191200
-0.242200 0.197300
-0.207800 0.208100
-0.173400 0.218900
-0.139000 0.229800
-0.104700 0.241200
-0.070300 0.253200
-0.035900 0.265600
-0.001500 0.278700
0.032900 0.293700
0.067300 0.310300
0.101700 0.326000
0.136100 0.340400
0.170500 0.354900
0.204900 0.370400
0.239300 0.387100
0.273700 0.409000
0.308100 0.440500
0.342500 0.475600
0.376900 0.530900
0.411300 0.586400
0.445700 0.584500
0.480100 0.583500
0.514500 0.596100
0.548900 0.614600
0.583300 0.630100
0.617700 0.642400
0.652100 0.651500
0.686400 0.660800
0.720800 0.679200
0.755200 0.700200
0.789600 0.722200
0.824000 0.745400
0.858400 0.770200
0.892800 1.033800
0.927200 1.203200
0.961600 1.475400
0.996000 1.951000
1.030400 2.024700
1.064800 2.232400
1.099200 2.506300
1.133600 2.915200
1.168000 2.903700
1.202400 2.655100
1.236800 2.480800
1.271200 2.388600
1.305600 2.258700
1.340000 2.049600
1.374400 1.850500
1.408800 1.693000
1.443200 1.606900
1.477500 1.531400
1.511900 1.460600
1.546300 1.476800
1.580700 1.493800
1.615100 1.418200
1.649500 1.412200
1.683900 1.372900
1.718300 1.097300
1.752700 0.734800
1.787100 0.468100
1.821500 0.461500
1.855900 0.472500
1.890300 0.484500
1.924700 0.493300
1.959100 0.507400
1.993500 0.532800
2.027900 0.558900
2.062300 0.594500
2.096700 0.640900
2.131100 0.681100
2.165500 0.717100
2.199900 0.765600
2.234300 0.820500
2.268600 0.884800
2.303000 0.957100
2.337400 1.045100
2.371800 1.143700
2.406200 1.265800
2.440600 1.350300
2.475000 1.737900
2.509400 1.688600
2.543800 1.721500
2.578200 1.805800
2.612600 1.880400
2.647000 2.087200
2.681400 2.337800
2.715800 2.632000
2.750200 2.953500
2.784600 3.249200
2.819000 3.339000
2.853400 3.463100
2.887800 3.706000
2.922200 4.039500
2.956600 3.947100
2.991000 4.255800
3.025400 4.875700
3.059700 4.787500
3.094100 2.923000
3.128500 2.096000
3.162900 1.823900
3.197300 1.724200
3.231700 1.701300
3.266100 1.707600
3.300500 1.822900
3.334900 1.983800
3.369300 2.351000
3.403700 2.458300
3.438100 3.078600
3.472500 3.597600
3.506900 3.505000
3.541300 3.519400
3.575700 3.609100
3.610100 3.806900
3.644500 4.741500
3.678900 4.587700
3.713300 4.324200
3.747700 3.908700
3.782100 3.740600
3.816500 3.719000
3.850800 3.761800
3.885200 3.799600
3.919600 3.824000
3.954000 3.655200
3.988400 3.568300
4.022800 3.669600
4.057200 4.147100
4.091600 4.544700
4.126000 5.028700
4.160400 5.747800
4.194800 5.883800
4.229200 6.056300
4.263600 6.094500
4.298000 5.467300
4.332400 4.814400
4.366800 3.705800
4.401200 3.473200
4.435600 3.532500
4.470000 3.814800
4.504400 4.052400
4.538800 4.720900
4.573200 5.499800
4.607600 5.463200
4.641900 4.960200
4.676300 4.421900
4.710700 2.931000
4.745100 2.810100
4.779500 3.363500
4.813900 3.128300
4.848300 3.204600
4.882700 3.432400
4.917100 4.058600
4.951500 4.897200
4.985900 5.624300
5.020300 6.005200
5.054700 5.131300
5.089100 4.563100
5.123500 3.758000
5.157900 2.737900
5.192300 2.240800
5.226700 2.594600
5.261100 3.310800
5.295500 3.712900
5.329900 4.124700
5.364300 4.303600
5.398700 3.665700
5.433000 3.056200
5.467400 2.498500
5.501800 2.146000
5.536200 2.085300
5.570600 1.990600
5.605000 1.997800
5.639400 2.239300
5.673800 2.370100
5.708200 3.043400
5.742600 4.175900
5.777000 5.556500
5.811400 5.421500
5.845800 5.207400
5.880200 5.106400
5.914600 4.835400
5.949000 4.904000
5.983400 5.175300
6.017800 5.442900
6.052200 5.430600
6.086600 6.352200
6.121000 6.786900
6.155400 6.704800
6.189800 5.461300
6.224100 4.043900
6.258500 3.448200
6.292900 3.033800
6.327300 2.863700
6.361700 2.761000
6.396100 2.928900
6.430500 3.140700
6.464900 3.490600
6.499300 3.740300
6.533700 3.839300
6.568100 3.726000
6.602500 3.679000
6.636900 3.400000
6.671300 3.190600
6.705700 2.942300
6.740100 2.781100
6.774500 2.710000
6.808900 2.597500
6.843300 2.497300
6.877700 2.545500
6.912100 2.656100
6.946500 2.884200
6.980900 3.069800
7.015200 3.170300
7.049600 3.168900
7.084000 3.261100
7.118400 3.385100
7.152800 3.254400
7.187200 2.871900
7.221600 2.813400
7.256000 2.786600
7.290400 2.759400
7.324800 2.687100
7.359200 2.607400
7.393600 2.572900
7.428000 2.621100
7.462400 2.825800
7.496800 3.105000
7.531200 3.357300
7.565600 3.747900
7.600000 4.574800
7.634400 2.970800
7.668800 3.419700
7.703200 3.982700
7.737600 4.164700
7.772000 3.922300
7.806300 3.962900
7.840700 3.940000
7.875100 3.465000
7.909500 3.233100
7.943900 3.062500
7.978300 2.842100
8.012700 3.260700
8.047100 2.894600
8.081500 2.552400
8.115900 2.548800
8.150300 2.610700
8.184700 2.607000
8.219100 2.642900
8.253500 2.828600
8.287900 2.692800
8.322300 2.734500
8.356700 2.721600
8.391100 2.699200
8.425500 2.726200
8.459900 2.813800
8.494300 2.892400
8.528700 2.990200
8.563100 3.089900
8.597400 3.242600
8.631800 3.371700
8.666200 3.636300
8.700600 4.286300
8.735000 4.892300
8.769400 4.936000
8.803800 5.149700
8.838200 5.015700
8.872600 3.794500
8.907000 3.281600
8.941400 3.074400
8.975800 3.207100
9.010200 2.953200
9.044600 2.856300
9.079000 2.812400
9.113400 2.784100
9.147800 2.790800
9.182200 2.884300
9.216600 2.969900
9.251000 2.899900
9.285400 2.869500
9.319800 2.757600
9.354200 2.683800
9.388500 2.487700
9.422900 2.476600
9.457300 2.517000
9.491700 2.506000
9.526100 2.616400
9.560500 2.616400
9.594900 2.658300
9.629300 2.770700
9.663700 2.843800
9.698100 2.989200
9.732500 3.253200
9.766900 3.580700
9.801300 3.856400
9.835700 4.201700
9.870100 4.993200
9.904500 6.060500
9.938900 5.362900
9.973300 5.058200
10.007700 5.457000
10.042100 5.808500
10.076500 6.191800
10.110900 8.127800
10.145300 6.145500
10.179600 4.346000
10.214000 4.387600
10.248400 4.539300
10.282800 4.746800
10.317200 5.209300
10.351600 5.265600
10.386000 5.610800
10.420400 5.158400
10.454800 4.390900
10.489200 3.268500
10.523600 2.844900
10.558000 2.819800
10.592400 3.773600
10.626800 4.362000
10.661200 4.052200
10.695600 4.669700
10.730000 3.098000
10.764400 2.748800
10.798800 2.729800
10.833200 2.947500
10.867600 3.468000
10.902000 3.542900
10.936400 3.414500
10.970700 3.357000
11.005100 3.340500
11.039500 3.070000
11.073900 2.930200
11.108300 2.783200
11.142700 2.639500
11.177100 2.579900
11.211500 2.536500
11.245900 2.489700
11.280300 2.689200
11.314700 3.033800
11.349100 3.559900
11.383500 3.394500
11.417900 2.995000
11.452300 2.617800
11.486700 2.329600
11.521100 1.991200
11.555500 1.629300
11.589900 1.470200
11.624300 1.299900
11.658700 1.203500
11.693100 1.122000
11.727500 1.059700
11.761800 1.000000
11.796200 0.926400
11.830600 0.900400
11.865000 0.820400
11.899400 0.775300
11.933800 0.733400
11.968200 0.692900
12.002600 0.673200
12.037000 0.654300
12.071400 0.644400
12.105800 0.638000
12.140200 0.632400
12.174600 0.627400
12.209000 0.623100
12.243400 0.619900
12.277800 0.620300
12.312200 0.624800
12.346600 0.634000
12.381000 0.647500
12.415400 0.666200
12.449800 0.692000
12.484200 0.711000
12.518600 0.735000
12.552900 0.733800
12.587300 0.725400
12.621700 0.708200
12.656100 0.680500
12.690500 0.645600
12.724900 0.600300
12.759300 0.578200
12.793700 0.559400
12.828100 0.555500
12.862500 0.554700
12.896900 0.556300
12.931300 0.560200
12.965700 0.565500
13.000100 0.572000
13.034500 0.595100
13.068900 0.610300
13.103300 0.623000
13.137700 0.634600
13.172100 0.644600
13.206500 0.734800
13.240900 0.884200
13.275300 0.934600
13.309700 0.962300
13.344000 0.978300
13.378400 1.002600
13.412800 1.001700
13.447200 1.009900
13.481600 1.020200
13.516000 0.983500
13.550400 0.984300
13.584800 0.983600
13.619200 0.994900
13.653600 1.001600
13.688000 1.013600
13.722400 1.032700
13.756800 1.044100
13.791200 1.045500
13.825600 1.039500
13.860000 1.028900
13.894400 1.028400
13.928800 1.035400
13.963200 1.046600
13.997600 1.057700
14.032000 1.070700
14.066400 1.085200
14.100800 1.100900
14.135100 1.093900
14.169500 1.083200
14.203900 1.089000
14.238300 1.087500
14.272700 1.102300
14.307100 1.094900
14.341500 1.112000
14.375900 1.102400
14.410300 1.091100
14.444700 1.086500
14.479100 1.077800
14.513500 1.083200
14.547900 1.067100
14.582300 1.053800
14.616700 1.053100
14.651100 1.038200
14.685500 1.034200
14.719900 1.054600
14.754300 1.041800
14.788700 1.022400
14.823100 0.998200
14.857500 0.972200
14.891900 0.956300
14.926200 0.946700
14.960600 0.919700
14.995000 0.917300
15.029400 0.929700
15.063800 0.942600
15.098200 0.988500
15.132600 0.987200
15.167000 0.972900
15.201400 0.964000
15.235800 0.969000
15.270200 0.975000
15.304600 0.985800
15.339000 1.007900
15.373400 1.039200
15.407800 1.073000
15.442200 1.130600
15.476600 1.260400
15.511000 1.327000
15.545400 1.341200
15.579800 1.362100
15.614200 1.360200
15.648600 1.350000
15.683000 1.320700
15.717300 1.283100
15.751700 1.242200
15.786100 1.169300
15.820500 1.109300
15.854900 1.063400
15.889300 1.022800
15.923700 0.984800
15.958100 0.942000
15.992500 0.914400
16.026900 0.889800
16.061300 0.867600
16.095700 0.848400
16.130100 0.830100
16.164500 0.811200
16.198900 0.793400
16.233300 0.776700
16.267700 0.760300
16.302100 0.744700
16.336500 0.747700
16.370900 0.711700
16.405300 0.691400
16.439700 0.674900
16.474100 0.659000
16.508400 0.644800
16.542800 0.632300
16.577200 0.621700
16.611600 0.614900
16.646000 0.591300
16.680400 0.572500
16.714800 0.559200
16.749200 0.547500
16.783600 0.535500
16.818000 0.522200
16.852400 0.508100
16.886800 0.494600
16.921200 0.481600
16.955600 0.469500
16.990000 0.520300
17.024400 0.439800
17.058800 0.403600
17.093200 0.400100
17.127600 0.377200
17.162000 0.345700
17.196400 0.316000
17.230800 0.315600
17.265200 0.310200
17.299500 0.325000
17.333900 0.360400
17.368300 0.471200
17.402700 0.569400
17.437100 0.754900
17.471500 0.918700
17.505900 1.033000
17.540300 1.094600
17.574700 1.097800
17.609100 1.153400
17.643500 1.100900
17.677900 1.092200
17.712300 1.066600
17.746700 1.083600
17.781100 1.070800
17.815500 1.030700
17.849900 1.002800
17.884300 0.964400
17.918700 0.962000
17.953100 0.993100
17.987500 0.977000
18.021900 0.988100
18.056300 1.005500
18.090600 1.039200
18.125000 1.078000
18.159400 1.126200
18.193800 1.175800
18.228200 1.220000
18.262600 1.254100
18.297000 1.289600
18.331400 1.337200
18.365800 1.399900
18.400200 1.501700
18.434600 1.585000
18.469000 1.682700
18.503400 1.746600
18.537800 1.732100
18.572200 1.674200
18.606600 1.646400
18.641000 1.582000
18.675400 1.506100
18.709800 1.435800
18.744200 1.379100
18.778600 1.338900
18.813000 1.304400
18.847400 1.275100
18.881700 1.254100
18.916100 1.235000
18.950500 1.213300
18.984900 1.190600
19.019300 1.175700
19.053700 1.205400
19.088100 1.221800
19.122500 1.235400
19.156900 1.275000
19.191300 1.275300
19.225700 1.289100
19.260100 1.318500
19.294500 1.363500
19.328900 1.480200
19.363300 1.744100
19.397700 2.125400
19.432100 2.270300
19.466500 2.434600
19.500900 2.560500
19.535300 2.224400
19.569700 2.119700
19.604100 2.075600
19.638500 2.056600
19.672800 2.004500
19.707200 1.964400
19.741600 1.895900
19.776000 1.831900
19.810400 1.807000
19.844800 1.816400
19.879200 1.784000
19.913600 1.811500
19.948000 1.736100
19.982400 1.703600
20.016800 1.688000
20.051200 1.712400
20.085600 1.748900
20.120000 1.774900
20.154400 1.780400
20.188800 1.775700
20.223200 1.725400
20.257600 1.710900
20.292000 1.705200
20.326400 1.730000
20.360800 1.660900
20.395200 1.605100
20.429600 1.611500
20.463900 1.543900
20.498300 1.533100
20.532700 1.520900
20.567100 1.491900
20.601500 1.493200
20.635900 1.589600
20.670300 1.757300
20.704700 1.490600
20.739100 1.442100
20.773500 1.362700
20.807900 1.317600
20.842300 1.353400
20.876700 1.380700
20.911100 1.404400
20.945500 1.478300
20.979900 1.603800
21.014300 1.736100
21.048700 1.865100
21.083100 2.175100
21.117500 1.961700
21.151900 1.911200
21.186300 1.855000
21.220700 1.825600
21.255000 1.791500
21.289400 1.787200
21.323800 2.038500
21.358200 1.897100
21.392600 1.752900
21.427000 1.551200
21.461400 1.592800
21.495800 1.724800
21.530200 1.861400
21.564600 2.235900
21.599000 2.093200
21.633400 2.000900
21.667800 1.925300
21.702200 1.941600
21.736600 1.985300
21.771000 2.104800
21.805400 2.323300
21.839800 2.350500
21.874200 2.449300
21.908600 2.523300
21.943000 2.646200
21.977400 2.683500
22.011800 2.672800
22.046100 2.698400
22.080500 2.725400
22.114900 2.988400
22.149300 3.384100
22.183700 3.489000
22.218100 2.896400
22.252500 2.263500
22.286900 2.107300
22.321300 2.020200
22.355700 1.955200
22.390100 1.897200
22.424500 1.835500
22.458900 1.760500
22.493300 1.698200
22.527700 1.711900
22.562100 1.613900
22.596500 1.590000
22.630900 1.613400
22.665300 1.640500
22.699700 1.697000
22.734100 1.799900
22.768500 1.812600
22.802900 1.840600
22.837200 1.852800
22.871600 1.801700
22.906000 1.817800
22.940400 1.838400
22.974800 1.910700
23.009200 2.052100
23.043600 2.262600
23.078000 2.576000
23.112400 2.589300
23.146800 2.561700
23.181200 2.334000
23.215600 2.306100
23.250000 2.318300
23.284400 2.347300
23.318800 2.279300
23.353200 2.191800
23.387600 2.067400
23.422000 1.969100
23.456400 1.856700
23.490800 1.731300
23.525200 1.716700
23.559600 1.757100
23.594000 1.835400
23.628300 1.947600
23.662700 2.077900
23.697100 2.269200
23.731500 2.431300
23.765900 2.597300
23.800300 2.744200
23.834700 2.950400
23.869100 3.192700
23.903500 3.462400
23.937900 3.823100
23.972300 4.354200
24.006700 5.219100
24.041100 6.627400
24.075500 10.545200
24.109900 9.256600
24.144300 6.230300
24.178700 4.979500
24.213100 4.162700
24.247500 3.886900
24.281900 3.904200
24.316300 4.167700
24.350700 4.658000
24.385100 7.215500
24.419400 17.664600
24.453800 10.104700
24.488200 6.327500
24.522600 4.437400
24.557000 3.681100
24.591400 3.164100
24.625800 2.941100
24.660200 2.928600
24.694600 2.897900
24.729000 2.953700
24.763400 2.921000
24.797800 2.878000
24.832200 2.832100
24.866600 2.783100
24.901000 2.832400
24.935400 2.734500
24.969800 2.641300
25.004200 2.608500
25.038600 2.700300
25.073000 2.677400
25.107400 2.566100
25.141800 2.570900
25.176200 2.623500
25.210500 2.678200
25.244900 2.913500
25.279300 2.817800
25.313700 2.698500
25.348100 2.741500
25.382500 2.729700
25.416900 2.793300
25.451300 3.047200
25.485700 3.289000
25.520100 3.293200
25.554500 3.390000
25.588900 3.185600
25.623300 2.780100
25.657700 2.622600
25.692100 2.499800
25.726500 2.556400
25.760900 2.642100
25.795300 2.649400
25.829700 2.553700
25.864100 2.315400
25.898500 2.128600
25.932900 2.043200
25.967300 2.064300
26.001600 2.116100
26.036000 2.182900
26.070400 2.330400
26.104800 2.610700
26.139200 3.194700
26.173600 2.849600
26.208000 2.858000
26.242400 2.837800
26.276800 2.765700
26.311200 2.882700
26.345600 2.802600
26.380000 2.537200
26.414400 2.349000
26.448800 2.122800
26.483200 1.912200
26.517600 1.908100
26.552000 1.916100
26.586400 1.893100
26.620800 1.841100
26.655200 1.897600
26.689600 1.951300
26.724000 1.953400
26.758400 1.937100
26.792700 1.889400
26.827100 1.854100
26.861500 1.833800
26.895900 1.838900
26.930300 1.748600
26.964700 1.718200
26.999100 1.701800
27.033500 1.683800
27.067900 1.668400
27.102300 1.646000
27.136700 1.628600
27.171100 1.693200
27.205500 1.773800
27.239900 1.717400
27.274300 1.661200
27.308700 1.635700
27.343100 1.622800
27.377500 1.675600
27.411900 1.769400
27.446300 1.936400
27.480700 2.114300
27.515100 2.175300
27.549500 2.633100
27.583800 2.137300
27.618200 2.082200
27.652600 2.001300
27.687000 1.989300
27.721400 1.993800
27.755800 2.017800
27.790200 2.087800
27.824600 2.064400
27.859000 1.967400
27.893400 2.091500
27.927800 2.313100
27.962200 2.077600
27.996600 2.059300
28.031000 2.086200
28.065400 2.220600
28.099800 2.114200
28.134200 2.108700
28.168600 2.130900
28.203000 2.140600
28.237400 2.162500
28.271800 2.152700
28.306200 2.128000
28.340600 2.141200
28.374900 2.159700
28.409300 2.184200
28.443700 2.195600
28.478100 2.197800
28.512500 2.239100
28.546900 2.355800
28.581300 2.247500
28.615700 2.192900
28.650100 2.158400
28.684500 2.238900
28.718900 2.369500
28.753300 2.465100
28.787700 2.548800
28.822100 2.338400
28.856500 2.198000
28.890900 2.071000
28.925300 2.055300
28.959700 2.090300
28.994100 2.231400
29.028500 2.219500
29.062900 2.137000
29.097300 1.942200
29.131700 1.848400
29.166000 1.805500
29.200400 1.782800
29.234800 1.756300
29.269200 1.752200
29.303600 1.776600
29.338000 1.859200
29.372400 1.937200
29.406800 1.812100
29.441200 1.794700
29.475600 1.868500
29.510000 1.991100
29.544400 2.132000
29.578800 2.270900
29.613200 2.401200
29.647600 2.515100
29.682000 2.927200
29.716400 3.067000
29.750800 2.852200
29.785200 2.753200
29.819600 2.757100
29.854000 2.738500
29.888400 2.694600
29.922800 2.640900
29.957100 2.604200
29.991500 2.625200
30.025900 2.480800
30.060300 2.418500
30.094700 2.418800
30.129100 2.417500
30.163500 2.425300
30.197900 2.393000
30.232300 2.468800
30.266700 2.493400
30.301100 2.324900
30.335500 2.199400
30.369900 2.059500
30.404300 1.997500
30.438700 2.093900
30.473100 2.265600
30.507500 2.381000
30.541900 2.477900
30.576300 2.103000
30.610700 1.902100
30.645100 1.878300
30.679500 2.029700
30.713900 2.154500
30.748200 2.278300
30.782600 2.388400
30.817000 2.612300
30.851400 2.957200
30.885800 3.089900
30.920200 3.028900
30.954600 2.454500
30.989000 2.040300
31.023400 1.760600
31.057800 1.560600
31.092200 1.375800
31.126600 1.280700
31.161000 1.260800
31.195400 1.245600
31.229800 1.383500
31.264200 2.055400
31.298600 2.140400
31.333000 2.388400
31.367400 2.578400
31.401800 2.604900
31.436200 2.723900
31.470600 2.792300
31.505000 2.879400
31.539300 2.803100
31.573700 2.763700
31.608100 2.682800
31.642500 2.543200
31.676900 2.440600
31.711300 2.351600
31.745700 2.287900
31.780100 2.227900
31.814500 2.152600
31.848900 2.069600
31.883300 2.016900
31.917700 1.954200
31.952100 1.894800
31.986500 1.815300
32.020900 1.673000
32.055300 1.576700
32.089700 1.642100
32.124100 1.752700
32.158500 1.581300
32.192900 1.670100
32.227300 2.078600
32.261700 2.283900
32.296100 2.422200
32.330400 2.654600
32.364800 2.731200
32.399200 2.853900
32.433600 2.967000
32.468000 2.957600
32.502400 2.949800
32.536800 3.006400
32.571200 2.999200
32.605600 3.003100
32.640000 2.701700
32.674400 2.281100
32.708800 1.885800
32.743200 1.506600
32.777600 1.312100
32.812000 1.149900
32.846400 1.009200
32.880800 0.879300
32.915200 0.756800
32.949600 0.665700
32.984000 0.570500
33.018400 0.493400
33.052800 0.430700
33.087200 0.367200
33.121500 0.319300
33.155900 0.281800
33.190300 0.227000
33.224700 0.198000
33.259100 0.198600
33.293500 0.110900
33.327900 0.091900
33.362300 0.074400
33.396700 0.045200
33.431100 0.004300
33.465500 0.000000
33.499900 0.000000
33.534300 0.000000
33.568700 0.000000
33.603100 0.000000
33.637500 0.000000
33.671900 0.000000
33.706300 0.000000
33.740700 0.000000
33.775100 0.000000
33.809500 0.000000
33.843900 0.000000
33.878300 0.000000
33.912600 0.000000
33.947000 0.000000
33.981400 0.000000
34.015800 0.000000
34.050200 0.000000
34.084600 0.000000
34.119000 0.000000
34.153400 0.000000
34.187800 0.000000
34.222200 0.000000
34.256600 0.000000
34.291000 0.000000
34.325400 0.000000
34.359800 0.000000
34.394200 0.000000
34.428600 0.000000
34.463000 0.000000
34.497400 0.000000
34.531800 0.000000
34.566200 0.000000
34.600600 0.000000
34.635000 0.000000
34.669400 0.000000
34.703700 0.000000
34.738100 0.000000
34.772500 0.000000
34.806900 0.000000
34.841300 0.000000
34.875700 0.000000
34.910100 0.000000
34.944500 0.000000
34.978900 0.000000
35.013300 0.000000
35.047700 0.000000
35.082100 0.000000
35.116500 0.000000
35.150900 0.000000
35.185300 0.000000
35.219700 0.000000
35.254100 0.000000
35.288500 0.000000
35.322900 0.000000
35.357300 0.000000
35.391700 0.000000
35.426100 0.000000
35.460500 0.000000
35.494800 0.000000
35.529200 0.000000
35.563600 0.000000
35.598000 0.000000
35.632400 0.000000
35.666800 0.000000
35.701200 0.000000
35.735600 0.000000
35.770000 0.000000
35.804400 0.000000
35.838800 0.000000
35.873200 0.000000
35.907600 0.000000
35.942000 0.000000
35.976400 0.000000
36.010800 0.000000
36.045200 0.000000
36.079600 0.000000
36.114000 0.000000
36.148400 0.000000
36.182800 0.000000
36.217200 0.000000
36.251600 0.000000
36.285900 0.000000
36.320300 0.000000
36.354700 0.000000
36.389100 0.000000
36.423500 0.000000
36.457900 0.000000
36.492300 0.000000
36.526700 0.000000
36.561100 0.000000
e
