set title 'mp-1068510 - Density of States'
set xlabel 'Energy (eV)'
set ylabel 'DOS (states/eV)'
set grid
set xrange [-10:10]
set yrange [0:268.156]
set xzeroaxis lt -1
set terminal png size 800,600
set output 'mp-1068510_dos_gnuplot.png'
plot '-' using 1:2 with lines title 'DOS'
-10.319400 0.000000
-10.305600 0.000000
-10.291900 0.000000
-10.278100 0.000000
-10.264400 0.000000
-10.250600 0.000000
-10.236900 0.000000
-10.223100 0.000000
-10.209400 0.000000
-10.195600 0.000000
-10.181900 0.000000
-10.168100 0.000000
-10.154400 0.000000
-10.140600 0.000000
-10.126900 0.000000
-10.113100 0.000000
-10.099400 0.000000
-10.085600 0.000000
-10.071900 0.000000
-10.058100 0.000000
-10.044400 0.000000
-10.030600 0.000000
-10.016900 0.000000
-10.003100 0.000000
-9.989400 0.000000
-9.975600 0.000000
-9.961900 0.000000
-9.948100 0.000000
-9.934300 0.000000
-9.920600 0.000000
-9.906800 0.000000
-9.893100 0.000000
-9.879300 0.000000
-9.865600 0.000000
-9.851800 0.000000
-9.838100 0.000000
-9.824300 0.000000
-9.810600 0.000000
-9.796800 0.000000
-9.783100 0.000000
-9.769300 0.000000
-9.755600 0.000000
-9.741800 0.000000
-9.728100 0.000000
-9.714300 0.000000
-9.700600 0.000000
-9.686800 0.000000
-9.673100 0.000000
-9.659300 0.000000
-9.645600 0.000000
-9.631800 0.000000
-9.618100 0.000000
-9.604300 0.000000
-9.590600 0.000000
-9.576800 0.000000
-9.563100 0.000000
-9.549300 0.000000
-9.535500 0.000000
-9.521800 0.000000
-9.508000 0.000000
-9.494300 0.000000
-9.480500 0.000000
-9.466800 0.000000
-9.453000 0.000000
-9.439300 0.000000
-9.425500 0.000000
-9.411800 0.000000
-9.398000 0.000000
-9.384300 0.000000
-9.370500 0.000000
-9.356800 0.000000
-9.343000 0.000000
-9.329300 0.000000
-9.315500 0.000000
-9.301800 0.000000
-9.288000 0.000000
-9.274300 0.000000
-9.260500 0.000000
-9.246800 0.000000
-9.233000 0.000000
-9.219300 0.000000
-9.205500 0.000000
-9.191800 0.000000
-9.178000 0.000000
-9.164200 0.000000
-9.150500 0.000000
-9.136700 0.000000
-9.123000 0.000000
-9.109200 0.000000
-9.095500 0.000000
-9.081700 0.000000
-9.068000 12.561700
-9.054200 29.553500
-9.040500 54.203200
-9.026700 169.674600
-9.013000 36.599300
-8.999200 31.681500
-8.985500 33.044100
-8.971700 42.027900
-8.958000 91.966400
-8.944200 130.382700
-8.930500 0.000000
-8.916700 72.078300
-8.903000 171.400500
-8.889200 233.198000
-8.875500 243.777800
-8.861700 0.000000
-8.848000 0.000000
-8.834200 0.000000
-8.820500 0.000000
-8.806700 0.000000
-8.792900 0.000000
-8.779200 0.000000
-8.765400 0.000000
-8.751700 0.000000
-8.737900 0.000000
-8.724200 0.000000
-8.710400 0.000000
-8.696700 0.000000
-8.682900 0.000000
-8.669200 0.000000
-8.655400 0.000000
-8.641700 0.000000
-8.627900 0.000000
-8.614200 0.000000
-8.600400 0.000000
-8.586700 0.000000
-8.572900 0.000000
-8.559200 0.000000
-8.545400 0.000000
-8.531700 0.000000
-8.517900 0.000000
-8.504200 0.000000
-8.490400 0.000000
-8.476700 0.000000
-8.462900 0.000000
-8.449200 0.000000
-8.435400 0.000000
-8.421600 0.000000
-8.407900 0.000000
-8.394100 0.000000
-8.380400 0.000000
-8.366600 0.000000
-8.352900 0.000000
-8.339100 0.000000
-8.325400 0.000000
-8.311600 0.000000
-8.297900 0.000000
-8.284100 0.000000
-8.270400 0.000000
-8.256600 0.000000
-8.242900 0.000000
-8.229100 0.000000
-8.215400 0.000000
-8.201600 0.000000
-8.187900 0.000000
-8.174100 0.000000
-8.160400 0.000000
-8.146600 0.000000
-8.132900 0.000000
-8.119100 0.000000
-8.105400 0.000000
-8.091600 0.000000
-8.077900 0.000000
-8.064100 0.000000
-8.050400 0.000000
-8.036600 0.000000
-8.022800 0.000000
-8.009100 0.000000
-7.995300 0.000000
-7.981600 0.000000
-7.967800 0.000000
-7.954100 0.000000
-7.940300 0.000000
-7.926600 0.000000
-7.912800 0.000000
-7.899100 0.000000
-7.885300 0.000000
-7.871600 0.000000
-7.857800 0.000000
-7.844100 0.000000
-7.830300 0.000000
-7.816600 0.000000
-7.802800 0.000000
-7.789100 0.000000
-7.775300 0.000000
-7.761600 0.000000
-7.747800 0.000000
-7.734100 0.000000
-7.720300 0.000000
-7.706600 0.000000
-7.692800 0.000000
-7.679100 0.000000
-7.665300 0.000000
-7.651500 0.000000
-7.637800 0.000000
-7.624000 0.000000
-7.610300 0.000000
-7.596500 0.000000
-7.582800 0.000000
-7.569000 0.000000
-7.555300 0.000000
-7.541500 0.000000
-7.527800 0.000000
-7.514000 0.000000
-7.500300 0.000000
-7.486500 0.000000
-7.472800 0.000000
-7.459000 0.000000
-7.445300 0.000000
-7.431500 0.000000
-7.417800 0.000000
-7.404000 0.000000
-7.390300 0.000000
-7.376500 0.000000
-7.362800 0.000000
-7.349000 0.000000
-7.335300 0.000000
-7.321500 0.000000
-7.307800 0.000000
-7.294000 0.000000
-7.280200 0.000000
-7.266500 0.000000
-7.252700 0.000000
-7.239000 0.000000
-7.225200 0.000000
-7.211500 0.000000
-7.197700 0.000000
-7.184000 0.000000
-7.170200 0.000000
-7.156500 0.000000
-7.142700 0.000000
-7.129000 0.000000
-7.115200 0.000000
-7.101500 0.000000
-7.087700 0.000000
-7.074000 0.000000
-7.060200 0.000000
-7.046500 0.000000
-7.032700 0.000000
-7.019000 0.000000
-7.005200 0.000000
-6.991500 0.000000
-6.977700 0.000000
-6.964000 0.000000
-6.950200 0.000000
-6.936500 0.000000
-6.922700 0.000000
-6.908900 0.000000
-6.895200 0.000000
-6.881400 0.000000
-6.867700 0.000000
-6.853900 0.000000
-6.840200 0.000000
-6.826400 0.000000
-6.812700 0.000000
-6.798900 0.000000
-6.785200 0.000000
-6.771400 0.000000
-6.757700 0.000000
-6.743900 0.000000
-6.730200 0.000000
-6.716400 0.000000
-6.702700 0.000000
-6.688900 0.000000
-6.675200 0.000000
-6.661400 0.000000
-6.647700 0.000000
-6.633900 0.000000
-6.620200 0.000000
-6.606400 0.000000
-6.592700 0.000000
-6.578900 0.000000
-6.565200 0.000000
-6.551400 0.000000
-6.537700 0.000000
-6.523900 0.000000
-6.510100 0.000000
-6.496400 0.000000
-6.482600 0.000000
-6.468900 0.000000
-6.455100 0.000000
-6.441400 0.000000
-6.427600 0.000000
-6.413900 0.000000
-6.400100 0.000000
-6.386400 0.000000
-6.372600 0.000000
-6.358900 0.000000
-6.345100 0.000000
-6.331400 0.000000
-6.317600 0.000000
-6.303900 0.000000
-6.290100 0.000000
-6.276400 0.007600
-6.262600 0.105700
-6.248900 0.309400
-6.235100 0.359400
-6.221400 0.395700
-6.207600 0.453400
-6.193900 0.514900
-6.180100 0.579000
-6.166400 0.631600
-6.152600 0.665200
-6.138800 0.695800
-6.125100 0.735400
-6.111300 0.775100
-6.097600 0.818500
-6.083800 0.869400
-6.070100 0.925700
-6.056300 0.987000
-6.042600 1.040300
-6.028800 1.039200
-6.015100 1.055800
-6.001300 1.065500
-5.987600 1.063600
-5.973800 1.048900
-5.960100 1.050100
-5.946300 1.073900
-5.932600 1.116400
-5.918800 1.158000
-5.905100 1.196500
-5.891300 1.233800
-5.877600 1.264300
-5.863800 1.287700
-5.850100 1.320800
-5.836300 1.357500
-5.822600 1.393800
-5.808800 1.425300
-5.795100 1.456900
-5.781300 1.489800
-5.767500 1.522600
-5.753800 1.554500
-5.740000 1.585300
-5.726300 1.615100
-5.712500 1.644900
-5.698800 1.675600
-5.685000 1.707700
-5.671300 1.741600
-5.657500 1.775600
-5.643800 1.808600
-5.630000 1.842100
-5.616300 1.876700
-5.602500 1.912300
-5.588800 1.947700
-5.575000 1.983000
-5.561300 2.019500
-5.547500 2.056500
-5.533800 2.094100
-5.520000 2.132400
-5.506300 2.171300
-5.492500 2.212400
-5.478800 2.257100
-5.465000 2.305000
-5.451300 2.355100
-5.437500 2.407000
-5.423800 2.460800
-5.410000 2.516500
-5.396200 2.574600
-5.382500 2.647000
-5.368700 2.748300
-5.355000 2.820600
-5.341200 2.808500
-5.327500 2.814900
-5.313700 2.855100
-5.300000 2.898400
-5.286200 2.949400
-5.272500 3.009300
-5.258700 3.078000
-5.245000 3.154800
-5.231200 3.238000
-5.217500 3.329900
-5.203700 3.434100
-5.190000 3.547400
-5.176200 3.685600
-5.162500 3.859200
-5.148700 4.059500
-5.135000 4.368100
-5.121200 4.739800
-5.107500 4.836900
-5.093700 4.844500
-5.080000 4.899000
-5.066200 5.073000
-5.052500 5.057300
-5.038700 5.032200
-5.025000 4.880400
-5.011200 4.733900
-4.997400 4.708000
-4.983700 4.787800
-4.969900 4.621400
-4.956200 4.691000
-4.942400 4.710200
-4.928700 4.787400
-4.914900 4.975600
-4.901200 5.293900
-4.887400 5.448900
-4.873700 5.610600
-4.859900 5.845900
-4.846200 6.023200
-4.832400 5.952900
-4.818700 5.952700
-4.804900 5.881600
-4.791200 5.766800
-4.777400 5.652800
-4.763700 5.552300
-4.749900 5.604900
-4.736200 5.720600
-4.722400 5.873300
-4.708700 6.256800
-4.694900 6.316700
-4.681200 6.618500
-4.667400 6.186700
-4.653700 6.365600
-4.639900 4.970300
-4.626100 5.785600
-4.612400 7.737800
-4.598600 9.632500
-4.584900 8.396800
-4.571100 8.508600
-4.557400 8.796800
-4.543600 8.831800
-4.529900 9.525700
-4.516100 11.408800
-4.502400 8.582700
-4.488600 3.411400
-4.474900 0.000000
-4.461100 0.000000
-4.447400 0.000000
-4.433600 0.000000
-4.419900 0.000000
-4.406100 0.000000
-4.392400 0.000000
-4.378600 0.000000
-4.364900 0.000000
-4.351100 0.000000
-4.337400 0.000000
-4.323600 0.000000
-4.309900 0.000000
-4.296100 0.000000
-4.282400 0.000000
-4.268600 0.000000
-4.254800 0.000000
-4.241100 0.000000
-4.227300 0.000000
-4.213600 0.000000
-4.199800 0.000000
-4.186100 0.000000
-4.172300 0.000000
-4.158600 0.000000
-4.144800 0.000000
-4.131100 0.000000
-4.117300 0.000000
-4.103600 0.000000
-4.089800 0.000000
-4.076100 0.000000
-4.062300 0.000000
-4.048600 0.000000
-4.034800 0.000000
-4.021100 0.000000
-4.007300 0.000000
-3.993600 0.000000
-3.979800 0.000000
-3.966100 0.000000
-3.952300 0.000000
-3.938600 0.000000
-3.924800 0.000000
-3.911100 0.000000
-3.897300 0.000000
-3.883500 0.000000
-3.869800 0.000000
-3.856000 0.000000
-3.842300 0.000000
-3.828500 0.000000
-3.814800 0.000000
-3.801000 0.000000
-3.787300 0.000000
-3.773500 0.000000
-3.759800 0.000000
-3.746000 0.000000
-3.732300 0.000000
-3.718500 0.000000
-3.704800 0.000000
-3.691000 0.000000
-3.677300 0.000000
-3.663500 0.000000
-3.649800 0.000000
-3.636000 0.000000
-3.622300 0.000000
-3.608500 0.000000
-3.594800 0.000000
-3.581000 0.000000
-3.567300 0.000000
-3.553500 0.000000
-3.539800 0.000000
-3.526000 0.000000
-3.512300 0.000000
-3.498500 0.000000
-3.484700 0.000000
-3.471000 0.000000
-3.457200 0.000000
-3.443500 0.000000
-3.429700 0.000000
-3.416000 0.000000
-3.402200 0.000000
-3.388500 0.000000
-3.374700 0.000000
-3.361000 0.000000
-3.347200 0.000000
-3.333500 0.000000
-3.319700 0.000000
-3.306000 0.000000
-3.292200 0.000000
-3.278500 0.000000
-3.264700 0.000000
-3.251000 0.000000
-3.237200 0.000000
-3.223500 0.000000
-3.209700 0.000000
-3.196000 0.000000
-3.182200 0.000000
-3.168500 0.000000
-3.154700 0.000000
-3.141000 0.000000
-3.127200 0.000000
-3.113400 0.000000
-3.099700 0.000000
-3.085900 0.000000
-3.072200 0.000000
-3.058400 0.000000
-3.044700 0.000000
-3.030900 0.000000
-3.017200 0.000000
-3.003400 0.000000
-2.989700 0.000000
-2.975900 0.000000
-2.962200 0.000000
-2.948400 0.000000
-2.934700 0.000000
-2.920900 0.000000
-2.907200 0.000000
-2.893400 0.000000
-2.879700 0.000000
-2.865900 0.000000
-2.852200 0.000000
-2.838400 0.000000
-2.824700 0.000000
-2.810900 0.000000
-2.797200 0.000000
-2.783400 0.000000
-2.769700 0.000000
-2.755900 0.000000
-2.742100 0.000000
-2.728400 0.000000
-2.714600 0.000000
-2.700900 0.000000
-2.687100 0.000000
-2.673400 0.000000
-2.659600 0.000000
-2.645900 0.000000
-2.632100 0.000000
-2.618400 0.000000
-2.604600 0.000000
-2.590900 0.000000
-2.577100 0.000000
-2.563400 0.000000
-2.549600 0.000000
-2.535900 0.000000
-2.522100 0.000000
-2.508400 0.000000
-2.494600 0.000000
-2.480900 0.000000
-2.467100 0.000000
-2.453400 0.000000
-2.439600 0.000000
-2.425900 0.000000
-2.412100 0.000000
-2.398400 0.000000
-2.384600 0.000000
-2.370800 0.000000
-2.357100 0.000000
-2.343300 0.000000
-2.329600 0.000000
-2.315800 0.000000
-2.302100 0.000000
-2.288300 0.000000
-2.274600 0.000000
-2.260800 0.000000
-2.247100 0.000000
-2.233300 0.000000
-2.219600 0.000000
-2.205800 0.000000
-2.192100 0.000000
-2.178300 0.000000
-2.164600 0.000000
-2.150800 0.000000
-2.137100 0.000000
-2.123300 0.000000
-2.109600 0.000000
-2.095800 0.000000
-2.082100 0.000000
-2.068300 0.000000
-2.054600 0.000000
-2.040800 0.000000
-2.027100 0.000000
-2.013300 0.000000
-1.999500 0.000000
-1.985800 0.000000
-1.972000 0.000000
-1.958300 0.000000
-1.944500 0.000000
-1.930800 0.000000
-1.917000 0.000000
-1.903300 0.000000
-1.889500 0.000000
-1.875800 0.000000
-1.862000 0.000000
-1.848300 0.000000
-1.834500 0.000000
-1.820800 0.000000
-1.807000 0.000000
-1.793300 0.000000
-1.779500 0.000000
-1.765800 0.000000
-1.752000 0.000000
-1.738300 0.000000
-1.724500 0.000000
-1.710800 0.000000
-1.697000 0.000000
-1.683300 0.000000
-1.669500 0.000000
-1.655800 0.000000
-1.642000 0.000000
-1.628300 0.000000
-1.614500 0.000000
-1.600700 0.000000
-1.587000 0.000000
-1.573200 0.000000
-1.559500 0.000000
-1.545700 0.000000
-1.532000 0.000000
-1.518200 0.000000
-1.504500 0.000000
-1.490700 0.000000
-1.477000 0.000000
-1.463200 0.000000
-1.449500 0.000000
-1.435700 0.000000
-1.422000 0.000000
-1.408200 0.000000
-1.394500 0.000000
-1.380700 0.000000
-1.367000 0.000000
-1.353200 0.000000
-1.339500 0.000000
-1.325700 0.000000
-1.312000 0.000000
-1.298200 0.000000
-1.284500 0.000000
-1.270700 0.000000
-1.257000 0.000000
-1.243200 0.000000
-1.229400 0.000000
-1.215700 0.000000
-1.201900 0.000000
-1.188200 0.000000
-1.174400 0.000000
-1.160700 0.000000
-1.146900 0.000000
-1.133200 0.000000
-1.119400 0.000000
-1.105700 0.000000
-1.091900 0.000000
-1.078200 0.000000
-1.064400 0.000000
-1.050700 0.000000
-1.036900 0.000000
-1.023200 0.000000
-1.009400 0.000000
-0.995700 0.000000
-0.981900 0.000000
-0.968200 0.000000
-0.954400 0.000000
-0.940700 0.000000
-0.926900 0.000000
-0.913200 0.000000
-0.899400 0.000000
-0.885700 0.000000
-0.871900 0.000000
-0.858100 0.000000
-0.844400 0.000000
-0.830600 0.000000
-0.816900 0.000000
-0.803100 0.000000
-0.789400 0.000000
-0.775600 0.000000
-0.761900 0.000000
-0.748100 0.000000
-0.734400 0.000000
-0.720600 0.000000
-0.706900 0.000000
-0.693100 0.000000
-0.679400 0.000000
-0.665600 0.000000
-0.651900 0.000000
-0.638100 0.000000
-0.624400 0.000000
-0.610600 0.000000
-0.596900 0.000000
-0.583100 0.000000
-0.569400 0.000000
-0.555600 0.000000
-0.541900 0.000000
-0.528100 0.000000
-0.514400 0.000000
-0.500600 0.000000
-0.486800 0.000000
-0.473100 0.000000
-0.459300 0.000000
-0.445600 0.000000
-0.431800 0.000000
-0.418100 0.000000
-0.404300 0.000000
-0.390600 0.216500
-0.376800 0.631600
-0.363100 0.821600
-0.349300 1.034100
-0.335600 1.322000
-0.321800 1.695300
-0.308100 2.109000
-0.294300 1.975200
-0.280600 2.018600
-0.266800 2.087000
-0.253100 2.178100
-0.239300 2.247400
-0.225600 2.123600
-0.211800 2.056800
-0.198100 2.170500
-0.184300 2.344600
-0.170600 2.518900
-0.156800 2.692900
-0.143100 2.838200
-0.129300 3.399100
-0.115600 3.625300
-0.101800 3.283200
-0.088000 3.030600
-0.074300 2.734200
-0.060500 2.394800
-0.046800 2.161600
-0.033000 2.095600
-0.019300 2.051100
-0.005500 1.988300
0.008200 1.971100
0.022000 2.142200
0.035700 2.450600
0.049500 2.824800
0.063200 3.027800
0.077000 3.179600
0.090700 3.177000
0.104500 3.230800
0.118200 3.337200
0.132000 3.461700
0.145700 3.664200
0.159500 3.492400
0.173200 3.541700
0.187000 3.687000
0.200700 3.843000
0.214500 4.020000
0.228200 4.234000
0.242000 4.493700
0.255700 4.801100
0.269500 5.109600
0.283300 5.247200
0.297000 5.507900
0.310800 5.750200
0.324500 6.146100
0.338300 7.190800
0.352000 6.600700
0.365800 5.714900
0.379500 5.056900
0.393300 4.592900
0.407000 4.251100
0.420800 3.919400
0.434500 3.581500
0.448300 3.339300
0.462000 3.159200
0.475800 3.012700
0.489500 2.905500
0.503300 2.921400
0.517000 2.818300
0.530800 2.313400
0.544500 1.778500
0.558300 1.548800
0.572000 1.411700
0.585800 1.384400
0.599500 1.359300
0.613300 1.336200
0.627000 1.312800
0.640800 1.285300
0.654600 1.257400
0.668300 1.231300
0.682100 1.205200
0.695800 1.180100
0.709600 1.157300
0.723300 1.135400
0.737100 1.114800
0.750800 1.096000
0.764600 1.077300
0.778300 1.057600
0.792100 1.036800
0.805800 1.014900
0.819600 1.000000
0.833300 0.986100
0.847100 0.972600
0.860800 0.953000
0.874600 0.930300
0.888300 0.901200
0.902100 0.871200
0.915800 0.843200
0.929600 0.814600
0.943300 0.795700
0.957100 0.778900
0.970800 0.763000
0.984600 0.748000
0.998300 0.733700
1.012100 0.720400
1.025900 0.707800
1.039600 0.696400
1.053400 0.686100
1.067100 0.677100
1.080900 0.669200
1.094600 0.663100
1.108400 0.659000
1.122100 0.658000
1.135900 0.660800
1.149600 0.661000
1.163400 0.658300
1.177100 0.651300
1.190900 0.643000
1.204600 0.633700
1.218400 0.623900
1.232100 0.614200
1.245900 0.604600
1.259600 0.594200
1.273400 0.583700
1.287100 0.573500
1.300900 0.671100
1.314600 0.809000
1.328400 0.884000
1.342100 0.991500
1.355900 1.097200
1.369600 1.213100
1.383400 1.345300
1.397100 1.409600
1.410900 1.406100
1.424700 1.482100
1.438400 1.624700
1.452200 1.648200
1.465900 1.632900
1.479700 1.630200
1.493400 1.657500
1.507200 1.702800
1.520900 1.756200
1.534700 1.829800
1.548400 1.848200
1.562200 1.886900
1.575900 1.899300
1.589700 1.931700
1.603400 1.972800
1.617200 2.015500
1.630900 2.055700
1.644700 2.094700
1.658400 2.143400
1.672200 2.279800
1.685900 2.440000
1.699700 2.568200
1.713400 2.744400
1.727200 2.797500
1.740900 2.740500
1.754700 2.696300
1.768400 2.687100
1.782200 2.708700
1.796000 2.699200
1.809700 2.571400
1.823500 2.443500
1.837200 2.372800
1.851000 2.329000
1.864700 2.293900
1.878500 2.239000
1.892200 2.176100
1.906000 2.117500
1.919700 2.065100
1.933500 2.026100
1.947200 2.008900
1.961000 2.002500
1.974700 1.978900
1.988500 1.942700
2.002200 1.891800
2.016000 1.849500
2.029700 1.823300
2.043500 1.820000
2.057200 1.825700
2.071000 1.837600
2.084700 1.848500
2.098500 1.859900
2.112200 1.938300
2.126000 1.913100
2.139700 1.858200
2.153500 1.810100
2.167300 1.736300
2.181000 1.680800
2.194800 1.707100
2.208500 1.744300
2.222300 1.783800
2.236000 1.826400
2.249800 1.850200
2.263500 1.865600
2.277300 1.857300
2.291000 1.840200
2.304800 1.831300
2.318500 1.856400
2.332300 1.952800
2.346000 2.000000
2.359800 2.006700
2.373500 2.090100
2.387300 2.216500
2.401000 2.348200
2.414800 2.474800
2.428500 2.581100
2.442300 2.682500
2.456000 2.778900
2.469800 2.878400
2.483500 2.936100
2.497300 3.023700
2.511000 3.106800
2.524800 3.093400
2.538600 3.140000
2.552300 3.214900
2.566100 3.164500
2.579800 3.118500
2.593600 3.091700
2.607300 3.107900
2.621100 3.227400
2.634800 3.283500
2.648600 3.313300
2.662300 3.353900
2.676100 3.387400
2.689800 3.408200
2.703600 3.416900
2.717300 3.459900
2.731100 3.499100
2.744800 3.520600
2.758600 3.526000
2.772300 3.544300
2.786100 3.568500
2.799800 3.562500
2.813600 3.528900
2.827300 3.529300
2.841100 3.536100
2.854800 3.560800
2.868600 3.604700
2.882300 3.733400
2.896100 3.781800
2.909800 3.817000
2.923600 3.837800
2.937400 3.849200
2.951100 3.852500
2.964900 3.861400
2.978600 3.902700
2.992400 3.937400
3.006100 3.898100
3.019900 3.879800
3.033600 3.884900
3.047400 3.900500
3.061100 3.918500
3.074900 3.935400
3.088600 3.967600
3.102400 4.010100
3.116100 4.047800
3.129900 3.964100
3.143600 3.894800
3.157400 3.858600
3.171100 3.878000
3.184900 3.928600
3.198600 4.012600
3.212400 4.127100
3.226100 4.268900
3.239900 4.424100
3.253600 4.565800
3.267400 4.639200
3.281100 4.627800
3.294900 4.623900
3.308700 4.599800
3.322400 4.549900
3.336200 4.505700
3.349900 4.502800
3.363700 4.517500
3.377400 4.526900
3.391200 4.508900
3.404900 4.550200
3.418700 4.514600
3.432400 4.469600
3.446200 4.454300
3.459900 4.491300
3.473700 4.540600
3.487400 4.579800
3.501200 4.607700
3.514900 4.638800
3.528700 4.708000
3.542400 4.791000
3.556200 4.856500
3.569900 4.932400
3.583700 4.868500
3.597400 4.629500
3.611200 4.386500
3.624900 4.223100
3.638700 4.056500
3.652400 3.882600
3.666200 3.740400
3.680000 3.641600
3.693700 3.581700
3.707500 3.565300
3.721200 3.578000
3.735000 3.608300
3.748700 3.646600
3.762500 3.701800
3.776200 3.795500
3.790000 3.908200
3.803700 4.014800
3.817500 4.109200
3.831200 4.212600
3.845000 4.383200
3.858700 4.502100
3.872500 4.611300
3.886200 4.737200
3.900000 4.821500
3.913700 4.656800
3.927500 4.451600
3.941200 4.348800
3.955000 4.286700
3.968700 4.201100
3.982500 4.150300
3.996200 4.144200
4.010000 4.169500
4.023700 4.162200
4.037500 4.088700
4.051300 4.033300
4.065000 4.005400
4.078800 4.002600
4.092500 4.012700
4.106300 4.027300
4.120000 4.015200
4.133800 4.035100
4.147500 4.122400
4.161300 4.221400
4.175000 4.280100
4.188800 4.385100
4.202500 4.539200
4.216300 4.968100
4.230000 4.861200
4.243800 4.762800
4.257500 4.652800
4.271300 4.462000
4.285000 4.335100
4.298800 4.261800
4.312500 4.199800
4.326300 4.129400
4.340000 4.066700
4.353800 4.036100
4.367500 4.039600
4.381300 4.065300
4.395000 4.097400
4.408800 4.163000
4.422600 4.207200
4.436300 4.258300
4.450100 4.361200
4.463800 4.465900
4.477600 4.502900
4.491300 4.521100
4.505100 4.523200
4.518800 4.497600
4.532600 4.478900
4.546300 4.527400
4.560100 4.595300
4.573800 4.569000
4.587600 4.515800
4.601300 4.521200
4.615100 4.634900
4.628800 4.555500
4.642600 4.507200
4.656300 4.316100
4.670100 4.152600
4.683800 3.992500
4.697600 3.858300
4.711300 3.841400
4.725100 3.856900
4.738800 3.922100
4.752600 4.008900
4.766300 4.124700
4.780100 4.261800
4.793800 4.411200
4.807600 4.574500
4.821400 4.861100
4.835100 5.093000
4.848900 5.195500
4.862600 5.268500
4.876400 5.290400
4.890100 5.314400
4.903900 5.270700
4.917600 5.147100
4.931400 4.990100
4.945100 4.820700
4.958900 4.705800
4.972600 4.603500
4.986400 4.820900
5.000100 4.823600
5.013900 4.630300
5.027600 4.433600
5.041400 4.268000
5.055100 4.165800
5.068900 4.046100
5.082600 3.951500
5.096400 3.928500
5.110100 3.911800
5.123900 4.014000
5.137600 4.270200
5.151400 4.363400
5.165100 4.402000
5.178900 4.417200
5.192700 4.402300
5.206400 4.341600
5.220200 4.146100
5.233900 3.810200
5.247700 3.355500
5.261400 2.887900
5.275200 2.479600
5.288900 2.156600
5.302700 1.925800
5.316400 1.765400
5.330200 1.632800
5.343900 1.542100
5.357700 1.459100
5.371400 1.422900
5.385200 1.390800
5.398900 1.363200
5.412700 1.340700
5.426400 1.322100
5.440200 1.305900
5.453900 1.301100
5.467700 1.292600
5.481400 1.276700
5.495200 1.263500
5.508900 1.255500
5.522700 1.255600
5.536400 1.261100
5.550200 1.264100
5.564000 1.266200
5.577700 1.269100
5.591500 1.280100
5.605200 1.316500
5.619000 1.351100
5.632700 1.383700
5.646500 1.440100
5.660200 1.451600
5.674000 1.460900
5.687700 1.449100
5.701500 1.423700
5.715200 1.374800
5.729000 1.299300
5.742700 1.196900
5.756500 1.081400
5.770200 1.104200
5.784000 1.129100
5.797700 1.150700
5.811500 1.169900
5.825200 1.186600
5.839000 1.200700
5.852700 1.215000
5.866500 1.229200
5.880200 1.243000
5.894000 1.234400
5.907700 1.217100
5.921500 1.202900
5.935300 1.203900
5.949000 1.209100
5.962800 1.214500
5.976500 1.219800
5.990300 1.226200
6.004000 1.234300
6.017800 1.243000
6.031500 1.252800
6.045300 1.266200
6.059000 1.287400
6.072800 1.316600
6.086500 1.352100
6.100300 1.387300
6.114000 1.424700
6.127800 1.468800
6.141500 1.516200
6.155300 1.565200
6.169000 1.615800
6.182800 1.669600
6.196500 1.728400
6.210300 1.842800
6.224000 2.023500
6.237800 2.210600
6.251500 2.362000
6.265300 2.418400
6.279000 2.586600
6.292800 2.754400
6.306500 2.818800
6.320300 2.672400
6.334100 2.507500
6.347800 2.371100
6.361600 2.252700
6.375300 2.153500
6.389100 2.089500
6.402800 2.102300
6.416600 1.956800
6.430300 1.850900
6.444100 1.729700
6.457800 1.605000
6.471600 1.495400
6.485300 1.404800
6.499100 1.343300
6.512800 1.307400
6.526600 1.256600
6.540300 1.195500
6.554100 1.134600
6.567800 1.092600
6.581600 1.088600
6.595300 1.120000
6.609100 1.148400
6.622800 1.166000
6.636600 1.184900
6.650300 1.198700
6.664100 1.211500
6.677800 1.241500
6.691600 1.295300
6.705400 1.360700
6.719100 1.419900
6.732900 1.469700
6.746600 1.490300
6.760400 1.493900
6.774100 1.523200
6.787900 1.563600
6.801600 1.626900
6.815400 1.731300
6.829100 1.878000
6.842900 2.003100
6.856600 2.056900
6.870400 2.095500
6.884100 2.140000
6.897900 2.176700
6.911600 2.222900
6.925400 2.260400
6.939100 2.326600
6.952900 2.414900
6.966600 2.519200
6.980400 2.638000
6.994100 2.778800
7.007900 2.949200
7.021600 2.965700
7.035400 2.995700
7.049100 3.124200
7.062900 3.339500
7.076700 3.675700
7.090400 4.223800
7.104200 4.056200
7.117900 4.146000
7.131700 4.208900
7.145400 4.176500
7.159200 4.105400
7.172900 4.006700
7.186700 3.899000
7.200400 3.812400
7.214200 3.755200
7.227900 3.720200
7.241700 3.797700
7.255400 3.776900
7.269200 3.904500
7.282900 3.901800
7.296700 3.582500
7.310400 3.365900
7.324200 3.209600
7.337900 3.049700
7.351700 2.907000
7.365400 2.771500
7.379200 2.581600
7.392900 2.376400
7.406700 2.201700
7.420400 2.068800
7.434200 1.865700
7.448000 1.622200
7.461700 1.408400
7.475500 1.216500
7.489200 1.098600
7.503000 1.005800
7.516700 0.919400
7.530500 0.841600
7.544200 0.764600
7.558000 0.689300
7.571700 0.617700
7.585500 0.550800
7.599200 0.483800
7.613000 0.415100
7.626700 0.351800
7.640500 0.293300
7.654200 0.238900
7.668000 0.188700
7.681700 0.143200
7.695500 0.104200
7.709200 0.071600
7.723000 0.045200
7.736700 0.025100
7.750500 0.011100
7.764200 0.003400
7.778000 0.000200
7.791700 0.000000
7.805500 0.000000
7.819200 0.000000
7.833000 0.000000
7.846800 0.000000
7.860500 0.000000
7.874300 0.000000
7.888000 0.000000
7.901800 0.000000
7.915500 0.000000
7.929300 0.000300
7.943000 0.002400
7.956800 0.006600
7.970500 0.013500
7.984300 0.023500
7.998000 0.040700
8.011800 0.060300
8.025500 0.080000
8.039300 0.099900
8.053000 0.119900
8.066800 0.140100
8.080500 0.160400
8.094300 0.180800
8.108000 0.201400
8.121800 0.222100
8.135500 0.234200
8.149300 0.222800
8.163000 0.201200
8.176800 0.195200
8.190500 0.198000
8.204300 0.201600
8.218100 0.204500
8.231800 0.207500
8.245600 0.210400
8.259300 0.213500
8.273100 0.216500
8.286800 0.219600
8.300600 0.222700
8.314300 0.225900
8.328100 0.229100
8.341800 0.232300
8.355600 0.235500
8.369300 0.238800
8.383100 0.242200
8.396800 0.245500
8.410600 0.248900
8.424300 0.252800
8.438100 0.264400
8.451800 0.294200
8.465600 0.384400
8.479300 0.498900
8.493100 0.625200
8.506800 0.779700
8.520600 1.003700
8.534300 1.183300
8.548100 1.342400
8.561800 1.497300
8.575600 1.643100
8.589400 1.766100
8.603100 1.860800
8.616900 1.948500
8.630600 2.018000
8.644400 2.072800
8.658100 2.115900
8.671900 2.149600
8.685600 2.180200
8.699400 2.205900
8.713100 2.218300
8.726900 2.246400
8.740600 2.301000
8.754400 2.369900
8.768100 2.438200
8.781900 2.497500
8.795600 2.620700
8.809400 3.256400
8.823100 3.537500
8.836900 3.259200
8.850600 3.186400
8.864400 3.155400
8.878100 3.058900
8.891900 2.961400
8.905600 2.999400
8.919400 3.173300
8.933100 3.301300
8.946900 2.856300
8.960700 2.517700
8.974400 2.380800
8.988200 2.309700
9.001900 2.254000
9.015700 2.233600
9.029400 2.239000
9.043200 2.255000
9.056900 2.290500
9.070700 2.308000
9.084400 2.309900
9.098200 2.325900
9.111900 2.363600
9.125700 2.427200
9.139400 2.597500
9.153200 2.726200
9.166900 2.837000
9.180700 2.910900
9.194400 2.978300
9.208200 3.482500
9.221900 3.866400
9.235700 4.484300
9.249400 5.114800
9.263200 5.592700
9.276900 5.916600
9.290700 6.157700
9.304400 6.390100
9.318200 6.516700
9.331900 6.552200
9.345700 6.579000
9.359500 6.647200
9.373200 6.602000
9.387000 6.369700
9.400700 6.211000
9.414500 6.063100
9.428200 5.698900
9.442000 5.321000
9.455700 4.830200
9.469500 4.486400
9.483200 4.211600
9.497000 4.011200
9.510700 3.904200
9.524500 3.851200
9.538200 3.824300
9.552000 3.795500
9.565700 3.778300
9.579500 3.785400
9.593200 3.782800
9.607000 3.764300
9.620700 3.782000
9.634500 3.785500
9.648200 3.823100
9.662000 3.767900
9.675700 3.859900
9.689500 3.940800
9.703200 3.841100
9.717000 3.757000
9.730800 3.748200
9.744500 3.753300
9.758300 3.798200
9.772000 3.854400
9.785800 3.920100
9.799500 4.000900
9.813300 3.947900
9.827000 3.912300
9.840800 3.919300
9.854500 3.946900
9.868300 3.962600
9.882000 3.969600
9.895800 3.966300
9.909500 3.982200
9.923300 3.988500
9.937000 3.961600
9.950800 3.989000
9.964500 4.043700
9.978300 4.112200
9.992000 4.187500
10.005800 4.286600
10.019500 4.360000
10.033300 4.419600
10.047000 4.503600
10.060800 4.565900
10.074500 4.692600
10.088300 4.840000
10.102100 4.951300
10.115800 5.031600
10.129600 5.029700
10.143300 5.068900
10.157100 5.016600
10.170800 4.836800
10.184600 4.792500
10.198300 4.783300
10.212100 4.789200
10.225800 4.962900
10.239600 5.013300
10.253300 5.038000
10.267100 5.053200
10.280800 5.001000
10.294600 4.974600
10.308300 4.910100
10.322100 4.892100
10.335800 4.853600
10.349600 4.870400
10.363300 4.916600
10.377100 4.993000
10.390800 5.052400
10.404600 5.066900
10.418300 4.999700
10.432100 5.019500
10.445800 4.900700
10.459600 4.836500
10.473400 4.719100
10.487100 4.531000
10.500900 4.409300
10.514600 4.310600
10.528400 4.233300
10.542100 4.177900
10.555900 4.121500
10.569600 4.092300
10.583400 4.142000
10.597100 4.186500
10.610900 4.206800
10.624600 4.218800
10.638400 4.253600
10.652100 4.305200
10.665900 4.410500
10.679600 4.530400
10.693400 4.679800
10.707100 4.696000
10.720900 4.664200
10.734600 4.589200
10.748400 4.545900
10.762100 4.407900
10.775900 4.387700
10.789600 4.519900
10.803400 4.484600
10.817100 4.433600
10.830900 4.420300
10.844700 4.414800
10.858400 4.401900
10.872200 4.456800
10.885900 4.520000
10.899700 4.523100
10.913400 4.521600
10.927200 4.492200
10.940900 4.265200
10.954700 3.956300
10.968400 3.726800
10.982200 3.578100
10.995900 3.485100
11.009700 3.455200
11.023400 3.543400
11.037200 3.728800
11.050900 3.907100
11.064700 4.109700
11.078400 4.360500
11.092200 4.490700
11.105900 4.699100
11.119700 4.655400
11.133400 4.656300
11.147200 4.688200
11.160900 4.631200
11.174700 4.511300
11.188400 4.458200
11.202200 4.437100
11.215900 4.430200
11.229700 4.447000
11.243500 4.468200
11.257200 4.438100
11.271000 4.419700
11.284700 4.403100
11.298500 4.372200
11.312200 4.328900
11.326000 4.275700
11.339700 4.224100
11.353500 4.191100
11.367200 4.099700
11.381000 4.022600
11.394700 4.017100
11.408500 4.009100
11.422200 3.996300
11.436000 3.973500
11.449700 3.947300
11.463500 3.918400
11.477200 3.890200
11.491000 3.863500
11.504700 3.834100
11.518500 3.822000
11.532200 3.830600
11.546000 3.840100
11.559700 3.835200
11.573500 3.856500
11.587200 3.891600
11.601000 3.836900
11.614800 3.715700
11.628500 3.597800
11.642300 3.520300
11.656000 3.486000
11.669800 3.522400
11.683500 3.565200
11.697300 3.678200
11.711000 3.668400
11.724800 3.624700
11.738500 3.555700
11.752300 3.527900
11.766000 3.537400
11.779800 3.536900
11.793500 3.563900
11.807300 3.599100
11.821000 3.634500
11.834800 3.773400
11.848500 3.747700
11.862300 3.794000
11.876000 3.821800
11.889800 3.824000
11.903500 3.759500
11.917300 3.609800
11.931000 3.475600
11.944800 3.416100
11.958500 3.399400
11.972300 3.401900
11.986100 3.288100
11.999800 3.246800
12.013600 3.175400
12.027300 3.094600
12.041100 3.025700
12.054800 3.014500
12.068600 2.991400
12.082300 2.939400
12.096100 2.905000
12.109800 2.875600
12.123600 2.856400
12.137300 2.836600
12.151100 2.824900
12.164800 2.827900
12.178600 2.840400
12.192300 2.866000
12.206100 2.916600
12.219800 3.003400
12.233600 3.096900
12.247300 3.178100
12.261100 3.245600
12.274800 3.313100
12.288600 3.529200
12.302300 3.482700
12.316100 3.408300
12.329800 3.385200
12.343600 3.378100
12.357400 3.394500
12.371100 3.379200
12.384900 3.352800
12.398600 3.341100
12.412400 3.310300
12.426100 3.290100
12.439900 3.283900
12.453600 3.276000
12.467400 3.244000
12.481100 3.239100
12.494900 3.242800
12.508600 3.260800
12.522400 3.257600
12.536100 3.260900
12.549900 3.268200
12.563600 3.284500
12.577400 3.319800
12.591100 3.367700
12.604900 3.427200
12.618600 3.522500
12.632400 3.673500
12.646100 3.929100
12.659900 4.215800
12.673600 4.455000
12.687400 4.524500
12.701100 4.458700
12.714900 4.382400
12.728600 4.292800
12.742400 4.140200
12.756200 4.091700
12.769900 4.077400
12.783700 4.067500
12.797400 4.057200
12.811200 4.036600
12.824900 4.016900
12.838700 3.982400
12.852400 3.915800
12.866200 3.889800
12.879900 3.917300
12.893700 3.980400
12.907400 3.910400
12.921200 3.906200
12.934900 3.891500
12.948700 3.856700
12.962400 3.809000
12.976200 3.870200
12.989900 3.793700
13.003700 3.676300
13.017400 3.550700
13.031200 3.441200
13.044900 3.346100
13.058700 3.273900
13.072400 3.248200
13.086200 3.243100
13.099900 3.291400
13.113700 3.299800
13.127500 3.240500
13.141200 3.174500
13.155000 3.161800
13.168700 3.175300
13.182500 3.198500
13.196200 3.221100
13.210000 3.242500
13.223700 3.262000
13.237500 3.275400
13.251200 3.293000
13.265000 3.346500
13.278700 3.320500
13.292500 3.241000
13.306200 3.063000
13.320000 2.865400
13.333700 2.705600
13.347500 2.658700
13.361200 2.638400
13.375000 2.615800
13.388700 2.602700
13.402500 2.591800
13.416200 2.580700
13.430000 2.564000
13.443700 2.558900
13.457500 2.583000
13.471200 2.640400
13.485000 2.740200
13.498800 2.861400
13.512500 2.970500
13.526300 3.040400
13.540000 3.096500
13.553800 3.065700
13.567500 3.039700
13.581300 3.042100
13.595000 3.064600
13.608800 3.096400
13.622500 3.127000
13.636300 3.160500
13.650000 3.167500
13.663800 3.154400
13.677500 3.144200
13.691300 3.131400
13.705000 3.137000
13.718800 3.222500
13.732500 3.231100
13.746300 3.195700
13.760000 3.156700
13.773800 3.146200
13.787500 3.143300
13.801300 3.142000
13.815000 3.132800
13.828800 3.103100
13.842500 3.064500
13.856300 3.037400
13.870100 3.009400
13.883800 2.967500
13.897600 2.916900
13.911300 2.886700
13.925100 2.909100
13.938800 2.910300
13.952600 2.887200
13.966300 2.860600
13.980100 2.804400
13.993800 2.747500
14.007600 2.693200
14.021300 2.653900
14.035100 2.616700
14.048800 2.585200
14.062600 2.562500
14.076300 2.541700
14.090100 2.521700
14.103800 2.505100
14.117600 2.493700
14.131300 2.487900
14.145100 2.487700
14.158800 2.501300
14.172600 2.513500
14.186300 2.537200
14.200100 2.612900
14.213800 2.664000
14.227600 2.677600
14.241300 2.723500
14.255100 2.761000
14.268900 2.708500
14.282600 2.691300
14.296400 2.673800
14.310100 2.654900
14.323900 2.632900
14.337600 2.609600
14.351400 2.575400
14.365100 2.537000
14.378900 2.502900
14.392600 2.477500
14.406400 2.457200
14.420100 2.439900
14.433900 2.426500
14.447600 2.412100
14.461400 2.399600
14.475100 2.390600
14.488900 2.384400
14.502600 2.381400
14.516400 2.381700
14.530100 2.383100
14.543900 2.383100
14.557600 2.382100
14.571400 2.380900
14.585100 2.380400
14.598900 2.382300
14.612600 2.387900
14.626400 2.387000
14.640200 2.380500
14.653900 2.367000
14.667700 2.431300
14.681400 2.260600
14.695200 2.234800
14.708900 2.217000
14.722700 2.210800
14.736400 2.210300
14.750200 2.199300
14.763900 2.198700
14.777700 2.201600
14.791400 2.205600
14.805200 2.214600
14.818900 2.225700
14.832700 2.257200
14.846400 2.288200
14.860200 2.303900
14.873900 2.323400
14.887700 2.346600
14.901400 2.374500
14.915200 2.406700
14.928900 2.443500
14.942700 2.474100
14.956400 2.430200
14.970200 2.396100
14.983900 2.369000
14.997700 2.353400
15.011500 2.347100
15.025200 2.350100
15.039000 2.354900
15.052700 2.349600
15.066500 2.341100
15.080200 2.333400
15.094000 2.324100
15.107700 2.308600
15.121500 2.295100
15.135200 2.279400
15.149000 2.278500
15.162700 2.284200
15.176500 2.250200
15.190200 2.157800
15.204000 1.989500
15.217700 1.902900
15.231500 1.832100
15.245200 1.774700
15.259000 1.725900
15.272700 1.683900
15.286500 1.643800
15.300200 1.604100
15.314000 1.564300
15.327700 1.527100
15.341500 1.499300
15.355200 1.487600
15.369000 1.519500
15.382800 1.584200
15.396500 1.546800
15.410300 1.495800
15.424000 1.376000
15.437800 1.280600
15.451500 1.229800
15.465300 1.181900
15.479000 1.139600
15.492800 1.104300
15.506500 1.076900
15.520300 1.057200
15.534000 1.046900
15.547800 1.028400
15.561500 1.000900
15.575300 0.962900
15.589000 0.924200
15.602800 0.891000
15.616500 0.859000
15.630300 0.817100
15.644000 0.742100
15.657800 0.626900
15.671500 0.530300
15.685300 0.451200
15.699000 0.379800
15.712800 0.316400
15.726500 0.256000
15.740300 0.210300
15.754000 0.175500
15.767800 0.141600
15.781600 0.106500
15.795300 0.067800
15.809100 0.032000
15.822800 0.022300
15.836600 0.016200
15.850300 0.011500
15.864100 0.007900
15.877800 0.005100
15.891600 0.002900
15.905300 0.001300
15.919100 0.000400
15.932800 0.000000
15.946600 0.000000
15.960300 0.000000
15.974100 0.000000
15.987800 0.000000
16.001600 0.000000
16.015300 0.000000
16.029100 0.000000
16.042800 0.000000
16.056600 0.000000
16.070300 0.000000
16.084100 0.000000
16.097800 0.000000
16.111600 0.000000
16.125300 0.000000
16.139100 0.000000
16.152900 0.000000
16.166600 0.000000
16.180400 0.000000
16.194100 0.000000
16.207900 0.000000
16.221600 0.000000
16.235400 0.000000
16.249100 0.000000
16.262900 0.000000
16.276600 0.000000
16.290400 0.000000
16.304100 0.000000
16.317900 0.000000
16.331600 0.000000
16.345400 0.000000
16.359100 0.000000
16.372900 0.000000
16.386600 0.000000
16.400400 0.000000
16.414100 0.000000
16.427900 0.000000
16.441600 0.000000
16.455400 0.000000
16.469100 0.000000
16.482900 0.000000
16.496600 0.000000
16.510400 0.000000
16.524200 0.000000
16.537900 0.000000
16.551700 0.000000
16.565400 0.000000
16.579200 0.000000
16.592900 0.000000
16.606700 0.000000
16.620400 0.000000
16.634200 0.000000
16.647900 0.000000
16.661700 0.000000
16.675400 0.000000
16.689200 0.000000
16.702900 0.000000
16.716700 0.000000
16.730400 0.000000
16.744200 0.000000
16.757900 0.000000
16.771700 0.000000
16.785400 0.000000
16.799200 0.000000
16.812900 0.000000
16.826700 0.000000
16.840400 0.000000
16.854200 0.000000
16.867900 0.000000
16.881700 0.000000
16.895500 0.000000
16.909200 0.000000
16.923000 0.000000
16.936700 0.000000
16.950500 0.000000
16.964200 0.000000
16.978000 0.000000
16.991700 0.000000
17.005500 0.000000
17.019200 0.000000
17.033000 0.000000
17.046700 0.000000
17.060500 0.000000
17.074200 0.000000
17.088000 0.000000
17.101700 0.000000
17.115500 0.000000
17.129200 0.000000
17.143000 0.000000
17.156700 0.000000
17.170500 0.000000
17.184200 0.000000
e
