set title 'mp-19921 - Density of States'
set xlabel 'Energy (eV)'
set ylabel 'DOS (states/eV)'
set grid
set xrange [-10:10]
set yrange [0:8.113]
set xzeroaxis lt -1
set terminal png size 800,600
set output 'mp-19921_dos_gnuplot.png'
plot '-' using 1:2 with lines title 'DOS'
-15.427500 0.000000
-15.409000 0.000000
-15.390400 0.000000
-15.371900 0.000000
-15.353400 0.000000
-15.334900 0.000000
-15.316300 0.000000
-15.297800 0.000000
-15.279300 0.000000
-15.260800 0.000000
-15.242200 0.000000
-15.223700 0.000000
-15.205200 0.000000
-15.186700 0.000000
-15.168100 0.000000
-15.149600 0.000000
-15.131100 0.000000
-15.112500 0.000000
-15.094000 0.000000
-15.075500 0.000000
-15.057000 0.000000
-15.038400 0.000000
-15.019900 0.000000
-15.001400 0.000000
-14.982900 0.000000
-14.964300 0.000000
-14.945800 0.000000
-14.927300 0.000000
-14.908800 0.000000
-14.890200 0.000000
-14.871700 0.000000
-14.853200 0.000000
-14.834700 0.000000
-14.816100 0.000000
-14.797600 0.000000
-14.779100 0.000000
-14.760600 0.000000
-14.742000 0.000000
-14.723500 0.000000
-14.705000 0.000000
-14.686500 0.000000
-14.667900 0.000000
-14.649400 0.000000
-14.630900 0.000000
-14.612400 0.000000
-14.593800 0.000000
-14.575300 0.000000
-14.556800 0.000000
-14.538300 0.000000
-14.519700 0.000000
-14.501200 0.000000
-14.482700 0.000000
-14.464100 0.000000
-14.445600 0.000000
-14.427100 0.000000
-14.408600 0.000000
-14.390000 0.000000
-14.371500 0.000000
-14.353000 0.000000
-14.334500 0.000000
-14.315900 0.000000
-14.297400 0.000000
-14.278900 0.000000
-14.260400 0.000000
-14.241800 0.000000
-14.223300 0.000000
-14.204800 0.000000
-14.186300 0.000000
-14.167700 0.000000
-14.149200 0.000000
-14.130700 0.000000
-14.112200 0.000000
-14.093600 0.000000
-14.075100 0.000000
-14.056600 0.000000
-14.038100 0.000000
-14.019500 0.000000
-14.001000 0.000000
-13.982500 0.000000
-13.964000 0.000000
-13.945400 0.000000
-13.926900 0.000000
-13.908400 0.000000
-13.889900 0.000000
-13.871300 0.000000
-13.852800 0.000000
-13.834300 0.000000
-13.815700 0.000000
-13.797200 0.000000
-13.778700 0.000000
-13.760200 0.000000
-13.741600 0.187400
-13.723100 4.176100
-13.704600 4.509400
-13.686100 4.998300
-13.667500 5.259900
-13.649000 5.867400
-13.630500 6.318500
-13.612000 6.940800
-13.593400 7.797100
-13.574900 8.780900
-13.556400 9.941700
-13.537900 11.486600
-13.519300 14.704800
-13.500800 11.884500
-13.482300 76.392600
-13.463800 17.904600
-13.445200 15.171600
-13.426700 14.508600
-13.408200 13.932400
-13.389700 13.142000
-13.371100 0.000000
-13.352600 0.000000
-13.334100 0.000000
-13.315600 0.000000
-13.297000 0.000000
-13.278500 0.000000
-13.260000 0.000000
-13.241500 0.000000
-13.222900 0.000000
-13.204400 0.000000
-13.185900 0.000000
-13.167400 0.000000
-13.148800 0.000000
-13.130300 0.000000
-13.111800 0.000000
-13.093200 0.000000
-13.074700 0.000000
-13.056200 0.000000
-13.037700 0.000000
-13.019100 0.000000
-13.000600 0.000000
-12.982100 0.000000
-12.963600 0.000000
-12.945000 0.000000
-12.926500 0.000000
-12.908000 0.000000
-12.889500 0.000000
-12.870900 0.000000
-12.852400 0.000000
-12.833900 0.000000
-12.815400 0.000000
-12.796800 0.000000
-12.778300 0.000000
-12.759800 0.000000
-12.741300 0.000000
-12.722700 0.000000
-12.704200 0.000000
-12.685700 0.000000
-12.667200 0.000000
-12.648600 0.000000
-12.630100 0.000000
-12.611600 0.000000
-12.593100 0.000000
-12.574500 0.000000
-12.556000 0.000000
-12.537500 0.000000
-12.519000 0.000000
-12.500400 0.000000
-12.481900 0.000000
-12.463400 0.000000
-12.444800 0.000000
-12.426300 0.000000
-12.407800 0.000000
-12.389300 0.000000
-12.370700 0.000000
-12.352200 0.000000
-12.333700 0.000000
-12.315200 0.000000
-12.296600 0.000000
-12.278100 0.000000
-12.259600 0.000000
-12.241100 0.000000
-12.222500 0.000000
-12.204000 0.000000
-12.185500 0.000000
-12.167000 0.000000
-12.148400 0.000000
-12.129900 0.000000
-12.111400 0.000000
-12.092900 0.000000
-12.074300 0.000000
-12.055800 0.000000
-12.037300 0.000000
-12.018800 0.000000
-12.000200 0.000000
-11.981700 0.000000
-11.963200 0.000000
-11.944700 0.000000
-11.926100 0.000000
-11.907600 0.000000
-11.889100 0.000000
-11.870600 0.000000
-11.852000 0.000000
-11.833500 0.000000
-11.815000 0.000000
-11.796400 0.000000
-11.777900 3.594000
-11.759400 28.152900
-11.740900 52.207500
-11.722300 75.086000
-11.703800 90.400500
-11.685300 96.884600
-11.666800 73.255200
-11.648200 47.989300
-11.629700 88.681800
-11.611200 80.042500
-11.592700 142.949900
-11.574100 4.786700
-11.555600 2.361800
-11.537100 2.370800
-11.518600 2.235300
-11.500000 2.360200
-11.481500 2.487100
-11.463000 2.336400
-11.444500 2.348100
-11.425900 2.422700
-11.407400 2.514600
-11.388900 2.413100
-11.370400 2.396600
-11.351800 2.415000
-11.333300 2.451200
-11.314800 2.499200
-11.296300 2.563500
-11.277700 2.497300
-11.259200 2.490200
-11.240700 2.507000
-11.222200 2.544800
-11.203600 2.593200
-11.185100 2.641600
-11.166600 2.693700
-11.148000 2.687500
-11.129500 2.712200
-11.111000 2.756500
-11.092500 2.798600
-11.073900 2.860000
-11.055400 2.932200
-11.036900 3.012800
-11.018400 3.092800
-10.999800 4.797600
-10.981300 3.666100
-10.962800 3.141100
-10.944300 2.813700
-10.925700 2.612500
-10.907200 2.408900
-10.888700 2.216300
-10.870200 2.034500
-10.851600 7.427500
-10.833100 6.491800
-10.814600 6.193800
-10.796100 5.855900
-10.777500 6.066800
-10.759000 4.206800
-10.740500 3.887600
-10.722000 3.737600
-10.703400 3.671300
-10.684900 3.605900
-10.666400 3.391800
-10.647900 3.250500
-10.629300 3.136500
-10.610800 3.015500
-10.592300 2.993600
-10.573800 3.040000
-10.555200 2.982400
-10.536700 2.874700
-10.518200 2.793900
-10.499600 2.648300
-10.481100 2.664000
-10.462600 2.726600
-10.444100 2.720100
-10.425500 2.615500
-10.407000 2.528600
-10.388500 2.473700
-10.370000 2.729700
-10.351400 2.514000
-10.332900 2.404800
-10.314400 2.514200
-10.295900 2.428200
-10.277300 2.812800
-10.258800 0.000000
-10.240300 0.000000
-10.221800 0.000000
-10.203200 0.000000
-10.184700 0.000000
-10.166200 0.000000
-10.147700 0.000000
-10.129100 0.000000
-10.110600 0.000000
-10.092100 0.000000
-10.073600 0.000000
-10.055000 0.000000
-10.036500 0.000000
-10.018000 0.000000
-9.999500 0.000000
-9.980900 0.000000
-9.962400 0.000000
-9.943900 0.000000
-9.925400 0.000000
-9.906800 0.000000
-9.888300 0.000000
-9.869800 0.000000
-9.851300 0.000000
-9.832700 0.000000
-9.814200 0.000000
-9.795700 0.000000
-9.777100 0.000000
-9.758600 0.000000
-9.740100 0.000000
-9.721600 0.000000
-9.703000 0.000000
-9.684500 0.000000
-9.666000 0.000000
-9.647500 0.000000
-9.628900 0.000000
-9.610400 0.000000
-9.591900 0.000000
-9.573400 0.000000
-9.554800 0.000000
-9.536300 0.000000
-9.517800 0.000000
-9.499300 0.000000
-9.480700 0.000000
-9.462200 0.000000
-9.443700 0.000000
-9.425200 0.000000
-9.406600 0.000000
-9.388100 0.000000
-9.369600 0.000000
-9.351100 0.000000
-9.332500 0.000000
-9.314000 0.000000
-9.295500 0.000000
-9.277000 0.000000
-9.258400 0.000000
-9.239900 0.000000
-9.221400 0.000000
-9.202900 0.000000
-9.184300 0.000000
-9.165800 0.000000
-9.147300 0.000000
-9.128700 0.000000
-9.110200 0.000000
-9.091700 0.000000
-9.073200 0.000000
-9.054600 0.000000
-9.036100 0.000000
-9.017600 0.000000
-8.999100 0.000000
-8.980500 0.000000
-8.962000 0.000000
-8.943500 0.000000
-8.925000 0.000000
-8.906400 0.000000
-8.887900 0.000000
-8.869400 0.000000
-8.850900 0.000000
-8.832300 0.000000
-8.813800 0.000000
-8.795300 0.000000
-8.776800 0.000000
-8.758200 0.000000
-8.739700 0.000000
-8.721200 0.000000
-8.702700 0.000000
-8.684100 0.000000
-8.665600 0.000000
-8.647100 0.000000
-8.628600 0.000000
-8.610000 0.000000
-8.591500 0.000000
-8.573000 0.000000
-8.554500 0.000000
-8.535900 0.000000
-8.517400 0.000000
-8.498900 0.000000
-8.480300 0.000000
-8.461800 0.000000
-8.443300 0.000000
-8.424800 0.000000
-8.406200 0.000000
-8.387700 0.000000
-8.369200 0.000000
-8.350700 0.000000
-8.332100 0.000000
-8.313600 0.000000
-8.295100 0.000000
-8.276600 0.000000
-8.258000 0.000000
-8.239500 0.000000
-8.221000 0.000000
-8.202500 0.000000
-8.183900 0.000000
-8.165400 0.000000
-8.146900 0.000000
-8.128400 0.000000
-8.109800 0.000000
-8.091300 0.000000
-8.072800 0.000000
-8.054300 0.000000
-8.035700 0.000000
-8.017200 0.000000
-7.998700 0.000000
-7.980200 0.000000
-7.961600 0.000000
-7.943100 0.000000
-7.924600 0.000000
-7.906100 0.000000
-7.887500 0.000000
-7.869000 0.000000
-7.850500 0.000000
-7.831900 0.000000
-7.813400 0.000000
-7.794900 0.000000
-7.776400 0.000000
-7.757800 0.000000
-7.739300 0.000000
-7.720800 0.000000
-7.702300 0.000000
-7.683700 0.000000
-7.665200 0.000000
-7.646700 0.000000
-7.628200 0.000000
-7.609600 0.000000
-7.591100 0.000000
-7.572600 0.000000
-7.554100 0.000000
-7.535500 0.000000
-7.517000 0.000000
-7.498500 0.000000
-7.480000 0.000000
-7.461400 0.000000
-7.442900 0.000000
-7.424400 0.000000
-7.405900 0.000000
-7.387300 0.000000
-7.368800 0.000000
-7.350300 0.000000
-7.331800 0.000000
-7.313200 0.000000
-7.294700 0.000000
-7.276200 0.000000
-7.257700 0.000000
-7.239100 0.000000
-7.220600 0.000000
-7.202100 0.000000
-7.183500 0.000000
-7.165000 0.000000
-7.146500 0.000000
-7.128000 0.000000
-7.109400 0.000000
-7.090900 0.000000
-7.072400 0.000000
-7.053900 0.000000
-7.035300 0.000000
-7.016800 0.000000
-6.998300 0.000000
-6.979800 0.000000
-6.961200 0.000000
-6.942700 0.000000
-6.924200 0.000000
-6.905700 0.000000
-6.887100 0.000000
-6.868600 0.000000
-6.850100 0.000000
-6.831600 0.000000
-6.813000 0.000000
-6.794500 0.000000
-6.776000 0.000000
-6.757500 0.000000
-6.738900 0.000000
-6.720400 0.000000
-6.701900 0.000000
-6.683400 0.000000
-6.664800 0.000000
-6.646300 0.000000
-6.627800 0.000000
-6.609300 0.000000
-6.590700 0.000000
-6.572200 0.000000
-6.553700 0.000000
-6.535200 0.000000
-6.516600 0.000000
-6.498100 0.000000
-6.479600 0.000000
-6.461000 0.000000
-6.442500 0.000000
-6.424000 0.000000
-6.405500 0.000000
-6.386900 0.000000
-6.368400 0.000000
-6.349900 0.000000
-6.331400 0.000000
-6.312800 0.000000
-6.294300 0.000000
-6.275800 0.000000
-6.257300 0.000000
-6.238700 0.000000
-6.220200 0.000000
-6.201700 0.000000
-6.183200 0.000000
-6.164600 0.000000
-6.146100 0.000000
-6.127600 0.000000
-6.109100 0.000000
-6.090500 0.000000
-6.072000 0.000000
-6.053500 0.000000
-6.035000 0.000000
-6.016400 0.000000
-5.997900 0.000000
-5.979400 0.000000
-5.960900 0.000000
-5.942300 0.000000
-5.923800 0.000000
-5.905300 0.000000
-5.886800 0.000000
-5.868200 0.000000
-5.849700 0.000000
-5.831200 0.000000
-5.812600 0.000000
-5.794100 0.000000
-5.775600 0.000000
-5.757100 0.000000
-5.738500 0.000000
-5.720000 0.000000
-5.701500 0.000000
-5.683000 0.000000
-5.664400 0.000000
-5.645900 0.000000
-5.627400 0.000000
-5.608900 0.000000
-5.590300 0.000000
-5.571800 0.000000
-5.553300 0.000000
-5.534800 0.000000
-5.516200 0.000000
-5.497700 0.000000
-5.479200 0.000000
-5.460700 0.000000
-5.442100 0.000000
-5.423600 0.000000
-5.405100 0.000000
-5.386600 0.000000
-5.368000 0.000000
-5.349500 0.000000
-5.331000 0.000000
-5.312500 0.000000
-5.293900 0.000000
-5.275400 0.000000
-5.256900 0.000000
-5.238400 0.000000
-5.219800 0.000000
-5.201300 0.000000
-5.182800 0.000000
-5.164200 0.000000
-5.145700 0.000000
-5.127200 0.000000
-5.108700 0.000000
-5.090100 0.000000
-5.071600 0.000000
-5.053100 0.000000
-5.034600 0.000000
-5.016000 0.000000
-4.997500 0.000000
-4.979000 0.000000
-4.960500 0.000000
-4.941900 0.000000
-4.923400 0.000000
-4.904900 0.000000
-4.886400 0.000000
-4.867800 0.000000
-4.849300 0.000000
-4.830800 0.000000
-4.812300 0.000000
-4.793700 0.000000
-4.775200 0.000000
-4.756700 0.000000
-4.738200 0.000000
-4.719600 0.000000
-4.701100 0.000000
-4.682600 0.000000
-4.664100 0.000000
-4.645500 0.000000
-4.627000 0.000000
-4.608500 0.000000
-4.590000 0.000000
-4.571400 0.000000
-4.552900 0.000000
-4.534400 0.000000
-4.515800 0.000000
-4.497300 0.000000
-4.478800 0.000000
-4.460300 0.000000
-4.441700 0.000000
-4.423200 0.000000
-4.404700 0.000000
-4.386200 0.000000
-4.367600 0.000000
-4.349100 0.000000
-4.330600 0.000000
-4.312100 0.000000
-4.293500 0.000000
-4.275000 0.000000
-4.256500 0.000000
-4.238000 0.000000
-4.219400 0.000000
-4.200900 0.000000
-4.182400 0.000000
-4.163900 0.000000
-4.145300 0.000000
-4.126800 0.000000
-4.108300 0.000000
-4.089800 0.000000
-4.071200 0.000000
-4.052700 0.000000
-4.034200 0.000000
-4.015700 0.000000
-3.997100 0.000000
-3.978600 0.000000
-3.960100 0.000000
-3.941600 0.000000
-3.923000 0.000000
-3.904500 0.000000
-3.886000 0.000000
-3.867400 0.000000
-3.848900 0.130500
-3.830400 0.235100
-3.811900 0.306700
-3.793300 0.409700
-3.774800 0.460700
-3.756300 0.538200
-3.737800 0.594100
-3.719200 0.670600
-3.700700 1.257900
-3.682200 1.718700
-3.663700 2.046800
-3.645100 2.738400
-3.626600 3.126400
-3.608100 3.156900
-3.589600 3.601400
-3.571000 4.428900
-3.552500 4.351700
-3.534000 4.144700
-3.515500 3.983600
-3.496900 3.867300
-3.478400 3.768200
-3.459900 3.715500
-3.441400 3.659600
-3.422800 3.590000
-3.404300 3.548500
-3.385800 3.494700
-3.367300 3.409800
-3.348700 3.351300
-3.330200 3.313800
-3.311700 3.293400
-3.293200 3.267900
-3.274600 3.232800
-3.256100 3.179600
-3.237600 3.133800
-3.219000 3.103700
-3.200500 3.071200
-3.182000 3.027500
-3.163500 2.988600
-3.144900 2.964700
-3.126400 2.948100
-3.107900 2.935400
-3.089400 2.941000
-3.070800 3.010500
-3.052300 3.013300
-3.033800 2.949400
-3.015300 3.003000
-2.996700 2.578200
-2.978200 2.174900
-2.959700 1.933800
-2.941200 1.756900
-2.922600 1.614100
-2.904100 1.494300
-2.885600 1.291500
-2.867100 1.100400
-2.848500 1.121600
-2.830000 1.193000
-2.811500 1.226300
-2.793000 1.259800
-2.774400 1.295700
-2.755900 1.572600
-2.737400 1.907100
-2.718900 1.840300
-2.700300 1.411400
-2.681800 1.230100
-2.663300 1.215400
-2.644800 1.200000
-2.626200 1.186000
-2.607700 1.172000
-2.589200 1.158200
-2.570700 1.144800
-2.552100 1.131500
-2.533600 1.118400
-2.515100 1.106400
-2.496500 1.095500
-2.478000 1.084000
-2.459500 1.072300
-2.441000 1.060100
-2.422400 1.049500
-2.403900 1.041200
-2.385400 1.032700
-2.366900 1.022500
-2.348300 1.014300
-2.329800 1.008100
-2.311300 1.002400
-2.292800 0.996600
-2.274200 0.995000
-2.255700 0.995000
-2.237200 0.994800
-2.218700 0.993000
-2.200100 0.987300
-2.181600 0.981600
-2.163100 0.994600
-2.144600 1.001600
-2.126000 1.015900
-2.107500 1.033200
-2.089000 1.003100
-2.070500 0.960400
-2.051900 0.918400
-2.033400 0.877300
-2.014900 0.840500
-1.996400 0.807100
-1.977800 0.775900
-1.959300 0.744400
-1.940800 0.713600
-1.922300 0.684600
-1.903700 0.655800
-1.885200 0.629700
-1.866700 0.613200
-1.848100 0.597300
-1.829600 0.580800
-1.811100 0.563800
-1.792600 0.547900
-1.774000 0.535500
-1.755500 0.523300
-1.737000 0.511200
-1.718500 0.499100
-1.699900 0.487200
-1.681400 0.475700
-1.662900 0.464300
-1.644400 0.452800
-1.625800 0.441100
-1.607300 0.429300
-1.588800 0.417900
-1.570300 0.406600
-1.551700 0.395800
-1.533200 0.385500
-1.514700 0.375800
-1.496200 0.366700
-1.477600 0.357700
-1.459100 0.348900
-1.440600 0.340200
-1.422100 0.331800
-1.403500 0.323200
-1.385000 0.315300
-1.366500 0.307600
-1.348000 0.299900
-1.329400 0.291700
-1.310900 0.283300
-1.292400 0.275300
-1.273900 0.268200
-1.255300 0.262300
-1.236800 0.256300
-1.218300 0.250300
-1.199700 0.244500
-1.181200 0.238500
-1.162700 0.232300
-1.144200 0.225500
-1.125600 0.218500
-1.107100 0.211700
-1.088600 0.205000
-1.070100 0.198100
-1.051500 0.191000
-1.033000 0.184300
-1.014500 0.178200
-0.996000 0.172500
-0.977400 0.167400
-0.958900 0.162300
-0.940400 0.157200
-0.921900 0.152000
-0.903300 0.146800
-0.884800 0.141700
-0.866300 0.137400
-0.847800 0.132600
-0.829200 0.127700
-0.810700 0.122100
-0.792200 0.116100
-0.773700 0.111000
-0.755100 0.105600
-0.736600 0.099500
-0.718100 0.092900
-0.699600 0.085600
-0.681000 0.078500
-0.662500 0.072200
-0.644000 0.068800
-0.625500 0.065100
-0.606900 0.061000
-0.588400 0.056500
-0.569900 0.043800
-0.551300 0.030200
-0.532800 0.018100
-0.514300 0.007600
-0.495800 0.000000
-0.477200 0.000000
-0.458700 0.000000
-0.440200 0.000000
-0.421700 0.000000
-0.403100 0.000000
-0.384600 0.000000
-0.366100 0.000000
-0.347600 0.000000
-0.329000 0.000000
-0.310500 0.000000
-0.292000 0.000000
-0.273500 0.000000
-0.254900 0.000000
-0.236400 0.000000
-0.217900 0.000000
-0.199400 0.018800
-0.180800 0.321500
-0.162300 0.360100
-0.143800 0.485400
-0.125300 0.622700
-0.106700 0.691900
-0.088200 0.766800
-0.069700 0.862200
-0.051200 0.929500
-0.032600 1.003400
-0.014100 1.081100
0.004400 1.166500
0.022900 1.254100
0.041500 1.346800
0.060000 1.447100
0.078500 1.539900
0.097100 1.652900
0.115600 1.804800
0.134100 1.982500
0.152600 2.176700
0.171200 2.401600
0.189700 2.726300
0.208200 3.426100
0.226700 3.883100
0.245300 4.232600
0.263800 4.501600
0.282300 4.540500
0.300800 4.163300
0.319400 3.442500
0.337900 3.278800
0.356400 3.087700
0.374900 3.127600
0.393500 3.044300
0.412000 2.962700
0.430500 2.897200
0.449000 2.807600
0.467600 2.750400
0.486100 2.695100
0.504600 2.659500
0.523100 2.613200
0.541700 2.573800
0.560200 2.528300
0.578700 2.487200
0.597200 2.460500
0.615800 2.435500
0.634300 2.408100
0.652800 2.651900
0.671300 2.718100
0.689900 2.784700
0.708400 2.763200
0.726900 2.788600
0.745400 2.796400
0.764000 3.056500
0.782500 3.027400
0.801000 3.088000
0.819600 3.040800
0.838100 2.983500
0.856600 2.851600
0.875100 2.775800
0.893700 2.699500
0.912200 2.687600
0.930700 2.722600
0.949200 2.734100
0.967800 2.757600
0.986300 2.800800
1.004800 2.834300
1.023300 2.946800
1.041900 3.114800
1.060400 3.567200
1.078900 3.412500
1.097400 3.014200
1.116000 2.954700
1.134500 2.879500
1.153000 2.815400
1.171500 2.769700
1.190100 2.729000
1.208600 2.681700
1.227100 2.602200
1.245600 2.536500
1.264200 2.448500
1.282700 2.334300
1.301200 2.148600
1.319700 1.878100
1.338300 2.016600
1.356800 2.036000
1.375300 2.015800
1.393800 1.960000
1.412400 1.903200
1.430900 1.843700
1.449400 1.578200
1.468000 1.495200
1.486500 1.460400
1.505000 1.456400
1.523500 1.392800
1.542100 1.395200
1.560600 1.418100
1.579100 1.697100
1.597600 1.868100
1.616200 1.961700
1.634700 2.057000
1.653200 2.220400
1.671700 2.419100
1.690300 2.649200
1.708800 2.898700
1.727300 2.804100
1.745800 2.689000
1.764400 2.610600
1.782900 2.559200
1.801400 2.570300
1.819900 2.627700
1.838500 2.756700
1.857000 2.835000
1.875500 2.949800
1.894000 3.129000
1.912600 3.304500
1.931100 3.425700
1.949600 3.471900
1.968100 3.462100
1.986700 3.428900
2.005200 3.413400
2.023700 3.424400
2.042200 3.439500
2.060800 3.431500
2.079300 3.418300
2.097800 3.411500
2.116400 3.379300
2.134900 3.341400
2.153400 3.315000
2.171900 3.306100
2.190500 3.307900
2.209000 3.312200
2.227500 3.326000
2.246000 3.347100
2.264600 3.465700
2.283100 3.500200
2.301600 3.625900
2.320100 3.735000
2.338700 4.007100
2.357200 4.126100
2.375700 4.279800
2.394200 4.445900
2.412800 4.490300
2.431300 4.547500
2.449800 4.619000
2.468300 4.604700
2.486900 4.760700
2.505400 4.495700
2.523900 4.501700
2.542400 4.712300
2.561000 4.255400
2.579500 4.166600
2.598000 4.241300
2.616500 4.428100
2.635100 4.608100
2.653600 5.227200
2.672100 5.069500
2.690600 3.709600
2.709200 2.939000
2.727700 2.799800
2.746200 2.844900
2.764800 2.885400
2.783300 3.005700
2.801800 3.202300
2.820300 3.230200
2.838900 3.299500
2.857400 3.300300
2.875900 4.404500
2.894400 5.442300
2.913000 5.682700
2.931500 6.026300
2.950000 5.987300
2.968500 6.210000
2.987100 7.375900
3.005600 6.950200
3.024100 7.168500
3.042600 5.480400
3.061200 5.242900
3.079700 4.971000
3.098200 4.683400
3.116700 5.089900
3.135300 3.782000
3.153800 3.687700
3.172300 3.763500
3.190800 4.922600
3.209400 3.987100
3.227900 3.823800
3.246400 4.974300
3.264900 3.377300
3.283500 2.814100
3.302000 2.037400
3.320500 2.152700
3.339000 1.979800
3.357600 1.977800
3.376100 2.010400
3.394600 2.047200
3.413200 2.112900
3.431700 2.184900
3.450200 2.451700
3.468700 2.766000
3.487300 1.883400
3.505800 1.796000
3.524300 1.717200
3.542800 1.653500
3.561400 1.598100
3.579900 1.543600
3.598400 1.490700
3.616900 1.417200
3.635500 1.349500
3.654000 1.294700
3.672500 1.260900
3.691000 1.227800
3.709600 1.193400
3.728100 1.149100
3.746600 1.108200
3.765100 1.072100
3.783700 1.044300
3.802200 1.018400
3.820700 0.993300
3.839200 0.975300
3.857800 0.973900
3.876300 0.939900
3.894800 0.917200
3.913300 0.898300
3.931900 0.880000
3.950400 0.861600
3.968900 0.847200
3.987400 0.813300
4.006000 0.791700
4.024500 0.804700
4.043000 0.825400
4.061500 0.778900
4.080100 0.744100
4.098600 0.729500
4.117100 0.739700
4.135700 0.698100
4.154200 0.914700
4.172700 0.664900
4.191200 0.000000
4.209800 0.000000
4.228300 0.000000
4.246800 0.000000
4.265300 0.000000
4.283900 0.000000
4.302400 0.000000
4.320900 0.000000
4.339400 0.000000
4.358000 0.000000
4.376500 0.000000
4.395000 0.000000
4.413500 0.000000
4.432100 0.000000
4.450600 0.000000
4.469100 0.000000
4.487600 0.000000
4.506200 0.000000
4.524700 0.000000
4.543200 0.000000
4.561700 0.000000
4.580300 0.000000
4.598800 0.000000
4.617300 0.000000
4.635800 0.000000
4.654400 0.000000
4.672900 0.000000
4.691400 0.000000
4.709900 0.000000
4.728500 0.000000
4.747000 0.000000
4.765500 0.000000
4.784100 0.000000
4.802600 0.000000
4.821100 0.000000
4.839600 0.000000
4.858200 0.000000
4.876700 0.000000
4.895200 0.000000
4.913700 0.000000
4.932300 0.000000
4.950800 0.000000
4.969300 0.000000
4.987800 0.000000
5.006400 0.000000
5.024900 0.000000
5.043400 0.000000
5.061900 0.000000
5.080500 0.000000
5.099000 0.000000
5.117500 0.000000
5.136000 0.000000
5.154600 0.000000
5.173100 0.000000
5.191600 0.000000
5.210100 0.000000
5.228700 0.000000
5.247200 0.000000
5.265700 0.000000
5.284200 0.000000
5.302800 0.000000
5.321300 0.000000
5.339800 0.000000
5.358300 0.000000
5.376900 0.000000
5.395400 0.000000
5.413900 0.000000
5.432500 0.000000
5.451000 0.000000
5.469500 0.000000
5.488000 0.000000
5.506600 0.000000
5.525100 0.000000
5.543600 0.000000
5.562100 0.000000
5.580700 0.000000
5.599200 0.000000
5.617700 0.000000
5.636200 0.000000
5.654800 0.000000
5.673300 0.000000
5.691800 0.000000
5.710300 0.000000
5.728900 0.000000
5.747400 0.000000
5.765900 0.000000
5.784400 0.038500
5.803000 0.052300
5.821500 0.067400
5.840000 0.083700
5.858500 0.101200
5.877100 0.095500
5.895600 0.107300
5.914100 0.119600
5.932600 0.132500
5.951200 0.146000
5.969700 0.160000
5.988200 0.173200
6.006700 0.181800
6.025300 0.189600
6.043800 0.213800
6.062300 0.246700
6.080900 0.286800
6.099400 0.329700
6.117900 0.375300
6.136400 0.419900
6.155000 0.437400
6.173500 0.452700
6.192000 0.466000
6.210500 0.478900
6.229100 0.492200
6.247600 0.513000
6.266100 0.536500
6.284600 0.560200
6.303200 0.584100
6.321700 0.607900
6.340200 0.630600
6.358700 0.651200
6.377300 0.668700
6.395800 0.683400
6.414300 0.698600
6.432800 0.711400
6.451400 0.723800
6.469900 0.736600
6.488400 0.750100
6.506900 0.767500
6.525500 0.788200
6.544000 0.808400
6.562500 0.829300
6.581000 0.850400
6.599600 0.873400
6.618100 0.897200
6.636600 0.922000
6.655100 1.122200
6.673700 1.454600
6.692200 1.608500
6.710700 1.780200
6.729300 2.004700
6.747800 2.181700
6.766300 2.327000
6.784800 2.435200
6.803400 2.535000
6.821900 2.492600
6.840400 2.474400
6.858900 2.468600
6.877500 2.496400
6.896000 2.633000
6.914500 2.772300
6.933000 2.925400
6.951600 3.086700
6.970100 3.251000
6.988600 3.363200
7.007100 3.387500
7.025700 3.488800
7.044200 3.466300
7.062700 3.531200
7.081200 3.543400
7.099800 3.578500
7.118300 3.619600
7.136800 3.552900
7.155300 3.447500
7.173900 3.234300
7.192400 3.154600
7.210900 3.082700
7.229400 3.005600
7.248000 2.987800
7.266500 3.155400
7.285000 3.392400
7.303500 3.549900
7.322100 3.769300
7.340600 4.268400
7.359100 4.124500
7.377700 3.870600
7.396200 3.595600
7.414700 3.628400
7.433200 3.751400
7.451800 3.912800
7.470300 3.906600
7.488800 3.885100
7.507300 3.761600
7.525900 3.691000
7.544400 3.580100
7.562900 3.457400
7.581400 3.215500
7.600000 2.996700
7.618500 2.821200
7.637000 2.641700
7.655500 2.061600
7.674100 1.942600
7.692600 1.802000
7.711100 1.795700
7.729600 1.457500
7.748200 1.124700
7.766700 0.998400
7.785200 0.922400
7.803700 0.859000
7.822300 0.801600
7.840800 0.762400
7.859300 0.739500
7.877800 0.635000
7.896400 0.582500
7.914900 0.547000
7.933400 0.468000
7.951900 0.395500
7.970500 0.291500
7.989000 0.293300
8.007500 0.305100
8.026000 0.326100
8.044600 0.375000
8.063100 0.444300
8.081600 0.586900
8.100200 0.740600
8.118700 0.842100
8.137200 0.858700
8.155700 0.868300
8.174300 0.896300
8.192800 1.020300
8.211300 0.889000
8.229800 0.907000
8.248400 0.925300
8.266900 0.946200
8.285400 0.968500
8.303900 0.992100
8.322500 1.783800
8.341000 1.129600
8.359500 1.112700
8.378000 1.142100
8.396600 1.144900
8.415100 1.161300
8.433600 1.213700
8.452100 1.304100
8.470700 1.397500
8.489200 1.391300
8.507700 1.356300
8.526200 1.359900
8.544800 1.370600
8.563300 1.371500
8.581800 1.362900
8.600300 1.360600
8.618900 1.356400
8.637400 1.354600
8.655900 1.359500
8.674400 1.364300
8.693000 1.519300
8.711500 1.452500
8.730000 1.462300
8.748600 1.473700
8.767100 1.479900
8.785600 1.493300
8.804100 1.504500
8.822700 1.514500
8.841200 1.521600
8.859700 1.527600
8.878200 1.533500
8.896800 1.541700
8.915300 1.552100
8.933800 1.566000
8.952300 1.583400
8.970900 1.594300
8.989400 1.613000
9.007900 1.634100
9.026400 1.654300
9.045000 1.672700
9.063500 1.677300
9.082000 1.693000
9.100500 1.706300
9.119100 1.711200
9.137600 1.745600
9.156100 1.782100
9.174600 1.828800
9.193200 1.878600
9.211700 1.924000
9.230200 1.957700
9.248700 1.992900
9.267300 2.026500
9.285800 2.055500
9.304300 2.077900
9.322800 2.170000
9.341400 2.271500
9.359900 2.409400
9.378400 2.162300
9.397000 2.090300
9.415500 2.053200
9.434000 1.959600
9.452500 2.092600
9.471100 2.175900
9.489600 2.842400
9.508100 3.329200
9.526600 3.304100
9.545200 3.024900
9.563700 2.839100
9.582200 2.712900
9.600700 2.548000
9.619300 2.443100
9.637800 2.323200
9.656300 2.227300
9.674800 2.324100
9.693400 2.311500
9.711900 2.335100
9.730400 2.290400
9.748900 2.251200
9.767500 2.238100
9.786000 2.212100
9.804500 2.185300
9.823000 2.154100
9.841600 2.099600
9.860100 2.089700
9.878600 2.100000
9.897100 2.137200
9.915700 2.145900
9.934200 2.093600
9.952700 2.055900
9.971200 2.126900
9.989800 2.158600
10.008300 2.180200
10.026800 2.201100
10.045400 2.215600
10.063900 2.203200
10.082400 2.197000
10.100900 2.183800
10.119500 2.214900
10.138000 2.227400
10.156500 2.236700
10.175000 2.264800
10.193600 2.285600
10.212100 2.301600
10.230600 2.323000
10.249100 2.339100
10.267700 2.341100
10.286200 2.336100
10.304700 2.320900
10.323200 2.305600
10.341800 2.278200
10.360300 2.256000
10.378800 2.251600
10.397300 2.264900
10.415900 2.282500
10.434400 2.279500
10.452900 2.307100
10.471400 2.359500
10.490000 2.410100
10.508500 2.483800
10.527000 2.576600
10.545500 2.700400
10.564100 2.872700
10.582600 3.053100
10.601100 3.287300
10.619600 3.299500
10.638200 3.394800
10.656700 3.535200
10.675200 3.896900
10.693800 3.984300
10.712300 3.847800
10.730800 3.686500
10.749300 3.615400
10.767900 3.596000
10.786400 3.577600
10.804900 3.697200
10.823400 4.209100
10.842000 4.382500
10.860500 4.713300
10.879000 4.017300
10.897500 3.902600
10.916100 3.875200
10.934600 3.723200
10.953100 3.502900
10.971600 3.334400
10.990200 3.247100
11.008700 3.194900
11.027200 3.150600
11.045700 3.215600
11.064300 3.380800
11.082800 3.572500
11.101300 3.388700
11.119800 3.402400
11.138400 3.433300
11.156900 3.367000
11.175400 3.380900
11.193900 3.547200
11.212500 3.675400
11.231000 3.835700
11.249500 3.909100
11.268000 3.926400
11.286600 4.135200
11.305100 3.802800
11.323600 3.238400
11.342100 2.950000
11.360700 2.655100
11.379200 2.423200
11.397700 2.278400
11.416300 2.024500
11.434800 1.864700
11.453300 1.689300
11.471800 1.584100
11.490400 1.492500
11.508900 1.406100
11.527400 1.205800
11.545900 1.085600
11.564500 0.968400
11.583000 0.881400
11.601500 0.687500
11.620000 0.604800
11.638600 0.555700
11.657100 0.523600
11.675600 0.508700
11.694100 0.505600
11.712700 0.497700
11.731200 0.498900
11.749700 0.498200
11.768200 0.496300
11.786800 0.493900
11.805300 0.492200
11.823800 0.489700
11.842300 0.486600
11.860900 0.482800
11.879400 0.480600
11.897900 0.478000
11.916400 0.474600
11.935000 0.471000
11.953500 0.467700
11.972000 0.476900
11.990500 0.549100
12.009100 0.596200
12.027600 0.632500
12.046100 0.638000
12.064700 0.653200
12.083200 0.653800
12.101700 0.678700
12.120200 0.721800
12.138800 0.757100
12.157300 0.773300
12.175800 0.770500
12.194300 0.763000
12.212900 0.755400
12.231400 0.743200
12.249900 0.733800
12.268400 0.730800
12.287000 0.780000
12.305500 0.841700
12.324000 0.920900
12.342500 0.980200
12.361100 1.045600
12.379600 1.040700
12.398100 1.010900
12.416600 0.992700
12.435200 0.990400
12.453700 0.990800
12.472200 0.996300
12.490700 1.016300
12.509300 1.037200
12.527800 1.058500
12.546300 1.078400
12.564800 1.094000
12.583400 1.110400
12.601900 1.131200
12.620400 1.158500
12.638900 1.186900
12.657500 1.216400
12.676000 1.241900
12.694500 1.263100
12.713100 1.279500
12.731600 1.299200
12.750100 1.320200
12.768600 1.339800
12.787200 1.359600
12.805700 1.384700
12.824200 1.409800
12.842700 1.436000
12.861300 1.465600
12.879800 1.497400
12.898300 1.532300
12.916800 1.561200
12.935400 1.593600
12.953900 1.627600
12.972400 1.662700
12.990900 1.699500
13.009500 1.738700
13.028000 1.777700
13.046500 1.820600
13.065000 1.873600
13.083600 1.930700
13.102100 1.991800
13.120600 2.055100
13.139100 2.120900
13.157700 2.195400
13.176200 2.238300
13.194700 2.270100
13.213200 2.280600
13.231800 2.203700
13.250300 2.231000
13.268800 2.193600
13.287300 2.178100
13.305900 2.179600
13.324400 2.115600
13.342900 2.025400
13.361500 1.911500
13.380000 1.822900
13.398500 1.747900
13.417000 1.701800
13.435600 1.683400
13.454100 1.673300
13.472600 1.660000
13.491100 1.641700
13.509700 1.627200
13.528200 1.614200
13.546700 1.607500
13.565200 1.598800
13.583800 1.594600
13.602300 1.589000
13.620800 1.579600
13.639300 1.573000
13.657900 1.568900
13.676400 1.552300
13.694900 1.547300
13.713400 1.538800
13.732000 1.532900
13.750500 1.465400
13.769000 1.466700
13.787500 1.463100
13.806100 1.458700
13.824600 1.457700
13.843100 1.459500
13.861600 1.473200
13.880200 1.491200
13.898700 1.506200
13.917200 1.525600
13.935700 1.561100
13.954300 1.593400
13.972800 1.626000
13.991300 1.660800
14.009900 1.704700
14.028400 1.755400
14.046900 1.771900
14.065400 1.797000
14.084000 1.838600
14.102500 1.833200
14.121000 1.841400
14.139500 1.818500
14.158100 1.834600
14.176600 1.849200
14.195100 1.861400
14.213600 1.844700
14.232200 1.789500
14.250700 1.795300
14.269200 1.692800
14.287700 1.670000
14.306300 1.665700
14.324800 1.567800
14.343300 1.561100
14.361800 1.884800
14.380400 1.825500
14.398900 1.664100
14.417400 1.647400
14.435900 1.597400
14.454500 1.613800
14.473000 1.449900
14.491500 1.392900
14.510000 1.369800
14.528600 1.355700
14.547100 1.324100
14.565600 1.283300
14.584100 1.230400
14.602700 1.176900
14.621200 1.122900
14.639700 0.997800
14.658200 0.848500
14.676800 0.779800
14.695300 0.744800
14.713800 0.723400
14.732400 0.701000
14.750900 0.677200
14.769400 0.651700
14.787900 0.624300
14.806500 0.595900
14.825000 0.572000
14.843500 0.558700
14.862000 0.560100
14.880600 0.554200
14.899100 0.545600
14.917600 0.547200
14.936100 0.552300
14.954700 0.548800
14.973200 0.551700
14.991700 0.569400
15.010200 0.581600
15.028800 0.592700
15.047300 0.601600
15.065800 0.616900
15.084300 0.583600
15.102900 0.560000
15.121400 0.592000
15.139900 0.669500
15.158400 0.714900
15.177000 0.738400
15.195500 0.749000
15.214000 0.763100
15.232500 0.777100
15.251100 0.792200
15.269600 0.803500
15.288100 0.838700
15.306600 0.873300
15.325200 0.906300
15.343700 0.937400
15.362200 0.976600
15.380800 1.018700
15.399300 1.066300
15.417800 1.117000
15.436300 1.183100
15.454900 1.252700
15.473400 1.237800
15.491900 1.284600
15.510400 1.328100
15.529000 1.365400
15.547500 1.404000
15.566000 1.430500
15.584500 1.458700
15.603100 1.515600
15.621600 1.570600
15.640100 1.626100
15.658600 1.680200
15.677200 1.727800
15.695700 1.854300
15.714200 2.104700
15.732700 2.347000
15.751300 2.654600
15.769800 2.853600
15.788300 2.842000
15.806800 2.833800
15.825400 2.878600
15.843900 2.861700
15.862400 2.810100
15.880900 2.757700
15.899500 2.646900
15.918000 2.491200
15.936500 2.395600
15.955000 2.317400
15.973600 2.327700
15.992100 2.423200
16.010600 2.461900
16.029200 2.458100
16.047700 2.457400
16.066200 2.532800
16.084700 2.512200
16.103300 2.485600
16.121800 2.379000
16.140300 2.307500
16.158800 2.076300
16.177400 1.960500
16.195900 1.920900
16.214400 1.892900
16.232900 1.902300
16.251500 1.886700
16.270000 1.896100
16.288500 1.914000
16.307000 1.925000
16.325600 1.892900
16.344100 1.897200
16.362600 1.904100
16.381100 1.904300
16.399700 1.903500
16.418200 1.921900
16.436700 1.944500
16.455200 1.961900
16.473800 1.937300
16.492300 1.960800
16.510800 2.076100
16.529300 2.328700
16.547900 2.593300
16.566400 2.810700
16.584900 2.926500
16.603400 3.057000
16.622000 3.116400
16.640500 3.210500
16.659000 3.319000
16.677600 3.416200
16.696100 3.371100
16.714600 3.406300
16.733100 3.489600
16.751700 3.475600
16.770200 3.414100
16.788700 3.349400
16.807200 3.298600
16.825800 3.263100
16.844300 3.302500
16.862800 3.451400
16.881300 3.533100
16.899900 3.549100
16.918400 3.563200
16.936900 3.564800
16.955400 3.550600
16.974000 3.485200
16.992500 3.531700
17.011000 4.904400
17.029500 3.879300
17.048100 3.938700
17.066600 3.989600
17.085100 3.814600
17.103600 3.699000
17.122200 3.609100
17.140700 3.564300
17.159200 3.456700
17.177700 3.403500
17.196300 3.369300
17.214800 3.320400
17.233300 3.281900
17.251800 3.267700
17.270400 3.269900
17.288900 3.165600
17.307400 3.088200
17.326000 3.020400
17.344500 2.989300
17.363000 2.917100
17.381500 2.849000
17.400100 2.765200
17.418600 2.685000
17.437100 2.653700
17.455600 2.631300
17.474200 2.615400
17.492700 2.560400
17.511200 2.488300
17.529700 2.442100
17.548300 2.426600
17.566800 2.422300
17.585300 2.424700
17.603800 2.544500
17.622400 2.487400
17.640900 2.335000
17.659400 2.297100
17.677900 2.228000
17.696500 2.153600
17.715000 2.101200
17.733500 2.058800
17.752000 2.024600
17.770600 1.920100
17.789100 1.860200
17.807600 1.932700
17.826100 1.733500
17.844700 1.789400
17.863200 1.691000
17.881700 1.613300
17.900200 1.537300
17.918800 1.477200
17.937300 1.416500
17.955800 1.445200
17.974400 1.440300
17.992900 1.438900
18.011400 1.442800
18.029900 1.457600
18.048500 1.360300
18.067000 1.336900
18.085500 1.312900
18.104000 1.287600
18.122600 1.261700
18.141100 1.238900
18.159600 1.224300
18.178100 1.217900
18.196700 1.215900
18.215200 1.205900
18.233700 1.186000
18.252200 1.043700
18.270800 1.019700
18.289300 0.998400
18.307800 0.987800
18.326300 0.977700
18.344900 0.968400
18.363400 0.960300
18.381900 0.955300
18.400400 0.955300
18.419000 0.962400
18.437500 0.959700
18.456000 0.956700
18.474500 0.949200
18.493100 0.928800
18.511600 0.898900
18.530100 0.864800
18.548600 0.812600
18.567200 0.784900
18.585700 0.757700
18.604200 0.737600
18.622700 0.730000
18.641300 0.729200
18.659800 0.669500
18.678300 0.635800
18.696900 0.606600
18.715400 0.580800
18.733900 0.558900
18.752400 0.541200
18.771000 0.526300
18.789500 0.512000
18.808000 0.498400
18.826500 0.485500
18.845100 0.473100
18.863600 0.461700
18.882100 0.452400
18.900600 0.444900
18.919200 0.439400
18.937700 0.435500
18.956200 0.428300
18.974700 0.411200
18.993300 0.397000
19.011800 0.385200
19.030300 0.374000
19.048800 0.364200
19.067400 0.354000
19.085900 0.344100
19.104400 0.335900
19.122900 0.329500
19.141500 0.324100
19.160000 0.319800
19.178500 0.315900
19.197000 0.312800
19.215600 0.309200
19.234100 0.305600
19.252600 0.302100
19.271100 0.298700
19.289700 0.295300
19.308200 0.292100
19.326700 0.288900
19.345300 0.289800
19.363800 0.293300
19.382300 0.288900
19.400800 0.284500
19.419400 0.280100
19.437900 0.292700
19.456400 0.311800
19.474900 0.320100
19.493500 0.317400
19.512000 0.288700
19.530500 0.265300
19.549000 0.247300
19.567600 0.235600
19.586100 0.228900
19.604600 0.222600
19.623100 0.216300
19.641700 0.210000
19.660200 0.203900
19.678700 0.197700
19.697200 0.300000
19.715800 0.287600
19.734300 0.267400
19.752800 0.247300
19.771300 0.227300
19.789900 0.265400
19.808400 0.156400
19.826900 0.139800
19.845400 0.124300
19.864000 0.109400
19.882500 0.094900
19.901000 0.081000
19.919500 0.119000
19.938100 0.319500
19.956600 0.000000
19.975100 0.000000
19.993700 0.000000
20.012200 0.000000
20.030700 0.000000
20.049200 0.000000
20.067800 0.000000
20.086300 0.000000
20.104800 0.000000
20.123300 0.000000
20.141900 0.000000
20.160400 0.000000
20.178900 0.000000
20.197400 0.000000
20.216000 0.000000
20.234500 0.000000
20.253000 0.000000
20.271500 0.000000
20.290100 0.000000
20.308600 0.000000
20.327100 0.000000
20.345600 0.000000
20.364200 0.000000
20.382700 0.000000
20.401200 0.000000
20.419700 0.000000
20.438300 0.000000
20.456800 0.000000
20.475300 0.000000
20.493800 0.000000
20.512400 0.000000
20.530900 0.000000
20.549400 0.000000
20.567900 0.000000
20.586500 0.000000
20.605000 0.000000
20.623500 0.000000
20.642100 0.000000
20.660600 0.000000
20.679100 0.000000
20.697600 0.000000
20.716200 0.000000
20.734700 0.000000
20.753200 0.000000
20.771700 0.000000
20.790300 0.000000
20.808800 0.000000
20.827300 0.000000
20.845800 0.000000
20.864400 0.000000
20.882900 0.000000
20.901400 0.000000
20.919900 0.000000
20.938500 0.000000
20.957000 0.000000
20.975500 0.000000
20.994000 0.000000
21.012600 0.000000
21.031100 0.000000
21.049600 0.000000
21.068100 0.000000
21.086700 0.000000
21.105200 0.000000
21.123700 0.000000
21.142200 0.000000
21.160800 0.000000
21.179300 0.000000
21.197800 0.000000
21.216300 0.000000
21.234900 0.000000
21.253400 0.000000
21.271900 0.000000
21.290500 0.000000
21.309000 0.000000
21.327500 0.000000
21.346000 0.000000
21.364600 0.000000
21.383100 0.000000
21.401600 0.000000
21.420100 0.000000
21.438700 0.000000
21.457200 0.000000
21.475700 0.000000
21.494200 0.000000
21.512800 0.000000
21.531300 0.000000
21.549800 0.000000
21.568300 0.000000
21.586900 0.000000
21.605400 0.000000
21.623900 0.000000
e
