set title 'mp-1014303 - Density of States'
set xlabel 'Energy (eV)'
set ylabel 'DOS (states/eV)'
set grid
set xrange [-10:10]
set yrange [0:6.020]
set xzeroaxis lt -1
set terminal png size 800,600
set output 'mp-1014303_dos_gnuplot.png'
plot '-' using 1:2 with lines title 'DOS'
-40.430500 0.000000
-40.385000 0.000000
-40.339500 0.000000
-40.294100 0.000000
-40.248600 0.000000
-40.203100 0.000000
-40.157600 0.000000
-40.112100 0.000000
-40.066700 0.000000
-40.021200 0.000000
-39.975700 0.000000
-39.930200 0.000000
-39.884800 0.000000
-39.839300 0.000000
-39.793800 0.000000
-39.748300 0.000000
-39.702800 0.000000
-39.657400 0.000000
-39.611900 0.000000
-39.566400 0.000000
-39.520900 0.000000
-39.475500 0.000000
-39.430000 0.000000
-39.384500 0.000000
-39.339000 0.000000
-39.293500 0.000000
-39.248100 0.000000
-39.202600 0.000000
-39.157100 0.000000
-39.111600 0.000000
-39.066200 0.000000
-39.020700 0.000000
-38.975200 0.000000
-38.929700 0.000000
-38.884200 0.000000
-38.838800 0.000000
-38.793300 0.000000
-38.747800 0.000000
-38.702300 0.000000
-38.656900 0.000000
-38.611400 0.000000
-38.565900 0.000000
-38.520400 0.000000
-38.474900 0.000000
-38.429500 0.000000
-38.384000 0.000000
-38.338500 0.000000
-38.293000 0.000000
-38.247600 0.000000
-38.202100 0.000000
-38.156600 0.000000
-38.111100 0.000000
-38.065600 0.000000
-38.020200 0.000000
-37.974700 0.000000
-37.929200 0.000000
-37.883700 0.000000
-37.838300 0.000000
-37.792800 0.000000
-37.747300 0.000000
-37.701800 0.000000
-37.656400 0.000000
-37.610900 0.000000
-37.565400 0.000000
-37.519900 0.000000
-37.474400 0.000000
-37.429000 0.000000
-37.383500 0.000000
-37.338000 0.000000
-37.292500 0.000000
-37.247100 0.000000
-37.201600 0.000000
-37.156100 0.000000
-37.110600 0.000000
-37.065100 0.000000
-37.019700 0.000000
-36.974200 0.000000
-36.928700 0.000000
-36.883200 0.000000
-36.837800 0.000000
-36.792300 0.000000
-36.746800 0.000000
-36.701300 0.000000
-36.655800 0.000000
-36.610400 0.000000
-36.564900 0.000000
-36.519400 0.000000
-36.473900 0.000000
-36.428500 0.000000
-36.383000 0.000000
-36.337500 0.000000
-36.292000 6.058200
-36.246500 19.103900
-36.201100 13.047900
-36.155600 13.701500
-36.110100 14.229700
-36.064600 20.672600
-36.019200 0.000000
-35.973700 0.000000
-35.928200 0.771300
-35.882700 3.940100
-35.837200 12.112000
-35.791800 35.604000
-35.746300 0.000000
-35.700800 0.000000
-35.655300 0.000000
-35.609900 8.548700
-35.564400 14.185200
-35.518900 0.000000
-35.473400 0.000000
-35.427900 15.882300
-35.382500 11.899300
-35.337000 0.000000
-35.291500 0.000000
-35.246000 0.000000
-35.200600 0.000000
-35.155100 0.000000
-35.109600 0.000000
-35.064100 0.000000
-35.018600 0.000000
-34.973200 0.000000
-34.927700 0.000000
-34.882200 0.000000
-34.836700 0.000000
-34.791300 0.000000
-34.745800 0.000000
-34.700300 0.000000
-34.654800 0.000000
-34.609300 0.000000
-34.563900 0.000000
-34.518400 0.000000
-34.472900 0.000000
-34.427400 0.000000
-34.382000 0.000000
-34.336500 0.000000
-34.291000 0.000000
-34.245500 0.000000
-34.200000 0.000000
-34.154600 0.000000
-34.109100 0.000000
-34.063600 0.000000
-34.018100 0.000000
-33.972700 0.000000
-33.927200 0.000000
-33.881700 0.000000
-33.836200 0.000000
-33.790700 0.000000
-33.745300 0.000000
-33.699800 0.000000
-33.654300 0.000000
-33.608800 0.000000
-33.563400 0.000000
-33.517900 0.000000
-33.472400 0.000000
-33.426900 0.000000
-33.381500 0.000000
-33.336000 0.000000
-33.290500 0.000000
-33.245000 0.000000
-33.199500 0.000000
-33.154100 0.000000
-33.108600 0.000000
-33.063100 0.000000
-33.017600 0.000000
-32.972200 0.000000
-32.926700 0.000000
-32.881200 0.000000
-32.835700 0.000000
-32.790200 0.000000
-32.744800 0.000000
-32.699300 0.000000
-32.653800 0.000000
-32.608300 0.000000
-32.562900 0.000000
-32.517400 0.000000
-32.471900 0.000000
-32.426400 0.000000
-32.380900 0.000000
-32.335500 0.000000
-32.290000 0.000000
-32.244500 0.000000
-32.199000 0.000000
-32.153600 0.000000
-32.108100 0.000000
-32.062600 0.000000
-32.017100 0.000000
-31.971600 0.000000
-31.926200 0.000000
-31.880700 0.000000
-31.835200 0.000000
-31.789700 0.000000
-31.744300 0.000000
-31.698800 0.000000
-31.653300 0.000000
-31.607800 0.000000
-31.562300 0.000000
-31.516900 0.000000
-31.471400 0.000000
-31.425900 0.000000
-31.380400 0.000000
-31.335000 0.000000
-31.289500 0.000000
-31.244000 0.000000
-31.198500 0.000000
-31.153000 0.000000
-31.107600 0.000000
-31.062100 0.000000
-31.016600 0.000000
-30.971100 0.000000
-30.925700 0.000000
-30.880200 0.000000
-30.834700 0.000000
-30.789200 0.000000
-30.743700 0.000000
-30.698300 0.000000
-30.652800 0.000000
-30.607300 0.000000
-30.561800 0.000000
-30.516400 0.000000
-30.470900 0.000000
-30.425400 0.000000
-30.379900 0.000000
-30.334400 0.000000
-30.289000 0.000000
-30.243500 0.000000
-30.198000 0.000000
-30.152500 0.000000
-30.107100 0.000000
-30.061600 0.000000
-30.016100 0.000000
-29.970600 0.000000
-29.925100 0.000000
-29.879700 0.000000
-29.834200 0.000000
-29.788700 0.000000
-29.743200 0.000000
-29.697800 0.000000
-29.652300 0.000000
-29.606800 0.000000
-29.561300 0.000000
-29.515800 0.000000
-29.470400 0.000000
-29.424900 0.000000
-29.379400 0.000000
-29.333900 0.000000
-29.288500 0.000000
-29.243000 0.000000
-29.197500 0.000000
-29.152000 0.000000
-29.106600 0.000000
-29.061100 0.000000
-29.015600 0.000000
-28.970100 0.000000
-28.924600 0.000000
-28.879200 0.000000
-28.833700 0.000000
-28.788200 0.000000
-28.742700 0.000000
-28.697300 0.000000
-28.651800 0.000000
-28.606300 0.000000
-28.560800 0.000000
-28.515300 0.000000
-28.469900 0.000000
-28.424400 0.000000
-28.378900 0.000000
-28.333400 0.000000
-28.288000 0.000000
-28.242500 0.000000
-28.197000 0.000000
-28.151500 0.000000
-28.106000 0.000000
-28.060600 0.000000
-28.015100 0.000000
-27.969600 0.000000
-27.924100 0.000000
-27.878700 0.000000
-27.833200 0.000000
-27.787700 0.000000
-27.742200 0.000000
-27.696700 0.000000
-27.651300 0.000000
-27.605800 0.000000
-27.560300 0.000000
-27.514800 0.000000
-27.469400 0.000000
-27.423900 0.000000
-27.378400 0.000000
-27.332900 0.000000
-27.287400 0.000000
-27.242000 0.000000
-27.196500 0.000000
-27.151000 0.000000
-27.105500 0.000000
-27.060100 0.000000
-27.014600 0.000000
-26.969100 0.000000
-26.923600 0.000000
-26.878100 0.000000
-26.832700 0.000000
-26.787200 0.000000
-26.741700 0.000000
-26.696200 0.000000
-26.650800 0.000000
-26.605300 0.000000
-26.559800 0.000000
-26.514300 0.000000
-26.468800 0.000000
-26.423400 0.000000
-26.377900 0.000000
-26.332400 0.000000
-26.286900 0.000000
-26.241500 0.000000
-26.196000 0.000000
-26.150500 0.000000
-26.105000 0.000000
-26.059500 0.000000
-26.014100 0.000000
-25.968600 0.000000
-25.923100 0.000000
-25.877600 0.000000
-25.832200 0.000000
-25.786700 0.000000
-25.741200 0.000000
-25.695700 0.000000
-25.650200 0.000000
-25.604800 0.000000
-25.559300 0.000000
-25.513800 0.000000
-25.468300 0.000000
-25.422900 0.000000
-25.377400 0.000000
-25.331900 0.000000
-25.286400 0.000000
-25.240900 0.000000
-25.195500 0.000000
-25.150000 0.000000
-25.104500 0.000000
-25.059000 0.000000
-25.013600 0.000000
-24.968100 0.000000
-24.922600 0.000000
-24.877100 0.000000
-24.831700 0.000000
-24.786200 0.000000
-24.740700 0.000000
-24.695200 0.000000
-24.649700 0.000000
-24.604300 0.000000
-24.558800 0.000000
-24.513300 0.000000
-24.467800 0.000000
-24.422400 0.000000
-24.376900 0.000000
-24.331400 0.000000
-24.285900 0.000000
-24.240400 0.000000
-24.195000 0.000000
-24.149500 0.000000
-24.104000 0.000000
-24.058500 0.000000
-24.013100 0.000000
-23.967600 0.000000
-23.922100 0.000000
-23.876600 0.000000
-23.831100 0.000000
-23.785700 0.000000
-23.740200 0.000000
-23.694700 0.000000
-23.649200 0.000000
-23.603800 0.000000
-23.558300 0.000000
-23.512800 0.000000
-23.467300 0.000000
-23.421800 0.000000
-23.376400 0.000000
-23.330900 0.000000
-23.285400 0.000000
-23.239900 0.000000
-23.194500 0.000000
-23.149000 0.000000
-23.103500 0.000000
-23.058000 0.000000
-23.012500 0.000000
-22.967100 0.000000
-22.921600 0.000000
-22.876100 0.000000
-22.830600 0.000000
-22.785200 0.000000
-22.739700 0.000000
-22.694200 0.000000
-22.648700 0.000000
-22.603200 0.000000
-22.557800 0.000000
-22.512300 0.000000
-22.466800 0.000000
-22.421300 0.000000
-22.375900 0.000000
-22.330400 0.000000
-22.284900 0.000000
-22.239400 0.000000
-22.193900 0.000000
-22.148500 0.000000
-22.103000 0.000000
-22.057500 0.000000
-22.012000 0.000000
-21.966600 0.000000
-21.921100 0.000000
-21.875600 0.000000
-21.830100 0.000000
-21.784600 0.000000
-21.739200 0.000000
-21.693700 0.000000
-21.648200 0.000000
-21.602700 0.000000
-21.557300 0.000000
-21.511800 0.000000
-21.466300 0.000000
-21.420800 0.000000
-21.375300 0.000000
-21.329900 0.000000
-21.284400 0.000000
-21.238900 0.000000
-21.193400 0.000000
-21.148000 0.000000
-21.102500 0.000000
-21.057000 0.000000
-21.011500 0.000000
-20.966000 0.000000
-20.920600 0.000000
-20.875100 0.000000
-20.829600 0.000000
-20.784100 0.000000
-20.738700 0.000000
-20.693200 0.000000
-20.647700 0.000000
-20.602200 0.000000
-20.556800 0.000000
-20.511300 0.000000
-20.465800 0.000000
-20.420300 0.000000
-20.374800 0.000000
-20.329400 0.000000
-20.283900 0.000000
-20.238400 0.000000
-20.192900 0.000000
-20.147500 0.000000
-20.102000 0.000000
-20.056500 0.000000
-20.011000 0.000000
-19.965500 0.000000
-19.920100 0.000000
-19.874600 0.000000
-19.829100 0.000000
-19.783600 0.000000
-19.738200 0.000000
-19.692700 0.000000
-19.647200 0.000000
-19.601700 0.000000
-19.556200 0.000000
-19.510800 0.000000
-19.465300 0.000000
-19.419800 0.000000
-19.374300 0.000000
-19.328900 0.000000
-19.283400 0.000000
-19.237900 0.000000
-19.192400 0.000000
-19.146900 0.000000
-19.101500 0.000000
-19.056000 0.000000
-19.010500 0.000000
-18.965000 0.000000
-18.919600 0.000000
-18.874100 0.000000
-18.828600 0.000000
-18.783100 0.000000
-18.737600 0.000000
-18.692200 0.000000
-18.646700 0.000000
-18.601200 0.000000
-18.555700 0.000000
-18.510300 0.000000
-18.464800 0.000000
-18.419300 0.000000
-18.373800 0.000000
-18.328300 0.000000
-18.282900 0.000000
-18.237400 0.000000
-18.191900 0.000000
-18.146400 0.000000
-18.101000 0.000000
-18.055500 0.000000
-18.010000 0.000000
-17.964500 0.000000
-17.919000 0.000000
-17.873600 0.000000
-17.828100 0.000000
-17.782600 0.000000
-17.737100 0.000000
-17.691700 0.000000
-17.646200 0.000000
-17.600700 0.000000
-17.555200 0.000000
-17.509700 0.000000
-17.464300 0.000000
-17.418800 0.000000
-17.373300 0.000000
-17.327800 0.000000
-17.282400 0.000000
-17.236900 0.000000
-17.191400 0.000000
-17.145900 0.000000
-17.100400 0.000000
-17.055000 0.000000
-17.009500 0.000000
-16.964000 0.000000
-16.918500 0.000000
-16.873100 0.000000
-16.827600 0.000000
-16.782100 0.000000
-16.736600 0.000000
-16.691100 0.000000
-16.645700 0.000000
-16.600200 0.000000
-16.554700 0.000000
-16.509200 0.000000
-16.463800 0.000000
-16.418300 0.000000
-16.372800 0.000000
-16.327300 0.000000
-16.281900 0.000000
-16.236400 0.000000
-16.190900 0.000000
-16.145400 0.000000
-16.099900 0.000000
-16.054500 0.000000
-16.009000 0.000000
-15.963500 0.000000
-15.918000 0.000000
-15.872600 0.000000
-15.827100 0.000000
-15.781600 0.000000
-15.736100 0.000000
-15.690600 0.000000
-15.645200 0.000000
-15.599700 0.000000
-15.554200 0.000000
-15.508700 0.000000
-15.463300 0.000000
-15.417800 0.000000
-15.372300 0.000000
-15.326800 0.000000
-15.281300 0.000000
-15.235900 0.000000
-15.190400 0.000000
-15.144900 0.000000
-15.099400 0.000000
-15.054000 0.000000
-15.008500 0.000000
-14.963000 0.000000
-14.917500 0.000000
-14.872000 0.000000
-14.826600 0.000000
-14.781100 0.000000
-14.735600 0.000000
-14.690100 0.000000
-14.644700 0.000000
-14.599200 0.000000
-14.553700 0.000000
-14.508200 0.000000
-14.462700 0.000000
-14.417300 0.000000
-14.371800 0.000000
-14.326300 0.000000
-14.280800 0.000000
-14.235400 0.000000
-14.189900 0.000000
-14.144400 0.000000
-14.098900 0.000000
-14.053400 0.000000
-14.008000 0.000000
-13.962500 0.000000
-13.917000 0.000000
-13.871500 0.000000
-13.826100 0.000000
-13.780600 0.000000
-13.735100 0.000000
-13.689600 0.000000
-13.644100 0.000000
-13.598700 0.000000
-13.553200 0.000000
-13.507700 0.000000
-13.462200 0.000000
-13.416800 0.000000
-13.371300 0.000000
-13.325800 0.000000
-13.280300 0.000000
-13.234800 0.000000
-13.189400 0.000000
-13.143900 0.000000
-13.098400 0.000000
-13.052900 0.000000
-13.007500 0.000000
-12.962000 0.000000
-12.916500 0.000000
-12.871000 0.000000
-12.825500 0.000000
-12.780100 0.000000
-12.734600 0.000000
-12.689100 0.000000
-12.643600 0.000000
-12.598200 0.000000
-12.552700 0.000000
-12.507200 0.000000
-12.461700 0.000000
-12.416200 0.000000
-12.370800 0.000000
-12.325300 0.000000
-12.279800 0.000000
-12.234300 0.000000
-12.188900 0.000000
-12.143400 0.000000
-12.097900 0.000000
-12.052400 0.000000
-12.007000 0.000000
-11.961500 0.000000
-11.916000 0.000000
-11.870500 0.000000
-11.825000 0.000000
-11.779600 0.000000
-11.734100 0.000000
-11.688600 0.000000
-11.643100 0.000000
-11.597700 0.000000
-11.552200 0.000000
-11.506700 0.000000
-11.461200 0.000000
-11.415700 0.000000
-11.370300 0.000000
-11.324800 0.000000
-11.279300 0.000000
-11.233800 0.000000
-11.188400 0.000000
-11.142900 0.000000
-11.097400 0.000000
-11.051900 0.000000
-11.006400 0.000000
-10.961000 0.000000
-10.915500 0.000000
-10.870000 0.000000
-10.824500 0.000000
-10.779100 0.000000
-10.733600 0.000000
-10.688100 0.000000
-10.642600 0.000000
-10.597100 0.000000
-10.551700 0.000000
-10.506200 0.000000
-10.460700 0.000000
-10.415200 0.000000
-10.369800 0.000000
-10.324300 0.000000
-10.278800 0.000000
-10.233300 0.000000
-10.187800 0.000000
-10.142400 0.000000
-10.096900 0.000000
-10.051400 0.000000
-10.005900 0.000000
-9.960500 0.000000
-9.915000 0.014100
-9.869500 0.068200
-9.824000 0.111200
-9.778500 0.127700
-9.733100 0.153400
-9.687600 0.184400
-9.642100 0.228200
-9.596600 0.266700
-9.551200 0.267200
-9.505700 0.262500
-9.460200 0.271200
-9.414700 0.279300
-9.369200 0.285300
-9.323800 0.288100
-9.278300 0.293900
-9.232800 0.299300
-9.187300 0.304900
-9.141900 0.310200
-9.096400 0.316800
-9.050900 0.326100
-9.005400 0.333200
-8.959900 0.339500
-8.914500 0.348400
-8.869000 0.357900
-8.823500 0.369800
-8.778000 0.384400
-8.732600 0.399100
-8.687100 0.415900
-8.641600 0.477500
-8.596100 0.535200
-8.550600 0.582300
-8.505200 0.635900
-8.459700 0.693600
-8.414200 0.755200
-8.368700 0.842900
-8.323300 0.951100
-8.277800 1.085300
-8.232300 1.304600
-8.186800 1.561200
-8.141300 2.705200
-8.095900 2.240600
-8.050400 2.052700
-8.004900 1.776700
-7.959400 1.195700
-7.914000 1.229800
-7.868500 1.208000
-7.823000 1.613700
-7.777500 2.395300
-7.732100 2.227000
-7.686600 2.073400
-7.641100 2.034900
-7.595600 2.037100
-7.550100 1.097200
-7.504700 0.647200
-7.459200 0.000000
-7.413700 0.000000
-7.368200 0.000000
-7.322800 0.000000
-7.277300 0.000000
-7.231800 0.000000
-7.186300 0.000000
-7.140800 0.000000
-7.095400 0.000000
-7.049900 0.000000
-7.004400 0.000000
-6.958900 0.000000
-6.913500 0.000000
-6.868000 0.000000
-6.822500 0.000000
-6.777000 0.000000
-6.731500 0.000000
-6.686100 0.000000
-6.640600 0.000000
-6.595100 0.000000
-6.549600 0.000000
-6.504200 0.000000
-6.458700 0.000000
-6.413200 0.000000
-6.367700 0.000000
-6.322200 0.000000
-6.276800 0.000000
-6.231300 0.000000
-6.185800 0.000000
-6.140300 0.000000
-6.094900 0.000000
-6.049400 0.000000
-6.003900 0.000000
-5.958400 0.000000
-5.912900 0.000000
-5.867500 0.000000
-5.822000 0.000000
-5.776500 0.000000
-5.731000 0.000000
-5.685600 0.000000
-5.640100 0.000000
-5.594600 0.000000
-5.549100 0.000000
-5.503600 0.000000
-5.458200 0.000000
-5.412700 0.000000
-5.367200 0.000000
-5.321700 0.000000
-5.276300 0.000000
-5.230800 0.000000
-5.185300 0.000000
-5.139800 0.000000
-5.094300 0.000000
-5.048900 0.000000
-5.003400 0.000000
-4.957900 0.000000
-4.912400 0.000000
-4.867000 0.000000
-4.821500 0.000000
-4.776000 0.000000
-4.730500 0.000000
-4.685000 0.000000
-4.639600 0.000000
-4.594100 0.000000
-4.548600 0.000000
-4.503100 0.000000
-4.457700 0.000000
-4.412200 0.000000
-4.366700 0.000000
-4.321200 0.000000
-4.275700 0.000000
-4.230300 0.000000
-4.184800 0.000000
-4.139300 0.000000
-4.093800 0.000000
-4.048400 0.000000
-4.002900 0.000000
-3.957400 0.000000
-3.911900 0.000000
-3.866400 0.000000
-3.821000 0.000000
-3.775500 0.000000
-3.730000 0.000000
-3.684500 0.000000
-3.639100 0.000000
-3.593600 0.000000
-3.548100 0.000000
-3.502600 0.000000
-3.457200 0.000000
-3.411700 0.000000
-3.366200 0.000000
-3.320700 0.000000
-3.275200 0.000000
-3.229800 0.000000
-3.184300 0.000000
-3.138800 0.000000
-3.093300 0.000000
-3.047900 0.000000
-3.002400 0.000000
-2.956900 0.000000
-2.911400 0.000000
-2.865900 0.000000
-2.820500 0.000000
-2.775000 0.000000
-2.729500 0.000000
-2.684000 0.000000
-2.638600 0.000000
-2.593100 0.000000
-2.547600 0.000000
-2.502100 0.000000
-2.456600 0.000000
-2.411200 0.000000
-2.365700 0.000000
-2.320200 0.000000
-2.274700 0.000000
-2.229300 0.000000
-2.183800 0.000000
-2.138300 0.000000
-2.092800 0.000000
-2.047300 0.000000
-2.001900 0.000000
-1.956400 0.000000
-1.910900 0.000000
-1.865400 0.000000
-1.820000 0.000000
-1.774500 0.000000
-1.729000 0.000000
-1.683500 0.000000
-1.638000 0.000000
-1.592600 0.000000
-1.547100 0.000000
-1.501600 0.000000
-1.456100 0.000000
-1.410700 0.000000
-1.365200 0.000000
-1.319700 0.000000
-1.274200 0.000000
-1.228700 0.000000
-1.183300 0.000000
-1.137800 0.000000
-1.092300 0.000000
-1.046800 0.000000
-1.001400 0.000000
-0.955900 0.000000
-0.910400 0.000000
-0.864900 0.000000
-0.819400 0.000000
-0.774000 0.000000
-0.728500 0.000000
-0.683000 0.000000
-0.637500 0.000000
-0.592100 0.022900
-0.546600 0.210800
-0.501100 0.363800
-0.455600 0.372700
-0.410100 0.366900
-0.364700 0.406800
-0.319200 0.451300
-0.273700 0.532200
-0.228200 0.596100
-0.182800 0.733100
-0.137300 0.728600
-0.091800 0.719800
-0.046300 0.756300
-0.000800 0.803900
0.044600 0.869000
0.090100 0.940200
0.135600 1.009700
0.181100 1.099500
0.226500 1.395200
0.272000 1.775200
0.317500 2.238400
0.363000 2.245200
0.408500 1.849000
0.453900 1.521300
0.499400 1.335500
0.544900 1.236700
0.590400 1.159200
0.635800 1.122500
0.681300 1.136500
0.726800 1.110100
0.772300 1.091400
0.817700 1.106400
0.863200 1.239300
0.908700 1.357400
0.954200 1.510600
0.999700 1.050800
1.045100 0.808800
1.090600 0.683600
1.136100 0.570900
1.181600 0.490100
1.227000 0.396400
1.272500 0.356700
1.318000 0.428500
1.363500 0.975300
1.409000 1.188600
1.454400 1.206600
1.499900 1.383000
1.545400 1.621900
1.590900 1.767500
1.636300 1.724700
1.681800 1.835100
1.727300 1.848900
1.772800 1.908000
1.818300 2.608500
1.863700 3.084200
1.909200 2.570000
1.954700 2.225100
2.000200 2.065600
2.045600 1.992400
2.091100 2.960300
2.136600 2.319700
2.182100 2.265600
2.227600 2.166200
2.273000 2.014500
2.318500 1.887500
2.364000 1.906000
2.409500 2.001600
2.454900 2.193700
2.500400 2.110900
2.545900 1.980200
2.591400 1.962200
2.636900 2.005500
2.682300 2.024900
2.727800 2.004800
2.773300 1.995500
2.818800 1.931900
2.864200 1.887700
2.909700 1.851600
2.955200 1.799300
3.000700 1.787900
3.046200 1.725300
3.091600 1.583100
3.137100 1.510800
3.182600 1.438000
3.228100 1.403100
3.273500 1.443300
3.319000 1.237800
3.364500 0.983400
3.410000 0.799000
3.455500 0.652600
3.500900 0.566600
3.546400 0.495300
3.591900 0.425700
3.637400 0.404500
3.682800 0.390500
3.728300 0.371600
3.773800 0.355000
3.819300 0.367700
3.864800 0.392900
3.910200 0.419700
3.955700 0.478200
4.001200 0.490200
4.046700 0.551100
4.092100 0.613700
4.137600 0.505200
4.183100 0.541700
4.228600 0.595900
4.274100 0.642900
4.319500 0.665400
4.365000 0.611800
4.410500 0.573700
4.456000 0.565000
4.501400 0.576000
4.546900 0.593800
4.592400 0.657600
4.637900 0.693100
4.683300 0.771100
4.728800 0.872900
4.774300 1.074600
4.819800 1.381500
4.865300 1.609500
4.910700 1.643500
4.956200 1.611600
5.001700 1.564800
5.047200 1.560300
5.092600 1.596300
5.138100 1.725900
5.183600 1.842200
5.229100 1.876300
5.274600 1.794000
5.320000 1.839900
5.365500 1.877300
5.411000 1.556800
5.456500 1.406700
5.501900 1.412800
5.547400 1.360600
5.592900 1.333300
5.638400 1.287000
5.683900 1.239600
5.729300 1.227500
5.774800 1.199800
5.820300 1.155600
5.865800 1.142400
5.911200 1.145800
5.956700 1.154300
6.002200 1.139900
6.047700 1.057400
6.093200 1.023200
6.138600 1.007000
6.184100 1.007300
6.229600 1.339800
6.275100 1.668100
6.320500 1.908500
6.366000 2.257600
6.411500 2.859800
6.457000 3.467900
6.502500 3.847800
6.547900 4.304500
6.593400 3.296100
6.638900 2.935100
6.684400 3.855300
6.729800 2.641500
6.775300 2.264400
6.820800 1.730100
6.866300 1.632600
6.911800 1.469300
6.957200 1.383700
7.002700 1.480700
7.048200 1.665600
7.093700 1.977700
7.139100 1.818100
7.184600 1.749900
7.230100 1.799800
7.275600 2.023300
7.321100 2.992900
7.366500 2.983100
7.412000 2.471300
7.457500 1.770900
7.503000 1.729800
7.548400 1.810000
7.593900 2.023500
7.639400 2.258600
7.684900 2.048900
7.730400 2.137100
7.775800 2.550800
7.821300 2.913800
7.866800 3.247400
7.912300 3.424900
7.957700 3.569400
8.003200 3.425500
8.048700 4.148900
8.094200 4.799500
8.139700 5.472500
8.185100 5.464600
8.230600 4.813700
8.276100 4.594300
8.321600 4.526000
8.367000 4.696000
8.412500 3.201400
8.458000 2.760200
8.503500 3.405600
8.549000 5.413400
8.594400 4.004900
8.639900 3.520800
8.685400 3.476500
8.730900 3.482800
8.776300 3.439300
8.821800 3.077100
8.867300 2.937000
8.912800 2.838600
8.958200 2.049500
9.003700 1.793600
9.049200 1.865100
9.094700 2.097800
9.140200 2.221700
9.185600 2.336400
9.231100 2.100000
9.276600 1.792400
9.322100 2.951800
9.367500 3.225900
9.413000 2.960900
9.458500 2.659800
9.504000 2.260100
9.549500 1.910500
9.594900 1.868800
9.640400 2.091800
9.685900 2.300900
9.731400 2.068000
9.776800 1.896800
9.822300 1.670100
9.867800 1.627100
9.913300 1.605100
9.958800 1.592300
10.004200 1.579400
10.049700 1.572500
10.095200 1.547400
10.140700 1.523100
10.186100 1.502300
10.231600 1.511100
10.277100 1.538800
10.322600 1.561300
10.368100 1.599400
10.413500 1.691400
10.459000 1.582400
10.504500 1.519400
10.550000 1.448700
10.595400 1.364500
10.640900 1.240000
10.686400 1.133200
10.731900 0.997000
10.777400 0.943300
10.822800 0.950900
10.868300 0.965600
10.913800 0.922000
10.959300 0.877300
11.004700 0.900400
11.050200 0.944700
11.095700 1.044400
11.141200 1.241700
11.186700 1.622400
11.232100 1.341700
11.277600 1.271000
11.323100 1.309400
11.368600 1.352000
11.414000 1.278100
11.459500 1.147600
11.505000 1.070700
11.550500 0.797600
11.596000 0.717200
11.641400 0.623700
11.686900 0.574200
11.732400 0.583800
11.777900 0.599300
11.823300 0.637000
11.868800 0.609700
11.914300 0.592300
11.959800 0.607600
12.005300 0.647800
12.050700 0.585300
12.096200 0.589400
12.141700 0.405000
12.187200 0.376400
12.232600 0.380500
12.278100 0.399200
12.323600 0.429100
12.369100 0.450900
12.414600 0.454000
12.460000 0.461400
12.505500 0.460300
12.551000 0.469300
12.596500 0.475300
12.641900 0.480900
12.687400 0.488300
12.732900 0.497200
12.778400 0.507800
12.823900 0.520700
12.869300 0.545700
12.914800 0.563300
12.960300 0.578300
13.005800 0.747800
13.051200 0.640900
13.096700 0.613500
13.142200 0.637900
13.187700 0.625900
13.233100 0.605200
13.278600 0.598100
13.324100 0.584900
13.369600 0.566700
13.415100 0.570200
13.460500 0.572800
13.506000 0.549900
13.551500 0.535400
13.597000 0.522100
13.642400 0.511900
13.687900 0.358100
13.733400 0.265400
13.778900 0.188100
13.824400 0.102100
13.869800 0.100800
13.915300 0.100600
13.960800 0.100300
14.006300 0.100200
14.051700 0.100200
14.097200 0.107100
14.142700 0.114700
14.188200 0.122800
14.233700 0.135800
14.279100 0.110800
14.324600 0.106300
14.370100 0.112100
14.415600 0.119400
14.461000 0.136800
14.506500 0.152200
14.552000 0.178900
14.597500 0.234200
14.643000 0.253800
14.688400 0.270800
14.733900 0.294900
14.779400 0.311100
14.824900 0.319900
14.870300 0.328400
14.915800 0.330400
14.961300 0.346900
15.006800 0.372300
15.052300 0.476000
15.097700 0.748900
15.143200 0.941900
15.188700 1.135500
15.234200 0.926400
15.279600 0.823600
15.325100 0.754400
15.370600 0.701600
15.416100 0.659600
15.461600 0.609200
15.507000 0.580000
15.552500 0.566200
15.598000 0.543100
15.643500 0.518700
15.688900 0.497800
15.734400 0.482500
15.779900 0.473300
15.825400 0.469600
15.870900 0.466800
15.916300 0.464100
15.961800 0.465600
16.007300 0.468600
16.052800 0.488400
16.098200 0.453200
16.143700 0.437600
16.189200 0.425200
16.234700 0.417900
16.280200 0.464300
16.325600 0.492700
16.371100 0.470100
16.416600 0.464300
16.462100 0.474100
16.507500 0.490100
16.553000 0.526500
16.598500 0.527100
16.644000 0.515800
16.689500 0.509200
16.734900 0.492800
16.780400 0.496500
16.825900 0.472300
16.871400 0.431700
16.916800 0.373100
16.962300 0.374400
17.007800 0.348500
17.053300 0.361100
17.098800 0.368000
17.144200 0.373100
17.189700 0.378400
17.235200 0.400000
17.280700 0.584800
17.326100 0.533100
17.371600 0.561400
17.417100 0.587500
17.462600 0.616000
17.508000 0.637500
17.553500 0.652900
17.599000 0.644900
17.644500 0.633800
17.690000 0.641000
17.735400 0.650200
17.780900 0.655900
17.826400 0.669700
17.871900 0.696000
17.917300 0.700500
17.962800 0.679100
18.008300 0.634300
18.053800 0.661700
18.099300 0.692400
18.144700 0.507800
18.190200 0.436300
18.235700 0.391400
18.281200 0.355900
18.326600 0.354100
18.372100 0.323700
18.417600 0.387000
18.463100 0.657900
18.508600 0.737300
18.554000 0.707900
18.599500 0.666300
18.645000 0.677200
18.690500 0.671100
18.735900 0.638000
18.781400 0.617400
18.826900 0.607200
18.872400 0.585300
18.917900 0.556000
18.963300 0.535300
19.008800 0.531100
19.054300 0.539600
19.099800 0.555700
19.145200 0.568700
19.190700 0.577000
19.236200 0.589600
19.281700 0.603000
19.327200 0.591100
19.372600 0.605900
19.418100 0.628600
19.463600 0.662400
19.509100 0.798000
19.554500 0.933200
19.600000 1.033400
19.645500 0.893600
19.691000 0.920700
19.736500 0.964800
19.781900 1.124200
19.827400 1.378300
19.872900 1.298100
19.918400 1.199300
19.963800 1.098700
20.009300 1.205000
20.054800 1.291300
20.100300 1.300100
20.145800 1.160600
20.191200 1.125300
20.236700 1.086300
20.282200 0.988200
20.327700 0.935000
20.373100 0.897400
20.418600 0.753900
20.464100 0.740900
20.509600 0.814800
20.555100 0.805900
20.600500 0.838800
20.646000 0.993100
20.691500 2.038600
20.737000 1.914000
20.782400 1.732500
20.827900 1.491300
20.873400 1.174600
20.918900 1.026600
20.964400 0.939400
21.009800 0.938200
21.055300 0.930400
21.100800 0.855000
21.146300 0.774400
21.191700 0.754400
21.237200 0.857100
21.282700 0.946000
21.328200 0.905400
21.373700 0.682100
21.419100 0.595100
21.464600 0.508800
21.510100 0.522100
21.555600 0.546700
21.601000 0.580400
21.646500 0.600100
21.692000 0.626500
21.737500 0.693900
21.782900 0.697700
21.828400 0.726400
21.873900 0.744100
21.919400 0.884200
21.964900 1.125500
22.010300 1.366300
22.055800 1.662600
22.101300 1.966900
22.146800 1.913600
22.192200 1.909300
22.237700 1.895400
22.283200 1.999700
22.328700 2.183600
22.374200 1.784100
22.419600 1.797400
22.465100 1.895100
22.510600 1.722100
22.556100 1.560000
22.601500 1.545900
22.647000 1.490900
22.692500 1.442800
22.738000 1.417300
22.783500 1.391700
22.828900 1.356400
22.874400 1.313300
22.919900 1.262500
22.965400 1.268900
23.010800 1.214700
23.056300 1.138300
23.101800 1.146300
23.147300 1.079400
23.192800 1.076200
23.238200 1.075600
23.283700 1.080200
23.329200 1.067000
23.374700 1.050000
23.420100 1.023200
23.465600 1.025700
23.511100 0.974100
23.556600 0.921200
23.602100 0.851200
23.647500 0.810200
23.693000 0.775400
23.738500 0.763700
23.784000 0.751400
23.829400 0.740000
23.874900 0.736800
23.920400 0.739200
23.965900 0.746300
24.011400 0.731300
24.056800 0.735200
24.102300 0.732200
24.147800 0.735200
24.193300 0.740400
24.238700 0.756200
24.284200 0.767700
24.329700 0.774900
24.375200 0.762300
24.420700 0.776700
24.466100 0.788800
24.511600 0.816500
24.557100 0.871300
24.602600 0.914800
24.648000 0.956800
24.693500 1.023400
24.739000 0.938700
24.784500 0.818800
24.830000 0.761400
24.875400 0.749100
24.920900 0.720700
24.966400 0.710800
25.011900 0.690000
25.057300 0.679400
25.102800 0.672200
25.148300 0.671800
25.193800 0.660300
25.239300 0.656300
25.284700 0.653000
25.330200 0.634000
25.375700 0.623500
25.421200 0.617100
25.466600 0.617800
25.512100 0.614400
25.557600 0.608800
25.603100 0.621400
25.648600 0.644300
25.694000 0.676400
25.739500 0.701100
25.785000 0.728300
25.830500 0.759800
25.875900 0.807700
25.921400 0.853500
25.966900 0.913000
26.012400 0.957300
26.057800 1.093000
26.103300 1.088500
26.148800 1.146200
26.194300 1.118200
26.239800 1.023000
26.285200 0.919500
26.330700 0.864200
26.376200 0.794700
26.421700 0.770400
26.467100 0.764300
26.512600 0.841700
26.558100 0.911100
26.603600 0.962800
26.649100 1.008700
26.694500 1.068900
26.740000 1.087500
26.785500 1.118100
26.831000 1.150500
26.876400 1.187500
26.921900 1.154200
26.967400 1.192300
27.012900 1.149500
27.058400 1.090400
27.103800 0.984000
27.149300 0.879900
27.194800 0.839900
27.240300 0.934400
27.285700 1.299000
27.331200 1.514300
27.376700 1.548100
27.422200 1.446000
27.467700 1.451100
27.513100 1.537200
27.558600 1.521700
27.604100 1.441500
27.649600 1.244800
27.695000 1.047400
27.740500 1.096200
27.786000 0.780400
27.831500 0.734300
27.877000 0.693500
27.922400 0.660600
27.967900 0.632400
28.013400 0.611400
28.058900 0.603100
28.104300 0.623500
28.149800 0.646600
28.195300 0.682800
28.240800 0.700500
28.286300 0.680500
28.331700 0.808900
28.377200 0.823200
28.422700 0.860300
28.468200 0.890200
28.513600 0.952000
28.559100 1.056800
28.604600 1.222500
28.650100 1.148200
28.695600 1.154400
28.741000 1.248900
28.786500 1.218200
28.832000 1.106400
28.877500 0.921800
28.922900 0.903100
28.968400 0.884000
29.013900 0.787300
29.059400 0.625400
29.104900 0.577200
29.150300 0.577800
29.195800 0.610200
29.241300 0.614900
29.286800 0.620300
29.332200 0.575600
29.377700 0.559200
29.423200 0.581100
29.468700 0.561200
29.514200 0.563100
29.559600 0.562000
29.605100 0.539700
29.650600 0.518500
29.696100 0.512300
29.741500 0.579200
29.787000 0.542200
29.832500 0.522800
29.878000 0.534900
29.923500 0.531700
29.968900 0.543900
30.014400 0.542300
30.059900 0.540600
30.105400 0.564000
30.150800 0.558800
30.196300 0.523000
30.241800 0.473100
30.287300 0.442200
30.332700 0.428600
30.378200 0.422700
30.423700 0.444600
30.469200 0.443400
30.514700 0.456400
30.560100 0.480800
30.605600 0.526600
30.651100 0.571400
30.696600 0.594900
30.742000 0.614600
30.787500 0.641400
30.833000 0.643700
30.878500 0.653900
30.924000 0.667600
30.969400 0.682900
31.014900 0.710800
31.060400 0.752700
31.105900 0.795900
31.151300 0.856300
31.196800 0.918700
31.242300 1.054700
31.287800 1.114000
31.333300 1.127400
31.378700 1.089300
31.424200 1.082500
31.469700 1.081300
31.515200 1.107200
31.560600 1.011100
31.606100 0.947300
31.651600 0.903800
31.697100 0.872300
31.742600 0.839100
31.788000 0.814700
31.833500 0.807600
31.879000 0.829300
31.924500 0.808900
31.969900 0.799600
32.015400 0.784300
32.060900 0.771600
32.106400 0.786300
32.151900 0.806100
32.197300 0.765200
32.242800 0.724300
32.288300 0.722700
32.333800 0.718900
32.379200 0.707800
32.424700 0.734100
32.470200 0.702900
32.515700 0.728600
32.561200 0.793400
32.606600 0.839700
32.652100 0.851900
32.697600 0.855400
32.743100 0.861200
32.788500 0.857800
32.834000 0.857600
32.879500 0.865700
32.925000 0.873600
32.970500 0.857000
33.015900 0.855700
33.061400 0.892400
33.106900 0.937600
33.152400 0.982300
33.197800 1.016700
33.243300 1.040600
33.288800 1.000600
33.334300 0.885600
33.379800 0.802800
33.425200 0.776500
33.470700 0.804200
33.516200 0.817800
33.561700 0.811600
33.607100 0.810100
33.652600 0.814300
33.698100 0.831900
33.743600 0.852700
33.789100 0.877700
33.834500 0.902400
33.880000 0.900500
33.925500 0.897800
33.971000 0.890800
34.016400 0.908200
34.061900 0.932400
34.107400 0.902500
34.152900 0.937000
34.198400 0.988100
34.243800 0.973200
34.289300 0.978200
34.334800 0.970800
34.380300 0.970000
34.425700 1.005600
34.471200 1.063800
34.516700 1.016400
34.562200 0.964400
34.607600 0.947700
34.653100 0.951800
34.698600 0.982400
34.744100 1.014100
34.789600 1.020700
34.835000 1.022400
34.880500 1.016600
34.926000 1.019300
34.971500 1.076900
35.016900 1.117600
35.062400 1.150100
35.107900 1.155200
35.153400 1.230500
35.198900 1.253700
35.244300 1.292900
35.289800 1.245100
35.335300 1.210900
35.380800 1.221300
35.426200 1.251200
35.471700 1.153400
35.517200 1.125800
35.562700 1.133700
35.608200 1.173500
35.653600 1.208900
35.699100 1.216100
35.744600 1.184800
35.790100 1.187700
35.835500 1.194900
35.881000 1.177700
35.926500 1.145000
35.972000 1.118000
36.017500 1.123100
36.062900 1.174800
36.108400 1.248600
36.153900 1.325300
36.199400 1.239100
36.244800 1.200600
36.290300 1.175000
36.335800 1.126100
36.381300 1.084800
36.426800 1.070200
36.472200 1.045300
36.517700 1.037600
36.563200 1.032100
36.608700 1.023100
36.654100 1.015400
36.699600 1.009300
36.745100 0.996300
36.790600 0.973300
36.836100 0.960200
36.881500 1.026400
36.927000 0.962600
36.972500 0.958000
37.018000 0.957200
37.063400 0.947300
37.108900 0.946800
37.154400 0.957600
37.199900 0.962000
37.245400 0.961900
37.290800 0.975500
37.336300 0.996000
37.381800 1.028100
37.427300 1.050500
37.472700 1.123300
37.518200 1.105400
37.563700 1.088100
37.609200 1.096700
37.654700 1.116800
37.700100 1.160400
37.745600 1.166100
37.791100 1.151800
37.836600 1.158700
37.882000 1.248000
37.927500 1.231600
37.973000 1.235100
38.018500 1.296100
38.064000 1.382000
38.109400 1.432900
38.154900 1.552300
38.200400 1.421600
38.245900 1.339700
38.291300 1.295200
38.336800 1.234800
38.382300 1.227100
38.427800 1.244100
38.473300 1.242000
38.518700 1.300200
38.564200 1.321900
38.609700 1.345600
38.655200 1.324700
38.700600 1.340100
38.746100 1.368200
38.791600 1.399800
38.837100 1.433900
38.882500 1.448800
38.928000 1.495500
38.973500 1.575400
39.019000 1.675900
39.064500 1.743300
39.109900 1.835400
39.155400 1.893400
39.200900 1.994700
39.246400 2.041400
39.291800 1.928000
39.337300 1.882100
39.382800 1.884000
39.428300 1.890600
39.473800 1.884400
39.519200 1.931800
39.564700 2.146900
39.610200 2.530900
39.655700 2.381000
39.701100 2.353600
39.746600 2.503300
39.792100 2.469100
39.837600 2.677300
39.883100 3.012200
39.928500 3.269800
39.974000 3.159800
40.019500 3.216000
40.065000 2.935300
40.110400 2.766700
40.155900 2.727600
40.201400 2.672100
40.246900 2.530800
40.292400 2.196000
40.337800 2.387400
40.383300 2.387600
40.428800 1.885800
40.474300 2.176800
40.519700 1.992300
40.565200 1.904700
40.610700 1.823700
40.656200 1.945300
40.701700 2.120000
40.747100 2.047400
40.792600 2.004100
40.838100 2.109300
40.883600 2.056800
40.929000 1.869200
40.974500 1.740600
41.020000 1.695200
41.065500 1.701800
41.111000 1.747200
41.156400 1.567000
41.201900 1.521300
41.247400 1.544600
41.292900 1.431000
41.338300 1.346200
41.383800 1.363200
41.429300 1.358800
41.474800 1.366400
41.520300 1.308700
41.565700 1.309700
41.611200 1.237100
41.656700 1.183200
41.702200 1.094400
41.747600 1.134400
41.793100 1.205000
41.838600 1.201200
41.884100 1.208700
41.929600 1.205000
41.975000 1.133400
42.020500 1.030400
42.066000 1.056500
42.111500 1.093000
42.156900 1.130600
42.202400 1.265100
42.247900 1.280700
42.293400 1.271800
42.338900 1.228500
42.384300 1.241400
42.429800 1.298700
42.475300 1.334200
42.520800 1.346600
42.566200 1.321400
42.611700 1.307800
42.657200 1.309500
42.702700 1.287800
42.748200 1.260800
42.793600 1.275200
42.839100 1.316200
42.884600 1.364000
42.930100 1.315300
42.975500 1.322800
43.021000 1.512600
43.066500 1.463400
43.112000 1.426000
43.157400 1.424900
43.202900 1.435800
43.248400 1.282400
43.293900 1.253700
43.339400 1.318400
43.384800 1.546600
43.430300 1.615900
43.475800 1.536800
43.521300 1.428800
43.566700 1.414900
43.612200 1.343100
43.657700 1.311000
43.703200 1.303800
43.748700 1.292400
43.794100 1.275900
43.839600 1.209200
43.885100 1.113700
43.930600 1.108600
43.976000 1.003700
44.021500 0.936400
44.067000 0.899300
44.112500 0.876100
44.158000 0.829200
44.203400 0.815500
44.248900 0.814100
44.294400 0.829200
44.339900 0.885800
44.385300 0.965700
44.430800 1.042600
44.476300 0.987700
44.521800 0.836900
44.567300 0.784700
44.612700 0.741400
44.658200 0.691600
44.703700 0.646500
44.749200 0.574900
44.794600 0.505000
44.840100 0.457100
44.885600 0.437500
44.931100 0.415400
44.976600 0.387800
45.022000 0.365500
45.067500 0.351600
45.113000 0.338900
45.158500 0.323700
45.203900 0.321900
45.249400 0.301300
45.294900 0.251200
45.340400 0.205900
45.385900 0.156100
45.431300 0.131800
45.476800 0.118000
45.522300 0.109000
45.567800 0.092200
45.613200 0.086800
45.658700 0.085100
45.704200 0.081400
45.749700 0.077800
45.795200 0.082800
45.840600 0.076600
45.886100 0.070700
45.931600 0.065100
45.977100 0.091800
46.022500 0.060400
46.068000 0.034800
46.113500 0.032100
46.159000 0.030300
46.204500 0.028300
46.249900 0.026300
46.295400 0.075700
46.340900 0.000000
46.386400 0.000000
46.431800 0.000000
46.477300 0.000000
46.522800 0.000000
46.568300 0.000000
46.613800 0.000000
46.659200 0.000000
46.704700 0.000000
46.750200 0.000000
46.795700 0.000000
46.841100 0.000000
46.886600 0.000000
46.932100 0.000000
46.977600 0.000000
47.023100 0.000000
47.068500 0.000000
47.114000 0.000000
47.159500 0.000000
47.205000 0.000000
47.250400 0.000000
47.295900 0.000000
47.341400 0.000000
47.386900 0.000000
47.432300 0.000000
47.477800 0.000000
47.523300 0.000000
47.568800 0.000000
47.614300 0.000000
47.659700 0.000000
47.705200 0.000000
47.750700 0.000000
47.796200 0.000000
47.841600 0.000000
47.887100 0.000000
47.932600 0.000000
47.978100 0.000000
48.023600 0.000000
48.069000 0.000000
48.114500 0.000000
48.160000 0.000000
48.205500 0.000000
48.250900 0.000000
48.296400 0.000000
48.341900 0.000000
48.387400 0.000000
48.432900 0.000000
48.478300 0.000000
48.523800 0.000000
48.569300 0.000000
48.614800 0.000000
48.660200 0.000000
48.705700 0.000000
48.751200 0.000000
48.796700 0.000000
48.842200 0.000000
48.887600 0.000000
48.933100 0.000000
48.978600 0.000000
49.024100 0.000000
49.069500 0.000000
49.115000 0.000000
49.160500 0.000000
49.206000 0.000000
49.251500 0.000000
49.296900 0.000000
49.342400 0.000000
49.387900 0.000000
49.433400 0.000000
49.478800 0.000000
49.524300 0.000000
49.569800 0.000000
49.615300 0.000000
49.660800 0.000000
49.706200 0.000000
49.751700 0.000000
49.797200 0.000000
49.842700 0.000000
49.888100 0.000000
49.933600 0.000000
49.979100 0.000000
50.024600 0.000000
50.070100 0.000000
50.115500 0.000000
50.161000 0.000000
50.206500 0.000000
50.252000 0.000000
50.297400 0.000000
50.342900 0.000000
50.388400 0.000000
50.433900 0.000000
50.479400 0.000000
50.524800 0.000000
e
