set title 'mp-27725 - Density of States'
set xlabel 'Energy (eV)'
set ylabel 'DOS (states/eV)'
set grid
set xrange [-10:10]
set yrange [0:51.659]
set xzeroaxis lt -1
set terminal png size 800,600
set output 'mp-27725_dos_gnuplot.png'
plot '-' using 1:2 with lines title 'DOS'
-12.945600 0.000000
-12.932600 0.000000
-12.919500 0.000000
-12.906400 0.000000
-12.893400 0.000000
-12.880300 0.000000
-12.867200 0.000000
-12.854200 0.000000
-12.841100 0.000000
-12.828000 0.000000
-12.814900 0.000000
-12.801900 0.000000
-12.788800 0.000000
-12.775700 0.000000
-12.762700 0.000000
-12.749600 0.000000
-12.736500 0.000000
-12.723500 0.000000
-12.710400 0.000000
-12.697300 0.000000
-12.684300 0.000000
-12.671200 0.000000
-12.658100 0.000000
-12.645100 0.000000
-12.632000 0.000000
-12.618900 0.000000
-12.605900 0.000000
-12.592800 0.000000
-12.579700 0.000000
-12.566600 0.000000
-12.553600 0.000000
-12.540500 0.000000
-12.527400 0.000000
-12.514400 0.000000
-12.501300 0.000000
-12.488200 0.000000
-12.475200 0.000000
-12.462100 0.000000
-12.449000 0.000000
-12.436000 0.000000
-12.422900 0.000000
-12.409800 0.000000
-12.396800 0.000000
-12.383700 0.000000
-12.370600 0.000000
-12.357500 0.000000
-12.344500 0.000000
-12.331400 0.000000
-12.318300 0.000000
-12.305300 0.000000
-12.292200 0.000000
-12.279100 0.000000
-12.266100 0.000000
-12.253000 0.000000
-12.239900 0.000000
-12.226900 0.000000
-12.213800 0.000000
-12.200700 0.000000
-12.187700 0.000000
-12.174600 0.000000
-12.161500 0.000000
-12.148500 0.000000
-12.135400 0.000000
-12.122300 0.000000
-12.109200 0.000000
-12.096200 0.000000
-12.083100 0.000000
-12.070000 0.000000
-12.057000 0.000000
-12.043900 0.000000
-12.030800 0.000000
-12.017800 0.000000
-12.004700 0.000000
-11.991600 0.000000
-11.978600 0.000000
-11.965500 0.000000
-11.952400 0.000000
-11.939400 0.000000
-11.926300 0.000000
-11.913200 0.000000
-11.900100 0.000000
-11.887100 0.000000
-11.874000 0.000000
-11.860900 0.000000
-11.847900 0.000000
-11.834800 0.000000
-11.821700 0.000000
-11.808700 0.000000
-11.795600 0.000000
-11.782500 0.000000
-11.769500 0.000000
-11.756400 0.015200
-11.743300 1.954500
-11.730300 2.943700
-11.717200 4.643400
-11.704100 5.715600
-11.691000 6.847200
-11.678000 8.850100
-11.664900 9.690700
-11.651800 9.868700
-11.638800 9.910200
-11.625700 10.908400
-11.612600 11.247800
-11.599600 12.020900
-11.586500 13.020600
-11.573400 14.155300
-11.560400 15.661400
-11.547300 18.816500
-11.534200 14.780800
-11.521200 17.292100
-11.508100 16.129900
-11.495000 16.009600
-11.482000 14.978600
-11.468900 16.026700
-11.455800 17.467500
-11.442700 17.605000
-11.429700 6.277800
-11.416600 0.000000
-11.403500 10.384300
-11.390500 17.966200
-11.377400 16.708200
-11.364300 15.586600
-11.351300 15.604200
-11.338200 16.104900
-11.325100 18.494400
-11.312100 17.903900
-11.299000 13.872400
-11.285900 13.206600
-11.272900 13.808400
-11.259800 18.959800
-11.246700 24.071800
-11.233600 25.302300
-11.220600 13.975100
-11.207500 12.385900
-11.194400 11.167200
-11.181400 10.554600
-11.168300 7.797400
-11.155200 3.775000
-11.142200 0.000000
-11.129100 0.000000
-11.116000 0.000000
-11.103000 0.000000
-11.089900 0.000000
-11.076800 0.000000
-11.063800 0.000000
-11.050700 0.000000
-11.037600 0.000000
-11.024600 0.000000
-11.011500 0.000000
-10.998400 0.000000
-10.985300 0.000000
-10.972300 0.000000
-10.959200 0.000000
-10.946100 0.000000
-10.933100 0.000000
-10.920000 0.000000
-10.906900 0.000000
-10.893900 0.000000
-10.880800 0.000000
-10.867700 0.000000
-10.854700 0.000000
-10.841600 0.000000
-10.828500 0.000000
-10.815500 0.000000
-10.802400 0.000000
-10.789300 0.000000
-10.776200 0.000000
-10.763200 0.000000
-10.750100 0.000000
-10.737000 0.000000
-10.724000 0.000000
-10.710900 0.000000
-10.697800 0.000000
-10.684800 0.000000
-10.671700 0.000000
-10.658600 0.000000
-10.645600 0.000000
-10.632500 0.000000
-10.619400 0.000000
-10.606400 0.000000
-10.593300 0.000000
-10.580200 0.000000
-10.567200 0.000000
-10.554100 0.000000
-10.541000 0.000000
-10.527900 0.000000
-10.514900 0.000000
-10.501800 0.000000
-10.488700 0.000000
-10.475700 0.000000
-10.462600 0.000000
-10.449500 0.000000
-10.436500 0.000000
-10.423400 0.000000
-10.410300 0.000000
-10.397300 0.000000
-10.384200 0.000000
-10.371100 0.000000
-10.358100 0.000000
-10.345000 0.000000
-10.331900 0.000000
-10.318800 0.000000
-10.305800 0.000000
-10.292700 0.000000
-10.279600 0.000000
-10.266600 0.000000
-10.253500 0.000000
-10.240400 0.000000
-10.227400 0.000000
-10.214300 0.000000
-10.201200 0.000000
-10.188200 0.000000
-10.175100 0.000000
-10.162000 0.000000
-10.149000 0.000000
-10.135900 0.000000
-10.122800 0.000000
-10.109700 0.000000
-10.096700 0.000000
-10.083600 0.000000
-10.070500 0.000000
-10.057500 0.000000
-10.044400 0.000000
-10.031300 0.000000
-10.018300 0.000000
-10.005200 0.000000
-9.992100 0.000000
-9.979100 0.000000
-9.966000 0.000000
-9.952900 0.000000
-9.939900 0.000000
-9.926800 0.000000
-9.913700 0.000000
-9.900700 0.000000
-9.887600 0.000000
-9.874500 0.000000
-9.861400 0.000000
-9.848400 0.000000
-9.835300 0.000000
-9.822200 0.000000
-9.809200 0.000000
-9.796100 0.000000
-9.783000 0.000000
-9.770000 0.000000
-9.756900 0.000000
-9.743800 0.000000
-9.730800 0.000000
-9.717700 0.000000
-9.704600 0.000000
-9.691600 0.000000
-9.678500 0.000000
-9.665400 0.000000
-9.652300 0.000000
-9.639300 0.000000
-9.626200 0.000000
-9.613100 0.000000
-9.600100 0.000000
-9.587000 0.000000
-9.573900 0.000000
-9.560900 0.000000
-9.547800 0.000000
-9.534700 0.000000
-9.521700 0.000000
-9.508600 0.000000
-9.495500 0.000000
-9.482500 0.000000
-9.469400 0.000000
-9.456300 0.000000
-9.443300 0.000000
-9.430200 0.000000
-9.417100 0.000000
-9.404000 0.000000
-9.391000 0.000000
-9.377900 0.000000
-9.364800 0.000000
-9.351800 0.000000
-9.338700 0.000000
-9.325600 0.000000
-9.312600 0.000000
-9.299500 0.000000
-9.286400 0.000000
-9.273400 0.000000
-9.260300 0.000000
-9.247200 0.000000
-9.234200 0.000000
-9.221100 0.000000
-9.208000 0.000000
-9.194900 0.000000
-9.181900 0.000000
-9.168800 0.000000
-9.155700 0.000000
-9.142700 0.000000
-9.129600 0.000000
-9.116500 0.000000
-9.103500 0.000000
-9.090400 0.000000
-9.077300 0.000000
-9.064300 0.000000
-9.051200 0.000000
-9.038100 0.000000
-9.025100 0.000000
-9.012000 0.000000
-8.998900 0.000000
-8.985800 0.000000
-8.972800 0.000000
-8.959700 0.000000
-8.946600 0.000000
-8.933600 0.000000
-8.920500 0.000000
-8.907400 0.000000
-8.894400 0.000000
-8.881300 0.000000
-8.868200 0.000000
-8.855200 0.000000
-8.842100 0.000000
-8.829000 0.000000
-8.816000 0.000000
-8.802900 0.000000
-8.789800 0.000000
-8.776800 0.000000
-8.763700 0.000000
-8.750600 0.000000
-8.737500 0.000000
-8.724500 0.000000
-8.711400 0.000000
-8.698300 0.000000
-8.685300 0.000000
-8.672200 0.000000
-8.659100 0.000000
-8.646100 0.000000
-8.633000 0.000000
-8.619900 0.000000
-8.606900 0.000000
-8.593800 0.000000
-8.580700 0.000000
-8.567700 0.000000
-8.554600 0.000000
-8.541500 0.000000
-8.528400 0.000000
-8.515400 0.000000
-8.502300 0.000000
-8.489200 0.000000
-8.476200 0.000000
-8.463100 0.000000
-8.450000 0.000000
-8.437000 0.000000
-8.423900 0.000000
-8.410800 0.000000
-8.397800 0.000000
-8.384700 0.000000
-8.371600 0.000000
-8.358600 0.000000
-8.345500 0.000000
-8.332400 0.000000
-8.319400 0.000000
-8.306300 0.000000
-8.293200 0.000000
-8.280100 0.000000
-8.267100 0.000000
-8.254000 0.000000
-8.240900 0.000000
-8.227900 0.000000
-8.214800 0.000000
-8.201700 0.000000
-8.188700 0.000000
-8.175600 0.000000
-8.162500 0.000000
-8.149500 0.000000
-8.136400 0.000000
-8.123300 0.000000
-8.110300 0.000000
-8.097200 0.000000
-8.084100 0.000000
-8.071000 0.000000
-8.058000 0.000000
-8.044900 0.000000
-8.031800 0.000000
-8.018800 0.000000
-8.005700 0.000000
-7.992600 0.000000
-7.979600 0.000000
-7.966500 0.000000
-7.953400 0.000000
-7.940400 0.000000
-7.927300 0.000000
-7.914200 0.000000
-7.901200 0.000000
-7.888100 0.000000
-7.875000 0.000000
-7.862000 0.000000
-7.848900 0.000000
-7.835800 0.000000
-7.822700 0.000000
-7.809700 0.000000
-7.796600 0.000000
-7.783500 0.000000
-7.770500 0.000000
-7.757400 0.000000
-7.744300 0.000000
-7.731300 0.000000
-7.718200 0.000000
-7.705100 0.000000
-7.692100 0.000000
-7.679000 0.000000
-7.665900 0.000000
-7.652900 0.000000
-7.639800 0.000000
-7.626700 0.000000
-7.613600 0.000000
-7.600600 0.000000
-7.587500 0.000000
-7.574400 0.000000
-7.561400 0.000000
-7.548300 0.000000
-7.535200 0.000000
-7.522200 0.000000
-7.509100 0.000000
-7.496000 0.000000
-7.483000 0.000000
-7.469900 0.000000
-7.456800 0.000000
-7.443800 0.000000
-7.430700 0.000000
-7.417600 0.000000
-7.404500 0.000000
-7.391500 0.000000
-7.378400 0.000000
-7.365300 0.000000
-7.352300 0.000000
-7.339200 0.000000
-7.326100 0.000000
-7.313100 0.000000
-7.300000 0.000000
-7.286900 0.000000
-7.273900 0.000000
-7.260800 0.000000
-7.247700 0.000000
-7.234700 0.000000
-7.221600 0.000000
-7.208500 0.000000
-7.195500 0.000000
-7.182400 0.000000
-7.169300 0.000000
-7.156200 0.000000
-7.143200 0.000000
-7.130100 0.000000
-7.117000 0.000000
-7.104000 0.000000
-7.090900 0.000000
-7.077800 0.000000
-7.064800 0.000000
-7.051700 0.000000
-7.038600 0.000000
-7.025600 0.000000
-7.012500 0.000000
-6.999400 0.000000
-6.986400 0.000000
-6.973300 0.000000
-6.960200 0.000000
-6.947100 0.000000
-6.934100 0.000000
-6.921000 0.000000
-6.907900 0.000000
-6.894900 0.000000
-6.881800 0.000000
-6.868700 0.000000
-6.855700 0.000000
-6.842600 0.000000
-6.829500 0.000000
-6.816500 0.000000
-6.803400 0.000000
-6.790300 0.000000
-6.777300 0.000000
-6.764200 0.000000
-6.751100 0.000000
-6.738100 0.000000
-6.725000 0.000000
-6.711900 0.000000
-6.698800 0.000000
-6.685800 0.000000
-6.672700 0.000000
-6.659600 0.000000
-6.646600 0.000000
-6.633500 0.000000
-6.620400 0.000000
-6.607400 0.000000
-6.594300 0.000000
-6.581200 0.000000
-6.568200 0.000000
-6.555100 0.000000
-6.542000 0.000000
-6.529000 0.000000
-6.515900 0.000000
-6.502800 0.000000
-6.489700 0.000000
-6.476700 0.000000
-6.463600 0.000000
-6.450500 0.000000
-6.437500 0.000000
-6.424400 0.000000
-6.411300 0.000000
-6.398300 0.000000
-6.385200 0.000000
-6.372100 0.000000
-6.359100 0.000000
-6.346000 0.000000
-6.332900 0.000000
-6.319900 0.000000
-6.306800 0.000000
-6.293700 0.000000
-6.280600 0.000000
-6.267600 0.000000
-6.254500 0.000000
-6.241400 0.000000
-6.228400 0.000000
-6.215300 0.000000
-6.202200 0.000000
-6.189200 0.000000
-6.176100 0.000000
-6.163000 0.000000
-6.150000 0.000000
-6.136900 0.000000
-6.123800 0.000000
-6.110800 0.000000
-6.097700 0.000000
-6.084600 0.000000
-6.071600 0.000000
-6.058500 0.000000
-6.045400 0.000000
-6.032300 0.000000
-6.019300 0.000000
-6.006200 0.000000
-5.993100 0.000000
-5.980100 0.000000
-5.967000 0.000000
-5.953900 0.000000
-5.940900 0.000000
-5.927800 0.000000
-5.914700 0.000000
-5.901700 0.000000
-5.888600 0.000000
-5.875500 0.000000
-5.862500 0.000000
-5.849400 0.000000
-5.836300 0.000000
-5.823200 0.000000
-5.810200 0.000000
-5.797100 0.000000
-5.784000 0.000000
-5.771000 0.000000
-5.757900 0.000000
-5.744800 0.000000
-5.731800 0.000000
-5.718700 0.000000
-5.705600 0.000000
-5.692600 0.000000
-5.679500 0.000000
-5.666400 0.000000
-5.653400 0.000000
-5.640300 0.000000
-5.627200 0.000000
-5.614200 0.000000
-5.601100 0.000000
-5.588000 0.000000
-5.574900 0.000000
-5.561900 0.000000
-5.548800 0.000000
-5.535700 0.000000
-5.522700 0.000000
-5.509600 0.000000
-5.496500 0.000000
-5.483500 0.000000
-5.470400 0.000000
-5.457300 0.000000
-5.444300 0.000000
-5.431200 0.000000
-5.418100 0.000000
-5.405100 0.000000
-5.392000 0.000000
-5.378900 0.000000
-5.365800 0.000000
-5.352800 0.000000
-5.339700 0.000000
-5.326600 0.000000
-5.313600 0.000000
-5.300500 0.000000
-5.287400 0.000000
-5.274400 0.000000
-5.261300 0.000000
-5.248200 0.000000
-5.235200 0.000000
-5.222100 0.000000
-5.209000 0.000000
-5.196000 0.000000
-5.182900 0.000000
-5.169800 0.000000
-5.156700 0.000000
-5.143700 0.000000
-5.130600 0.000000
-5.117500 0.000000
-5.104500 0.000000
-5.091400 0.000000
-5.078300 0.000000
-5.065300 0.000000
-5.052200 0.000000
-5.039100 0.000000
-5.026100 0.000000
-5.013000 0.000000
-4.999900 0.000000
-4.986900 0.000000
-4.973800 0.000000
-4.960700 0.000000
-4.947700 0.000000
-4.934600 0.000000
-4.921500 0.000000
-4.908400 0.000000
-4.895400 0.000000
-4.882300 0.000000
-4.869200 0.000000
-4.856200 0.000000
-4.843100 0.000000
-4.830000 0.000000
-4.817000 0.000000
-4.803900 0.000000
-4.790800 0.000000
-4.777800 0.000000
-4.764700 0.000000
-4.751600 0.000000
-4.738600 0.000000
-4.725500 0.000000
-4.712400 0.000000
-4.699300 0.000000
-4.686300 0.000000
-4.673200 0.000000
-4.660100 0.000000
-4.647100 0.000000
-4.634000 0.000000
-4.620900 0.000000
-4.607900 0.000000
-4.594800 0.000000
-4.581700 0.000000
-4.568700 0.000000
-4.555600 0.000000
-4.542500 0.000000
-4.529500 0.000000
-4.516400 0.000000
-4.503300 0.000000
-4.490300 0.000000
-4.477200 0.000000
-4.464100 0.000000
-4.451000 0.000000
-4.438000 0.000000
-4.424900 0.000000
-4.411800 0.000000
-4.398800 0.000000
-4.385700 0.000000
-4.372600 0.000000
-4.359600 0.000000
-4.346500 0.000000
-4.333400 0.000000
-4.320400 0.000000
-4.307300 0.000000
-4.294200 0.000000
-4.281200 0.067400
-4.268100 0.337300
-4.255000 0.730700
-4.241900 0.963800
-4.228900 1.054900
-4.215800 1.239100
-4.202700 1.523600
-4.189700 1.845300
-4.176600 2.113700
-4.163500 2.380600
-4.150500 2.686600
-4.137400 2.926400
-4.124300 3.037800
-4.111300 3.361900
-4.098200 3.796300
-4.085100 4.266100
-4.072100 4.762500
-4.059000 4.877500
-4.045900 5.536600
-4.032900 6.240400
-4.019800 6.773100
-4.006700 7.314100
-3.993600 7.395100
-3.980600 8.038400
-3.967500 10.626300
-3.954400 17.284700
-3.941400 16.690300
-3.928300 14.988900
-3.915200 16.684100
-3.902200 17.862100
-3.889100 17.331300
-3.876000 16.418600
-3.863000 16.841300
-3.849900 17.703500
-3.836800 18.782500
-3.823800 21.168200
-3.810700 25.857900
-3.797600 27.679900
-3.784500 15.575800
-3.771500 12.249500
-3.758400 13.088200
-3.745300 19.298000
-3.732300 29.951800
-3.719200 33.657900
-3.706100 24.457300
-3.693100 19.982700
-3.680000 17.636400
-3.666900 20.401900
-3.653900 36.906000
-3.640800 11.148600
-3.627700 1.979400
-3.614700 0.000000
-3.601600 0.000000
-3.588500 0.000000
-3.575400 0.000000
-3.562400 0.000000
-3.549300 0.000000
-3.536200 0.000000
-3.523200 0.000000
-3.510100 0.000000
-3.497000 0.000000
-3.484000 0.000000
-3.470900 0.000000
-3.457800 0.000000
-3.444800 0.000000
-3.431700 0.000000
-3.418600 0.000000
-3.405600 0.000000
-3.392500 0.000000
-3.379400 0.000000
-3.366400 0.000000
-3.353300 0.000000
-3.340200 0.000000
-3.327100 0.000000
-3.314100 0.000000
-3.301000 0.000000
-3.287900 0.000000
-3.274900 0.000000
-3.261800 0.000000
-3.248700 0.000000
-3.235700 0.000000
-3.222600 0.000000
-3.209500 0.000000
-3.196500 0.000000
-3.183400 0.000000
-3.170300 0.000000
-3.157300 0.000000
-3.144200 0.000000
-3.131100 0.000000
-3.118000 0.000000
-3.105000 0.000000
-3.091900 0.000000
-3.078800 0.000000
-3.065800 0.000000
-3.052700 0.000000
-3.039600 0.000000
-3.026600 0.000000
-3.013500 0.000000
-3.000400 0.000000
-2.987400 0.000000
-2.974300 0.000000
-2.961200 0.000000
-2.948200 0.000000
-2.935100 0.000000
-2.922000 0.000000
-2.909000 0.000000
-2.895900 0.000000
-2.882800 0.000000
-2.869700 0.000000
-2.856700 0.000000
-2.843600 0.000000
-2.830500 0.000000
-2.817500 6.354200
-2.804400 4.140300
-2.791300 5.175400
-2.778300 9.615300
-2.765200 9.292700
-2.752100 10.333600
-2.739100 11.673400
-2.726000 11.555600
-2.712900 12.431200
-2.699900 14.129800
-2.686800 22.028000
-2.673700 14.402300
-2.660600 12.632800
-2.647600 11.355800
-2.634500 11.067800
-2.621400 11.096900
-2.608400 13.047300
-2.595300 17.247300
-2.582200 25.972000
-2.569200 30.316800
-2.556100 16.741700
-2.543000 23.594000
-2.530000 19.364100
-2.516900 8.185100
-2.503800 11.970500
-2.490800 18.445100
-2.477700 31.063900
-2.464600 31.124700
-2.451500 28.446700
-2.438500 23.452100
-2.425400 18.597200
-2.412300 18.079300
-2.399300 22.287800
-2.386200 27.916500
-2.373100 21.454200
-2.360100 26.702600
-2.347000 31.554700
-2.333900 26.608300
-2.320900 24.121200
-2.307800 25.827200
-2.294700 25.182600
-2.281700 22.567600
-2.268600 21.003300
-2.255500 19.478400
-2.242500 19.646200
-2.229400 20.747000
-2.216300 18.581700
-2.203200 18.450100
-2.190200 21.606500
-2.177100 19.466500
-2.164000 21.975600
-2.151000 20.591700
-2.137900 19.995400
-2.124800 16.128700
-2.111800 12.289000
-2.098700 10.691500
-2.085600 10.544300
-2.072600 10.588900
-2.059500 10.905600
-2.046400 15.140600
-2.033400 10.938800
-2.020300 9.302200
-2.007200 9.970500
-1.994100 10.557100
-1.981100 11.239300
-1.968000 11.584700
-1.954900 12.508400
-1.941900 12.064800
-1.928800 12.623600
-1.915700 13.886000
-1.902700 13.205200
-1.889600 13.288800
-1.876500 13.502300
-1.863500 16.020600
-1.850400 14.917400
-1.837300 13.775200
-1.824300 15.014900
-1.811200 14.286100
-1.798100 13.322700
-1.785100 12.879800
-1.772000 12.627300
-1.758900 11.927000
-1.745800 11.578900
-1.732800 11.392500
-1.719700 12.536100
-1.706600 12.804800
-1.693600 11.209700
-1.680500 10.522500
-1.667400 8.926900
-1.654400 8.307000
-1.641300 7.731100
-1.628200 7.216300
-1.615200 6.337700
-1.602100 5.885400
-1.589000 10.214700
-1.576000 10.272300
-1.562900 11.121200
-1.549800 10.487800
-1.536700 10.301300
-1.523700 10.331100
-1.510600 10.918300
-1.497500 38.151000
-1.484500 38.501200
-1.471400 30.445300
-1.458300 26.370300
-1.445300 26.845800
-1.432200 20.854500
-1.419100 19.109600
-1.406100 13.197400
-1.393000 14.388300
-1.379900 18.378000
-1.366900 20.247600
-1.353800 17.633500
-1.340700 13.617100
-1.327700 10.451200
-1.314600 12.263700
-1.301500 16.172900
-1.288400 26.473200
-1.275400 28.526000
-1.262300 46.962700
-1.249200 40.448700
-1.236200 22.690900
-1.223100 25.472700
-1.210000 30.585900
-1.197000 32.248200
-1.183900 23.561200
-1.170800 32.866000
-1.157800 32.732300
-1.144700 34.171200
-1.131600 33.642200
-1.118600 24.727600
-1.105500 23.743000
-1.092400 25.920500
-1.079300 23.925800
-1.066300 23.685800
-1.053200 28.261300
-1.040100 30.536200
-1.027100 30.295100
-1.014000 29.562800
-1.000900 34.805500
-0.987900 26.188800
-0.974800 29.247200
-0.961700 28.204700
-0.948700 24.739600
-0.935600 24.666300
-0.922500 22.698000
-0.909500 20.522000
-0.896400 23.855400
-0.883300 17.779100
-0.870200 30.510600
-0.857200 30.562400
-0.844100 28.409000
-0.831000 24.690100
-0.818000 18.935800
-0.804900 18.465800
-0.791800 17.546500
-0.778800 16.753800
-0.765700 16.173200
-0.752600 15.851900
-0.739600 12.154600
-0.726500 10.892200
-0.713400 11.111500
-0.700400 13.799500
-0.687300 16.901500
-0.674200 13.905700
-0.661200 12.450100
-0.648100 16.365800
-0.635000 10.632000
-0.621900 9.577000
-0.608900 9.421400
-0.595800 8.946700
-0.582700 8.335400
-0.569700 7.979300
-0.556600 8.087500
-0.543500 8.085300
-0.530500 8.448600
-0.517400 8.991800
-0.504300 10.881600
-0.491300 12.901400
-0.478200 13.448600
-0.465100 13.167000
-0.452100 13.568900
-0.439000 16.745200
-0.425900 16.702200
-0.412800 16.795700
-0.399800 9.639200
-0.386700 7.793300
-0.373600 11.223600
-0.360600 13.414100
-0.347500 12.174400
-0.334400 10.820400
-0.321400 9.755200
-0.308300 9.793300
-0.295200 9.587300
-0.282200 9.728600
-0.269100 8.761600
-0.256000 8.239600
-0.243000 7.089800
-0.229900 6.707100
-0.216800 6.760300
-0.203800 7.103800
-0.190700 8.404100
-0.177600 5.036900
-0.164500 6.953400
-0.151500 11.429400
-0.138400 9.867600
-0.125300 9.519800
-0.112300 9.526900
-0.099200 10.057400
-0.086100 10.703600
-0.073100 10.638800
-0.060000 7.409800
-0.046900 6.431800
-0.033900 6.364400
-0.020800 6.971100
-0.007700 8.145200
0.005300 9.303300
0.018400 9.746200
0.031500 9.510100
0.044600 8.229900
0.057600 6.464700
0.070700 6.551300
0.083800 7.778800
0.096800 9.845900
0.109900 11.176500
0.123000 10.883500
0.136000 11.195000
0.149100 11.146100
0.162200 11.178200
0.175200 11.264400
0.188300 11.215000
0.201400 11.988400
0.214400 12.425700
0.227500 13.005400
0.240600 13.564000
0.253700 11.968100
0.266700 11.196800
0.279800 11.637400
0.292900 12.512600
0.305900 13.208600
0.319000 15.733100
0.332100 16.397000
0.345100 19.441200
0.358200 15.387800
0.371300 17.303200
0.384300 12.632700
0.397400 11.542600
0.410500 9.508300
0.423500 8.277300
0.436600 11.016800
0.449700 16.336400
0.462700 13.331000
0.475800 12.773800
0.488900 10.874000
0.502000 10.589700
0.515000 10.336200
0.528100 9.604800
0.541200 9.283500
0.554200 9.133900
0.567300 8.996900
0.580400 8.865500
0.593400 8.809400
0.606500 8.848100
0.619600 10.074100
0.632600 8.920100
0.645700 8.301300
0.658800 8.000500
0.671800 7.969900
0.684900 9.718800
0.698000 9.751100
0.711100 7.526100
0.724100 7.011600
0.737200 6.513800
0.750300 6.031000
0.763300 5.609900
0.776400 6.294700
0.789500 4.950900
0.802500 4.731700
0.815600 4.514800
0.828700 5.604500
0.841700 4.543300
0.854800 3.800900
0.867900 3.282300
0.880900 2.856400
0.894000 2.445900
0.907100 1.667000
0.920100 1.604100
0.933200 1.542100
0.946300 1.483200
0.959400 1.426100
0.972400 1.371000
0.985500 1.316300
0.998600 1.260500
1.011600 1.204400
1.024700 1.150500
1.037800 1.121300
1.050800 1.120000
1.063900 1.129600
1.077000 1.139300
1.090000 1.149000
1.103100 1.096100
1.116200 1.008200
1.129200 0.910100
1.142300 0.799500
1.155400 0.638700
1.168500 0.477700
1.181500 0.316500
1.194600 0.155000
1.207700 0.013500
1.220700 0.000000
1.233800 0.000000
1.246900 0.000000
1.259900 0.000000
1.273000 0.000000
1.286100 0.000000
1.299100 0.000000
1.312200 0.000000
1.325300 0.000000
1.338300 0.000000
1.351400 0.000000
1.364500 0.000000
1.377600 0.000000
1.390600 0.000000
1.403700 0.000000
1.416800 0.000000
1.429800 0.000000
1.442900 0.000000
1.456000 0.000000
1.469000 0.000000
1.482100 0.000000
1.495200 0.000000
1.508200 0.000000
1.521300 0.000000
1.534400 0.000000
1.547400 0.000000
1.560500 0.000000
1.573600 0.000000
1.586600 0.000000
1.599700 0.000000
1.612800 0.000000
1.625900 0.000000
1.638900 0.000000
1.652000 0.000000
1.665100 0.000000
1.678100 0.000000
1.691200 0.000000
1.704300 0.000000
1.717300 0.000000
1.730400 0.000000
1.743500 0.000000
1.756500 0.000000
1.769600 0.000000
1.782700 0.000000
1.795700 0.000000
1.808800 0.000000
1.821900 0.000000
1.835000 0.000000
1.848000 0.000000
1.861100 0.000000
1.874200 0.000000
1.887200 0.000000
1.900300 0.000000
1.913400 0.000000
1.926400 0.000000
1.939500 0.000000
1.952600 0.000000
1.965600 0.000000
1.978700 0.000000
1.991800 0.000000
2.004800 0.000000
2.017900 0.000000
2.031000 0.000000
2.044000 0.000000
2.057100 0.000000
2.070200 0.000000
2.083300 0.000000
2.096300 0.000000
2.109400 0.000000
2.122500 0.000000
2.135500 0.000000
2.148600 0.000000
2.161700 0.000000
2.174700 0.000000
2.187800 0.000000
2.200900 0.000000
2.213900 0.000000
2.227000 0.000000
2.240100 0.000000
2.253100 0.000000
2.266200 0.000000
2.279300 0.000000
2.292400 0.000000
2.305400 0.000000
2.318500 0.000000
2.331600 0.000000
2.344600 0.000000
2.357700 0.000000
2.370800 0.000000
2.383800 0.000000
2.396900 0.000000
2.410000 0.000000
2.423000 0.000000
2.436100 0.000000
2.449200 0.000000
2.462200 0.000000
2.475300 0.000000
2.488400 0.000000
2.501400 0.000000
2.514500 0.000000
2.527600 0.000000
2.540700 0.000000
2.553700 0.000000
2.566800 0.000000
2.579900 0.000000
2.592900 0.000000
2.606000 0.000000
2.619100 0.000000
2.632100 0.000000
2.645200 0.000000
2.658300 0.000000
2.671300 0.000000
2.684400 0.000000
2.697500 0.000000
2.710500 0.000000
2.723600 0.000000
2.736700 0.000000
2.749800 0.000000
2.762800 0.000000
2.775900 0.000000
2.789000 0.000000
2.802000 0.000000
2.815100 0.000000
2.828200 0.000000
2.841200 0.000000
2.854300 0.000000
2.867400 0.000000
2.880400 0.000000
2.893500 0.000000
2.906600 0.000000
2.919600 0.000000
2.932700 0.000000
2.945800 0.000000
2.958900 0.000000
2.971900 0.000000
2.985000 0.000000
2.998100 0.000000
3.011100 0.000000
3.024200 0.000000
3.037300 0.000000
3.050300 0.000000
3.063400 0.000000
3.076500 0.000000
3.089500 0.000000
3.102600 0.000000
3.115700 0.000000
3.128700 0.000000
3.141800 0.000000
3.154900 0.000000
3.167900 0.000000
3.181000 0.000000
3.194100 0.000000
3.207200 0.000000
3.220200 0.000000
3.233300 0.000000
3.246400 0.000000
3.259400 0.000000
3.272500 0.000000
3.285600 0.000000
3.298600 0.000000
3.311700 0.000500
3.324800 0.036000
3.337800 0.171500
3.350900 0.354600
3.364000 0.585300
3.377000 0.833000
3.390100 1.086000
3.403200 1.439300
3.416300 1.670000
3.429300 1.819900
3.442400 1.973400
3.455500 2.086200
3.468500 2.303100
3.481600 2.542200
3.494700 2.789900
3.507700 3.551000
3.520800 4.877500
3.533900 12.325700
3.546900 9.722400
3.560000 9.693100
3.573100 10.883700
3.586100 14.140300
3.599200 18.188800
3.612300 13.879800
3.625300 11.966300
3.638400 10.414300
3.651500 9.864300
3.664600 9.316600
3.677600 8.912000
3.690700 8.515900
3.703800 8.337700
3.716800 8.136900
3.729900 7.998500
3.743000 7.885600
3.756000 7.661700
3.769100 7.481400
3.782200 7.395300
3.795200 7.464400
3.808300 7.527300
3.821400 7.533200
3.834400 7.618200
3.847500 7.769100
3.860600 7.988400
3.873700 7.956400
3.886700 6.723800
3.899800 6.866400
3.912900 6.996100
3.925900 7.257100
3.939000 7.543300
3.952100 8.087200
3.965100 8.649100
3.978200 9.287000
3.991300 10.003700
4.004300 10.700700
4.017400 11.495700
4.030500 12.483600
4.043500 12.683900
4.056600 13.414100
4.069700 13.745100
4.082800 16.369300
4.095800 11.904700
4.108900 8.406100
4.122000 6.902900
4.135000 6.510200
4.148100 6.328300
4.161200 6.153100
4.174200 5.935400
4.187300 5.890800
4.200400 5.713300
4.213400 5.842800
4.226500 5.204800
4.239600 5.012000
4.252600 4.932800
4.265700 4.913800
4.278800 4.946800
4.291800 4.893800
4.304900 5.057700
4.318000 5.174200
4.331100 5.319100
4.344100 5.515800
4.357200 5.169500
4.370300 5.426700
4.383300 5.742800
4.396400 5.677800
4.409500 5.054500
4.422500 4.469200
4.435600 4.305100
4.448700 4.099200
4.461700 3.962000
4.474800 4.009000
4.487900 4.373000
4.500900 4.836800
4.514000 5.423400
4.527100 5.179200
4.540200 4.653300
4.553200 3.977600
4.566300 3.252600
4.579400 2.878800
4.592400 2.560300
4.605500 2.211200
4.618600 1.899200
4.631600 1.711500
4.644700 2.087500
4.657800 3.200400
4.670800 3.793400
4.683900 3.667900
4.697000 3.608300
4.710000 3.572800
4.723100 3.625100
4.736200 3.911500
4.749200 4.298600
4.762300 4.659500
4.775400 4.904000
4.788500 4.780300
4.801500 4.533800
4.814600 4.348700
4.827700 3.942900
4.840700 3.844100
4.853800 3.850400
4.866900 4.074100
4.879900 4.052800
4.893000 3.942100
4.906100 3.872200
4.919100 3.805500
4.932200 3.745300
4.945300 3.716200
4.958300 3.830300
4.971400 3.981200
4.984500 4.221500
4.997600 4.360200
5.010600 3.977700
5.023700 3.765700
5.036800 3.659900
5.049800 3.553300
5.062900 3.489900
5.076000 3.472400
5.089000 3.392100
5.102100 3.298300
5.115200 3.244600
5.128200 3.234700
5.141300 3.220500
5.154400 3.202200
5.167400 3.169800
5.180500 3.151400
5.193600 3.131600
5.206600 3.111100
5.219700 2.917500
5.232800 2.769000
5.245900 2.701000
5.258900 2.633900
5.272000 2.580200
5.285100 2.560300
5.298100 2.542800
5.311200 2.525200
5.324300 2.507700
5.337300 2.490200
5.350400 2.472000
5.363500 2.450100
5.376500 2.426300
5.389600 2.402600
5.402700 2.378500
5.415700 2.354500
5.428800 2.332300
5.441900 2.314300
5.455000 2.303200
5.468000 2.298800
5.481100 2.286900
5.494200 2.279400
5.507200 2.283600
5.520300 2.292300
5.533400 2.307800
5.546400 2.328400
5.559500 2.359000
5.572600 2.396700
5.585600 2.442700
5.598700 2.509200
5.611800 2.550300
5.624800 2.583200
5.637900 2.615300
5.651000 2.646600
5.664100 2.677300
5.677100 2.707800
5.690200 2.738600
5.703300 2.775400
5.716300 2.835400
5.729400 2.909200
5.742500 2.867700
5.755500 2.826100
5.768600 2.772500
5.781700 2.655100
5.794700 2.606900
5.807800 2.584800
5.820900 2.564900
5.833900 2.536300
5.847000 2.519600
5.860100 2.508300
5.873100 2.487700
5.886200 2.429300
5.899300 2.413200
5.912400 2.406300
5.925400 2.402800
5.938500 2.399500
5.951600 2.396200
5.964600 2.392900
5.977700 2.389500
5.990800 2.386000
6.003800 2.382500
6.016900 2.378100
6.030000 2.372800
6.043000 2.367700
6.056100 2.363100
6.069200 2.358400
6.082200 2.354200
6.095300 2.349900
6.108400 2.345600
6.121500 2.341000
6.134500 2.336300
6.147600 2.331400
6.160700 2.325000
6.173700 2.315400
6.186800 2.301100
6.199900 2.287100
6.212900 2.273400
6.226000 2.260100
6.239100 2.274400
6.252100 2.285800
6.265200 2.283700
6.278300 2.283100
6.291300 2.283700
6.304400 2.287100
6.317500 2.291200
6.330500 2.297400
6.343600 2.434000
6.356700 2.439200
6.369800 2.445800
6.382800 2.452600
6.395900 2.460100
6.409000 2.468400
6.422000 2.478600
6.435100 2.488500
6.448200 2.495200
6.461200 2.498500
6.474300 2.498500
6.487400 2.496500
6.500400 2.492800
6.513500 2.487300
6.526600 2.468200
6.539600 2.358200
6.552700 2.291200
6.565800 2.252600
6.578900 2.215200
6.591900 2.178800
6.605000 2.144400
6.618100 2.252200
6.631100 2.356000
6.644200 2.456000
6.657300 2.474200
6.670300 2.526500
6.683400 2.712400
6.696500 2.342400
6.709500 2.188500
6.722600 2.045100
6.735700 1.907500
6.748700 1.828500
6.761800 1.827200
6.774900 1.825800
6.788000 1.824200
6.801000 1.822400
6.814100 2.201900
6.827200 1.983700
6.840200 2.008600
6.853300 2.033700
6.866400 2.057700
6.879400 2.212100
6.892500 2.242800
6.905600 2.273000
6.918600 2.303200
6.931700 2.333600
6.944800 2.364800
6.957800 2.395300
6.970900 2.402500
6.984000 2.418400
6.997000 2.458200
7.010100 2.501200
7.023200 2.547000
7.036300 2.602700
7.049300 2.672800
7.062400 2.747700
7.075500 2.766400
7.088500 2.766800
7.101600 2.756400
7.114700 2.776800
7.127700 2.989800
7.140800 3.320100
7.153900 3.443200
7.166900 3.544800
7.180000 3.613300
7.193100 3.668300
7.206100 3.684600
7.219200 3.731300
7.232300 3.786000
7.245400 3.763900
7.258400 3.636800
7.271500 3.517300
7.284600 3.490000
7.297600 3.517900
7.310700 3.554400
7.323800 3.589500
7.336800 3.640900
7.349900 3.686700
7.363000 3.696000
7.376000 3.764300
7.389100 4.013500
7.402200 4.319000
7.415200 4.616300
7.428300 5.183000
7.441400 5.070500
7.454400 5.378500
7.467500 5.752600
7.480600 6.199500
7.493700 6.847500
7.506700 7.596400
7.519800 7.747300
7.532900 7.851100
7.545900 7.858400
7.559000 7.895800
7.572100 8.013400
7.585100 7.986800
7.598200 7.994600
7.611300 7.926700
7.624300 8.100600
7.637400 8.391600
7.650500 8.738200
7.663500 9.126600
7.676600 9.483300
7.689700 9.276600
7.702800 9.590700
7.715800 10.061100
7.728900 10.312600
7.742000 10.217600
7.755000 9.206000
7.768100 8.508600
7.781200 8.012200
7.794200 7.662400
7.807300 7.223100
7.820400 6.968000
7.833400 6.770900
7.846500 6.219900
7.859600 5.911100
7.872600 5.310000
7.885700 5.418800
7.898800 5.886400
7.911900 6.690900
7.924900 7.611200
7.938000 8.592100
7.951100 9.638700
7.964100 10.588400
7.977200 9.816700
7.990300 10.002600
8.003300 9.945800
8.016400 9.177400
8.029500 8.741900
8.042500 8.530800
8.055600 9.067900
8.068700 9.928300
8.081700 10.079700
8.094800 9.708600
8.107900 9.388400
8.120900 9.338500
8.134000 10.320000
8.147100 9.887600
8.160200 9.302100
8.173200 8.671600
8.186300 8.120400
8.199400 7.816100
8.212400 7.612000
8.225500 7.453200
8.238600 7.250700
8.251600 7.038200
8.264700 6.939300
8.277800 7.296400
8.290800 7.430200
8.303900 7.489600
8.317000 7.186500
8.330000 6.579200
8.343100 6.110500
8.356200 5.824300
8.369300 5.494700
8.382300 5.099100
8.395400 4.742300
8.408500 4.467800
8.421500 4.136900
8.434600 3.983900
8.447700 4.124200
8.460700 4.242400
8.473800 4.452100
8.486900 4.678300
8.499900 5.046100
8.513000 5.643100
8.526100 6.283200
8.539100 6.525900
8.552200 7.380600
8.565300 7.232100
8.578300 7.308700
8.591400 7.555900
8.604500 7.465900
8.617600 8.063600
8.630600 8.689000
8.643700 9.682500
8.656800 10.152000
8.669800 10.112800
8.682900 10.120200
8.696000 10.013900
8.709000 9.762400
8.722100 9.500300
8.735200 9.286300
8.748200 9.151100
8.761300 9.105000
8.774400 8.861700
8.787400 8.738400
8.800500 8.794300
8.813600 9.063300
8.826700 9.431800
8.839700 10.203500
8.852800 10.554600
8.865900 10.735800
8.878900 10.715200
8.892000 10.585400
8.905100 10.323700
8.918100 9.943700
8.931200 9.675900
8.944300 9.472500
8.957300 9.523100
8.970400 9.122000
8.983500 9.017000
8.996500 8.482700
9.009600 8.135500
9.022700 7.978700
9.035700 7.251400
9.048800 6.645400
9.061900 6.328500
9.075000 6.048200
9.088000 5.858500
9.101100 5.694600
9.114200 5.563700
9.127200 5.481100
9.140300 5.500300
9.153400 5.801400
9.166400 6.266200
9.179500 6.675600
9.192600 6.914000
9.205600 7.116900
9.218700 7.240700
9.231800 7.053700
9.244800 6.674700
9.257900 6.171000
9.271000 5.987600
9.284100 6.086500
9.297100 5.827100
9.310200 5.524900
9.323300 5.317400
9.336300 5.489400
9.349400 6.681700
9.362500 6.318000
9.375500 7.342500
9.388600 7.003000
9.401700 6.811400
9.414700 6.928100
9.427800 7.526100
9.440900 7.970200
9.453900 7.930700
9.467000 9.285800
9.480100 9.982300
9.493200 10.071400
9.506200 10.101300
9.519300 10.166500
9.532400 9.746200
9.545400 9.333900
9.558500 8.847400
9.571600 8.260900
9.584600 7.918900
9.597700 7.623500
9.610800 7.220600
9.623800 6.271500
9.636900 5.794300
9.650000 5.296200
9.663000 4.664800
9.676100 4.457300
9.689200 4.435600
9.702200 4.456700
9.715300 4.499600
9.728400 4.604800
9.741500 5.078300
9.754500 6.572600
9.767600 7.230700
9.780700 7.453900
9.793700 7.740500
9.806800 8.352400
9.819900 9.003100
9.832900 9.324400
9.846000 9.483900
9.859100 9.258500
9.872100 8.624900
9.885200 8.068800
9.898300 7.427600
9.911300 6.702500
9.924400 6.152600
9.937500 5.708600
9.950600 5.364700
9.963600 5.042000
9.976700 4.925400
9.989800 5.081900
10.002800 5.392300
10.015900 5.664500
10.029000 5.818200
10.042000 6.214600
10.055100 6.615500
10.068200 7.082600
10.081200 7.573900
10.094300 7.965600
10.107400 8.397500
10.120400 8.958500
10.133500 9.321300
10.146600 9.580800
10.159600 9.421500
10.172700 8.691800
10.185800 8.590100
10.198900 8.965500
10.211900 9.126800
10.225000 9.460600
10.238100 9.828600
10.251100 10.415800
10.264200 11.346700
10.277300 10.261900
10.290300 9.630000
10.303400 8.722600
10.316500 7.657700
10.329500 6.697800
10.342600 5.660800
10.355700 5.067700
10.368700 4.539000
10.381800 3.832800
10.394900 3.292900
10.408000 2.896900
10.421000 2.548400
10.434100 2.257000
10.447200 2.018300
10.460200 1.833000
10.473300 1.713700
10.486400 1.638200
10.499400 1.568700
10.512500 1.504800
10.525600 1.445200
10.538600 1.388200
10.551700 1.306300
10.564800 1.222700
10.577800 1.184500
10.590900 1.120500
10.604000 1.060000
10.617100 1.014100
10.630100 0.994400
10.643200 0.975100
10.656300 0.957800
10.669300 0.943200
10.682400 0.925700
10.695500 0.903200
10.708500 0.875800
10.721600 0.837200
10.734700 0.792100
10.747700 0.750300
10.760800 0.708600
10.773900 0.671000
10.786900 0.637600
10.800000 0.618500
10.813100 0.599600
10.826100 0.580800
10.839200 0.563900
10.852300 0.549700
10.865400 0.538200
10.878400 0.530400
10.891500 0.526700
10.904600 0.523400
10.917600 0.520100
10.930700 0.516800
10.943800 0.513500
10.956800 0.510200
10.969900 0.507000
10.983000 0.503700
10.996000 0.500500
11.009100 0.497400
11.022200 0.494500
11.035200 0.491800
11.048300 0.489300
11.061400 0.487000
11.074500 0.484900
11.087500 0.483100
11.100600 0.481400
11.113700 0.488400
11.126700 0.496300
11.139800 0.503300
11.152900 0.509500
11.165900 0.515300
11.179000 0.520700
11.192100 0.525800
11.205100 0.530600
11.218200 0.534800
11.231300 0.537200
11.244300 0.521300
11.257400 0.519400
11.270500 0.542200
11.283500 0.547000
11.296600 0.548400
11.309700 0.546200
11.322800 0.540600
11.335800 0.530500
11.348900 0.490900
11.362000 0.451200
11.375000 0.411400
11.388100 0.400800
11.401200 0.385100
11.414200 0.369700
11.427300 0.354700
11.440400 0.340000
11.453400 0.325700
11.466500 0.311700
11.479600 0.298100
11.492600 0.284800
11.505700 0.271800
11.518800 0.259200
11.531900 0.246900
11.544900 0.235000
11.558000 0.223400
11.571100 0.207800
11.584100 0.199600
11.597200 0.191600
11.610300 0.183700
11.623300 0.176100
11.636400 0.168600
11.649500 0.161200
11.662500 0.154100
11.675600 0.147100
11.688700 0.140200
11.701700 0.133600
11.714800 0.127100
11.727900 0.120800
11.740900 0.120100
11.754000 0.114900
11.767100 0.109800
11.780200 0.104900
11.793200 0.100000
11.806300 0.095200
11.819400 0.090500
11.832400 0.085900
11.845500 0.081400
11.858600 0.077000
11.871600 0.072700
11.884700 0.068400
11.897800 0.064300
11.910800 0.060300
11.923900 0.056300
11.937000 0.052500
11.950000 0.048700
11.963100 0.045000
11.976200 0.041500
11.989300 0.024200
12.002300 0.022100
12.015400 0.000000
12.028500 0.000000
12.041500 0.000000
12.054600 0.000000
12.067700 0.000000
12.080700 0.000000
12.093800 0.000000
12.106900 0.000000
12.119900 0.000000
12.133000 0.000000
12.146100 0.000000
12.159100 0.000000
12.172200 0.000000
12.185300 0.000000
12.198400 0.000000
12.211400 0.000000
12.224500 0.000000
12.237600 0.000000
12.250600 0.000000
12.263700 0.000000
12.276800 0.000000
12.289800 0.000000
12.302900 0.000000
12.316000 0.000000
12.329000 0.000000
12.342100 0.000000
12.355200 0.000000
12.368200 0.000000
12.381300 0.000000
12.394400 0.000000
12.407400 0.000000
12.420500 0.000000
12.433600 0.000000
12.446700 0.000000
12.459700 0.000000
12.472800 0.000000
12.485900 0.000000
12.498900 0.000000
12.512000 0.000000
12.525100 0.000000
12.538100 0.000000
12.551200 0.000000
12.564300 0.000000
12.577300 0.000000
12.590400 0.000000
12.603500 0.000000
12.616500 0.000000
12.629600 0.000000
12.642700 0.000000
12.655800 0.000000
12.668800 0.000000
12.681900 0.000000
12.695000 0.000000
12.708000 0.000000
12.721100 0.000000
12.734200 0.000000
12.747200 0.000000
12.760300 0.000000
12.773400 0.000000
12.786400 0.000000
12.799500 0.000000
12.812600 0.000000
12.825600 0.000000
12.838700 0.000000
12.851800 0.000000
12.864800 0.000000
12.877900 0.000000
12.891000 0.000000
12.904100 0.000000
12.917100 0.000000
12.930200 0.000000
12.943300 0.000000
12.956300 0.000000
12.969400 0.000000
12.982500 0.000000
12.995500 0.000000
13.008600 0.000000
13.021700 0.000000
13.034700 0.000000
13.047800 0.000000
13.060900 0.000000
13.073900 0.000000
13.087000 0.000000
13.100100 0.000000
13.113200 0.000000
13.126200 0.000000
13.139300 0.000000
13.152400 0.000000
13.165400 0.000000
13.178500 0.000000
13.191600 0.000000
e
