set title 'mp-1223860 - Density of States'
set xlabel 'Energy (eV)'
set ylabel 'DOS (states/eV)'
set grid
set xrange [-10:10]
set yrange [0:4.853]
set xzeroaxis lt -1
set terminal png size 800,600
set output 'mp-1223860_dos_gnuplot.png'
plot '-' using 1:2 with lines title 'DOS'
-38.133800 0.000000
-38.091000 0.000000
-38.048200 0.000000
-38.005400 0.000000
-37.962600 0.000000
-37.919800 0.000000
-37.876900 0.000000
-37.834100 0.000000
-37.791300 0.000000
-37.748500 0.000000
-37.705700 0.000000
-37.662900 0.000000
-37.620100 0.000000
-37.577300 0.000000
-37.534400 0.000000
-37.491600 0.000000
-37.448800 0.000000
-37.406000 0.000000
-37.363200 0.000000
-37.320400 0.000000
-37.277600 0.000000
-37.234800 0.000000
-37.191900 0.000000
-37.149100 0.000000
-37.106300 0.000000
-37.063500 0.000000
-37.020700 0.000000
-36.977900 0.000000
-36.935100 0.000000
-36.892300 0.000000
-36.849500 0.000000
-36.806600 0.000000
-36.763800 0.000000
-36.721000 0.000000
-36.678200 0.000000
-36.635400 0.000000
-36.592600 0.000000
-36.549800 0.000000
-36.507000 0.000000
-36.464100 0.000000
-36.421300 0.000000
-36.378500 0.000000
-36.335700 0.000000
-36.292900 0.000000
-36.250100 0.000000
-36.207300 0.000000
-36.164500 0.000000
-36.121600 0.000000
-36.078800 0.000000
-36.036000 0.000000
-35.993200 0.000000
-35.950400 0.000000
-35.907600 0.000000
-35.864800 0.000000
-35.822000 0.000000
-35.779200 0.000000
-35.736300 0.000000
-35.693500 0.000000
-35.650700 0.000000
-35.607900 0.000000
-35.565100 0.000000
-35.522300 0.000000
-35.479500 0.000000
-35.436700 0.000000
-35.393800 0.000000
-35.351000 0.000000
-35.308200 0.000000
-35.265400 0.000000
-35.222600 0.000000
-35.179800 0.000000
-35.137000 0.000000
-35.094200 0.000000
-35.051300 0.000000
-35.008500 0.000000
-34.965700 0.000000
-34.922900 0.000000
-34.880100 0.000000
-34.837300 0.000000
-34.794500 0.000000
-34.751700 0.000000
-34.708900 0.000000
-34.666000 0.000000
-34.623200 0.000000
-34.580400 0.000000
-34.537600 0.000000
-34.494800 0.000000
-34.452000 0.000000
-34.409200 0.000000
-34.366400 0.000000
-34.323500 0.000000
-34.280700 0.000000
-34.237900 0.800100
-34.195100 5.612000
-34.152300 6.571400
-34.109500 8.963200
-34.066700 3.359600
-34.023900 2.930600
-33.981000 11.956900
-33.938200 3.218400
-33.895400 66.301300
-33.852600 5.402700
-33.809800 5.179300
-33.767000 6.377000
-33.724200 8.310700
-33.681400 8.705800
-33.638600 6.943000
-33.595700 5.886900
-33.552900 5.647400
-33.510100 0.000000
-33.467300 0.000000
-33.424500 0.000000
-33.381700 0.000000
-33.338900 0.000000
-33.296100 0.000000
-33.253200 0.000000
-33.210400 0.000000
-33.167600 0.000000
-33.124800 0.000000
-33.082000 0.000000
-33.039200 0.000000
-32.996400 0.000000
-32.953600 0.000000
-32.910700 0.000000
-32.867900 0.000000
-32.825100 0.000000
-32.782300 0.000000
-32.739500 0.000000
-32.696700 0.000000
-32.653900 0.000000
-32.611100 0.000000
-32.568300 0.000000
-32.525400 0.000000
-32.482600 0.000000
-32.439800 0.000000
-32.397000 0.000000
-32.354200 0.000000
-32.311400 0.000000
-32.268600 0.000000
-32.225800 0.000000
-32.182900 0.000000
-32.140100 0.000000
-32.097300 0.000000
-32.054500 0.000000
-32.011700 0.000000
-31.968900 0.000000
-31.926100 0.000000
-31.883300 0.000000
-31.840400 0.000000
-31.797600 0.000000
-31.754800 0.000000
-31.712000 0.000000
-31.669200 0.000000
-31.626400 0.000000
-31.583600 0.000000
-31.540800 0.000000
-31.498000 0.000000
-31.455100 0.000000
-31.412300 0.000000
-31.369500 0.000000
-31.326700 0.000000
-31.283900 0.000000
-31.241100 0.000000
-31.198300 0.000000
-31.155500 0.000000
-31.112600 0.000000
-31.069800 0.000000
-31.027000 0.000000
-30.984200 0.000000
-30.941400 0.000000
-30.898600 0.000000
-30.855800 0.000000
-30.813000 0.000000
-30.770100 0.000000
-30.727300 0.000000
-30.684500 0.000000
-30.641700 0.000000
-30.598900 0.000000
-30.556100 0.000000
-30.513300 0.000000
-30.470500 0.000000
-30.427700 0.000000
-30.384800 0.000000
-30.342000 0.000000
-30.299200 0.000000
-30.256400 0.000000
-30.213600 0.000000
-30.170800 0.000000
-30.128000 0.000000
-30.085200 0.000000
-30.042300 0.000000
-29.999500 0.000000
-29.956700 0.000000
-29.913900 0.000000
-29.871100 0.000000
-29.828300 0.000000
-29.785500 0.000000
-29.742700 0.000000
-29.699800 0.000000
-29.657000 0.000000
-29.614200 0.000000
-29.571400 0.000000
-29.528600 0.000000
-29.485800 0.000000
-29.443000 0.000000
-29.400200 0.000000
-29.357300 0.000000
-29.314500 0.000000
-29.271700 0.000000
-29.228900 0.000000
-29.186100 0.000000
-29.143300 0.000000
-29.100500 0.000000
-29.057700 0.000000
-29.014900 0.000000
-28.972000 0.000000
-28.929200 0.000000
-28.886400 0.000000
-28.843600 0.000000
-28.800800 0.000000
-28.758000 0.000000
-28.715200 0.000000
-28.672400 0.000000
-28.629500 0.000000
-28.586700 0.000000
-28.543900 0.000000
-28.501100 0.000000
-28.458300 0.000000
-28.415500 0.000000
-28.372700 0.000000
-28.329900 0.000000
-28.287000 0.000000
-28.244200 0.000000
-28.201400 0.000000
-28.158600 0.000000
-28.115800 0.000000
-28.073000 0.000000
-28.030200 0.000000
-27.987400 0.000000
-27.944600 0.000000
-27.901700 0.000000
-27.858900 0.000000
-27.816100 0.000000
-27.773300 0.000000
-27.730500 0.000000
-27.687700 0.000000
-27.644900 0.000000
-27.602100 0.000000
-27.559200 0.000000
-27.516400 0.000000
-27.473600 0.000000
-27.430800 0.000000
-27.388000 0.000000
-27.345200 0.000000
-27.302400 0.000000
-27.259600 0.000000
-27.216700 0.000000
-27.173900 0.000000
-27.131100 0.000000
-27.088300 0.000000
-27.045500 0.000000
-27.002700 0.000000
-26.959900 0.000000
-26.917100 0.000000
-26.874300 0.000000
-26.831400 0.000000
-26.788600 0.000000
-26.745800 0.000000
-26.703000 0.000000
-26.660200 0.000000
-26.617400 0.000000
-26.574600 0.000000
-26.531800 0.000000
-26.488900 0.000000
-26.446100 0.000000
-26.403300 0.000000
-26.360500 0.000000
-26.317700 0.000000
-26.274900 0.000000
-26.232100 0.000000
-26.189300 0.000000
-26.146400 0.000000
-26.103600 0.000000
-26.060800 0.000000
-26.018000 0.000000
-25.975200 0.000000
-25.932400 0.000000
-25.889600 0.000000
-25.846800 0.000000
-25.804000 0.000000
-25.761100 0.000000
-25.718300 0.000000
-25.675500 0.000000
-25.632700 0.000000
-25.589900 0.000000
-25.547100 0.000000
-25.504300 0.000000
-25.461500 0.000000
-25.418600 0.000000
-25.375800 0.000000
-25.333000 0.000000
-25.290200 0.000000
-25.247400 0.000000
-25.204600 0.000000
-25.161800 0.000000
-25.119000 0.000000
-25.076100 0.000000
-25.033300 0.000000
-24.990500 0.000000
-24.947700 0.000000
-24.904900 0.000000
-24.862100 0.000000
-24.819300 0.000000
-24.776500 0.000000
-24.733700 0.000000
-24.690800 0.000000
-24.648000 0.000000
-24.605200 0.000000
-24.562400 0.000000
-24.519600 0.000000
-24.476800 0.000000
-24.434000 0.000000
-24.391200 0.000000
-24.348300 0.000000
-24.305500 0.000000
-24.262700 0.000000
-24.219900 0.000000
-24.177100 0.000000
-24.134300 0.000000
-24.091500 0.000000
-24.048700 0.000000
-24.005800 0.000000
-23.963000 0.000000
-23.920200 0.000000
-23.877400 0.000000
-23.834600 0.000000
-23.791800 0.000000
-23.749000 0.000000
-23.706200 0.000000
-23.663400 0.000000
-23.620500 0.000000
-23.577700 0.000000
-23.534900 0.000000
-23.492100 0.000000
-23.449300 0.000000
-23.406500 0.000000
-23.363700 0.000000
-23.320900 0.000000
-23.278000 0.000000
-23.235200 0.000000
-23.192400 0.000000
-23.149600 0.000000
-23.106800 0.000000
-23.064000 0.000000
-23.021200 0.000000
-22.978400 0.000000
-22.935500 0.000000
-22.892700 0.000000
-22.849900 0.000000
-22.807100 0.000000
-22.764300 0.000000
-22.721500 0.000000
-22.678700 0.000000
-22.635900 0.000000
-22.593100 0.000000
-22.550200 0.000000
-22.507400 0.000000
-22.464600 0.000000
-22.421800 0.000000
-22.379000 0.000000
-22.336200 0.000000
-22.293400 0.000000
-22.250600 0.000000
-22.207700 0.000000
-22.164900 0.000000
-22.122100 0.000000
-22.079300 0.000000
-22.036500 0.000000
-21.993700 0.000000
-21.950900 0.000000
-21.908100 0.000000
-21.865200 0.000000
-21.822400 0.000000
-21.779600 0.000000
-21.736800 0.000000
-21.694000 0.000000
-21.651200 0.000000
-21.608400 0.000000
-21.565600 0.000000
-21.522800 0.000000
-21.479900 0.000000
-21.437100 0.000000
-21.394300 0.000000
-21.351500 0.000000
-21.308700 0.000000
-21.265900 0.000000
-21.223100 0.000000
-21.180300 0.000000
-21.137400 0.000000
-21.094600 0.000000
-21.051800 0.000000
-21.009000 0.000000
-20.966200 0.000000
-20.923400 0.000000
-20.880600 0.000000
-20.837800 0.000000
-20.794900 0.000000
-20.752100 0.000000
-20.709300 0.000000
-20.666500 0.000000
-20.623700 0.000000
-20.580900 0.000000
-20.538100 0.000000
-20.495300 0.000000
-20.452500 0.000000
-20.409600 0.000000
-20.366800 0.000000
-20.324000 0.000000
-20.281200 0.000000
-20.238400 0.000000
-20.195600 0.000000
-20.152800 0.000000
-20.110000 0.000000
-20.067100 0.000000
-20.024300 0.000000
-19.981500 0.000000
-19.938700 0.000000
-19.895900 0.000000
-19.853100 0.000000
-19.810300 0.000000
-19.767500 0.000000
-19.724600 0.000000
-19.681800 0.000000
-19.639000 0.000000
-19.596200 0.000000
-19.553400 0.000000
-19.510600 0.000000
-19.467800 0.000000
-19.425000 0.000000
-19.382200 0.000000
-19.339300 0.000000
-19.296500 0.000000
-19.253700 0.000000
-19.210900 0.000000
-19.168100 0.000000
-19.125300 0.000000
-19.082500 0.000000
-19.039700 0.000000
-18.996800 0.000000
-18.954000 0.000000
-18.911200 0.000000
-18.868400 0.000000
-18.825600 0.000000
-18.782800 0.000000
-18.740000 0.000000
-18.697200 0.000000
-18.654300 0.000000
-18.611500 0.000000
-18.568700 0.000000
-18.525900 0.000000
-18.483100 0.000000
-18.440300 0.000000
-18.397500 0.000000
-18.354700 0.000000
-18.311900 0.000000
-18.269000 0.000000
-18.226200 0.000000
-18.183400 0.000000
-18.140600 0.000000
-18.097800 0.000000
-18.055000 0.000000
-18.012200 0.000000
-17.969400 0.000000
-17.926500 0.000000
-17.883700 0.000000
-17.840900 0.000000
-17.798100 0.000000
-17.755300 0.000000
-17.712500 0.000000
-17.669700 0.000000
-17.626900 0.000000
-17.584000 0.000000
-17.541200 0.000000
-17.498400 0.000000
-17.455600 0.000000
-17.412800 0.000000
-17.370000 0.000000
-17.327200 0.000000
-17.284400 0.000000
-17.241600 0.000000
-17.198700 0.000000
-17.155900 0.000000
-17.113100 0.000000
-17.070300 0.000000
-17.027500 0.000000
-16.984700 0.000000
-16.941900 0.000000
-16.899100 0.000000
-16.856200 0.000000
-16.813400 0.000000
-16.770600 0.000000
-16.727800 0.000000
-16.685000 0.000000
-16.642200 0.000000
-16.599400 0.000000
-16.556600 0.000000
-16.513700 0.000000
-16.470900 0.000000
-16.428100 0.000000
-16.385300 0.000000
-16.342500 0.000000
-16.299700 0.000000
-16.256900 0.000000
-16.214100 0.000000
-16.171300 0.000000
-16.128400 0.000000
-16.085600 0.000000
-16.042800 0.000000
-16.000000 0.000000
-15.957200 0.000000
-15.914400 0.000000
-15.871600 0.000000
-15.828800 0.000000
-15.785900 0.000000
-15.743100 0.000000
-15.700300 0.000000
-15.657500 0.000000
-15.614700 0.000000
-15.571900 0.000000
-15.529100 0.000000
-15.486300 0.000000
-15.443400 0.000000
-15.400600 0.000000
-15.357800 0.000000
-15.315000 0.000000
-15.272200 0.000000
-15.229400 0.000000
-15.186600 0.000000
-15.143800 0.000000
-15.101000 0.000000
-15.058100 0.000000
-15.015300 0.000000
-14.972500 0.000000
-14.929700 0.000000
-14.886900 0.000000
-14.844100 0.000000
-14.801300 0.000000
-14.758500 0.000000
-14.715600 0.000000
-14.672800 0.000000
-14.630000 0.000000
-14.587200 0.000000
-14.544400 0.000000
-14.501600 0.000000
-14.458800 0.000000
-14.416000 0.000000
-14.373100 0.000000
-14.330300 0.000000
-14.287500 0.000000
-14.244700 0.000000
-14.201900 0.000000
-14.159100 0.000000
-14.116300 0.000000
-14.073500 0.000000
-14.030600 0.000000
-13.987800 0.000000
-13.945000 0.000000
-13.902200 0.000000
-13.859400 0.000000
-13.816600 0.000000
-13.773800 0.000000
-13.731000 0.000000
-13.688200 0.000000
-13.645300 0.000000
-13.602500 0.000000
-13.559700 0.000000
-13.516900 0.000000
-13.474100 0.000000
-13.431300 0.000000
-13.388500 0.000000
-13.345700 0.000000
-13.302800 0.000000
-13.260000 0.000000
-13.217200 0.000000
-13.174400 0.000000
-13.131600 0.000000
-13.088800 0.000000
-13.046000 0.000000
-13.003200 0.000000
-12.960300 0.000000
-12.917500 0.000000
-12.874700 0.000000
-12.831900 0.000000
-12.789100 0.000000
-12.746300 0.000000
-12.703500 0.000000
-12.660700 0.000000
-12.617900 0.000000
-12.575000 0.000000
-12.532200 0.000000
-12.489400 0.000000
-12.446600 0.000000
-12.403800 0.000000
-12.361000 0.000000
-12.318200 0.000000
-12.275400 0.000000
-12.232500 0.000000
-12.189700 0.000000
-12.146900 0.000000
-12.104100 0.000000
-12.061300 0.000000
-12.018500 0.000000
-11.975700 0.000000
-11.932900 0.000000
-11.890000 0.000000
-11.847200 0.000000
-11.804400 0.000000
-11.761600 0.000000
-11.718800 0.000000
-11.676000 0.000000
-11.633200 0.000000
-11.590400 0.000000
-11.547600 0.000000
-11.504700 0.000000
-11.461900 0.000000
-11.419100 0.000000
-11.376300 0.000000
-11.333500 0.000000
-11.290700 0.000000
-11.247900 0.000000
-11.205100 0.000000
-11.162200 0.000000
-11.119400 0.000000
-11.076600 0.000000
-11.033800 0.000000
-10.991000 0.000000
-10.948200 0.000000
-10.905400 0.000000
-10.862600 0.000000
-10.819700 0.000000
-10.776900 0.000000
-10.734100 0.000000
-10.691300 0.000000
-10.648500 0.000000
-10.605700 0.000000
-10.562900 0.000000
-10.520100 0.000000
-10.477300 0.000000
-10.434400 0.000000
-10.391600 0.000000
-10.348800 0.000000
-10.306000 0.000000
-10.263200 0.000000
-10.220400 0.000000
-10.177600 0.000000
-10.134800 0.000000
-10.091900 0.000000
-10.049100 0.000000
-10.006300 0.000000
-9.963500 0.000000
-9.920700 0.000000
-9.877900 0.000000
-9.835100 0.000000
-9.792300 0.000000
-9.749400 0.000000
-9.706600 0.000000
-9.663800 0.000000
-9.621000 0.000000
-9.578200 0.000000
-9.535400 0.000000
-9.492600 0.000000
-9.449800 0.000000
-9.407000 0.000000
-9.364100 0.000000
-9.321300 0.000000
-9.278500 0.000000
-9.235700 0.000000
-9.192900 0.000000
-9.150100 0.000000
-9.107300 0.000000
-9.064500 0.000000
-9.021600 0.000000
-8.978800 0.000000
-8.936000 0.000000
-8.893200 0.000000
-8.850400 0.000000
-8.807600 0.000000
-8.764800 0.000000
-8.722000 0.000000
-8.679100 0.000000
-8.636300 0.000000
-8.593500 0.000000
-8.550700 0.000000
-8.507900 0.000000
-8.465100 0.000000
-8.422300 0.000000
-8.379500 0.000000
-8.336700 0.000000
-8.293800 0.000000
-8.251000 0.000000
-8.208200 0.000000
-8.165400 0.000000
-8.122600 0.000000
-8.079800 0.000000
-8.037000 0.000000
-7.994200 0.000000
-7.951300 0.000000
-7.908500 0.000000
-7.865700 0.000000
-7.822900 0.000000
-7.780100 0.000000
-7.737300 0.000000
-7.694500 0.000000
-7.651700 0.000000
-7.608800 0.000000
-7.566000 0.000000
-7.523200 0.000000
-7.480400 0.000000
-7.437600 0.000000
-7.394800 0.000000
-7.352000 0.000000
-7.309200 0.000000
-7.266400 0.000000
-7.223500 0.000000
-7.180700 0.000000
-7.137900 0.000000
-7.095100 0.000000
-7.052300 0.000000
-7.009500 0.000000
-6.966700 0.000000
-6.923900 0.000000
-6.881000 0.000000
-6.838200 0.000000
-6.795400 0.000000
-6.752600 0.000000
-6.709800 0.000000
-6.667000 0.000000
-6.624200 0.000000
-6.581400 0.000000
-6.538500 0.000000
-6.495700 0.000000
-6.452900 0.000000
-6.410100 0.000000
-6.367300 0.000000
-6.324500 0.000000
-6.281700 0.000000
-6.238900 0.000000
-6.196100 0.000000
-6.153200 0.000000
-6.110400 0.000000
-6.067600 0.000000
-6.024800 0.000000
-5.982000 0.000000
-5.939200 0.000000
-5.896400 0.000000
-5.853600 0.000000
-5.810700 0.000000
-5.767900 0.000000
-5.725100 0.000000
-5.682300 0.000000
-5.639500 0.000000
-5.596700 0.000000
-5.553900 0.000000
-5.511100 0.000000
-5.468200 0.000000
-5.425400 0.000000
-5.382600 0.000000
-5.339800 0.000000
-5.297000 0.000000
-5.254200 0.000000
-5.211400 0.000000
-5.168600 0.000000
-5.125800 0.000000
-5.082900 0.000000
-5.040100 0.000000
-4.997300 0.000000
-4.954500 0.000000
-4.911700 0.000000
-4.868900 0.000000
-4.826100 0.000000
-4.783300 0.000000
-4.740400 0.000000
-4.697600 0.000000
-4.654800 0.000000
-4.612000 0.000000
-4.569200 0.000000
-4.526400 0.000000
-4.483600 0.000000
-4.440800 0.000000
-4.397900 0.000000
-4.355100 0.000000
-4.312300 0.000000
-4.269500 0.000000
-4.226700 0.000000
-4.183900 0.000000
-4.141100 0.000000
-4.098300 0.000000
-4.055500 0.000000
-4.012600 0.000000
-3.969800 0.000000
-3.927000 0.000000
-3.884200 0.000000
-3.841400 0.000000
-3.798600 0.000000
-3.755800 0.000000
-3.713000 0.000000
-3.670100 0.000000
-3.627300 0.000000
-3.584500 0.000000
-3.541700 0.000000
-3.498900 0.000000
-3.456100 0.000000
-3.413300 0.000000
-3.370500 0.000000
-3.327600 0.000000
-3.284800 0.000000
-3.242000 0.000000
-3.199200 0.000000
-3.156400 0.000000
-3.113600 0.000000
-3.070800 0.000000
-3.028000 0.000000
-2.985200 0.000000
-2.942300 0.000000
-2.899500 0.000000
-2.856700 0.000000
-2.813900 0.000000
-2.771100 0.000000
-2.728300 0.000000
-2.685500 0.000000
-2.642700 0.000000
-2.599800 0.000000
-2.557000 0.000000
-2.514200 0.000000
-2.471400 0.000000
-2.428600 0.000000
-2.385800 0.000000
-2.343000 0.000000
-2.300200 0.000000
-2.257300 0.000000
-2.214500 0.000000
-2.171700 0.000000
-2.128900 0.000000
-2.086100 0.000000
-2.043300 0.000000
-2.000500 0.000000
-1.957700 0.000000
-1.914900 0.000000
-1.872000 0.000000
-1.829200 0.000000
-1.786400 0.000000
-1.743600 0.000000
-1.700800 0.000000
-1.658000 0.000000
-1.615200 0.000000
-1.572400 0.000000
-1.529500 0.000000
-1.486700 0.000000
-1.443900 0.000000
-1.401100 0.000000
-1.358300 0.000000
-1.315500 0.000000
-1.272700 0.000000
-1.229900 0.000000
-1.187000 0.000000
-1.144200 0.000000
-1.101400 0.000000
-1.058600 0.000000
-1.015800 0.000000
-0.973000 0.000000
-0.930200 0.000000
-0.887400 0.000000
-0.844600 0.000000
-0.801700 0.000000
-0.758900 0.000000
-0.716100 0.000000
-0.673300 0.000000
-0.630500 0.000000
-0.587700 0.000000
-0.544900 0.000000
-0.502100 0.006700
-0.459200 0.020800
-0.416400 0.038600
-0.373600 0.048100
-0.330800 0.051400
-0.288000 0.057500
-0.245200 0.062800
-0.202400 0.069200
-0.159600 0.076000
-0.116700 0.082700
-0.073900 0.088900
-0.031100 0.094100
0.011700 0.098500
0.054500 0.102600
0.097300 0.107000
0.140100 0.111700
0.182900 0.116900
0.225700 0.122300
0.268600 0.127800
0.311400 0.133400
0.354200 0.139600
0.397000 0.146000
0.439800 0.152600
0.482600 0.159000
0.525400 0.164700
0.568200 0.172900
0.611100 0.181800
0.653900 0.193100
0.696700 0.205700
0.739500 0.216000
0.782300 0.216700
0.825100 0.213200
0.867900 0.217200
0.910700 0.221200
0.953600 0.225000
0.996400 0.228700
1.039200 0.232000
1.082000 0.235000
1.124800 0.237200
1.167600 0.239600
1.210400 0.242300
1.253200 0.246600
1.296100 0.251400
1.338900 0.256500
1.381700 0.261900
1.424500 0.267600
1.467300 0.273500
1.510100 0.280100
1.552900 0.287300
1.595700 0.294800
1.638500 0.302900
1.681400 0.312100
1.724200 0.322100
1.767000 0.333000
1.809800 0.354200
1.852600 0.474300
1.895400 0.608200
1.938200 0.796300
1.981000 0.913200
2.023900 0.965300
2.066700 0.961700
2.109500 0.943600
2.152300 0.962600
2.195100 0.982800
2.237900 1.019500
2.280700 1.053400
2.323500 1.160900
2.366400 1.316900
2.409200 1.359800
2.452000 1.462600
2.494800 1.608800
2.537600 1.706800
2.580400 1.725000
2.623200 1.671500
2.666000 1.612900
2.708800 1.545100
2.751700 1.590500
2.794500 1.639100
2.837300 1.692800
2.880100 1.852400
2.922900 2.019100
2.965700 2.101600
3.008500 2.188400
3.051300 2.318900
3.094200 2.358500
3.137000 2.440900
3.179800 2.555600
3.222600 2.586900
3.265400 2.682500
3.308200 2.856000
3.351000 2.928100
3.393800 2.926700
3.436700 2.903900
3.479500 2.902800
3.522300 2.937400
3.565100 3.014300
3.607900 3.048500
3.650700 2.998300
3.693500 2.920900
3.736300 2.790600
3.779100 2.743700
3.822000 2.750100
3.864800 2.961700
3.907600 2.736100
3.950400 2.428100
3.993200 2.407700
4.036000 2.360600
4.078800 1.853900
4.121600 1.682000
4.164500 1.699100
4.207300 1.683600
4.250100 1.630500
4.292900 1.704200
4.335700 1.865200
4.378500 1.848200
4.421300 1.998800
4.464100 1.812000
4.507000 1.753400
4.549800 1.638600
4.592600 2.035800
4.635400 2.524300
4.678200 3.103400
4.721000 2.966900
4.763800 2.967700
4.806600 2.864400
4.849400 2.674100
4.892300 2.478100
4.935100 2.567800
4.977900 2.470200
5.020700 2.259000
5.063500 2.238700
5.106300 2.206300
5.149100 2.188200
5.191900 2.189300
5.234800 2.145800
5.277600 2.091000
5.320400 2.094800
5.363200 2.136100
5.406000 2.190000
5.448800 2.281900
5.491600 2.317000
5.534400 2.418400
5.577300 2.539700
5.620100 2.682900
5.662900 2.884100
5.705700 3.390000
5.748500 3.527400
5.791300 3.129700
5.834100 3.041600
5.876900 3.035800
5.919700 3.212200
5.962600 3.121300
6.005400 2.897100
6.048200 2.652800
6.091000 2.757500
6.133800 3.102000
6.176600 3.477800
6.219400 3.643800
6.262200 3.723300
6.305100 3.647500
6.347900 3.549800
6.390700 4.411800
6.433500 3.623500
6.476300 3.104200
6.519100 2.816300
6.561900 2.657200
6.604700 2.464700
6.647600 2.920400
6.690400 3.271400
6.733200 3.151500
6.776000 2.807500
6.818800 2.578200
6.861600 2.637500
6.904400 2.272800
6.947200 2.061300
6.990000 1.934900
7.032900 1.855300
7.075700 1.874000
7.118500 1.899000
7.161300 1.978600
7.204100 2.133200
7.246900 2.255300
7.289700 2.330400
7.332500 2.437900
7.375400 2.579400
7.418200 2.670600
7.461000 2.617800
7.503800 2.427000
7.546600 2.260100
7.589400 2.071300
7.632200 2.033900
7.675000 2.286500
7.717900 2.541600
7.760700 2.754200
7.803500 2.271100
7.846300 1.871200
7.889100 1.719500
7.931900 1.733000
7.974700 1.830800
8.017500 2.104000
8.060300 2.533200
8.103200 3.151500
8.146000 3.025500
8.188800 2.817500
8.231600 2.708000
8.274400 2.590900
8.317200 2.383200
8.360000 2.199400
8.402800 2.287600
8.445700 2.317900
8.488500 2.284100
8.531300 2.214000
8.574100 2.141000
8.616900 2.065300
8.659700 2.014200
8.702500 1.977800
8.745300 1.932300
8.788200 1.861700
8.831000 1.810100
8.873800 1.789900
8.916600 1.793900
8.959400 1.835100
9.002200 1.874200
9.045000 1.918000
9.087800 1.929700
9.130600 1.957700
9.173500 1.956600
9.216300 1.954800
9.259100 1.969600
9.301900 1.981200
9.344700 1.998600
9.387500 2.023600
9.430300 2.051100
9.473100 2.108100
9.516000 2.174400
9.558800 2.232200
9.601600 2.230800
9.644400 2.216800
9.687200 2.231200
9.730000 2.276000
9.772800 2.346100
9.815600 2.402000
9.858500 2.444700
9.901300 2.536600
9.944100 2.729900
9.986900 3.095100
10.029700 3.468800
10.072500 3.647000
10.115300 3.744000
10.158100 3.810500
10.200900 3.742300
10.243800 3.414700
10.286600 3.007500
10.329400 2.595500
10.372200 2.370200
10.415000 2.234000
10.457800 2.320500
10.500600 2.145900
10.543400 1.919500
10.586300 1.793800
10.629100 1.732700
10.671900 1.610300
10.714700 1.426500
10.757500 1.210600
10.800300 0.740000
10.843100 0.597500
10.885900 0.582400
10.928800 0.576100
10.971600 0.572100
11.014400 0.551700
11.057200 0.545900
11.100000 0.541700
11.142800 0.537300
11.185600 0.532200
11.228400 0.526700
11.271200 0.519400
11.314100 0.515200
11.356900 0.512600
11.399700 0.512400
11.442500 0.512900
11.485300 0.513100
11.528100 0.512900
11.570900 0.512500
11.613700 0.511700
11.656600 0.510000
11.699400 0.509900
11.742200 0.510100
11.785000 0.511000
11.827800 0.512400
11.870600 0.513800
11.913400 0.516300
11.956200 0.518800
11.999100 0.520800
12.041900 0.522300
12.084700 0.523300
12.127500 0.523800
12.170300 0.524400
12.213100 0.525400
12.255900 0.526700
12.298700 0.528000
12.341500 0.529500
12.384400 0.530900
12.427200 0.531900
12.470000 0.532800
12.512800 0.533500
12.555600 0.533500
12.598400 0.534900
12.641200 0.539000
12.684000 0.541900
12.726900 0.546900
12.769700 0.545300
12.812500 0.538100
12.855300 0.530700
12.898100 0.524100
12.940900 0.517300
12.983700 0.510800
13.026500 0.505300
13.069400 0.500500
13.112200 0.496100
13.155000 0.491900
13.197800 0.487700
13.240600 0.483700
13.283400 0.480400
13.326200 0.478200
13.369000 0.476800
13.411800 0.476100
13.454700 0.476400
13.497500 0.479200
13.540300 0.482600
13.583100 0.487400
13.625900 0.490400
13.668700 0.488600
13.711500 0.496300
13.754300 0.512700
13.797200 0.526000
13.840000 0.523700
13.882800 0.503900
13.925600 0.491200
13.968400 0.485900
14.011200 0.485000
14.054000 0.485600
14.096800 0.485800
14.139700 0.486900
14.182500 0.496900
14.225300 0.502700
14.268100 0.503600
14.310900 0.502600
14.353700 0.500200
14.396500 0.497500
14.439300 0.497700
14.482100 0.509500
14.525000 0.503000
14.567800 0.485100
14.610600 0.468700
14.653400 0.453700
14.696200 0.440000
14.739000 0.431500
14.781800 0.425200
14.824600 0.420100
14.867500 0.414500
14.910300 0.408800
14.953100 0.402700
14.995900 0.395200
15.038700 0.386600
15.081500 0.376200
15.124300 0.364900
15.167100 0.355700
15.210000 0.349800
15.252800 0.347100
15.295600 0.348900
15.338400 0.355400
15.381200 0.370500
15.424000 0.352300
15.466800 0.349900
15.509600 0.347900
15.552400 0.350700
15.595300 0.353600
15.638100 0.355500
15.680900 0.356600
15.723700 0.359900
15.766500 0.371300
15.809300 0.383200
15.852100 0.427900
15.894900 0.425800
15.937800 0.408500
15.980600 0.401400
16.023400 0.391400
16.066200 0.379400
16.109000 0.368400
16.151800 0.357700
16.194600 0.362600
16.237400 0.361300
16.280300 0.327800
16.323100 0.306100
16.365900 0.290000
16.408700 0.296900
16.451500 0.303600
16.494300 0.311300
16.537100 0.317500
16.579900 0.326700
16.622800 0.349600
16.665600 0.376500
16.708400 0.389200
16.751200 0.381400
16.794000 0.364200
16.836800 0.361700
16.879600 0.368300
16.922400 0.379100
16.965200 0.415500
17.008100 0.484200
17.050900 0.650400
17.093700 0.805100
17.136500 0.923100
17.179300 0.860300
17.222100 0.845600
17.264900 0.837600
17.307700 0.821700
17.350600 0.790000
17.393400 0.791100
17.436200 0.768800
17.479000 0.767500
17.521800 0.745800
17.564600 0.723900
17.607400 0.705700
17.650200 0.693300
17.693100 0.682800
17.735900 0.677800
17.778700 0.671500
17.821500 0.664800
17.864300 0.655700
17.907100 0.645900
17.949900 0.639900
17.992700 0.638300
18.035500 0.640600
18.078400 0.637700
18.121200 0.639900
18.164000 0.643800
18.206800 0.652100
18.249600 0.650600
18.292400 0.650400
18.335200 0.631800
18.378000 0.632300
18.420900 0.631400
18.463700 0.634100
18.506500 0.628500
18.549300 0.631000
18.592100 0.650600
18.634900 0.631100
18.677700 0.602900
18.720500 0.563900
18.763400 0.532400
18.806200 0.514100
18.849000 0.498200
18.891800 0.484500
18.934600 0.472800
18.977400 0.463600
19.020200 0.455300
19.063000 0.453500
19.105800 0.449800
19.148700 0.442300
19.191500 0.440100
19.234300 0.445000
19.277100 0.451200
19.319900 0.457500
19.362700 0.469700
19.405500 0.483300
19.448300 0.494600
19.491200 0.508700
19.534000 0.520000
19.576800 0.527700
19.619600 0.530700
19.662400 0.532000
19.705200 0.545400
19.748000 0.566000
19.790800 0.595900
19.833700 0.646600
19.876500 0.651200
19.919300 0.696100
19.962100 0.777100
20.004900 0.771700
20.047700 0.761900
20.090500 0.753600
20.133300 0.741800
20.176100 0.726100
20.219000 0.705000
20.261800 0.691500
20.304600 0.693000
20.347400 0.708700
20.390200 0.670000
20.433000 0.634100
20.475800 0.614300
20.518600 0.600100
20.561500 0.588100
20.604300 0.593700
20.647100 0.596700
20.689900 0.582300
20.732700 0.567200
20.775500 0.563400
20.818300 0.556700
20.861100 0.551400
20.904000 0.555600
20.946800 0.568000
20.989600 0.590500
21.032400 0.616700
21.075200 0.642200
21.118000 0.692200
21.160800 0.730600
21.203600 0.761600
21.246400 0.778600
21.289300 0.789900
21.332100 0.800600
21.374900 0.808600
21.417700 0.808500
21.460500 0.818400
21.503300 0.826400
21.546100 0.805000
21.588900 0.793200
21.631800 0.801300
21.674600 0.820300
21.717400 0.837100
21.760200 0.868800
21.803000 0.928300
21.845800 0.981900
21.888600 0.971000
21.931400 0.940200
21.974300 0.913700
22.017100 0.897900
22.059900 0.896800
22.102700 0.911400
22.145500 0.913000
22.188300 0.898900
22.231100 0.891200
22.273900 0.888200
22.316700 0.899400
22.359600 0.916600
22.402400 0.948200
22.445200 1.017700
22.488000 1.054800
22.530800 1.057800
22.573600 1.065500
22.616400 1.072500
22.659200 1.074600
22.702100 1.074500
22.744900 1.077300
22.787700 1.079400
22.830500 1.081400
22.873300 1.079200
22.916100 1.072100
22.958900 1.061800
23.001700 1.050200
23.044600 1.044200
23.087400 1.043300
23.130200 1.043700
23.173000 1.046400
23.215800 1.051000
23.258600 1.055900
23.301400 1.060300
23.344200 1.065200
23.387000 1.072100
23.429900 1.084700
23.472700 1.091500
23.515500 1.092500
23.558300 1.093500
23.601100 1.091300
23.643900 1.087500
23.686700 1.083100
23.729500 1.081100
23.772400 1.083700
23.815200 1.091400
23.858000 1.113400
23.900800 1.142100
23.943600 1.176500
23.986400 1.194900
24.029200 1.215000
24.072000 1.213400
24.114900 1.228700
24.157700 1.247500
24.200500 1.266800
24.243300 1.294700
24.286100 1.320900
24.328900 1.337100
24.371700 1.356800
24.414500 1.386000
24.457300 1.417200
24.500200 1.464600
24.543000 1.505900
24.585800 1.515900
24.628600 1.537900
24.671400 1.569300
24.714200 1.604000
24.757000 1.633900
24.799800 1.662800
24.842700 1.712800
24.885500 1.728000
24.928300 1.726400
24.971100 1.735300
25.013900 1.711700
25.056700 1.747200
25.099500 1.747200
25.142300 1.664100
25.185200 1.669500
25.228000 1.646100
25.270800 1.601000
25.313600 1.543800
25.356400 1.483900
25.399200 1.437500
25.442000 1.407300
25.484800 1.363900
25.527600 1.349600
25.570500 1.307200
25.613300 1.278800
25.656100 1.254900
25.698900 1.242100
25.741700 1.244400
25.784500 1.249000
25.827300 1.247700
25.870100 1.250000
25.913000 1.262100
25.955800 1.296700
25.998600 1.333100
26.041400 1.337800
26.084200 1.313600
26.127000 1.304600
26.169800 1.328800
26.212600 1.357200
26.255500 1.379100
26.298300 1.346600
26.341100 1.292100
26.383900 1.270900
26.426700 1.266700
26.469500 1.273900
26.512300 1.234200
26.555100 1.227000
26.597900 1.253400
26.640800 1.279300
26.683600 1.290400
26.726400 1.296900
26.769200 1.289900
26.812000 1.277700
26.854800 1.272000
26.897600 1.264700
26.940400 1.233200
26.983300 1.208200
27.026100 1.193700
27.068900 1.196900
27.111700 1.198900
27.154500 1.197600
27.197300 1.209900
27.240100 1.227100
27.282900 1.222800
27.325800 1.290200
27.368600 1.251700
27.411400 1.244900
27.454200 1.144900
27.497000 1.071100
27.539800 1.043400
27.582600 1.015700
27.625400 0.976700
27.668200 0.932200
27.711100 0.886600
27.753900 0.843700
27.796700 0.804500
27.839500 0.751000
27.882300 0.708200
27.925100 0.674000
27.967900 0.641600
28.010700 0.597300
28.053600 0.562100
28.096400 0.535700
28.139200 0.510700
28.182000 0.499600
28.224800 0.490600
28.267600 0.485100
28.310400 0.480400
28.353200 0.475900
28.396100 0.471700
28.438900 0.469000
28.481700 0.468900
28.524500 0.470300
28.567300 0.472200
28.610100 0.479100
28.652900 0.484200
28.695700 0.519900
28.738500 0.548000
28.781400 0.571600
28.824200 0.592100
28.867000 0.616200
28.909800 0.636500
28.952600 0.655100
28.995400 0.674000
29.038200 0.694300
29.081000 0.717300
29.123900 0.740300
29.166700 0.762100
29.209500 0.784700
29.252300 0.830700
29.295100 0.853300
29.337900 0.886300
29.380700 0.928800
29.423500 0.974000
29.466400 1.031900
29.509200 1.094800
29.552000 1.156300
29.594800 1.209300
29.637600 1.238600
29.680400 1.262000
29.723200 1.275400
29.766000 1.289400
29.808800 1.309000
29.851700 1.355800
29.894500 1.429700
29.937300 1.476500
29.980100 1.537600
30.022900 1.553400
30.065700 1.600500
30.108500 1.705600
30.151300 1.762200
30.194200 1.764900
30.237000 1.671700
30.279800 1.597500
30.322600 1.551400
30.365400 1.552100
30.408200 1.483200
30.451000 1.470000
30.493800 1.472000
30.536700 1.469100
30.579500 1.459600
30.622300 1.444300
30.665100 1.448400
30.707900 1.460500
30.750700 1.458000
30.793500 1.428000
30.836300 1.388000
30.879100 1.351400
30.922000 1.367400
30.964800 1.374000
31.007600 1.423200
31.050400 1.462600
31.093200 1.473600
31.136000 1.467900
31.178800 1.454700
31.221600 1.435600
31.264500 1.413000
31.307300 1.411600
31.350100 1.408600
31.392900 1.397100
31.435700 1.382200
31.478500 1.381600
31.521300 1.376300
31.564100 1.360000
31.607000 1.328700
31.649800 1.306800
31.692600 1.299900
31.735400 1.301400
31.778200 1.297500
31.821000 1.288800
31.863800 1.271200
31.906600 1.253900
31.949400 1.228500
31.992300 1.189300
32.035100 1.153500
32.077900 1.131100
32.120700 1.104100
32.163500 1.039400
32.206300 0.985900
32.249100 0.960900
32.291900 0.883700
32.334800 0.852800
32.377600 0.827800
32.420400 0.804300
32.463200 0.776800
32.506000 0.751700
32.548800 0.730900
32.591600 0.712600
32.634400 0.697100
32.677300 0.685400
32.720100 0.672900
32.762900 0.658400
32.805700 0.642400
32.848500 0.628500
32.891300 0.619400
32.934100 0.617700
32.976900 0.620600
33.019800 0.624500
33.062600 0.630800
33.105400 0.639900
33.148200 0.662600
33.191000 0.695500
33.233800 0.744400
33.276600 0.854000
33.319400 0.634400
33.362200 0.605000
33.405100 0.584200
33.447900 0.571800
33.490700 0.563500
33.533500 0.556300
33.576300 0.547700
33.619100 0.537600
33.661900 0.524700
33.704700 0.499000
33.747600 0.496600
33.790400 0.512700
33.833200 0.527400
33.876000 0.548100
33.918800 0.577500
33.961600 0.651600
34.004400 0.726800
34.047200 0.770800
34.090100 0.782200
34.132900 0.771000
34.175700 0.790500
34.218500 0.826100
34.261300 0.862600
34.304100 0.899000
34.346900 0.930500
34.389700 0.962100
34.432500 0.980100
34.475400 0.987000
34.518200 0.996200
34.561000 1.010400
34.603800 1.026300
34.646600 1.035100
34.689400 1.033600
34.732200 1.066300
34.775000 1.106600
34.817900 1.123200
34.860700 1.118900
34.903500 1.088900
34.946300 1.049100
34.989100 1.011800
35.031900 0.990300
35.074700 0.986200
35.117500 0.978200
35.160400 0.991800
35.203200 1.006000
35.246000 1.045100
35.288800 1.094700
35.331600 1.098000
35.374400 1.104700
35.417200 1.125200
35.460000 1.148300
35.502800 1.171100
35.545700 1.191500
35.588500 1.232200
35.631300 1.257300
35.674100 1.295300
35.716900 1.327100
35.759700 1.342500
35.802500 1.364400
35.845300 1.393300
35.888200 1.446900
35.931000 1.446400
35.973800 1.385500
36.016600 1.325700
36.059400 1.300500
36.102200 1.278500
36.145000 1.247800
36.187800 1.213300
36.230700 1.193900
36.273500 1.185000
36.316300 1.183400
36.359100 1.149600
36.401900 1.150700
36.444700 1.156200
36.487500 1.168400
36.530300 1.193000
36.573100 1.204000
36.616000 1.209000
36.658800 1.214000
36.701600 1.218500
36.744400 1.267800
36.787200 1.321100
36.830000 1.454800
36.872800 1.605000
36.915600 1.832600
36.958500 2.181800
37.001300 2.722900
37.044100 3.542600
37.086900 4.826100
37.129700 8.198700
37.172500 5.009800
37.215300 6.602600
37.258100 3.929300
37.301000 2.622700
37.343800 2.267400
37.386600 2.275300
37.429400 2.296300
37.472200 2.201100
37.515000 2.024700
37.557800 1.893100
37.600600 1.806400
37.643400 1.747300
37.686300 1.657200
37.729100 1.601900
37.771900 1.539900
37.814700 1.490900
37.857500 1.451900
37.900300 1.400200
37.943100 1.433800
37.985900 1.301100
38.028800 1.296500
38.071600 1.361500
38.114400 1.557400
38.157200 1.670600
38.200000 2.169000
38.242800 2.008300
38.285600 2.066200
38.328400 2.181800
38.371300 2.279800
38.414100 2.367500
38.456900 2.502900
38.499700 2.532200
38.542500 2.534300
38.585300 2.564500
38.628100 2.530500
38.670900 2.554100
38.713700 2.407000
38.756600 2.226700
38.799400 2.194900
38.842200 2.209300
38.885000 2.206500
38.927800 2.152000
38.970600 2.082100
39.013400 2.017700
39.056200 1.975900
39.099100 1.954200
39.141900 1.931200
39.184700 1.898000
39.227500 1.862800
39.270300 1.828600
39.313100 1.804900
39.355900 1.787900
39.398700 1.784300
39.441600 1.800400
39.484400 1.865900
39.527200 1.830100
39.570000 1.775100
39.612800 1.756000
39.655600 1.772800
39.698400 1.759600
39.741200 1.697400
39.784000 1.618000
39.826900 1.584900
39.869700 1.562200
39.912500 1.533100
39.955300 1.515400
39.998100 1.495300
40.040900 1.484000
40.083700 1.483400
40.126500 1.479100
40.169400 1.486900
40.212200 1.515400
40.255000 1.558700
40.297800 1.601900
40.340600 1.692200
40.383400 1.695900
40.426200 1.660500
40.469000 1.643700
40.511900 1.639200
40.554700 1.645900
40.597500 1.706100
40.640300 1.813000
40.683100 2.056200
40.725900 2.346000
40.768700 2.592900
40.811500 3.205900
40.854300 3.672600
40.897200 4.381300
40.940000 5.734800
40.982800 8.063800
41.025600 17.891800
41.068400 23.251900
41.111200 17.449700
41.154000 8.814800
41.196800 4.341000
41.239700 2.956600
41.282500 2.219500
41.325300 1.650800
41.368100 1.360800
41.410900 1.174400
41.453700 1.028500
41.496500 0.888300
41.539300 0.779600
41.582200 0.700200
41.625000 0.636600
41.667800 0.585700
41.710600 0.519800
41.753400 0.481000
41.796200 0.446200
41.839000 0.418100
41.881800 0.393700
41.924600 0.371700
41.967500 0.353000
42.010300 0.337800
42.053100 0.323400
42.095900 0.309300
42.138700 0.295900
42.181500 0.283500
42.224300 0.271600
42.267100 0.260200
42.310000 0.249300
42.352800 0.237400
42.395600 0.223900
42.438400 0.210300
42.481200 0.199300
42.524000 0.190200
42.566800 0.183700
42.609600 0.176800
42.652500 0.169500
42.695300 0.161700
42.738100 0.153500
42.780900 0.144500
42.823700 0.135600
42.866500 0.127000
42.909300 0.118800
42.952100 0.111100
42.994900 0.105100
43.037800 0.101100
43.080600 0.098500
43.123400 0.097600
43.166200 0.113400
43.209000 0.091500
43.251800 0.082900
43.294600 0.072500
43.337400 0.060200
43.380300 0.046200
43.423100 0.036100
43.465900 0.020600
43.508700 0.009400
43.551500 0.002500
43.594300 0.000000
43.637100 0.000000
43.679900 0.000000
43.722800 0.000000
43.765600 0.000000
43.808400 0.000000
43.851200 0.000000
43.894000 0.000000
43.936800 0.000000
43.979600 0.000000
44.022400 0.000000
44.065200 0.000000
44.108100 0.000000
44.150900 0.000000
44.193700 0.000000
44.236500 0.000000
44.279300 0.000000
44.322100 0.000000
44.364900 0.000000
44.407700 0.000000
44.450600 0.000000
44.493400 0.000000
44.536200 0.000000
44.579000 0.000000
44.621800 0.000000
44.664600 0.000000
44.707400 0.000000
44.750200 0.000000
44.793100 0.000000
44.835900 0.000000
44.878700 0.000000
44.921500 0.000000
44.964300 0.000000
45.007100 0.000000
45.049900 0.000000
45.092700 0.000000
45.135500 0.000000
45.178400 0.000000
45.221200 0.000000
45.264000 0.000000
45.306800 0.000000
45.349600 0.000000
45.392400 0.000000
45.435200 0.000000
45.478000 0.000000
45.520900 0.000000
45.563700 0.000000
45.606500 0.000000
45.649300 0.000000
45.692100 0.000000
45.734900 0.000000
45.777700 0.000000
45.820500 0.000000
45.863400 0.000000
45.906200 0.000000
45.949000 0.000000
45.991800 0.000000
46.034600 0.000000
46.077400 0.000000
46.120200 0.000000
46.163000 0.000000
46.205800 0.000000
46.248700 0.000000
46.291500 0.000000
46.334300 0.000000
46.377100 0.000000
46.419900 0.000000
46.462700 0.000000
46.505500 0.000000
46.548300 0.000000
46.591200 0.000000
46.634000 0.000000
46.676800 0.000000
46.719600 0.000000
46.762400 0.000000
46.805200 0.000000
46.848000 0.000000
46.890800 0.000000
46.933700 0.000000
46.976500 0.000000
47.019300 0.000000
47.062100 0.000000
47.104900 0.000000
47.147700 0.000000
47.190500 0.000000
47.233300 0.000000
47.276100 0.000000
47.319000 0.000000
47.361800 0.000000
47.404600 0.000000
47.447400 0.000000
47.490200 0.000000
e
