set title 'mp-641945 - Density of States'
set xlabel 'Energy (eV)'
set ylabel 'DOS (states/eV)'
set grid
set xrange [-10:10]
set yrange [0:51.749]
set xzeroaxis lt -1
set terminal png size 800,600
set output 'mp-641945_dos_gnuplot.png'
plot '-' using 1:2 with lines title 'DOS'
-17.967500 0.000000
-17.951900 0.000000
-17.936300 0.000000
-17.920700 0.000000
-17.905100 0.000000
-17.889400 0.000000
-17.873800 0.000000
-17.858200 0.000000
-17.842600 0.000000
-17.827000 0.000000
-17.811400 0.000000
-17.795700 0.000000
-17.780100 0.000000
-17.764500 0.000000
-17.748900 0.000000
-17.733300 0.000000
-17.717700 0.000000
-17.702000 0.000000
-17.686400 0.000000
-17.670800 0.000000
-17.655200 0.000000
-17.639600 0.000000
-17.624000 0.000000
-17.608300 0.000000
-17.592700 0.000000
-17.577100 0.000000
-17.561500 0.000000
-17.545900 0.000000
-17.530300 0.000000
-17.514600 0.000000
-17.499000 0.000000
-17.483400 0.000000
-17.467800 0.000000
-17.452200 0.000000
-17.436600 0.000000
-17.420900 0.000000
-17.405300 0.000000
-17.389700 0.000000
-17.374100 0.000000
-17.358500 0.000000
-17.342900 0.000000
-17.327200 0.000000
-17.311600 0.000000
-17.296000 0.000000
-17.280400 0.000000
-17.264800 0.000000
-17.249200 0.000000
-17.233500 0.000000
-17.217900 0.000000
-17.202300 0.000000
-17.186700 0.000000
-17.171100 0.000000
-17.155500 0.000000
-17.139800 0.000000
-17.124200 0.000000
-17.108600 0.000000
-17.093000 0.000000
-17.077400 0.000000
-17.061800 0.000000
-17.046100 0.000000
-17.030500 0.000000
-17.014900 0.000000
-16.999300 0.000000
-16.983700 0.000000
-16.968100 0.000000
-16.952400 0.000000
-16.936800 0.000000
-16.921200 0.000000
-16.905600 0.000000
-16.890000 0.000000
-16.874400 0.000000
-16.858700 0.000000
-16.843100 0.000000
-16.827500 0.000000
-16.811900 0.000000
-16.796300 0.000000
-16.780700 0.000000
-16.765000 0.000000
-16.749400 0.000000
-16.733800 0.000000
-16.718200 0.000000
-16.702600 0.000000
-16.687000 0.000000
-16.671300 0.000000
-16.655700 0.000000
-16.640100 0.000000
-16.624500 0.000000
-16.608900 0.000000
-16.593300 0.000000
-16.577600 0.000000
-16.562000 0.000000
-16.546400 116.801400
-16.530800 425.443000
-16.515200 36.442900
-16.499600 0.000000
-16.483900 38.828200
-16.468300 41.664600
-16.452700 0.000000
-16.437100 0.000000
-16.421500 206.246800
-16.405900 0.000000
-16.390200 0.000000
-16.374600 219.291900
-16.359000 38.466400
-16.343400 349.400000
-16.327800 32.258800
-16.312200 46.569400
-16.296500 59.041200
-16.280900 441.553100
-16.265300 118.353300
-16.249700 322.809600
-16.234100 73.105300
-16.218500 41.239500
-16.202800 110.120800
-16.187200 0.000000
-16.171600 0.000000
-16.156000 0.000000
-16.140400 0.000000
-16.124800 0.000000
-16.109100 0.000000
-16.093500 0.000000
-16.077900 0.000000
-16.062300 0.000000
-16.046700 0.000000
-16.031100 0.000000
-16.015400 0.000000
-15.999800 0.000000
-15.984200 0.000000
-15.968600 0.000000
-15.953000 0.000000
-15.937400 0.000000
-15.921700 0.000000
-15.906100 0.000000
-15.890500 0.000000
-15.874900 0.000000
-15.859300 0.000000
-15.843700 0.000000
-15.828000 0.000000
-15.812400 0.000000
-15.796800 0.000000
-15.781200 0.000000
-15.765600 0.000000
-15.750000 0.000000
-15.734300 0.000000
-15.718700 0.000000
-15.703100 0.000000
-15.687500 0.000000
-15.671900 0.000000
-15.656300 0.000000
-15.640600 0.000000
-15.625000 0.000000
-15.609400 0.000000
-15.593800 0.000000
-15.578200 0.000000
-15.562600 0.000000
-15.546900 0.000000
-15.531300 0.000000
-15.515700 0.000000
-15.500100 0.000000
-15.484500 0.000000
-15.468800 0.000000
-15.453200 0.000000
-15.437600 0.000000
-15.422000 0.000000
-15.406400 0.000000
-15.390800 0.000000
-15.375100 0.000000
-15.359500 0.000000
-15.343900 0.000000
-15.328300 0.000000
-15.312700 0.000000
-15.297100 0.000000
-15.281400 0.000000
-15.265800 0.000000
-15.250200 0.000000
-15.234600 0.000000
-15.219000 0.000000
-15.203400 0.000000
-15.187700 0.000000
-15.172100 0.000000
-15.156500 0.000000
-15.140900 0.000000
-15.125300 0.000000
-15.109700 0.000000
-15.094000 0.000000
-15.078400 0.000000
-15.062800 0.000000
-15.047200 0.000000
-15.031600 0.000000
-15.016000 0.000000
-15.000300 0.000000
-14.984700 0.000000
-14.969100 0.000000
-14.953500 0.000000
-14.937900 0.000000
-14.922300 0.000000
-14.906600 0.000000
-14.891000 0.000000
-14.875400 0.000000
-14.859800 0.000000
-14.844200 0.000000
-14.828600 0.000000
-14.812900 0.000000
-14.797300 0.000000
-14.781700 0.000000
-14.766100 0.000000
-14.750500 0.000000
-14.734900 0.000000
-14.719200 0.000000
-14.703600 0.000000
-14.688000 0.000000
-14.672400 0.000000
-14.656800 0.000000
-14.641200 0.000000
-14.625500 0.000000
-14.609900 0.000000
-14.594300 0.000000
-14.578700 0.000000
-14.563100 0.000000
-14.547500 0.000000
-14.531800 0.000000
-14.516200 0.000000
-14.500600 0.000000
-14.485000 0.000000
-14.469400 0.000000
-14.453800 0.000000
-14.438100 0.000000
-14.422500 0.000000
-14.406900 0.000000
-14.391300 0.000000
-14.375700 0.000000
-14.360100 0.000000
-14.344400 0.000000
-14.328800 0.000000
-14.313200 0.000000
-14.297600 0.000000
-14.282000 0.000000
-14.266400 0.000000
-14.250700 0.000000
-14.235100 0.000000
-14.219500 0.000000
-14.203900 0.000000
-14.188300 0.000000
-14.172700 0.000000
-14.157000 0.000000
-14.141400 0.000000
-14.125800 0.000000
-14.110200 0.000000
-14.094600 0.000000
-14.079000 0.000000
-14.063300 0.000000
-14.047700 0.000000
-14.032100 0.000000
-14.016500 0.000000
-14.000900 0.000000
-13.985300 0.000000
-13.969600 0.000000
-13.954000 0.000000
-13.938400 0.000000
-13.922800 0.000000
-13.907200 0.000000
-13.891600 0.000000
-13.875900 0.000000
-13.860300 0.000000
-13.844700 0.000000
-13.829100 0.000000
-13.813500 0.000000
-13.797900 0.000000
-13.782200 0.000000
-13.766600 0.000000
-13.751000 0.000000
-13.735400 0.000000
-13.719800 0.000000
-13.704200 0.000000
-13.688500 0.000000
-13.672900 0.000000
-13.657300 0.000000
-13.641700 0.000000
-13.626100 0.000000
-13.610500 0.000000
-13.594800 0.000000
-13.579200 0.000000
-13.563600 0.000000
-13.548000 0.000000
-13.532400 0.000000
-13.516800 0.000000
-13.501100 0.000000
-13.485500 0.000000
-13.469900 0.000000
-13.454300 0.000000
-13.438700 0.000000
-13.423100 0.000000
-13.407400 0.000000
-13.391800 0.000000
-13.376200 0.000000
-13.360600 0.000000
-13.345000 0.000000
-13.329400 0.000000
-13.313700 0.000000
-13.298100 0.000000
-13.282500 0.000000
-13.266900 0.000000
-13.251300 0.000000
-13.235700 0.000000
-13.220000 0.000000
-13.204400 0.000000
-13.188800 0.000000
-13.173200 0.000000
-13.157600 0.000000
-13.142000 0.000000
-13.126300 0.000000
-13.110700 0.000000
-13.095100 0.000000
-13.079500 0.000000
-13.063900 0.000000
-13.048300 0.000000
-13.032600 0.000000
-13.017000 0.000000
-13.001400 0.000000
-12.985800 0.000000
-12.970200 0.000000
-12.954600 0.000000
-12.938900 0.000000
-12.923300 0.000000
-12.907700 0.000000
-12.892100 0.000000
-12.876500 0.000000
-12.860900 0.000000
-12.845200 0.000000
-12.829600 0.000000
-12.814000 0.000000
-12.798400 0.000000
-12.782800 0.000000
-12.767200 0.000000
-12.751500 0.000000
-12.735900 0.000000
-12.720300 0.000000
-12.704700 0.000000
-12.689100 0.000000
-12.673500 0.000000
-12.657800 0.000000
-12.642200 0.000000
-12.626600 0.000000
-12.611000 0.000000
-12.595400 0.000000
-12.579800 0.000000
-12.564100 0.000000
-12.548500 0.000000
-12.532900 0.000000
-12.517300 0.000000
-12.501700 0.000000
-12.486100 0.000000
-12.470400 0.000000
-12.454800 0.000000
-12.439200 0.000000
-12.423600 0.000000
-12.408000 0.000000
-12.392400 0.000000
-12.376700 0.000000
-12.361100 0.000000
-12.345500 0.000000
-12.329900 0.000000
-12.314300 0.000000
-12.298700 0.000000
-12.283000 0.000000
-12.267400 0.000000
-12.251800 0.000000
-12.236200 0.000000
-12.220600 0.000000
-12.205000 0.000000
-12.189300 0.000000
-12.173700 0.000000
-12.158100 0.000000
-12.142500 0.000000
-12.126900 0.000000
-12.111300 0.000000
-12.095600 0.000000
-12.080000 0.000000
-12.064400 0.000000
-12.048800 0.000000
-12.033200 0.000000
-12.017600 0.000000
-12.001900 0.000000
-11.986300 0.000000
-11.970700 0.000000
-11.955100 0.000000
-11.939500 0.000000
-11.923900 0.000000
-11.908200 0.000000
-11.892600 0.000000
-11.877000 0.000000
-11.861400 0.000000
-11.845800 0.000000
-11.830200 0.000000
-11.814500 0.000000
-11.798900 0.000000
-11.783300 0.000000
-11.767700 0.000000
-11.752100 0.000000
-11.736500 0.000000
-11.720800 0.000000
-11.705200 0.000000
-11.689600 0.000000
-11.674000 0.000000
-11.658400 0.000000
-11.642800 0.000000
-11.627100 0.000000
-11.611500 0.000000
-11.595900 0.000000
-11.580300 0.000000
-11.564700 0.000000
-11.549100 0.000000
-11.533400 0.000000
-11.517800 0.000000
-11.502200 0.000000
-11.486600 0.000000
-11.471000 0.000000
-11.455400 0.000000
-11.439700 0.000000
-11.424100 0.000000
-11.408500 0.000000
-11.392900 0.000000
-11.377300 0.000000
-11.361700 0.000000
-11.346000 0.000000
-11.330400 0.000000
-11.314800 0.000000
-11.299200 0.000000
-11.283600 0.000000
-11.268000 0.000000
-11.252300 0.000000
-11.236700 0.000000
-11.221100 0.000000
-11.205500 0.000000
-11.189900 0.000000
-11.174300 0.000000
-11.158600 0.000000
-11.143000 0.000000
-11.127400 0.000000
-11.111800 0.000000
-11.096200 0.000000
-11.080600 0.000000
-11.064900 0.000000
-11.049300 0.000000
-11.033700 0.000000
-11.018100 0.000000
-11.002500 0.000000
-10.986900 0.000000
-10.971200 0.000000
-10.955600 0.000000
-10.940000 0.000000
-10.924400 0.000000
-10.908800 0.000000
-10.893200 0.000000
-10.877500 0.000000
-10.861900 0.000000
-10.846300 0.000000
-10.830700 0.000000
-10.815100 0.000000
-10.799500 0.000000
-10.783800 0.000000
-10.768200 0.000000
-10.752600 0.000000
-10.737000 0.000000
-10.721400 0.000000
-10.705800 0.000000
-10.690100 0.000000
-10.674500 0.000000
-10.658900 0.000000
-10.643300 0.000000
-10.627700 0.000000
-10.612100 0.000000
-10.596400 0.000000
-10.580800 0.000000
-10.565200 0.000000
-10.549600 0.000000
-10.534000 0.000000
-10.518400 0.000000
-10.502700 0.000000
-10.487100 0.000000
-10.471500 0.000000
-10.455900 0.000000
-10.440300 0.000000
-10.424700 0.000000
-10.409000 0.000000
-10.393400 0.000000
-10.377800 0.000000
-10.362200 0.000000
-10.346600 0.000000
-10.331000 0.000000
-10.315300 0.000000
-10.299700 0.000000
-10.284100 0.000000
-10.268500 0.000000
-10.252900 0.000000
-10.237300 0.000000
-10.221600 0.000000
-10.206000 0.000000
-10.190400 0.000000
-10.174800 0.000000
-10.159200 0.000000
-10.143600 0.000000
-10.127900 0.000000
-10.112300 0.000000
-10.096700 0.000000
-10.081100 0.000000
-10.065500 0.000000
-10.049900 0.000000
-10.034200 0.000000
-10.018600 0.000000
-10.003000 0.000000
-9.987400 0.000000
-9.971800 0.000000
-9.956200 0.000000
-9.940500 0.000000
-9.924900 0.000000
-9.909300 0.000000
-9.893700 0.000000
-9.878100 0.000000
-9.862500 0.000000
-9.846800 0.000000
-9.831200 0.000000
-9.815600 0.000000
-9.800000 0.000000
-9.784400 0.000000
-9.768800 0.000000
-9.753100 0.000000
-9.737500 0.000000
-9.721900 0.000000
-9.706300 0.000000
-9.690700 0.000000
-9.675100 0.000000
-9.659400 0.000000
-9.643800 0.000000
-9.628200 0.000000
-9.612600 0.000000
-9.597000 0.000000
-9.581400 0.000000
-9.565700 0.000000
-9.550100 0.000000
-9.534500 0.000000
-9.518900 0.000000
-9.503300 0.000000
-9.487700 0.000000
-9.472000 0.000000
-9.456400 0.000000
-9.440800 0.000000
-9.425200 0.000000
-9.409600 0.000000
-9.394000 0.000000
-9.378300 0.000000
-9.362700 0.000000
-9.347100 0.000000
-9.331500 0.000000
-9.315900 0.000000
-9.300300 0.000000
-9.284600 0.000000
-9.269000 0.000000
-9.253400 0.000000
-9.237800 0.000000
-9.222200 0.000000
-9.206600 0.000000
-9.190900 0.000000
-9.175300 0.000000
-9.159700 0.000000
-9.144100 0.000000
-9.128500 0.000000
-9.112900 0.000000
-9.097200 0.000000
-9.081600 0.000000
-9.066000 0.000000
-9.050400 0.000000
-9.034800 0.000000
-9.019200 0.000000
-9.003500 0.000000
-8.987900 0.000000
-8.972300 0.000000
-8.956700 0.000000
-8.941100 0.000000
-8.925500 0.000000
-8.909800 0.000000
-8.894200 0.000000
-8.878600 0.000000
-8.863000 0.000000
-8.847400 0.000000
-8.831800 0.000000
-8.816100 0.000000
-8.800500 0.000000
-8.784900 0.000000
-8.769300 0.000000
-8.753700 0.000000
-8.738100 0.000000
-8.722400 0.000000
-8.706800 0.000000
-8.691200 0.000000
-8.675600 0.000000
-8.660000 0.000000
-8.644400 0.000000
-8.628700 0.000000
-8.613100 0.000000
-8.597500 0.000000
-8.581900 0.000000
-8.566300 0.000000
-8.550700 0.000000
-8.535000 0.000000
-8.519400 0.000000
-8.503800 0.000000
-8.488200 0.000000
-8.472600 0.000000
-8.456900 0.000000
-8.441300 0.000000
-8.425700 0.000000
-8.410100 0.000000
-8.394500 0.000000
-8.378900 0.000000
-8.363200 0.000000
-8.347600 0.000000
-8.332000 0.000000
-8.316400 0.000000
-8.300800 0.000000
-8.285200 0.000000
-8.269500 0.000000
-8.253900 0.000000
-8.238300 0.000000
-8.222700 0.000000
-8.207100 0.000000
-8.191500 0.000000
-8.175800 0.000000
-8.160200 0.000000
-8.144600 0.000000
-8.129000 0.000000
-8.113400 0.000000
-8.097800 0.000000
-8.082100 0.000000
-8.066500 0.000000
-8.050900 0.000000
-8.035300 0.000000
-8.019700 0.000000
-8.004100 0.000000
-7.988400 0.000000
-7.972800 0.000000
-7.957200 0.000000
-7.941600 0.000000
-7.926000 0.000000
-7.910400 0.000000
-7.894700 0.000000
-7.879100 0.000000
-7.863500 0.000000
-7.847900 0.000000
-7.832300 0.000000
-7.816700 0.000000
-7.801000 0.000000
-7.785400 0.000000
-7.769800 0.000000
-7.754200 0.000000
-7.738600 0.000000
-7.723000 0.000000
-7.707300 0.000000
-7.691700 0.000000
-7.676100 0.000000
-7.660500 0.000000
-7.644900 0.000000
-7.629300 0.000000
-7.613600 0.000000
-7.598000 0.000000
-7.582400 0.000000
-7.566800 0.000000
-7.551200 0.000000
-7.535600 0.000000
-7.519900 0.000000
-7.504300 0.000000
-7.488700 0.000000
-7.473100 0.000000
-7.457500 0.000000
-7.441900 0.000000
-7.426200 0.000000
-7.410600 0.000000
-7.395000 0.000000
-7.379400 0.000000
-7.363800 0.000000
-7.348200 0.000000
-7.332500 0.000000
-7.316900 0.000000
-7.301300 0.000000
-7.285700 0.000000
-7.270100 0.000000
-7.254500 0.000000
-7.238800 0.000000
-7.223200 0.000000
-7.207600 0.000000
-7.192000 0.000000
-7.176400 0.000000
-7.160800 0.000000
-7.145100 0.000000
-7.129500 0.000000
-7.113900 0.000000
-7.098300 0.000000
-7.082700 0.000000
-7.067100 0.000000
-7.051400 0.000000
-7.035800 0.000000
-7.020200 0.000000
-7.004600 0.000000
-6.989000 0.000000
-6.973400 0.000000
-6.957700 0.000000
-6.942100 0.000000
-6.926500 0.000000
-6.910900 0.000000
-6.895300 0.000000
-6.879700 0.000000
-6.864000 0.000000
-6.848400 0.000000
-6.832800 0.000000
-6.817200 0.000000
-6.801600 0.000000
-6.786000 0.000000
-6.770300 0.000000
-6.754700 0.000000
-6.739100 0.000000
-6.723500 0.000000
-6.707900 0.000000
-6.692300 0.000000
-6.676600 0.000000
-6.661000 0.000000
-6.645400 0.000000
-6.629800 0.000000
-6.614200 0.000000
-6.598600 0.000000
-6.582900 0.000000
-6.567300 0.000000
-6.551700 0.000000
-6.536100 0.000000
-6.520500 0.000000
-6.504900 0.000000
-6.489200 0.000000
-6.473600 0.000000
-6.458000 0.000000
-6.442400 0.000000
-6.426800 0.000000
-6.411200 0.000000
-6.395500 0.000000
-6.379900 0.000000
-6.364300 0.000000
-6.348700 0.000000
-6.333100 0.000000
-6.317500 0.000000
-6.301800 0.000000
-6.286200 0.000000
-6.270600 0.000000
-6.255000 0.000000
-6.239400 0.000000
-6.223800 0.000000
-6.208100 0.000000
-6.192500 0.000000
-6.176900 0.000000
-6.161300 0.000000
-6.145700 0.000000
-6.130100 0.000000
-6.114400 0.000000
-6.098800 0.000000
-6.083200 0.000000
-6.067600 0.000000
-6.052000 0.000000
-6.036400 0.000000
-6.020700 0.000000
-6.005100 0.000000
-5.989500 0.000000
-5.973900 0.000000
-5.958300 0.000000
-5.942700 0.000000
-5.927000 0.000000
-5.911400 0.000000
-5.895800 0.000000
-5.880200 0.000000
-5.864600 0.000000
-5.849000 0.000000
-5.833300 0.000000
-5.817700 0.000000
-5.802100 0.000000
-5.786500 0.000000
-5.770900 0.000000
-5.755300 0.000000
-5.739600 0.000000
-5.724000 0.000000
-5.708400 0.000000
-5.692800 0.000000
-5.677200 0.000000
-5.661600 0.000000
-5.645900 0.000000
-5.630300 0.000000
-5.614700 0.000000
-5.599100 0.000000
-5.583500 0.000000
-5.567900 0.000000
-5.552200 0.000000
-5.536600 0.000000
-5.521000 0.000000
-5.505400 0.000000
-5.489800 0.000000
-5.474200 0.009900
-5.458500 0.158800
-5.442900 0.486500
-5.427300 0.992800
-5.411700 1.752800
-5.396100 2.663200
-5.380500 3.542900
-5.364800 4.045300
-5.349200 4.138700
-5.333600 3.858900
-5.318000 3.160200
-5.302400 2.561200
-5.286800 2.180500
-5.271100 2.257400
-5.255500 2.833100
-5.239900 3.481800
-5.224300 3.996100
-5.208700 4.387300
-5.193100 4.424300
-5.177400 4.256200
-5.161800 4.183700
-5.146200 4.057000
-5.130600 3.947600
-5.115000 3.925000
-5.099400 3.875500
-5.083700 3.778700
-5.068100 3.671500
-5.052500 3.523400
-5.036900 4.469400
-5.021300 5.694500
-5.005700 6.384900
-4.990000 6.874600
-4.974400 6.771300
-4.958800 6.461700
-4.943200 6.388500
-4.927600 6.524500
-4.912000 6.658600
-4.896300 6.790800
-4.880700 6.905300
-4.865100 7.417400
-4.849500 8.498200
-4.833900 8.807900
-4.818300 8.320700
-4.802600 7.287000
-4.787000 6.320500
-4.771400 5.734300
-4.755800 5.574000
-4.740200 5.481600
-4.724600 5.389800
-4.708900 5.298700
-4.693300 5.201700
-4.677700 5.069800
-4.662100 4.941000
-4.646500 4.818100
-4.630900 4.692900
-4.615200 4.532200
-4.599600 4.599500
-4.584000 4.946900
-4.568400 5.433000
-4.552800 5.860400
-4.537200 6.219600
-4.521500 6.473100
-4.505900 6.835600
-4.490300 7.420200
-4.474700 7.780500
-4.459100 8.226100
-4.443500 7.642700
-4.427800 7.405400
-4.412200 7.390800
-4.396600 7.450600
-4.381000 7.957000
-4.365400 8.151100
-4.349800 8.261500
-4.334100 8.806800
-4.318500 9.242800
-4.302900 9.340900
-4.287300 9.018800
-4.271700 8.157500
-4.256100 7.423000
-4.240400 6.996100
-4.224800 6.819300
-4.209200 6.828300
-4.193600 7.368500
-4.178000 8.383100
-4.162400 9.635900
-4.146700 12.822500
-4.131100 12.260300
-4.115500 11.374500
-4.099900 10.336200
-4.084300 8.325600
-4.068700 8.409700
-4.053000 8.693300
-4.037400 9.131600
-4.021800 9.667600
-4.006200 10.258700
-3.990600 10.616700
-3.975000 13.039100
-3.959300 17.092500
-3.943700 9.725800
-3.928100 9.412900
-3.912500 8.880400
-3.896900 8.768300
-3.881300 8.664000
-3.865600 8.579500
-3.850000 8.466800
-3.834400 8.313500
-3.818800 12.827700
-3.803200 15.441900
-3.787600 6.728400
-3.771900 6.581900
-3.756300 6.485200
-3.740700 6.401800
-3.725100 6.342300
-3.709500 6.300100
-3.693900 6.264100
-3.678200 6.190600
-3.662600 6.087800
-3.647000 5.967000
-3.631400 5.866700
-3.615800 9.170600
-3.600200 11.224100
-3.584500 9.692700
-3.568900 4.950900
-3.553300 4.927300
-3.537700 4.898600
-3.522100 4.857000
-3.506500 6.501800
-3.490800 6.443200
-3.475200 7.208000
-3.459600 6.578100
-3.444000 6.581200
-3.428400 4.359900
-3.412800 3.973500
-3.397100 3.969300
-3.381500 3.967100
-3.365900 3.967000
-3.350300 3.968000
-3.334700 3.969300
-3.319100 4.016600
-3.303400 4.210400
-3.287800 4.487900
-3.272200 4.821800
-3.256600 5.173400
-3.241000 5.543900
-3.225400 6.492000
-3.209700 7.874700
-3.194100 9.165000
-3.178500 11.563100
-3.162900 15.835500
-3.147300 7.835900
-3.131700 7.897900
-3.116000 8.282700
-3.100400 8.288000
-3.084800 11.969700
-3.069200 12.775700
-3.053600 10.447000
-3.038000 9.394500
-3.022300 8.695700
-3.006700 4.432200
-2.991100 8.022500
-2.975500 9.053400
-2.959900 7.719000
-2.944300 2.626500
-2.928600 11.884300
-2.913000 11.222600
-2.897400 10.870700
-2.881800 11.410700
-2.866200 11.580700
-2.850600 12.207900
-2.834900 18.357000
-2.819300 12.845200
-2.803700 7.302600
-2.788100 5.002300
-2.772500 4.895300
-2.756900 14.671800
-2.741200 5.356700
-2.725600 5.249700
-2.710000 5.148500
-2.694400 22.213400
-2.678800 7.796300
-2.663200 10.978300
-2.647500 7.450000
-2.631900 10.499600
-2.616300 13.379200
-2.600700 15.766600
-2.585100 6.715300
-2.569500 6.722900
-2.553800 7.487000
-2.538200 7.864800
-2.522600 9.822900
-2.507000 15.202600
-2.491400 13.019500
-2.475800 6.676800
-2.460100 6.572700
-2.444500 6.473900
-2.428900 6.380300
-2.413300 6.215500
-2.397700 7.278000
-2.382100 9.913200
-2.366400 14.097100
-2.350800 14.493400
-2.335200 12.554500
-2.319600 10.461100
-2.304000 14.756900
-2.288400 24.744000
-2.272700 28.248600
-2.257100 17.649000
-2.241500 12.175100
-2.225900 15.086900
-2.210300 21.547900
-2.194700 41.776800
-2.179000 17.588300
-2.163400 17.840600
-2.147800 17.866200
-2.132200 17.865600
-2.116600 14.765600
-2.101000 12.557300
-2.085300 10.957700
-2.069700 9.333000
-2.054100 13.304500
-2.038500 14.856100
-2.022900 20.926700
-2.007300 20.029400
-1.991600 19.080900
-1.976000 33.542700
-1.960400 47.044400
-1.944800 23.716100
-1.929200 12.098900
-1.913600 11.350100
-1.897900 8.558200
-1.882300 7.790000
-1.866700 10.379900
-1.851100 10.363000
-1.835500 27.456200
-1.819900 14.144100
-1.804200 10.594500
-1.788600 9.103600
-1.773000 8.625900
-1.757400 8.111200
-1.741800 7.660800
-1.726200 7.281600
-1.710500 7.002500
-1.694900 6.637200
-1.679300 5.223600
-1.663700 5.222400
-1.648100 5.221600
-1.632500 5.221200
-1.616800 5.221200
-1.601200 5.221700
-1.585600 5.222600
-1.570000 5.096500
-1.554400 4.586500
-1.538700 4.660600
-1.523100 4.789000
-1.507500 4.889200
-1.491900 5.137000
-1.476300 5.407200
-1.460700 5.676700
-1.445000 6.117100
-1.429400 6.665900
-1.413800 7.016000
-1.398200 7.216900
-1.382600 6.919800
-1.367000 6.643800
-1.351300 6.408900
-1.335700 6.486500
-1.320100 6.514100
-1.304500 6.407200
-1.288900 6.272300
-1.273300 5.076100
-1.257600 3.627100
-1.242000 3.119900
-1.226400 3.118200
-1.210800 3.117300
-1.195200 3.116700
-1.179600 3.116100
-1.163900 3.115600
-1.148300 3.115300
-1.132700 3.209500
-1.117100 3.823600
-1.101500 4.114200
-1.085900 4.312400
-1.070200 4.358800
-1.054600 4.359300
-1.039000 4.403600
-1.023400 4.475300
-1.007800 4.560900
-0.992200 4.660300
-0.976500 4.810300
-0.960900 6.025100
-0.945300 8.215400
-0.929700 9.509200
-0.914100 8.925800
-0.898500 6.765000
-0.882800 4.713100
-0.867200 3.145700
-0.851600 3.201700
-0.836000 3.381400
-0.820400 3.557900
-0.804800 3.837900
-0.789100 3.879700
-0.773500 3.908100
-0.757900 3.911500
-0.742300 3.884300
-0.726700 3.826400
-0.711100 3.754200
-0.695400 3.686400
-0.679800 3.623100
-0.664200 3.816300
-0.648600 3.884600
-0.633000 3.884000
-0.617400 3.878400
-0.601700 3.886500
-0.586100 3.877700
-0.570500 3.732600
-0.554900 4.487700
-0.539300 4.648600
-0.523700 4.692000
-0.508000 4.690500
-0.492400 4.655600
-0.476800 3.441600
-0.461200 2.335900
-0.445600 1.906700
-0.430000 1.538400
-0.414300 1.231100
-0.398700 0.984700
-0.383100 0.821600
-0.367500 0.821500
-0.351900 0.821500
-0.336300 0.821500
-0.320600 0.821500
-0.305000 0.821700
-0.289400 0.821900
-0.273800 0.822100
-0.258200 0.822400
-0.242600 0.822800
-0.226900 0.823200
-0.211300 0.823700
-0.195700 0.890200
-0.180100 1.250900
-0.164500 1.428500
-0.148900 1.517400
-0.133200 1.602800
-0.117600 1.684800
-0.102000 1.763500
-0.086400 1.838700
-0.070800 1.910500
-0.055200 1.978900
-0.039500 1.987500
-0.023900 1.506000
-0.008300 1.199900
0.007300 1.069600
0.022900 0.961500
0.038500 0.855400
0.054200 0.751300
0.069800 0.649000
0.085400 0.548800
0.101000 0.450500
0.116600 0.354100
0.132200 0.259700
0.147900 0.167200
0.163500 0.085100
0.179100 0.026400
0.194700 0.000000
0.210300 0.000000
0.225900 0.000000
0.241600 0.000000
0.257200 0.000000
0.272800 0.000000
0.288400 0.000000
0.304000 0.000000
0.319600 0.000000
0.335300 0.000000
0.350900 0.000000
0.366500 0.000000
0.382100 0.000000
0.397700 0.000000
0.413300 0.000000
0.429000 0.000000
0.444600 0.000000
0.460200 0.000000
0.475800 0.000000
0.491400 0.000000
0.507000 0.000000
0.522700 0.000000
0.538300 0.000000
0.553900 0.000000
0.569500 0.000000
0.585100 0.000000
0.600700 0.000000
0.616400 0.000000
0.632000 0.000000
0.647600 0.000000
0.663200 0.000000
0.678800 0.000000
0.694400 0.000000
0.710100 0.000000
0.725700 0.000000
0.741300 0.000000
0.756900 0.000000
0.772500 0.000000
0.788100 0.000000
0.803800 0.000000
0.819400 0.000000
0.835000 0.000000
0.850600 0.000000
0.866200 0.000000
0.881800 0.000000
0.897500 0.000000
0.913100 0.000000
0.928700 0.000000
0.944300 0.000000
0.959900 0.000000
0.975500 0.000000
0.991200 0.000000
1.006800 0.000000
1.022400 0.000000
1.038000 0.000000
1.053600 0.000000
1.069200 0.000000
1.084900 0.000000
1.100500 0.000000
1.116100 0.000000
1.131700 1.232600
1.147300 1.473300
1.162900 1.922900
1.178600 2.721000
1.194200 3.619800
1.209800 3.488800
1.225400 3.382800
1.241000 3.169100
1.256600 2.527500
1.272300 3.472400
1.287900 4.117700
1.303500 4.725200
1.319100 6.014800
1.334700 5.973800
1.350300 5.196300
1.366000 5.239100
1.381600 5.376200
1.397200 4.736300
1.412800 3.162900
1.428400 2.728000
1.444000 2.540300
1.459700 2.394500
1.475300 2.284100
1.490900 2.209400
1.506500 2.162700
1.522100 2.134600
1.537700 2.125000
1.553400 2.123000
1.569000 13.545100
1.584600 22.193300
1.600200 10.172900
1.615800 4.608700
1.631400 3.253700
1.647100 3.255400
1.662700 3.247300
1.678300 3.246700
1.693900 5.291600
1.709500 6.562100
1.725100 5.580900
1.740800 5.776000
1.756400 6.129900
1.772000 6.383300
1.787600 6.507300
1.803200 6.586200
1.818800 7.337500
1.834500 6.147400
1.850100 6.412500
1.865700 6.713500
1.881300 8.156100
1.896900 9.578100
1.912500 11.395200
1.928200 17.091400
1.943800 12.860200
1.959400 16.412300
1.975000 23.367600
1.990600 19.230500
2.006200 21.283600
2.021900 21.477300
2.037500 20.886800
2.053100 15.873300
2.068700 15.308800
2.084300 17.240200
2.099900 17.698300
2.115600 17.957800
2.131200 15.086200
2.146800 16.561700
2.162400 17.373600
2.178000 19.521200
2.193600 19.424700
2.209300 21.295600
2.224900 20.688600
2.240500 16.881000
2.256100 20.238000
2.271700 15.216700
2.287300 12.412200
2.303000 11.719200
2.318600 11.847300
2.334200 12.419900
2.349800 11.447600
2.365400 10.746500
2.381000 15.700000
2.396700 13.961900
2.412300 12.692800
2.427900 12.014800
2.443500 14.563200
2.459100 13.843600
2.474700 13.626000
2.490400 15.531200
2.506000 14.966000
2.521600 13.629500
2.537200 13.064700
2.552800 12.731000
2.568400 12.704100
2.584100 12.359700
2.599700 12.157700
2.615300 12.479100
2.630900 13.421700
2.646500 14.105400
2.662100 12.037300
2.677800 12.122000
2.693400 14.949500
2.709000 12.607200
2.724600 12.199100
2.740200 11.740800
2.755800 11.397500
2.771500 14.960000
2.787100 19.866700
2.802700 20.896200
2.818300 18.567700
2.833900 16.961200
2.849500 16.284200
2.865200 16.084900
2.880800 15.400700
2.896400 15.181100
2.912000 14.838400
2.927600 17.334700
2.943200 17.549900
2.958900 16.993800
2.974500 17.046100
2.990100 17.132000
3.005700 17.227900
3.021300 17.561100
3.036900 16.755500
3.052600 17.926000
3.068200 18.652700
3.083800 15.861300
3.099400 14.765000
3.115000 14.603100
3.130600 15.309700
3.146300 15.577900
3.161900 15.821200
3.177500 14.847000
3.193100 14.282600
3.208700 13.954400
3.224300 13.672400
3.240000 13.894300
3.255600 14.442100
3.271200 14.964000
3.286800 15.123600
3.302400 13.313200
3.318000 13.354900
3.333700 13.384800
3.349300 13.851000
3.364900 14.902600
3.380500 15.391900
3.396100 16.330900
3.411700 16.159600
3.427400 15.424400
3.443000 15.178800
3.458600 14.711100
3.474200 14.581900
3.489800 14.898400
3.505400 15.711600
3.521100 15.875000
3.536700 18.343400
3.552300 18.009400
3.567900 20.712000
3.583500 16.881100
3.599100 17.331000
3.614800 17.413600
3.630400 17.275300
3.646000 16.630400
3.661600 18.832400
3.677200 18.674200
3.692800 18.289900
3.708500 18.181100
3.724100 17.055700
3.739700 16.343300
3.755300 19.326900
3.770900 27.493000
3.786500 18.378200
3.802200 20.749100
3.817800 24.715100
3.833400 15.979500
3.849000 15.102400
3.864600 15.013800
3.880200 16.111700
3.895900 25.537500
3.911500 22.779600
3.927100 17.412900
3.942700 14.455600
3.958300 16.110600
3.973900 20.162700
3.989600 21.453700
4.005200 22.129900
4.020800 21.761500
4.036400 27.097000
4.052000 22.528200
4.067600 27.669400
4.083300 27.428200
4.098900 16.558500
4.114500 24.175600
4.130100 23.721600
4.145700 19.919200
4.161300 19.920800
4.177000 18.328700
4.192600 20.278500
4.208200 19.980200
4.223800 20.737800
4.239400 24.110100
4.255000 23.383600
4.270700 23.201500
4.286300 24.346900
4.301900 24.849400
4.317500 26.550200
4.333100 25.309900
4.348700 23.408600
4.364400 23.892700
4.380000 22.269300
4.395600 21.066100
4.411200 21.330500
4.426800 22.728400
4.442400 22.335200
4.458100 21.884900
4.473700 21.670600
4.489300 25.053700
4.504900 26.881800
4.520500 26.437300
4.536100 24.553200
4.551800 23.741900
4.567400 23.931800
4.583000 24.675500
4.598600 26.170600
4.614200 27.517600
4.629800 29.387500
4.645500 24.092600
4.661100 23.916300
4.676700 22.999500
4.692300 23.011400
4.707900 23.058300
4.723500 22.124300
4.739200 26.185600
4.754800 24.127400
4.770400 22.746500
4.786000 24.914300
4.801600 31.818900
4.817200 31.779600
4.832900 26.762200
4.848500 27.689700
4.864100 31.190900
4.879700 32.481300
4.895300 29.256600
4.910900 25.216700
4.926600 22.432400
4.942200 22.145900
4.957800 23.644700
4.973400 24.283200
4.989000 24.638800
5.004600 23.868100
5.020300 22.396900
5.035900 22.282600
5.051500 23.272100
5.067100 24.915200
5.082700 24.921600
5.098300 24.223600
5.114000 22.335500
5.129600 20.763700
5.145200 25.220700
5.160800 26.688100
5.176400 27.035200
5.192000 29.318300
5.207700 30.642400
5.223300 31.636100
5.238900 29.440100
5.254500 26.911700
5.270100 23.939100
5.285700 27.520400
5.301400 29.782400
5.317000 31.034500
5.332600 28.093300
5.348200 25.127400
5.363800 22.313700
5.379400 22.870800
5.395100 22.606900
5.410700 22.568700
5.426300 21.379100
5.441900 27.119100
5.457500 29.528300
5.473200 24.073700
5.488800 20.716800
5.504400 18.412100
5.520000 17.330000
5.535600 17.364800
5.551200 17.955500
5.566900 23.646600
5.582500 19.590000
5.598100 20.142500
5.613700 20.353500
5.629300 20.661600
5.644900 20.346500
5.660600 20.925000
5.676200 19.370100
5.691800 17.042400
5.707400 16.254800
5.723000 15.992800
5.738600 14.809300
5.754300 13.132200
5.769900 12.389700
5.785500 12.247600
5.801100 12.286000
5.816700 12.926500
5.832300 13.112200
5.848000 14.587600
5.863600 14.065600
5.879200 10.041900
5.894800 12.726500
5.910400 11.244100
5.926000 8.840500
5.941700 5.765700
5.957300 4.459200
5.972900 4.814000
5.988500 5.412200
6.004100 5.955800
6.019700 6.507700
6.035400 7.568500
6.051000 7.925100
6.066600 7.904300
6.082200 7.702100
6.097800 7.326900
6.113400 5.656100
6.129100 5.049800
6.144700 5.204100
6.160300 5.669900
6.175900 6.879300
6.191500 8.212100
6.207100 9.291200
6.222800 9.599600
6.238400 9.341600
6.254000 8.663000
6.269600 8.172800
6.285200 7.817800
6.300800 7.582400
6.316500 7.405800
6.332100 6.886100
6.347700 6.314700
6.363300 6.242500
6.378900 4.545800
6.394500 4.335500
6.410200 4.306700
6.425800 4.553200
6.441400 5.401200
6.457000 7.478300
6.472600 10.378800
6.488200 11.975500
6.503900 11.057500
6.519500 9.722200
6.535100 9.536300
6.550700 8.873700
6.566300 8.097500
6.581900 7.410100
6.597600 7.076300
6.613200 7.029200
6.628800 7.129400
6.644400 7.248800
6.660000 7.475400
6.675600 7.191100
6.691300 7.530800
6.706900 9.375100
6.722500 9.491000
6.738100 9.077400
6.753700 9.136300
6.769300 9.011400
6.785000 8.836700
6.800600 9.086700
6.816200 8.738500
6.831800 8.243800
6.847400 9.032900
6.863000 10.386300
6.878700 13.442600
6.894300 15.258800
6.909900 14.861500
6.925500 12.497300
6.941100 11.555200
6.956700 12.764300
6.972400 13.020600
6.988000 12.630900
7.003600 12.876500
7.019200 13.268700
7.034800 13.357900
7.050400 11.260500
7.066100 9.423700
7.081700 9.061400
7.097300 9.672600
7.112900 10.264300
7.128500 10.819900
7.144100 11.106700
7.159800 7.870400
7.175400 5.324200
7.191000 3.664600
7.206600 2.989000
7.222200 3.001700
7.237800 3.759300
7.253500 5.153100
7.269100 7.092300
7.284700 8.655800
7.300300 9.485600
7.315900 8.920000
7.331500 11.045100
7.347200 14.825100
7.362800 19.802200
7.378400 21.626300
7.394000 19.015800
7.409600 15.984100
7.425200 11.592200
7.440900 11.599500
7.456500 10.947200
7.472100 11.901000
7.487700 14.436500
7.503300 17.805000
7.518900 15.749000
7.534600 15.260000
7.550200 13.780500
7.565800 13.567900
7.581400 13.868200
7.597000 14.371100
7.612600 16.111700
7.628300 14.989800
7.643900 13.650200
7.659500 12.105200
7.675100 14.467400
7.690700 14.439500
7.706300 14.051800
7.722000 14.352800
7.737600 13.861800
7.753200 15.008200
7.768800 18.371100
7.784400 21.965200
7.800000 22.477100
7.815700 17.231000
7.831300 14.730900
7.846900 14.485000
7.862500 14.773400
7.878100 16.475000
7.893700 17.171300
7.909400 15.131300
7.925000 15.209400
7.940600 16.092100
7.956200 17.253700
7.971800 18.808400
7.987400 19.960100
8.003100 21.593700
8.018700 19.585900
8.034300 19.527200
8.049900 20.246400
8.065500 22.039200
8.081100 23.228800
8.096800 22.659100
8.112400 24.989300
8.128000 24.122800
8.143600 20.179500
8.159200 20.331600
8.174800 19.613600
8.190500 18.917800
8.206100 19.691200
8.221700 21.626200
8.237300 23.521400
8.252900 24.133500
8.268500 24.099400
8.284200 22.509000
8.299800 21.358100
8.315400 21.213100
8.331000 21.349600
8.346600 21.297100
8.362200 19.281300
8.377900 18.977200
8.393500 19.014300
8.409100 19.520100
8.424700 20.564700
8.440300 21.577800
8.455900 23.408300
8.471600 28.439000
8.487200 33.286500
8.502800 33.959700
8.518400 31.068200
8.534000 26.832300
8.549600 27.564800
8.565300 28.444200
8.580900 25.467700
8.596500 24.865500
8.612100 23.737600
8.627700 24.167400
8.643300 25.187500
8.659000 24.643400
8.674600 24.543800
8.690200 24.948800
8.705800 27.543700
8.721400 29.360400
8.737000 25.162700
8.752700 19.866300
8.768300 17.272700
8.783900 16.763600
8.799500 20.203300
8.815100 20.431600
8.830700 20.779100
8.846400 21.475800
8.862000 21.860500
8.877600 24.882900
8.893200 27.130300
8.908800 27.905000
8.924400 24.424600
8.940100 25.908400
8.955700 27.636500
8.971300 27.441800
8.986900 31.734300
9.002500 24.116900
9.018100 24.803100
9.033800 25.317800
9.049400 25.854600
9.065000 26.924300
9.080600 27.098800
9.096200 24.050900
9.111800 23.474400
9.127500 23.610900
9.143100 24.502600
9.158700 27.659800
9.174300 26.629000
9.189900 27.530200
9.205500 26.697600
9.221200 31.092200
9.236800 30.462700
9.252400 30.564200
9.268000 28.132900
9.283600 29.012800
9.299200 27.938300
9.314900 23.130900
9.330500 22.895800
9.346100 24.528600
9.361700 27.171300
9.377300 25.023900
9.392900 24.918100
9.408600 26.913200
9.424200 25.471800
9.439800 25.813100
9.455400 27.202200
9.471000 30.612000
9.486600 28.786000
9.502300 27.205900
9.517900 24.616500
9.533500 26.866300
9.549100 24.637600
9.564700 25.329800
9.580300 27.080500
9.596000 30.642500
9.611600 29.604600
9.627200 27.856100
9.642800 28.084800
9.658400 33.865800
9.674000 29.675800
9.689700 30.174200
9.705300 32.000200
9.720900 34.803700
9.736500 33.128400
9.752100 32.960700
9.767700 32.452800
9.783400 31.300700
9.799000 31.229200
9.814600 30.627300
9.830200 32.790800
9.845800 33.458000
9.861400 41.168100
9.877100 35.430300
9.892700 32.844000
9.908300 32.827100
9.923900 34.195200
9.939500 36.628300
9.955100 38.057000
9.970800 36.217300
9.986400 29.753900
10.002000 30.317300
10.017600 33.564300
10.033200 32.353400
10.048800 39.695300
10.064500 38.558600
10.080100 34.415100
10.095700 31.187800
10.111300 32.359100
10.126900 33.400200
10.142500 30.561300
10.158200 36.869700
10.173800 39.668600
10.189400 28.387300
10.205000 37.552700
10.220600 38.165900
10.236200 40.418100
10.251900 32.712700
10.267500 33.720800
10.283100 33.642100
10.298700 38.952300
10.314300 37.410900
10.329900 29.816300
10.345600 24.836100
10.361200 22.751700
10.376800 26.088500
10.392400 34.430000
10.408000 41.888000
10.423600 25.428100
10.439300 30.773200
10.454900 31.185100
10.470500 24.467800
10.486100 21.288400
10.501700 24.616500
10.517300 30.308900
10.533000 33.268300
10.548600 34.671500
10.564200 31.673900
10.579800 27.761700
10.595400 28.122500
10.611000 28.026000
10.626700 30.047300
10.642300 30.928200
10.657900 31.719100
10.673500 31.547500
10.689100 32.354800
10.704700 29.235100
10.720400 36.960600
10.736000 35.935400
10.751600 33.515300
10.767200 32.631900
10.782800 33.772200
10.798400 27.082300
10.814100 26.161600
10.829700 24.675400
10.845300 27.285300
10.860900 26.324100
10.876500 27.323400
10.892100 28.659100
10.907800 28.706000
10.923400 26.542300
10.939000 26.813500
10.954600 27.131100
10.970200 26.361500
10.985800 21.917800
11.001500 21.491300
11.017100 22.639000
11.032700 24.541800
11.048300 26.683600
11.063900 22.915100
11.079500 22.696200
11.095200 25.080100
11.110800 29.111800
11.126400 27.135500
11.142000 23.738700
11.157600 20.223100
11.173200 22.172600
11.188900 20.895900
11.204500 23.294600
11.220100 22.644300
11.235700 22.418800
11.251300 21.363600
11.266900 21.650500
11.282600 18.723200
11.298200 17.173100
11.313800 15.791600
11.329400 15.759400
11.345000 15.054100
11.360600 14.897300
11.376300 15.898400
11.391900 13.817600
11.407500 15.634700
11.423100 18.499700
11.438700 17.348800
11.454300 14.204400
11.470000 12.546300
11.485600 8.758000
11.501200 5.817400
11.516800 9.078900
11.532400 11.051200
11.548000 12.277000
11.563700 14.591500
11.579300 14.956900
11.594900 9.842700
11.610500 8.205000
11.626100 8.871600
11.641700 13.609700
11.657400 8.440800
11.673000 7.244000
11.688600 6.805100
11.704200 6.711600
11.719800 6.671600
11.735400 6.161600
11.751100 5.691200
11.766700 5.282900
11.782300 3.767700
11.797900 3.126700
11.813500 2.495400
11.829100 1.873900
11.844800 1.099500
11.860400 0.000000
11.876000 0.000000
11.891600 0.000000
11.907200 0.000000
11.922800 0.000000
11.938500 0.000000
11.954100 0.000000
11.969700 0.000000
11.985300 0.000000
12.000900 0.000000
12.016500 0.000000
12.032200 0.000000
12.047800 0.000000
12.063400 0.000000
12.079000 0.000000
12.094600 0.000000
12.110200 0.000000
12.125900 0.000000
12.141500 0.000000
12.157100 0.000000
12.172700 0.000000
12.188300 0.000000
12.203900 0.000000
12.219600 0.000000
12.235200 0.000000
12.250800 0.000000
12.266400 0.000000
12.282000 0.000000
12.297600 0.000000
12.313300 0.000000
12.328900 0.000000
12.344500 0.000000
12.360100 0.000000
12.375700 0.000000
12.391300 0.000000
12.407000 0.000000
12.422600 0.000000
12.438200 0.000000
12.453800 0.000000
12.469400 0.000000
12.485100 0.000000
12.500700 0.000000
12.516300 0.000000
12.531900 0.000000
12.547500 0.000000
12.563100 0.000000
12.578800 0.000000
12.594400 0.000000
12.610000 0.000000
12.625600 0.000000
12.641200 0.000000
12.656800 0.000000
12.672500 0.000000
12.688100 0.000000
12.703700 0.000000
12.719300 0.000000
12.734900 0.000000
12.750500 0.000000
12.766200 0.000000
12.781800 0.000000
12.797400 0.000000
12.813000 0.000000
12.828600 0.000000
12.844200 0.000000
12.859900 0.000000
12.875500 0.000000
12.891100 0.000000
12.906700 0.000000
12.922300 0.000000
12.937900 0.000000
12.953600 0.000000
12.969200 0.000000
12.984800 0.000000
13.000400 0.000000
13.016000 0.000000
13.031600 0.000000
13.047300 0.000000
13.062900 0.000000
13.078500 0.000000
13.094100 0.000000
13.109700 0.000000
13.125300 0.000000
13.141000 0.000000
13.156600 0.000000
13.172200 0.000000
13.187800 0.000000
13.203400 0.000000
13.219000 0.000000
13.234700 0.000000
13.250300 0.000000
13.265900 0.000000
e
