set title 'mp-1077316 - Density of States'
set xlabel 'Energy (eV)'
set ylabel 'DOS (states/eV)'
set grid
set xrange [-10:10]
set yrange [0:12.034]
set xzeroaxis lt -1
set terminal png size 800,600
set output 'mp-1077316_dos_gnuplot.png'
plot '-' using 1:2 with lines title 'DOS'
-23.762900 0.000000
-23.741500 0.000000
-23.720000 0.000000
-23.698600 0.000000
-23.677200 0.000000
-23.655700 0.000000
-23.634300 0.000000
-23.612900 0.000000
-23.591400 0.000000
-23.570000 0.000000
-23.548500 0.000000
-23.527100 0.000000
-23.505700 0.000000
-23.484200 0.000000
-23.462800 0.000000
-23.441400 0.000000
-23.419900 0.000000
-23.398500 0.000000
-23.377000 0.000000
-23.355600 0.000000
-23.334200 0.000000
-23.312700 0.000000
-23.291300 0.000000
-23.269900 0.000000
-23.248400 0.000000
-23.227000 0.000000
-23.205500 0.000000
-23.184100 0.000000
-23.162700 0.000000
-23.141200 0.000000
-23.119800 0.000000
-23.098400 0.000000
-23.076900 0.000000
-23.055500 0.000000
-23.034000 0.000000
-23.012600 0.000000
-22.991200 0.000000
-22.969700 0.000000
-22.948300 0.000000
-22.926900 0.000000
-22.905400 0.000000
-22.884000 0.000000
-22.862500 0.000000
-22.841100 0.000000
-22.819700 0.000000
-22.798200 0.000000
-22.776800 0.000000
-22.755400 0.000000
-22.733900 0.000000
-22.712500 0.000000
-22.691100 0.000000
-22.669600 0.000000
-22.648200 0.000000
-22.626700 0.000000
-22.605300 0.000000
-22.583900 0.000000
-22.562400 0.000000
-22.541000 0.000000
-22.519600 0.000000
-22.498100 0.000000
-22.476700 0.000000
-22.455200 0.000000
-22.433800 0.000000
-22.412400 0.000000
-22.390900 0.000000
-22.369500 0.000000
-22.348100 0.000000
-22.326600 0.000000
-22.305200 0.000000
-22.283700 0.000000
-22.262300 0.000000
-22.240900 0.000000
-22.219400 0.000000
-22.198000 0.000000
-22.176600 0.000000
-22.155100 0.000000
-22.133700 0.000000
-22.112200 0.000000
-22.090800 0.000000
-22.069400 0.000000
-22.047900 0.000000
-22.026500 0.000000
-22.005100 0.000000
-21.983600 0.000000
-21.962200 0.000000
-21.940700 0.000000
-21.919300 0.000000
-21.897900 0.000000
-21.876400 0.000000
-21.855000 0.000000
-21.833600 0.000000
-21.812100 0.000900
-21.790700 0.177000
-21.769200 0.176500
-21.747800 0.252600
-21.726400 0.279000
-21.704900 0.314500
-21.683500 0.356900
-21.662100 0.392800
-21.640600 0.417800
-21.619200 0.440700
-21.597700 0.473000
-21.576300 0.508000
-21.554900 0.534000
-21.533400 0.552600
-21.512000 0.577200
-21.490600 0.602500
-21.469100 0.629600
-21.447700 0.658200
-21.426200 0.683000
-21.404800 0.703100
-21.383400 0.725700
-21.361900 0.750100
-21.340500 0.774600
-21.319100 0.800900
-21.297600 0.829700
-21.276200 0.855400
-21.254800 0.878100
-21.233300 0.901700
-21.211900 0.927600
-21.190400 0.955800
-21.169000 0.985400
-21.147600 1.015900
-21.126100 1.047300
-21.104700 1.077600
-21.083300 1.107700
-21.061800 1.139600
-21.040400 1.176000
-21.018900 1.215400
-20.997500 1.257500
-20.976100 1.303000
-20.954600 1.352200
-20.933200 1.404600
-20.911800 1.466300
-20.890300 1.539700
-20.868900 1.640100
-20.847400 1.832900
-20.826000 2.006200
-20.804600 1.967800
-20.783100 1.970800
-20.761700 1.910800
-20.740300 1.883400
-20.718800 1.855200
-20.697400 1.817700
-20.675900 1.780800
-20.654500 1.750500
-20.633100 1.721400
-20.611600 1.688500
-20.590200 1.661900
-20.568800 1.627600
-20.547300 1.586200
-20.525900 1.557400
-20.504400 1.525200
-20.483000 1.494600
-20.461600 1.460700
-20.440100 1.426200
-20.418700 1.396500
-20.397300 1.357800
-20.375800 1.322500
-20.354400 1.288700
-20.332900 1.253600
-20.311500 1.219700
-20.290100 1.186400
-20.268600 1.148100
-20.247200 1.111300
-20.225800 1.072000
-20.204300 1.037500
-20.182900 0.997800
-20.161400 0.957400
-20.140000 0.919500
-20.118600 0.888500
-20.097100 0.844300
-20.075700 0.802900
-20.054300 0.778600
-20.032800 0.768600
-20.011400 0.716200
-19.989900 0.618600
-19.968500 0.522900
-19.947100 0.344500
-19.925600 0.231900
-19.904200 0.140000
-19.882800 0.066100
-19.861300 0.024900
-19.839900 0.002600
-19.818400 0.000800
-19.797000 0.024100
-19.775600 0.057700
-19.754100 0.109000
-19.732700 0.184700
-19.711300 0.284600
-19.689800 0.444300
-19.668400 0.511500
-19.647000 0.602200
-19.625500 0.688100
-19.604100 0.718600
-19.582600 0.725200
-19.561200 0.744100
-19.539800 0.781700
-19.518300 0.810000
-19.496900 0.835100
-19.475500 0.862500
-19.454000 0.892100
-19.432600 0.921800
-19.411100 0.944400
-19.389700 0.968700
-19.368300 0.994300
-19.346800 1.022800
-19.325400 1.045800
-19.304000 1.069000
-19.282500 1.089700
-19.261100 1.110400
-19.239600 1.131700
-19.218200 1.152400
-19.196800 1.175300
-19.175300 1.195300
-19.153900 1.217100
-19.132500 1.240100
-19.111000 1.256500
-19.089600 1.273700
-19.068100 1.295300
-19.046700 1.308200
-19.025300 1.332800
-19.003800 1.356700
-18.982400 1.376700
-18.961000 1.388600
-18.939500 1.407800
-18.918100 1.426600
-18.896600 1.449200
-18.875200 1.478000
-18.853800 1.493400
-18.832300 1.523800
-18.810900 1.532600
-18.789500 1.571100
-18.768000 1.570100
-18.746600 1.584100
-18.725100 1.470400
-18.703700 1.324300
-18.682300 1.240900
-18.660800 1.174600
-18.639400 1.117800
-18.618000 1.071500
-18.596500 1.029000
-18.575100 0.991000
-18.553600 0.956700
-18.532200 0.925000
-18.510800 0.895500
-18.489300 0.869400
-18.467900 0.845600
-18.446500 0.822700
-18.425000 0.800200
-18.403600 0.778300
-18.382100 0.757500
-18.360700 0.737500
-18.339300 0.717800
-18.317800 0.698500
-18.296400 0.679900
-18.275000 0.662800
-18.253500 0.647000
-18.232100 0.631500
-18.210700 0.616400
-18.189200 0.602200
-18.167800 0.588300
-18.146300 0.574500
-18.124900 0.560900
-18.103500 0.547500
-18.082000 0.534500
-18.060600 0.521600
-18.039200 0.509700
-18.017700 0.497900
-17.996300 0.486100
-17.974800 0.474500
-17.953400 0.463600
-17.932000 0.453100
-17.910500 0.442600
-17.889100 0.431900
-17.867700 0.421500
-17.846200 0.411800
-17.824800 0.402500
-17.803300 0.393400
-17.781900 0.384400
-17.760500 0.375400
-17.739000 0.366300
-17.717600 0.357600
-17.696200 0.349000
-17.674700 0.340400
-17.653300 0.331300
-17.631800 0.323600
-17.610400 0.316300
-17.589000 0.308900
-17.567500 0.301100
-17.546100 0.293400
-17.524700 0.285900
-17.503200 0.278300
-17.481800 0.270700
-17.460300 0.263400
-17.438900 0.256700
-17.417500 0.250600
-17.396000 0.244700
-17.374600 0.238500
-17.353200 0.231900
-17.331700 0.225300
-17.310300 0.218700
-17.288800 0.213000
-17.267400 0.205500
-17.246000 0.199400
-17.224500 0.193600
-17.203100 0.188300
-17.181700 0.182900
-17.160200 0.177200
-17.138800 0.172000
-17.117300 0.164900
-17.095900 0.159000
-17.074500 0.154500
-17.053000 0.509700
-17.031600 3.014200
-17.010200 6.941800
-16.988700 9.414900
-16.967300 11.648300
-16.945800 16.349800
-16.924400 15.706300
-16.903000 15.342100
-16.881500 10.910800
-16.860100 7.322400
-16.838700 5.700000
-16.817200 5.736500
-16.795800 5.708300
-16.774300 5.246200
-16.752900 4.454800
-16.731500 4.537800
-16.710000 4.588200
-16.688600 4.611400
-16.667200 4.624800
-16.645700 4.625700
-16.624300 4.597300
-16.602900 4.563600
-16.581400 4.493600
-16.560000 4.410600
-16.538500 3.609700
-16.517100 2.882600
-16.495700 2.463200
-16.474200 2.084900
-16.452800 1.807500
-16.431400 1.558700
-16.409900 1.346700
-16.388500 1.172800
-16.367000 1.009100
-16.345600 0.871900
-16.324200 0.747800
-16.302700 0.629500
-16.281300 0.542900
-16.259900 0.445100
-16.238400 0.357000
-16.217000 0.293500
-16.195500 0.184300
-16.174100 0.070100
-16.152700 0.001600
-16.131200 0.000000
-16.109800 0.000000
-16.088400 0.000000
-16.066900 0.000000
-16.045500 0.000000
-16.024000 0.000000
-16.002600 0.000000
-15.981200 0.000000
-15.959700 0.000000
-15.938300 0.000000
-15.916900 0.000000
-15.895400 0.000000
-15.874000 0.000000
-15.852500 0.000000
-15.831100 0.000000
-15.809700 0.000000
-15.788200 0.000000
-15.766800 0.000000
-15.745400 0.000000
-15.723900 0.000000
-15.702500 0.000000
-15.681000 0.000000
-15.659600 0.000000
-15.638200 0.000000
-15.616700 0.000000
-15.595300 0.000000
-15.573900 0.000000
-15.552400 0.000000
-15.531000 0.000000
-15.509500 0.000000
-15.488100 0.000000
-15.466700 0.000000
-15.445200 0.000000
-15.423800 0.000000
-15.402400 0.000000
-15.380900 0.000000
-15.359500 0.000000
-15.338000 0.000000
-15.316600 0.000000
-15.295200 0.000000
-15.273700 0.000000
-15.252300 0.000000
-15.230900 0.000000
-15.209400 0.000000
-15.188000 0.000000
-15.166500 0.000000
-15.145100 0.000000
-15.123700 0.000000
-15.102200 0.000000
-15.080800 0.000000
-15.059400 0.000000
-15.037900 0.000000
-15.016500 0.000000
-14.995100 0.000000
-14.973600 0.000000
-14.952200 0.000000
-14.930700 0.000000
-14.909300 0.000000
-14.887900 0.000000
-14.866400 0.000000
-14.845000 0.000000
-14.823600 0.000000
-14.802100 0.000000
-14.780700 0.000000
-14.759200 0.000000
-14.737800 0.000000
-14.716400 0.000000
-14.694900 0.000000
-14.673500 0.000000
-14.652100 0.000000
-14.630600 0.000000
-14.609200 0.000000
-14.587700 0.000000
-14.566300 0.000000
-14.544900 0.000000
-14.523400 0.000000
-14.502000 0.000000
-14.480600 0.000000
-14.459100 0.000000
-14.437700 0.000000
-14.416200 0.000000
-14.394800 0.000000
-14.373400 0.000000
-14.351900 0.000000
-14.330500 0.000000
-14.309100 0.000000
-14.287600 0.000000
-14.266200 0.000000
-14.244700 0.000000
-14.223300 0.000000
-14.201900 0.000000
-14.180400 0.000000
-14.159000 0.000000
-14.137600 0.000000
-14.116100 0.000000
-14.094700 0.000000
-14.073200 0.000000
-14.051800 0.000000
-14.030400 0.000000
-14.008900 0.000000
-13.987500 0.000000
-13.966100 0.000000
-13.944600 0.000000
-13.923200 0.000000
-13.901700 0.000000
-13.880300 0.000000
-13.858900 0.000000
-13.837400 0.000000
-13.816000 0.000000
-13.794600 0.000000
-13.773100 0.000000
-13.751700 0.000000
-13.730200 0.000000
-13.708800 0.000000
-13.687400 0.000000
-13.665900 0.000000
-13.644500 0.000000
-13.623100 0.000000
-13.601600 0.000000
-13.580200 0.000000
-13.558800 0.000000
-13.537300 0.000000
-13.515900 0.000000
-13.494400 0.000000
-13.473000 0.000000
-13.451600 0.000000
-13.430100 0.000000
-13.408700 0.000000
-13.387300 0.000000
-13.365800 0.000000
-13.344400 0.000000
-13.322900 0.000000
-13.301500 0.000000
-13.280100 0.000000
-13.258600 0.000000
-13.237200 0.000000
-13.215800 0.000000
-13.194300 0.000000
-13.172900 0.000000
-13.151400 0.000000
-13.130000 0.000000
-13.108600 0.000000
-13.087100 0.000000
-13.065700 0.000000
-13.044300 0.000000
-13.022800 0.000000
-13.001400 0.000000
-12.979900 0.000000
-12.958500 0.000000
-12.937100 0.000000
-12.915600 0.000000
-12.894200 0.000000
-12.872800 0.000000
-12.851300 0.000000
-12.829900 0.000000
-12.808400 0.000000
-12.787000 0.000000
-12.765600 0.000000
-12.744100 0.000000
-12.722700 0.000000
-12.701300 0.000000
-12.679800 0.000000
-12.658400 0.000000
-12.636900 0.000000
-12.615500 0.000000
-12.594100 0.000000
-12.572600 0.000000
-12.551200 0.000000
-12.529800 0.000000
-12.508300 0.000000
-12.486900 0.000000
-12.465400 0.000000
-12.444000 0.000000
-12.422600 0.000000
-12.401100 0.001300
-12.379700 0.007400
-12.358300 0.018700
-12.336800 0.053500
-12.315400 0.042300
-12.293900 0.047800
-12.272500 0.054100
-12.251100 0.061500
-12.229600 0.069500
-12.208200 0.076900
-12.186800 0.083500
-12.165300 0.089300
-12.143900 0.092800
-12.122400 0.097300
-12.101000 0.102300
-12.079600 0.107600
-12.058100 0.113400
-12.036700 0.119900
-12.015300 0.126300
-11.993800 0.131800
-11.972400 0.138400
-11.951000 0.144600
-11.929500 0.149200
-11.908100 0.153600
-11.886600 0.158200
-11.865200 0.165600
-11.843800 0.171900
-11.822300 0.178400
-11.800900 0.185200
-11.779500 0.191900
-11.758000 0.198200
-11.736600 0.204200
-11.715100 0.210500
-11.693700 0.217200
-11.672300 0.224000
-11.650800 0.230600
-11.629400 0.237500
-11.608000 0.245200
-11.586500 0.252500
-11.565100 0.259900
-11.543600 0.268200
-11.522200 0.276000
-11.500800 0.283900
-11.479300 0.292600
-11.457900 0.300900
-11.436500 0.309300
-11.415000 0.317900
-11.393600 0.326800
-11.372100 0.335600
-11.350700 0.344200
-11.329300 0.352900
-11.307800 0.362400
-11.286400 0.373000
-11.265000 0.383800
-11.243500 0.395200
-11.222100 0.407600
-11.200600 0.419400
-11.179200 0.430700
-11.157800 0.442200
-11.136300 0.453800
-11.114900 0.465600
-11.093500 0.478000
-11.072000 0.491200
-11.050600 0.504900
-11.029100 0.518800
-11.007700 0.534300
-10.986300 0.551600
-10.964800 0.569300
-10.943400 0.586800
-10.922000 0.606400
-10.900500 0.625100
-10.879100 0.644500
-10.857600 0.664000
-10.836200 0.685000
-10.814800 0.708900
-10.793300 0.736900
-10.771900 0.765400
-10.750500 0.794600
-10.729000 0.828000
-10.707600 0.873400
-10.686100 0.921000
-10.664700 0.983200
-10.643300 1.103600
-10.621800 1.147100
-10.600400 1.140800
-10.579000 1.142400
-10.557500 1.144600
-10.536100 1.140300
-10.514600 1.135000
-10.493200 1.140200
-10.471800 1.132800
-10.450300 1.130300
-10.428900 1.134300
-10.407500 1.131500
-10.386000 1.123400
-10.364600 1.115700
-10.343200 1.116400
-10.321700 1.115400
-10.300300 1.113400
-10.278800 1.108800
-10.257400 1.105500
-10.236000 1.099500
-10.214500 1.095900
-10.193100 1.092000
-10.171700 1.085200
-10.150200 1.078400
-10.128800 1.073700
-10.107300 1.070300
-10.085900 1.068700
-10.064500 1.064500
-10.043000 1.054200
-10.021600 1.044800
-10.000200 1.038200
-9.978700 1.032500
-9.957300 1.025300
-9.935800 1.016000
-9.914400 1.006900
-9.893000 1.000800
-9.871500 0.993700
-9.850100 0.987500
-9.828700 0.977700
-9.807200 0.962200
-9.785800 0.949200
-9.764300 0.938300
-9.742900 0.927400
-9.721500 0.916900
-9.700000 0.904100
-9.678600 0.891300
-9.657200 0.877600
-9.635700 0.865900
-9.614300 0.852600
-9.592800 0.829400
-9.571400 0.814300
-9.550000 0.790900
-9.528500 0.786600
-9.507100 0.775900
-9.485700 0.739100
-9.464200 0.697700
-9.442800 0.660500
-9.421300 0.621600
-9.399900 0.537800
-9.378500 0.432300
-9.357000 0.393100
-9.335600 0.371100
-9.314200 0.358600
-9.292700 0.353300
-9.271300 0.355200
-9.249800 0.353700
-9.228400 0.356400
-9.207000 0.365700
-9.185500 0.379400
-9.164100 0.385700
-9.142700 0.398800
-9.121200 0.405400
-9.099800 0.427100
-9.078300 0.451400
-9.056900 0.503600
-9.035500 0.457100
-9.014000 0.465300
-8.992600 0.478000
-8.971200 0.481400
-8.949700 0.490900
-8.928300 0.504700
-8.906900 0.511000
-8.885400 0.517500
-8.864000 0.525300
-8.842500 0.534500
-8.821100 0.548700
-8.799700 0.562300
-8.778200 0.576800
-8.756800 0.578400
-8.735400 0.589100
-8.713900 0.593000
-8.692500 0.604000
-8.671000 0.615900
-8.649600 0.636200
-8.628200 0.642800
-8.606700 0.647300
-8.585300 0.655400
-8.563900 0.665200
-8.542400 0.674000
-8.521000 0.687200
-8.499500 0.702200
-8.478100 0.720300
-8.456700 0.737100
-8.435200 0.755600
-8.413800 0.775400
-8.392400 0.801500
-8.370900 0.830500
-8.349500 0.856300
-8.328000 0.888300
-8.306600 0.918900
-8.285200 0.949000
-8.263700 0.984300
-8.242300 1.027600
-8.220900 1.072700
-8.199400 1.113600
-8.178000 1.137800
-8.156500 1.146200
-8.135100 1.165600
-8.113700 1.190400
-8.092200 1.215100
-8.070800 1.240300
-8.049400 1.267700
-8.027900 1.292900
-8.006500 1.317200
-7.985000 1.342100
-7.963600 1.365500
-7.942200 1.388600
-7.920700 1.413100
-7.899300 1.442800
-7.877900 1.471900
-7.856400 1.500800
-7.835000 1.528100
-7.813500 1.558000
-7.792100 1.587600
-7.770700 1.618400
-7.749200 1.644800
-7.727800 1.677500
-7.706400 1.710900
-7.684900 1.751400
-7.663500 1.802000
-7.642000 1.879000
-7.620600 1.952800
-7.599200 2.029800
-7.577700 2.098200
-7.556300 2.147500
-7.534900 2.193600
-7.513400 2.180500
-7.492000 2.127100
-7.470500 2.086600
-7.449100 2.123300
-7.427700 2.056300
-7.406200 1.896300
-7.384800 1.513700
-7.363400 1.280600
-7.341900 1.140500
-7.320500 1.058600
-7.299100 0.980900
-7.277600 0.928400
-7.256200 0.897200
-7.234700 0.868500
-7.213300 0.852100
-7.191900 0.828400
-7.170400 0.813400
-7.149000 0.808200
-7.127600 0.807800
-7.106100 0.812100
-7.084700 0.819200
-7.063200 0.830400
-7.041800 0.814200
-7.020400 0.840500
-6.998900 0.868100
-6.977500 0.896200
-6.956100 0.927100
-6.934600 0.964600
-6.913200 1.001500
-6.891700 1.040200
-6.870300 1.084300
-6.848900 1.137400
-6.827400 1.196200
-6.806000 1.262000
-6.784600 1.332100
-6.763100 1.408500
-6.741700 1.489500
-6.720200 1.597700
-6.698800 1.740800
-6.677400 1.981500
-6.655900 2.309900
-6.634500 2.486300
-6.613100 2.423300
-6.591600 2.260100
-6.570200 2.265500
-6.548700 2.286800
-6.527300 2.307400
-6.505900 2.325700
-6.484400 2.350900
-6.463000 2.378300
-6.441600 2.409200
-6.420100 2.447100
-6.398700 2.497500
-6.377200 2.545800
-6.355800 2.589900
-6.334400 2.643400
-6.312900 2.697800
-6.291500 2.751200
-6.270100 2.826000
-6.248600 2.943000
-6.227200 3.021600
-6.205700 2.947400
-6.184300 2.956200
-6.162900 3.005700
-6.141400 2.988300
-6.120000 3.020100
-6.098600 3.084400
-6.077100 3.095400
-6.055700 3.202300
-6.034200 3.276000
-6.012800 3.452800
-5.991400 3.706100
-5.969900 3.901800
-5.948500 3.811000
-5.927100 3.915300
-5.905600 3.919700
-5.884200 4.307500
-5.862700 5.132900
-5.841300 5.003100
-5.819900 4.295900
-5.798400 3.988500
-5.777000 3.804500
-5.755600 3.636400
-5.734100 3.494500
-5.712700 3.409700
-5.691300 3.367500
-5.669800 3.111500
-5.648400 2.373200
-5.626900 1.985100
-5.605500 1.603100
-5.584100 1.328500
-5.562600 1.041100
-5.541200 0.808900
-5.519800 0.430100
-5.498300 0.000000
-5.476900 0.000000
-5.455400 0.000000
-5.434000 0.000000
-5.412600 0.000000
-5.391100 0.000000
-5.369700 0.000000
-5.348300 0.000000
-5.326800 0.000000
-5.305400 0.000000
-5.283900 0.000000
-5.262500 0.000000
-5.241100 0.000000
-5.219600 0.000000
-5.198200 0.000000
-5.176800 0.000000
-5.155300 0.000000
-5.133900 0.000000
-5.112400 0.000000
-5.091000 0.000000
-5.069600 0.000000
-5.048100 0.000000
-5.026700 0.000000
-5.005300 0.000000
-4.983800 0.000000
-4.962400 0.000000
-4.940900 0.000000
-4.919500 0.000000
-4.898100 0.000000
-4.876600 0.000000
-4.855200 0.000000
-4.833800 0.000000
-4.812300 0.000000
-4.790900 0.000000
-4.769400 0.000000
-4.748000 0.000000
-4.726600 0.000000
-4.705100 0.000000
-4.683700 0.000000
-4.662300 0.000000
-4.640800 0.000000
-4.619400 0.000000
-4.597900 0.000000
-4.576500 0.000000
-4.555100 0.000000
-4.533600 0.000000
-4.512200 0.000000
-4.490800 0.000000
-4.469300 0.000000
-4.447900 0.000000
-4.426400 0.000000
-4.405000 0.000000
-4.383600 0.000000
-4.362100 0.000000
-4.340700 0.000000
-4.319300 0.000000
-4.297800 0.000000
-4.276400 0.000000
-4.255000 0.000000
-4.233500 0.000000
-4.212100 0.000000
-4.190600 0.000000
-4.169200 0.000000
-4.147800 0.000000
-4.126300 0.000000
-4.104900 0.000000
-4.083500 0.000000
-4.062000 0.000000
-4.040600 0.000000
-4.019100 0.000000
-3.997700 0.000000
-3.976300 0.000000
-3.954800 0.000000
-3.933400 0.000000
-3.912000 0.000000
-3.890500 0.000000
-3.869100 0.000000
-3.847600 0.000000
-3.826200 0.000000
-3.804800 0.000000
-3.783300 0.000000
-3.761900 0.000000
-3.740500 0.000000
-3.719000 0.000000
-3.697600 0.000000
-3.676100 0.000000
-3.654700 0.000000
-3.633300 0.000000
-3.611800 0.000000
-3.590400 0.000000
-3.569000 0.000000
-3.547500 0.000000
-3.526100 0.000000
-3.504600 0.000000
-3.483200 0.000000
-3.461800 0.000000
-3.440300 0.000000
-3.418900 0.000000
-3.397500 0.000000
-3.376000 0.000000
-3.354600 0.000000
-3.333100 0.000000
-3.311700 0.000000
-3.290300 0.000000
-3.268800 0.000000
-3.247400 0.000000
-3.226000 0.000000
-3.204500 0.000000
-3.183100 0.000000
-3.161600 0.000000
-3.140200 0.000000
-3.118800 0.000000
-3.097300 0.000000
-3.075900 0.000000
-3.054500 0.000000
-3.033000 0.000000
-3.011600 0.000000
-2.990100 0.000000
-2.968700 0.000000
-2.947300 0.000000
-2.925800 0.000000
-2.904400 0.000000
-2.883000 0.000000
-2.861500 0.000000
-2.840100 0.299600
-2.818600 0.421500
-2.797200 0.581000
-2.775800 0.728400
-2.754300 0.859100
-2.732900 0.995600
-2.711500 1.126700
-2.690000 1.308300
-2.668600 1.504400
-2.647200 1.708800
-2.625700 2.071500
-2.604300 2.258800
-2.582800 2.389900
-2.561400 2.585900
-2.540000 2.982600
-2.518500 3.407600
-2.497100 3.428400
-2.475700 3.296100
-2.454200 3.253700
-2.432800 3.221600
-2.411300 3.206000
-2.389900 3.255600
-2.368500 3.320000
-2.347000 3.256100
-2.325600 2.906800
-2.304200 2.581600
-2.282700 2.365400
-2.261300 2.247500
-2.239800 2.276600
-2.218400 2.446500
-2.197000 2.439300
-2.175500 2.577200
-2.154100 2.508900
-2.132700 2.517900
-2.111200 2.548700
-2.089800 2.537400
-2.068300 2.554700
-2.046900 2.607600
-2.025500 2.575400
-2.004000 2.562900
-1.982600 2.503900
-1.961200 2.483100
-1.939700 2.506400
-1.918300 2.559500
-1.896800 2.675900
-1.875400 2.633900
-1.854000 2.678300
-1.832500 2.910100
-1.811100 3.024400
-1.789700 3.210400
-1.768200 3.353000
-1.746800 3.444200
-1.725300 3.692800
-1.703900 3.564000
-1.682500 2.801800
-1.661000 2.458400
-1.639600 2.266200
-1.618200 2.076400
-1.596700 1.905200
-1.575300 1.776800
-1.553800 1.645500
-1.532400 1.511700
-1.511000 1.401800
-1.489500 1.270700
-1.468100 1.189100
-1.446700 1.156400
-1.425200 1.164800
-1.403800 1.131700
-1.382300 1.122400
-1.360900 1.123000
-1.339500 1.126500
-1.318000 1.128500
-1.296600 1.091900
-1.275200 1.106800
-1.253700 1.139600
-1.232300 1.245600
-1.210900 1.476900
-1.189400 1.814700
-1.168000 2.077100
-1.146500 2.450500
-1.125100 2.852300
-1.103700 3.033600
-1.082200 3.229400
-1.060800 3.234800
-1.039400 2.984400
-1.017900 2.867100
-0.996500 2.722200
-0.975000 2.677400
-0.953600 2.815800
-0.932200 3.048300
-0.910700 2.957700
-0.889300 3.015300
-0.867900 3.063700
-0.846400 3.033400
-0.825000 3.032700
-0.803500 3.088600
-0.782100 3.085100
-0.760700 3.018700
-0.739200 2.962900
-0.717800 2.932200
-0.696400 3.006700
-0.674900 3.063900
-0.653500 3.145500
-0.632000 3.286900
-0.610600 3.576300
-0.589200 3.848200
-0.567700 3.781800
-0.546300 3.827700
-0.524900 3.773100
-0.503400 3.740000
-0.482000 3.791700
-0.460500 3.958800
-0.439100 3.980300
-0.417700 3.959600
-0.396200 3.935100
-0.374800 3.898500
-0.353400 3.825900
-0.331900 3.765600
-0.310500 3.794400
-0.289000 3.766800
-0.267600 3.773000
-0.246200 3.860400
-0.224700 4.051900
-0.203300 4.197500
-0.181900 4.525000
-0.160400 5.216100
-0.139000 5.577900
-0.117500 5.604400
-0.096100 5.485900
-0.074700 4.826200
-0.053200 4.288400
-0.031800 3.696700
-0.010400 3.351600
0.011100 3.158000
0.032500 2.680900
0.054000 2.359800
0.075400 1.893400
0.096800 1.668000
0.118300 1.417500
0.139700 1.454700
0.161100 1.438300
0.182600 1.452000
0.204000 1.469900
0.225500 1.509000
0.246900 1.542800
0.268300 1.579500
0.289800 1.623000
0.311200 1.670100
0.332600 1.720700
0.354100 1.776800
0.375500 1.842900
0.396900 1.948600
0.418400 2.058200
0.439800 2.233300
0.461300 2.324700
0.482700 2.324200
0.504100 2.328100
0.525600 2.357500
0.547000 2.336200
0.568400 2.310900
0.589900 2.329000
0.611300 2.332300
0.632800 2.327500
0.654200 2.316000
0.675600 2.300800
0.697100 2.291200
0.718500 2.294200
0.739900 2.300100
0.761400 2.299600
0.782800 2.305400
0.804300 2.333700
0.825700 2.410200
0.847100 2.547100
0.868600 2.591600
0.890000 2.703300
0.911400 2.772300
0.932900 2.881900
0.954300 2.825500
0.975800 2.747300
0.997200 2.738800
1.018600 2.706300
1.040100 2.838100
1.061500 3.068000
1.082900 3.367800
1.104400 4.028100
1.125800 4.598500
1.147300 5.124100
1.168700 5.507400
1.190100 6.043400
1.211600 6.250100
1.233000 6.476900
1.254400 6.712500
1.275900 6.849100
1.297300 6.300800
1.318800 6.060300
1.340200 5.924800
1.361600 5.568900
1.383100 4.733400
1.404500 4.325900
1.425900 4.110200
1.447400 3.931200
1.468800 3.797800
1.490300 4.138600
1.511700 5.018000
1.533100 4.951400
1.554600 5.365400
1.576000 9.883900
1.597400 10.939600
1.618900 10.307900
1.640300 7.473500
1.661800 7.875200
1.683200 8.056300
1.704600 8.599600
1.726100 8.045800
1.747500 7.272000
1.768900 7.174400
1.790400 7.199000
1.811800 6.770500
1.833300 6.609100
1.854700 6.360400
1.876100 6.223300
1.897600 5.746200
1.919000 4.729800
1.940400 4.080100
1.961900 3.589800
1.983300 3.216400
2.004700 2.919600
2.026200 2.519000
2.047600 2.165500
2.069100 2.053700
2.090500 1.407300
2.111900 1.046000
2.133400 0.000000
2.154800 0.000000
2.176200 0.000000
2.197700 0.000000
2.219100 0.000000
2.240600 0.000000
2.262000 0.000000
2.283400 0.000000
2.304900 0.000000
2.326300 0.000000
2.347700 0.000000
2.369200 0.000000
2.390600 0.000000
2.412100 0.000000
2.433500 0.000000
2.454900 0.000000
2.476400 0.000000
2.497800 0.000000
2.519200 0.000000
2.540700 0.000000
2.562100 0.000000
2.583600 0.000000
2.605000 0.000000
2.626400 0.000000
2.647900 0.000000
2.669300 0.000000
2.690700 0.000000
2.712200 0.000000
2.733600 0.000000
2.755100 0.000000
2.776500 0.000000
2.797900 0.000000
2.819400 0.000000
2.840800 0.000000
2.862200 0.000000
2.883700 0.000000
2.905100 0.000000
2.926600 0.000000
2.948000 0.000000
2.969400 0.000000
2.990900 0.000000
3.012300 0.000000
3.033700 0.000000
3.055200 0.000000
3.076600 0.000000
3.098100 0.000000
3.119500 0.000000
3.140900 0.000000
3.162400 0.000000
3.183800 0.000000
3.205200 0.000000
3.226700 0.000000
3.248100 0.000000
3.269600 0.000000
3.291000 0.000000
3.312400 0.000000
3.333900 0.000000
3.355300 0.000000
3.376700 0.000000
3.398200 0.000000
3.419600 0.000000
3.441000 0.000000
3.462500 0.000000
3.483900 0.000000
3.505400 0.000000
3.526800 0.000000
3.548200 0.000000
3.569700 0.000000
3.591100 0.000000
3.612500 0.000000
3.634000 0.000000
3.655400 0.000000
3.676900 0.000000
3.698300 0.000000
3.719700 0.000000
3.741200 0.000000
3.762600 0.000000
3.784000 0.000000
3.805500 0.000000
3.826900 0.000000
3.848400 0.000000
3.869800 0.000000
3.891200 0.000000
3.912700 0.000000
3.934100 0.000000
3.955500 0.000000
3.977000 0.000000
3.998400 0.000000
4.019900 0.000000
4.041300 0.000000
4.062700 0.000000
4.084200 0.000000
4.105600 0.000000
4.127000 0.000000
4.148500 0.000000
4.169900 0.000000
4.191400 0.000000
4.212800 0.000000
4.234200 0.000000
4.255700 0.000000
4.277100 0.000000
4.298500 0.000000
4.320000 0.000000
4.341400 0.000000
4.362900 0.000000
4.384300 0.000000
4.405700 0.000000
4.427200 0.000000
4.448600 0.000000
4.470000 0.000000
4.491500 0.000000
4.512900 0.000000
4.534400 0.000000
4.555800 0.000000
4.577200 0.000000
4.598700 0.000000
4.620100 0.000000
4.641500 0.000000
4.663000 0.000000
4.684400 0.000000
4.705900 0.000000
4.727300 0.000000
4.748700 0.000000
4.770200 0.000000
4.791600 0.000000
4.813000 0.000000
4.834500 0.000000
4.855900 0.000000
4.877400 0.000000
4.898800 0.000000
4.920200 0.000000
4.941700 0.000000
4.963100 0.000000
4.984500 0.000000
5.006000 0.000000
5.027400 0.000000
5.048800 0.000000
5.070300 0.000000
5.091700 0.000000
5.113200 0.000000
5.134600 0.000000
5.156000 0.000000
5.177500 0.000000
5.198900 0.000000
5.220300 0.000000
5.241800 0.000000
5.263200 0.000000
5.284700 0.000000
5.306100 0.000000
5.327500 0.000000
5.349000 0.000000
5.370400 0.000000
5.391800 0.000000
5.413300 0.000000
5.434700 0.000000
5.456200 0.000000
5.477600 0.000000
5.499000 0.000000
5.520500 0.000000
5.541900 0.000000
5.563300 0.000000
5.584800 0.000000
5.606200 0.000000
5.627700 0.000000
5.649100 0.000000
5.670500 0.000000
5.692000 0.000000
5.713400 0.000000
5.734800 0.000000
5.756300 0.000000
5.777700 0.000000
5.799200 0.000000
5.820600 0.000000
5.842000 0.000000
5.863500 0.000000
5.884900 0.000000
5.906300 0.000000
5.927800 0.000000
5.949200 0.000000
5.970700 0.000000
5.992100 0.000000
6.013500 0.000000
6.035000 0.000000
6.056400 0.000000
6.077800 0.000000
6.099300 0.000000
6.120700 0.000000
6.142200 0.000000
6.163600 0.000000
6.185000 0.000000
6.206500 0.000000
6.227900 0.000000
6.249300 0.000000
6.270800 0.000000
6.292200 0.000000
6.313700 0.000000
6.335100 0.000000
6.356500 0.000000
6.378000 0.000000
6.399400 0.000000
6.420800 0.000000
6.442300 0.000000
6.463700 0.000000
6.485200 0.000000
6.506600 0.000000
6.528000 0.000000
6.549500 0.000000
6.570900 0.000000
6.592300 0.000000
6.613800 0.000000
6.635200 0.000000
6.656600 0.000000
6.678100 0.000000
6.699500 0.000000
6.721000 0.000000
6.742400 0.000000
6.763800 0.000000
6.785300 0.000000
6.806700 0.000000
6.828100 0.000000
6.849600 0.000000
6.871000 0.000000
6.892500 0.000000
6.913900 0.000000
6.935300 0.000000
6.956800 0.000000
6.978200 0.000000
6.999600 0.000000
7.021100 0.000000
7.042500 0.000000
7.064000 0.000000
7.085400 0.000000
7.106800 0.000000
7.128300 0.000000
7.149700 0.000000
7.171100 0.000000
7.192600 0.000000
7.214000 0.000000
7.235500 0.000000
7.256900 0.000000
7.278300 0.000000
7.299800 0.000000
7.321200 0.000000
7.342600 0.000000
7.364100 0.000000
7.385500 0.000000
7.407000 0.000000
7.428400 0.000000
7.449800 0.000000
7.471300 0.000000
7.492700 0.000000
7.514100 0.000000
7.535600 0.000000
7.557000 0.000000
7.578500 0.000000
7.599900 0.000000
7.621300 0.000000
7.642800 0.000000
7.664200 0.000000
7.685600 0.000000
7.707100 0.000000
7.728500 0.000000
7.750000 0.000000
7.771400 0.000000
7.792800 0.000000
7.814300 0.000000
7.835700 0.000000
7.857100 0.000000
7.878600 0.000000
7.900000 0.000000
7.921500 0.000000
7.942900 0.000000
7.964300 0.000000
7.985800 0.000000
8.007200 0.000000
8.028600 0.000000
8.050100 0.000000
8.071500 0.000000
8.092900 0.000000
8.114400 0.000000
8.135800 0.000000
8.157300 0.000000
8.178700 0.000000
8.200100 0.000000
8.221600 0.000000
8.243000 0.000000
8.264400 0.000000
8.285900 0.000000
8.307300 0.000000
8.328800 0.000000
8.350200 0.000000
8.371600 0.000000
8.393100 0.000000
8.414500 0.000000
8.435900 0.000000
8.457400 0.000000
8.478800 0.000000
8.500300 0.000000
8.521700 0.000000
8.543100 0.000000
8.564600 0.000000
8.586000 0.000000
8.607400 0.000000
8.628900 0.000000
8.650300 0.000000
8.671800 0.000000
8.693200 0.000000
8.714600 0.000000
8.736100 0.000000
8.757500 0.000000
8.778900 0.000000
8.800400 0.000000
8.821800 0.000000
8.843300 0.000000
8.864700 0.000000
8.886100 0.000000
8.907600 0.000000
8.929000 0.000000
8.950400 0.000000
8.971900 0.000000
8.993300 0.000000
9.014800 0.000000
9.036200 0.000000
9.057600 0.000000
9.079100 0.000000
9.100500 0.000000
9.121900 0.000000
9.143400 0.000000
9.164800 0.000000
9.186300 0.000000
9.207700 0.000000
9.229100 0.000000
9.250600 0.000000
9.272000 0.000000
9.293400 0.000000
9.314900 0.000000
9.336300 0.000000
9.357800 0.000000
9.379200 0.000000
9.400600 0.000000
9.422100 0.000000
9.443500 0.000000
9.464900 0.000000
9.486400 0.000000
9.507800 0.000000
9.529300 0.000000
9.550700 0.000000
9.572100 0.000000
9.593600 0.000000
9.615000 0.000000
9.636400 0.000000
9.657900 0.000000
9.679300 0.000000
9.700700 0.000000
9.722200 0.000000
9.743600 0.000000
9.765100 0.000000
9.786500 0.000000
9.807900 0.019100
9.829400 0.109700
9.850800 0.128900
9.872200 0.175900
9.893700 0.303200
9.915100 0.665300
9.936600 0.931600
9.958000 1.388700
9.979400 1.381000
10.000900 1.462400
10.022300 1.501500
10.043700 1.554300
10.065200 1.603400
10.086600 1.658600
10.108100 1.717500
10.129500 1.770900
10.150900 1.827500
10.172400 1.890600
10.193800 1.969400
10.215200 2.056700
10.236700 2.153200
10.258100 2.287400
10.279600 2.600700
10.301000 2.572300
10.322400 2.568400
10.343900 2.547600
10.365300 2.546800
10.386700 2.547300
10.408200 2.525900
10.429600 2.497400
10.451100 2.480200
10.472500 2.479700
10.493900 2.466800
10.515400 2.432000
10.536800 2.410900
10.558200 2.396900
10.579700 2.388400
10.601100 2.382200
10.622600 2.402100
10.644000 2.423900
10.665400 2.466300
10.686900 2.484100
10.708300 2.279500
10.729700 1.937300
10.751200 1.885700
10.772600 1.592400
10.794100 1.676100
10.815500 1.677300
10.836900 1.396000
10.858400 1.364400
10.879800 1.353500
10.901200 1.265700
10.922700 1.609800
10.944100 2.113700
10.965600 3.243400
10.987000 3.861100
11.008400 4.847500
11.029900 6.228000
11.051300 6.541000
11.072700 6.250200
11.094200 5.751800
11.115600 5.279100
11.137100 4.960200
11.158500 4.691200
11.179900 4.333100
11.201400 4.192200
11.222800 4.399500
11.244200 3.523900
11.265700 3.137200
11.287100 3.209800
11.308500 3.017400
11.330000 2.841100
11.351400 2.659100
11.372900 2.520600
11.394300 2.434400
11.415700 2.319500
11.437200 2.226800
11.458600 2.283700
11.480000 2.435500
11.501500 2.275600
11.522900 1.994400
11.544400 2.051400
11.565800 2.277800
11.587200 2.495900
11.608700 2.849400
11.630100 3.309800
11.651500 4.422900
11.673000 5.292100
11.694400 5.038800
11.715900 4.370100
11.737300 3.859600
11.758700 3.602300
11.780200 3.507600
11.801600 3.481900
11.823000 3.499600
11.844500 3.554700
11.865900 3.657000
11.887400 3.845400
11.908800 4.362300
11.930200 4.573600
11.951700 4.659400
11.973100 4.901700
11.994500 3.079200
12.016000 2.737500
12.037400 2.805400
12.058900 2.881800
12.080300 3.004800
12.101700 3.247900
12.123200 3.233100
12.144600 3.265200
12.166000 3.317300
12.187500 3.378500
12.208900 3.453000
12.230400 3.484000
12.251800 3.545800
12.273200 3.643100
12.294700 3.702500
12.316100 3.895800
12.337500 4.055000
12.359000 3.747100
12.380400 3.099600
12.401900 2.751200
12.423300 2.494300
12.444700 2.284800
12.466200 2.107000
12.487600 1.949000
12.509000 1.811500
12.530500 1.756900
12.551900 1.616200
12.573400 1.498300
12.594800 1.395500
12.616200 1.294300
12.637700 1.215200
12.659100 1.195300
12.680500 1.141600
12.702000 1.137500
12.723400 1.216900
12.744800 1.131700
12.766300 0.665100
12.787700 0.539300
12.809200 0.447600
12.830600 0.328200
12.852000 0.208100
12.873500 0.056900
12.894900 0.000000
12.916300 0.000000
12.937800 0.000000
12.959200 0.000000
12.980700 0.000000
13.002100 0.000000
13.023500 0.000000
13.045000 0.000000
13.066400 0.000000
13.087800 0.000000
13.109300 0.000000
13.130700 0.000000
13.152200 0.000000
13.173600 0.000000
13.195000 0.000000
13.216500 0.000000
13.237900 0.000000
13.259300 0.000000
13.280800 0.000000
13.302200 0.000000
13.323700 0.000000
13.345100 0.000000
13.366500 0.000000
13.388000 0.023600
13.409400 0.078500
13.430800 0.154600
13.452300 0.202100
13.473700 0.230400
13.495200 0.261100
13.516600 0.286900
13.538000 0.318000
13.559500 0.348900
13.580900 0.442300
13.602300 0.405900
13.623800 0.439800
13.645200 0.475800
13.666700 0.517900
13.688100 0.546400
13.709500 0.595900
13.731000 0.645500
13.752400 0.818100
13.773800 1.393600
13.795300 1.774300
13.816700 1.979500
13.838200 2.274400
13.859600 2.637900
13.881000 3.209900
13.902500 3.359100
13.923900 3.563800
13.945300 3.651400
13.966800 3.841200
13.988200 3.984100
14.009700 4.072800
14.031100 4.449200
14.052500 5.319500
14.074000 5.476500
14.095400 5.109100
14.116800 4.450400
14.138300 4.191000
14.159700 4.060100
14.181200 3.968500
14.202600 3.883100
14.224000 3.803300
14.245500 3.707400
14.266900 3.487000
14.288300 2.846600
14.309800 2.471300
14.331200 2.095700
14.352600 1.853200
14.374100 1.709800
14.395500 1.623200
14.417000 1.607500
14.438400 1.484800
14.459800 1.389600
14.481300 1.359400
14.502700 1.394700
14.524100 1.456700
14.545600 1.540200
14.567000 1.652600
14.588500 1.769500
14.609900 1.886500
14.631300 2.245200
14.652800 3.380400
14.674200 3.768200
14.695600 3.868500
14.717100 3.834300
14.738500 3.827200
14.760000 4.020000
14.781400 4.434200
14.802800 3.812100
14.824300 3.315200
14.845700 3.020600
14.867100 2.524200
14.888600 2.154200
14.910000 2.185600
14.931500 2.048000
14.952900 1.947100
14.974300 1.907200
14.995800 1.826800
15.017200 1.747400
15.038600 1.731300
15.060100 1.689200
15.081500 1.330600
15.103000 0.987300
15.124400 1.010400
15.145800 0.805700
15.167300 0.672500
15.188700 0.643900
15.210100 0.573500
15.231600 0.541100
15.253000 0.565600
15.274500 0.683200
15.295900 0.805500
15.317300 1.076000
15.338800 1.332600
15.360200 1.403200
15.381600 1.381800
15.403100 1.360000
15.424500 1.361000
15.446000 1.371800
15.467400 1.428000
15.488800 1.300600
15.510300 1.119500
15.531700 0.960000
15.553100 0.939700
15.574600 0.936900
15.596000 0.947500
15.617500 0.960900
15.638900 0.976400
15.660300 0.995200
15.681800 1.036000
15.703200 1.076000
15.724600 1.159800
15.746100 1.217800
15.767500 1.246900
15.789000 1.240600
15.810400 1.235100
15.831800 1.252000
15.853300 1.265900
15.874700 1.278200
15.896100 1.298200
15.917600 1.322800
15.939000 1.347100
15.960400 1.397300
15.981900 1.463800
16.003300 1.540200
16.024800 1.610700
16.046200 1.690900
16.067600 1.771300
16.089100 1.886500
16.110500 1.990100
16.131900 2.164700
16.153400 2.336400
16.174800 2.566500
16.196300 2.847800
16.217700 3.326100
16.239100 5.247600
16.260600 6.006000
16.282000 4.226400
16.303400 3.533900
16.324900 3.948100
16.346300 3.352300
16.367800 3.288700
16.389200 3.360800
16.410600 3.581800
16.432100 4.023700
16.453500 4.597800
16.474900 4.878700
16.496400 4.816000
16.517800 4.508400
16.539300 4.467400
16.560700 4.379400
16.582100 4.427000
16.603600 4.592800
16.625000 4.745900
16.646400 4.714000
16.667900 4.398400
16.689300 4.321700
16.710800 3.831300
16.732200 3.040500
16.753600 2.270400
16.775100 1.937000
16.796500 1.759800
16.817900 1.613400
16.839400 1.407300
16.860800 1.248400
16.882300 1.111600
16.903700 0.994900
16.925100 0.883500
16.946600 0.772500
16.968000 0.680900
16.989400 0.601800
17.010900 0.540200
17.032300 0.486100
17.053800 0.445300
17.075200 0.354200
17.096600 0.321000
17.118100 0.241100
17.139500 0.137500
17.160900 0.000900
17.182400 0.000000
17.203800 0.000000
17.225300 0.000000
17.246700 0.000000
17.268100 0.000000
17.289600 0.000000
17.311000 0.000000
17.332400 0.000000
17.353900 0.000000
17.375300 0.000000
17.396700 0.000000
17.418200 0.000000
17.439600 0.000000
17.461100 0.000000
17.482500 0.000000
17.503900 0.000000
17.525400 0.000000
17.546800 0.000000
17.568200 0.000000
17.589700 0.000000
17.611100 0.000000
17.632600 0.000000
17.654000 0.000000
17.675400 0.000000
17.696900 0.000000
17.718300 0.000000
17.739700 0.000000
17.761200 0.000000
17.782600 0.000000
17.804100 0.000000
17.825500 0.000000
17.846900 0.000000
17.868400 0.000000
17.889800 0.000000
17.911200 0.000000
17.932700 0.000000
17.954100 0.000000
17.975600 0.000000
17.997000 0.000000
18.018400 0.000000
18.039900 0.000000
18.061300 0.000000
18.082700 0.000000
18.104200 0.000000
18.125600 0.000000
18.147100 0.000000
18.168500 0.000000
18.189900 0.000000
18.211400 0.000000
18.232800 0.000000
18.254200 0.000000
18.275700 0.000000
18.297100 0.000000
18.318600 0.000000
18.340000 0.000000
18.361400 0.000000
18.382900 0.000000
18.404300 0.000000
18.425700 0.000000
18.447200 0.000000
18.468600 0.000000
18.490100 0.000000
18.511500 0.000000
18.532900 0.000000
18.554400 0.000000
18.575800 0.000000
18.597200 0.000000
18.618700 0.000000
18.640100 0.000000
18.661600 0.000000
18.683000 0.000000
18.704400 0.000000
18.725900 0.000000
18.747300 0.000000
18.768700 0.000000
18.790200 0.000000
18.811600 0.000000
18.833100 0.000000
18.854500 0.000000
18.875900 0.000000
18.897400 0.000000
18.918800 0.000000
18.940200 0.000000
18.961700 0.000000
18.983100 0.000000
19.004500 0.000000
19.026000 0.000000
19.047400 0.000000
19.068900 0.000000
19.090300 0.000000
19.111700 0.000000
e
