set title 'mp-28112 - Density of States'
set xlabel 'Energy (eV)'
set ylabel 'DOS (states/eV)'
set grid
set xrange [-10:10]
set yrange [0:152.760]
set xzeroaxis lt -1
set terminal png size 800,600
set output 'mp-28112_dos_gnuplot.png'
plot '-' using 1:2 with lines title 'DOS'
-14.544000 0.000000
-14.528600 0.000000
-14.513300 0.000000
-14.497900 0.000000
-14.482500 0.000000
-14.467100 0.000000
-14.451700 0.000000
-14.436400 0.000000
-14.421000 0.000000
-14.405600 0.000000
-14.390200 0.000000
-14.374800 0.000000
-14.359500 0.000000
-14.344100 0.000000
-14.328700 0.000000
-14.313300 0.000000
-14.298000 0.000000
-14.282600 0.000000
-14.267200 0.000000
-14.251800 0.000000
-14.236400 0.000000
-14.221100 0.000000
-14.205700 0.000000
-14.190300 0.000000
-14.174900 0.000000
-14.159500 0.000000
-14.144200 0.000000
-14.128800 0.000000
-14.113400 0.000000
-14.098000 0.000000
-14.082600 0.000000
-14.067300 0.000000
-14.051900 0.000000
-14.036500 0.000000
-14.021100 0.000000
-14.005800 0.000000
-13.990400 0.000000
-13.975000 0.000000
-13.959600 0.000000
-13.944200 0.000000
-13.928900 0.000000
-13.913500 0.000000
-13.898100 0.000000
-13.882700 0.000000
-13.867300 0.000000
-13.852000 0.000000
-13.836600 0.000000
-13.821200 0.000000
-13.805800 0.000000
-13.790500 0.000000
-13.775100 0.000000
-13.759700 0.000000
-13.744300 0.000000
-13.728900 0.000000
-13.713600 0.000000
-13.698200 0.000000
-13.682800 0.000000
-13.667400 0.000000
-13.652000 0.000000
-13.636700 0.000000
-13.621300 0.000000
-13.605900 0.000000
-13.590500 0.000000
-13.575100 0.000000
-13.559800 0.000000
-13.544400 0.000000
-13.529000 0.000000
-13.513600 0.000000
-13.498300 0.000000
-13.482900 0.000000
-13.467500 0.000000
-13.452100 0.000000
-13.436700 0.000000
-13.421400 0.000000
-13.406000 0.000000
-13.390600 0.000000
-13.375200 0.000000
-13.359800 0.000000
-13.344500 0.000000
-13.329100 0.000000
-13.313700 0.000000
-13.298300 0.000000
-13.283000 0.000000
-13.267600 0.000000
-13.252200 0.000000
-13.236800 0.000000
-13.221400 0.000000
-13.206100 0.000000
-13.190700 0.000000
-13.175300 0.000000
-13.159900 0.000000
-13.144500 61.980400
-13.129200 132.952100
-13.113800 87.516300
-13.098400 0.000000
-13.083000 3.448900
-13.067700 33.421700
-13.052300 97.211600
-13.036900 151.338000
-13.021500 12.734700
-13.006100 0.000000
-12.990800 0.000000
-12.975400 0.000000
-12.960000 0.000000
-12.944600 0.000000
-12.929200 0.000000
-12.913900 0.000000
-12.898500 0.000000
-12.883100 251.821400
-12.867700 239.151700
-12.852300 0.000000
-12.837000 0.000000
-12.821600 0.000000
-12.806200 0.000000
-12.790800 0.000000
-12.775500 0.000000
-12.760100 0.000000
-12.744700 0.000000
-12.729300 0.000000
-12.713900 0.000000
-12.698600 0.000000
-12.683200 0.000000
-12.667800 0.000000
-12.652400 0.000000
-12.637000 0.000000
-12.621700 0.000000
-12.606300 0.000000
-12.590900 0.000000
-12.575500 0.000000
-12.560200 0.000000
-12.544800 119.321900
-12.529400 138.261800
-12.514000 67.021700
-12.498600 42.153400
-12.483300 138.517700
-12.467900 9.618700
-12.452500 70.522600
-12.437100 387.750200
-12.421700 0.000000
-12.406400 0.000000
-12.391000 0.000000
-12.375600 0.000000
-12.360200 0.000000
-12.344800 0.000000
-12.329500 0.000000
-12.314100 0.000000
-12.298700 0.000000
-12.283300 0.000000
-12.268000 0.000000
-12.252600 0.000000
-12.237200 0.000000
-12.221800 0.000000
-12.206400 0.000000
-12.191100 0.000000
-12.175700 0.000000
-12.160300 0.000000
-12.144900 0.000000
-12.129500 0.000000
-12.114200 0.000000
-12.098800 0.000000
-12.083400 0.000000
-12.068000 564.709100
-12.052700 0.000000
-12.037300 0.000000
-12.021900 0.000000
-12.006500 0.000000
-11.991100 0.000000
-11.975800 178.198200
-11.960400 150.269400
-11.945000 108.815500
-11.929600 36.944600
-11.914200 79.126500
-11.898900 57.167400
-11.883500 7.121200
-11.868100 0.000000
-11.852700 0.000000
-11.837300 0.000000
-11.822000 0.000000
-11.806600 0.000000
-11.791200 0.000000
-11.775800 0.000000
-11.760500 0.000000
-11.745100 0.000000
-11.729700 0.000000
-11.714300 0.000000
-11.698900 0.000000
-11.683600 0.000000
-11.668200 0.000000
-11.652800 0.000000
-11.637400 689.889200
-11.622000 1510.250400
-11.606700 110.394500
-11.591300 0.000000
-11.575900 0.000000
-11.560500 0.000000
-11.545200 0.000000
-11.529800 0.000000
-11.514400 0.000000
-11.499000 0.000000
-11.483600 0.000000
-11.468300 0.000000
-11.452900 0.000000
-11.437500 6.163700
-11.422100 96.013000
-11.406700 116.800200
-11.391400 52.484000
-11.376000 111.293400
-11.360600 129.791800
-11.345200 0.000000
-11.329900 0.000000
-11.314500 0.000000
-11.299100 0.000000
-11.283700 0.000000
-11.268300 0.000000
-11.253000 0.000000
-11.237600 0.000000
-11.222200 0.000000
-11.206800 0.000000
-11.191400 2.183800
-11.176100 94.369900
-11.160700 100.016500
-11.145300 231.726700
-11.129900 59.907800
-11.114500 17.593000
-11.099200 0.000000
-11.083800 0.000000
-11.068400 0.000000
-11.053000 0.000000
-11.037700 0.000000
-11.022300 0.000000
-11.006900 0.000000
-10.991500 0.000000
-10.976100 0.000000
-10.960800 0.000000
-10.945400 0.000000
-10.930000 0.000000
-10.914600 0.000000
-10.899200 0.000000
-10.883900 0.000000
-10.868500 0.000000
-10.853100 0.000000
-10.837700 0.000000
-10.822400 0.000000
-10.807000 0.000000
-10.791600 0.000000
-10.776200 0.000000
-10.760800 0.000000
-10.745500 0.000000
-10.730100 0.000000
-10.714700 0.000000
-10.699300 0.000000
-10.683900 0.000000
-10.668600 0.000000
-10.653200 0.000000
-10.637800 0.000000
-10.622400 0.000000
-10.607000 0.000000
-10.591700 0.000000
-10.576300 0.000000
-10.560900 0.000000
-10.545500 0.000000
-10.530200 0.000000
-10.514800 0.000000
-10.499400 0.000000
-10.484000 0.000000
-10.468600 0.000000
-10.453300 0.000000
-10.437900 0.000000
-10.422500 0.000000
-10.407100 0.000000
-10.391700 0.000000
-10.376400 0.000000
-10.361000 0.000000
-10.345600 0.000000
-10.330200 0.000000
-10.314900 0.000000
-10.299500 0.000000
-10.284100 0.000000
-10.268700 0.000000
-10.253300 0.000000
-10.238000 0.000000
-10.222600 0.000000
-10.207200 0.000000
-10.191800 0.000000
-10.176400 0.000000
-10.161100 0.000000
-10.145700 0.000000
-10.130300 0.000000
-10.114900 0.000000
-10.099600 0.000000
-10.084200 0.000000
-10.068800 0.000000
-10.053400 0.000000
-10.038000 0.000000
-10.022700 0.000000
-10.007300 0.000000
-9.991900 0.000000
-9.976500 0.000000
-9.961100 0.000000
-9.945800 0.000000
-9.930400 0.000000
-9.915000 0.000000
-9.899600 0.000000
-9.884200 0.000000
-9.868900 0.000000
-9.853500 0.000000
-9.838100 0.000000
-9.822700 0.000000
-9.807400 0.000000
-9.792000 0.000000
-9.776600 0.000000
-9.761200 0.000000
-9.745800 0.000000
-9.730500 0.000000
-9.715100 0.000000
-9.699700 0.000000
-9.684300 0.000000
-9.668900 0.000000
-9.653600 0.000000
-9.638200 0.000000
-9.622800 0.000000
-9.607400 0.000000
-9.592100 0.000000
-9.576700 0.000000
-9.561300 0.000000
-9.545900 0.000000
-9.530500 0.000000
-9.515200 0.000000
-9.499800 0.000000
-9.484400 0.000000
-9.469000 0.000000
-9.453600 0.000000
-9.438300 0.000000
-9.422900 0.000000
-9.407500 0.000000
-9.392100 0.000000
-9.376700 0.000000
-9.361400 0.000000
-9.346000 0.000000
-9.330600 0.000000
-9.315200 0.000000
-9.299900 0.000000
-9.284500 0.000000
-9.269100 0.000000
-9.253700 0.000000
-9.238300 0.000000
-9.223000 0.000000
-9.207600 0.000000
-9.192200 0.000000
-9.176800 0.000000
-9.161400 0.000000
-9.146100 0.000000
-9.130700 0.000000
-9.115300 0.000000
-9.099900 0.000000
-9.084600 0.000000
-9.069200 0.000000
-9.053800 0.000000
-9.038400 0.000000
-9.023000 0.000000
-9.007700 0.000000
-8.992300 0.000000
-8.976900 0.000000
-8.961500 0.000000
-8.946100 0.000000
-8.930800 0.000000
-8.915400 0.000000
-8.900000 0.000000
-8.884600 0.000000
-8.869200 0.000000
-8.853900 0.000000
-8.838500 0.000000
-8.823100 0.000000
-8.807700 0.000000
-8.792400 0.000000
-8.777000 0.000000
-8.761600 0.000000
-8.746200 0.000000
-8.730800 0.000000
-8.715500 0.000000
-8.700100 0.000000
-8.684700 0.000000
-8.669300 0.000000
-8.653900 0.000000
-8.638600 0.000000
-8.623200 0.000000
-8.607800 0.000000
-8.592400 0.000000
-8.577100 0.000000
-8.561700 0.000000
-8.546300 0.000000
-8.530900 0.000000
-8.515500 0.000000
-8.500200 0.000000
-8.484800 0.000000
-8.469400 0.000000
-8.454000 0.000000
-8.438600 0.000000
-8.423300 0.000000
-8.407900 0.000000
-8.392500 0.000000
-8.377100 0.000000
-8.361800 0.000000
-8.346400 0.000000
-8.331000 0.000000
-8.315600 0.000000
-8.300200 0.000000
-8.284900 0.000000
-8.269500 0.000000
-8.254100 0.000000
-8.238700 0.000000
-8.223300 0.000000
-8.208000 0.000000
-8.192600 0.000000
-8.177200 0.000000
-8.161800 0.000000
-8.146400 0.000000
-8.131100 0.000000
-8.115700 0.000000
-8.100300 0.000000
-8.084900 0.000000
-8.069600 0.000000
-8.054200 0.000000
-8.038800 0.000000
-8.023400 0.000000
-8.008000 0.000000
-7.992700 0.000000
-7.977300 0.000000
-7.961900 0.000000
-7.946500 0.000000
-7.931100 0.000000
-7.915800 0.000000
-7.900400 0.000000
-7.885000 0.000000
-7.869600 0.000000
-7.854300 0.000000
-7.838900 0.000000
-7.823500 0.000000
-7.808100 0.000000
-7.792700 0.000000
-7.777400 0.000000
-7.762000 0.000000
-7.746600 0.000000
-7.731200 0.000000
-7.715800 0.000000
-7.700500 0.000000
-7.685100 0.000000
-7.669700 0.000000
-7.654300 0.000000
-7.638900 0.000000
-7.623600 0.000000
-7.608200 0.000000
-7.592800 0.000000
-7.577400 0.000000
-7.562100 0.000000
-7.546700 0.000000
-7.531300 0.000000
-7.515900 0.000000
-7.500500 0.000000
-7.485200 0.000000
-7.469800 0.000000
-7.454400 0.000000
-7.439000 0.000000
-7.423600 0.000000
-7.408300 0.000000
-7.392900 0.000000
-7.377500 0.000000
-7.362100 0.000000
-7.346800 0.000000
-7.331400 0.000000
-7.316000 0.000000
-7.300600 0.000000
-7.285200 0.000000
-7.269900 0.000000
-7.254500 0.000000
-7.239100 0.000000
-7.223700 0.000000
-7.208300 0.000000
-7.193000 0.000000
-7.177600 0.000000
-7.162200 0.000000
-7.146800 0.000000
-7.131400 0.000000
-7.116100 0.000000
-7.100700 0.000000
-7.085300 0.000000
-7.069900 0.000000
-7.054600 0.000000
-7.039200 0.000000
-7.023800 0.000000
-7.008400 0.000000
-6.993000 0.000000
-6.977700 0.000000
-6.962300 0.000000
-6.946900 0.000000
-6.931500 0.000000
-6.916100 0.000000
-6.900800 0.000000
-6.885400 0.000000
-6.870000 0.000000
-6.854600 0.000000
-6.839300 0.000000
-6.823900 0.000000
-6.808500 0.000000
-6.793100 0.000000
-6.777700 0.000000
-6.762400 0.000000
-6.747000 0.000000
-6.731600 0.000000
-6.716200 0.000000
-6.700800 0.000000
-6.685500 0.000000
-6.670100 0.000000
-6.654700 0.000000
-6.639300 0.000000
-6.624000 0.000000
-6.608600 0.000000
-6.593200 0.000000
-6.577800 0.000000
-6.562400 0.000000
-6.547100 0.000000
-6.531700 0.000000
-6.516300 0.000000
-6.500900 0.000000
-6.485500 0.000000
-6.470200 0.000000
-6.454800 0.000000
-6.439400 0.000000
-6.424000 0.000000
-6.408600 0.000000
-6.393300 0.000000
-6.377900 0.000000
-6.362500 0.000000
-6.347100 0.000000
-6.331800 0.000000
-6.316400 0.000000
-6.301000 0.000000
-6.285600 0.000000
-6.270200 0.000000
-6.254900 0.000000
-6.239500 0.000000
-6.224100 0.000000
-6.208700 0.000000
-6.193300 0.000000
-6.178000 0.000000
-6.162600 0.000000
-6.147200 0.000000
-6.131800 0.000000
-6.116500 0.000000
-6.101100 0.000000
-6.085700 0.000000
-6.070300 0.000000
-6.054900 0.000000
-6.039600 0.000000
-6.024200 0.000000
-6.008800 0.000000
-5.993400 0.000000
-5.978000 0.000000
-5.962700 0.000000
-5.947300 0.000000
-5.931900 0.000000
-5.916500 0.000000
-5.901100 0.000000
-5.885800 0.000000
-5.870400 0.000000
-5.855000 0.000000
-5.839600 0.000000
-5.824300 0.000000
-5.808900 0.000000
-5.793500 0.000000
-5.778100 0.000000
-5.762700 0.000000
-5.747400 0.000000
-5.732000 0.000000
-5.716600 0.000000
-5.701200 0.000000
-5.685800 0.000000
-5.670500 0.000000
-5.655100 0.000000
-5.639700 0.000000
-5.624300 0.000000
-5.609000 0.000000
-5.593600 0.000000
-5.578200 0.000000
-5.562800 0.000000
-5.547400 0.000000
-5.532100 0.000000
-5.516700 0.000000
-5.501300 0.000000
-5.485900 0.000000
-5.470500 0.000000
-5.455200 0.000000
-5.439800 0.000000
-5.424400 0.000000
-5.409000 0.000000
-5.393700 0.000000
-5.378300 0.000000
-5.362900 0.000000
-5.347500 0.000000
-5.332100 0.000000
-5.316800 0.000000
-5.301400 0.000000
-5.286000 0.000000
-5.270600 0.000000
-5.255200 0.000000
-5.239900 0.000000
-5.224500 0.000000
-5.209100 0.000000
-5.193700 0.000000
-5.178300 0.000000
-5.163000 0.000000
-5.147600 0.000000
-5.132200 0.000000
-5.116800 0.000000
-5.101500 0.000000
-5.086100 0.000000
-5.070700 0.000000
-5.055300 0.000000
-5.039900 0.000000
-5.024600 0.000000
-5.009200 0.000000
-4.993800 0.000000
-4.978400 0.000000
-4.963000 0.000000
-4.947700 0.000000
-4.932300 0.000000
-4.916900 0.000000
-4.901500 0.000000
-4.886200 0.000000
-4.870800 0.000000
-4.855400 0.000000
-4.840000 0.000000
-4.824600 0.000000
-4.809300 0.000000
-4.793900 0.000000
-4.778500 0.000000
-4.763100 0.000000
-4.747700 0.000000
-4.732400 0.000000
-4.717000 0.000000
-4.701600 0.000000
-4.686200 0.000000
-4.670800 0.000000
-4.655500 0.000000
-4.640100 0.000000
-4.624700 0.000000
-4.609300 0.000000
-4.594000 0.000000
-4.578600 0.000000
-4.563200 0.000000
-4.547800 0.000000
-4.532400 0.000000
-4.517100 0.000000
-4.501700 0.000000
-4.486300 0.000000
-4.470900 0.000000
-4.455500 0.000000
-4.440200 0.000000
-4.424800 0.000000
-4.409400 0.000000
-4.394000 0.000000
-4.378700 0.000000
-4.363300 0.000000
-4.347900 0.000000
-4.332500 0.000000
-4.317100 0.000000
-4.301800 0.000000
-4.286400 0.000000
-4.271000 0.000000
-4.255600 0.000000
-4.240200 0.000000
-4.224900 0.000000
-4.209500 0.000000
-4.194100 0.000000
-4.178700 0.000000
-4.163300 0.000000
-4.148000 0.000000
-4.132600 0.000000
-4.117200 0.000000
-4.101800 0.000000
-4.086500 0.000000
-4.071100 0.000000
-4.055700 0.000000
-4.040300 0.000000
-4.024900 0.006000
-4.009600 0.270800
-3.994200 0.928300
-3.978800 1.978700
-3.963400 3.421800
-3.948000 5.710200
-3.932700 8.060200
-3.917300 10.600400
-3.901900 14.584000
-3.886500 18.773600
-3.871200 19.434300
-3.855800 16.764500
-3.840400 13.277600
-3.825000 21.038000
-3.809600 24.590800
-3.794300 30.753300
-3.778900 36.132400
-3.763500 29.409000
-3.748100 23.418400
-3.732700 35.560100
-3.717400 45.558300
-3.702000 34.330600
-3.686600 33.169400
-3.671200 33.697200
-3.655900 22.851900
-3.640500 13.954800
-3.625100 9.630800
-3.609700 5.416400
-3.594300 1.454700
-3.579000 0.026400
-3.563600 0.000000
-3.548200 0.000000
-3.532800 0.000000
-3.517400 0.000000
-3.502100 0.000000
-3.486700 0.000000
-3.471300 0.000000
-3.455900 0.000000
-3.440500 0.000000
-3.425200 0.000000
-3.409800 0.000000
-3.394400 0.000000
-3.379000 0.000000
-3.363700 0.000000
-3.348300 0.000000
-3.332900 0.000000
-3.317500 0.000000
-3.302100 0.000000
-3.286800 0.000000
-3.271400 0.000000
-3.256000 0.000000
-3.240600 0.000000
-3.225200 0.000000
-3.209900 0.000000
-3.194500 0.000000
-3.179100 0.000000
-3.163700 0.000000
-3.148400 0.000000
-3.133000 0.000000
-3.117600 0.000000
-3.102200 0.000000
-3.086800 0.000000
-3.071500 0.000000
-3.056100 0.000000
-3.040700 0.000000
-3.025300 0.000000
-3.009900 0.000000
-2.994600 0.000000
-2.979200 0.000000
-2.963800 0.000000
-2.948400 0.000000
-2.933000 0.000000
-2.917700 0.000000
-2.902300 0.000000
-2.886900 0.000000
-2.871500 0.000000
-2.856200 0.000000
-2.840800 0.000000
-2.825400 0.000000
-2.810000 0.000000
-2.794600 0.000000
-2.779300 0.000000
-2.763900 0.000000
-2.748500 0.000000
-2.733100 0.000000
-2.717700 0.000000
-2.702400 0.000000
-2.687000 0.000000
-2.671600 0.000000
-2.656200 0.000000
-2.640900 0.000000
-2.625500 0.000000
-2.610100 0.000000
-2.594700 0.000000
-2.579300 0.000000
-2.564000 0.000000
-2.548600 0.000000
-2.533200 0.000000
-2.517800 0.000000
-2.502400 0.000000
-2.487100 0.000000
-2.471700 0.000000
-2.456300 0.000000
-2.440900 0.000000
-2.425600 0.000000
-2.410200 0.000000
-2.394800 0.000000
-2.379400 0.822600
-2.364000 47.836000
-2.348700 24.258800
-2.333300 20.451100
-2.317900 17.697400
-2.302500 21.708600
-2.287100 23.787500
-2.271800 24.409800
-2.256400 20.642000
-2.241000 29.180400
-2.225600 29.988100
-2.210200 30.396300
-2.194900 30.409900
-2.179500 32.552700
-2.164100 33.588500
-2.148700 33.233200
-2.133400 15.353100
-2.118000 16.261100
-2.102600 20.750500
-2.087200 22.982700
-2.071800 25.995500
-2.056500 29.161200
-2.041100 33.417800
-2.025700 23.688100
-2.010300 19.642600
-1.994900 14.369700
-1.979600 7.869500
-1.964200 25.397600
-1.948800 43.476000
-1.933400 24.822500
-1.918100 18.651800
-1.902700 16.468900
-1.887300 20.441400
-1.871900 30.530100
-1.856500 42.252800
-1.841200 32.527600
-1.825800 92.779500
-1.810400 40.616100
-1.795000 46.818100
-1.779600 50.594500
-1.764300 50.880200
-1.748900 62.348800
-1.733500 50.052000
-1.718100 36.013300
-1.702700 20.658500
-1.687400 14.027000
-1.672000 6.799700
-1.656600 11.025900
-1.641200 15.700300
-1.625900 20.294300
-1.610500 18.005900
-1.595100 19.719700
-1.579700 25.365300
-1.564300 43.811600
-1.549000 34.163400
-1.533600 34.359500
-1.518200 35.643100
-1.502800 26.313200
-1.487400 23.493900
-1.472100 20.656700
-1.456700 17.560800
-1.441300 14.206000
-1.425900 11.501400
-1.410600 9.174100
-1.395200 17.643700
-1.379800 32.313500
-1.364400 53.202900
-1.349000 37.958100
-1.333700 33.716400
-1.318300 26.871300
-1.302900 20.418100
-1.287500 11.344800
-1.272100 11.504600
-1.256800 12.105100
-1.241400 13.728100
-1.226000 16.373600
-1.210600 21.686200
-1.195200 24.865200
-1.179900 23.745600
-1.164500 7.872900
-1.149100 6.109900
-1.133700 26.702700
-1.118400 49.354300
-1.103000 29.352000
-1.087600 18.564800
-1.072200 17.956500
-1.056800 23.344900
-1.041500 47.946000
-1.026100 61.857000
-1.010700 0.022700
-0.995300 0.572100
-0.979900 1.855500
-0.964600 3.872800
-0.949200 5.936700
-0.933800 7.714600
-0.918400 9.452100
-0.903100 11.149100
-0.887700 14.162400
-0.872300 15.583700
-0.856900 15.156300
-0.841500 13.280100
-0.826200 11.002900
-0.810800 8.257900
-0.795400 5.044900
-0.780000 6.929300
-0.764600 11.469200
-0.749300 18.534400
-0.733900 29.505700
-0.718500 39.221400
-0.703100 21.258800
-0.687800 10.773400
-0.672400 3.711400
-0.657000 0.072800
-0.641600 50.773400
-0.626200 71.745400
-0.610900 32.011700
-0.595500 17.207500
-0.580100 22.017100
-0.564700 28.904400
-0.549300 72.826100
-0.534000 47.315100
-0.518600 26.194200
-0.503200 33.655600
-0.487800 44.599200
-0.472400 36.579300
-0.457100 22.634800
-0.441700 14.707500
-0.426300 70.403400
-0.410900 35.925300
-0.395600 14.939400
-0.380200 21.053800
-0.364800 26.647800
-0.349400 31.690500
-0.334000 40.644200
-0.318700 17.626400
-0.303300 27.468300
-0.287900 40.302700
-0.272500 28.254700
-0.257100 39.602800
-0.241800 35.752800
-0.226400 27.635700
-0.211000 19.285900
-0.195600 15.476400
-0.180300 10.872900
-0.164900 58.435100
-0.149500 131.201400
-0.134100 70.692700
-0.118700 16.266900
-0.103400 27.334300
-0.088000 38.311000
-0.072600 20.455900
-0.057200 53.997600
-0.041800 76.527500
-0.026500 53.411400
-0.011100 86.483800
0.004300 98.623400
0.019700 43.052300
0.035100 29.626500
0.050400 65.505800
0.065800 39.985000
0.081200 87.199800
0.096600 64.951500
0.111900 111.182400
0.127300 94.310200
0.142700 39.208000
0.158100 78.655600
0.173500 138.872300
0.188800 61.764600
0.204200 54.042600
0.219600 67.653000
0.235000 72.421100
0.250400 68.692700
0.265700 64.246900
0.281100 79.794800
0.296500 90.696600
0.311900 117.247500
0.327200 81.892200
0.342600 38.797200
0.358000 76.464800
0.373400 42.716700
0.388800 75.279000
0.404100 87.730100
0.419500 60.475000
0.434900 26.348300
0.450300 25.616400
0.465700 25.172000
0.481000 24.075600
0.496400 5.262100
0.511800 8.768900
0.527200 16.972300
0.542600 22.867300
0.557900 27.529100
0.573300 27.779300
0.588700 25.377200
0.604100 20.519500
0.619400 20.146500
0.634800 25.994200
0.650200 29.489600
0.665600 13.701400
0.681000 15.850700
0.696300 25.916900
0.711700 28.099700
0.727100 18.002300
0.742500 12.367500
0.757900 13.413500
0.773200 21.185400
0.788600 28.378000
0.804000 30.358600
0.819400 23.027100
0.834700 18.627400
0.850100 35.266300
0.865500 48.455600
0.880900 44.802500
0.896300 40.577800
0.911600 40.930600
0.927000 56.489000
0.942400 1.612300
0.957800 0.000000
0.973200 0.000000
0.988500 0.000000
1.003900 0.000000
1.019300 0.000000
1.034700 0.000000
1.050000 0.000000
1.065400 0.000000
1.080800 0.000000
1.096200 0.000000
1.111600 0.000000
1.126900 0.000000
1.142300 0.000000
1.157700 0.000000
1.173100 0.000000
1.188500 0.000000
1.203800 0.000000
1.219200 0.000000
1.234600 0.000000
1.250000 0.000000
1.265400 0.000000
1.280700 0.000000
1.296100 0.000000
1.311500 0.000000
1.326900 0.000000
1.342200 0.000000
1.357600 0.000000
1.373000 0.000000
1.388400 0.000000
1.403800 0.000000
1.419100 0.000000
1.434500 0.000000
1.449900 0.000000
1.465300 0.000000
1.480700 0.000000
1.496000 0.000000
1.511400 0.000000
1.526800 0.000000
1.542200 0.000000
1.557500 0.000000
1.572900 0.000000
1.588300 0.000000
1.603700 0.000000
1.619100 0.000000
1.634400 0.000000
1.649800 0.000000
1.665200 0.000000
1.680600 0.000000
1.696000 0.000000
1.711300 0.000000
1.726700 0.000000
1.742100 0.000000
1.757500 0.000000
1.772900 0.000000
1.788200 0.000000
1.803600 0.000000
1.819000 0.000000
1.834400 0.000000
1.849700 0.000000
1.865100 0.000000
1.880500 0.000000
1.895900 0.000000
1.911300 0.000000
1.926600 0.000000
1.942000 0.000000
1.957400 0.000000
1.972800 0.000000
1.988200 0.000000
2.003500 0.000000
2.018900 0.000000
2.034300 0.000000
2.049700 0.000000
2.065000 0.000000
2.080400 0.000000
2.095800 0.000000
2.111200 0.000000
2.126600 0.000000
2.141900 0.000000
2.157300 0.000000
2.172700 0.000000
2.188100 0.000000
2.203500 0.000000
2.218800 0.000000
2.234200 0.000000
2.249600 0.000000
2.265000 0.000000
2.280300 0.000000
2.295700 0.000000
2.311100 0.000000
2.326500 0.000000
2.341900 0.000000
2.357200 0.000000
2.372600 0.000000
2.388000 0.000000
2.403400 0.000000
2.418800 0.000000
2.434100 0.000000
2.449500 0.000000
2.464900 0.000000
2.480300 0.000000
2.495700 0.000000
2.511000 0.000000
2.526400 0.000000
2.541800 0.000000
2.557200 0.000000
2.572500 0.000000
2.587900 0.000000
2.603300 0.000000
2.618700 0.000000
2.634100 0.000000
2.649400 0.000000
2.664800 0.000000
2.680200 0.000000
2.695600 0.000000
2.711000 0.000000
2.726300 0.000000
2.741700 0.000000
2.757100 0.000000
2.772500 0.000000
2.787800 0.000000
2.803200 0.000000
2.818600 0.000000
2.834000 0.000000
2.849400 0.000000
2.864700 0.000000
2.880100 0.000000
2.895500 0.000000
2.910900 0.000000
2.926300 0.000000
2.941600 0.000000
2.957000 0.000000
2.972400 0.000000
2.987800 0.000000
3.003200 0.000000
3.018500 0.000000
3.033900 0.000000
3.049300 0.000000
3.064700 0.000000
3.080000 0.000000
3.095400 0.000000
3.110800 0.000000
3.126200 0.000000
3.141600 0.000000
3.156900 0.000000
3.172300 0.000000
3.187700 0.000000
3.203100 0.000000
3.218500 0.000000
3.233800 0.000000
3.249200 0.000000
3.264600 0.000000
3.280000 0.000000
3.295300 0.000000
3.310700 0.000000
3.326100 0.000000
3.341500 0.000000
3.356900 0.000000
3.372200 0.000000
3.387600 0.000000
3.403000 0.000000
3.418400 0.000000
3.433800 0.000000
3.449100 0.000000
3.464500 0.000000
3.479900 0.000000
3.495300 0.000000
3.510700 0.000000
3.526000 0.000000
3.541400 0.000000
3.556800 0.000000
3.572200 0.000000
3.587500 0.000000
3.602900 0.000000
3.618300 0.000000
3.633700 0.000000
3.649100 0.000000
3.664400 0.000000
3.679800 0.000000
3.695200 0.000000
3.710600 0.000000
3.726000 0.000000
3.741300 0.000000
3.756700 0.000000
3.772100 0.000000
3.787500 0.000000
3.802800 0.000000
3.818200 0.000000
3.833600 0.000000
3.849000 0.000000
3.864400 0.000000
3.879700 0.000000
3.895100 0.000000
3.910500 0.000000
3.925900 0.000000
3.941300 0.041200
3.956600 0.161100
3.972000 0.308300
3.987400 0.482900
4.002800 0.684900
4.018100 0.914200
4.033500 1.170800
4.048900 1.454800
4.064300 1.766100
4.079700 2.104800
4.095000 2.470900
4.110400 2.867600
4.125800 3.305100
4.141200 3.783900
4.156600 4.304000
4.171900 4.865500
4.187300 6.783100
4.202700 17.716800
4.218100 22.111200
4.233500 24.522900
4.248800 22.432000
4.264200 6.622600
4.279600 0.727800
4.295000 2.166100
4.310300 4.370000
4.325700 7.855000
4.341100 14.241800
4.356500 40.840900
4.371900 18.346400
4.387200 15.358800
4.402600 12.356400
4.418000 9.339400
4.433400 6.307700
4.448800 3.261300
4.464100 0.200200
4.479500 0.000000
4.494900 0.000000
4.510300 0.001500
4.525600 2.195800
4.541000 28.381600
4.556400 20.718900
4.571800 16.938400
4.587200 14.827700
4.602500 13.871400
4.617900 17.645100
4.633300 21.787800
4.648700 26.299500
4.664100 26.720300
4.679400 19.259300
4.694800 14.259900
4.710200 8.400600
4.725600 6.720500
4.741000 5.033100
4.756300 3.970200
4.771700 3.155300
4.787100 2.369300
4.802500 1.612100
4.817800 1.188800
4.833200 0.903200
4.848600 0.656900
4.864000 0.449700
4.879400 0.281600
4.894700 0.152700
4.910100 0.062900
4.925500 0.012300
4.940900 0.000000
4.956300 0.000000
4.971600 0.000000
4.987000 0.000000
5.002400 0.000000
5.017800 0.000000
5.033100 0.000000
5.048500 0.000000
5.063900 0.000000
5.079300 0.000000
5.094700 0.000000
5.110000 0.000000
5.125400 0.000000
5.140800 0.000000
5.156200 0.000000
5.171600 2.237400
5.186900 4.825200
5.202300 7.748400
5.217700 11.007000
5.233100 16.362000
5.248500 25.569800
5.263800 54.749200
5.279200 27.780900
5.294600 29.968300
5.310000 29.510700
5.325300 26.408300
5.340700 8.861600
5.356100 3.512700
5.371500 0.896700
5.386900 1.313900
5.402200 10.822400
5.417600 27.775600
5.433000 34.607000
5.448400 23.117100
5.463800 26.250500
5.479100 29.803400
5.494500 30.814200
5.509900 22.688700
5.525300 16.644500
5.540600 13.462000
5.556000 10.706900
5.571400 9.111600
5.586800 7.998200
5.602200 6.819400
5.617500 5.446800
5.632900 6.494000
5.648300 7.567900
5.663700 8.638100
5.679100 9.704500
5.694400 37.507500
5.709800 40.472500
5.725200 39.773700
5.740600 25.586800
5.755900 21.043900
5.771300 20.653800
5.786700 19.540100
5.802100 18.011000
5.817500 28.283300
5.832800 16.659500
5.848200 21.594500
5.863600 27.126300
5.879000 37.939700
5.894400 56.427200
5.909700 66.381300
5.925100 57.054300
5.940500 39.340000
5.955900 33.133300
5.971300 24.570500
5.986600 23.945800
6.002000 54.529500
6.017400 36.310700
6.032800 43.323800
6.048100 39.156800
6.063500 36.866900
6.078900 31.093100
6.094300 29.094600
6.109700 54.249300
6.125000 93.129300
6.140400 12.086900
6.155800 2.486400
6.171200 70.370700
6.186600 30.531400
6.201900 27.911300
6.217300 20.609400
6.232700 21.770300
6.248100 25.435800
6.263400 27.247100
6.278800 27.569400
6.294200 26.657300
6.309600 24.684500
6.325000 21.937500
6.340300 9.109600
6.355700 43.582600
6.371100 31.193500
6.386500 24.904000
6.401900 20.794500
6.417200 24.342100
6.432600 30.318700
6.448000 24.875000
6.463400 16.357500
6.478800 8.366600
6.494100 7.124400
6.509500 6.037000
6.524900 5.033900
6.540300 4.115100
6.555600 3.280600
6.571000 2.530400
6.586400 1.864600
6.601800 1.283000
6.617200 0.785700
6.632500 0.372800
6.647900 0.044100
6.663300 0.000000
6.678700 0.000000
6.694100 0.000000
6.709400 0.000000
6.724800 0.000000
6.740200 0.000000
6.755600 0.000000
6.770900 0.000000
6.786300 0.000000
6.801700 0.000000
6.817100 0.000000
6.832500 0.000000
6.847800 0.000000
6.863200 0.000000
6.878600 0.000000
6.894000 0.000000
6.909400 0.000000
6.924700 0.000000
6.940100 0.000000
6.955500 0.000000
6.970900 0.000000
6.986200 0.000000
7.001600 0.000000
7.017000 0.000000
7.032400 0.000000
7.047800 0.000000
7.063100 0.000000
7.078500 0.000000
7.093900 0.000000
7.109300 0.000000
7.124700 0.000000
7.140000 0.000000
7.155400 0.000000
7.170800 0.000000
7.186200 0.000000
7.201600 0.000000
7.216900 0.000000
7.232300 0.000000
7.247700 0.000000
7.263100 0.000000
7.278400 0.000000
7.293800 0.000000
7.309200 0.000000
7.324600 0.000000
7.340000 0.000000
7.355300 0.000000
7.370700 0.000000
7.386100 0.000000
7.401500 0.000000
7.416900 0.000000
7.432200 0.000000
7.447600 0.000000
7.463000 0.000000
7.478400 0.000100
7.493700 0.008100
7.509100 0.029500
7.524500 0.064300
7.539900 0.112400
7.555300 0.173800
7.570600 0.248500
7.586000 0.336600
7.601400 0.438100
7.616800 0.552800
7.632200 0.681000
7.647500 0.822400
7.662900 0.977200
7.678300 1.145300
7.693700 1.326800
7.709100 1.521600
7.724400 1.729700
7.739800 1.951200
7.755200 2.186000
7.770600 2.953900
7.785900 3.905200
7.801300 4.770400
7.816700 5.805400
7.832100 6.710800
7.847500 7.432500
7.862800 7.970400
7.878200 8.324600
7.893600 8.495200
7.909000 8.618700
7.924400 8.646200
7.939700 8.390100
7.955100 7.850500
7.970500 7.318900
7.985900 7.059400
8.001200 6.473500
8.016600 5.561000
8.032000 4.322100
8.047400 4.838200
8.062800 9.269200
8.078100 13.861500
8.093500 18.518800
8.108900 23.241200
8.124300 28.028500
8.139700 28.161700
8.155000 5.483900
8.170400 5.221100
8.185800 5.026600
8.201200 4.900400
8.216600 6.398000
8.231900 8.793200
8.247300 11.788900
8.262700 15.378600
8.278100 19.121000
8.293400 23.498500
8.308800 22.285900
8.324200 17.386100
8.339600 16.797100
8.355000 20.537900
8.370300 22.630700
8.385700 20.734200
8.401100 16.814700
8.416500 14.452700
8.431900 7.201800
8.447200 0.332400
8.462600 4.766200
8.478000 11.616300
8.493400 18.936000
8.508700 22.485800
8.524100 35.473200
8.539500 47.320200
8.554900 37.473400
8.570300 25.703500
8.585600 23.981000
8.601000 21.927900
8.616400 25.560500
8.631800 27.532200
8.647200 22.019800
8.662500 17.433100
8.677900 20.002100
8.693300 22.928000
8.708700 25.098200
8.724000 26.512600
8.739400 32.924500
8.754800 26.521500
8.770200 5.573900
8.785600 4.223800
8.800900 3.060500
8.816300 14.658300
8.831700 21.576000
8.847100 37.758900
8.862500 47.466900
8.877800 34.456200
8.893200 10.182400
8.908600 12.419400
8.924000 14.860200
8.939400 17.504800
8.954700 42.675000
8.970100 6.813700
8.985500 11.055400
9.000900 21.808700
9.016200 37.834500
9.031600 44.463300
9.047000 48.541500
9.062400 36.947100
9.077800 20.872400
9.093100 10.590300
9.108500 6.689900
9.123900 5.155400
9.139300 3.820600
9.154700 2.685400
9.170000 1.749800
9.185400 1.013800
9.200800 0.477400
9.216200 0.140700
9.231500 0.003500
9.246900 0.000000
9.262300 0.000000
9.277700 0.000000
9.293100 0.000000
9.308400 0.000000
9.323800 0.000000
9.339200 0.000000
9.354600 0.000000
9.370000 0.000000
9.385300 0.000000
9.400700 0.000000
9.416100 0.000000
9.431500 0.000000
9.446900 0.000000
9.462200 0.000000
9.477600 0.000000
9.493000 0.000000
9.508400 0.000000
9.523700 0.000000
9.539100 0.000000
9.554500 0.000000
9.569900 0.000000
9.585300 0.000000
9.600600 0.000000
9.616000 0.000000
9.631400 0.000000
9.646800 0.000000
9.662200 0.000000
9.677500 0.026700
9.692900 0.137000
9.708300 0.332500
9.723700 0.613400
9.739000 0.979700
9.754400 1.431200
9.769800 1.968100
9.785200 2.590300
9.800600 3.299100
9.815900 6.805200
9.831300 15.439500
9.846700 19.614200
9.862100 24.134700
9.877500 27.706600
9.892800 27.765500
9.908200 13.123200
9.923600 15.415400
9.939000 21.501300
9.954300 25.516600
9.969700 28.391300
9.985100 29.265400
10.000500 30.280500
10.015900 21.878400
10.031200 22.395200
10.046600 19.868200
10.062000 15.741000
10.077400 12.789600
10.092800 9.467600
10.108100 52.347400
10.123500 49.918700
10.138900 6.555700
10.154300 11.318800
10.169700 25.788800
10.185000 42.414500
10.200400 39.297400
10.215800 28.555200
10.231200 21.997800
10.246500 22.697300
10.261900 21.339600
10.277300 19.056900
10.292700 17.313700
10.308100 34.176300
10.323400 32.370700
10.338800 30.636700
10.354200 22.686600
10.369600 16.995000
10.385000 15.663600
10.400300 18.801600
10.415700 17.878400
10.431100 16.562400
10.446500 14.853800
10.461800 12.728300
10.477200 10.353500
10.492600 10.643600
10.508000 16.555900
10.523400 22.684200
10.538700 28.057900
10.554100 28.544800
10.569500 23.917200
10.584900 21.993000
10.600300 21.335700
10.615600 20.720800
10.631000 13.153500
10.646400 12.623400
10.661800 12.174800
10.677200 11.807800
10.692500 11.522200
10.707900 11.318100
10.723300 11.596800
10.738700 4.381700
10.754000 12.991900
10.769400 30.062600
10.784800 38.637900
10.800200 43.479600
10.815600 29.756100
10.830900 22.350300
10.846300 20.116100
10.861700 27.351400
10.877100 31.718000
10.892500 55.117500
10.907800 30.827000
10.923200 22.178800
10.938600 14.936200
10.954000 8.210900
10.969300 4.722800
10.984700 8.900700
11.000100 16.280900
11.015500 29.926400
11.030900 44.345400
11.046200 38.067600
11.061600 14.317200
11.077000 12.122200
11.092400 24.839400
11.107800 18.786000
11.123100 17.278900
11.138500 23.559500
11.153900 25.120200
11.169300 20.603300
11.184700 20.747200
11.200000 21.659900
11.215400 22.764700
11.230800 23.084500
11.246200 22.547100
11.261500 21.500600
11.276900 25.443800
11.292300 56.845200
11.307700 31.730000
11.323100 36.498100
11.338400 37.732000
11.353800 20.279000
11.369200 13.437100
11.384600 9.220000
11.400000 12.718600
11.415300 13.199900
11.430700 13.492900
11.446100 13.756600
11.461500 15.599700
11.476800 19.291500
11.492200 21.362500
11.507600 21.812400
11.523000 12.179400
11.538400 7.734200
11.553700 4.215000
11.569100 9.678100
11.584500 69.522400
11.599900 51.697400
11.615300 2.612700
11.630600 3.393700
11.646000 13.310400
11.661400 42.888000
11.676800 29.080500
11.692100 21.903200
11.707500 18.807300
11.722900 11.919600
11.738300 38.907200
11.753700 39.261400
11.769000 30.417400
11.784400 25.444500
11.799800 22.895600
11.815200 25.392400
11.830600 28.864200
11.845900 27.554200
11.861300 33.812100
11.876700 40.608300
11.892100 20.284000
11.907500 16.779900
11.922800 15.091100
11.938200 17.115400
11.953600 27.535800
11.969000 48.581000
11.984300 37.599600
11.999700 21.751100
12.015100 31.523600
12.030500 58.815900
12.045900 22.049100
12.061200 23.109900
12.076600 24.654300
12.092000 17.429200
12.107400 14.991900
12.122800 12.492300
12.138100 10.601300
12.153500 35.702300
12.168900 25.499800
12.184300 20.153800
12.199600 18.349200
12.215000 20.279000
12.230400 24.373700
12.245800 30.206400
12.261200 36.257700
12.276500 38.288200
12.291900 42.249600
12.307300 52.295500
12.322700 44.171000
12.338100 33.085300
12.353400 23.113100
12.368800 25.912100
12.384200 27.150700
12.399600 113.494900
12.415000 38.272300
12.430300 28.855900
12.445700 14.974800
12.461100 15.445300
12.476500 35.309800
12.491800 32.320700
12.507200 26.814900
12.522600 26.337000
12.538000 31.357600
12.553400 49.847200
12.568700 42.989900
12.584100 10.685400
12.599500 33.820300
12.614900 18.610500
12.630300 17.715100
12.645600 16.428300
12.661000 14.750200
12.676400 12.680700
12.691800 40.267900
12.707100 50.093100
12.722500 44.121700
12.737900 6.539100
12.753300 5.137900
12.768700 6.140900
12.784000 19.244900
12.799400 45.003900
12.814800 48.018600
12.830200 9.221700
12.845600 14.530000
12.860900 24.769800
12.876300 48.921300
12.891700 44.658800
12.907100 32.058800
12.922500 28.123200
12.937800 17.198900
12.953200 29.179600
12.968600 34.089200
12.984000 29.237500
12.999300 22.935800
13.014700 17.934700
13.030100 15.224200
13.045500 15.350200
13.060900 35.432900
13.076200 49.736700
13.091600 51.361100
13.107000 9.226000
13.122400 8.081100
13.137800 8.114800
13.153100 9.233000
13.168500 23.398500
13.183900 49.130500
13.199300 31.974100
13.214600 11.367100
13.230000 6.156100
13.245400 84.497900
13.260800 39.963100
13.276200 13.453900
13.291500 8.992800
13.306900 18.070700
13.322300 31.888200
13.337700 40.702600
13.353100 37.747300
13.368400 33.450900
13.383800 42.787400
13.399200 26.337200
13.414600 17.082000
13.429900 45.252700
13.445300 19.901900
13.460700 19.939000
13.476100 20.525600
13.491500 21.265000
13.506800 21.966300
13.522200 27.330800
13.537600 32.085100
13.553000 33.428100
13.568400 31.440300
13.583700 23.512300
13.599100 18.198000
13.614500 18.639200
13.629900 24.280300
13.645300 27.378800
13.660600 11.544500
13.676000 11.556800
13.691400 11.170200
13.706800 10.386000
13.722100 9.812900
13.737500 11.170900
13.752900 13.007400
13.768300 18.598100
13.783700 55.030500
13.799000 52.854000
13.814400 43.585300
13.829800 26.741100
13.845200 12.429500
13.860600 7.076300
13.875900 10.036000
13.891300 14.003400
13.906700 18.978600
13.922100 26.166400
13.937400 33.281500
13.952800 34.478400
13.968200 26.280800
13.983600 23.293900
13.999000 18.343100
14.014300 13.497100
14.029700 9.821100
14.045100 30.346100
14.060500 39.986900
14.075900 38.432100
14.091200 25.471200
14.106600 7.090400
14.122000 30.462600
14.137400 41.502100
14.152800 35.920800
14.168100 39.913300
14.183500 41.333100
14.198900 42.826400
14.214300 27.257000
14.229600 31.706200
14.245000 57.219000
14.260400 35.670200
14.275800 8.831300
14.291200 5.765700
14.306500 3.955000
14.321900 34.304000
14.337300 72.869100
14.352700 44.873800
14.368100 29.363400
14.383400 18.828300
14.398800 18.206100
14.414200 17.286800
14.429600 16.413700
14.444900 15.535400
14.460300 14.651700
14.475700 14.030800
14.491100 14.442700
14.506500 18.574000
14.521800 26.888900
14.537200 29.938600
14.552600 25.672900
14.568000 21.165800
14.583400 16.958400
14.598700 42.300700
14.614100 32.826600
14.629500 23.261600
14.644900 13.605800
14.660200 8.264400
14.675600 15.365700
14.691000 32.215500
14.706400 36.313300
14.721800 20.601500
14.737100 4.249100
14.752500 4.527400
14.767900 14.305600
14.783300 43.640800
14.798700 29.377700
14.814000 2.562500
14.829400 0.000000
14.844800 0.000000
14.860200 0.000000
14.875600 0.000000
14.890900 0.000000
14.906300 0.000000
14.921700 0.000000
14.937100 0.000000
14.952400 0.000000
14.967800 0.000000
14.983200 0.000000
14.998600 0.000000
15.014000 0.000000
15.029300 0.000000
15.044700 0.000000
15.060100 0.000000
15.075500 0.000000
15.090900 0.000000
15.106200 0.000000
15.121600 0.000000
15.137000 0.000000
15.152400 0.000000
15.167700 0.000000
15.183100 0.000000
15.198500 0.000000
15.213900 0.000000
15.229300 0.000000
15.244600 0.000000
15.260000 0.000000
15.275400 0.000000
15.290800 0.000000
15.306200 0.000000
15.321500 0.000000
15.336900 0.000000
15.352300 0.000000
15.367700 0.000000
15.383100 0.000000
15.398400 0.000000
15.413800 0.000000
15.429200 0.000000
15.444600 0.000000
15.459900 0.000000
15.475300 0.000000
15.490700 0.000000
15.506100 0.000000
15.521500 0.000000
15.536800 0.000000
15.552200 0.000000
15.567600 0.000000
15.583000 0.000000
15.598400 0.000000
15.613700 0.000000
15.629100 0.000000
15.644500 0.000000
15.659900 0.000000
15.675200 0.000000
15.690600 0.000000
15.706000 0.000000
15.721400 0.000000
15.736800 0.000000
15.752100 0.000000
15.767500 0.000000
15.782900 0.000000
15.798300 0.000000
15.813700 0.000000
15.829000 0.000000
15.844400 0.000000
15.859800 0.000000
15.875200 0.000000
15.890600 0.000000
15.905900 0.000000
15.921300 0.000000
15.936700 0.000000
15.952100 0.000000
15.967400 0.000000
15.982800 0.000000
15.998200 0.000000
16.013600 0.000000
16.029000 0.000000
16.044300 0.000000
16.059700 0.000000
16.075100 0.000000
16.090500 0.000000
16.105900 0.000000
16.121200 0.000000
16.136600 0.000000
16.152000 0.000000
16.167400 0.000000
16.182700 0.000000
16.198100 0.000000
16.213500 0.000000
e
