set title 'mp-624399 - Density of States'
set xlabel 'Energy (eV)'
set ylabel 'DOS (states/eV)'
set grid
set xrange [-10:10]
set yrange [0:1081.043]
set xzeroaxis lt -1
set terminal png size 800,600
set output 'mp-624399_dos_gnuplot.png'
plot '-' using 1:2 with lines title 'DOS'
-11.905900 0.000000
-11.893300 0.000000
-11.880800 0.000000
-11.868200 0.000000
-11.855700 0.000000
-11.843200 0.000000
-11.830600 0.000000
-11.818100 0.000000
-11.805600 0.000000
-11.793000 0.000000
-11.780500 0.000000
-11.767900 0.000000
-11.755400 0.000000
-11.742900 0.000000
-11.730300 0.000000
-11.717800 0.000000
-11.705300 0.000000
-11.692700 0.000000
-11.680200 0.000000
-11.667600 0.000000
-11.655100 0.000000
-11.642600 0.000000
-11.630000 0.000000
-11.617500 0.000000
-11.605000 0.000000
-11.592400 0.000000
-11.579900 0.000000
-11.567400 0.000000
-11.554800 0.000000
-11.542300 0.000000
-11.529700 0.000000
-11.517200 0.000000
-11.504700 0.000000
-11.492100 0.000000
-11.479600 0.000000
-11.467100 0.000000
-11.454500 0.000000
-11.442000 0.000000
-11.429400 0.000000
-11.416900 0.000000
-11.404400 0.000000
-11.391800 0.000000
-11.379300 0.000000
-11.366800 0.000000
-11.354200 0.000000
-11.341700 0.000000
-11.329100 0.000000
-11.316600 0.000000
-11.304100 0.000000
-11.291500 0.000000
-11.279000 0.000000
-11.266500 0.000000
-11.253900 0.000000
-11.241400 0.000000
-11.228800 0.000000
-11.216300 0.000000
-11.203800 0.000000
-11.191200 0.000000
-11.178700 0.000000
-11.166200 0.000000
-11.153600 0.000000
-11.141100 0.000000
-11.128500 0.000000
-11.116000 0.000000
-11.103500 0.000000
-11.090900 0.000000
-11.078400 0.000000
-11.065900 0.000000
-11.053300 0.000000
-11.040800 0.000000
-11.028200 0.000000
-11.015700 0.000000
-11.003200 0.000000
-10.990600 0.000000
-10.978100 0.000000
-10.965600 0.000000
-10.953000 0.000000
-10.940500 0.000000
-10.928000 0.000000
-10.915400 0.000000
-10.902900 0.000000
-10.890300 0.000000
-10.877800 0.000000
-10.865300 0.000000
-10.852700 0.000000
-10.840200 0.000000
-10.827700 0.000000
-10.815100 0.000000
-10.802600 0.000000
-10.790000 0.000000
-10.777500 0.000000
-10.765000 0.041300
-10.752400 0.773600
-10.739900 2.143400
-10.727400 4.251300
-10.714800 6.565600
-10.702300 9.661500
-10.689700 13.217600
-10.677200 16.050300
-10.664700 16.827700
-10.652100 17.115200
-10.639600 19.420400
-10.627100 18.746000
-10.614500 18.823600
-10.602000 18.212100
-10.589400 18.820200
-10.576900 19.428200
-10.564400 20.036200
-10.551800 20.644200
-10.539300 21.256800
-10.526800 21.912700
-10.514200 22.612100
-10.501700 23.357400
-10.489100 24.160300
-10.476600 25.028300
-10.464100 25.961500
-10.451500 26.890700
-10.439000 27.814700
-10.426500 28.725300
-10.413900 29.618100
-10.401400 30.509000
-10.388800 31.399900
-10.376300 32.290900
-10.363800 33.181800
-10.351200 34.072700
-10.338700 35.974200
-10.326200 41.461200
-10.313600 57.365300
-10.301100 71.959300
-10.288600 97.405900
-10.276000 119.347600
-10.263500 137.416700
-10.250900 149.700600
-10.238400 160.053800
-10.225900 192.949700
-10.213300 278.827900
-10.200800 281.825800
-10.188300 346.980800
-10.175700 97.174000
-10.163200 0.000000
-10.150600 0.000000
-10.138100 0.000000
-10.125600 0.000000
-10.113000 0.000000
-10.100500 0.000000
-10.088000 0.000000
-10.075400 0.000000
-10.062900 0.000000
-10.050300 0.000000
-10.037800 0.000000
-10.025300 0.000000
-10.012700 0.000000
-10.000200 0.000000
-9.987700 0.000000
-9.975100 0.000000
-9.962600 0.000000
-9.950000 0.000000
-9.937500 0.000000
-9.925000 0.000000
-9.912400 0.000000
-9.899900 0.000000
-9.887400 0.000000
-9.874800 0.000000
-9.862300 0.000000
-9.849700 0.000000
-9.837200 0.000000
-9.824700 0.000000
-9.812100 0.000000
-9.799600 0.000000
-9.787100 0.000000
-9.774500 0.000000
-9.762000 0.000000
-9.749400 0.000000
-9.736900 0.000000
-9.724400 0.000000
-9.711800 0.000000
-9.699300 0.000000
-9.686800 0.000000
-9.674200 0.000000
-9.661700 0.000000
-9.649200 0.000000
-9.636600 0.000000
-9.624100 0.000000
-9.611500 0.000000
-9.599000 0.000000
-9.586500 0.000000
-9.573900 0.000000
-9.561400 0.000000
-9.548900 0.000000
-9.536300 0.000000
-9.523800 0.000000
-9.511200 0.000000
-9.498700 0.000000
-9.486200 0.000000
-9.473600 0.000000
-9.461100 0.000000
-9.448600 0.000000
-9.436000 0.000000
-9.423500 0.000000
-9.410900 0.000000
-9.398400 0.000000
-9.385900 0.000000
-9.373300 0.000000
-9.360800 0.000000
-9.348300 0.000000
-9.335700 0.000000
-9.323200 0.000000
-9.310600 0.000000
-9.298100 0.000000
-9.285600 0.000000
-9.273000 0.000000
-9.260500 0.000000
-9.248000 0.000000
-9.235400 0.000000
-9.222900 0.000000
-9.210300 0.000000
-9.197800 0.000000
-9.185300 0.000000
-9.172700 0.000000
-9.160200 0.000000
-9.147700 0.000000
-9.135100 0.000000
-9.122600 0.000000
-9.110000 0.000000
-9.097500 0.000000
-9.085000 0.000000
-9.072400 0.000000
-9.059900 0.000000
-9.047400 0.000000
-9.034800 0.000000
-9.022300 0.000000
-9.009800 0.000000
-8.997200 0.000000
-8.984700 0.000000
-8.972100 0.000000
-8.959600 0.000000
-8.947100 0.000000
-8.934500 0.000000
-8.922000 0.000000
-8.909500 0.000000
-8.896900 0.000000
-8.884400 0.000000
-8.871800 0.000000
-8.859300 0.000000
-8.846800 0.000000
-8.834200 0.000000
-8.821700 0.000000
-8.809200 0.000000
-8.796600 0.000000
-8.784100 0.000000
-8.771500 0.000000
-8.759000 0.000000
-8.746500 0.000000
-8.733900 0.000000
-8.721400 0.000000
-8.708900 0.000000
-8.696300 0.000000
-8.683800 0.000000
-8.671200 0.000000
-8.658700 0.000000
-8.646200 0.000000
-8.633600 0.000000
-8.621100 0.000000
-8.608600 0.000000
-8.596000 0.000000
-8.583500 0.000000
-8.570900 0.000000
-8.558400 0.000000
-8.545900 0.000000
-8.533300 0.000000
-8.520800 0.000000
-8.508300 0.000000
-8.495700 0.000000
-8.483200 0.000000
-8.470600 0.000000
-8.458100 0.000000
-8.445600 0.000000
-8.433000 0.000000
-8.420500 0.000000
-8.408000 0.000000
-8.395400 0.000000
-8.382900 0.000000
-8.370400 0.000000
-8.357800 0.000000
-8.345300 0.000000
-8.332700 0.000000
-8.320200 0.000000
-8.307700 0.000000
-8.295100 0.000000
-8.282600 0.000000
-8.270100 0.000000
-8.257500 0.000000
-8.245000 0.000000
-8.232400 0.000000
-8.219900 0.000000
-8.207400 0.000000
-8.194800 0.000000
-8.182300 0.000000
-8.169800 0.000000
-8.157200 0.000000
-8.144700 0.000000
-8.132100 0.000000
-8.119600 0.000000
-8.107100 0.000000
-8.094500 0.000000
-8.082000 0.000000
-8.069500 0.000000
-8.056900 0.000000
-8.044400 0.000000
-8.031800 0.000000
-8.019300 0.000000
-8.006800 0.000000
-7.994200 0.000000
-7.981700 0.000000
-7.969200 0.000000
-7.956600 0.000000
-7.944100 0.000000
-7.931500 0.000000
-7.919000 0.000000
-7.906500 0.000000
-7.893900 0.000000
-7.881400 0.000000
-7.868900 0.000000
-7.856300 0.000000
-7.843800 0.000000
-7.831300 0.000000
-7.818700 0.000000
-7.806200 0.000000
-7.793600 0.000000
-7.781100 0.000000
-7.768600 0.000000
-7.756000 0.000000
-7.743500 0.000000
-7.731000 0.000000
-7.718400 0.000000
-7.705900 0.000000
-7.693300 0.000000
-7.680800 0.000000
-7.668300 0.000000
-7.655700 0.000000
-7.643200 0.000000
-7.630700 0.000000
-7.618100 0.000000
-7.605600 0.000000
-7.593000 0.000000
-7.580500 0.000000
-7.568000 0.000000
-7.555400 0.000000
-7.542900 0.000000
-7.530400 0.000000
-7.517800 0.000000
-7.505300 0.000000
-7.492700 0.000000
-7.480200 0.000000
-7.467700 0.000000
-7.455100 0.000000
-7.442600 0.000000
-7.430100 0.000000
-7.417500 0.000000
-7.405000 0.000000
-7.392400 0.000000
-7.379900 0.000000
-7.367400 0.000000
-7.354800 0.000000
-7.342300 0.000000
-7.329800 0.000000
-7.317200 0.000000
-7.304700 0.000000
-7.292100 0.000000
-7.279600 0.000000
-7.267100 0.000000
-7.254500 0.000000
-7.242000 0.000000
-7.229500 0.000000
-7.216900 0.000000
-7.204400 0.000000
-7.191900 0.000000
-7.179300 0.000000
-7.166800 0.000000
-7.154200 0.000000
-7.141700 0.000000
-7.129200 0.000000
-7.116600 0.000000
-7.104100 0.000000
-7.091600 0.000000
-7.079000 0.000000
-7.066500 0.000000
-7.053900 0.000000
-7.041400 0.000000
-7.028900 0.000000
-7.016300 0.000000
-7.003800 0.000000
-6.991300 0.000000
-6.978700 0.000000
-6.966200 0.000000
-6.953600 0.000000
-6.941100 0.000000
-6.928600 0.000000
-6.916000 0.000000
-6.903500 0.000000
-6.891000 0.000000
-6.878400 0.000000
-6.865900 0.000000
-6.853300 0.000000
-6.840800 0.000000
-6.828300 0.000000
-6.815700 0.000000
-6.803200 0.000000
-6.790700 0.000000
-6.778100 0.000000
-6.765600 0.000000
-6.753000 0.000000
-6.740500 0.000000
-6.728000 0.000000
-6.715400 0.000000
-6.702900 0.000000
-6.690400 0.000000
-6.677800 0.000000
-6.665300 0.000000
-6.652700 0.000000
-6.640200 0.000000
-6.627700 0.000000
-6.615100 0.000000
-6.602600 0.000000
-6.590100 0.000000
-6.577500 0.000000
-6.565000 0.000000
-6.552500 0.000000
-6.539900 0.000000
-6.527400 0.000000
-6.514800 0.000000
-6.502300 0.000000
-6.489800 2.481700
-6.477200 94.944900
-6.464700 208.640600
-6.452200 360.506000
-6.439600 375.279300
-6.427100 215.199200
-6.414500 146.856000
-6.402000 139.348200
-6.389500 141.901200
-6.376900 448.030100
-6.364400 424.291800
-6.351900 317.462300
-6.339300 189.911700
-6.326800 161.129100
-6.314200 665.425400
-6.301700 982.766400
-6.289200 309.217700
-6.276600 525.490500
-6.264100 315.830000
-6.251600 209.713900
-6.239000 150.962300
-6.226500 130.286900
-6.213900 109.611600
-6.201400 119.028000
-6.188900 58.693500
-6.176300 0.000000
-6.163800 0.000000
-6.151300 0.000000
-6.138700 0.000000
-6.126200 0.000000
-6.113600 0.000000
-6.101100 0.000000
-6.088600 0.000000
-6.076000 0.000000
-6.063500 0.000000
-6.051000 0.000000
-6.038400 0.000000
-6.025900 0.000000
-6.013300 0.000000
-6.000800 0.000000
-5.988300 0.000000
-5.975700 0.000000
-5.963200 0.000000
-5.950700 0.000000
-5.938100 0.000000
-5.925600 0.000000
-5.913100 0.000000
-5.900500 0.000000
-5.888000 0.000000
-5.875400 0.000000
-5.862900 0.000000
-5.850400 0.000000
-5.837800 0.000000
-5.825300 0.000000
-5.812800 0.000000
-5.800200 0.000000
-5.787700 0.000000
-5.775100 0.000000
-5.762600 0.000000
-5.750100 0.000000
-5.737500 0.000000
-5.725000 0.000000
-5.712500 0.000000
-5.699900 0.000000
-5.687400 0.000000
-5.674800 0.000000
-5.662300 0.000000
-5.649800 0.000000
-5.637200 0.000000
-5.624700 0.000000
-5.612200 0.000000
-5.599600 0.000000
-5.587100 0.000000
-5.574500 0.000000
-5.562000 0.000000
-5.549500 0.000000
-5.536900 0.000000
-5.524400 0.000000
-5.511900 0.000000
-5.499300 0.000000
-5.486800 0.000000
-5.474200 0.000000
-5.461700 0.000000
-5.449200 0.000000
-5.436600 0.000000
-5.424100 0.000000
-5.411600 0.000000
-5.399000 0.000000
-5.386500 0.000000
-5.373900 0.000000
-5.361400 0.000000
-5.348900 0.000000
-5.336300 0.000000
-5.323800 0.000000
-5.311300 0.000000
-5.298700 0.000000
-5.286200 0.000000
-5.273700 0.000000
-5.261100 0.000000
-5.248600 0.000000
-5.236000 0.000000
-5.223500 0.000000
-5.211000 0.000000
-5.198400 0.000000
-5.185900 0.000000
-5.173400 0.000000
-5.160800 0.000000
-5.148300 0.000000
-5.135700 0.000000
-5.123200 0.000000
-5.110700 0.000000
-5.098100 0.000000
-5.085600 0.000000
-5.073100 0.000000
-5.060500 0.000000
-5.048000 0.000000
-5.035400 0.000000
-5.022900 0.000000
-5.010400 0.000000
-4.997800 0.000000
-4.985300 0.000000
-4.972800 0.000000
-4.960200 0.000000
-4.947700 0.000000
-4.935100 0.000000
-4.922600 0.000000
-4.910100 0.000000
-4.897500 0.000000
-4.885000 0.000000
-4.872500 0.000000
-4.859900 0.000000
-4.847400 0.000000
-4.834800 0.000000
-4.822300 0.000000
-4.809800 0.000000
-4.797200 0.000000
-4.784700 0.000000
-4.772200 0.000000
-4.759600 0.000000
-4.747100 0.000000
-4.734500 0.000000
-4.722000 0.000000
-4.709500 0.000000
-4.696900 0.000000
-4.684400 0.000000
-4.671900 0.000000
-4.659300 0.000000
-4.646800 0.000000
-4.634300 0.000000
-4.621700 0.000000
-4.609200 0.000000
-4.596600 0.000000
-4.584100 0.000000
-4.571600 0.000000
-4.559000 0.000000
-4.546500 0.000000
-4.534000 0.000000
-4.521400 0.000000
-4.508900 0.000000
-4.496300 0.000000
-4.483800 0.000000
-4.471300 0.000000
-4.458700 0.000000
-4.446200 0.000000
-4.433700 0.000000
-4.421100 0.000000
-4.408600 0.000000
-4.396000 0.000000
-4.383500 0.000000
-4.371000 0.000000
-4.358400 0.000000
-4.345900 0.000000
-4.333400 0.000000
-4.320800 0.000000
-4.308300 0.000000
-4.295700 0.000000
-4.283200 0.000000
-4.270700 0.000000
-4.258100 0.000000
-4.245600 0.000000
-4.233100 0.000000
-4.220500 0.000000
-4.208000 0.000000
-4.195400 0.000000
-4.182900 0.000000
-4.170400 0.000000
-4.157800 0.000000
-4.145300 0.000000
-4.132800 0.000000
-4.120200 0.000000
-4.107700 0.000000
-4.095100 0.000000
-4.082600 0.000000
-4.070100 0.000000
-4.057500 0.000000
-4.045000 0.000000
-4.032500 0.000000
-4.019900 0.000000
-4.007400 0.000000
-3.994900 0.000000
-3.982300 0.000000
-3.969800 0.000000
-3.957200 0.000000
-3.944700 0.000000
-3.932200 0.000000
-3.919600 0.000000
-3.907100 0.000000
-3.894600 0.000000
-3.882000 0.000000
-3.869500 0.000000
-3.856900 0.000000
-3.844400 0.000000
-3.831900 0.000000
-3.819300 0.000000
-3.806800 0.000000
-3.794300 0.000000
-3.781700 0.000000
-3.769200 0.000000
-3.756600 0.000000
-3.744100 0.000000
-3.731600 0.000000
-3.719000 0.000000
-3.706500 0.000000
-3.694000 0.000000
-3.681400 0.000000
-3.668900 0.000000
-3.656300 0.000000
-3.643800 0.000000
-3.631300 0.000000
-3.618700 0.000000
-3.606200 0.000000
-3.593700 0.000000
-3.581100 0.000000
-3.568600 0.000000
-3.556000 0.000000
-3.543500 0.000000
-3.531000 0.000000
-3.518400 0.000000
-3.505900 0.000000
-3.493400 0.000000
-3.480800 0.000000
-3.468300 0.000000
-3.455700 0.000000
-3.443200 0.000000
-3.430700 0.000000
-3.418100 0.000000
-3.405600 0.000000
-3.393100 0.000000
-3.380500 0.000000
-3.368000 0.000000
-3.355500 0.000000
-3.342900 0.000000
-3.330400 0.000000
-3.317800 0.000000
-3.305300 0.000000
-3.292800 0.000000
-3.280200 0.000000
-3.267700 0.000000
-3.255200 0.000000
-3.242600 0.000000
-3.230100 0.000000
-3.217500 0.000000
-3.205000 0.000000
-3.192500 0.000000
-3.179900 0.000000
-3.167400 0.000000
-3.154900 0.000000
-3.142300 0.000000
-3.129800 0.000000
-3.117200 0.000000
-3.104700 0.000000
-3.092200 0.000000
-3.079600 0.000000
-3.067100 0.000000
-3.054600 0.000000
-3.042000 0.000000
-3.029500 0.000000
-3.016900 0.000000
-3.004400 0.000000
-2.991900 0.000000
-2.979300 0.000000
-2.966800 0.000000
-2.954300 0.000000
-2.941700 0.000000
-2.929200 0.000000
-2.916600 0.000000
-2.904100 0.000000
-2.891600 0.000000
-2.879000 0.000000
-2.866500 0.000000
-2.854000 0.000000
-2.841400 0.000000
-2.828900 0.000000
-2.816300 0.000000
-2.803800 0.000000
-2.791300 0.000000
-2.778700 0.000000
-2.766200 0.000000
-2.753700 0.000000
-2.741100 0.000000
-2.728600 0.000000
-2.716100 0.000000
-2.703500 0.000000
-2.691000 0.000000
-2.678400 0.000000
-2.665900 0.000000
-2.653400 0.000000
-2.640800 0.000000
-2.628300 0.000000
-2.615800 0.000000
-2.603200 0.000000
-2.590700 0.000000
-2.578100 0.000000
-2.565600 0.000000
-2.553100 0.000000
-2.540500 15.958400
-2.528000 7.315100
-2.515500 16.236400
-2.502900 42.909700
-2.490400 58.229900
-2.477800 59.350200
-2.465300 58.871300
-2.452800 63.043600
-2.440200 62.438800
-2.427700 56.334200
-2.415200 47.504100
-2.402600 46.581400
-2.390100 43.068000
-2.377500 39.531300
-2.365000 34.080200
-2.352500 31.674400
-2.339900 29.305200
-2.327400 27.456000
-2.314900 24.371900
-2.302300 24.259500
-2.289800 24.147100
-2.277200 24.744600
-2.264700 25.518100
-2.252200 26.291500
-2.239600 30.664400
-2.227100 40.459700
-2.214600 44.132600
-2.202000 49.112600
-2.189500 45.409000
-2.176900 28.130800
-2.164400 19.123200
-2.151900 20.068900
-2.139300 24.811500
-2.126800 39.391100
-2.114300 10.030000
-2.101700 9.823500
-2.089200 9.637300
-2.076700 9.482300
-2.064100 9.327400
-2.051600 9.172400
-2.039000 9.017500
-2.026500 8.862500
-2.014000 27.886000
-2.001400 4.070500
-1.988900 3.524400
-1.976400 3.445200
-1.963800 3.366000
-1.951300 3.286800
-1.938700 8.401100
-1.926200 6.190800
-1.913700 3.980400
-1.901100 1.770000
-1.888600 0.000000
-1.876100 0.000000
-1.863500 0.000000
-1.851000 0.000000
-1.838400 0.000000
-1.825900 0.000000
-1.813400 0.000000
-1.800800 0.000000
-1.788300 0.000000
-1.775800 0.000000
-1.763200 0.000000
-1.750700 0.000000
-1.738100 0.000000
-1.725600 0.000000
-1.713100 0.000000
-1.700500 0.000000
-1.688000 0.000000
-1.675500 0.000000
-1.662900 0.000000
-1.650400 0.000000
-1.637800 0.000000
-1.625300 0.000000
-1.612800 4.975000
-1.600200 3.652700
-1.587700 7.498700
-1.575200 16.954800
-1.562600 13.608200
-1.550100 10.261700
-1.537500 19.988000
-1.525000 16.770500
-1.512500 20.605500
-1.499900 25.535700
-1.487400 21.768700
-1.474900 24.149900
-1.462300 21.892800
-1.449800 21.350700
-1.437300 22.196700
-1.424700 23.042700
-1.412200 23.888800
-1.399600 24.734800
-1.387100 25.580900
-1.374600 26.426900
-1.362000 27.273000
-1.349500 28.119000
-1.337000 26.261800
-1.324400 36.443200
-1.311900 24.444900
-1.299300 32.554400
-1.286800 19.628300
-1.274300 19.930900
-1.261700 30.272500
-1.249200 20.622100
-1.236700 15.728600
-1.224100 15.828800
-1.211600 21.115000
-1.199000 26.807900
-1.186500 20.193700
-1.174000 16.753300
-1.161400 14.044800
-1.148900 12.450400
-1.136400 10.856000
-1.123800 9.617200
-1.111300 9.498700
-1.098700 9.991400
-1.086200 10.504700
-1.073700 10.479000
-1.061100 11.686300
-1.048600 11.745700
-1.036100 13.060900
-1.023500 14.462100
-1.011000 14.639900
-0.998400 15.472900
-0.985900 15.677400
-0.973400 15.881600
-0.960800 16.085800
-0.948300 16.290000
-0.935800 16.490600
-0.923200 16.690700
-0.910700 16.886600
-0.898100 17.078700
-0.885600 17.265200
-0.873100 17.440400
-0.860500 17.608100
-0.848000 17.775700
-0.835500 17.943400
-0.822900 18.111100
-0.810400 18.278700
-0.797900 18.446400
-0.785300 18.614100
-0.772800 18.781800
-0.760200 18.949400
-0.747700 19.117100
-0.735200 19.284800
-0.722600 20.197500
-0.710100 20.735000
-0.697600 21.885000
-0.685000 23.455800
-0.672500 24.595900
-0.659900 26.858100
-0.647400 27.635100
-0.634900 29.843900
-0.622300 33.607600
-0.609800 34.921700
-0.597300 36.638800
-0.584700 38.473200
-0.572200 39.069300
-0.559600 40.107800
-0.547100 43.961100
-0.534600 43.985500
-0.522000 45.017200
-0.509500 45.264900
-0.497000 43.830100
-0.484400 42.304200
-0.471900 42.232000
-0.459300 42.046600
-0.446800 41.980100
-0.434300 41.919500
-0.421700 41.888200
-0.409200 41.031000
-0.396700 41.232000
-0.384100 40.558500
-0.371600 41.052800
-0.359000 41.651600
-0.346500 42.486300
-0.334000 43.592300
-0.321400 44.791100
-0.308900 45.143200
-0.296400 46.066600
-0.283800 46.282700
-0.271300 47.455900
-0.258700 47.986300
-0.246200 45.273600
-0.233700 45.757600
-0.221100 43.298700
-0.208600 41.628800
-0.196100 41.162000
-0.183500 37.845000
-0.171000 39.965900
-0.158500 40.757100
-0.145900 36.899800
-0.133400 33.190400
-0.120800 30.627000
-0.108300 30.260800
-0.095800 29.338900
-0.083200 28.417000
-0.070700 27.495000
-0.058200 26.671200
-0.045600 25.811700
-0.033100 25.137500
-0.020500 24.318100
-0.008000 23.447700
0.004500 22.623800
0.017100 21.817600
0.029600 21.073700
0.042100 20.351600
0.054700 19.710900
0.067200 19.102600
0.079800 18.537000
0.092300 18.185700
0.104800 17.916600
0.117400 17.719700
0.129900 17.488600
0.142400 17.257600
0.155000 18.182500
0.167500 18.188100
0.180100 18.197700
0.192600 20.412700
0.205100 20.883300
0.217700 21.353800
0.230200 21.824300
0.242700 22.492400
0.255300 23.165400
0.267800 23.652800
0.280400 24.142200
0.292900 30.404300
0.305400 34.366700
0.318000 37.410900
0.330500 40.530000
0.343000 43.682300
0.355600 44.627900
0.368100 46.606300
0.380700 47.251300
0.393200 48.732600
0.405700 55.700700
0.418300 66.169400
0.430800 75.259000
0.443300 74.999000
0.455900 67.950300
0.468400 71.745600
0.480900 62.723200
0.493500 62.917300
0.506000 68.181500
0.518600 55.568600
0.531100 70.593800
0.543600 56.891600
0.556200 48.029500
0.568700 47.980100
0.581200 53.638700
0.593800 54.035500
0.606300 56.286000
0.618900 64.311900
0.631400 63.735200
0.643900 81.117600
0.656500 112.700700
0.669000 64.899100
0.681500 71.068000
0.694100 68.605600
0.706600 83.557800
0.719200 74.888700
0.731700 105.369300
0.744200 74.736500
0.756800 71.120600
0.769300 67.770600
0.781800 72.841100
0.794400 71.554600
0.806900 66.497200
0.819500 59.720100
0.832000 56.494800
0.844500 53.389000
0.857100 46.671000
0.869600 41.143700
0.882100 36.801300
0.894700 33.047500
0.907200 35.630800
0.919800 32.944400
0.932300 29.831300
0.944800 25.556800
0.957400 12.096200
0.969900 15.780200
0.982400 22.348400
0.995000 0.000000
1.007500 0.000000
1.020000 0.000000
1.032600 0.000000
1.045100 0.000000
1.057700 0.000000
1.070200 0.000000
1.082700 0.000000
1.095300 0.000000
1.107800 0.000000
1.120300 0.000000
1.132900 0.000000
1.145400 0.000000
1.158000 0.000000
1.170500 0.000000
1.183000 0.000000
1.195600 0.000000
1.208100 0.000000
1.220600 0.000000
1.233200 0.000000
1.245700 0.000000
1.258300 0.000000
1.270800 0.000000
1.283300 0.000000
1.295900 0.000000
1.308400 0.000000
1.320900 0.000000
1.333500 0.000000
1.346000 0.000000
1.358600 0.000000
1.371100 0.000000
1.383600 0.000000
1.396200 0.000000
1.408700 0.000000
1.421200 0.000000
1.433800 0.000000
1.446300 0.000000
1.458900 0.000000
1.471400 0.000000
1.483900 0.000000
1.496500 0.000000
1.509000 0.000000
1.521500 0.000000
1.534100 0.000000
1.546600 0.000000
1.559200 0.000000
1.571700 0.000000
1.584200 0.000000
1.596800 0.000000
1.609300 0.000000
1.621800 0.000000
1.634400 0.000000
1.646900 0.000000
1.659400 0.000000
1.672000 0.000000
1.684500 0.000000
1.697100 0.000000
1.709600 0.000000
1.722100 0.000000
1.734700 0.000000
1.747200 0.000000
1.759700 0.000000
1.772300 0.000000
1.784800 0.000000
1.797400 0.000000
1.809900 0.000000
1.822400 0.000000
1.835000 0.000000
1.847500 0.000000
1.860000 0.000000
1.872600 0.000000
1.885100 0.000000
1.897700 0.000000
1.910200 0.000000
1.922700 0.000000
1.935300 0.000000
1.947800 0.000000
1.960300 0.000000
1.972900 0.000000
1.985400 0.000000
1.998000 0.000000
2.010500 0.000000
2.023000 0.000000
2.035600 0.000000
2.048100 0.000000
2.060600 0.000000
2.073200 0.000000
2.085700 0.000000
2.098300 0.000000
2.110800 0.000000
2.123300 0.000000
2.135900 0.000000
2.148400 0.000000
2.160900 0.000000
2.173500 0.000000
2.186000 0.000000
2.198600 0.000000
2.211100 0.000000
2.223600 0.000000
2.236200 0.000000
2.248700 0.000000
2.261200 0.000000
2.273800 0.000000
2.286300 0.000000
2.298800 0.000000
2.311400 0.000000
2.323900 0.000000
2.336500 0.000000
2.349000 0.000000
2.361500 0.000000
2.374100 0.000000
2.386600 0.000000
2.399100 0.000000
2.411700 0.000000
2.424200 0.000000
2.436800 0.000000
2.449300 0.000000
2.461800 0.000000
2.474400 0.000000
2.486900 0.000000
2.499400 0.000000
2.512000 0.000000
2.524500 0.000000
2.537100 0.000000
2.549600 0.000000
2.562100 0.000000
2.574700 0.000000
2.587200 0.000000
2.599700 0.000000
2.612300 0.000000
2.624800 0.000000
2.637400 0.000000
2.649900 0.000000
2.662400 0.000000
2.675000 0.000000
2.687500 0.000000
2.700000 0.000000
2.712600 0.000000
2.725100 0.000000
2.737700 0.000000
2.750200 0.000000
2.762700 0.000000
2.775300 0.000000
2.787800 0.000000
2.800300 0.000000
2.812900 0.000000
2.825400 0.000000
2.838000 0.000000
2.850500 0.000000
2.863000 0.000000
2.875600 0.000000
2.888100 0.000000
2.900600 0.000000
2.913200 0.000000
2.925700 0.000000
2.938200 0.000000
2.950800 0.000000
2.963300 0.000000
2.975900 0.000000
2.988400 0.000000
3.000900 0.000000
3.013500 0.000000
3.026000 0.000000
3.038500 0.000000
3.051100 0.000000
3.063600 0.000000
3.076200 0.000000
3.088700 0.000000
3.101200 0.000000
3.113800 0.000000
3.126300 0.000000
3.138800 0.000000
3.151400 0.000000
3.163900 0.000000
3.176500 0.000000
3.189000 0.000000
3.201500 0.000000
3.214100 0.000000
3.226600 0.000000
3.239100 0.000000
3.251700 0.000000
3.264200 0.000000
3.276800 0.000000
3.289300 0.000000
3.301800 0.000000
3.314400 0.000000
3.326900 0.000000
3.339400 0.000000
3.352000 0.000000
3.364500 0.000000
3.377100 0.001900
3.389600 0.011100
3.402100 0.020300
3.414700 0.918200
3.427200 1.852100
3.439700 1.933200
3.452300 2.014200
3.464800 3.076400
3.477400 4.132100
3.489900 4.295300
3.502400 4.469700
3.515000 4.644200
3.527500 4.818600
3.540000 6.097800
3.552600 7.381100
3.565100 7.620300
3.577600 7.859600
3.590200 8.098900
3.602700 10.764400
3.615300 11.056200
3.627800 12.584300
3.640300 12.901000
3.652900 13.217700
3.665400 13.534400
3.677900 13.851100
3.690500 14.175900
3.703000 14.599300
3.715600 15.103000
3.728100 15.651900
3.740600 16.223000
3.753200 16.890800
3.765700 17.602000
3.778200 18.354300
3.790800 19.188500
3.803300 20.092900
3.815900 21.052500
3.828400 22.109700
3.840900 23.203100
3.853500 24.296500
3.866000 25.470100
3.878500 31.347800
3.891100 34.289900
3.903600 34.054000
3.916200 37.008800
3.928700 36.252100
3.941200 39.270600
3.953800 38.271500
3.966300 37.444900
3.978800 40.762600
3.991400 38.906900
4.003900 41.809900
4.016500 38.117800
4.029000 39.936200
4.041500 43.789900
4.054100 39.390800
4.066600 33.578500
4.079100 30.303600
4.091700 28.667700
4.104200 26.686700
4.116800 26.022400
4.129300 26.008300
4.141800 24.244500
4.154400 22.480700
4.166900 20.716900
4.179400 18.981500
4.192000 17.507000
4.204500 16.085500
4.217000 14.664000
4.229600 13.657200
4.242100 19.495200
4.254700 14.644900
4.267200 6.620600
4.279700 8.297100
4.292300 10.809600
4.304800 13.322000
4.317300 7.417000
4.329900 0.000000
4.342400 0.000000
4.355000 0.000000
4.367500 0.000000
4.380000 0.000000
4.392600 0.000000
4.405100 0.000000
4.417600 0.000000
4.430200 0.000000
4.442700 0.000000
4.455300 0.000000
4.467800 0.000000
4.480300 0.000000
4.492900 0.000000
4.505400 0.000000
4.517900 0.000000
4.530500 0.000000
4.543000 0.000000
4.555600 0.000000
4.568100 0.000000
4.580600 0.000000
4.593200 0.000000
4.605700 0.000000
4.618200 0.000000
4.630800 0.000000
4.643300 0.000000
4.655900 0.000000
4.668400 0.000000
4.680900 0.000000
4.693500 0.000000
4.706000 0.000000
4.718500 0.000000
4.731100 0.000000
4.743600 0.000000
4.756200 0.000000
4.768700 0.000000
4.781200 0.000000
4.793800 0.000000
4.806300 0.000000
4.818800 0.000000
4.831400 0.000000
4.843900 0.000000
4.856400 0.000000
4.869000 0.000000
4.881500 0.000000
4.894100 0.000000
4.906600 0.000000
4.919100 0.000000
4.931700 0.000000
4.944200 0.000000
4.956700 0.000000
4.969300 0.000000
4.981800 0.000000
4.994400 0.000000
5.006900 0.000000
5.019400 0.000000
5.032000 0.000000
5.044500 0.000000
5.057000 0.000000
5.069600 0.000000
5.082100 0.000000
5.094700 0.000000
5.107200 0.000000
5.119700 0.000000
5.132300 0.000000
5.144800 0.000000
5.157300 0.000000
5.169900 0.000000
5.182400 0.000000
5.195000 0.000000
5.207500 0.000000
5.220000 0.000000
5.232600 0.000000
5.245100 0.000000
5.257600 0.000000
5.270200 0.000000
5.282700 0.000000
5.295300 0.000000
5.307800 0.000000
5.320300 0.000000
5.332900 0.000000
5.345400 0.000000
5.357900 0.000000
5.370500 0.000000
5.383000 0.000000
5.395600 0.000000
5.408100 0.000000
5.420600 0.000000
5.433200 0.000000
5.445700 0.000000
5.458200 0.000000
5.470800 0.000000
5.483300 0.000000
5.495800 0.005000
5.508400 0.049100
5.520900 0.131000
5.533500 0.212800
5.546000 0.294600
5.558500 0.376400
5.571100 0.458200
5.583600 0.540000
5.596100 0.621800
5.608700 0.703600
5.621200 0.785400
5.633800 0.867200
5.646300 0.949000
5.658800 1.030800
5.671400 1.112600
5.683900 1.194400
5.696400 1.276200
5.709000 1.358000
5.721500 1.439800
5.734100 1.521600
5.746600 1.603400
5.759100 1.685200
5.771700 1.767000
5.784200 1.848800
5.796700 1.930600
5.809300 2.012400
5.821800 2.094200
5.834400 2.176000
5.846900 2.257800
5.859400 2.339600
5.872000 2.421400
5.884500 2.503200
5.897000 2.585100
5.909600 2.666900
5.922100 2.748700
5.934700 2.830500
5.947200 2.912300
5.959700 2.994100
5.972300 3.075900
5.984800 4.919300
5.997300 5.962100
6.009900 6.910100
6.022400 7.566600
6.035000 8.912000
6.047500 10.010300
6.060000 11.386900
6.072600 12.022500
6.085100 12.356400
6.097600 12.695400
6.110200 13.598800
6.122700 14.174200
6.135200 14.729200
6.147800 15.272000
6.160300 15.598700
6.172900 15.817000
6.185400 16.641600
6.197900 16.947700
6.210500 17.750600
6.223000 17.891100
6.235500 18.031500
6.248100 18.172000
6.260600 18.312500
6.273200 19.018200
6.285700 19.217200
6.298200 19.977700
6.310800 20.231200
6.323300 20.484700
6.335800 20.738200
6.348400 20.860300
6.360900 20.976800
6.373500 21.093300
6.386000 21.201300
6.398500 21.203700
6.411100 21.206200
6.423600 21.208600
6.436100 25.296800
6.448700 25.054600
6.461200 24.812400
6.473800 29.297400
6.486300 28.121000
6.498800 26.872200
6.511400 31.322900
6.523900 27.164800
6.536400 29.960900
6.549000 28.688700
6.561500 26.266700
6.574100 23.844600
6.586600 22.050600
6.599100 24.539700
6.611700 27.028900
6.624200 19.987300
6.636700 16.217200
6.649300 16.018200
6.661800 18.035800
6.674400 22.246300
6.686900 14.893300
6.699400 14.706800
6.712000 14.546300
6.724500 14.435300
6.737000 16.974900
6.749600 15.606200
6.762100 14.428700
6.774600 18.431500
6.787200 17.869300
6.799700 17.307100
6.812300 16.745000
6.824800 16.182800
6.837300 15.620700
6.849900 15.058500
6.862400 20.224500
6.874900 19.192600
6.887500 18.391500
6.900000 17.753200
6.912600 17.114800
6.925100 16.325100
6.937600 15.540800
6.950200 14.758700
6.962700 14.240600
6.975200 13.247200
6.987800 16.272400
7.000300 19.747300
7.012900 18.783600
7.025400 17.819900
7.037900 16.856300
7.050500 14.578700
7.063000 13.858600
7.075500 13.226000
7.088100 13.066900
7.100600 16.855800
7.113200 18.173900
7.125700 28.522700
7.138200 28.811900
7.150800 30.401500
7.163300 37.082000
7.175800 45.058600
7.188400 46.588300
7.200900 44.790600
7.213500 48.363400
7.226000 40.031000
7.238500 36.087600
7.251100 36.717500
7.263600 27.915200
7.276100 28.305100
7.288700 30.276200
7.301200 36.135900
7.313800 41.921900
7.326300 32.995500
7.338800 29.059800
7.351400 29.874400
7.363900 44.908800
7.376400 31.671000
7.389000 30.471600
7.401500 32.087100
7.414000 40.251900
7.426600 37.400500
7.439100 35.655300
7.451700 34.292500
7.464200 41.578200
7.476700 31.392000
7.489300 29.422000
7.501800 30.874200
7.514300 28.177200
7.526900 27.760400
7.539400 27.719500
7.552000 27.943100
7.564500 31.757100
7.577000 30.532400
7.589600 30.369900
7.602100 30.207500
7.614600 30.929900
7.627200 33.232700
7.639700 35.752400
7.652300 40.661800
7.664800 42.294000
7.677300 42.037700
7.689900 48.366700
7.702400 54.246500
7.714900 47.390100
7.727500 47.958500
7.740000 47.214300
7.752600 46.971000
7.765100 39.685800
7.777600 37.648200
7.790200 38.203400
7.802700 41.702400
7.815200 46.087000
7.827800 54.155700
7.840300 40.349000
7.852900 41.842600
7.865400 37.635600
7.877900 37.010800
7.890500 33.199300
7.903000 32.971000
7.915500 32.815500
7.928100 37.496100
7.940600 39.198500
7.953200 32.509100
7.965700 32.948100
7.978200 35.715200
7.990800 33.692200
8.003300 34.172300
8.015800 30.490500
8.028400 31.310900
8.040900 31.145600
8.053400 30.980300
8.066000 30.669800
8.078500 32.140200
8.091100 34.411000
8.103600 33.977500
8.116100 33.517200
8.128700 33.056900
8.141200 34.239900
8.153700 33.524500
8.166300 32.983100
8.178800 32.336000
8.191400 31.657900
8.203900 30.953200
8.216400 29.849700
8.229000 33.168100
8.241500 31.265000
8.254000 29.764300
8.266600 27.826700
8.279100 36.540000
8.291700 29.293700
8.304200 28.474400
8.316700 48.292100
8.329300 33.132700
8.341800 30.163300
8.354300 32.320900
8.366900 25.034300
8.379400 19.597600
8.392000 15.706300
8.404500 15.537500
8.417000 15.368600
8.429600 15.199700
8.442100 15.030800
8.454600 14.861900
8.467200 14.693000
8.479700 14.524100
8.492300 13.442400
8.504800 12.444500
8.517300 12.123400
8.529900 11.802300
8.542400 11.481200
8.554900 11.160100
8.567500 10.839000
8.580000 10.138900
8.592600 9.835800
8.605100 9.532700
8.617600 8.852500
8.630200 8.567000
8.642700 8.114500
8.655200 8.108600
8.667800 8.102800
8.680300 8.096900
8.692800 9.022800
8.705400 9.079800
8.717900 11.179400
8.730500 10.822300
8.743000 10.091800
8.755500 9.757600
8.768100 14.584200
8.780600 12.234700
8.793100 15.406100
8.805700 9.564300
8.818200 7.882400
8.830800 15.631700
8.843300 9.060800
8.855800 9.740200
8.868400 10.419500
8.880900 10.493800
8.893400 11.077600
8.906000 11.755800
8.918500 12.790700
8.931100 13.825700
8.943600 14.318300
8.956100 16.911800
8.968700 16.552300
8.981200 16.192800
8.993700 17.987400
9.006300 17.538200
9.018800 17.319600
9.031400 17.101100
9.043900 16.965900
9.056400 22.518800
9.069000 22.453100
9.081500 21.442400
9.094000 27.076400
9.106600 23.921900
9.119100 21.985300
9.131700 22.999200
9.144200 25.989300
9.156700 31.716200
9.169300 25.965300
9.181800 28.925900
9.194300 31.838000
9.206900 34.755300
9.219400 38.240700
9.231900 29.947700
9.244500 29.558000
9.257000 28.589800
9.269600 53.946100
9.282100 29.609300
9.294600 26.895800
9.307200 24.182300
9.319700 24.031200
9.332200 23.672500
9.344800 23.060500
9.357300 21.817600
9.369900 20.801600
9.382400 20.445400
9.394900 20.089100
9.407500 38.193700
9.420000 26.531500
9.432500 34.826700
9.445100 35.152600
9.457600 33.622300
9.470200 34.889000
9.482700 36.227300
9.495200 32.391300
9.507800 29.918600
9.520300 29.605100
9.532800 28.865800
9.545400 32.119500
9.557900 32.441500
9.570500 35.841800
9.583000 34.417100
9.595500 31.364900
9.608100 30.061500
9.620600 29.207800
9.633100 28.138600
9.645700 32.438800
9.658200 28.891300
9.670800 26.115900
9.683300 34.619700
9.695800 29.558500
9.708400 27.078100
9.720900 27.004400
9.733400 28.377200
9.746000 28.649900
9.758500 30.690100
9.771100 31.120000
9.783600 27.093200
9.796100 27.642600
9.808700 28.621400
9.821200 27.274500
9.833700 26.094300
9.846300 27.565700
9.858800 29.195400
9.871300 30.825100
9.883900 30.893200
9.896400 33.103200
9.909000 30.546200
9.921500 31.842400
9.934000 31.519100
9.946600 30.724100
9.959100 32.260500
9.971600 29.333300
9.984200 26.676400
9.996700 25.289200
10.009300 27.806800
10.021800 28.272300
10.034300 31.960600
10.046900 25.076100
10.059400 26.679100
10.071900 27.727100
10.084500 22.642100
10.097000 24.495400
10.109600 23.361900
10.122100 22.280000
10.134600 22.022200
10.147200 21.248600
10.159700 24.474400
10.172200 23.382600
10.184800 23.782500
10.197300 22.387900
10.209900 20.612500
10.222400 21.451700
10.234900 26.340800
10.247500 31.461800
10.260000 26.090000
10.272500 21.188500
10.285100 21.762200
10.297600 22.387400
10.310200 23.012600
10.322700 23.637800
10.335200 24.263000
10.347800 21.440500
10.360300 21.427100
10.372800 21.413800
10.385400 22.028400
10.397900 22.400700
10.410500 22.774200
10.423000 21.768600
10.435500 22.110700
10.448100 22.475700
10.460600 22.854200
10.473100 20.602000
10.485700 20.748100
10.498200 20.912800
10.510700 21.473400
10.523300 21.724400
10.535800 20.149500
10.548400 20.583800
10.560900 20.685300
10.573400 20.786700
10.586000 19.088100
10.598500 19.013400
10.611000 18.961200
10.623600 17.883600
10.636100 17.863100
10.648700 17.844800
10.661200 17.847800
10.673700 17.861800
10.686300 17.875800
10.698800 17.889900
10.711300 17.903900
10.723900 16.856000
10.736400 17.203600
10.749000 17.332600
10.761500 17.461600
10.774000 17.600600
10.786600 17.770300
10.799100 16.366900
10.811600 16.472700
10.824200 16.688500
10.836700 16.169300
10.849300 16.304500
10.861800 15.094400
10.874300 14.202500
10.886900 14.304000
10.899400 14.401200
10.911900 14.462100
10.924500 14.440000
10.937000 14.379300
10.949600 14.330800
10.962100 12.651700
10.974600 12.534900
10.987200 12.418200
10.999700 12.314000
11.012200 12.150300
11.024800 11.971100
11.037300 11.791900
11.049900 11.612700
11.062400 11.433500
11.074900 11.254200
11.087500 11.553500
11.100000 11.390400
11.112500 11.227200
11.125100 11.064100
11.137600 10.973000
11.150100 10.838900
11.162700 10.706700
11.175200 10.576400
11.187800 10.446100
11.200300 10.315800
11.212800 10.187000
11.225400 10.352900
11.237900 10.255200
11.250400 10.157600
11.263000 10.059900
11.275500 9.965900
11.288100 9.876500
11.300600 9.787000
11.313100 9.698700
11.325700 9.612500
11.338200 10.256700
11.350700 9.764100
11.363300 9.213400
11.375800 9.082000
11.388400 8.950600
11.400900 8.819100
11.413400 8.687700
11.426000 8.556300
11.438500 8.424900
11.451000 8.849300
11.463600 8.686000
11.476100 8.522700
11.488700 8.010700
11.501200 8.015700
11.513700 6.950200
11.526300 6.794200
11.538800 6.638100
11.551300 6.483300
11.563900 6.397300
11.576400 6.311300
11.589000 6.225200
11.601500 6.139200
11.614000 6.053200
11.626600 5.967100
11.639100 5.881100
11.651600 5.934100
11.664200 6.224400
11.676700 6.514700
11.689300 6.278800
11.701800 6.005700
11.714300 4.803700
11.726900 5.053900
11.739400 2.140100
11.751900 2.073200
11.764500 2.006400
11.777000 1.939500
11.789500 1.872700
11.802100 1.805800
11.814600 1.739000
11.827200 1.672100
11.839700 1.605300
11.852200 1.538400
11.864800 1.471600
11.877300 1.950300
11.889800 2.702600
11.902400 3.455000
11.914900 4.207300
11.927500 0.755600
11.940000 0.943600
11.952500 1.131600
11.965100 1.319500
11.977600 1.507500
11.990100 1.695500
12.002700 1.883400
12.015200 2.071400
12.027800 2.259400
12.040300 0.000000
12.052800 0.000000
12.065400 0.000000
12.077900 0.000000
12.090400 0.000000
12.103000 0.000000
12.115500 0.000000
12.128100 0.000000
12.140600 0.000000
12.153100 0.000000
12.165700 0.000000
12.178200 0.000000
12.190700 0.000000
12.203300 0.000000
12.215800 0.000000
12.228400 0.000000
12.240900 0.000000
12.253400 0.000000
12.266000 0.000000
12.278500 0.000000
12.291000 0.000000
12.303600 0.000000
12.316100 0.000000
12.328700 0.000000
12.341200 0.000000
12.353700 0.000000
12.366300 0.000000
12.378800 0.000000
12.391300 0.000000
12.403900 0.000000
12.416400 0.000000
12.428900 0.000000
12.441500 0.000000
12.454000 0.000000
12.466600 0.000000
12.479100 0.000000
12.491600 0.000000
12.504200 0.000000
12.516700 0.000000
12.529200 0.000000
12.541800 0.000000
12.554300 0.000000
12.566900 0.000000
12.579400 0.000000
12.591900 0.000000
12.604500 0.000000
12.617000 0.000000
12.629500 0.000000
12.642100 0.000000
12.654600 0.000000
12.667200 0.000000
12.679700 0.000000
12.692200 0.000000
12.704800 0.000000
12.717300 0.000000
12.729800 0.000000
12.742400 0.000000
12.754900 0.000000
12.767500 0.000000
12.780000 0.000000
12.792500 0.000000
12.805100 0.000000
12.817600 0.000000
12.830100 0.000000
12.842700 0.000000
12.855200 0.000000
12.867800 0.000000
12.880300 0.000000
12.892800 0.000000
12.905400 0.000000
12.917900 0.000000
12.930400 0.000000
12.943000 0.000000
12.955500 0.000000
12.968100 0.000000
12.980600 0.000000
12.993100 0.000000
13.005700 0.000000
13.018200 0.000000
13.030700 0.000000
13.043300 0.000000
13.055800 0.000000
13.068300 0.000000
13.080900 0.000000
13.093400 0.000000
13.106000 0.000000
13.118500 0.000000
13.131000 0.000000
13.143600 0.000000
13.156100 0.000000
13.168600 0.000000
e
