set title 'mp-849080 - Density of States'
set xlabel 'Energy (eV)'
set ylabel 'DOS (states/eV)'
set grid
set xrange [-10:10]
set yrange [0:5.758]
set xzeroaxis lt -1
set terminal png size 800,600
set output 'mp-849080_dos_gnuplot.png'
plot '-' using 1:2 with lines title 'DOS'
-42.169500 0.000000
-42.133400 0.000000
-42.097400 0.000000
-42.061400 0.000000
-42.025300 0.000000
-41.989300 0.000000
-41.953200 0.000000
-41.917200 0.000000
-41.881100 0.000000
-41.845100 0.000000
-41.809100 0.000000
-41.773000 0.000000
-41.737000 0.000000
-41.700900 0.000000
-41.664900 0.000000
-41.628900 0.000000
-41.592800 0.000000
-41.556800 0.000000
-41.520700 0.000000
-41.484700 0.000000
-41.448700 0.000000
-41.412600 0.000000
-41.376600 0.000000
-41.340500 0.000000
-41.304500 0.000000
-41.268500 0.000000
-41.232400 0.000000
-41.196400 0.000000
-41.160300 0.000000
-41.124300 0.000000
-41.088200 0.000000
-41.052200 0.000000
-41.016200 0.000000
-40.980100 0.000000
-40.944100 0.000000
-40.908000 0.000000
-40.872000 0.000000
-40.836000 0.000000
-40.799900 0.000000
-40.763900 0.000000
-40.727800 0.000000
-40.691800 0.000000
-40.655800 0.000000
-40.619700 0.000000
-40.583700 0.000000
-40.547600 0.000000
-40.511600 0.000000
-40.475600 0.000000
-40.439500 0.000000
-40.403500 0.000000
-40.367400 0.000000
-40.331400 0.000000
-40.295300 0.000000
-40.259300 0.000000
-40.223300 0.000000
-40.187200 0.000000
-40.151200 0.000000
-40.115100 0.000000
-40.079100 0.000000
-40.043100 0.000000
-40.007000 0.000000
-39.971000 0.000000
-39.934900 0.000000
-39.898900 0.000000
-39.862900 0.000000
-39.826800 0.000000
-39.790800 0.000000
-39.754700 0.000000
-39.718700 0.000000
-39.682700 0.000000
-39.646600 0.000000
-39.610600 0.000000
-39.574500 0.000000
-39.538500 0.000000
-39.502400 0.000000
-39.466400 0.000000
-39.430400 0.000000
-39.394300 0.000000
-39.358300 0.000000
-39.322200 0.000000
-39.286200 0.000000
-39.250200 0.000000
-39.214100 0.000000
-39.178100 0.000000
-39.142000 0.000000
-39.106000 0.000000
-39.070000 0.000000
-39.033900 0.000000
-38.997900 0.000000
-38.961800 0.000000
-38.925800 0.000000
-38.889800 1.830400
-38.853700 1.214600
-38.817700 2.361100
-38.781600 2.658000
-38.745600 2.795600
-38.709500 3.364900
-38.673500 3.766800
-38.637500 4.052600
-38.601400 2.759300
-38.565400 2.289400
-38.529300 3.254100
-38.493300 2.735800
-38.457300 2.487800
-38.421200 2.471700
-38.385200 6.102700
-38.349100 6.436700
-38.313100 8.390900
-38.277100 6.502100
-38.241000 9.206200
-38.205000 12.392200
-38.168900 8.647800
-38.132900 6.424100
-38.096900 6.517800
-38.060800 6.356100
-38.024800 1.902600
-37.988700 1.990400
-37.952700 1.945400
-37.916600 1.877100
-37.880600 1.918000
-37.844600 1.918300
-37.808500 1.934700
-37.772500 2.034100
-37.736400 2.111300
-37.700400 2.198200
-37.664400 2.219000
-37.628300 2.344600
-37.592300 2.526100
-37.556200 1.859100
-37.520200 2.033300
-37.484200 2.348300
-37.448100 2.758900
-37.412100 4.015200
-37.376000 4.078900
-37.340000 2.594900
-37.304000 3.837400
-37.267900 2.880600
-37.231900 0.000000
-37.195800 0.000000
-37.159800 0.000000
-37.123700 0.000000
-37.087700 0.000000
-37.051700 0.000000
-37.015600 0.000000
-36.979600 0.000000
-36.943500 0.000000
-36.907500 0.000000
-36.871500 0.000000
-36.835400 0.000000
-36.799400 0.000000
-36.763300 0.000000
-36.727300 0.000000
-36.691300 0.000000
-36.655200 0.000000
-36.619200 0.000000
-36.583100 0.000000
-36.547100 0.000000
-36.511100 0.000000
-36.475000 0.000000
-36.439000 0.000000
-36.402900 0.000000
-36.366900 0.000000
-36.330800 0.000000
-36.294800 0.000000
-36.258800 0.000000
-36.222700 0.000000
-36.186700 0.000000
-36.150600 0.000000
-36.114600 0.000000
-36.078600 0.000000
-36.042500 0.000000
-36.006500 0.000000
-35.970400 0.000000
-35.934400 0.000000
-35.898400 0.000000
-35.862300 0.000000
-35.826300 0.000000
-35.790200 0.000000
-35.754200 0.000000
-35.718200 0.000000
-35.682100 0.000000
-35.646100 0.000000
-35.610000 0.000000
-35.574000 0.000000
-35.537900 0.000000
-35.501900 0.000000
-35.465900 0.000000
-35.429800 0.000000
-35.393800 0.000000
-35.357700 0.000000
-35.321700 0.000000
-35.285700 0.000000
-35.249600 0.000000
-35.213600 0.000000
-35.177500 0.000000
-35.141500 0.000000
-35.105500 0.000000
-35.069400 0.000000
-35.033400 0.000000
-34.997300 0.000000
-34.961300 0.000000
-34.925300 0.000000
-34.889200 0.000000
-34.853200 0.000000
-34.817100 0.000000
-34.781100 0.000000
-34.745000 0.000000
-34.709000 0.000000
-34.673000 0.000000
-34.636900 0.000000
-34.600900 0.000000
-34.564800 0.000000
-34.528800 0.000000
-34.492800 0.000000
-34.456700 0.000000
-34.420700 0.000000
-34.384600 0.000000
-34.348600 0.000000
-34.312600 0.000000
-34.276500 0.000000
-34.240500 0.000000
-34.204400 0.000000
-34.168400 0.000000
-34.132400 0.000000
-34.096300 0.000000
-34.060300 0.000000
-34.024200 0.000000
-33.988200 0.000000
-33.952100 0.000000
-33.916100 0.000000
-33.880100 0.000000
-33.844000 0.000000
-33.808000 0.000000
-33.771900 0.000000
-33.735900 0.000000
-33.699900 0.000000
-33.663800 0.000000
-33.627800 0.000000
-33.591700 0.000000
-33.555700 0.000000
-33.519700 0.000000
-33.483600 0.000000
-33.447600 0.000000
-33.411500 0.000000
-33.375500 0.000000
-33.339500 0.000000
-33.303400 0.000000
-33.267400 0.000000
-33.231300 0.000000
-33.195300 0.000000
-33.159200 0.000000
-33.123200 0.000000
-33.087200 0.000000
-33.051100 0.000000
-33.015100 0.000000
-32.979000 0.000000
-32.943000 0.000000
-32.907000 0.000000
-32.870900 0.000000
-32.834900 0.000000
-32.798800 0.000000
-32.762800 0.000000
-32.726800 0.000000
-32.690700 0.000000
-32.654700 0.000000
-32.618600 0.000000
-32.582600 0.000000
-32.546600 0.000000
-32.510500 0.000000
-32.474500 0.000000
-32.438400 0.000000
-32.402400 0.000000
-32.366400 0.000000
-32.330300 0.000000
-32.294300 0.000000
-32.258200 0.000000
-32.222200 0.000000
-32.186100 0.000000
-32.150100 0.000000
-32.114100 0.000000
-32.078000 0.000000
-32.042000 0.000000
-32.005900 0.000000
-31.969900 0.000000
-31.933900 0.000000
-31.897800 0.000000
-31.861800 0.000000
-31.825700 0.000000
-31.789700 0.000000
-31.753700 0.000000
-31.717600 0.000000
-31.681600 0.000000
-31.645500 0.000000
-31.609500 0.000000
-31.573500 0.000000
-31.537400 0.000000
-31.501400 0.000000
-31.465300 0.000000
-31.429300 0.000000
-31.393200 0.000000
-31.357200 0.000000
-31.321200 0.000000
-31.285100 0.000000
-31.249100 0.000000
-31.213000 0.000000
-31.177000 0.000000
-31.141000 0.000000
-31.104900 0.000000
-31.068900 0.000000
-31.032800 0.000000
-30.996800 0.000000
-30.960800 0.000000
-30.924700 0.000000
-30.888700 0.000000
-30.852600 0.000000
-30.816600 0.000000
-30.780600 0.000000
-30.744500 0.000000
-30.708500 0.000000
-30.672400 0.000000
-30.636400 0.000000
-30.600300 0.000000
-30.564300 0.000000
-30.528300 0.000000
-30.492200 0.000000
-30.456200 0.000000
-30.420100 0.000000
-30.384100 0.000000
-30.348100 0.000000
-30.312000 0.000000
-30.276000 0.000000
-30.239900 0.000000
-30.203900 0.000000
-30.167900 0.000000
-30.131800 0.000000
-30.095800 0.000000
-30.059700 0.000000
-30.023700 0.000000
-29.987700 0.000000
-29.951600 0.000000
-29.915600 0.000000
-29.879500 0.000000
-29.843500 0.000000
-29.807400 0.000000
-29.771400 0.000000
-29.735400 0.000000
-29.699300 0.000000
-29.663300 0.000000
-29.627200 0.000000
-29.591200 0.000000
-29.555200 0.000000
-29.519100 0.000000
-29.483100 0.000000
-29.447000 0.000000
-29.411000 0.000000
-29.375000 0.000000
-29.338900 0.000000
-29.302900 0.000000
-29.266800 0.000000
-29.230800 0.000000
-29.194800 0.000000
-29.158700 0.000000
-29.122700 0.000000
-29.086600 0.000000
-29.050600 0.000000
-29.014500 0.000000
-28.978500 0.000000
-28.942500 0.000000
-28.906400 0.000000
-28.870400 0.000000
-28.834300 0.000000
-28.798300 0.000000
-28.762300 0.000000
-28.726200 0.000000
-28.690200 0.000000
-28.654100 0.000000
-28.618100 0.000000
-28.582100 0.000000
-28.546000 0.000000
-28.510000 0.000000
-28.473900 0.000000
-28.437900 0.000000
-28.401900 0.000000
-28.365800 0.000000
-28.329800 0.000000
-28.293700 0.000000
-28.257700 0.000000
-28.221600 0.000000
-28.185600 0.000000
-28.149600 0.000000
-28.113500 0.000000
-28.077500 0.000000
-28.041400 0.000000
-28.005400 0.000000
-27.969400 0.000000
-27.933300 0.000000
-27.897300 0.000000
-27.861200 0.000000
-27.825200 0.000000
-27.789200 0.000000
-27.753100 0.000000
-27.717100 0.000000
-27.681000 0.000000
-27.645000 0.000000
-27.609000 0.000000
-27.572900 0.000000
-27.536900 0.000000
-27.500800 0.000000
-27.464800 0.000000
-27.428700 0.000000
-27.392700 0.000000
-27.356700 0.000000
-27.320600 0.000000
-27.284600 0.000000
-27.248500 0.000000
-27.212500 0.000000
-27.176500 0.000000
-27.140400 0.000000
-27.104400 0.000000
-27.068300 0.000000
-27.032300 0.000000
-26.996300 0.000000
-26.960200 0.000000
-26.924200 0.000000
-26.888100 0.000000
-26.852100 0.000000
-26.816100 0.000000
-26.780000 0.000000
-26.744000 0.000000
-26.707900 0.000000
-26.671900 0.000000
-26.635800 0.000000
-26.599800 0.000000
-26.563800 0.000000
-26.527700 0.000000
-26.491700 0.000000
-26.455600 0.000000
-26.419600 0.000000
-26.383600 0.000000
-26.347500 0.000000
-26.311500 0.000000
-26.275400 0.000000
-26.239400 0.000000
-26.203400 0.000000
-26.167300 0.000000
-26.131300 0.000000
-26.095200 0.000000
-26.059200 0.000000
-26.023200 0.000000
-25.987100 0.000000
-25.951100 0.000000
-25.915000 0.000000
-25.879000 0.000000
-25.842900 0.000000
-25.806900 0.000000
-25.770900 0.000000
-25.734800 0.000000
-25.698800 0.000000
-25.662700 0.000000
-25.626700 0.000000
-25.590700 0.000000
-25.554600 0.000000
-25.518600 0.000000
-25.482500 0.000000
-25.446500 0.000000
-25.410500 0.000000
-25.374400 0.000000
-25.338400 0.000000
-25.302300 0.000000
-25.266300 0.000000
-25.230300 0.000000
-25.194200 0.000000
-25.158200 0.000000
-25.122100 0.000000
-25.086100 0.000000
-25.050000 0.000000
-25.014000 0.000000
-24.978000 0.000000
-24.941900 0.000000
-24.905900 0.000000
-24.869800 0.000000
-24.833800 0.000000
-24.797800 0.000000
-24.761700 0.000000
-24.725700 0.000000
-24.689600 0.000000
-24.653600 0.000000
-24.617600 0.000000
-24.581500 0.000000
-24.545500 0.000000
-24.509400 0.000000
-24.473400 0.000000
-24.437400 0.000000
-24.401300 0.000000
-24.365300 0.000000
-24.329200 0.000000
-24.293200 0.000000
-24.257100 0.000000
-24.221100 0.000000
-24.185100 0.000000
-24.149000 0.000000
-24.113000 0.000000
-24.076900 0.000000
-24.040900 0.000000
-24.004900 0.000000
-23.968800 0.000000
-23.932800 0.000000
-23.896700 0.000000
-23.860700 0.000000
-23.824700 0.000000
-23.788600 0.000000
-23.752600 0.000000
-23.716500 0.000000
-23.680500 0.000000
-23.644500 0.000000
-23.608400 0.000000
-23.572400 0.000000
-23.536300 0.000000
-23.500300 0.000000
-23.464200 0.000000
-23.428200 0.000000
-23.392200 0.000000
-23.356100 0.000000
-23.320100 0.000000
-23.284000 0.000000
-23.248000 0.000000
-23.212000 0.000000
-23.175900 0.000000
-23.139900 0.000000
-23.103800 0.000000
-23.067800 0.000000
-23.031800 0.000000
-22.995700 0.000000
-22.959700 0.000000
-22.923600 0.000000
-22.887600 0.000000
-22.851600 0.000000
-22.815500 0.000000
-22.779500 0.000000
-22.743400 0.000000
-22.707400 0.000000
-22.671300 0.000000
-22.635300 0.000000
-22.599300 0.000000
-22.563200 0.000000
-22.527200 0.000000
-22.491100 0.000000
-22.455100 0.000000
-22.419100 0.000000
-22.383000 0.000000
-22.347000 0.000000
-22.310900 0.000000
-22.274900 0.000000
-22.238900 0.000000
-22.202800 0.000000
-22.166800 0.000000
-22.130700 0.000000
-22.094700 0.000000
-22.058700 0.000000
-22.022600 0.000000
-21.986600 0.000000
-21.950500 0.000000
-21.914500 0.000000
-21.878500 0.000000
-21.842400 0.000000
-21.806400 0.000000
-21.770300 0.000000
-21.734300 0.000000
-21.698200 0.000000
-21.662200 0.000000
-21.626200 0.000000
-21.590100 0.000000
-21.554100 0.000000
-21.518000 0.000000
-21.482000 0.000000
-21.446000 0.000000
-21.409900 0.000000
-21.373900 0.000000
-21.337800 0.000000
-21.301800 0.000000
-21.265800 0.000000
-21.229700 0.000000
-21.193700 0.000000
-21.157600 0.000000
-21.121600 0.000000
-21.085600 0.000000
-21.049500 0.000000
-21.013500 0.000000
-20.977400 0.000000
-20.941400 0.000000
-20.905300 0.000000
-20.869300 0.000000
-20.833300 0.000000
-20.797200 0.000000
-20.761200 0.000000
-20.725100 0.000000
-20.689100 0.000000
-20.653100 0.000000
-20.617000 0.000000
-20.581000 0.000000
-20.544900 0.000000
-20.508900 0.000000
-20.472900 0.000000
-20.436800 0.000000
-20.400800 0.000000
-20.364700 0.000000
-20.328700 0.000000
-20.292700 0.000000
-20.256600 0.000000
-20.220600 0.000000
-20.184500 0.000000
-20.148500 0.000000
-20.112400 0.000000
-20.076400 0.000000
-20.040400 0.000000
-20.004300 0.000000
-19.968300 0.000000
-19.932200 0.000000
-19.896200 0.000000
-19.860200 0.000000
-19.824100 0.000000
-19.788100 0.000000
-19.752000 0.000000
-19.716000 0.000000
-19.680000 0.000000
-19.643900 0.000000
-19.607900 0.000000
-19.571800 0.000000
-19.535800 0.000000
-19.499800 0.000000
-19.463700 0.000000
-19.427700 0.000000
-19.391600 0.000000
-19.355600 0.000000
-19.319500 0.000000
-19.283500 0.000000
-19.247500 0.000000
-19.211400 0.000000
-19.175400 0.000000
-19.139300 0.000000
-19.103300 0.000000
-19.067300 0.000000
-19.031200 0.000000
-18.995200 0.000000
-18.959100 0.000000
-18.923100 0.000000
-18.887100 0.000000
-18.851000 0.000000
-18.815000 0.000000
-18.778900 0.000000
-18.742900 0.000000
-18.706900 0.000000
-18.670800 0.000000
-18.634800 0.000000
-18.598700 0.000000
-18.562700 0.000000
-18.526600 0.000000
-18.490600 0.000000
-18.454600 0.000000
-18.418500 0.000000
-18.382500 0.000000
-18.346400 0.000000
-18.310400 0.000000
-18.274400 0.000000
-18.238300 0.000000
-18.202300 0.000000
-18.166200 0.000000
-18.130200 0.000000
-18.094200 0.000000
-18.058100 0.000000
-18.022100 0.000000
-17.986000 0.000000
-17.950000 0.000000
-17.914000 0.000000
-17.877900 0.000000
-17.841900 0.000000
-17.805800 0.000000
-17.769800 0.000000
-17.733700 0.000000
-17.697700 0.000000
-17.661700 0.000000
-17.625600 0.237900
-17.589600 0.650500
-17.553500 0.498900
-17.517500 0.479100
-17.481500 0.520000
-17.445400 0.561000
-17.409400 0.548600
-17.373300 0.511100
-17.337300 0.500300
-17.301300 0.509400
-17.265200 0.518400
-17.229200 0.531600
-17.193100 0.546100
-17.157100 0.552800
-17.121100 0.526800
-17.085000 0.519300
-17.049000 0.514300
-17.012900 0.515400
-16.976900 0.520600
-16.940800 0.526400
-16.904800 0.532200
-16.868800 0.538100
-16.832700 0.542100
-16.796700 0.547900
-16.760600 0.541600
-16.724600 0.530200
-16.688600 0.526300
-16.652500 0.524900
-16.616500 0.526700
-16.580400 0.529200
-16.544400 0.531700
-16.508400 0.533300
-16.472300 0.534900
-16.436300 0.537700
-16.400200 0.542000
-16.364200 0.546500
-16.328200 0.545400
-16.292100 0.545900
-16.256100 0.540400
-16.220000 0.537900
-16.184000 0.536900
-16.147900 0.536800
-16.111900 0.536700
-16.075900 0.538100
-16.039800 0.539500
-16.003800 0.541000
-15.967700 0.542900
-15.931700 0.545400
-15.895700 0.548200
-15.859600 0.551000
-15.823600 0.553900
-15.787500 0.555800
-15.751500 0.554100
-15.715500 0.554700
-15.679400 0.552500
-15.643400 0.550200
-15.607300 0.549800
-15.571300 0.550400
-15.535300 0.551300
-15.499200 0.552600
-15.463200 0.553900
-15.427100 0.555400
-15.391100 0.557100
-15.355000 0.559000
-15.319000 0.560900
-15.283000 0.562900
-15.246900 0.565000
-15.210900 0.567200
-15.174800 0.568800
-15.138800 0.568600
-15.102800 0.569800
-15.066700 0.571200
-15.030700 0.572900
-14.994600 0.572100
-14.958600 0.572800
-14.922600 0.574100
-14.886500 0.575400
-14.850500 0.576900
-14.814400 0.578600
-14.778400 0.580300
-14.742400 0.582100
-14.706300 0.584100
-14.670300 0.586200
-14.634200 0.588000
-14.598200 0.589800
-14.562100 0.591900
-14.526100 0.594100
-14.490100 0.597400
-14.454000 0.600600
-14.418000 0.603600
-14.381900 0.606600
-14.345900 0.609500
-14.309900 0.612500
-14.273800 0.615900
-14.237800 0.619100
-14.201700 0.622300
-14.165700 0.625500
-14.129700 0.628700
-14.093600 0.632000
-14.057600 0.635300
-14.021500 0.638200
-13.985500 0.641400
-13.949500 0.644700
-13.913400 0.648000
-13.877400 0.651300
-13.841300 0.669400
-13.805300 0.680200
-13.769200 0.690500
-13.733200 0.699400
-13.697200 0.707600
-13.661100 0.715900
-13.625100 0.724100
-13.589000 0.738600
-13.553000 0.754800
-13.517000 0.768400
-13.480900 0.781100
-13.444900 0.794000
-13.408800 1.122400
-13.372800 0.948800
-13.336800 0.824500
-13.300700 0.819500
-13.264700 0.806800
-13.228600 0.784000
-13.192600 0.761600
-13.156600 0.751600
-13.120500 0.749600
-13.084500 0.868700
-13.048400 0.996700
-13.012400 0.811700
-12.976300 0.742700
-12.940300 0.717600
-12.904300 0.680800
-12.868200 0.648500
-12.832200 0.623400
-12.796100 0.609100
-12.760100 0.600200
-12.724100 0.589800
-12.688000 0.572800
-12.652000 0.555500
-12.615900 0.538000
-12.579900 0.520700
-12.543900 0.503700
-12.507800 0.496300
-12.471800 0.490600
-12.435700 0.483600
-12.399700 0.475600
-12.363700 0.467100
-12.327600 0.458600
-12.291600 0.450000
-12.255500 0.441100
-12.219500 0.431800
-12.183400 0.421900
-12.147400 0.413900
-12.111400 0.407700
-12.075300 0.401200
-12.039300 0.394500
-12.003200 0.387600
-11.967200 0.383500
-11.931200 0.377600
-11.895100 0.371500
-11.859100 0.365400
-11.823000 0.359400
-11.787000 0.353300
-11.751000 0.347200
-11.714900 0.340800
-11.678900 0.336100
-11.642800 0.332200
-11.606800 0.328200
-11.570800 0.323900
-11.534700 0.318900
-11.498700 0.313600
-11.462600 0.308200
-11.426600 0.302800
-11.390600 0.299000
-11.354500 0.294900
-11.318500 0.290300
-11.282400 0.285800
-11.246400 0.281200
-11.210300 0.276700
-11.174300 0.272100
-11.138300 0.268100
-11.102200 0.265100
-11.066200 0.262000
-11.030100 0.258900
-10.994100 0.255700
-10.958100 0.252600
-10.922000 0.249400
-10.886000 0.246000
-10.849900 0.242000
-10.813900 0.237800
-10.777900 0.233600
-10.741800 0.229800
-10.705800 0.226700
-10.669700 0.222700
-10.633700 0.219100
-10.597700 0.215700
-10.561600 0.212300
-10.525600 0.209000
-10.489500 0.206300
-10.453500 0.203700
-10.417400 0.201100
-10.381400 0.198500
-10.345400 0.195900
-10.309300 0.193200
-10.273300 0.190600
-10.237200 0.188000
-10.201200 0.185400
-10.165200 0.182800
-10.129100 0.180100
-10.093100 0.176900
-10.057000 0.173700
-10.021000 0.170600
-9.985000 0.168500
-9.948900 0.166300
-9.912900 0.164100
-9.876800 0.162000
-9.840800 0.159800
-9.804800 0.156500
-9.768700 0.153100
-9.732700 0.149700
-9.696600 0.146200
-9.660600 0.142800
-9.624500 0.139700
-9.588500 0.136700
-9.552500 0.134200
-9.516400 0.131900
-9.480400 0.129600
-9.444300 0.127400
-9.408300 0.131000
-9.372300 0.135600
-9.336200 0.140100
-9.300200 0.144600
-9.264100 0.149100
-9.228100 0.136300
-9.192100 0.121500
-9.156000 0.107000
-9.120000 0.101500
-9.083900 0.096500
-9.047900 0.091500
-9.011900 0.086500
-8.975800 0.081500
-8.939800 0.116100
-8.903700 0.358400
-8.867700 0.345500
-8.831600 0.563200
-8.795600 0.476300
-8.759600 0.464700
-8.723500 0.406600
-8.687500 0.414300
-8.651400 0.432500
-8.615400 0.428800
-8.579400 0.439400
-8.543300 0.449300
-8.507300 0.451800
-8.471200 0.463100
-8.435200 0.476600
-8.399200 0.490100
-8.363100 0.503600
-8.327100 0.506800
-8.291000 0.515600
-8.255000 0.506400
-8.219000 0.486900
-8.182900 0.483200
-8.146900 0.483300
-8.110800 0.483600
-8.074800 0.485000
-8.038700 0.489100
-8.002700 0.493600
-7.966700 0.494300
-7.930600 0.493700
-7.894600 0.497700
-7.858500 0.500900
-7.822500 0.502200
-7.786500 0.504700
-7.750400 0.509700
-7.714400 0.514800
-7.678300 0.520000
-7.642300 0.525100
-7.606300 0.530200
-7.570200 0.535400
-7.534200 0.536800
-7.498100 0.540400
-7.462100 0.546400
-7.426100 0.552700
-7.390000 0.558000
-7.354000 0.561700
-7.317900 0.566200
-7.281900 0.572200
-7.245800 0.574300
-7.209800 0.578400
-7.173800 0.578400
-7.137700 0.581400
-7.101700 0.584900
-7.065600 0.590200
-7.029600 0.597500
-6.993600 0.606100
-6.957500 0.614800
-6.921500 0.623700
-6.885400 0.635800
-6.849400 0.676400
-6.813400 0.727500
-6.777300 0.826400
-6.741300 0.979900
-6.705200 1.000500
-6.669200 1.017600
-6.633200 1.026300
-6.597100 1.035200
-6.561100 1.033400
-6.525000 0.983500
-6.489000 0.864200
-6.452900 0.755900
-6.416900 0.739800
-6.380900 0.723800
-6.344800 0.708800
-6.308800 0.695000
-6.272700 0.681300
-6.236700 0.667500
-6.200700 0.653300
-6.164600 0.628100
-6.128600 0.793700
-6.092500 0.700600
-6.056500 0.582000
-6.020500 0.573500
-5.984400 0.565600
-5.948400 0.549600
-5.912300 0.542400
-5.876300 0.535900
-5.840300 0.530300
-5.804200 0.525100
-5.768200 0.520100
-5.732100 0.515300
-5.696100 0.948800
-5.660000 1.134800
-5.624000 1.016800
-5.588000 1.045400
-5.551900 1.090100
-5.515900 1.105300
-5.479800 1.043400
-5.443800 1.028700
-5.407800 1.036900
-5.371700 1.117000
-5.335700 1.196500
-5.299600 1.072800
-5.263600 1.054600
-5.227600 1.029200
-5.191500 1.016500
-5.155500 1.012800
-5.119400 1.014700
-5.083400 1.018700
-5.047400 1.022800
-5.011300 1.026700
-4.975300 1.030100
-4.939200 1.025000
-4.903200 1.014900
-4.867100 1.009000
-4.831100 1.098000
-4.795100 1.198300
-4.759000 1.199400
-4.723000 1.172100
-4.686900 1.170800
-4.650900 1.212300
-4.614900 1.832600
-4.578800 1.905600
-4.542800 1.834500
-4.506700 1.940500
-4.470700 1.771400
-4.434700 1.695100
-4.398600 1.782800
-4.362600 1.816200
-4.326500 1.823600
-4.290500 1.597600
-4.254500 1.448800
-4.218400 1.342700
-4.182400 1.286900
-4.146300 1.242900
-4.110300 1.206300
-4.074200 1.172800
-4.038200 1.216200
-4.002200 1.226100
-3.966100 1.270300
-3.930100 1.309600
-3.894000 1.331000
-3.858000 1.356200
-3.822000 1.549800
-3.785900 1.591400
-3.749900 2.154000
-3.713800 1.643200
-3.677800 1.624700
-3.641800 1.635000
-3.605700 1.648200
-3.569700 1.665700
-3.533600 1.689500
-3.497600 1.721400
-3.461600 1.702500
-3.425500 1.667100
-3.389500 1.672300
-3.353400 1.683400
-3.317400 1.695500
-3.281300 1.700800
-3.245300 1.702900
-3.209300 1.708900
-3.173200 1.695000
-3.137200 1.632700
-3.101100 1.647800
-3.065100 2.066300
-3.029100 1.844800
-2.993000 1.926400
-2.957000 1.983300
-2.920900 2.032900
-2.884900 1.941200
-2.848900 1.793700
-2.812800 2.046800
-2.776800 2.055800
-2.740700 2.036300
-2.704700 2.109200
-2.668700 2.199100
-2.632600 2.207700
-2.596600 2.230700
-2.560500 2.263100
-2.524500 2.244600
-2.488400 2.469800
-2.452400 2.559600
-2.416400 2.496300
-2.380300 2.541800
-2.344300 2.711400
-2.308200 2.881200
-2.272200 3.572900
-2.236200 3.935400
-2.200100 3.523300
-2.164100 3.700600
-2.128000 4.141100
-2.092000 3.775600
-2.056000 4.044000
-2.019900 4.448400
-1.983900 4.185100
-1.947800 3.934800
-1.911800 3.971800
-1.875800 3.794100
-1.839700 3.626900
-1.803700 3.287300
-1.767600 3.072200
-1.731600 2.974800
-1.695500 3.550300
-1.659500 3.365500
-1.623500 3.397800
-1.587400 2.841700
-1.551400 3.191200
-1.515300 3.042100
-1.479300 2.787500
-1.443300 2.891600
-1.407200 3.437300
-1.371200 3.403200
-1.335100 3.627900
-1.299100 3.924200
-1.263100 4.420000
-1.227000 5.234100
-1.191000 3.581300
-1.154900 3.320800
-1.118900 3.057600
-1.082900 3.139000
-1.046800 3.291100
-1.010800 2.995300
-0.974700 2.508500
-0.938700 2.453500
-0.902600 2.527200
-0.866600 2.444700
-0.830600 2.138500
-0.794500 2.011500
-0.758500 2.119700
-0.722400 2.168500
-0.686400 2.246800
-0.650400 2.517600
-0.614300 2.648100
-0.578300 2.648200
-0.542200 2.767500
-0.506200 2.979200
-0.470200 3.135500
-0.434100 3.215300
-0.398100 3.508000
-0.362000 3.823100
-0.326000 3.384900
-0.290000 3.578500
-0.253900 2.966900
-0.217900 2.917800
-0.181800 2.228000
-0.145800 2.273300
-0.109800 2.480700
-0.073700 2.758200
-0.037700 2.613900
-0.001600 2.683800
0.034400 2.711000
0.070500 2.499700
0.106500 2.365500
0.142500 2.319800
0.178600 2.284400
0.214600 2.259100
0.250700 2.265300
0.286700 2.388000
0.322700 2.701100
0.358800 3.723100
0.394800 2.314300
0.430900 2.220400
0.466900 2.122100
0.502900 2.091300
0.539000 2.100600
0.575000 2.270200
0.611100 2.180700
0.647100 2.188000
0.683100 2.297700
0.719200 2.707200
0.755200 2.306000
0.791300 2.247300
0.827300 2.106100
0.863400 2.100200
0.899400 2.179700
0.935400 2.212300
0.971500 2.233100
1.007500 2.444100
1.043600 2.322000
1.079600 2.246100
1.115600 2.302100
1.151700 2.360100
1.187700 2.017300
1.223800 2.053200
1.259800 2.110500
1.295800 2.183800
1.331900 2.240600
1.367900 2.280400
1.404000 2.318100
1.440000 2.396500
1.476000 2.415100
1.512100 2.486800
1.548100 2.331600
1.584200 2.306100
1.620200 2.318000
1.656300 2.253400
1.692300 2.202100
1.728300 2.315600
1.764400 2.133200
1.800400 1.835400
1.836500 1.967700
1.872500 2.122700
1.908500 2.184300
1.944600 2.454500
1.980600 2.704300
2.016700 2.867100
2.052700 2.780800
2.088700 2.909900
2.124800 3.017400
2.160800 3.016000
2.196900 3.122900
2.232900 2.950200
2.268900 2.672300
2.305000 2.698500
2.341000 2.621000
2.377100 2.631100
2.413100 2.691800
2.449200 2.634100
2.485200 2.610700
2.521200 2.812000
2.557300 2.515400
2.593300 2.005300
2.629400 1.737900
2.665400 1.562400
2.701400 1.488200
2.737500 1.549700
2.773500 1.774800
2.809600 2.101300
2.845600 1.697700
2.881600 1.590400
2.917700 1.526300
2.953700 1.513500
2.989800 1.542000
3.025800 1.523000
3.061800 1.568300
3.097900 1.677600
3.133900 2.020200
3.170000 2.032800
3.206000 1.867800
3.242100 1.708100
3.278100 1.657200
3.314100 1.704500
3.350200 1.759500
3.386200 1.758100
3.422300 1.754700
3.458300 1.736500
3.494300 1.711900
3.530400 1.760300
3.566400 1.928300
3.602500 2.020300
3.638500 1.766600
3.674500 1.566700
3.710600 1.521000
3.746600 1.500300
3.782700 1.466000
3.818700 1.502600
3.854700 1.541300
3.890800 1.450700
3.926800 1.472600
3.962900 1.504900
3.998900 1.548900
4.035000 1.600400
4.071000 1.807900
4.107000 1.906400
4.143100 1.890700
4.179100 1.833600
4.215200 1.837000
4.251200 2.093000
4.287200 2.138200
4.323300 2.178400
4.359300 2.193200
4.395400 2.113700
4.431400 1.992800
4.467400 1.973200
4.503500 1.994900
4.539500 2.019100
4.575600 2.041500
4.611600 2.072200
4.647600 2.105700
4.683700 2.163500
4.719700 2.137600
4.755800 2.101400
4.791800 2.059000
4.827900 1.898800
4.863900 2.188100
4.899900 2.239000
4.936000 2.370000
4.972000 2.074700
5.008100 1.951100
5.044100 1.933100
5.080100 1.979800
5.116200 2.077500
5.152200 2.276800
5.188300 2.367800
5.224300 2.431900
5.260300 2.441700
5.296400 2.462900
5.332400 2.502500
5.368500 2.607100
5.404500 2.861400
5.440500 2.594700
5.476600 2.581700
5.512600 2.560900
5.548700 2.519900
5.584700 2.416800
5.620800 2.374900
5.656800 2.326300
5.692800 2.278800
5.728900 2.231000
5.764900 2.251400
5.801000 2.237600
5.837000 2.195300
5.873000 2.112200
5.909100 2.050300
5.945100 2.072300
5.981200 2.093800
6.017200 2.114200
6.053200 2.339600
6.089300 2.469800
6.125300 2.416800
6.161400 2.353900
6.197400 2.368500
6.233400 2.393900
6.269500 2.487300
6.305500 2.386800
6.341600 2.354100
6.377600 2.324700
6.413700 2.339300
6.449700 2.394800
6.485700 2.368300
6.521800 2.344500
6.557800 2.303600
6.593900 2.319800
6.629900 2.324600
6.665900 2.315400
6.702000 2.294600
6.738000 2.265500
6.774100 2.233100
6.810100 2.299000
6.846100 2.318100
6.882200 2.325300
6.918200 2.325200
6.954300 2.325300
6.990300 2.356400
7.026300 2.351400
7.062400 2.392300
7.098400 2.433900
7.134500 2.485200
7.170500 2.522500
7.206600 2.511200
7.242600 2.520700
7.278600 2.471800
7.314700 2.424900
7.350700 2.401000
7.386800 2.373700
7.422800 2.342800
7.458800 2.385500
7.494900 2.349200
7.530900 2.290300
7.567000 2.270500
7.603000 2.237400
7.639000 2.190800
7.675100 2.156600
7.711100 2.147200
7.747200 2.143300
7.783200 2.143300
7.819200 2.155900
7.855300 2.218900
7.891300 2.439500
7.927400 2.570800
7.963400 3.401800
7.999500 3.485900
8.035500 3.396900
8.071500 3.309200
8.107600 3.096800
8.143600 3.087300
8.179700 3.026100
8.215700 2.947100
8.251700 3.739800
8.287800 3.144500
8.323800 3.068000
8.359900 2.936000
8.395900 2.759200
8.431900 2.588200
8.468000 2.457400
8.504000 2.406600
8.540100 2.321900
8.576100 2.244400
8.612100 2.176700
8.648200 2.139300
8.684200 2.176400
8.720300 2.214500
8.756300 2.165600
8.792400 2.170200
8.828400 2.205000
8.864400 2.279700
8.900500 2.336900
8.936500 2.467300
8.972600 2.577500
9.008600 2.550400
9.044600 2.467900
9.080700 2.534200
9.116700 2.627900
9.152800 2.700900
9.188800 2.718700
9.224800 2.729500
9.260900 2.746700
9.296900 2.879300
9.333000 2.864600
9.369000 2.734200
9.405000 2.609200
9.441100 2.606200
9.477100 2.876700
9.513200 2.837800
9.549200 2.723500
9.585300 2.759400
9.621300 2.829900
9.657300 2.878000
9.693400 3.016200
9.729400 3.011000
9.765500 2.959300
9.801500 2.865000
9.837500 2.907400
9.873600 3.050700
9.909600 3.064000
9.945700 3.005800
9.981700 2.930400
10.017700 3.055500
10.053800 3.057000
10.089800 3.037600
10.125900 3.108400
10.161900 3.130700
10.197900 2.996500
10.234000 2.882400
10.270000 2.782400
10.306100 2.735500
10.342100 2.776000
10.378100 2.788500
10.414200 2.828000
10.450200 2.846100
10.486300 2.832600
10.522300 2.683000
10.558400 2.649800
10.594400 2.652000
10.630400 2.740900
10.666500 2.891600
10.702500 2.975600
10.738600 2.963500
10.774600 2.944000
10.810600 2.840800
10.846700 2.937000
10.882700 2.911700
10.918800 2.962100
10.954800 2.868700
10.990800 2.827000
11.026900 2.984700
11.062900 3.069300
11.099000 3.043600
11.135000 3.146500
11.171000 3.144700
11.207100 3.143400
11.243100 3.195600
11.279200 3.052800
11.315200 3.053900
11.351300 3.058000
11.387300 3.095600
11.423300 3.225100
11.459400 3.410500
11.495400 3.450700
11.531500 3.466200
11.567500 3.439800
11.603500 3.295800
11.639600 3.376300
11.675600 3.624900
11.711700 3.458600
11.747700 3.276500
11.783700 3.191900
11.819800 3.176100
11.855800 3.189700
11.891900 3.146500
11.927900 3.079100
11.963900 3.119300
12.000000 3.232800
12.036000 3.372800
12.072100 3.459100
12.108100 3.463000
12.144200 3.434900
12.180200 3.438400
12.216200 3.446100
12.252300 3.467300
12.288300 3.324300
12.324400 3.330600
12.360400 3.344700
12.396400 3.240200
12.432500 3.190600
12.468500 3.220200
12.504600 3.220200
12.540600 3.207300
12.576600 3.251800
12.612700 3.345400
12.648700 3.465100
12.684800 3.622700
12.720800 3.687100
12.756800 3.878700
12.792900 4.009300
12.828900 3.869600
12.865000 3.577200
12.901000 3.520100
12.937100 3.469400
12.973100 3.532500
13.009100 3.645400
13.045200 3.864000
13.081200 4.071400
13.117300 3.917600
13.153300 3.773100
13.189300 3.584700
13.225400 3.468000
13.261400 3.445700
13.297500 3.468900
13.333500 3.502200
13.369500 3.520800
13.405600 3.600000
13.441600 3.570600
13.477700 3.531300
13.513700 3.517400
13.549700 3.535400
13.585800 3.521000
13.621800 3.517700
13.657900 3.518000
13.693900 3.432100
13.730000 3.366800
13.766000 3.317800
13.802000 3.265500
13.838100 3.449100
13.874100 3.067600
13.910200 3.048200
13.946200 3.134700
13.982200 3.193300
14.018300 3.271900
14.054300 3.519700
14.090400 3.551800
14.126400 3.638700
14.162400 3.684000
14.198500 3.844500
14.234500 3.760800
14.270600 3.719400
14.306600 3.608700
14.342600 3.532200
14.378700 3.551300
14.414700 3.670700
14.450800 3.814700
14.486800 4.026600
14.522900 3.943800
14.558900 3.835000
14.594900 3.813400
14.631000 3.744600
14.667000 3.675700
14.703100 3.703600
14.739100 3.714800
14.775100 3.711500
14.811200 3.913200
14.847200 3.810000
14.883300 3.836200
14.919300 3.682500
14.955300 3.579000
14.991400 3.530500
15.027400 3.469300
15.063500 3.404700
15.099500 3.284500
15.135500 3.246300
15.171600 3.312400
15.207600 3.201300
15.243700 3.312700
15.279700 3.484700
15.315800 3.672200
15.351800 4.287100
15.387800 4.340600
15.423900 4.596000
15.459900 4.285600
15.496000 4.025400
15.532000 3.837100
15.568000 3.658700
15.604100 3.561600
15.640100 3.469800
15.676200 3.505700
15.712200 3.648000
15.748200 3.551300
15.784300 3.572500
15.820300 3.602100
15.856400 4.010500
15.892400 3.936100
15.928400 3.836800
15.964500 3.720900
16.000500 3.596200
16.036600 3.560600
16.072600 3.699300
16.108700 3.726100
16.144700 3.602200
16.180700 3.758900
16.216800 3.942000
16.252800 3.892600
16.288900 3.822000
16.324900 3.741200
16.360900 3.748000
16.397000 3.808400
16.433000 3.892800
16.469100 4.014900
16.505100 4.107600
16.541100 4.053400
16.577200 3.969700
16.613200 3.970200
16.649300 3.984100
16.685300 3.922100
16.721300 3.891800
16.757400 3.867800
16.793400 3.775200
16.829500 3.697300
16.865500 3.707700
16.901600 3.734600
16.937600 3.823700
16.973600 3.992100
17.009700 3.985700
17.045700 3.823900
17.081800 3.846100
17.117800 3.919900
17.153800 4.111800
17.189900 4.318000
17.225900 4.175800
17.262000 4.023600
17.298000 4.163500
17.334000 4.228400
17.370100 4.170600
17.406100 4.072800
17.442200 3.832300
17.478200 3.746600
17.514200 3.733400
17.550300 3.824200
17.586300 3.853900
17.622400 3.874600
17.658400 3.785400
17.694500 3.780800
17.730500 3.917100
17.766500 4.019900
17.802600 4.057400
17.838600 4.051300
17.874700 4.130000
17.910700 4.095200
17.946700 4.009600
17.982800 4.093400
18.018800 4.183800
18.054900 4.250800
18.090900 4.213900
18.126900 4.132000
18.163000 4.124000
18.199000 4.235700
18.235100 4.229700
18.271100 4.273700
18.307100 4.396700
18.343200 4.445100
18.379200 4.458400
18.415300 4.560800
18.451300 4.486000
18.487400 4.315100
18.523400 4.123200
18.559400 3.956800
18.595500 3.889700
18.631500 3.916600
18.667600 3.934500
18.703600 4.049300
18.739600 4.075900
18.775700 4.031100
18.811700 4.122400
18.847800 4.357100
18.883800 4.492700
18.919800 4.643900
18.955900 4.712300
18.991900 4.692300
19.028000 4.523500
19.064000 4.453800
19.100000 4.515300
19.136100 4.601300
19.172100 4.593400
19.208200 4.547100
19.244200 4.333600
19.280300 4.219800
19.316300 4.148900
19.352300 4.127900
19.388400 4.156400
19.424400 4.140400
19.460500 4.104100
19.496500 4.014300
19.532500 3.929300
19.568600 3.983500
19.604600 4.112800
19.640700 4.219400
19.676700 4.257400
19.712700 4.332700
19.748800 4.509700
19.784800 4.456400
19.820900 4.544900
19.856900 4.601800
19.892900 4.568400
19.929000 4.503900
19.965000 4.345500
20.001100 4.069700
20.037100 3.898300
20.073200 3.784000
20.109200 3.746400
20.145200 3.805700
20.181300 3.896100
20.217300 3.975000
20.253400 4.016500
20.289400 4.013200
20.325400 4.247900
20.361500 4.349600
20.397500 4.473500
20.433600 4.507800
20.469600 4.429600
20.505600 4.484700
20.541700 4.496200
20.577700 4.153900
20.613800 4.156800
20.649800 4.008600
20.685800 3.834900
20.721900 3.738200
20.757900 3.714600
20.794000 3.651600
20.830000 3.479200
20.866100 3.576900
20.902100 3.644000
20.938100 3.691600
20.974200 3.748400
21.010200 3.816000
21.046300 3.767000
21.082300 3.851900
21.118300 3.893600
21.154400 3.824100
21.190400 3.728300
21.226500 3.568100
21.262500 3.403900
21.298500 3.366800
21.334600 3.367100
21.370600 3.321600
21.406700 3.275500
21.442700 3.140100
21.478700 3.114100
21.514800 3.126400
21.550800 3.131000
21.586900 3.130400
21.622900 3.092400
21.658900 3.100200
21.695000 3.209000
21.731000 3.122900
21.767100 3.073600
21.803100 2.968100
21.839200 2.864600
21.875200 2.727500
21.911200 2.622000
21.947300 2.655500
21.983300 2.676900
22.019400 2.701500
22.055400 2.674900
22.091400 2.726800
22.127500 2.704300
22.163500 2.662200
22.199600 2.595300
22.235600 2.544400
22.271600 2.504800
22.307700 2.426000
22.343700 2.361400
22.379800 2.350200
22.415800 2.335800
22.451800 2.452300
22.487900 2.390100
22.523900 2.365600
22.560000 2.269000
22.596000 2.095500
22.632100 2.003300
22.668100 1.948400
22.704100 1.929800
22.740200 1.921900
22.776200 1.900400
22.812300 1.895700
22.848300 1.897200
22.884300 1.886800
22.920400 1.841700
22.956400 1.870500
22.992500 1.793100
23.028500 1.720200
23.064500 1.733500
23.100600 1.621600
23.136600 1.555900
23.172700 1.484300
23.208700 1.411400
23.244700 1.338800
23.280800 1.283300
23.316800 1.220700
23.352900 1.168100
23.388900 1.137100
23.425000 1.117900
23.461000 1.094700
23.497000 1.074500
23.533100 1.041600
23.569100 0.997400
23.605200 0.985000
23.641200 1.005700
23.677200 0.969600
23.713300 0.927300
23.749300 0.870900
23.785400 0.836800
23.821400 0.786800
23.857400 0.726800
23.893500 0.678900
23.929500 0.667100
23.965600 0.657500
24.001600 0.643600
24.037600 0.643800
24.073700 0.694400
24.109700 0.705200
24.145800 0.708500
24.181800 0.683700
24.217900 0.649900
24.253900 0.613900
24.289900 0.576100
24.326000 0.548200
24.362000 0.517100
24.398100 0.475800
24.434100 0.434900
24.470100 0.396800
24.506200 0.376500
24.542200 0.357000
24.578300 0.340500
24.614300 0.328200
24.650300 0.322400
24.686400 0.321300
24.722400 0.327200
24.758500 0.344200
24.794500 0.370500
24.830500 0.389300
24.866600 0.404900
24.902600 0.412700
24.938700 0.419900
24.974700 0.424800
25.010800 0.409500
25.046800 0.399800
25.082800 0.413500
25.118900 0.374700
25.154900 0.343100
25.191000 0.296100
25.227000 0.277200
25.263000 0.266200
25.299100 0.292300
25.335100 0.336800
25.371200 0.359300
25.407200 0.372800
25.443200 0.369100
25.479300 0.327900
25.515300 0.269400
25.551400 0.254400
25.587400 0.234800
25.623400 0.216800
25.659500 0.198600
25.695500 0.187400
25.731600 0.177000
25.767600 0.165000
25.803700 0.151700
25.839700 0.138800
25.875700 0.126500
25.911800 0.114800
25.947800 0.103600
25.983900 0.104800
26.019900 0.110500
26.055900 0.141500
26.092000 0.162300
26.128000 0.172300
26.164100 0.178600
26.200100 0.180800
26.236100 0.178900
26.272200 0.171100
26.308200 0.151800
26.344300 0.127600
26.380300 0.098700
26.416300 0.076600
26.452400 0.058200
26.488400 0.040600
26.524500 0.023800
26.560500 0.010000
26.596600 0.002500
26.632600 0.000000
26.668600 0.000000
26.704700 0.000000
26.740700 0.000000
26.776800 0.000000
26.812800 0.000000
26.848800 0.000000
26.884900 0.000000
26.920900 0.000000
26.957000 0.000000
26.993000 0.000000
27.029000 0.000000
27.065100 0.000000
27.101100 0.000000
27.137200 0.000000
27.173200 0.000000
27.209200 0.000000
27.245300 0.000000
27.281300 0.000000
27.317400 0.000000
27.353400 0.000000
27.389500 0.000000
27.425500 0.000000
27.461500 0.000000
27.497600 0.000000
27.533600 0.000000
27.569700 0.000000
27.605700 0.000000
27.641700 0.000000
27.677800 0.000000
27.713800 0.000000
27.749900 0.000000
27.785900 0.000000
27.821900 0.000000
27.858000 0.000000
27.894000 0.000000
27.930100 0.000000
27.966100 0.000000
28.002100 0.000000
28.038200 0.000000
28.074200 0.000000
28.110300 0.000000
28.146300 0.000000
28.182400 0.000000
28.218400 0.000000
28.254400 0.000000
28.290500 0.000000
28.326500 0.000000
28.362600 0.000000
28.398600 0.000000
28.434600 0.000000
28.470700 0.000000
28.506700 0.000000
28.542800 0.000000
28.578800 0.000000
28.614800 0.000000
28.650900 0.000000
28.686900 0.000000
28.723000 0.000000
28.759000 0.000000
28.795000 0.000000
28.831100 0.000000
28.867100 0.000000
28.903200 0.000000
28.939200 0.000000
28.975300 0.000000
29.011300 0.000000
29.047300 0.000000
29.083400 0.000000
29.119400 0.000000
29.155500 0.000000
29.191500 0.000000
29.227500 0.000000
29.263600 0.000000
29.299600 0.000000
29.335700 0.000000
29.371700 0.000000
29.407700 0.000000
29.443800 0.000000
29.479800 0.000000
29.515900 0.000000
29.551900 0.000000
29.587900 0.000000
29.624000 0.000000
29.660000 0.000000
29.696100 0.000000
29.732100 0.000000
29.768200 0.000000
29.804200 0.000000
29.840200 0.000000
29.876300 0.000000
29.912300 0.000000
e
