set title 'mp-995181 - Density of States'
set xlabel 'Energy (eV)'
set ylabel 'DOS (states/eV)'
set grid
set xrange [-10:10]
set yrange [0:8.609]
set xzeroaxis lt -1
set terminal png size 800,600
set output 'mp-995181_dos_gnuplot.png'
plot '-' using 1:2 with lines title 'DOS'
-27.433400 0.000000
-27.409800 0.000000
-27.386200 0.000000
-27.362500 0.000000
-27.338900 0.000000
-27.315300 0.000000
-27.291700 0.000000
-27.268000 0.000000
-27.244400 0.000000
-27.220800 0.000000
-27.197200 0.000000
-27.173500 0.000000
-27.149900 0.000000
-27.126300 0.000000
-27.102700 0.000000
-27.079000 0.000000
-27.055400 0.000000
-27.031800 0.000000
-27.008200 0.000000
-26.984500 0.000000
-26.960900 0.000000
-26.937300 0.000000
-26.913700 0.000000
-26.890000 0.000000
-26.866400 0.000000
-26.842800 0.000000
-26.819200 0.000000
-26.795500 0.000000
-26.771900 0.000000
-26.748300 0.000000
-26.724700 0.000000
-26.701000 0.000000
-26.677400 0.000000
-26.653800 0.000000
-26.630200 0.000000
-26.606500 0.000000
-26.582900 0.000000
-26.559300 0.000000
-26.535700 0.000000
-26.512000 0.000000
-26.488400 0.000000
-26.464800 0.000000
-26.441200 0.000000
-26.417500 0.000000
-26.393900 0.000000
-26.370300 0.000000
-26.346700 0.000000
-26.323000 0.000000
-26.299400 0.000000
-26.275800 0.000000
-26.252200 0.000000
-26.228500 0.000000
-26.204900 0.000000
-26.181300 0.000000
-26.157700 0.000000
-26.134000 0.000000
-26.110400 0.000000
-26.086800 0.000000
-26.063200 0.000000
-26.039500 0.000000
-26.015900 0.000000
-25.992300 0.000000
-25.968700 0.000000
-25.945000 0.000000
-25.921400 0.000000
-25.897800 0.000000
-25.874200 0.000000
-25.850500 0.000000
-25.826900 0.000000
-25.803300 0.000000
-25.779700 0.000000
-25.756000 0.000000
-25.732400 0.000000
-25.708800 0.000000
-25.685200 0.000000
-25.661500 0.000000
-25.637900 0.000000
-25.614300 0.000000
-25.590700 0.000000
-25.567000 0.000000
-25.543400 0.000000
-25.519800 0.000000
-25.496200 0.000000
-25.472500 0.000000
-25.448900 0.000000
-25.425300 0.000000
-25.401700 0.000000
-25.378000 0.000000
-25.354400 0.000000
-25.330800 0.000000
-25.307200 0.000000
-25.283500 460.124600
-25.259900 0.000000
-25.236300 0.000000
-25.212700 0.000000
-25.189000 0.000000
-25.165400 0.000000
-25.141800 0.000000
-25.118200 0.000000
-25.094500 0.000000
-25.070900 0.000000
-25.047300 0.000000
-25.023700 0.000000
-25.000000 0.000000
-24.976400 0.000000
-24.952800 0.000000
-24.929200 0.000000
-24.905500 0.000000
-24.881900 0.000000
-24.858300 0.000000
-24.834700 0.000000
-24.811000 0.000000
-24.787400 0.000000
-24.763800 0.000000
-24.740200 0.000000
-24.716500 0.000000
-24.692900 0.000000
-24.669300 0.000000
-24.645700 0.000000
-24.622000 0.000000
-24.598400 0.000000
-24.574800 0.000000
-24.551200 0.000000
-24.527500 0.000000
-24.503900 0.000000
-24.480300 0.000000
-24.456700 0.000000
-24.433000 0.000000
-24.409400 0.000000
-24.385800 0.000000
-24.362200 0.000000
-24.338500 0.000000
-24.314900 0.000000
-24.291300 0.000000
-24.267700 0.000000
-24.244000 0.000000
-24.220400 0.000000
-24.196800 0.000000
-24.173200 0.000000
-24.149500 0.000000
-24.125900 0.000000
-24.102300 0.000000
-24.078700 0.000000
-24.055000 0.000000
-24.031400 0.000000
-24.007800 0.000000
-23.984200 0.000000
-23.960500 0.000000
-23.936900 0.000000
-23.913300 0.000000
-23.889700 0.000000
-23.866000 0.000000
-23.842400 0.000000
-23.818800 0.000000
-23.795200 0.000000
-23.771500 0.000000
-23.747900 0.000000
-23.724300 0.000000
-23.700700 0.000000
-23.677000 0.000000
-23.653400 0.000000
-23.629800 0.000000
-23.606200 0.000000
-23.582500 0.000000
-23.558900 0.000000
-23.535300 0.000000
-23.511700 0.000000
-23.488000 0.000000
-23.464400 0.000000
-23.440800 0.000000
-23.417200 0.000000
-23.393500 0.000000
-23.369900 0.000000
-23.346300 0.000000
-23.322700 0.000000
-23.299000 0.000000
-23.275400 0.000000
-23.251800 0.000000
-23.228200 0.000000
-23.204500 0.000000
-23.180900 0.000000
-23.157300 0.000000
-23.133700 0.000000
-23.110000 25.999000
-23.086400 0.000000
-23.062800 491.561600
-23.039200 0.000000
-23.015500 0.000000
-22.991900 287.479600
-22.968300 0.000000
-22.944700 0.000000
-22.921000 0.000000
-22.897400 0.000000
-22.873800 0.000000
-22.850200 0.000000
-22.826500 0.000000
-22.802900 0.000000
-22.779300 0.000000
-22.755700 0.000000
-22.732000 0.000000
-22.708400 0.000000
-22.684800 0.000000
-22.661200 0.000000
-22.637500 0.000000
-22.613900 0.000000
-22.590300 0.000000
-22.566700 0.000000
-22.543000 0.000000
-22.519400 0.000000
-22.495800 0.000000
-22.472200 0.000000
-22.448500 0.000000
-22.424900 0.000000
-22.401300 0.000000
-22.377700 0.000000
-22.354000 0.000000
-22.330400 0.000000
-22.306800 0.000000
-22.283200 0.000000
-22.259500 0.000000
-22.235900 0.000000
-22.212300 0.000000
-22.188700 0.000000
-22.165000 0.000000
-22.141400 0.000000
-22.117800 0.000000
-22.094200 0.000000
-22.070500 0.000000
-22.046900 0.000000
-22.023300 0.000000
-21.999700 0.000000
-21.976000 0.000000
-21.952400 0.000000
-21.928800 0.000000
-21.905200 0.000000
-21.881500 0.000000
-21.857900 0.000000
-21.834300 0.000000
-21.810700 0.000000
-21.787000 0.000000
-21.763400 0.000000
-21.739800 0.000000
-21.716200 0.000000
-21.692500 0.000000
-21.668900 0.000000
-21.645300 0.000000
-21.621700 0.000000
-21.598000 0.000000
-21.574400 0.000000
-21.550800 0.000000
-21.527200 0.000000
-21.503500 0.000000
-21.479900 0.000000
-21.456300 0.000000
-21.432700 0.000000
-21.409000 0.000000
-21.385400 0.000000
-21.361800 0.000000
-21.338200 0.000000
-21.314500 0.000000
-21.290900 0.000000
-21.267300 0.000000
-21.243700 0.000000
-21.220000 0.000000
-21.196400 0.000000
-21.172800 0.000000
-21.149200 0.000000
-21.125500 0.000000
-21.101900 0.000000
-21.078300 0.000000
-21.054700 0.000000
-21.031000 0.000000
-21.007400 0.000000
-20.983800 0.000000
-20.960200 0.000000
-20.936500 0.000000
-20.912900 0.000000
-20.889300 0.000000
-20.865700 0.000000
-20.842000 0.000000
-20.818400 0.000000
-20.794800 0.000000
-20.771200 0.000000
-20.747500 0.000000
-20.723900 0.000000
-20.700300 0.000000
-20.676700 0.000000
-20.653000 0.000000
-20.629400 0.000000
-20.605800 0.000000
-20.582200 0.000000
-20.558500 0.000000
-20.534900 0.000000
-20.511300 0.000000
-20.487700 0.000000
-20.464000 0.000000
-20.440400 0.000000
-20.416800 0.000000
-20.393200 0.000000
-20.369500 0.000000
-20.345900 0.000000
-20.322300 0.000000
-20.298700 0.000000
-20.275000 0.000000
-20.251400 0.000000
-20.227800 0.000000
-20.204200 0.000000
-20.180500 0.000000
-20.156900 0.000000
-20.133300 0.000000
-20.109700 0.000000
-20.086000 0.000000
-20.062400 0.000000
-20.038800 0.000000
-20.015200 0.000000
-19.991500 0.000000
-19.967900 0.000000
-19.944300 0.000000
-19.920700 0.000000
-19.897000 0.000000
-19.873400 0.000000
-19.849800 0.000000
-19.826200 0.000000
-19.802500 0.000000
-19.778900 0.000000
-19.755300 0.000000
-19.731700 0.000000
-19.708000 0.000000
-19.684400 0.000000
-19.660800 0.000000
-19.637200 0.000000
-19.613500 0.000000
-19.589900 0.000000
-19.566300 0.000000
-19.542700 0.000000
-19.519000 0.000000
-19.495400 0.000000
-19.471800 0.000000
-19.448200 0.000000
-19.424500 0.000000
-19.400900 0.000000
-19.377300 0.000000
-19.353700 0.000000
-19.330000 0.000000
-19.306400 0.000000
-19.282800 0.000000
-19.259200 0.000000
-19.235500 0.000000
-19.211900 0.000000
-19.188300 0.000000
-19.164700 0.000000
-19.141000 0.000000
-19.117400 0.000000
-19.093800 0.000000
-19.070200 0.000000
-19.046500 0.000000
-19.022900 0.000000
-18.999300 0.000000
-18.975700 0.000000
-18.952000 0.000000
-18.928400 0.000000
-18.904800 0.000000
-18.881200 0.000000
-18.857500 0.000000
-18.833900 0.000000
-18.810300 0.000000
-18.786700 0.000000
-18.763000 0.000000
-18.739400 0.000000
-18.715800 0.000000
-18.692200 0.000000
-18.668500 0.000000
-18.644900 0.000000
-18.621300 0.000000
-18.597700 0.000000
-18.574000 0.000000
-18.550400 0.000000
-18.526800 0.000000
-18.503200 0.000000
-18.479500 0.000000
-18.455900 0.000000
-18.432300 0.000000
-18.408700 0.000000
-18.385000 0.000000
-18.361400 0.000000
-18.337800 0.000000
-18.314200 0.000000
-18.290500 0.000000
-18.266900 0.000000
-18.243300 0.000000
-18.219700 0.000000
-18.196000 0.000000
-18.172400 0.000000
-18.148800 0.000000
-18.125200 0.000000
-18.101500 0.000000
-18.077900 0.000000
-18.054300 0.000000
-18.030700 0.000000
-18.007000 0.000000
-17.983400 0.000000
-17.959800 0.000000
-17.936200 0.000000
-17.912500 0.000000
-17.888900 0.000000
-17.865300 0.000000
-17.841700 0.000000
-17.818000 0.000000
-17.794400 0.000000
-17.770800 0.000000
-17.747200 0.000000
-17.723500 0.000000
-17.699900 0.000000
-17.676300 0.000000
-17.652700 0.000000
-17.629000 0.000000
-17.605400 0.000000
-17.581800 0.000000
-17.558200 0.000000
-17.534500 0.000000
-17.510900 0.000000
-17.487300 0.000000
-17.463700 0.000000
-17.440000 0.000000
-17.416400 0.000000
-17.392800 0.000000
-17.369200 0.000000
-17.345500 0.000000
-17.321900 0.000000
-17.298300 0.000000
-17.274700 0.000000
-17.251000 0.000000
-17.227400 0.000000
-17.203800 0.000000
-17.180200 0.000000
-17.156500 0.000000
-17.132900 0.000000
-17.109300 0.000000
-17.085700 0.000000
-17.062000 0.000000
-17.038400 0.000000
-17.014800 0.000000
-16.991200 0.000000
-16.967500 0.000000
-16.943900 0.000000
-16.920300 0.000000
-16.896700 0.000000
-16.873000 0.000000
-16.849400 0.000000
-16.825800 0.000000
-16.802200 0.000000
-16.778500 0.000000
-16.754900 0.000000
-16.731300 0.000000
-16.707700 0.000000
-16.684000 0.000000
-16.660400 0.000000
-16.636800 0.000000
-16.613200 0.000000
-16.589500 0.000000
-16.565900 0.000000
-16.542300 0.000000
-16.518700 0.000000
-16.495000 0.000000
-16.471400 0.000000
-16.447800 0.000000
-16.424200 0.000000
-16.400500 0.000000
-16.376900 0.000000
-16.353300 0.000000
-16.329700 0.000000
-16.306000 0.000000
-16.282400 0.000000
-16.258800 0.000000
-16.235200 0.000000
-16.211500 0.000000
-16.187900 0.000000
-16.164300 0.000000
-16.140700 0.000000
-16.117000 0.000000
-16.093400 0.000000
-16.069800 0.000000
-16.046200 0.000000
-16.022500 0.000000
-15.998900 0.000000
-15.975300 0.000000
-15.951700 0.000000
-15.928000 0.000000
-15.904400 0.000000
-15.880800 0.000000
-15.857200 0.000000
-15.833500 0.000000
-15.809900 0.000000
-15.786300 0.000000
-15.762700 0.000000
-15.739000 0.000000
-15.715400 0.000000
-15.691800 0.000000
-15.668200 0.000000
-15.644500 0.000000
-15.620900 0.000000
-15.597300 0.000000
-15.573700 0.000000
-15.550000 0.000000
-15.526400 0.000000
-15.502800 0.000000
-15.479200 0.000000
-15.455500 0.000000
-15.431900 0.000000
-15.408300 0.000000
-15.384700 0.000000
-15.361000 0.000000
-15.337400 0.000000
-15.313800 0.000000
-15.290200 0.000000
-15.266500 0.000000
-15.242900 0.000000
-15.219300 0.000000
-15.195700 0.000000
-15.172000 0.000000
-15.148400 0.000000
-15.124800 0.000000
-15.101200 0.000000
-15.077500 0.000000
-15.053900 0.000000
-15.030300 0.000000
-15.006700 0.000000
-14.983000 0.000000
-14.959400 0.000000
-14.935800 0.000000
-14.912200 0.000000
-14.888500 0.000000
-14.864900 0.000000
-14.841300 0.000000
-14.817700 0.000000
-14.794000 0.000000
-14.770400 0.000000
-14.746800 0.000000
-14.723200 0.000000
-14.699500 0.000000
-14.675900 0.000000
-14.652300 0.000000
-14.628700 0.000000
-14.605000 0.000000
-14.581400 0.000000
-14.557800 0.000000
-14.534200 0.000000
-14.510500 0.000000
-14.486900 0.000000
-14.463300 0.000000
-14.439700 0.000000
-14.416000 0.000000
-14.392400 0.000000
-14.368800 0.000000
-14.345200 0.000000
-14.321500 0.000000
-14.297900 0.000000
-14.274300 0.000000
-14.250700 0.000000
-14.227000 0.000000
-14.203400 0.000000
-14.179800 0.000000
-14.156200 0.000000
-14.132500 0.000000
-14.108900 0.000000
-14.085300 0.000000
-14.061700 0.000000
-14.038000 0.000000
-14.014400 0.000000
-13.990800 0.000000
-13.967200 0.000000
-13.943500 0.000000
-13.919900 0.000000
-13.896300 0.000000
-13.872700 0.000000
-13.849000 0.000000
-13.825400 0.000000
-13.801800 0.000000
-13.778200 0.000000
-13.754500 0.000000
-13.730900 0.000000
-13.707300 0.000000
-13.683700 0.000000
-13.660000 0.000000
-13.636400 0.000000
-13.612800 0.000000
-13.589200 0.000000
-13.565500 0.000000
-13.541900 0.000000
-13.518300 0.000000
-13.494700 0.000000
-13.471000 0.000000
-13.447400 0.000000
-13.423800 0.000000
-13.400200 0.000000
-13.376500 0.000000
-13.352900 0.000000
-13.329300 0.000000
-13.305700 0.000000
-13.282000 0.000000
-13.258400 0.000000
-13.234800 0.000000
-13.211200 0.000000
-13.187500 0.000000
-13.163900 0.000000
-13.140300 0.000000
-13.116700 0.000000
-13.093000 0.000000
-13.069400 0.000000
-13.045800 0.000000
-13.022200 0.000000
-12.998500 0.000000
-12.974900 0.000000
-12.951300 0.000000
-12.927700 0.000000
-12.904000 0.000000
-12.880400 0.000000
-12.856800 0.000000
-12.833200 0.000000
-12.809500 0.000000
-12.785900 0.000000
-12.762300 0.000000
-12.738700 0.000000
-12.715000 0.000000
-12.691400 0.000000
-12.667800 0.000000
-12.644200 0.000000
-12.620500 0.000000
-12.596900 0.000000
-12.573300 0.000000
-12.549700 0.000000
-12.526000 0.000000
-12.502400 0.000000
-12.478800 0.000000
-12.455200 0.000000
-12.431500 0.000000
-12.407900 0.000000
-12.384300 0.000000
-12.360700 0.000000
-12.337000 0.000000
-12.313400 0.000000
-12.289800 0.000000
-12.266200 0.000000
-12.242500 0.000000
-12.218900 0.000000
-12.195300 0.000000
-12.171700 0.000000
-12.148000 0.000000
-12.124400 0.000000
-12.100800 0.000000
-12.077200 0.000000
-12.053500 0.000000
-12.029900 0.000000
-12.006300 0.000000
-11.982700 0.000000
-11.959000 0.000000
-11.935400 0.000000
-11.911800 0.000000
-11.888200 0.083000
-11.864500 0.240000
-11.840900 0.396900
-11.817300 0.553900
-11.793700 0.710900
-11.770000 0.867900
-11.746400 1.024900
-11.722800 1.181900
-11.699200 0.658200
-11.675500 0.672700
-11.651900 0.687200
-11.628300 0.701800
-11.604700 0.716300
-11.581000 0.730800
-11.557400 0.745300
-11.533800 0.759800
-11.510200 0.774300
-11.486500 0.788800
-11.462900 0.803400
-11.439300 0.817900
-11.415700 0.832400
-11.392000 0.846900
-11.368400 0.861400
-11.344800 0.875900
-11.321200 0.877200
-11.297500 0.865900
-11.273900 0.854600
-11.250300 0.843300
-11.226700 0.831900
-11.203000 0.820600
-11.179400 0.809300
-11.155800 0.798000
-11.132200 0.805700
-11.108500 0.815100
-11.084900 0.824400
-11.061300 0.833700
-11.037700 0.843000
-11.014000 0.852300
-10.990400 0.861600
-10.966800 0.870900
-10.943200 0.880200
-10.919500 0.889500
-10.895900 0.898800
-10.872300 0.908200
-10.848700 0.917500
-10.825000 0.926800
-10.801400 0.936100
-10.777800 0.945400
-10.754200 0.954700
-10.730500 0.964000
-10.706900 0.973300
-10.683300 0.982600
-10.659700 0.991900
-10.636000 0.994000
-10.612400 1.031400
-10.588800 1.068700
-10.565200 1.106000
-10.541500 1.143300
-10.517900 1.180700
-10.494300 1.218000
-10.470700 1.255300
-10.447000 1.292600
-10.423400 1.330000
-10.399800 1.367300
-10.376200 2.029300
-10.352500 1.931600
-10.328900 1.833900
-10.305300 1.736200
-10.281700 1.638600
-10.258000 1.540900
-10.234400 1.443200
-10.210800 1.345500
-10.187200 1.247900
-10.163500 1.150200
-10.139900 1.052500
-10.116300 0.954800
-10.092700 0.857200
-10.069000 0.759500
-10.045400 0.895000
-10.021800 1.049000
-9.998200 1.202900
-9.974500 1.356900
-9.950900 1.510800
-9.927300 1.664800
-9.903700 0.000000
-9.880000 0.000000
-9.856400 0.000000
-9.832800 0.000000
-9.809200 0.000000
-9.785500 0.000000
-9.761900 0.000000
-9.738300 0.000000
-9.714700 0.000000
-9.691000 0.000000
-9.667400 0.000000
-9.643800 0.000000
-9.620200 0.000000
-9.596500 0.000000
-9.572900 0.000000
-9.549300 0.000000
-9.525700 0.000000
-9.502000 0.000000
-9.478400 0.000000
-9.454800 0.000000
-9.431200 0.000000
-9.407500 0.000000
-9.383900 0.000000
-9.360300 0.000000
-9.336700 0.000000
-9.313000 0.000000
-9.289400 0.000000
-9.265800 0.000000
-9.242200 0.000000
-9.218500 0.000000
-9.194900 0.000000
-9.171300 0.000000
-9.147700 0.000000
-9.124000 0.000000
-9.100400 0.000000
-9.076800 0.000000
-9.053200 0.000000
-9.029500 0.000000
-9.005900 0.000000
-8.982300 0.000000
-8.958700 0.000000
-8.935000 0.000000
-8.911400 0.000000
-8.887800 0.000000
-8.864200 0.000000
-8.840500 0.000000
-8.816900 0.000000
-8.793300 0.000000
-8.769700 0.000000
-8.746000 0.000000
-8.722400 0.000000
-8.698800 0.000000
-8.675200 0.000000
-8.651500 0.000000
-8.627900 0.000000
-8.604300 0.000000
-8.580700 0.000000
-8.557000 0.000000
-8.533400 0.000000
-8.509800 0.000000
-8.486200 0.000000
-8.462500 2.856200
-8.438900 1.783700
-8.415300 0.711300
-8.391700 0.625200
-8.368000 0.701400
-8.344400 0.777600
-8.320800 0.853800
-8.297200 0.930000
-8.273500 1.006200
-8.249900 1.082400
-8.226300 1.158600
-8.202700 1.234800
-8.179000 1.310900
-8.155400 1.387100
-8.131800 1.463300
-8.108200 1.539500
-8.084500 1.615700
-8.060900 1.691900
-8.037300 1.004700
-8.013700 0.985400
-7.990000 0.966200
-7.966400 0.946900
-7.942800 0.927600
-7.919200 0.908400
-7.895500 0.889100
-7.871900 0.869800
-7.848300 0.850600
-7.824700 0.831300
-7.801000 0.812000
-7.777400 0.792800
-7.753800 0.773500
-7.730200 0.754200
-7.706500 0.734900
-7.682900 0.715700
-7.659300 0.696400
-7.635700 0.677100
-7.612000 0.657900
-7.588400 0.638600
-7.564800 0.536000
-7.541200 0.533000
-7.517500 0.530100
-7.493900 0.527100
-7.470300 0.524100
-7.446700 0.521100
-7.423000 0.518200
-7.399400 0.515200
-7.375800 0.512200
-7.352200 0.509300
-7.328500 0.506300
-7.304900 0.503300
-7.281300 0.500300
-7.257700 0.497400
-7.234000 0.494400
-7.210400 0.491400
-7.186800 0.488400
-7.163200 0.485500
-7.139500 0.482500
-7.115900 0.479500
-7.092300 0.476600
-7.068700 0.473600
-7.045000 0.470600
-7.021400 0.467600
-6.997800 0.464700
-6.974200 0.461700
-6.950500 0.458700
-6.926900 0.455700
-6.903300 0.452800
-6.879700 0.449800
-6.856000 0.446800
-6.832400 0.443900
-6.808800 0.440900
-6.785200 0.437900
-6.761500 0.434900
-6.737900 0.432000
-6.714300 0.429000
-6.690700 0.426000
-6.667000 0.423100
-6.643400 0.420200
-6.619800 0.417200
-6.596200 0.414300
-6.572500 0.411400
-6.548900 0.408500
-6.525300 0.405600
-6.501700 0.402700
-6.478000 0.399700
-6.454400 0.396800
-6.430800 0.393900
-6.407200 0.391000
-6.383500 0.388100
-6.359900 0.385200
-6.336300 0.382200
-6.312700 0.379300
-6.289000 0.376400
-6.265400 0.373500
-6.241800 0.370600
-6.218200 0.367800
-6.194500 0.365400
-6.170900 0.363000
-6.147300 0.360600
-6.123700 0.358200
-6.100000 0.355800
-6.076400 0.353400
-6.052800 0.351000
-6.029200 0.348600
-6.005500 0.346200
-5.981900 0.343900
-5.958300 0.341500
-5.934700 0.339100
-5.911000 0.336700
-5.887400 0.334300
-5.863800 0.331900
-5.840200 0.329500
-5.816500 0.327100
-5.792900 0.324700
-5.769300 0.322300
-5.745700 0.319900
-5.722000 0.317500
-5.698400 0.315100
-5.674800 0.312800
-5.651200 0.310400
-5.627500 0.308000
-5.603900 0.305600
-5.580300 0.303200
-5.556700 0.300800
-5.533000 0.298400
-5.509400 0.296000
-5.485800 0.293600
-5.462200 0.291200
-5.438500 0.288800
-5.414900 0.286400
-5.391300 0.284000
-5.367700 0.281700
-5.344000 0.784600
-5.320400 0.723900
-5.296800 0.663100
-5.273200 0.602300
-5.249500 0.541600
-5.225900 0.480800
-5.202300 0.420000
-5.178700 0.359300
-5.155000 0.298500
-5.131400 0.237700
-5.107800 0.177000
-5.084200 0.116200
-5.060500 0.055500
-5.036900 0.000000
-5.013300 0.000000
-4.989700 0.000000
-4.966000 0.000000
-4.942400 0.000000
-4.918800 0.000000
-4.895200 0.000000
-4.871500 0.000000
-4.847900 0.000000
-4.824300 0.000000
-4.800700 0.000000
-4.777000 0.000000
-4.753400 0.000000
-4.729800 0.000000
-4.706200 0.470500
-4.682500 0.486400
-4.658900 0.502300
-4.635300 0.518200
-4.611700 0.534100
-4.588000 0.550000
-4.564400 0.565900
-4.540800 0.581900
-4.517200 0.597800
-4.493500 0.613700
-4.469900 0.629600
-4.446300 0.645500
-4.422700 0.661400
-4.399000 0.677300
-4.375400 0.693300
-4.351800 0.709200
-4.328200 0.725100
-4.304500 0.741000
-4.280900 0.756900
-4.257300 0.772800
-4.233700 0.788700
-4.210000 0.804700
-4.186400 0.820600
-4.162800 0.836600
-4.139200 0.852600
-4.115500 0.868600
-4.091900 0.884600
-4.068300 0.900600
-4.044700 0.916600
-4.021000 0.932600
-3.997400 0.948600
-3.973800 0.964600
-3.950200 0.980600
-3.926500 1.221800
-3.902900 1.271600
-3.879300 1.321400
-3.855700 1.371200
-3.832000 1.420900
-3.808400 1.470700
-3.784800 1.520500
-3.761200 1.570300
-3.737500 1.620100
-3.713900 1.669900
-3.690300 1.719700
-3.666700 1.769500
-3.643000 1.819300
-3.619400 1.869100
-3.595800 1.918900
-3.572200 1.968700
-3.548500 2.018500
-3.524900 2.068300
-3.501300 2.118100
-3.477700 2.167900
-3.454000 3.422600
-3.430400 4.806100
-3.406800 4.064400
-3.383200 3.322800
-3.359500 2.381500
-3.335900 1.943000
-3.312300 0.190200
-3.288700 0.186700
-3.265000 0.183100
-3.241400 0.179500
-3.217800 0.175900
-3.194200 0.172400
-3.170500 0.168800
-3.146900 0.697300
-3.123300 1.247900
-3.099700 1.798400
-3.076000 2.348900
-3.052400 2.899400
-3.028800 3.449900
-3.005200 4.000400
-2.981500 5.815700
-2.957900 7.772400
-2.934300 4.063400
-2.910700 2.619200
-2.887000 2.546000
-2.863400 2.472700
-2.839800 2.399400
-2.816200 2.326200
-2.792500 2.252900
-2.768900 2.179700
-2.745300 2.106400
-2.721700 2.033100
-2.698000 1.959900
-2.674400 1.886600
-2.650800 1.813400
-2.627200 1.740100
-2.603500 1.666800
-2.579900 1.593600
-2.556300 1.520300
-2.532700 1.447100
-2.509000 1.373800
-2.485400 1.300500
-2.461800 1.227300
-2.438200 1.196800
-2.414500 1.217700
-2.390900 1.572800
-2.367300 1.564500
-2.343700 1.556200
-2.320000 1.547900
-2.296400 1.539500
-2.272800 1.531200
-2.249200 1.522900
-2.225500 0.354600
-2.201900 0.306100
-2.178300 0.257500
-2.154700 0.209000
-2.131000 0.160400
-2.107400 0.111900
-2.083800 0.063300
-2.060200 0.014800
-2.036500 0.000000
-2.012900 0.000000
-1.989300 0.000000
-1.965700 0.000000
-1.942000 0.000000
-1.918400 0.000000
-1.894800 0.000000
-1.871200 0.000000
-1.847500 0.000000
-1.823900 0.000000
-1.800300 0.000000
-1.776700 0.000000
-1.753000 0.000000
-1.729400 0.000000
-1.705800 0.000000
-1.682200 0.000000
-1.658500 0.000000
-1.634900 0.000000
-1.611300 0.000000
-1.587700 0.000000
-1.564000 0.000000
-1.540400 0.000000
-1.516800 0.000000
-1.493200 0.000000
-1.469500 0.000000
-1.445900 0.000000
-1.422300 0.003100
-1.398700 0.006600
-1.375000 0.010000
-1.351400 0.013500
-1.327800 0.016900
-1.304200 0.020400
-1.280500 0.023800
-1.256900 0.027300
-1.233300 3.212700
-1.209700 2.291900
-1.186000 1.371200
-1.162400 0.820600
-1.138800 1.010900
-1.115200 1.201300
-1.091500 1.391600
-1.067900 1.582000
-1.044300 1.772300
-1.020700 1.962700
-0.997000 2.153000
-0.973400 2.343400
-0.949800 1.419500
-0.926200 1.409400
-0.902500 1.399400
-0.878900 1.389400
-0.855300 1.379300
-0.831700 1.369300
-0.808000 1.359200
-0.784400 1.349200
-0.760800 1.339100
-0.737200 1.329100
-0.713500 1.319000
-0.689900 1.309000
-0.666300 1.299000
-0.642700 1.288900
-0.619000 1.278900
-0.595400 1.268800
-0.571800 1.258800
-0.548200 1.248700
-0.524500 1.238700
-0.500900 1.208300
-0.477300 1.190000
-0.453700 1.171700
-0.430000 1.153400
-0.406400 1.135100
-0.382800 1.116800
-0.359200 1.098500
-0.335500 1.080200
-0.311900 1.062000
-0.288300 1.142200
-0.264700 1.244200
-0.241000 1.346200
-0.217400 1.448300
-0.193800 1.550300
-0.170200 1.652300
-0.146500 2.204700
-0.122900 2.062100
-0.099300 1.919500
-0.075700 2.017200
-0.052000 1.905700
-0.028400 1.794200
-0.004800 1.682700
0.018800 1.571300
0.042500 1.459800
0.066100 1.348300
0.089700 1.236800
0.113300 1.125300
0.137000 1.013800
0.160600 0.902400
0.184200 0.790900
0.207800 0.679400
0.231500 0.644500
0.255100 0.675600
0.278700 0.706700
0.302300 0.737800
0.326000 0.811300
0.349600 0.949000
0.373200 1.086700
0.396800 1.224200
0.420500 1.361800
0.444100 2.576200
0.467700 5.182700
0.491300 2.276600
0.515000 2.214400
0.538600 2.152200
0.562200 2.089900
0.585800 2.027700
0.609500 1.965400
0.633100 1.903200
0.656700 1.840900
0.680300 1.778700
0.704000 1.716400
0.727600 1.654200
0.751200 1.591900
0.774800 1.529600
0.798500 1.467300
0.822100 1.405100
0.845700 1.342800
0.869300 1.280500
0.893000 1.218200
0.916600 1.329100
0.940200 1.535300
0.963800 1.728300
0.987500 1.900600
1.011100 2.073000
1.034700 0.523400
1.058300 0.517300
1.082000 0.511200
1.105600 0.505100
1.129200 0.499000
1.152800 0.492900
1.176500 0.486800
1.200100 0.480700
1.223700 0.474500
1.247300 0.468400
1.271000 0.462300
1.294600 0.456200
1.318200 0.450100
1.341800 0.444000
1.365500 0.437900
1.389100 0.431800
1.412700 0.425700
1.436300 0.419600
1.460000 0.413500
1.483600 0.407400
1.507200 0.401300
1.530800 0.395200
1.554500 0.389000
1.578100 0.382900
1.601700 0.376800
1.625300 0.370700
1.649000 0.364600
1.672600 0.537500
1.696200 1.001900
1.719800 1.469700
1.743500 1.939400
1.767100 2.410900
1.790700 3.403400
1.814300 3.691700
1.838000 2.174400
1.861600 1.026000
1.885200 1.029400
1.908800 1.032800
1.932500 1.036200
1.956100 1.039700
1.979700 1.043200
2.003300 1.046700
2.027000 1.050200
2.050600 1.053700
2.074200 1.057300
2.097800 1.060900
2.121500 1.064500
2.145100 1.068100
2.168700 1.071800
2.192300 1.075500
2.216000 1.079200
2.239600 1.082900
2.263200 1.086600
2.286800 1.090400
2.310500 1.095000
2.334100 1.107000
2.357700 1.127500
2.381300 1.156600
2.405000 1.194200
2.428600 1.083300
2.452200 1.160900
2.475800 1.257800
2.499500 1.374000
2.523100 1.739900
2.546700 1.819800
2.570300 1.899800
2.594000 1.979700
2.617600 2.059700
2.641200 2.139700
2.664800 2.219700
2.688500 2.299700
2.712100 2.433300
2.735700 2.951100
2.759300 3.552500
2.783000 4.009300
2.806600 4.224100
2.830200 4.575200
2.853800 4.941900
2.877500 5.320700
2.901100 5.720300
2.924700 3.572600
2.948300 4.542300
2.972000 4.028900
2.995600 2.545100
3.019200 1.905700
3.042800 2.115100
3.066500 2.334100
3.090100 2.538000
3.113700 2.713100
3.137300 2.832800
3.161000 2.887300
3.184600 3.150000
3.208200 3.486100
3.231800 3.431600
3.255500 3.385200
3.279100 3.346800
3.302700 3.146300
3.326300 2.897500
3.350000 5.055400
3.373600 3.175000
3.397200 3.124700
3.420800 3.080000
3.444500 3.038700
3.468100 3.000400
3.491700 2.965100
3.515300 2.932700
3.539000 2.903300
3.562600 2.876900
3.586200 2.853500
3.609800 2.832800
3.633500 2.813300
3.657100 2.794800
3.680700 2.777300
3.704300 2.766400
3.728000 2.785000
3.751600 2.817800
3.775200 2.849600
3.798800 2.884900
3.822500 2.944700
3.846100 3.001000
3.869700 3.092100
3.893300 3.322200
3.917000 3.583600
3.940600 3.751800
3.964200 3.834000
3.987800 3.908100
4.011500 3.974800
4.035100 4.048500
4.058700 3.995800
4.082300 3.813200
4.106000 3.641400
4.129600 3.578800
4.153200 5.397000
4.176800 5.442100
4.200500 4.950700
4.224100 3.388400
4.247700 2.642300
4.271300 2.339400
4.295000 2.354200
4.318600 2.418100
4.342200 2.622800
4.365800 2.963100
4.389500 1.456400
4.413100 1.570300
4.436700 1.667400
4.460300 1.748200
4.484000 1.813700
4.507600 1.864000
4.531200 1.906500
4.554800 1.984200
4.578500 2.054600
4.602100 2.123000
4.625700 2.189900
4.649300 2.255300
4.673000 2.319200
4.696600 2.381700
4.720200 2.442600
4.743800 2.502100
4.767500 2.560100
4.791100 2.616600
4.814700 3.351600
4.838300 3.683300
4.862000 3.917600
4.885600 3.279400
4.909200 3.101300
4.932800 2.936300
4.956500 2.868600
4.980100 2.836400
5.003700 2.865700
5.027300 2.930100
5.051000 3.077800
5.074600 3.539900
5.098200 3.801100
5.121800 4.003400
5.145500 4.147200
5.169100 4.232300
5.192700 4.177200
5.216300 3.699400
5.240000 3.466700
5.263600 3.235000
5.287200 3.001500
5.310800 2.766300
5.334500 2.529200
5.358100 2.115800
5.381700 1.772900
5.405300 1.432600
5.429000 1.095400
5.452600 0.761300
5.476200 0.430200
5.499800 3.428400
5.523500 2.311200
5.547100 2.236900
5.570700 2.069800
5.594300 2.904400
5.618000 4.133300
5.641600 5.088000
5.665200 5.586900
5.688800 5.749800
5.712500 5.710700
5.736100 5.531900
5.759700 5.213400
5.783300 4.755100
5.807000 4.125900
5.830600 3.392600
5.854200 3.093000
5.877800 2.806100
5.901500 2.532100
5.925100 2.270700
5.948700 2.022100
5.972300 1.988900
5.996000 1.864300
6.019600 1.753900
6.043200 1.657900
6.066800 1.576200
6.090500 1.514800
6.114100 1.490000
6.137700 1.502600
6.161300 1.552700
6.185000 1.666100
6.208600 1.882400
6.232200 2.055200
6.255800 2.518900
6.279500 3.080400
6.303100 3.701100
6.326700 4.198400
6.350300 4.540200
6.374000 4.638600
6.397600 4.702400
6.421200 4.752700
6.444800 4.789400
6.468500 4.812500
6.492100 5.128300
6.515700 4.914900
6.539300 4.686900
6.563000 4.490000
6.586600 4.324200
6.610200 3.883900
6.633800 3.869700
6.657500 3.947800
6.681100 4.118300
6.704700 4.461600
6.728300 5.150500
6.752000 6.098700
6.775600 7.455500
6.799200 5.790800
6.822800 5.773500
6.846500 5.733400
6.870100 5.622300
6.893700 5.544000
6.917300 5.324100
6.941000 4.972100
6.964600 4.645700
6.988200 4.338400
7.011800 4.050300
7.035500 3.781300
7.059100 3.533900
7.082700 3.439200
7.106300 3.435200
7.130000 3.440600
7.153600 3.455000
7.177200 3.751500
7.200800 3.880800
7.224500 4.028100
7.248100 4.939700
7.271700 7.826600
7.295300 5.587700
7.319000 5.508000
7.342600 5.634400
7.366200 5.046400
7.389800 4.636200
7.413500 4.507200
7.437100 4.473600
7.460700 4.167600
7.484300 4.101900
7.508000 4.053500
7.531600 4.022000
7.555200 4.109000
7.578800 4.360200
7.602500 4.578800
7.626100 4.764300
7.649700 4.916800
7.673300 5.036300
7.697000 5.122700
7.720600 5.176100
7.744200 3.725900
7.767800 3.391900
7.791500 3.022500
7.815100 2.560700
7.838700 2.468800
7.862300 2.513000
7.886000 2.616900
7.909600 2.772600
7.933200 2.911100
7.956800 3.036800
7.980500 3.149600
8.004100 3.249600
8.027700 3.336700
8.051300 3.422000
8.075000 3.517000
8.098600 3.592400
8.122200 3.659600
8.145800 3.724100
8.169500 3.790900
8.193100 3.860900
8.216700 3.930400
8.240300 3.993700
8.264000 4.023100
8.287600 4.056500
8.311200 4.094000
8.334800 4.135600
8.358500 4.181300
8.382100 4.231000
8.405700 4.281100
8.429300 4.322900
8.453000 4.334300
8.476600 4.345700
8.500200 4.364500
8.523800 4.449100
8.547500 4.803100
8.571100 5.109700
8.594700 5.269500
8.618300 5.273800
8.642000 5.042600
8.665600 4.497700
8.689200 4.284200
8.712800 4.112300
8.736500 3.992500
8.760100 3.837600
8.783700 3.812100
8.807300 3.854400
8.831000 3.926400
8.854600 4.050700
8.878200 4.194300
8.901800 4.345600
8.925500 4.506500
8.949100 4.778800
8.972700 4.959400
8.996300 5.126600
9.020000 5.301100
9.043600 5.459100
9.067200 5.588400
9.090800 6.181000
9.114500 6.358900
9.138100 6.242600
9.161700 5.783400
9.185300 5.381900
9.209000 5.252100
9.232600 5.224500
9.256200 4.844600
9.279800 5.315900
9.303500 5.701200
9.327100 5.988800
9.350700 6.336500
9.374300 6.308000
9.398000 5.943500
9.421600 5.398300
9.445200 5.053400
9.468800 4.798800
9.492500 4.521200
9.516100 4.335700
9.539700 4.181900
9.563300 4.059700
9.587000 3.969100
9.610600 3.910200
9.634200 3.882900
9.657800 3.887300
9.681500 3.923300
9.705100 3.988300
9.728700 4.059700
9.752300 4.187400
9.776000 4.392500
9.799600 4.743600
9.823200 5.381500
9.846800 5.105200
9.870500 4.763900
9.894100 4.434900
9.917700 4.117900
9.941300 3.808700
9.965000 3.500500
9.988600 3.241900
10.012200 3.239300
10.035800 3.264900
10.059500 3.300400
10.083100 3.180000
10.106700 3.033800
10.130300 3.095000
10.154000 3.158500
10.177600 3.226700
10.201200 3.301500
10.224800 3.358900
10.248500 3.477500
10.272100 3.604100
10.295700 3.741800
10.319300 3.935500
10.343000 4.579200
10.366600 4.894600
10.390200 5.507300
10.413800 6.102200
10.437500 6.724100
10.461100 6.980100
10.484700 6.976700
10.508300 6.656000
10.532000 6.029300
10.555600 5.496600
10.579200 4.862400
10.602800 4.821300
10.626500 4.985500
10.650100 5.156900
10.673700 5.341000
10.697300 5.689100
10.721000 6.091600
10.744600 6.019000
10.768200 5.514300
10.791800 5.439800
10.815500 5.403700
10.839100 5.234900
10.862700 5.162100
10.886300 5.214900
10.910000 5.288300
10.933600 5.378700
10.957200 5.391900
10.980800 5.134600
11.004500 4.801800
11.028100 4.645700
11.051700 5.226100
11.075300 5.389400
11.099000 5.458400
11.122600 5.451800
11.146200 4.373400
11.169800 4.152400
11.193500 3.944300
11.217100 3.724600
11.240700 3.438300
11.264300 3.242900
11.288000 3.186100
11.311600 3.228700
11.335200 3.291200
11.358800 3.371300
11.382500 3.469100
11.406100 3.607200
11.429700 3.727600
11.453300 3.867000
11.477000 4.026200
11.500600 4.229100
11.524200 4.521800
11.547800 4.883600
11.571500 5.315600
11.595100 5.825300
11.618700 6.564000
11.642300 7.024600
11.666000 6.980700
11.689600 6.397500
11.713200 5.323400
11.736800 4.675200
11.760500 4.478600
11.784100 4.439600
11.807700 4.521600
11.831300 4.817400
11.855000 5.313300
11.878600 5.965800
11.902200 6.744600
11.925800 7.902200
11.949500 8.623400
11.973100 8.250500
11.996700 7.636100
12.020300 6.811300
12.044000 6.637100
12.067600 6.498400
12.091200 6.351900
12.114800 6.244400
12.138500 6.089600
12.162100 5.920700
12.185700 5.737800
12.209300 5.547800
12.233000 5.361400
12.256600 4.999500
12.280200 4.724700
12.303800 4.434900
12.327500 4.181400
12.351100 3.964100
12.374700 3.789500
12.398300 3.827300
12.422000 3.804600
12.445600 3.823200
12.469200 3.857100
12.492800 3.939900
12.516500 4.035300
12.540100 4.119700
12.563700 4.193200
12.587300 4.255900
12.611000 4.224500
12.634600 4.190000
12.658200 4.310300
12.681800 4.088900
12.705500 3.796800
12.729100 3.670300
12.752700 4.245400
12.776300 4.355000
12.800000 3.750700
12.823600 3.519900
12.847200 3.532700
12.870800 3.566600
12.894500 3.616100
12.918100 3.682700
12.941700 3.766300
12.965300 3.851700
12.989000 3.951900
13.012600 4.106700
13.036200 4.373500
13.059800 4.643800
13.083500 4.814200
13.107100 4.922000
13.130700 4.986700
13.154300 5.060500
13.178000 5.114900
13.201600 5.225300
13.225200 5.322800
13.248800 5.419800
13.272500 5.508500
13.296100 5.560800
13.319700 5.610700
13.343300 5.725400
13.367000 5.868800
13.390600 6.003600
13.414200 6.014800
13.437800 6.489100
13.461500 6.780100
13.485100 6.580900
13.508700 5.857200
13.532300 5.669300
13.556000 5.383300
13.579600 4.527300
13.603200 4.701300
13.626800 4.895200
13.650500 5.105300
13.674100 5.360900
13.697700 5.616700
13.721300 5.869800
13.745000 6.120100
13.768600 6.494000
13.792200 6.699600
13.815800 6.809400
13.839500 7.110700
13.863100 6.978200
13.886700 6.787200
13.910300 6.562100
13.934000 6.287500
13.957600 6.140000
13.981200 5.922000
14.004800 5.782400
14.028500 5.834100
14.052100 5.969600
14.075700 6.293700
14.099300 6.482600
14.123000 6.844100
14.146600 6.714800
14.170200 6.537700
14.193800 6.362300
14.217500 6.527200
14.241100 6.299900
14.264700 6.557200
14.288300 6.777000
14.312000 6.904900
14.335600 6.996400
14.359200 7.119200
14.382800 7.134600
14.406500 7.109600
14.430100 7.027200
14.453700 6.650900
14.477300 6.427700
14.501000 6.174400
14.524600 5.832700
14.548200 5.444100
14.571800 5.392800
14.595500 5.275400
14.619100 5.164100
14.642700 5.082500
14.666300 5.054900
14.690000 5.087100
14.713600 5.157800
14.737200 4.980200
14.760800 5.099300
14.784500 5.237600
14.808100 5.391500
14.831700 5.504500
14.855300 5.605400
14.879000 5.766900
14.902600 5.964800
14.926200 6.233300
14.949800 6.557500
14.973500 6.979700
14.997100 7.537300
15.020700 7.430000
15.044300 6.870000
15.068000 6.509300
15.091600 6.557300
15.115200 6.233500
15.138800 6.014300
15.162500 5.896600
15.186100 5.909200
15.209700 6.214500
15.233300 6.283800
15.257000 6.356000
15.280600 6.419600
15.304200 6.552300
15.327800 6.548500
15.351500 6.580700
15.375100 6.575700
15.398700 6.434400
15.422300 6.242000
15.446000 6.027800
15.469600 5.791800
15.493200 5.540600
15.516800 5.295300
15.540500 5.251300
15.564100 5.418300
15.587700 7.245200
15.611300 7.281000
15.635000 6.791300
15.658600 6.191600
15.682200 5.906800
15.705800 5.697800
15.729500 5.553700
15.753100 5.422500
15.776700 5.304200
15.800300 5.197600
15.824000 5.102000
15.847600 5.014700
15.871200 4.803500
15.894800 4.677600
15.918500 4.595300
15.942100 4.519400
15.965700 4.451700
15.989300 4.392100
16.013000 4.340700
16.036600 4.343100
16.060200 4.337700
16.083800 4.296300
16.107500 4.369300
16.131100 4.320100
16.154700 4.240000
16.178300 4.131800
16.202000 4.051400
16.225600 4.012100
16.249200 3.967700
16.272800 3.918500
16.296500 3.625300
16.320100 3.583600
16.343700 3.560000
16.367300 3.533000
16.391000 3.502700
16.414600 3.469000
16.438200 3.050900
16.461800 2.879400
16.485500 2.738000
16.509100 3.574100
16.532700 3.495100
16.556300 3.233600
16.580000 2.789400
16.603600 2.359800
16.627200 2.149600
16.650800 1.963600
16.674500 1.813700
16.698100 1.684200
16.721700 1.584100
16.745300 1.539800
16.769000 1.407300
16.792600 1.191600
16.816200 1.006400
16.839800 0.851600
16.863500 0.727300
16.887100 0.633400
16.910700 0.577600
16.934300 0.551600
16.958000 0.526200
16.981600 0.501300
17.005200 0.476900
17.028800 0.453000
17.052500 0.429700
17.076100 0.406800
17.099700 0.384400
17.123300 0.362600
17.147000 0.341300
17.170600 0.320500
17.194200 0.300100
17.217800 0.280300
17.241500 0.261000
17.265100 0.242300
17.288700 0.224000
17.312300 0.206200
17.336000 0.189000
17.359600 0.172200
17.383200 0.156000
17.406800 0.140300
17.430500 0.125000
17.454100 0.110300
17.477700 0.096100
17.501300 0.082500
17.525000 0.069300
17.548600 0.056600
17.572200 0.044400
17.595800 0.032800
17.619500 0.021700
17.643100 0.011000
17.666700 0.000900
17.690300 0.000000
17.714000 0.000000
17.737600 0.000000
17.761200 0.000000
17.784800 0.000000
17.808500 0.000000
17.832100 0.000000
17.855700 0.000000
17.879300 0.000000
17.903000 0.000000
17.926600 0.000000
17.950200 0.000000
17.973800 0.000000
17.997500 0.000000
18.021100 0.000000
18.044700 0.000000
18.068300 0.000000
18.092000 0.000000
18.115600 0.000000
18.139200 0.000000
18.162800 0.000000
18.186500 0.000000
18.210100 0.000000
18.233700 0.000000
18.257300 0.000000
18.281000 0.000000
18.304600 0.000000
18.328200 0.000000
18.351800 0.000000
18.375500 0.000000
18.399100 0.000000
18.422700 0.000000
18.446300 0.000000
18.470000 0.000000
18.493600 0.000000
18.517200 0.000000
18.540800 0.000000
18.564500 0.000000
18.588100 0.000000
18.611700 0.000000
18.635300 0.000000
18.659000 0.000000
18.682600 0.000000
18.706200 0.000000
18.729800 0.000000
18.753500 0.000000
18.777100 0.000000
18.800700 0.000000
18.824300 0.000000
18.848000 0.000000
18.871600 0.000000
18.895200 0.000000
18.918800 0.000000
18.942500 0.000000
18.966100 0.000000
18.989700 0.000000
19.013300 0.000000
19.037000 0.000000
19.060600 0.000000
19.084200 0.000000
19.107800 0.000000
19.131500 0.000000
19.155100 0.000000
19.178700 0.000000
19.202300 0.000000
19.226000 0.000000
19.249600 0.000000
19.273200 0.000000
19.296800 0.000000
19.320500 0.000000
19.344100 0.000000
19.367700 0.000000
19.391300 0.000000
19.415000 0.000000
19.438600 0.000000
19.462200 0.000000
19.485800 0.000000
19.509500 0.000000
19.533100 0.000000
19.556700 0.000000
19.580300 0.000000
19.604000 0.000000
19.627600 0.000000
19.651200 0.000000
19.674800 0.000000
19.698500 0.000000
19.722100 0.000000
19.745700 0.000000
19.769300 0.000000
19.793000 0.000000
19.816600 0.000000
e
