set title 'mp-1025067 - Density of States'
set xlabel 'Energy (eV)'
set ylabel 'DOS (states/eV)'
set grid
set xrange [-10:10]
set yrange [0:8.121]
set xzeroaxis lt -1
set terminal png size 800,600
set output 'mp-1025067_dos_gnuplot.png'
plot '-' using 1:2 with lines title 'DOS'
-39.596400 0.000000
-39.559500 0.000000
-39.522500 0.000000
-39.485500 0.000000
-39.448600 0.000000
-39.411600 0.000000
-39.374600 0.000000
-39.337700 0.000000
-39.300700 0.000000
-39.263700 0.000000
-39.226800 0.000000
-39.189800 0.000000
-39.152800 0.000000
-39.115900 0.000000
-39.078900 0.000000
-39.041900 0.000000
-39.005000 0.000000
-38.968000 0.000000
-38.931000 0.000000
-38.894100 0.000000
-38.857100 0.000000
-38.820200 0.000000
-38.783200 0.000000
-38.746200 0.000000
-38.709300 0.000000
-38.672300 0.000000
-38.635300 0.000000
-38.598400 0.000000
-38.561400 0.000000
-38.524400 0.000000
-38.487500 0.000000
-38.450500 0.000000
-38.413500 0.000000
-38.376600 0.000000
-38.339600 0.000000
-38.302600 0.000000
-38.265700 0.000000
-38.228700 0.000000
-38.191700 0.000000
-38.154800 0.000000
-38.117800 0.000000
-38.080800 0.000000
-38.043900 0.000000
-38.006900 0.000000
-37.969900 0.000000
-37.933000 0.000000
-37.896000 0.000000
-37.859100 0.000000
-37.822100 0.000000
-37.785100 0.000000
-37.748200 0.000000
-37.711200 0.000000
-37.674200 0.000000
-37.637300 0.000000
-37.600300 0.000000
-37.563300 0.000000
-37.526400 0.000000
-37.489400 0.000000
-37.452400 0.000000
-37.415500 0.000000
-37.378500 0.000000
-37.341500 0.000000
-37.304600 0.000000
-37.267600 0.000000
-37.230600 0.000000
-37.193700 0.000000
-37.156700 0.000000
-37.119700 0.000000
-37.082800 0.000000
-37.045800 0.000000
-37.008800 0.000000
-36.971900 0.000000
-36.934900 0.000000
-36.898000 0.000000
-36.861000 0.000000
-36.824000 0.000000
-36.787100 0.000000
-36.750100 0.000000
-36.713100 0.000000
-36.676200 0.000000
-36.639200 0.000000
-36.602200 0.000000
-36.565300 0.000000
-36.528300 0.000000
-36.491300 0.000000
-36.454400 0.000000
-36.417400 0.000000
-36.380400 0.000000
-36.343500 0.000000
-36.306500 0.000000
-36.269500 0.000000
-36.232600 34.602800
-36.195600 27.755700
-36.158600 19.772300
-36.121700 23.749800
-36.084700 16.256500
-36.047700 0.000000
-36.010800 0.000000
-35.973800 96.725700
-35.936900 0.000000
-35.899900 0.000000
-35.862900 0.000000
-35.826000 0.000000
-35.789000 0.000000
-35.752000 0.000000
-35.715100 0.000000
-35.678100 0.000000
-35.641100 0.000000
-35.604200 0.000000
-35.567200 0.000000
-35.530200 0.000000
-35.493300 0.000000
-35.456300 0.000000
-35.419300 0.000000
-35.382400 0.000000
-35.345400 0.000000
-35.308400 0.000000
-35.271500 0.000000
-35.234500 0.000000
-35.197500 0.000000
-35.160600 0.000000
-35.123600 0.000000
-35.086600 0.000000
-35.049700 0.000000
-35.012700 0.000000
-34.975700 0.000000
-34.938800 0.000000
-34.901800 0.000000
-34.864900 0.000000
-34.827900 0.000000
-34.790900 0.000000
-34.754000 0.000000
-34.717000 0.000000
-34.680000 0.000000
-34.643100 0.000000
-34.606100 0.000000
-34.569100 0.000000
-34.532200 0.000000
-34.495200 0.000000
-34.458200 0.000000
-34.421300 0.000000
-34.384300 0.000000
-34.347300 0.000000
-34.310400 0.000000
-34.273400 0.000000
-34.236400 0.000000
-34.199500 0.000000
-34.162500 0.000000
-34.125500 0.000000
-34.088600 0.000000
-34.051600 0.000000
-34.014600 0.000000
-33.977700 0.000000
-33.940700 0.000000
-33.903800 0.000000
-33.866800 0.000000
-33.829800 0.000000
-33.792900 0.000000
-33.755900 0.000000
-33.718900 0.000000
-33.682000 0.000000
-33.645000 0.000000
-33.608000 0.000000
-33.571100 0.000000
-33.534100 0.000000
-33.497100 0.000000
-33.460200 0.000000
-33.423200 0.000000
-33.386200 0.000000
-33.349300 0.000000
-33.312300 0.000000
-33.275300 0.000000
-33.238400 0.000000
-33.201400 0.000000
-33.164400 0.000000
-33.127500 0.000000
-33.090500 0.000000
-33.053500 0.000000
-33.016600 0.000000
-32.979600 0.000000
-32.942700 0.000000
-32.905700 0.000000
-32.868700 0.000000
-32.831800 0.000000
-32.794800 0.000000
-32.757800 0.000000
-32.720900 0.000000
-32.683900 0.000000
-32.646900 0.000000
-32.610000 0.000000
-32.573000 0.000000
-32.536000 0.000000
-32.499100 0.000000
-32.462100 0.000000
-32.425100 0.000000
-32.388200 0.000000
-32.351200 0.000000
-32.314200 0.000000
-32.277300 0.000000
-32.240300 0.000000
-32.203300 0.000000
-32.166400 0.000000
-32.129400 0.000000
-32.092400 0.000000
-32.055500 0.000000
-32.018500 0.000000
-31.981600 0.000000
-31.944600 0.000000
-31.907600 0.000000
-31.870700 0.000000
-31.833700 0.000000
-31.796700 0.000000
-31.759800 0.000000
-31.722800 0.000000
-31.685800 0.000000
-31.648900 0.000000
-31.611900 0.000000
-31.574900 0.000000
-31.538000 0.000000
-31.501000 0.000000
-31.464000 0.000000
-31.427100 0.000000
-31.390100 0.000000
-31.353100 0.000000
-31.316200 0.000000
-31.279200 0.000000
-31.242200 0.000000
-31.205300 0.000000
-31.168300 0.000000
-31.131300 0.000000
-31.094400 0.000000
-31.057400 0.000000
-31.020400 0.000000
-30.983500 0.000000
-30.946500 0.000000
-30.909600 0.000000
-30.872600 0.000000
-30.835600 0.000000
-30.798700 0.000000
-30.761700 0.000000
-30.724700 0.000000
-30.687800 0.000000
-30.650800 0.000000
-30.613800 0.000000
-30.576900 0.000000
-30.539900 0.000000
-30.502900 0.000000
-30.466000 0.000000
-30.429000 0.000000
-30.392000 0.000000
-30.355100 0.000000
-30.318100 0.000000
-30.281100 0.000000
-30.244200 0.000000
-30.207200 0.000000
-30.170200 0.000000
-30.133300 0.000000
-30.096300 0.000000
-30.059300 0.000000
-30.022400 0.000000
-29.985400 0.000000
-29.948500 0.000000
-29.911500 0.000000
-29.874500 0.000000
-29.837600 0.000000
-29.800600 0.000000
-29.763600 0.000000
-29.726700 0.000000
-29.689700 0.000000
-29.652700 0.000000
-29.615800 0.000000
-29.578800 0.000000
-29.541800 0.000000
-29.504900 0.000000
-29.467900 0.000000
-29.430900 0.000000
-29.394000 0.000000
-29.357000 0.000000
-29.320000 0.000000
-29.283100 0.000000
-29.246100 0.000000
-29.209100 0.000000
-29.172200 0.000000
-29.135200 0.000000
-29.098200 0.000000
-29.061300 0.000000
-29.024300 0.000000
-28.987400 0.000000
-28.950400 0.000000
-28.913400 0.000000
-28.876500 0.000000
-28.839500 0.000000
-28.802500 0.000000
-28.765600 0.000000
-28.728600 0.000000
-28.691600 0.000000
-28.654700 0.000000
-28.617700 0.000000
-28.580700 0.000000
-28.543800 0.000000
-28.506800 0.000000
-28.469800 0.000000
-28.432900 0.000000
-28.395900 0.000000
-28.358900 0.000000
-28.322000 0.000000
-28.285000 0.000000
-28.248000 0.000000
-28.211100 0.000000
-28.174100 0.000000
-28.137100 0.000000
-28.100200 0.000000
-28.063200 0.000000
-28.026300 0.000000
-27.989300 0.000000
-27.952300 0.000000
-27.915400 0.000000
-27.878400 0.000000
-27.841400 0.000000
-27.804500 0.000000
-27.767500 0.000000
-27.730500 0.000000
-27.693600 0.000000
-27.656600 0.000000
-27.619600 0.000000
-27.582700 0.000000
-27.545700 0.000000
-27.508700 0.000000
-27.471800 0.000000
-27.434800 0.000000
-27.397800 0.000000
-27.360900 0.000000
-27.323900 0.000000
-27.286900 0.000000
-27.250000 0.000000
-27.213000 0.000000
-27.176000 0.000000
-27.139100 0.000000
-27.102100 0.000000
-27.065100 0.000000
-27.028200 0.000000
-26.991200 0.000000
-26.954300 0.000000
-26.917300 0.000000
-26.880300 0.000000
-26.843400 0.000000
-26.806400 0.000000
-26.769400 0.000000
-26.732500 0.000000
-26.695500 0.000000
-26.658500 0.000000
-26.621600 0.000000
-26.584600 0.000000
-26.547600 0.000000
-26.510700 0.000000
-26.473700 0.000000
-26.436700 0.000000
-26.399800 0.000000
-26.362800 0.000000
-26.325800 0.000000
-26.288900 0.000000
-26.251900 0.000000
-26.214900 0.000000
-26.178000 0.000000
-26.141000 0.000000
-26.104000 0.000000
-26.067100 0.000000
-26.030100 0.000000
-25.993200 0.000000
-25.956200 0.000000
-25.919200 0.000000
-25.882300 0.000000
-25.845300 0.000000
-25.808300 0.000000
-25.771400 0.000000
-25.734400 0.000000
-25.697400 0.000000
-25.660500 0.000000
-25.623500 0.000000
-25.586500 0.000000
-25.549600 0.000000
-25.512600 0.000000
-25.475600 0.000000
-25.438700 0.000000
-25.401700 0.000000
-25.364700 0.000000
-25.327800 0.000000
-25.290800 0.000000
-25.253800 0.000000
-25.216900 0.000000
-25.179900 0.000000
-25.142900 0.000000
-25.106000 0.000000
-25.069000 0.000000
-25.032100 0.000000
-24.995100 0.000000
-24.958100 0.000000
-24.921200 0.000000
-24.884200 0.000000
-24.847200 0.000000
-24.810300 0.000000
-24.773300 0.000000
-24.736300 0.000000
-24.699400 0.000000
-24.662400 0.000000
-24.625400 0.000000
-24.588500 0.000000
-24.551500 0.000000
-24.514500 0.000000
-24.477600 0.000000
-24.440600 0.000000
-24.403600 0.000000
-24.366700 0.000000
-24.329700 0.000000
-24.292700 0.000000
-24.255800 0.000000
-24.218800 0.000000
-24.181800 0.000000
-24.144900 0.000000
-24.107900 0.000000
-24.071000 0.000000
-24.034000 0.000000
-23.997000 0.000000
-23.960100 0.000000
-23.923100 0.000000
-23.886100 0.000000
-23.849200 0.000000
-23.812200 0.000000
-23.775200 0.000000
-23.738300 0.000000
-23.701300 0.000000
-23.664300 0.000000
-23.627400 0.000000
-23.590400 0.000000
-23.553400 0.000000
-23.516500 0.000000
-23.479500 0.000000
-23.442500 0.000000
-23.405600 0.000000
-23.368600 0.000000
-23.331600 0.000000
-23.294700 0.000000
-23.257700 0.000000
-23.220700 0.000000
-23.183800 0.000000
-23.146800 0.000000
-23.109800 0.000000
-23.072900 0.000000
-23.035900 0.000000
-22.999000 0.000000
-22.962000 0.000000
-22.925000 0.000000
-22.888100 0.000000
-22.851100 0.000000
-22.814100 0.000000
-22.777200 0.000000
-22.740200 0.000000
-22.703200 0.000000
-22.666300 0.000000
-22.629300 0.000000
-22.592300 0.000000
-22.555400 0.000000
-22.518400 0.000000
-22.481400 0.000000
-22.444500 0.000000
-22.407500 0.000000
-22.370500 0.000000
-22.333600 0.000000
-22.296600 0.000000
-22.259600 0.000000
-22.222700 0.000000
-22.185700 0.000000
-22.148700 0.000000
-22.111800 0.000000
-22.074800 0.000000
-22.037900 0.000000
-22.000900 0.000000
-21.963900 0.000000
-21.927000 0.000000
-21.890000 0.000000
-21.853000 0.000000
-21.816100 0.000000
-21.779100 0.000000
-21.742100 0.000000
-21.705200 0.000000
-21.668200 0.000000
-21.631200 0.000000
-21.594300 0.000000
-21.557300 0.000000
-21.520300 0.000000
-21.483400 0.000000
-21.446400 0.000000
-21.409400 0.000000
-21.372500 0.000000
-21.335500 0.000000
-21.298500 0.000000
-21.261600 0.000000
-21.224600 0.000000
-21.187600 0.000000
-21.150700 0.000000
-21.113700 0.000000
-21.076800 0.000000
-21.039800 0.000000
-21.002800 0.000000
-20.965900 0.000000
-20.928900 0.000000
-20.891900 0.000000
-20.855000 0.000000
-20.818000 0.000000
-20.781000 0.000000
-20.744100 0.000000
-20.707100 0.000000
-20.670100 0.000000
-20.633200 0.000000
-20.596200 0.000000
-20.559200 0.000000
-20.522300 0.000000
-20.485300 0.000000
-20.448300 0.000000
-20.411400 0.000000
-20.374400 0.000000
-20.337400 0.000000
-20.300500 0.000000
-20.263500 0.000000
-20.226500 0.000000
-20.189600 0.000000
-20.152600 0.000000
-20.115700 0.000000
-20.078700 0.000000
-20.041700 0.000000
-20.004800 0.000000
-19.967800 0.000000
-19.930800 0.000000
-19.893900 0.000000
-19.856900 0.000000
-19.819900 0.000000
-19.783000 0.000000
-19.746000 0.000000
-19.709000 0.000000
-19.672100 0.000000
-19.635100 0.000000
-19.598100 0.000000
-19.561200 0.000000
-19.524200 0.000000
-19.487200 0.000000
-19.450300 0.000000
-19.413300 0.000000
-19.376300 0.000000
-19.339400 0.000000
-19.302400 0.000000
-19.265400 0.000000
-19.228500 0.000000
-19.191500 0.000000
-19.154500 0.000000
-19.117600 0.000000
-19.080600 0.000000
-19.043700 0.000000
-19.006700 0.000000
-18.969700 39.119100
-18.932800 151.859600
-18.895800 21.832200
-18.858800 228.711600
-18.821900 261.236100
-18.784900 65.741600
-18.747900 36.146400
-18.711000 161.217000
-18.674000 0.000000
-18.637000 0.000000
-18.600100 0.000000
-18.563100 0.000000
-18.526100 0.000000
-18.489200 0.000000
-18.452200 0.000000
-18.415200 0.000000
-18.378300 0.000000
-18.341300 0.000000
-18.304300 0.000000
-18.267400 0.000000
-18.230400 0.000000
-18.193400 0.000000
-18.156500 0.000000
-18.119500 0.000000
-18.082600 0.000000
-18.045600 0.000000
-18.008600 0.000000
-17.971700 0.000000
-17.934700 0.000000
-17.897700 0.000000
-17.860800 0.000000
-17.823800 0.000000
-17.786800 0.000000
-17.749900 0.000000
-17.712900 0.000000
-17.675900 0.000000
-17.639000 0.000000
-17.602000 0.000000
-17.565000 0.000000
-17.528100 0.000000
-17.491100 0.000000
-17.454100 0.000000
-17.417200 0.000000
-17.380200 0.000000
-17.343200 0.000000
-17.306300 0.000000
-17.269300 0.000000
-17.232300 0.000000
-17.195400 0.000000
-17.158400 0.000000
-17.121500 0.000000
-17.084500 0.000000
-17.047500 0.000000
-17.010600 0.000000
-16.973600 0.000000
-16.936600 0.000000
-16.899700 0.000000
-16.862700 0.000000
-16.825700 0.000000
-16.788800 0.000000
-16.751800 0.000000
-16.714800 0.000000
-16.677900 0.000000
-16.640900 0.000000
-16.603900 0.000000
-16.567000 0.000000
-16.530000 0.000000
-16.493000 0.000000
-16.456100 0.000000
-16.419100 0.000000
-16.382100 0.000000
-16.345200 0.000000
-16.308200 0.000000
-16.271200 0.000000
-16.234300 0.000000
-16.197300 0.000000
-16.160400 0.000000
-16.123400 0.000000
-16.086400 0.000000
-16.049500 0.000000
-16.012500 0.000000
-15.975500 0.000000
-15.938600 0.000000
-15.901600 0.000000
-15.864600 0.000000
-15.827700 0.000000
-15.790700 0.000000
-15.753700 0.000000
-15.716800 0.000000
-15.679800 0.000000
-15.642800 0.000000
-15.605900 0.000000
-15.568900 0.000000
-15.531900 0.000000
-15.495000 0.000000
-15.458000 0.000000
-15.421000 0.000000
-15.384100 0.000000
-15.347100 0.000000
-15.310100 0.000000
-15.273200 0.000000
-15.236200 0.000000
-15.199300 0.000000
-15.162300 0.000000
-15.125300 0.000000
-15.088400 0.000000
-15.051400 0.000000
-15.014400 0.000000
-14.977500 0.000000
-14.940500 0.000000
-14.903500 0.000000
-14.866600 0.000000
-14.829600 0.000000
-14.792600 0.000000
-14.755700 0.000000
-14.718700 0.000000
-14.681700 0.000000
-14.644800 0.000000
-14.607800 0.000000
-14.570800 0.000000
-14.533900 0.000000
-14.496900 0.000000
-14.459900 0.000000
-14.423000 0.000000
-14.386000 0.000000
-14.349000 0.000000
-14.312100 0.000000
-14.275100 0.000000
-14.238100 0.000000
-14.201200 0.000000
-14.164200 0.000000
-14.127300 0.000000
-14.090300 0.000000
-14.053300 0.000000
-14.016400 0.000000
-13.979400 0.000000
-13.942400 0.000000
-13.905500 0.000000
-13.868500 0.000000
-13.831500 0.000000
-13.794600 0.000000
-13.757600 0.000000
-13.720600 0.000000
-13.683700 0.000000
-13.646700 0.000000
-13.609700 0.000000
-13.572800 0.000000
-13.535800 0.000000
-13.498800 0.000000
-13.461900 0.000000
-13.424900 0.000000
-13.387900 0.000000
-13.351000 0.000000
-13.314000 0.000000
-13.277000 0.000000
-13.240100 0.000000
-13.203100 0.000000
-13.166200 0.000000
-13.129200 0.000000
-13.092200 0.000000
-13.055300 0.000000
-13.018300 0.000000
-12.981300 0.000000
-12.944400 0.000000
-12.907400 0.000000
-12.870400 0.000000
-12.833500 0.000000
-12.796500 0.000000
-12.759500 0.000000
-12.722600 0.000000
-12.685600 0.000000
-12.648600 0.000000
-12.611700 0.000000
-12.574700 0.000000
-12.537700 0.000000
-12.500800 0.000000
-12.463800 0.000000
-12.426800 0.000000
-12.389900 0.000000
-12.352900 0.000000
-12.315900 0.000000
-12.279000 0.000000
-12.242000 0.000000
-12.205100 0.000000
-12.168100 0.000000
-12.131100 0.000000
-12.094200 0.000000
-12.057200 0.000000
-12.020200 0.000000
-11.983300 0.000000
-11.946300 0.000000
-11.909300 0.000000
-11.872400 0.000000
-11.835400 0.000000
-11.798400 0.000000
-11.761500 0.000000
-11.724500 0.000000
-11.687500 0.000000
-11.650600 0.000000
-11.613600 0.000000
-11.576600 0.000000
-11.539700 0.000000
-11.502700 0.000000
-11.465700 0.000000
-11.428800 0.000000
-11.391800 0.000000
-11.354800 0.000000
-11.317900 0.000000
-11.280900 0.000000
-11.244000 0.000000
-11.207000 0.000000
-11.170000 0.000000
-11.133100 0.000000
-11.096100 0.000000
-11.059100 0.000000
-11.022200 0.000000
-10.985200 0.000000
-10.948200 0.000000
-10.911300 0.000000
-10.874300 0.000000
-10.837300 0.000000
-10.800400 0.000000
-10.763400 0.000000
-10.726400 0.000000
-10.689500 0.000000
-10.652500 0.000000
-10.615500 0.000000
-10.578600 0.000000
-10.541600 0.000000
-10.504600 0.000000
-10.467700 0.000000
-10.430700 0.000000
-10.393700 0.000000
-10.356800 0.000000
-10.319800 0.000000
-10.282800 0.000000
-10.245900 0.000000
-10.208900 0.000000
-10.172000 0.000000
-10.135000 0.000000
-10.098000 0.000000
-10.061100 0.000000
-10.024100 0.000000
-9.987100 0.000000
-9.950200 0.000000
-9.913200 0.000000
-9.876200 0.000000
-9.839300 0.000000
-9.802300 0.000000
-9.765300 0.000000
-9.728400 0.000000
-9.691400 0.000000
-9.654400 0.000000
-9.617500 0.000000
-9.580500 0.000000
-9.543500 0.000000
-9.506600 0.000000
-9.469600 0.000000
-9.432600 0.000000
-9.395700 0.000000
-9.358700 0.000000
-9.321700 0.000000
-9.284800 0.000000
-9.247800 0.000000
-9.210900 0.000000
-9.173900 0.000000
-9.136900 0.000000
-9.100000 0.000000
-9.063000 0.000000
-9.026000 0.000000
-8.989100 0.000000
-8.952100 0.000000
-8.915100 0.000000
-8.878200 0.000000
-8.841200 0.000000
-8.804200 0.000000
-8.767300 0.000000
-8.730300 0.000000
-8.693300 0.000000
-8.656400 0.000000
-8.619400 0.000000
-8.582400 0.000000
-8.545500 0.000000
-8.508500 0.000000
-8.471500 0.000000
-8.434600 0.000000
-8.397600 0.000000
-8.360600 0.000000
-8.323700 0.000000
-8.286700 0.000000
-8.249800 0.000000
-8.212800 0.000000
-8.175800 0.000000
-8.138900 0.000000
-8.101900 0.000000
-8.064900 0.000000
-8.028000 0.000000
-7.991000 0.000000
-7.954000 0.000000
-7.917100 0.000000
-7.880100 0.000000
-7.843100 0.000000
-7.806200 0.000000
-7.769200 0.000000
-7.732200 0.000000
-7.695300 0.000000
-7.658300 0.000000
-7.621300 0.000000
-7.584400 0.000000
-7.547400 0.000000
-7.510400 0.000000
-7.473500 0.000000
-7.436500 0.000000
-7.399500 0.000000
-7.362600 0.043400
-7.325600 0.107900
-7.288700 0.171600
-7.251700 0.214800
-7.214700 0.236700
-7.177800 0.254800
-7.140800 0.280000
-7.103800 0.308300
-7.066900 0.334500
-7.029900 0.353800
-6.992900 0.375900
-6.956000 0.396300
-6.919000 0.414300
-6.882000 0.432200
-6.845100 0.449900
-6.808100 0.467100
-6.771100 0.483200
-6.734200 0.500200
-6.697200 0.520000
-6.660200 0.542800
-6.623300 0.569200
-6.586300 0.584200
-6.549300 0.591900
-6.512400 0.596100
-6.475400 0.608000
-6.438400 0.624800
-6.401500 0.614900
-6.364500 0.619300
-6.327500 0.640900
-6.290600 0.675400
-6.253600 0.694900
-6.216700 0.702800
-6.179700 0.708000
-6.142700 0.723500
-6.105800 0.742800
-6.068800 0.760700
-6.031800 0.774500
-5.994900 0.796000
-5.957900 0.817900
-5.920900 0.838300
-5.884000 0.857900
-5.847000 0.886000
-5.810000 0.910000
-5.773100 0.925300
-5.736100 0.936600
-5.699100 0.946800
-5.662200 0.954600
-5.625200 0.960400
-5.588200 0.967200
-5.551300 0.988200
-5.514300 1.002100
-5.477300 1.017100
-5.440400 1.031800
-5.403400 1.037400
-5.366400 1.052100
-5.329500 1.012800
-5.292500 0.992900
-5.255600 0.998300
-5.218600 1.009700
-5.181600 1.021800
-5.144700 1.123600
-5.107700 1.141800
-5.070700 1.174900
-5.033800 1.197300
-4.996800 1.225900
-4.959800 1.259500
-4.922900 1.307500
-4.885900 1.343700
-4.848900 1.377600
-4.812000 1.430100
-4.775000 1.467200
-4.738000 1.470200
-4.701100 1.479500
-4.664100 1.495200
-4.627100 1.514100
-4.590200 1.556800
-4.553200 1.573100
-4.516200 1.575300
-4.479300 1.591200
-4.442300 1.609800
-4.405300 1.581200
-4.368400 1.531700
-4.331400 1.488000
-4.294500 1.484400
-4.257500 1.484800
-4.220500 1.480800
-4.183600 1.477900
-4.146600 1.492800
-4.109600 1.514700
-4.072700 1.548400
-4.035700 1.589900
-3.998700 1.622800
-3.961800 1.678500
-3.924800 1.739800
-3.887800 1.815900
-3.850900 1.896100
-3.813900 2.066300
-3.776900 2.269600
-3.740000 2.238300
-3.703000 2.200200
-3.666000 2.187500
-3.629100 2.108400
-3.592100 1.988200
-3.555100 2.033700
-3.518200 2.117300
-3.481200 2.336100
-3.444200 2.442600
-3.407300 2.093300
-3.370300 2.036300
-3.333400 1.849000
-3.296400 1.825100
-3.259400 1.774800
-3.222500 1.689600
-3.185500 1.605100
-3.148500 1.546800
-3.111600 1.509000
-3.074600 1.477100
-3.037600 1.537800
-3.000700 1.588300
-2.963700 1.631600
-2.926700 1.688900
-2.889800 1.790400
-2.852800 1.982400
-2.815800 2.270700
-2.778900 2.546700
-2.741900 2.635600
-2.704900 2.657300
-2.668000 2.667000
-2.631000 2.464600
-2.594000 2.314200
-2.557100 2.339700
-2.520100 2.063400
-2.483100 1.979200
-2.446200 1.946900
-2.409200 1.892000
-2.372200 1.848900
-2.335300 1.826800
-2.298300 1.847600
-2.261400 1.858700
-2.224400 1.847000
-2.187400 1.792000
-2.150500 1.721800
-2.113500 1.572900
-2.076500 1.447500
-2.039600 1.358900
-2.002600 1.219400
-1.965600 1.141300
-1.928700 1.132200
-1.891700 1.032000
-1.854700 0.852300
-1.817800 0.829200
-1.780800 0.806000
-1.743800 0.783200
-1.706900 0.759900
-1.669900 0.735100
-1.632900 0.709300
-1.596000 0.682500
-1.559000 0.665900
-1.522000 0.660300
-1.485100 0.656500
-1.448100 0.651900
-1.411100 0.649500
-1.374200 0.649200
-1.337200 0.652200
-1.300300 0.653400
-1.263300 0.644400
-1.226300 0.633700
-1.189400 0.623700
-1.152400 0.636400
-1.115400 0.670200
-1.078500 0.704900
-1.041500 0.749600
-1.004500 0.774800
-0.967600 0.795800
-0.930600 0.814100
-0.893600 0.839000
-0.856700 0.853800
-0.819700 0.992200
-0.782700 0.883700
-0.745800 0.874400
-0.708800 0.954700
-0.671800 0.553100
-0.634900 0.483400
-0.597900 0.473400
-0.560900 0.494100
-0.524000 0.554300
-0.487000 0.630500
-0.450000 0.725700
-0.413100 0.841500
-0.376100 0.945800
-0.339200 0.974000
-0.302200 1.018600
-0.265200 1.078300
-0.228300 1.133700
-0.191300 1.209500
-0.154300 1.277800
-0.117400 1.391700
-0.080400 1.519500
-0.043400 1.703700
-0.006500 2.193400
0.030500 2.173700
0.067500 2.371900
0.104400 2.669800
0.141400 2.825600
0.178400 2.957600
0.215300 3.072500
0.252300 3.230100
0.289300 3.167900
0.326200 3.611400
0.363200 3.549900
0.400200 3.547300
0.437100 3.424900
0.474100 3.291400
0.511100 3.000000
0.548000 2.765800
0.585000 2.451000
0.621900 2.236700
0.658900 2.113000
0.695900 1.979900
0.732800 1.959700
0.769800 1.925900
0.806800 1.705100
0.843700 1.690900
0.880700 1.698000
0.917700 1.792300
0.954600 1.997700
0.991600 2.125300
1.028600 2.284500
1.065500 2.488200
1.102500 2.603700
1.139500 2.652500
1.176400 2.779400
1.213400 3.133500
1.250400 3.114500
1.287300 3.118100
1.324300 3.305000
1.361300 3.197300
1.398200 2.794600
1.435200 2.493400
1.472200 2.448900
1.509100 2.702800
1.546100 2.744100
1.583100 2.619800
1.620000 2.330100
1.657000 2.197400
1.693900 2.208500
1.730900 2.288100
1.767900 3.086500
1.804800 3.123900
1.841800 3.845700
1.878800 4.454400
1.915700 5.069000
1.952700 5.020100
1.989700 5.056100
2.026600 4.835100
2.063600 4.254800
2.100600 3.922600
2.137500 3.669800
2.174500 3.858100
2.211500 4.172300
2.248400 4.011600
2.285400 3.691600
2.322400 3.780000
2.359300 4.337200
2.396300 4.995100
2.433300 4.547100
2.470200 4.908200
2.507200 5.546700
2.544200 6.406500
2.581100 4.687800
2.618100 3.918600
2.655000 3.810300
2.692000 4.039600
2.729000 4.321000
2.765900 4.586600
2.802900 4.321100
2.839900 4.152800
2.876800 4.212600
2.913800 4.930600
2.950800 5.766600
2.987700 6.602900
3.024700 6.760300
3.061700 6.863000
3.098600 7.042900
3.135600 6.780700
3.172600 6.793100
3.209500 6.190000
3.246500 6.293800
3.283500 5.981300
3.320400 7.382700
3.357400 7.200700
3.394400 6.443400
3.431300 6.480800
3.468300 6.544600
3.505300 5.314400
3.542200 4.960800
3.579200 4.437600
3.616100 3.882600
3.653100 3.954600
3.690100 4.426000
3.727000 4.658600
3.764000 5.229900
3.801000 5.141900
3.837900 5.167900
3.874900 5.673900
3.911900 5.910200
3.948800 5.955300
3.985800 5.929600
4.022800 5.654700
4.059700 6.138800
4.096700 5.690900
4.133700 5.551600
4.170600 5.314100
4.207600 5.091800
4.244600 4.981600
4.281500 4.936000
4.318500 4.935000
4.355500 4.331800
4.392400 4.344000
4.429400 4.599500
4.466400 4.812300
4.503300 5.354000
4.540300 5.990600
4.577200 5.851600
4.614200 5.077900
4.651200 4.682100
4.688100 4.425600
4.725100 4.075200
4.762100 3.863600
4.799000 3.487700
4.836000 3.008600
4.873000 2.814200
4.909900 2.961900
4.946900 3.700800
4.983900 3.317900
5.020800 3.156100
5.057800 3.019900
5.094800 2.845900
5.131700 3.005900
5.168700 2.088300
5.205700 1.883700
5.242600 1.688700
5.279600 1.574100
5.316600 1.442900
5.353500 2.344100
5.390500 3.317800
5.427500 3.189100
5.464400 2.238200
5.501400 1.785500
5.538400 1.641200
5.575300 1.508100
5.612300 1.425900
5.649200 1.386100
5.686200 1.546200
5.723200 1.779800
5.760100 1.776300
5.797100 1.649100
5.834100 1.674400
5.871000 1.656100
5.908000 1.589500
5.945000 1.525000
5.981900 1.487100
6.018900 1.444200
6.055900 1.364000
6.092800 1.137500
6.129800 1.051600
6.166800 0.991500
6.203700 1.023400
6.240700 0.998100
6.277700 0.973900
6.314600 0.962600
6.351600 0.968600
6.388600 0.981800
6.425500 1.001200
6.462500 1.019600
6.499500 1.046400
6.536400 1.081300
6.573400 1.119500
6.610300 1.167700
6.647300 1.222800
6.684300 1.703200
6.721200 1.958200
6.758200 1.961200
6.795200 1.725000
6.832100 1.753100
6.869100 1.983800
6.906100 2.167200
6.943000 2.449100
6.980000 2.830800
7.017000 3.056100
7.053900 3.409500
7.090900 3.695000
7.127900 3.240100
7.164800 2.992100
7.201800 3.192600
7.238800 3.477400
7.275700 3.886300
7.312700 3.994800
7.349700 4.120900
7.386600 3.996100
7.423600 3.800900
7.460600 3.920000
7.497500 3.668000
7.534500 2.984900
7.571400 3.137600
7.608400 3.163300
7.645400 3.411800
7.682300 4.089600
7.719300 4.454500
7.756300 4.700600
7.793200 3.988400
7.830200 3.525000
7.867200 3.214500
7.904100 3.211100
7.941100 3.159500
7.978100 3.233200
8.015000 3.400600
8.052000 3.849100
8.089000 3.940000
8.125900 4.045300
8.162900 3.847200
8.199900 3.728100
8.236800 3.715300
8.273800 3.725200
8.310800 3.644500
8.347700 3.927900
8.384700 3.986500
8.421700 4.196300
8.458600 4.046500
8.495600 3.884000
8.532500 3.791200
8.569500 3.683800
8.606500 3.584200
8.643400 3.385000
8.680400 3.337200
8.717400 3.536700
8.754300 3.996600
8.791300 3.924300
8.828300 3.869800
8.865200 3.617200
8.902200 3.267400
8.939200 3.126400
8.976100 2.996000
9.013100 2.787000
9.050100 2.592900
9.087000 2.611600
9.124000 2.522700
9.161000 2.551300
9.197900 2.381800
9.234900 2.247000
9.271900 2.012300
9.308800 1.978200
9.345800 2.012200
9.382800 1.973900
9.419700 2.001200
9.456700 2.089400
9.493600 2.269200
9.530600 2.552600
9.567600 2.680200
9.604500 3.063900
9.641500 3.348200
9.678500 3.270300
9.715400 3.167600
9.752400 3.234300
9.789400 3.083500
9.826300 3.115500
9.863300 2.985900
9.900300 2.653600
9.937200 2.517300
9.974200 2.514100
10.011200 2.721100
10.048100 2.905500
10.085100 3.388700
10.122100 4.027500
10.159000 4.014200
10.196000 3.688400
10.233000 3.514500
10.269900 3.251800
10.306900 2.999400
10.343900 2.883000
10.380800 2.850200
10.417800 2.879800
10.454800 2.870200
10.491700 2.936300
10.528700 3.247500
10.565600 3.480200
10.602600 3.389400
10.639600 3.475300
10.676500 3.518700
10.713500 3.425100
10.750500 3.350300
10.787400 3.280700
10.824400 3.337400
10.861400 3.403200
10.898300 3.400200
10.935300 3.127500
10.972300 3.283700
11.009200 4.069500
11.046200 4.187400
11.083200 4.270200
11.120100 4.140800
11.157100 3.885200
11.194100 3.560100
11.231000 3.275500
11.268000 3.120400
11.305000 2.973300
11.341900 2.938300
11.378900 3.266900
11.415900 3.622800
11.452800 3.657700
11.489800 3.666300
11.526700 3.666100
11.563700 3.707100
11.600700 3.698700
11.637600 3.698800
11.674600 3.450400
11.711600 3.350200
11.748500 3.454500
11.785500 3.574400
11.822500 3.681300
11.859400 3.791700
11.896400 3.859200
11.933400 3.993200
11.970300 4.259300
12.007300 4.443400
12.044300 4.221400
12.081200 3.931400
12.118200 3.741100
12.155200 3.540900
12.192100 3.397200
12.229100 3.261800
12.266100 3.014400
12.303000 2.828500
12.340000 2.972500
12.377000 3.196100
12.413900 3.034300
12.450900 3.022300
12.487800 3.024600
12.524800 2.962800
12.561800 2.892300
12.598700 2.997400
12.635700 3.110100
12.672700 3.159700
12.709600 3.234300
12.746600 3.103100
12.783600 2.962800
12.820500 2.748900
12.857500 2.654400
12.894500 2.717300
12.931400 2.618200
12.968400 2.531700
13.005400 2.423600
13.042300 2.364600
13.079300 2.321500
13.116300 2.349200
13.153200 2.359800
13.190200 2.292500
13.227200 2.155500
13.264100 2.080200
13.301100 2.189500
13.338100 2.403800
13.375000 2.491800
13.412000 2.463700
13.448900 2.428400
13.485900 2.410300
13.522900 2.492600
13.559800 2.540400
13.596800 2.534200
13.633800 2.485200
13.670700 2.369100
13.707700 2.224800
13.744700 2.216200
13.781600 2.176500
13.818600 2.073300
13.855600 2.034600
13.892500 1.893900
13.929500 1.871000
13.966500 1.874100
14.003400 1.785700
14.040400 1.812800
14.077400 1.865800
14.114300 1.951300
14.151300 2.040600
14.188300 2.179300
14.225200 2.408300
14.262200 2.470900
14.299200 2.511800
14.336100 2.489400
14.373100 2.417700
14.410100 2.421600
14.447000 2.433700
14.484000 2.500400
14.520900 2.496500
14.557900 2.439800
14.594900 2.358200
14.631800 2.310300
14.668800 2.309800
14.705800 2.329400
14.742700 2.307700
14.779700 2.266800
14.816700 2.219500
14.853600 2.240300
14.890600 2.143500
14.927600 2.136500
14.964500 2.129800
15.001500 2.164600
15.038500 2.265900
15.075400 2.406300
15.112400 2.556700
15.149400 2.606000
15.186300 2.660400
15.223300 2.814200
15.260300 3.201200
15.297200 3.186700
15.334200 3.213900
15.371200 3.412000
15.408100 3.417100
15.445100 3.398300
15.482000 3.515800
15.519000 3.538700
15.556000 3.435300
15.592900 3.332100
15.629900 3.217000
15.666900 3.096900
15.703800 2.967900
15.740800 2.865900
15.777800 2.741800
15.814700 2.656600
15.851700 2.621000
15.888700 2.617600
15.925600 2.599400
15.962600 2.636900
15.999600 2.689100
16.036500 2.695000
16.073500 2.703700
16.110500 2.779100
16.147400 2.513700
16.184400 2.514500
16.221400 2.693400
16.258300 2.857600
16.295300 3.028500
16.332300 3.125300
16.369200 3.203700
16.406200 3.280900
16.443100 3.300400
16.480100 3.470300
16.517100 3.633300
16.554000 3.542400
16.591000 3.385100
16.628000 3.182700
16.664900 2.852700
16.701900 2.799500
16.738900 2.724900
16.775800 2.809200
16.812800 2.954000
16.849800 2.893600
16.886700 3.026500
16.923700 3.170900
16.960700 3.460600
16.997600 3.440300
17.034600 3.391500
17.071600 3.212300
17.108500 3.133600
17.145500 3.097900
17.182500 3.043900
17.219400 3.072800
17.256400 3.333700
17.293400 3.512800
17.330300 3.573000
17.367300 3.662500
17.404200 3.678700
17.441200 3.565500
17.478200 3.455900
17.515100 3.388600
17.552100 3.345500
17.589100 3.172700
17.626000 2.975600
17.663000 2.927300
17.700000 3.058300
17.736900 3.252800
17.773900 3.253400
17.810900 3.373300
17.847800 3.458500
17.884800 3.378400
17.921800 3.343000
17.958700 3.381500
17.995700 3.374000
18.032700 3.289000
18.069600 3.218700
18.106600 3.044400
18.143600 2.948800
18.180500 2.926700
18.217500 2.957900
18.254500 2.907500
18.291400 2.952100
18.328400 2.898300
18.365400 2.779800
18.402300 2.724500
18.439300 2.714000
18.476200 2.813300
18.513200 2.976000
18.550200 3.196100
18.587100 3.389600
18.624100 3.425300
18.661100 3.507300
18.698000 3.587700
18.735000 3.426100
18.772000 3.351500
18.808900 3.340200
18.845900 3.530800
18.882900 3.555500
18.919800 3.467800
18.956800 3.516100
18.993800 3.451700
19.030700 3.423600
19.067700 3.166800
19.104700 2.747100
19.141600 2.483000
19.178600 2.326800
19.215600 2.289000
19.252500 2.411900
19.289500 2.691600
19.326500 2.940000
19.363400 3.016300
19.400400 3.177300
19.437300 3.477500
19.474300 3.635800
19.511300 3.594900
19.548200 3.573400
19.585200 3.521800
19.622200 3.544600
19.659100 3.446300
19.696100 3.363400
19.733100 3.159200
19.770000 2.995800
19.807000 2.883400
19.844000 2.849000
19.880900 2.914200
19.917900 3.098600
19.954900 3.249500
19.991800 3.200200
20.028800 3.127500
20.065800 3.111500
20.102700 3.232400
20.139700 3.230200
20.176700 3.245800
20.213600 3.287400
20.250600 3.194100
20.287600 3.188200
20.324500 3.370800
20.361500 3.513800
20.398400 3.606900
20.435400 3.425100
20.472400 3.321400
20.509300 3.230600
20.546300 3.189400
20.583300 3.265000
20.620200 3.083200
20.657200 2.966300
20.694200 2.954500
20.731100 2.983100
20.768100 3.137000
20.805100 3.238100
20.842000 3.243400
20.879000 3.160400
20.916000 3.163200
20.952900 3.185500
20.989900 3.204800
21.026900 3.182500
21.063800 3.149600
21.100800 3.107800
21.137800 3.119100
21.174700 3.218400
21.211700 3.442400
21.248700 3.487700
21.285600 3.342800
21.322600 3.231000
21.359500 3.182200
21.396500 3.202200
21.433500 3.235200
21.470400 3.273200
21.507400 3.382200
21.544400 3.487000
21.581300 3.344700
21.618300 3.303900
21.655300 3.274000
21.692200 3.259400
21.729200 3.301200
21.766200 3.338000
21.803100 3.334200
21.840100 3.377100
21.877100 3.312700
21.914000 3.217200
21.951000 3.139200
21.988000 3.122300
22.024900 3.037900
22.061900 3.036300
22.098900 3.059800
22.135800 3.128800
22.172800 3.211300
22.209800 3.346500
22.246700 3.373200
22.283700 3.521000
22.320700 3.645600
22.357600 3.690500
22.394600 3.586800
22.431500 3.586300
22.468500 3.338500
22.505500 3.253100
22.542400 3.159700
22.579400 3.068000
22.616400 3.019800
22.653300 2.962000
22.690300 2.948400
22.727300 2.978400
22.764200 3.046900
22.801200 3.093900
22.838200 3.183700
22.875100 3.097100
22.912100 3.166400
22.949100 3.325300
22.986000 3.685100
23.023000 3.970600
23.060000 4.000900
23.096900 4.006800
23.133900 3.920000
23.170900 3.756300
23.207800 3.640000
23.244800 3.471500
23.281800 3.308500
23.318700 3.190200
23.355700 3.161900
23.392600 3.224600
23.429600 3.354000
23.466600 3.426900
23.503500 3.522200
23.540500 3.669400
23.577500 3.953700
23.614400 4.126400
23.651400 4.084300
23.688400 4.171700
23.725300 4.020800
23.762300 3.927700
23.799300 3.699900
23.836200 3.685300
23.873200 3.702700
23.910200 3.455600
23.947100 3.406300
23.984100 3.497500
24.021100 3.537700
24.058000 3.596500
24.095000 3.626600
24.132000 3.660200
24.168900 3.592900
24.205900 3.554000
24.242900 3.546900
24.279800 3.424500
24.316800 3.326700
24.353700 3.232700
24.390700 3.242100
24.427700 3.371400
24.464600 3.182500
24.501600 3.170000
24.538600 3.257400
24.575500 3.359500
24.612500 3.472300
24.649500 3.421100
24.686400 3.493700
24.723400 3.595000
24.760400 3.724800
24.797300 3.736900
24.834300 3.809900
24.871300 3.910100
24.908200 3.716700
24.945200 3.603300
24.982200 3.590500
25.019100 3.593400
25.056100 3.675300
25.093100 3.801900
25.130000 3.834200
25.167000 3.811400
25.204000 3.908300
25.240900 4.136700
25.277900 4.266100
25.314800 4.306100
25.351800 4.325600
25.388800 4.250300
25.425700 4.068800
25.462700 3.952900
25.499700 4.025700
25.536600 4.025900
25.573600 4.171200
25.610600 4.402100
25.647500 4.482300
25.684500 4.633600
25.721500 4.610500
25.758400 4.211900
25.795400 4.081500
25.832400 4.393700
25.869300 4.459500
25.906300 4.482800
25.943300 4.220500
25.980200 3.891100
26.017200 3.769200
26.054200 3.694300
26.091100 3.745400
26.128100 3.797800
26.165100 3.664000
26.202000 3.632100
26.239000 3.821200
26.276000 3.907800
26.312900 4.196400
26.349900 4.234800
26.386800 4.459300
26.423800 4.623600
26.460800 4.254400
26.497700 3.969600
26.534700 3.861100
26.571700 3.925700
26.608600 4.049300
26.645600 4.271900
26.682600 4.461900
26.719500 4.538300
26.756500 4.624200
26.793500 4.621800
26.830400 4.462400
26.867400 4.230700
26.904400 4.011400
26.941300 3.902900
26.978300 3.850200
27.015300 3.793800
27.052200 3.750200
27.089200 3.831600
27.126200 3.987400
27.163100 4.125100
27.200100 4.197900
27.237100 4.149000
27.274000 4.075800
27.311000 4.190400
27.347900 4.155400
27.384900 4.195600
27.421900 4.174900
27.458800 4.155100
27.495800 4.136100
27.532800 4.107300
27.569700 4.138200
27.606700 4.128500
27.643700 3.966800
27.680600 3.812100
27.717600 3.691900
27.754600 3.589900
27.791500 3.545200
27.828500 3.554000
27.865500 3.727200
27.902400 3.691900
27.939400 3.839800
27.976400 4.026200
28.013300 4.136400
28.050300 4.139100
28.087300 4.105800
28.124200 4.040100
28.161200 3.885200
28.198200 3.785900
28.235100 3.667500
28.272100 3.641300
28.309000 3.671600
28.346000 3.610500
28.383000 3.537500
28.419900 3.527400
28.456900 3.494400
28.493900 3.476200
28.530800 3.474900
28.567800 3.612100
28.604800 3.768900
28.641700 3.707600
28.678700 3.637200
28.715700 3.745200
28.752600 3.817400
28.789600 3.655600
28.826600 3.516400
28.863500 3.578800
28.900500 3.530000
28.937500 3.281200
28.974400 3.126100
29.011400 3.017500
29.048400 2.854300
29.085300 2.701800
29.122300 2.671300
29.159300 2.442400
29.196200 2.314400
29.233200 2.199200
29.270100 2.034000
29.307100 1.919900
29.344100 1.880800
29.381000 1.951700
29.418000 1.977200
29.455000 1.986700
29.491900 1.887600
29.528900 1.759200
29.565900 1.672500
29.602800 1.601500
29.639800 1.542900
29.676800 1.509700
29.713700 1.507900
29.750700 1.526200
29.787700 1.565600
29.824600 1.594300
29.861600 1.558200
29.898600 1.503200
29.935500 1.434600
29.972500 1.342400
30.009500 1.183900
30.046400 1.092900
30.083400 1.019500
30.120400 0.972400
30.157300 0.908900
30.194300 0.835800
30.231300 0.773300
30.268200 0.750200
30.305200 0.727600
30.342100 0.691100
30.379100 0.703400
30.416100 0.661000
30.453000 0.566100
30.490000 0.459600
30.527000 0.385600
30.563900 0.323400
30.600900 0.253200
30.637900 0.173100
30.674800 0.101600
30.711800 0.039700
30.748800 0.013500
30.785700 0.007000
30.822700 0.004300
30.859700 0.002500
30.896600 0.001100
30.933600 0.000300
30.970600 0.000000
31.007500 0.000000
31.044500 0.000000
31.081500 0.000000
31.118400 0.000000
31.155400 0.000000
31.192400 0.000000
31.229300 0.000000
31.266300 0.000000
31.303200 0.000000
31.340200 0.000000
31.377200 0.000000
31.414100 0.000000
31.451100 0.000000
31.488100 0.000000
31.525000 0.000000
31.562000 0.000000
31.599000 0.000000
31.635900 0.000000
31.672900 0.000000
31.709900 0.000000
31.746800 0.000000
31.783800 0.000000
31.820800 0.000000
31.857700 0.000000
31.894700 0.000000
31.931700 0.000000
31.968600 0.000000
32.005600 0.000000
32.042600 0.000000
32.079500 0.000000
32.116500 0.000000
32.153500 0.000000
32.190400 0.000000
32.227400 0.000000
32.264300 0.000000
32.301300 0.000000
32.338300 0.000000
32.375200 0.000000
32.412200 0.000000
32.449200 0.000000
32.486100 0.000000
32.523100 0.000000
32.560100 0.000000
32.597000 0.000000
32.634000 0.000000
32.671000 0.000000
32.707900 0.000000
32.744900 0.000000
32.781900 0.000000
32.818800 0.000000
32.855800 0.000000
32.892800 0.000000
32.929700 0.000000
32.966700 0.000000
33.003700 0.000000
33.040600 0.000000
33.077600 0.000000
33.114600 0.000000
33.151500 0.000000
33.188500 0.000000
33.225400 0.000000
33.262400 0.000000
33.299400 0.000000
33.336300 0.000000
33.373300 0.000000
33.410300 0.000000
33.447200 0.000000
33.484200 0.000000
33.521200 0.000000
33.558100 0.000000
33.595100 0.000000
33.632100 0.000000
33.669000 0.000000
33.706000 0.000000
33.743000 0.000000
33.779900 0.000000
33.816900 0.000000
33.853900 0.000000
33.890800 0.000000
33.927800 0.000000
33.964800 0.000000
34.001700 0.000000
34.038700 0.000000
34.075700 0.000000
34.112600 0.000000
34.149600 0.000000
34.186500 0.000000
34.223500 0.000000
34.260500 0.000000
34.297400 0.000000
34.334400 0.000000
e
