set title 'mp-468 - Density of States'
set xlabel 'Energy (eV)'
set ylabel 'DOS (states/eV)'
set grid
set xrange [-10:10]
set yrange [0:27.417]
set xzeroaxis lt -1
set terminal png size 800,600
set output 'mp-468_dos_gnuplot.png'
plot '-' using 1:2 with lines title 'DOS'
-24.806000 0.000000
-24.783000 0.000000
-24.760100 0.000000
-24.737100 0.000000
-24.714100 0.000000
-24.691100 0.000000
-24.668200 0.000000
-24.645200 0.000000
-24.622200 0.000000
-24.599300 0.000000
-24.576300 0.000000
-24.553300 0.000000
-24.530400 0.000000
-24.507400 0.000000
-24.484400 0.000000
-24.461500 0.000000
-24.438500 0.000000
-24.415500 0.000000
-24.392600 0.000000
-24.369600 0.000000
-24.346600 0.000000
-24.323700 0.000000
-24.300700 0.000000
-24.277700 0.000000
-24.254800 0.000000
-24.231800 0.000000
-24.208800 0.000000
-24.185900 0.000000
-24.162900 0.000000
-24.139900 0.000000
-24.117000 0.000000
-24.094000 0.000000
-24.071000 0.000000
-24.048100 0.000000
-24.025100 0.000000
-24.002100 0.000000
-23.979200 0.000000
-23.956200 0.000000
-23.933200 0.000000
-23.910300 0.000000
-23.887300 0.000000
-23.864300 0.000000
-23.841400 0.000000
-23.818400 0.000000
-23.795400 0.000000
-23.772500 0.000000
-23.749500 0.000000
-23.726500 0.000000
-23.703600 0.000000
-23.680600 0.000000
-23.657600 0.000000
-23.634700 0.000000
-23.611700 0.000000
-23.588700 0.000000
-23.565800 0.000000
-23.542800 0.000000
-23.519800 0.000000
-23.496900 0.000000
-23.473900 0.000000
-23.450900 0.000000
-23.428000 0.000000
-23.405000 0.000000
-23.382000 0.000000
-23.359100 0.000000
-23.336100 0.000000
-23.313100 0.000000
-23.290200 0.000000
-23.267200 0.000000
-23.244200 0.000000
-23.221300 0.000000
-23.198300 0.000000
-23.175300 0.000000
-23.152400 0.000000
-23.129400 0.000000
-23.106400 0.000000
-23.083500 0.000000
-23.060500 0.000000
-23.037500 0.000000
-23.014600 0.000000
-22.991600 0.000000
-22.968600 0.000000
-22.945700 0.000000
-22.922700 0.000000
-22.899700 0.000000
-22.876700 0.000000
-22.853800 0.000000
-22.830800 0.000000
-22.807800 0.000000
-22.784900 0.000000
-22.761900 0.000000
-22.738900 0.000000
-22.716000 0.011900
-22.693000 0.593500
-22.670000 0.953200
-22.647100 1.160600
-22.624100 1.393300
-22.601100 1.570500
-22.578200 1.776200
-22.555200 1.957200
-22.532200 2.132200
-22.509300 2.318700
-22.486300 2.512900
-22.463300 2.692800
-22.440400 2.889300
-22.417400 3.095600
-22.394400 3.313700
-22.371500 3.544000
-22.348500 3.795700
-22.325500 4.075500
-22.302600 4.391500
-22.279600 4.810200
-22.256600 5.527000
-22.233700 7.138600
-22.210700 6.430500
-22.187700 6.369600
-22.164800 5.697400
-22.141800 4.702800
-22.118800 5.435000
-22.095900 3.605900
-22.072900 7.841200
-22.049900 5.690300
-22.027000 5.543100
-22.004000 5.341300
-21.981000 5.217200
-21.958100 5.033400
-21.935100 4.890800
-21.912100 4.770300
-21.889200 4.506100
-21.866200 4.411100
-21.843200 4.169600
-21.820300 3.878400
-21.797300 3.736400
-21.774300 3.485400
-21.751400 2.916700
-21.728400 2.379100
-21.705400 1.918600
-21.682500 12.045700
-21.659500 21.348000
-21.636500 33.827200
-21.613600 25.990800
-21.590600 20.177200
-21.567600 17.639300
-21.544700 16.955700
-21.521700 15.948300
-21.498700 15.771000
-21.475800 15.418600
-21.452800 10.744900
-21.429800 17.000400
-21.406900 16.767900
-21.383900 14.651400
-21.360900 10.648900
-21.338000 19.879800
-21.315000 16.950300
-21.292000 17.302100
-21.269100 18.488600
-21.246100 11.517400
-21.223100 0.000000
-21.200200 0.000000
-21.177200 0.000000
-21.154200 0.000000
-21.131300 0.000000
-21.108300 0.000000
-21.085300 0.000000
-21.062400 0.000000
-21.039400 0.000000
-21.016400 0.000000
-20.993400 0.000000
-20.970500 0.000000
-20.947500 0.000000
-20.924500 0.000000
-20.901600 0.000000
-20.878600 0.000000
-20.855600 0.000000
-20.832700 0.000000
-20.809700 0.000000
-20.786700 0.000000
-20.763800 0.000000
-20.740800 0.000000
-20.717800 0.000000
-20.694900 0.000000
-20.671900 0.000000
-20.648900 0.000000
-20.626000 0.000000
-20.603000 0.000000
-20.580000 0.000000
-20.557100 0.000000
-20.534100 0.000000
-20.511100 0.000000
-20.488200 0.000000
-20.465200 0.000000
-20.442200 0.000000
-20.419300 0.000000
-20.396300 0.000000
-20.373300 0.000000
-20.350400 0.000000
-20.327400 0.000000
-20.304400 0.000000
-20.281500 0.000000
-20.258500 0.000000
-20.235500 0.000000
-20.212600 0.000000
-20.189600 0.000000
-20.166600 0.000000
-20.143700 0.000000
-20.120700 0.000000
-20.097700 0.000000
-20.074800 0.000000
-20.051800 0.000000
-20.028800 0.000000
-20.005900 0.000000
-19.982900 0.000000
-19.959900 0.000000
-19.937000 0.000000
-19.914000 0.000000
-19.891000 0.000000
-19.868100 0.000000
-19.845100 0.000000
-19.822100 0.000000
-19.799200 0.000000
-19.776200 0.000000
-19.753200 0.000000
-19.730300 0.000000
-19.707300 0.000000
-19.684300 0.000000
-19.661400 0.000000
-19.638400 0.000000
-19.615400 0.000000
-19.592500 0.000000
-19.569500 0.000000
-19.546500 0.000000
-19.523600 0.000000
-19.500600 0.000000
-19.477600 0.000000
-19.454700 0.000000
-19.431700 0.000000
-19.408700 0.000000
-19.385800 0.000000
-19.362800 0.000000
-19.339800 0.000000
-19.316900 0.000000
-19.293900 0.000000
-19.270900 0.000000
-19.248000 0.000000
-19.225000 0.000000
-19.202000 0.000000
-19.179000 0.000000
-19.156100 0.000000
-19.133100 0.000000
-19.110100 0.000000
-19.087200 0.000000
-19.064200 0.000000
-19.041200 0.000000
-19.018300 0.000000
-18.995300 0.000000
-18.972300 0.000000
-18.949400 0.000000
-18.926400 0.000000
-18.903400 0.000000
-18.880500 0.000000
-18.857500 0.000000
-18.834500 0.000000
-18.811600 0.000000
-18.788600 0.000000
-18.765600 0.000000
-18.742700 0.000000
-18.719700 0.000000
-18.696700 0.000000
-18.673800 0.000000
-18.650800 0.000000
-18.627800 0.000000
-18.604900 0.000000
-18.581900 0.000000
-18.558900 0.000000
-18.536000 0.000000
-18.513000 0.000000
-18.490000 0.000000
-18.467100 0.000000
-18.444100 0.000000
-18.421100 0.000000
-18.398200 0.000000
-18.375200 0.000000
-18.352200 0.000000
-18.329300 0.000000
-18.306300 0.000000
-18.283300 0.000000
-18.260400 0.000000
-18.237400 0.000000
-18.214400 0.000000
-18.191500 0.000000
-18.168500 0.000000
-18.145500 0.000000
-18.122600 0.000000
-18.099600 0.000000
-18.076600 0.000000
-18.053700 0.000000
-18.030700 0.000000
-18.007700 0.000000
-17.984800 0.000000
-17.961800 0.000000
-17.938800 0.000000
-17.915900 0.000000
-17.892900 0.000000
-17.869900 0.000000
-17.847000 0.000000
-17.824000 0.000000
-17.801000 0.000000
-17.778100 0.000000
-17.755100 0.000000
-17.732100 0.000000
-17.709200 0.000000
-17.686200 0.000000
-17.663200 0.000000
-17.640300 0.000000
-17.617300 0.000000
-17.594300 0.000000
-17.571400 0.000000
-17.548400 0.000000
-17.525400 0.000000
-17.502500 0.000000
-17.479500 0.000000
-17.456500 0.000000
-17.433600 0.000000
-17.410600 0.000000
-17.387600 0.000000
-17.364700 0.000000
-17.341700 0.000000
-17.318700 0.000000
-17.295700 0.000000
-17.272800 0.000000
-17.249800 0.000000
-17.226800 0.000000
-17.203900 0.000000
-17.180900 0.000000
-17.157900 0.000000
-17.135000 0.000000
-17.112000 0.000000
-17.089000 0.000000
-17.066100 0.000000
-17.043100 0.000000
-17.020100 0.000000
-16.997200 0.000000
-16.974200 0.000000
-16.951200 0.000000
-16.928300 0.000000
-16.905300 0.000000
-16.882300 0.000000
-16.859400 0.000000
-16.836400 0.000000
-16.813400 0.000000
-16.790500 0.000000
-16.767500 0.000000
-16.744500 0.000000
-16.721600 0.000000
-16.698600 0.000000
-16.675600 0.000000
-16.652700 0.000000
-16.629700 0.000000
-16.606700 0.000000
-16.583800 0.000000
-16.560800 0.000000
-16.537800 0.000000
-16.514900 0.000000
-16.491900 0.000000
-16.468900 0.000000
-16.446000 0.000000
-16.423000 0.000000
-16.400000 0.000000
-16.377100 0.000000
-16.354100 0.000000
-16.331100 0.000000
-16.308200 0.000000
-16.285200 0.000000
-16.262200 0.000000
-16.239300 0.000000
-16.216300 0.000000
-16.193300 0.000000
-16.170400 0.000000
-16.147400 0.000000
-16.124400 0.000000
-16.101500 0.000000
-16.078500 0.000000
-16.055500 0.000000
-16.032600 0.000000
-16.009600 0.000000
-15.986600 0.000000
-15.963700 0.000000
-15.940700 0.000000
-15.917700 0.000000
-15.894800 0.000000
-15.871800 0.000000
-15.848800 0.000000
-15.825900 0.000000
-15.802900 0.000000
-15.779900 0.000000
-15.757000 0.000000
-15.734000 0.000000
-15.711000 0.000000
-15.688100 0.000000
-15.665100 0.000000
-15.642100 0.000000
-15.619200 0.000000
-15.596200 0.000000
-15.573200 0.000000
-15.550300 0.000000
-15.527300 0.000000
-15.504300 0.000000
-15.481300 0.000000
-15.458400 0.000000
-15.435400 0.000000
-15.412400 0.000000
-15.389500 0.000000
-15.366500 0.000000
-15.343500 0.000000
-15.320600 0.000000
-15.297600 0.000000
-15.274600 0.000000
-15.251700 0.000000
-15.228700 0.000000
-15.205700 0.000000
-15.182800 0.000000
-15.159800 0.000000
-15.136800 0.000000
-15.113900 0.000000
-15.090900 0.000000
-15.067900 0.000000
-15.045000 0.000000
-15.022000 0.000000
-14.999000 0.000000
-14.976100 0.000000
-14.953100 0.000000
-14.930100 0.000000
-14.907200 0.000000
-14.884200 0.000000
-14.861200 0.000000
-14.838300 0.000000
-14.815300 0.000000
-14.792300 0.000000
-14.769400 0.000000
-14.746400 0.000000
-14.723400 0.000000
-14.700500 0.000000
-14.677500 0.000000
-14.654500 0.000000
-14.631600 0.000000
-14.608600 0.000000
-14.585600 0.000000
-14.562700 0.000000
-14.539700 0.000000
-14.516700 0.000000
-14.493800 0.000000
-14.470800 0.000000
-14.447800 0.000000
-14.424900 0.000000
-14.401900 0.000000
-14.378900 0.000000
-14.356000 0.000000
-14.333000 0.000000
-14.310000 0.000000
-14.287100 0.000000
-14.264100 0.000000
-14.241100 0.000000
-14.218200 0.000000
-14.195200 0.000000
-14.172200 0.000000
-14.149300 0.000000
-14.126300 0.000000
-14.103300 0.000000
-14.080400 0.000000
-14.057400 0.000000
-14.034400 0.000000
-14.011500 0.000000
-13.988500 0.000000
-13.965500 0.000000
-13.942600 0.000000
-13.919600 0.000000
-13.896600 0.000000
-13.873700 0.000000
-13.850700 0.000000
-13.827700 0.000000
-13.804800 0.000000
-13.781800 0.000000
-13.758800 0.000000
-13.735900 0.000000
-13.712900 0.000000
-13.689900 0.000000
-13.667000 0.000000
-13.644000 0.000000
-13.621000 0.000000
-13.598000 0.000000
-13.575100 0.000000
-13.552100 0.000000
-13.529100 0.000000
-13.506200 0.000000
-13.483200 0.000000
-13.460200 0.000000
-13.437300 0.000000
-13.414300 0.000000
-13.391300 0.000000
-13.368400 0.000000
-13.345400 0.000000
-13.322400 0.000000
-13.299500 0.000000
-13.276500 0.000000
-13.253500 0.000000
-13.230600 0.000000
-13.207600 0.000000
-13.184600 0.000000
-13.161700 0.000000
-13.138700 0.000000
-13.115700 0.000000
-13.092800 0.000000
-13.069800 0.000000
-13.046800 0.000000
-13.023900 0.000000
-13.000900 0.000000
-12.977900 0.000000
-12.955000 0.000000
-12.932000 0.000000
-12.909000 0.000000
-12.886100 0.000000
-12.863100 0.000000
-12.840100 0.000000
-12.817200 0.000000
-12.794200 0.000000
-12.771200 0.000000
-12.748300 0.000000
-12.725300 0.000000
-12.702300 0.000000
-12.679400 0.000000
-12.656400 0.000000
-12.633400 0.000000
-12.610500 0.000000
-12.587500 0.000000
-12.564500 0.000000
-12.541600 0.000000
-12.518600 0.000000
-12.495600 0.000000
-12.472700 0.000000
-12.449700 0.000000
-12.426700 0.000000
-12.403800 0.000000
-12.380800 0.000000
-12.357800 0.000000
-12.334900 0.000000
-12.311900 0.000000
-12.288900 0.000000
-12.266000 0.000000
-12.243000 0.000000
-12.220000 0.000000
-12.197100 0.000000
-12.174100 0.000000
-12.151100 0.000000
-12.128200 0.000000
-12.105200 0.000000
-12.082200 0.000000
-12.059300 0.000000
-12.036300 0.000000
-12.013300 0.000000
-11.990400 0.000000
-11.967400 0.000000
-11.944400 0.000000
-11.921500 0.000000
-11.898500 0.000000
-11.875500 0.000000
-11.852600 0.000000
-11.829600 0.000000
-11.806600 0.000000
-11.783600 0.000000
-11.760700 0.000000
-11.737700 0.000000
-11.714700 0.000000
-11.691800 0.000000
-11.668800 0.000000
-11.645800 0.000000
-11.622900 0.000000
-11.599900 0.000000
-11.576900 0.000000
-11.554000 0.000000
-11.531000 0.000000
-11.508000 0.000000
-11.485100 0.000000
-11.462100 0.000000
-11.439100 0.000000
-11.416200 0.000000
-11.393200 0.000000
-11.370200 0.000000
-11.347300 0.000000
-11.324300 0.000000
-11.301300 0.000000
-11.278400 0.000000
-11.255400 0.000000
-11.232400 0.000000
-11.209500 0.000000
-11.186500 0.000000
-11.163500 0.000000
-11.140600 0.000000
-11.117600 0.000000
-11.094600 0.000000
-11.071700 0.000000
-11.048700 0.000000
-11.025700 0.000000
-11.002800 0.000000
-10.979800 0.000000
-10.956800 0.000000
-10.933900 0.000000
-10.910900 0.000000
-10.887900 0.000000
-10.865000 0.000000
-10.842000 0.000000
-10.819000 0.000000
-10.796100 0.000000
-10.773100 0.000000
-10.750100 0.000000
-10.727200 0.000000
-10.704200 0.000000
-10.681200 0.000000
-10.658300 0.000000
-10.635300 0.000000
-10.612300 0.000000
-10.589400 0.000000
-10.566400 0.000000
-10.543400 0.000000
-10.520500 0.000000
-10.497500 0.000000
-10.474500 0.000000
-10.451600 0.000000
-10.428600 0.000000
-10.405600 0.000000
-10.382700 0.000000
-10.359700 0.000000
-10.336700 0.000000
-10.313800 0.000000
-10.290800 0.000000
-10.267800 0.000000
-10.244900 0.000000
-10.221900 0.000000
-10.198900 0.000000
-10.176000 0.000000
-10.153000 0.000000
-10.130000 0.000000
-10.107100 0.000000
-10.084100 0.000000
-10.061100 0.000000
-10.038200 0.000000
-10.015200 0.000000
-9.992200 0.000000
-9.969200 0.000000
-9.946300 0.000000
-9.923300 0.000000
-9.900300 0.000000
-9.877400 0.000000
-9.854400 0.000000
-9.831400 0.000000
-9.808500 0.000000
-9.785500 0.000000
-9.762500 0.000000
-9.739600 0.000000
-9.716600 0.000000
-9.693600 0.000000
-9.670700 0.000000
-9.647700 0.000000
-9.624700 0.000000
-9.601800 0.000000
-9.578800 0.000000
-9.555800 0.000000
-9.532900 0.000000
-9.509900 0.000000
-9.486900 0.000000
-9.464000 0.000000
-9.441000 0.000000
-9.418000 0.000000
-9.395100 0.000000
-9.372100 0.000000
-9.349100 0.000000
-9.326200 0.000000
-9.303200 0.000000
-9.280200 0.000000
-9.257300 0.000000
-9.234300 0.000000
-9.211300 0.000000
-9.188400 0.000000
-9.165400 0.000000
-9.142400 0.000000
-9.119500 0.000000
-9.096500 0.000000
-9.073500 0.000000
-9.050600 0.000000
-9.027600 0.000000
-9.004600 0.000000
-8.981700 0.000000
-8.958700 0.000000
-8.935700 0.000000
-8.912800 0.000000
-8.889800 0.000000
-8.866800 0.000000
-8.843900 0.000000
-8.820900 0.000000
-8.797900 0.000000
-8.775000 0.000000
-8.752000 0.000000
-8.729000 0.000000
-8.706100 0.000000
-8.683100 0.000000
-8.660100 0.000000
-8.637200 0.000000
-8.614200 0.000000
-8.591200 0.000000
-8.568300 0.000000
-8.545300 0.000000
-8.522300 0.000000
-8.499400 0.000000
-8.476400 0.000000
-8.453400 0.000000
-8.430500 0.000000
-8.407500 0.000000
-8.384500 0.000000
-8.361600 0.000000
-8.338600 0.000000
-8.315600 0.000000
-8.292700 0.000000
-8.269700 0.000000
-8.246700 0.000000
-8.223800 0.000000
-8.200800 0.000000
-8.177800 0.000000
-8.154900 0.000000
-8.131900 0.000000
-8.108900 0.000000
-8.085900 0.000000
-8.063000 0.000000
-8.040000 0.000000
-8.017000 0.000000
-7.994100 0.000000
-7.971100 0.000000
-7.948100 0.000000
-7.925200 0.000000
-7.902200 0.000000
-7.879200 0.021700
-7.856300 0.179900
-7.833300 0.203500
-7.810300 0.258500
-7.787400 0.318300
-7.764400 0.358900
-7.741400 0.379700
-7.718500 0.415600
-7.695500 0.453200
-7.672500 0.492100
-7.649600 0.525300
-7.626600 0.550600
-7.603600 0.577800
-7.580700 0.605300
-7.557700 0.635400
-7.534700 0.667700
-7.511800 0.700500
-7.488800 0.731200
-7.465800 0.756500
-7.442900 0.783400
-7.419900 0.811800
-7.396900 0.840700
-7.374000 0.870400
-7.351000 0.901300
-7.328000 0.933100
-7.305100 0.965000
-7.282100 0.995800
-7.259100 1.025500
-7.236200 1.056000
-7.213200 1.088000
-7.190200 1.121100
-7.167300 1.155100
-7.144300 1.189800
-7.121300 1.225500
-7.098400 1.262300
-7.075400 1.299700
-7.052400 1.337500
-7.029500 1.376600
-7.006500 1.417200
-6.983500 1.459500
-6.960600 1.504000
-6.937600 1.550600
-6.914600 1.599400
-6.891700 1.650500
-6.868700 1.704200
-6.845700 1.761700
-6.822800 1.827200
-6.799800 1.902000
-6.776800 1.996600
-6.753900 2.108600
-6.730900 2.235900
-6.707900 2.443500
-6.685000 2.759800
-6.662000 2.722000
-6.639000 2.697000
-6.616100 2.731800
-6.593100 2.569100
-6.570100 2.476100
-6.547200 2.621300
-6.524200 3.000000
-6.501200 2.651400
-6.478300 2.560900
-6.455300 2.609400
-6.432300 2.331700
-6.409400 2.161700
-6.386400 2.131900
-6.363400 2.141300
-6.340500 2.238600
-6.317500 1.853900
-6.294500 2.845000
-6.271500 3.157400
-6.248600 3.093000
-6.225600 2.564600
-6.202600 2.559300
-6.179700 2.635800
-6.156700 2.563300
-6.133700 2.498800
-6.110800 2.443900
-6.087800 2.407400
-6.064800 2.398100
-6.041900 2.394300
-6.018900 2.388300
-5.995900 2.379700
-5.973000 2.335600
-5.950000 2.301600
-5.927000 2.277700
-5.904100 2.253900
-5.881100 2.228600
-5.858100 2.207400
-5.835200 2.180800
-5.812200 2.132000
-5.789200 2.125800
-5.766300 2.088400
-5.743300 2.055900
-5.720300 2.009900
-5.697400 1.937400
-5.674400 1.863900
-5.651400 1.824500
-5.628500 1.807900
-5.605500 1.750000
-5.582500 1.661400
-5.559600 1.414100
-5.536600 1.313000
-5.513600 0.915800
-5.490700 1.001700
-5.467700 1.130600
-5.444700 1.430700
-5.421800 1.881300
-5.398800 2.121500
-5.375800 2.214000
-5.352900 2.570000
-5.329900 2.834400
-5.306900 3.001900
-5.284000 3.307200
-5.261000 3.664400
-5.238000 4.017000
-5.215100 4.396900
-5.192100 5.405500
-5.169100 5.542500
-5.146200 6.042700
-5.123200 6.135500
-5.100200 5.936100
-5.077300 6.173500
-5.054300 6.522500
-5.031300 6.854800
-5.008400 6.604700
-4.985400 5.904200
-4.962400 5.679200
-4.939500 5.578700
-4.916500 6.379200
-4.893500 6.302100
-4.870600 6.044800
-4.847600 5.806100
-4.824600 5.461300
-4.801700 5.020200
-4.778700 5.319900
-4.755700 5.119900
-4.732800 4.980600
-4.709800 4.887700
-4.686800 4.830600
-4.663900 4.609900
-4.640900 4.436100
-4.617900 3.922100
-4.595000 3.488000
-4.572000 2.725300
-4.549000 2.310300
-4.526100 2.494600
-4.503100 3.017500
-4.480100 4.006700
-4.457200 4.734000
-4.434200 5.039700
-4.411200 5.426400
-4.388200 5.533300
-4.365300 5.418600
-4.342300 4.534400
-4.319300 3.200200
-4.296400 2.757900
-4.273400 2.506400
-4.250400 2.636000
-4.227500 2.177100
-4.204500 2.311000
-4.181500 2.517900
-4.158600 2.901500
-4.135600 3.467300
-4.112600 4.646400
-4.089700 6.942100
-4.066700 7.236800
-4.043700 7.088300
-4.020800 7.596100
-3.997800 8.671200
-3.974800 9.661000
-3.951900 11.306200
-3.928900 10.503300
-3.905900 7.900000
-3.883000 5.812900
-3.860000 6.587800
-3.837000 8.319500
-3.814100 8.844200
-3.791100 10.703100
-3.768100 10.972900
-3.745200 9.446200
-3.722200 7.668600
-3.699200 6.275000
-3.676300 7.192300
-3.653300 7.347600
-3.630300 6.597000
-3.607400 6.013700
-3.584400 6.013100
-3.561400 6.953300
-3.538500 7.589700
-3.515500 6.694500
-3.492500 7.353800
-3.469600 7.930500
-3.446600 6.210500
-3.423600 5.963900
-3.400700 6.049700
-3.377700 6.359300
-3.354700 6.699400
-3.331800 6.792800
-3.308800 5.926000
-3.285800 5.349700
-3.262900 5.100600
-3.239900 4.646000
-3.216900 4.273400
-3.194000 4.254000
-3.171000 4.682200
-3.148000 4.250000
-3.125100 4.556100
-3.102100 4.917500
-3.079100 4.791200
-3.056200 4.326200
-3.033200 4.911800
-3.010200 5.422300
-2.987300 5.610500
-2.964300 5.884000
-2.941300 6.146400
-2.918400 6.331000
-2.895400 6.593400
-2.872400 6.673200
-2.849500 6.618700
-2.826500 7.556900
-2.803500 7.374500
-2.780600 7.188000
-2.757600 7.371200
-2.734600 7.547600
-2.711700 5.868800
-2.688700 6.311500
-2.665700 7.827600
-2.642800 8.095600
-2.619800 6.366800
-2.596800 6.231400
-2.573800 6.745600
-2.550900 6.371100
-2.527900 7.081400
-2.504900 8.252100
-2.482000 8.375000
-2.459000 7.618800
-2.436000 7.160500
-2.413100 6.700500
-2.390100 6.737900
-2.367100 6.957200
-2.344200 8.494100
-2.321200 10.607000
-2.298200 10.685500
-2.275300 8.474400
-2.252300 8.700500
-2.229300 9.366600
-2.206400 10.122500
-2.183400 9.640200
-2.160400 8.801200
-2.137500 9.584100
-2.114500 10.727800
-2.091500 11.478700
-2.068600 11.880600
-2.045600 10.368900
-2.022600 10.257000
-1.999700 12.301100
-1.976700 12.468100
-1.953700 13.068700
-1.930800 14.257800
-1.907800 14.784600
-1.884800 14.842900
-1.861900 16.499400
-1.838900 20.262600
-1.815900 20.475100
-1.793000 23.178600
-1.770000 24.924100
-1.747000 18.934600
-1.724100 16.687400
-1.701100 14.820000
-1.678100 12.427300
-1.655200 11.890000
-1.632200 11.706500
-1.609200 11.120900
-1.586300 11.210000
-1.563300 13.461800
-1.540300 12.974800
-1.517400 12.943700
-1.494400 9.467100
-1.471400 7.702500
-1.448500 9.160100
-1.425500 14.439700
-1.402500 12.152500
-1.379600 8.222100
-1.356600 7.855600
-1.333600 7.672900
-1.310700 7.559900
-1.287700 7.524300
-1.264700 7.423500
-1.241800 7.365600
-1.218800 7.538600
-1.195800 7.354900
-1.172900 6.529000
-1.149900 2.053200
-1.126900 0.490800
-1.104000 0.000000
-1.081000 0.000000
-1.058000 0.000000
-1.035100 0.000000
-1.012100 0.000000
-0.989100 0.000000
-0.966200 0.000000
-0.943200 0.000000
-0.920200 0.000000
-0.897300 0.000000
-0.874300 0.000000
-0.851300 0.000000
-0.828400 0.000000
-0.805400 0.000000
-0.782400 0.000000
-0.759500 0.000000
-0.736500 0.000000
-0.713500 0.000000
-0.690500 0.000000
-0.667600 0.000000
-0.644600 0.000000
-0.621600 0.000000
-0.598700 0.000000
-0.575700 0.000000
-0.552700 0.000000
-0.529800 0.000000
-0.506800 0.000000
-0.483800 0.000000
-0.460900 0.000000
-0.437900 0.000000
-0.414900 0.000000
-0.392000 0.000000
-0.369000 0.000000
-0.346000 0.000000
-0.323100 0.000000
-0.300100 0.000000
-0.277100 0.000000
-0.254200 0.000000
-0.231200 0.000000
-0.208200 0.000000
-0.185300 0.000000
-0.162300 0.000000
-0.139300 0.000000
-0.116400 0.000000
-0.093400 0.000000
-0.070400 0.000000
-0.047500 0.000000
-0.024500 0.000000
-0.001500 0.000000
0.021400 0.000000
0.044400 0.000000
0.067400 0.000000
0.090300 0.000000
0.113300 0.000000
0.136300 0.000000
0.159200 0.000000
0.182200 0.000000
0.205200 0.000000
0.228100 0.000000
0.251100 0.000000
0.274100 0.000000
0.297000 0.000000
0.320000 0.000000
0.343000 0.000000
0.365900 0.000000
0.388900 0.000000
0.411900 0.000000
0.434800 0.000000
0.457800 0.000000
0.480800 0.000000
0.503700 0.000000
0.526700 0.000000
0.549700 0.000000
0.572600 0.000000
0.595600 0.000000
0.618600 0.000000
0.641500 0.000000
0.664500 0.000000
0.687500 0.000000
0.710400 0.000000
0.733400 0.000000
0.756400 0.000000
0.779300 0.000000
0.802300 0.000000
0.825300 0.000000
0.848200 0.000000
0.871200 0.000000
0.894200 0.000000
0.917100 0.000000
0.940100 0.000000
0.963100 0.000000
0.986000 0.000000
1.009000 0.000000
1.032000 0.000000
1.054900 0.000000
1.077900 0.000000
1.100900 0.000000
1.123900 0.000000
1.146800 0.000000
1.169800 0.000000
1.192800 0.000000
1.215700 0.000000
1.238700 0.000000
1.261700 0.000000
1.284600 0.000000
1.307600 0.000000
1.330600 0.000000
1.353500 0.000000
1.376500 0.000000
1.399500 0.000000
1.422400 0.000000
1.445400 0.000000
1.468400 0.000000
1.491300 0.000000
1.514300 0.000000
1.537300 0.000000
1.560200 0.000000
1.583200 0.000000
1.606200 0.000000
1.629100 0.000000
1.652100 0.000000
1.675100 0.000000
1.698000 0.000000
1.721000 0.000000
1.744000 0.000000
1.766900 0.000000
1.789900 0.000000
1.812900 0.000000
1.835800 0.000000
1.858800 0.000000
1.881800 0.000000
1.904700 0.000000
1.927700 0.000000
1.950700 0.000000
1.973600 0.000000
1.996600 0.000000
2.019600 0.000000
2.042500 0.000000
2.065500 0.000000
2.088500 0.000000
2.111400 0.000000
2.134400 0.000000
2.157400 0.000000
2.180300 0.000000
2.203300 0.000000
2.226300 0.000000
2.249200 0.000000
2.272200 0.000000
2.295200 0.000000
2.318100 0.000000
2.341100 0.000000
2.364100 0.000000
2.387000 0.000000
2.410000 0.000000
2.433000 0.000000
2.455900 0.000000
2.478900 0.000000
2.501900 0.000000
2.524800 0.000000
2.547800 0.000000
2.570800 0.000000
2.593700 0.000000
2.616700 0.000000
2.639700 0.000000
2.662600 0.000000
2.685600 0.000000
2.708600 0.000000
2.731500 0.000000
2.754500 0.000000
2.777500 0.000000
2.800400 0.000000
2.823400 0.000000
2.846400 0.000000
2.869300 0.000000
2.892300 0.000000
2.915300 0.000000
2.938200 0.000000
2.961200 0.000000
2.984200 0.000000
3.007200 0.000000
3.030100 0.000000
3.053100 0.000000
3.076100 0.000000
3.099000 0.000000
3.122000 0.000000
3.145000 0.000000
3.167900 0.000000
3.190900 0.000000
3.213900 0.000000
3.236800 0.000000
3.259800 0.000000
3.282800 0.000000
3.305700 0.000000
3.328700 0.000000
3.351700 0.000000
3.374600 0.000000
3.397600 0.000000
3.420600 0.000000
3.443500 0.000000
3.466500 0.000000
3.489500 0.000000
3.512400 0.000000
3.535400 0.000000
3.558400 0.000000
3.581300 0.000000
3.604300 0.000000
3.627300 0.000000
3.650200 0.000000
3.673200 0.000000
3.696200 0.000000
3.719100 0.000000
3.742100 0.000000
3.765100 0.000000
3.788000 0.000000
3.811000 0.000000
3.834000 0.000000
3.856900 0.000000
3.879900 0.000000
3.902900 0.000000
3.925800 0.000000
3.948800 0.000000
3.971800 0.000000
3.994700 0.000000
4.017700 0.000000
4.040700 0.000000
4.063600 0.000000
4.086600 0.000000
4.109600 0.000000
4.132500 0.000000
4.155500 0.000000
4.178500 0.000000
4.201400 0.000000
4.224400 0.000000
4.247400 0.000000
4.270300 0.000000
4.293300 0.000000
4.316300 0.000000
4.339200 0.000000
4.362200 0.000000
4.385200 0.000000
4.408100 0.000000
4.431100 0.000000
4.454100 0.000000
4.477000 0.000000
4.500000 0.000000
4.523000 0.000000
4.545900 0.000000
4.568900 0.000000
4.591900 0.000000
4.614800 0.000000
4.637800 0.000000
4.660800 0.000000
4.683700 0.000000
4.706700 0.000000
4.729700 0.000000
4.752600 0.000000
4.775600 0.000000
4.798600 0.000000
4.821600 0.000000
4.844500 0.000000
4.867500 0.000000
4.890500 0.000000
4.913400 0.000000
4.936400 0.000000
4.959400 0.000000
4.982300 0.000000
5.005300 0.000000
5.028300 0.000000
5.051200 0.000000
5.074200 0.000000
5.097200 0.000000
5.120100 0.000000
5.143100 0.000000
5.166100 0.000000
5.189000 0.000000
5.212000 0.000000
5.235000 0.000000
5.257900 0.000000
5.280900 0.000000
5.303900 0.000000
5.326800 0.000000
5.349800 0.000000
5.372800 0.000000
5.395700 0.000000
5.418700 0.000000
5.441700 0.000000
5.464600 0.000000
5.487600 0.000000
5.510600 0.000000
5.533500 0.000000
5.556500 0.000000
5.579500 0.000000
5.602400 0.000000
5.625400 0.000000
5.648400 0.000000
5.671300 0.000000
5.694300 0.000000
5.717300 0.000000
5.740200 0.000000
5.763200 0.000000
5.786200 0.000000
5.809100 0.000000
5.832100 0.000000
5.855100 0.000000
5.878000 0.000000
5.901000 0.000000
5.924000 0.000000
5.946900 0.000000
5.969900 0.000000
5.992900 0.000000
6.015800 0.000000
6.038800 0.000000
6.061800 0.000000
6.084700 0.000000
6.107700 0.000000
6.130700 0.000000
6.153600 0.000000
6.176600 0.000000
6.199600 0.000000
6.222500 0.000000
6.245500 0.000000
6.268500 0.000000
6.291400 0.000000
6.314400 0.000000
6.337400 0.000000
6.360300 0.000000
6.383300 0.000000
6.406300 0.000000
6.429200 0.000000
6.452200 0.000000
6.475200 0.000000
6.498100 0.006000
6.521100 0.022300
6.544100 0.048900
6.567000 0.085700
6.590000 0.076100
6.613000 0.083300
6.635900 0.092600
6.658900 0.102300
6.681900 0.112300
6.704900 0.122700
6.727800 0.133400
6.750800 0.142400
6.773800 0.149000
6.796700 0.153400
6.819700 0.157000
6.842700 0.163100
6.865600 0.169900
6.888600 0.176800
6.911600 0.183800
6.934500 0.190900
6.957500 0.198100
6.980500 0.205300
7.003400 0.212700
7.026400 0.220200
7.049400 0.225400
7.072300 0.230600
7.095300 0.236300
7.118300 0.242100
7.141200 0.247800
7.164200 0.253400
7.187200 0.259100
7.210100 0.265000
7.233100 0.271000
7.256100 0.277200
7.279000 0.283600
7.302000 0.290000
7.325000 0.296500
7.347900 0.303000
7.370900 0.309600
7.393900 0.316100
7.416800 0.322300
7.439800 0.328100
7.462800 0.333500
7.485700 0.339200
7.508700 0.345200
7.531700 0.351200
7.554600 0.357300
7.577600 0.363400
7.600600 0.369500
7.623500 0.375700
7.646500 0.381900
7.669500 0.388100
7.692400 0.394500
7.715400 0.400900
7.738400 0.407400
7.761300 0.413900
7.784300 0.420400
7.807300 0.427000
7.830200 0.433600
7.853200 0.440000
7.876200 0.446400
7.899100 0.452900
7.922100 0.459400
7.945100 0.465900
7.968000 0.472400
7.991000 0.479000
8.014000 0.485600
8.036900 0.492300
8.059900 0.499100
8.082900 0.505900
8.105800 0.512700
8.128800 0.519600
8.151800 0.526500
8.174700 0.533400
8.197700 0.540300
8.220700 0.547400
8.243600 0.554400
8.266600 0.561500
8.289600 0.568600
8.312500 0.575800
8.335500 0.583100
8.358500 0.590400
8.381400 0.597800
8.404400 0.605300
8.427400 0.612800
8.450300 0.620400
8.473300 0.628000
8.496300 0.635600
8.519300 0.643300
8.542200 0.651100
8.565200 0.658900
8.588200 0.666800
8.611100 0.674700
8.634100 0.682700
8.657100 0.690800
8.680000 0.698900
8.703000 0.707000
8.726000 0.715300
8.748900 0.723600
8.771900 0.731900
8.794900 0.740400
8.817800 0.749000
8.840800 0.757800
8.863800 0.767100
8.886700 0.777200
8.909700 0.787900
8.932700 0.799300
8.955600 0.812700
8.978600 0.826400
9.001600 0.840300
9.024500 0.858600
9.047500 0.876400
9.070500 0.893400
9.093400 0.909400
9.116400 0.939900
9.139400 0.966100
9.162300 0.987100
9.185300 1.029900
9.208300 1.048700
9.231200 1.047300
9.254200 1.014900
9.277200 0.965400
9.300100 0.953500
9.323100 0.944500
9.346100 0.938400
9.369000 0.937200
9.392000 0.948100
9.415000 0.966400
9.437900 0.999600
9.460900 1.055600
9.483900 1.049600
9.506800 1.069500
9.529800 1.134600
9.552800 1.168000
9.575700 1.369800
9.598700 1.258200
9.621700 1.232700
9.644600 1.197300
9.667600 1.163700
9.690600 1.154500
9.713500 1.268900
9.736500 1.151800
9.759500 1.210800
9.782400 1.277300
9.805400 1.206700
9.828400 1.220900
9.851300 1.219300
9.874300 1.208500
9.897300 1.197600
9.920200 1.187000
9.943200 1.175000
9.966200 1.178800
9.989100 1.028600
10.012100 1.048800
10.035100 1.064800
10.058000 1.159600
10.081000 1.206900
10.104000 1.373700
10.126900 1.153000
10.149900 1.064900
10.172900 1.339800
10.195800 1.152100
10.218800 1.105800
10.241800 1.106600
10.264700 1.111200
10.287700 1.119400
10.310700 1.131200
10.333600 1.140900
10.356600 1.136800
10.379600 1.131500
10.402600 1.124700
10.425500 1.122000
10.448500 1.122600
10.471500 1.125000
10.494400 1.127100
10.517400 1.217400
10.540400 1.169400
10.563300 1.159400
10.586300 1.197500
10.609300 1.210900
10.632200 1.178100
10.655200 1.162300
10.678200 1.153200
10.701100 1.145300
10.724100 1.169200
10.747100 1.254300
10.770000 1.312200
10.793000 1.387700
10.816000 1.497400
10.838900 1.403300
10.861900 1.309700
10.884900 1.255200
10.907800 1.197900
10.930800 1.161600
10.953800 1.164100
10.976700 1.182900
10.999700 1.260400
11.022700 1.553900
11.045600 1.697600
11.068600 1.770100
11.091600 1.868000
11.114500 1.976800
11.137500 2.041100
11.160500 2.062000
11.183400 2.154100
11.206400 2.287700
11.229400 2.260300
11.252300 2.221800
11.275300 2.304300
11.298300 2.316800
11.321200 2.281600
11.344200 2.322800
11.367200 2.383800
11.390100 2.465900
11.413100 2.559000
11.436100 2.699300
11.459000 3.188400
11.482000 5.081100
11.505000 3.821500
11.527900 3.627700
11.550900 3.355100
11.573900 3.373300
11.596800 3.474300
11.619800 3.629700
11.642800 2.930900
11.665700 2.848400
11.688700 2.990100
11.711700 3.154800
11.734600 3.335900
11.757600 3.765800
11.780600 4.343400
11.803500 4.634300
11.826500 3.973000
11.849500 3.738300
11.872400 3.484400
11.895400 3.485300
11.918400 3.827600
11.941300 4.118100
11.964300 4.169700
11.987300 4.082600
12.010200 4.608400
12.033200 4.599400
12.056200 4.489000
12.079100 4.533600
12.102100 4.663700
12.125100 5.030900
12.148000 5.013100
12.171000 5.179800
12.194000 4.956500
12.217000 4.896700
12.239900 4.337300
12.262900 3.579900
12.285900 3.139300
12.308800 2.819600
12.331800 2.260000
12.354800 1.533400
12.377700 1.177300
12.400700 1.108300
12.423700 1.071100
12.446600 1.040400
12.469600 0.978300
12.492600 0.871000
12.515500 0.814200
12.538500 0.770300
12.561500 0.688600
12.584400 0.823700
12.607400 1.222400
12.630400 1.712800
12.653300 1.530300
12.676300 1.524300
12.699300 1.549300
12.722200 1.592400
12.745200 1.659100
12.768200 1.731300
12.791100 1.808300
12.814100 1.899300
12.837100 1.986700
12.860000 2.061000
12.883000 2.118700
12.906000 2.180000
12.928900 2.251100
12.951900 2.324400
12.974900 2.392600
12.997800 2.408000
13.020800 2.384500
13.043800 2.407000
13.066700 2.435800
13.089700 2.464600
13.112700 2.501000
13.135600 2.547600
13.158600 2.600200
13.181600 2.659900
13.204500 2.752000
13.227500 2.847500
13.250500 2.960500
13.273400 3.111000
13.296400 3.105400
13.319400 3.015400
13.342300 2.868700
13.365300 2.862900
13.388300 2.855000
13.411200 2.817700
13.434200 2.798300
13.457200 2.790900
13.480100 2.739100
13.503100 2.726000
13.526100 2.732900
13.549000 2.696200
13.572000 2.657700
13.595000 2.594600
13.617900 2.527200
13.640900 2.417700
13.663900 2.097500
13.686800 1.875800
13.709800 1.719400
13.732800 1.589400
13.755700 1.473000
13.778700 1.418100
13.801700 1.573600
13.824600 1.648100
13.847600 1.843100
13.870600 2.037500
13.893500 2.203300
13.916500 2.309500
13.939500 2.367300
13.962400 2.475600
13.985400 2.690100
14.008400 2.663600
14.031400 2.720800
14.054300 2.715600
14.077300 2.710100
14.100300 2.615800
14.123200 2.498800
14.146200 2.368300
14.169200 2.069300
14.192100 1.829800
14.215100 1.658600
14.238100 1.533900
14.261000 1.407500
14.284000 1.302300
14.307000 1.158500
14.329900 0.964600
14.352900 0.713200
14.375900 0.523500
14.398800 0.531600
14.421800 0.590100
14.444800 0.766100
14.467700 1.288700
14.490700 2.161900
14.513700 3.337900
14.536600 4.278800
14.559600 4.936200
14.582600 5.537800
14.605500 5.173600
14.628500 4.698400
14.651500 4.966000
14.674400 4.817600
14.697400 4.788700
14.720400 4.855800
14.743300 5.197500
14.766300 5.458100
14.789300 5.017300
14.812200 4.119500
14.835200 3.818700
14.858200 3.569100
14.881100 3.057900
14.904100 3.060300
14.927100 2.484200
14.950000 2.079200
14.973000 1.904200
14.996000 1.876300
15.018900 2.204100
15.041900 2.955700
15.064900 3.615700
15.087800 4.027200
15.110800 4.575000
15.133800 4.588300
15.156700 4.533900
15.179700 4.871100
15.202700 4.702400
15.225600 4.416000
15.248600 4.102400
15.271600 3.729000
15.294500 4.035400
15.317500 3.861900
15.340500 3.775100
15.363400 3.624900
15.386400 3.617700
15.409400 3.557800
15.432300 3.457500
15.455300 3.792000
15.478300 3.883100
15.501200 4.683800
15.524200 5.908700
15.547200 5.080400
15.570100 4.938600
15.593100 6.523400
15.616100 7.599900
15.639000 6.250100
15.662000 5.346400
15.685000 5.084800
15.707900 5.079500
15.730900 5.087700
15.753900 5.283200
15.776800 5.261400
15.799800 5.076000
15.822800 4.896500
15.845700 5.153800
15.868700 5.411300
15.891700 5.782300
15.914700 6.578500
15.937600 6.763900
15.960600 6.959500
15.983600 6.725200
16.006500 6.607200
16.029500 6.517300
16.052500 6.571200
16.075400 6.457700
16.098400 6.413400
16.121400 6.458800
16.144300 6.633700
16.167300 6.826200
16.190300 6.635000
16.213200 6.659800
16.236200 6.470300
16.259200 6.064400
16.282100 5.783400
16.305100 6.114700
16.328100 5.512500
16.351000 5.782600
16.374000 5.680700
16.397000 5.102500
16.419900 5.520800
16.442900 6.145800
16.465900 6.817400
16.488800 7.273900
16.511800 7.063300
16.534800 7.047200
16.557700 6.965100
16.580700 7.097600
16.603700 7.685100
16.626600 7.810400
16.649600 7.691800
16.672600 8.902100
16.695500 8.898500
16.718500 8.501200
16.741500 6.330900
16.764400 7.220100
16.787400 5.713900
16.810400 6.122400
16.833300 7.493700
16.856300 8.313500
16.879300 7.393600
16.902200 6.668800
16.925200 5.180600
16.948200 5.284600
16.971100 7.128000
16.994100 7.095200
17.017100 8.282500
17.040000 8.331800
17.063000 9.047600
17.086000 7.906700
17.108900 6.447900
17.131900 5.691900
17.154900 5.331800
17.177800 4.919600
17.200800 5.296700
17.223800 5.142300
17.246700 5.075400
17.269700 5.541300
17.292700 7.096300
17.315600 6.513200
17.338600 6.414700
17.361600 6.338000
17.384500 5.851100
17.407500 5.006400
17.430500 4.619200
17.453400 4.516900
17.476400 4.554600
17.499400 4.825900
17.522300 3.417300
17.545300 3.233200
17.568300 3.304200
17.591200 3.411800
17.614200 3.480800
17.637200 3.555400
17.660100 3.672400
17.683100 3.792100
17.706100 3.982400
17.729100 4.262000
17.752000 4.416600
17.775000 4.515000
17.798000 3.968100
17.820900 3.594000
17.843900 3.427300
17.866900 3.200100
17.889800 2.988900
17.912800 2.924300
17.935800 2.916000
17.958700 3.087000
17.981700 3.045400
18.004700 2.995200
18.027600 2.989800
18.050600 2.969100
18.073600 2.923200
18.096500 2.861400
18.119500 2.766600
18.142500 2.689200
18.165400 2.648800
18.188400 2.622000
18.211400 2.548700
18.234300 2.417100
18.257300 2.406200
18.280300 2.406400
18.303200 2.450000
18.326200 2.736400
18.349200 2.306400
18.372100 1.724500
18.395100 1.604000
18.418100 1.423300
18.441000 1.329800
18.464000 1.302600
18.487000 1.282500
18.509900 1.268500
18.532900 1.273500
18.555900 1.275900
18.578800 1.268600
18.601800 1.262900
18.624800 1.275600
18.647700 1.321000
18.670700 1.360400
18.693700 1.420200
18.716600 1.362500
18.739600 1.174900
18.762600 0.966000
18.785500 0.741300
18.808500 0.534100
18.831500 0.366800
18.854400 0.232800
18.877400 0.153600
18.900400 0.101400
18.923300 0.065100
18.946300 0.042000
18.969300 0.024000
18.992200 0.011000
19.015200 0.003000
19.038200 0.000000
19.061100 0.000000
19.084100 0.000000
19.107100 0.000000
19.130000 0.000000
19.153000 0.000000
19.176000 0.000000
19.198900 0.000000
19.221900 0.000000
19.244900 0.000000
19.267800 0.000000
19.290800 0.000000
19.313800 0.000000
19.336700 0.000000
19.359700 0.000000
19.382700 0.000000
19.405600 0.000000
19.428600 0.000000
19.451600 0.000000
19.474500 0.000000
19.497500 0.000000
19.520500 0.000000
19.543400 0.000000
19.566400 0.000000
19.589400 0.000000
19.612400 0.000000
19.635300 0.000000
19.658300 0.000000
19.681300 0.000000
19.704200 0.000000
19.727200 0.000000
19.750200 0.000000
19.773100 0.000000
19.796100 0.000000
19.819100 0.000000
19.842000 0.000000
19.865000 0.000000
19.888000 0.000000
19.910900 0.000000
19.933900 0.000000
19.956900 0.000000
19.979800 0.000000
20.002800 0.000000
20.025800 0.000000
20.048700 0.000000
20.071700 0.000000
20.094700 0.000000
20.117600 0.000000
20.140600 0.000000
20.163600 0.000000
20.186500 0.000000
20.209500 0.000000
20.232500 0.000000
20.255400 0.000000
20.278400 0.000000
20.301400 0.000000
20.324300 0.000000
20.347300 0.000000
20.370300 0.000000
20.393200 0.000000
20.416200 0.000000
20.439200 0.000000
20.462100 0.000000
20.485100 0.000000
20.508100 0.000000
20.531000 0.000000
20.554000 0.000000
20.577000 0.000000
20.599900 0.000000
20.622900 0.000000
20.645900 0.000000
20.668800 0.000000
20.691800 0.000000
20.714800 0.000000
20.737700 0.000000
20.760700 0.000000
20.783700 0.000000
20.806600 0.000000
20.829600 0.000000
20.852600 0.000000
20.875500 0.000000
20.898500 0.000000
20.921500 0.000000
20.944400 0.000000
20.967400 0.000000
20.990400 0.000000
21.013300 0.000000
21.036300 0.000000
21.059300 0.000000
21.082200 0.000000
21.105200 0.000000
21.128200 0.000000
e
