set title 'mp-7302 - Density of States'
set xlabel 'Energy (eV)'
set ylabel 'DOS (states/eV)'
set grid
set xrange [-10:10]
set yrange [0:9.585]
set xzeroaxis lt -1
set terminal png size 800,600
set output 'mp-7302_dos_gnuplot.png'
plot '-' using 1:2 with lines title 'DOS'
-37.790500 0.000000
-37.756900 0.000000
-37.723300 0.000000
-37.689700 0.000000
-37.656000 0.000000
-37.622400 0.000000
-37.588800 0.000000
-37.555200 0.000000
-37.521600 0.000000
-37.488000 0.000000
-37.454400 0.000000
-37.420800 0.000000
-37.387200 0.000000
-37.353600 0.000000
-37.320000 0.000000
-37.286300 0.000000
-37.252700 0.000000
-37.219100 0.000000
-37.185500 0.000000
-37.151900 0.000000
-37.118300 0.000000
-37.084700 0.000000
-37.051100 0.000000
-37.017500 0.000000
-36.983900 0.000000
-36.950200 0.000000
-36.916600 0.000000
-36.883000 0.000000
-36.849400 0.000000
-36.815800 0.000000
-36.782200 0.000000
-36.748600 0.000000
-36.715000 0.000000
-36.681400 0.000000
-36.647800 0.000000
-36.614100 0.000000
-36.580500 0.000000
-36.546900 0.000000
-36.513300 0.000000
-36.479700 0.000000
-36.446100 0.000000
-36.412500 0.000000
-36.378900 0.000000
-36.345300 0.000000
-36.311700 0.000000
-36.278000 0.000000
-36.244400 0.000000
-36.210800 0.000000
-36.177200 0.000000
-36.143600 0.000000
-36.110000 0.000000
-36.076400 0.000000
-36.042800 0.000000
-36.009200 0.000000
-35.975600 0.000000
-35.942000 0.000000
-35.908300 0.000000
-35.874700 0.000000
-35.841100 0.000000
-35.807500 0.000000
-35.773900 0.000000
-35.740300 0.000000
-35.706700 0.000000
-35.673100 0.000000
-35.639500 0.000000
-35.605900 0.000000
-35.572200 0.000000
-35.538600 0.000000
-35.505000 0.000000
-35.471400 0.000000
-35.437800 0.000000
-35.404200 0.000000
-35.370600 0.000000
-35.337000 0.000000
-35.303400 0.000000
-35.269800 0.000000
-35.236100 0.000000
-35.202500 0.000000
-35.168900 0.000000
-35.135300 0.000000
-35.101700 0.000000
-35.068100 0.000000
-35.034500 0.000000
-35.000900 0.000000
-34.967300 0.000000
-34.933700 0.000000
-34.900000 0.000000
-34.866400 0.000000
-34.832800 0.000000
-34.799200 0.000000
-34.765600 0.000000
-34.732000 105.589700
-34.698400 53.765600
-34.664800 0.000000
-34.631200 0.000000
-34.597600 0.000000
-34.564000 0.000000
-34.530300 0.000000
-34.496700 0.000000
-34.463100 0.000000
-34.429500 0.000000
-34.395900 0.000000
-34.362300 0.000000
-34.328700 0.000000
-34.295100 0.000000
-34.261500 0.000000
-34.227900 0.000000
-34.194200 0.000000
-34.160600 0.000000
-34.127000 0.000000
-34.093400 0.000000
-34.059800 0.000000
-34.026200 0.000000
-33.992600 0.000000
-33.959000 0.000000
-33.925400 0.000000
-33.891800 0.000000
-33.858100 0.000000
-33.824500 0.000000
-33.790900 0.000000
-33.757300 0.000000
-33.723700 0.000000
-33.690100 0.000000
-33.656500 0.000000
-33.622900 0.000000
-33.589300 0.000000
-33.555700 0.000000
-33.522000 0.000000
-33.488400 0.000000
-33.454800 0.000000
-33.421200 0.000000
-33.387600 0.000000
-33.354000 0.000000
-33.320400 0.000000
-33.286800 0.000000
-33.253200 0.000000
-33.219600 0.000000
-33.186000 0.000000
-33.152300 0.000000
-33.118700 0.000000
-33.085100 0.000000
-33.051500 0.000000
-33.017900 0.000000
-32.984300 0.000000
-32.950700 0.000000
-32.917100 0.000000
-32.883500 0.000000
-32.849900 0.000000
-32.816200 0.000000
-32.782600 0.000000
-32.749000 0.000000
-32.715400 0.000000
-32.681800 0.000000
-32.648200 0.000000
-32.614600 0.000000
-32.581000 0.000000
-32.547400 0.000000
-32.513800 0.000000
-32.480100 0.000000
-32.446500 0.000000
-32.412900 0.000000
-32.379300 0.000000
-32.345700 0.000000
-32.312100 0.000000
-32.278500 0.000000
-32.244900 0.000000
-32.211300 0.000000
-32.177700 0.000000
-32.144000 0.000000
-32.110400 0.000000
-32.076800 0.000000
-32.043200 0.000000
-32.009600 0.000000
-31.976000 0.000000
-31.942400 0.000000
-31.908800 0.000000
-31.875200 0.000000
-31.841600 0.000000
-31.808000 0.000000
-31.774300 0.000000
-31.740700 0.000000
-31.707100 0.000000
-31.673500 0.000000
-31.639900 0.000000
-31.606300 0.000000
-31.572700 0.000000
-31.539100 0.000000
-31.505500 0.000000
-31.471900 0.000000
-31.438200 0.000000
-31.404600 0.000000
-31.371000 0.000000
-31.337400 0.000000
-31.303800 0.000000
-31.270200 0.000000
-31.236600 0.000000
-31.203000 0.000000
-31.169400 0.000000
-31.135800 0.000000
-31.102100 0.000000
-31.068500 0.000000
-31.034900 0.000000
-31.001300 0.000000
-30.967700 0.000000
-30.934100 0.000000
-30.900500 0.000000
-30.866900 0.000000
-30.833300 0.000000
-30.799700 0.000000
-30.766000 0.000000
-30.732400 0.000000
-30.698800 0.000000
-30.665200 0.000000
-30.631600 0.000000
-30.598000 0.000000
-30.564400 0.000000
-30.530800 0.000000
-30.497200 0.000000
-30.463600 0.000000
-30.430000 0.000000
-30.396300 0.000000
-30.362700 0.000000
-30.329100 0.000000
-30.295500 0.000000
-30.261900 0.000000
-30.228300 0.000000
-30.194700 0.000000
-30.161100 0.000000
-30.127500 0.000000
-30.093900 0.000000
-30.060200 0.000000
-30.026600 0.000000
-29.993000 0.000000
-29.959400 0.000000
-29.925800 0.000000
-29.892200 0.000000
-29.858600 0.000000
-29.825000 0.000000
-29.791400 0.000000
-29.757800 0.000000
-29.724100 0.000000
-29.690500 0.000000
-29.656900 0.000000
-29.623300 0.000000
-29.589700 0.000000
-29.556100 0.000000
-29.522500 0.000000
-29.488900 0.000000
-29.455300 0.000000
-29.421700 0.000000
-29.388000 0.000000
-29.354400 0.000000
-29.320800 0.000000
-29.287200 0.000000
-29.253600 0.000000
-29.220000 0.000000
-29.186400 0.000000
-29.152800 0.000000
-29.119200 0.000000
-29.085600 0.000000
-29.051900 0.000000
-29.018300 0.000000
-28.984700 0.000000
-28.951100 0.000000
-28.917500 0.000000
-28.883900 0.000000
-28.850300 0.000000
-28.816700 0.000000
-28.783100 0.000000
-28.749500 0.000000
-28.715900 0.000000
-28.682200 0.000000
-28.648600 0.000000
-28.615000 0.000000
-28.581400 0.000000
-28.547800 0.000000
-28.514200 0.000000
-28.480600 0.000000
-28.447000 0.000000
-28.413400 0.000000
-28.379800 0.000000
-28.346100 0.000000
-28.312500 0.000000
-28.278900 0.000000
-28.245300 0.000000
-28.211700 0.000000
-28.178100 0.000000
-28.144500 0.000000
-28.110900 0.000000
-28.077300 0.000000
-28.043700 0.000000
-28.010000 0.000000
-27.976400 0.000000
-27.942800 0.000000
-27.909200 0.000000
-27.875600 0.000000
-27.842000 0.000000
-27.808400 0.000000
-27.774800 0.000000
-27.741200 0.000000
-27.707600 0.000000
-27.673900 0.000000
-27.640300 0.000000
-27.606700 0.000000
-27.573100 0.000000
-27.539500 0.000000
-27.505900 0.000000
-27.472300 0.000000
-27.438700 0.000000
-27.405100 0.000000
-27.371500 0.000000
-27.337900 0.000000
-27.304200 0.000000
-27.270600 0.000000
-27.237000 0.000000
-27.203400 0.000000
-27.169800 0.000000
-27.136200 0.000000
-27.102600 0.000000
-27.069000 0.000000
-27.035400 0.000000
-27.001800 0.000000
-26.968100 0.000000
-26.934500 0.000000
-26.900900 0.000000
-26.867300 0.000000
-26.833700 0.000000
-26.800100 0.000000
-26.766500 0.000000
-26.732900 0.000000
-26.699300 0.000000
-26.665700 0.000000
-26.632000 0.000000
-26.598400 0.000000
-26.564800 0.000000
-26.531200 0.000000
-26.497600 0.000000
-26.464000 0.000000
-26.430400 0.000000
-26.396800 0.000000
-26.363200 0.000000
-26.329600 0.000000
-26.295900 0.000000
-26.262300 0.000000
-26.228700 0.000000
-26.195100 0.000000
-26.161500 0.000000
-26.127900 0.000000
-26.094300 0.000000
-26.060700 0.000000
-26.027100 0.000000
-25.993500 0.000000
-25.959900 0.000000
-25.926200 0.000000
-25.892600 0.000000
-25.859000 0.000000
-25.825400 0.000000
-25.791800 0.000000
-25.758200 0.000000
-25.724600 0.000000
-25.691000 0.000000
-25.657400 0.000000
-25.623800 0.000000
-25.590100 0.000000
-25.556500 0.000000
-25.522900 0.000000
-25.489300 0.000000
-25.455700 0.000000
-25.422100 0.000000
-25.388500 0.000000
-25.354900 0.000000
-25.321300 0.000000
-25.287700 0.000000
-25.254000 0.000000
-25.220400 0.000000
-25.186800 0.000000
-25.153200 0.000000
-25.119600 0.000000
-25.086000 0.000000
-25.052400 0.000000
-25.018800 0.000000
-24.985200 0.000000
-24.951600 0.000000
-24.917900 0.000000
-24.884300 0.000000
-24.850700 0.000000
-24.817100 0.000000
-24.783500 0.000000
-24.749900 0.000000
-24.716300 0.000000
-24.682700 0.000000
-24.649100 0.000000
-24.615500 0.000000
-24.581900 0.000000
-24.548200 0.000000
-24.514600 0.000000
-24.481000 0.000000
-24.447400 0.000000
-24.413800 0.000000
-24.380200 0.000000
-24.346600 0.000000
-24.313000 0.000000
-24.279400 0.000000
-24.245800 0.000000
-24.212100 0.000000
-24.178500 0.000000
-24.144900 0.000000
-24.111300 0.000000
-24.077700 0.000000
-24.044100 0.000000
-24.010500 0.000000
-23.976900 0.000000
-23.943300 0.000000
-23.909700 0.000000
-23.876000 0.000000
-23.842400 0.000000
-23.808800 0.000000
-23.775200 0.000000
-23.741600 0.000000
-23.708000 0.000000
-23.674400 0.000000
-23.640800 0.000000
-23.607200 0.000000
-23.573600 0.000000
-23.539900 0.000000
-23.506300 0.000000
-23.472700 0.000000
-23.439100 0.000000
-23.405500 0.000000
-23.371900 0.000000
-23.338300 0.000000
-23.304700 0.000000
-23.271100 0.000000
-23.237500 0.000000
-23.203900 0.000000
-23.170200 0.000000
-23.136600 0.000000
-23.103000 0.000000
-23.069400 0.000000
-23.035800 0.000000
-23.002200 0.000000
-22.968600 0.000000
-22.935000 0.000000
-22.901400 0.000000
-22.867800 0.000000
-22.834100 0.000000
-22.800500 0.000000
-22.766900 0.000000
-22.733300 0.000000
-22.699700 0.000000
-22.666100 0.000000
-22.632500 0.000000
-22.598900 0.000000
-22.565300 0.000000
-22.531700 0.000000
-22.498000 0.000000
-22.464400 0.000000
-22.430800 0.000000
-22.397200 0.000000
-22.363600 0.000000
-22.330000 0.000000
-22.296400 0.000000
-22.262800 0.000000
-22.229200 0.000000
-22.195600 0.000000
-22.161900 0.000000
-22.128300 0.000000
-22.094700 0.000000
-22.061100 0.000000
-22.027500 0.000000
-21.993900 0.000000
-21.960300 0.000000
-21.926700 0.000000
-21.893100 0.000000
-21.859500 0.000000
-21.825900 0.000000
-21.792200 0.000000
-21.758600 0.000000
-21.725000 0.000000
-21.691400 0.000000
-21.657800 0.000000
-21.624200 0.000000
-21.590600 0.000000
-21.557000 0.000000
-21.523400 0.000000
-21.489800 0.000000
-21.456100 0.000000
-21.422500 0.000000
-21.388900 0.000000
-21.355300 0.000000
-21.321700 0.000000
-21.288100 0.000000
-21.254500 0.000000
-21.220900 0.000000
-21.187300 0.000000
-21.153700 0.000000
-21.120000 0.000000
-21.086400 0.000000
-21.052800 0.000000
-21.019200 0.000000
-20.985600 0.000000
-20.952000 0.000000
-20.918400 0.000000
-20.884800 0.000000
-20.851200 0.000000
-20.817600 0.000000
-20.783900 0.000000
-20.750300 0.000000
-20.716700 0.000000
-20.683100 0.000000
-20.649500 0.000000
-20.615900 0.000000
-20.582300 0.000000
-20.548700 0.000000
-20.515100 0.000000
-20.481500 0.000000
-20.447900 0.000000
-20.414200 0.000000
-20.380600 0.000000
-20.347000 0.000000
-20.313400 0.000000
-20.279800 0.000000
-20.246200 0.000000
-20.212600 0.000000
-20.179000 0.000000
-20.145400 0.000000
-20.111800 0.000000
-20.078100 0.000000
-20.044500 0.000000
-20.010900 0.000000
-19.977300 0.000000
-19.943700 0.000000
-19.910100 0.000000
-19.876500 0.000000
-19.842900 0.000000
-19.809300 0.000000
-19.775700 0.000000
-19.742000 0.000000
-19.708400 0.000000
-19.674800 0.000000
-19.641200 0.000000
-19.607600 0.000000
-19.574000 0.000000
-19.540400 0.000000
-19.506800 0.000000
-19.473200 0.000000
-19.439600 0.000000
-19.405900 0.000000
-19.372300 0.000000
-19.338700 0.000000
-19.305100 0.000000
-19.271500 0.000000
-19.237900 0.000000
-19.204300 0.000000
-19.170700 0.000000
-19.137100 0.000000
-19.103500 0.000000
-19.069900 0.000000
-19.036200 0.000000
-19.002600 0.000000
-18.969000 0.000000
-18.935400 0.000000
-18.901800 0.000000
-18.868200 0.000000
-18.834600 0.000000
-18.801000 0.000000
-18.767400 0.000000
-18.733800 0.000000
-18.700100 0.000000
-18.666500 0.000000
-18.632900 0.000000
-18.599300 0.000000
-18.565700 0.000000
-18.532100 0.000000
-18.498500 0.000000
-18.464900 0.000000
-18.431300 0.000000
-18.397700 0.000000
-18.364000 0.000000
-18.330400 0.000000
-18.296800 0.000000
-18.263200 0.000000
-18.229600 0.000000
-18.196000 0.000000
-18.162400 0.000000
-18.128800 0.000000
-18.095200 0.000000
-18.061600 0.000000
-18.027900 0.000000
-17.994300 0.000000
-17.960700 0.000000
-17.927100 0.000000
-17.893500 0.000000
-17.859900 0.000000
-17.826300 0.000000
-17.792700 0.000000
-17.759100 0.000000
-17.725500 0.000000
-17.691900 0.000000
-17.658200 0.000000
-17.624600 0.000000
-17.591000 0.000000
-17.557400 0.000000
-17.523800 0.000000
-17.490200 0.000000
-17.456600 0.000000
-17.423000 0.000000
-17.389400 0.000000
-17.355800 0.000000
-17.322100 0.000000
-17.288500 0.000000
-17.254900 0.000000
-17.221300 0.000000
-17.187700 0.000000
-17.154100 0.000000
-17.120500 0.000000
-17.086900 0.000000
-17.053300 0.000000
-17.019700 0.000000
-16.986000 0.000000
-16.952400 0.000000
-16.918800 0.000000
-16.885200 0.000000
-16.851600 0.000000
-16.818000 0.000000
-16.784400 0.000000
-16.750800 0.000000
-16.717200 0.000000
-16.683600 0.000000
-16.649900 0.000000
-16.616300 0.000000
-16.582700 0.000000
-16.549100 0.000000
-16.515500 0.000000
-16.481900 0.000000
-16.448300 0.000000
-16.414700 0.000000
-16.381100 0.000000
-16.347500 0.000000
-16.313900 0.000000
-16.280200 0.000000
-16.246600 0.000000
-16.213000 0.000000
-16.179400 0.000000
-16.145800 0.000000
-16.112200 0.000000
-16.078600 0.000000
-16.045000 0.000000
-16.011400 0.000000
-15.977800 0.000000
-15.944100 0.000000
-15.910500 0.000000
-15.876900 0.000000
-15.843300 0.000000
-15.809700 0.000000
-15.776100 0.000000
-15.742500 0.000000
-15.708900 0.000000
-15.675300 0.000000
-15.641700 0.000000
-15.608000 0.000000
-15.574400 0.000000
-15.540800 0.000000
-15.507200 0.000000
-15.473600 0.000000
-15.440000 0.000000
-15.406400 0.000000
-15.372800 0.000000
-15.339200 0.000000
-15.305600 0.000000
-15.271900 0.000000
-15.238300 0.000000
-15.204700 0.000000
-15.171100 0.000000
-15.137500 0.000000
-15.103900 0.000000
-15.070300 0.000000
-15.036700 0.000000
-15.003100 0.000000
-14.969500 0.000000
-14.935900 0.000000
-14.902200 0.000000
-14.868600 0.000000
-14.835000 0.000000
-14.801400 0.000000
-14.767800 0.000000
-14.734200 0.000000
-14.700600 0.000000
-14.667000 0.000000
-14.633400 0.000000
-14.599800 0.000000
-14.566100 0.000000
-14.532500 0.000000
-14.498900 0.000000
-14.465300 0.000000
-14.431700 0.000000
-14.398100 0.000000
-14.364500 0.000000
-14.330900 0.000000
-14.297300 0.000000
-14.263700 0.000000
-14.230000 0.000000
-14.196400 0.000000
-14.162800 0.000000
-14.129200 0.000000
-14.095600 0.000000
-14.062000 0.000000
-14.028400 0.000000
-13.994800 0.000000
-13.961200 0.000000
-13.927600 0.000000
-13.893900 0.000000
-13.860300 0.000000
-13.826700 0.000000
-13.793100 0.000000
-13.759500 0.000000
-13.725900 0.000000
-13.692300 0.000000
-13.658700 0.000000
-13.625100 0.000000
-13.591500 0.000000
-13.557800 0.000000
-13.524200 0.000000
-13.490600 0.000000
-13.457000 0.000000
-13.423400 0.000000
-13.389800 0.000000
-13.356200 0.000000
-13.322600 0.000000
-13.289000 0.000000
-13.255400 0.000000
-13.221800 0.000000
-13.188100 0.000000
-13.154500 0.000000
-13.120900 0.000000
-13.087300 0.000000
-13.053700 0.000000
-13.020100 0.000000
-12.986500 0.000000
-12.952900 0.000000
-12.919300 0.000000
-12.885700 0.000000
-12.852000 0.000000
-12.818400 0.000000
-12.784800 0.000000
-12.751200 0.000000
-12.717600 0.000000
-12.684000 0.000000
-12.650400 0.000000
-12.616800 0.000000
-12.583200 0.000000
-12.549600 0.000000
-12.515900 0.000000
-12.482300 0.000000
-12.448700 0.000000
-12.415100 0.000000
-12.381500 0.000000
-12.347900 0.000000
-12.314300 0.000000
-12.280700 0.000000
-12.247100 0.000000
-12.213500 0.000000
-12.179800 0.000000
-12.146200 0.000000
-12.112600 0.000000
-12.079000 0.000000
-12.045400 0.000000
-12.011800 0.000000
-11.978200 0.000000
-11.944600 0.000000
-11.911000 0.000000
-11.877400 0.000000
-11.843800 0.000000
-11.810100 0.000000
-11.776500 0.000000
-11.742900 0.000000
-11.709300 0.000000
-11.675700 0.000000
-11.642100 0.000000
-11.608500 0.000000
-11.574900 0.000000
-11.541300 0.000000
-11.507700 0.000000
-11.474000 0.000000
-11.440400 0.000000
-11.406800 0.000000
-11.373200 0.000000
-11.339600 0.000000
-11.306000 0.000000
-11.272400 0.000000
-11.238800 0.000000
-11.205200 0.000000
-11.171600 0.000000
-11.137900 0.000000
-11.104300 0.000000
-11.070700 0.000000
-11.037100 0.000000
-11.003500 0.000000
-10.969900 0.000000
-10.936300 0.000000
-10.902700 0.000000
-10.869100 0.000000
-10.835500 0.000000
-10.801800 0.000000
-10.768200 0.000000
-10.734600 0.000000
-10.701000 0.000000
-10.667400 0.000000
-10.633800 0.000000
-10.600200 0.000000
-10.566600 0.000000
-10.533000 0.000000
-10.499400 0.000000
-10.465800 0.000000
-10.432100 0.000000
-10.398500 0.000000
-10.364900 0.000000
-10.331300 0.000000
-10.297700 0.000000
-10.264100 0.000000
-10.230500 0.000000
-10.196900 0.000000
-10.163300 0.000000
-10.129700 0.000000
-10.096000 0.000000
-10.062400 0.000000
-10.028800 0.000000
-9.995200 0.000000
-9.961600 0.000000
-9.928000 0.000000
-9.894400 0.000000
-9.860800 0.000000
-9.827200 0.000000
-9.793600 0.000000
-9.759900 0.000000
-9.726300 0.000000
-9.692700 0.000000
-9.659100 0.000000
-9.625500 0.000000
-9.591900 0.000000
-9.558300 0.000000
-9.524700 0.000000
-9.491100 0.000000
-9.457500 0.000000
-9.423800 0.000000
-9.390200 0.000000
-9.356600 0.000000
-9.323000 0.000000
-9.289400 0.000000
-9.255800 0.000000
-9.222200 0.000000
-9.188600 0.000000
-9.155000 0.000000
-9.121400 0.000000
-9.087800 0.000000
-9.054100 0.000000
-9.020500 0.000000
-8.986900 0.000000
-8.953300 0.000000
-8.919700 0.000000
-8.886100 0.000000
-8.852500 0.000000
-8.818900 0.000000
-8.785300 0.000000
-8.751700 0.000000
-8.718000 0.000000
-8.684400 0.000000
-8.650800 0.000000
-8.617200 0.000000
-8.583600 0.000000
-8.550000 0.000000
-8.516400 0.000000
-8.482800 0.000000
-8.449200 0.000000
-8.415600 0.000000
-8.381900 0.000000
-8.348300 0.000000
-8.314700 0.000000
-8.281100 0.000000
-8.247500 0.000000
-8.213900 0.000000
-8.180300 0.000000
-8.146700 0.000000
-8.113100 0.000000
-8.079500 0.000000
-8.045800 0.000000
-8.012200 0.000000
-7.978600 0.000000
-7.945000 0.000000
-7.911400 0.000000
-7.877800 0.000000
-7.844200 0.000000
-7.810600 0.000000
-7.777000 0.000000
-7.743400 0.000000
-7.709800 0.000000
-7.676100 0.050100
-7.642500 0.321400
-7.608900 0.461900
-7.575300 0.602100
-7.541700 0.684400
-7.508100 0.832800
-7.474500 0.941100
-7.440900 1.043900
-7.407300 1.183800
-7.373700 1.366300
-7.340000 1.554100
-7.306400 1.487000
-7.272800 1.519700
-7.239200 1.547800
-7.205600 1.554100
-7.172000 1.545800
-7.138400 1.537700
-7.104800 1.557100
-7.071200 1.580200
-7.037600 1.599200
-7.003900 1.612300
-6.970300 1.633000
-6.936700 1.654900
-6.903100 1.706500
-6.869500 1.761400
-6.835900 1.794000
-6.802300 1.834300
-6.768700 1.873300
-6.735100 1.916200
-6.701500 2.014800
-6.667800 2.300700
-6.634200 2.471800
-6.600600 2.403700
-6.567000 2.085000
-6.533400 1.962100
-6.499800 1.849000
-6.466200 1.852100
-6.432600 1.755100
-6.399000 1.551000
-6.365400 1.249600
-6.331800 0.858300
-6.298100 0.604700
-6.264500 0.608000
-6.230900 0.700500
-6.197300 0.728700
-6.163700 0.812200
-6.130100 0.930200
-6.096500 1.177300
-6.062900 1.389400
-6.029300 1.508100
-5.995700 1.624000
-5.962000 1.584300
-5.928400 1.520100
-5.894800 1.438600
-5.861200 1.358300
-5.827600 1.291700
-5.794000 1.244900
-5.760400 1.213300
-5.726800 1.194600
-5.693200 1.187200
-5.659600 1.188100
-5.625900 1.195700
-5.592300 1.209300
-5.558700 1.230100
-5.525100 1.259400
-5.491500 1.297000
-5.457900 1.340200
-5.424300 1.389900
-5.390700 1.449100
-5.357100 1.518800
-5.323500 1.742100
-5.289800 2.008300
-5.256200 2.578500
-5.222600 2.291500
-5.189000 2.228000
-5.155400 2.751100
-5.121800 2.977200
-5.088200 2.989900
-5.054600 2.834000
-5.021000 2.726300
-4.987400 2.619600
-4.953800 2.466600
-4.920100 2.357300
-4.886500 2.101600
-4.852900 1.932500
-4.819300 1.780100
-4.785700 1.665400
-4.752100 1.616500
-4.718500 1.653400
-4.684900 1.718100
-4.651300 1.785000
-4.617700 1.853700
-4.584000 1.943100
-4.550400 1.994100
-4.516800 1.923900
-4.483200 1.559700
-4.449600 1.155900
-4.416000 1.233700
-4.382400 1.331000
-4.348800 1.468400
-4.315200 1.664800
-4.281600 1.878200
-4.247900 2.277700
-4.214300 2.687400
-4.180700 2.663400
-4.147100 2.777100
-4.113500 2.863700
-4.079900 2.962400
-4.046300 2.636300
-4.012700 2.399000
-3.979100 2.296900
-3.945500 2.248800
-3.911800 2.253500
-3.878200 2.351600
-3.844600 2.380000
-3.811000 2.648700
-3.777400 2.638100
-3.743800 2.569500
-3.710200 2.463200
-3.676600 2.371400
-3.643000 2.332800
-3.609400 2.284100
-3.575800 2.206900
-3.542100 2.162200
-3.508500 2.151700
-3.474900 2.174900
-3.441300 2.301100
-3.407700 2.500900
-3.374100 2.625300
-3.340500 2.918500
-3.306900 2.559800
-3.273300 1.838000
-3.239700 1.463300
-3.206000 1.152800
-3.172400 1.104900
-3.138800 1.003000
-3.105200 0.913600
-3.071600 0.859100
-3.038000 0.777600
-3.004400 0.858300
-2.970800 1.135500
-2.937200 1.379700
-2.903600 1.576300
-2.869900 1.721100
-2.836300 1.897000
-2.802700 2.220400
-2.769100 2.458500
-2.735500 2.536100
-2.701900 2.506200
-2.668300 2.536600
-2.634700 2.612100
-2.601100 2.502900
-2.567500 2.284600
-2.533800 2.182900
-2.500200 2.110900
-2.466600 2.167600
-2.433000 2.170100
-2.399400 2.231400
-2.365800 2.261300
-2.332200 2.288000
-2.298600 2.321700
-2.265000 2.307300
-2.231400 2.245200
-2.197800 2.278900
-2.164100 2.295600
-2.130500 2.320100
-2.096900 2.197900
-2.063300 2.047500
-2.029700 2.072500
-1.996100 2.282100
-1.962500 2.471300
-1.928900 2.278300
-1.895300 2.422900
-1.861700 2.787700
-1.828000 2.559200
-1.794400 2.329700
-1.760800 2.084500
-1.727200 1.930700
-1.693600 1.917100
-1.660000 1.935800
-1.626400 1.990400
-1.592800 2.069600
-1.559200 2.152600
-1.525600 2.349300
-1.491900 2.389800
-1.458300 2.342500
-1.424700 2.360800
-1.391100 2.321500
-1.357500 1.967500
-1.323900 1.588700
-1.290300 1.268300
-1.256700 1.102600
-1.223100 0.839400
-1.189500 0.711700
-1.155800 1.241800
-1.122200 3.222800
-1.088600 4.439800
-1.055000 5.131200
-1.021400 4.896700
-0.987800 4.117300
-0.954200 3.255300
-0.920600 2.384500
-0.887000 1.941900
-0.853400 1.689000
-0.819800 1.515000
-0.786100 1.448100
-0.752500 1.722600
-0.718900 1.869500
-0.685300 1.997900
-0.651700 2.263000
-0.618100 2.307000
-0.584500 2.467400
-0.550900 2.600100
-0.517300 2.608100
-0.483700 2.575400
-0.450000 2.350100
-0.416400 2.075100
-0.382800 1.995100
-0.349200 1.957400
-0.315600 1.919600
-0.282000 1.876000
-0.248400 1.811000
-0.214800 1.769800
-0.181200 1.726400
-0.147600 1.689100
-0.113900 1.660600
-0.080300 1.631300
-0.046700 1.650400
-0.013100 1.652400
0.020500 1.644300
0.054100 1.629300
0.087700 1.592900
0.121300 1.550100
0.154900 1.526200
0.188500 1.501300
0.222200 1.482700
0.255800 1.478600
0.289400 1.544800
0.323000 1.586100
0.356600 1.617700
0.390200 1.794400
0.423800 2.232700
0.457400 2.420600
0.491000 2.440300
0.524600 2.526500
0.558200 2.418600
0.591900 2.020000
0.625500 1.567100
0.659100 1.158700
0.692700 0.830400
0.726300 0.626400
0.759900 0.536300
0.793500 0.649900
0.827100 0.687200
0.860700 0.854000
0.894300 1.327200
0.928000 1.260800
0.961600 1.231200
0.995200 1.260200
1.028800 1.422200
1.062400 1.656300
1.096000 1.680200
1.129600 1.810000
1.163200 1.977800
1.196800 2.145900
1.230400 2.267500
1.264100 2.458300
1.297700 2.617500
1.331300 2.700900
1.364900 2.816800
1.398500 2.686500
1.432100 2.754800
1.465700 2.922100
1.499300 2.861200
1.532900 2.774600
1.566500 2.877700
1.600200 2.664600
1.633800 3.120300
1.667400 3.390500
1.701000 3.367700
1.734600 3.018700
1.768200 2.891000
1.801800 3.005900
1.835400 3.035700
1.869000 3.074400
1.902600 3.182100
1.936300 3.327300
1.969900 3.565600
2.003500 3.542700
2.037100 3.271500
2.070700 3.152800
2.104300 3.054500
2.137900 3.298400
2.171500 3.367100
2.205100 3.561600
2.238700 3.632700
2.272300 3.615200
2.306000 3.779300
2.339600 3.829800
2.373200 3.914600
2.406800 4.114600
2.440400 4.443100
2.474000 4.998900
2.507600 5.303600
2.541200 5.312100
2.574800 4.796900
2.608400 4.628800
2.642100 4.484600
2.675700 4.361400
2.709300 4.422900
2.742900 4.471100
2.776500 4.495300
2.810100 4.476000
2.843700 4.568800
2.877300 4.764700
2.910900 4.780500
2.944500 4.711800
2.978200 4.967200
3.011800 4.682100
3.045400 4.497200
3.079000 4.348300
3.112600 4.484900
3.146200 4.654000
3.179800 4.895400
3.213400 5.157100
3.247000 5.243900
3.280600 5.484000
3.314300 5.790400
3.347900 5.513100
3.381500 5.276500
3.415100 4.995900
3.448700 4.717400
3.482300 4.483200
3.515900 4.304700
3.549500 4.449000
3.583100 4.537700
3.616700 5.001100
3.650300 4.954500
3.684000 4.558000
3.717600 4.373000
3.751200 4.188200
3.784800 4.097800
3.818400 4.162300
3.852000 4.111200
3.885600 4.234800
3.919200 4.209100
3.952800 4.839800
3.986400 5.691400
4.020100 6.697200
4.053700 7.037300
4.087300 6.857500
4.120900 6.203200
4.154500 5.484700
4.188100 6.102200
4.221700 7.287300
4.255300 8.713300
4.288900 8.088800
4.322500 7.406400
4.356200 7.074500
4.389800 7.229000
4.423400 7.170800
4.457000 6.995500
4.490600 6.816000
4.524200 6.080900
4.557800 5.978500
4.591400 5.943400
4.625000 5.821200
4.658600 6.480200
4.692300 7.938200
4.725900 7.811700
4.759500 7.125600
4.793100 7.017600
4.826700 7.201900
4.860300 7.252500
4.893900 7.282700
4.927500 7.239700
4.961100 6.931200
4.994700 6.323200
5.028300 6.028400
5.062000 6.221300
5.095600 6.294000
5.129200 6.161300
5.162800 5.285900
5.196400 4.316400
5.230000 4.414100
5.263600 4.003400
5.297200 5.647200
5.330800 6.187600
5.364400 6.871200
5.398100 6.449900
5.431700 6.033800
5.465300 6.074100
5.498900 5.909400
5.532500 5.487400
5.566100 5.230300
5.599700 4.716200
5.633300 5.215500
5.666900 5.432500
5.700500 5.612800
5.734200 5.797700
5.767800 6.408800
5.801400 7.811900
5.835000 7.389700
5.868600 5.430700
5.902200 5.792700
5.935800 6.092000
5.969400 5.258900
6.003000 5.427600
6.036600 5.986100
6.070300 6.348900
6.103900 6.003300
6.137500 6.524100
6.171100 6.342500
6.204700 6.057000
6.238300 7.413600
6.271900 8.310500
6.305500 6.812100
6.339100 6.705600
6.372700 6.783200
6.406300 7.037600
6.440000 5.656700
6.473600 4.811200
6.507200 5.784400
6.540800 5.370100
6.574400 1.953100
6.608000 1.964900
6.641600 2.556400
6.675200 3.180800
6.708800 4.361900
6.742400 5.831400
6.776100 5.874600
6.809700 5.480200
6.843300 4.716000
6.876900 4.552200
6.910500 4.698600
6.944100 4.915500
6.977700 5.030100
7.011300 4.855000
7.044900 5.129300
7.078500 4.424200
7.112200 3.837600
7.145800 3.534200
7.179400 3.439500
7.213000 3.482400
7.246600 3.669500
7.280200 4.110600
7.313800 5.051100
7.347400 6.906800
7.381000 8.049100
7.414600 7.775300
7.448300 8.351700
7.481900 8.266000
7.515500 7.030900
7.549100 6.384100
7.582700 6.745800
7.616300 5.570200
7.649900 4.896100
7.683500 4.703900
7.717100 4.654800
7.750700 5.039500
7.784300 4.930300
7.818000 4.686100
7.851600 4.324100
7.885200 3.741900
7.918800 3.466800
7.952400 3.257100
7.986000 3.066500
8.019600 2.996500
8.053200 2.970600
8.086800 2.845200
8.120400 2.534600
8.154100 2.086100
8.187700 1.662500
8.221300 1.507500
8.254900 1.351000
8.288500 1.150600
8.322100 1.060800
8.355700 1.032200
8.389300 1.002900
8.422900 0.954300
8.456500 0.876900
8.490200 1.014500
8.523800 1.233200
8.557400 1.314500
8.591000 1.890500
8.624600 2.362900
8.658200 3.410500
8.691800 4.278100
8.725400 4.999800
8.759000 5.712700
8.792600 7.094200
8.826300 6.356900
8.859900 4.853100
8.893500 5.903100
8.927100 7.024500
8.960700 7.811200
8.994300 7.230100
9.027900 5.621700
9.061500 5.304900
9.095100 5.117200
9.128700 4.753900
9.162300 4.075900
9.196000 4.470100
9.229600 5.221200
9.263200 4.672800
9.296800 4.298400
9.330400 4.584300
9.364000 4.837100
9.397600 6.602600
9.431200 7.088900
9.464800 7.614700
9.498400 7.273200
9.532100 6.709200
9.565700 6.042400
9.599300 5.626900
9.632900 5.687600
9.666500 5.327400
9.700100 5.640500
9.733700 5.670400
9.767300 6.172400
9.800900 5.779600
9.834500 6.142800
9.868200 6.519900
9.901800 7.017600
9.935400 7.106700
9.969000 6.497500
10.002600 5.710500
10.036200 5.608900
10.069800 5.841400
10.103400 6.595900
10.137000 7.561900
10.170600 7.399900
10.204300 7.272600
10.237900 6.626000
10.271500 6.644300
10.305100 6.552400
10.338700 7.118400
10.372300 6.777600
10.405900 6.701800
10.439500 6.830000
10.473100 6.271200
10.506700 5.974100
10.540300 5.733500
10.574000 5.757800
10.607600 7.039800
10.641200 5.870300
10.674800 6.265600
10.708400 5.874100
10.742000 5.816700
10.775600 5.924800
10.809200 6.064900
10.842800 6.862500
10.876400 7.203900
10.910100 7.675800
10.943700 7.973200
10.977300 7.856200
11.010900 7.762800
11.044500 7.104800
11.078100 6.640100
11.111700 6.493600
11.145300 6.578100
11.178900 6.413700
11.212500 5.969700
11.246200 5.859000
11.279800 6.141500
11.313400 7.138600
11.347000 7.151300
11.380600 7.332700
11.414200 9.137900
11.447800 9.912600
11.481400 9.950000
11.515000 9.988800
11.548600 9.388800
11.582300 8.847200
11.615900 9.207500
11.649500 9.003800
11.683100 9.203000
11.716700 8.700900
11.750300 7.842500
11.783900 7.299900
11.817500 6.856900
11.851100 6.742400
11.884700 7.546200
11.918300 8.141400
11.952000 7.770500
11.985600 7.229100
12.019200 7.077900
12.052800 7.460500
12.086400 7.434100
12.120000 6.190200
12.153600 5.649600
12.187200 5.906400
12.220800 5.925000
12.254400 5.927500
12.288100 6.667400
12.321700 6.432600
12.355300 5.723900
12.388900 5.048000
12.422500 4.332200
12.456100 4.452400
12.489700 4.596400
12.523300 5.326600
12.556900 5.941200
12.590500 6.288000
12.624200 6.689700
12.657800 6.228200
12.691400 6.741300
12.725000 6.019100
12.758600 4.934200
12.792200 4.338800
12.825800 4.254500
12.859400 4.381300
12.893000 4.700400
12.926600 4.771200
12.960300 4.403000
12.993900 4.195200
13.027500 4.036400
13.061100 4.085900
13.094700 4.328600
13.128300 4.353000
13.161900 4.349300
13.195500 4.302100
13.229100 4.455700
13.262700 4.324700
13.296300 4.336000
13.330000 4.515800
13.363600 4.711300
13.397200 5.050500
13.430800 5.300400
13.464400 5.016600
13.498000 4.683500
13.531600 4.417600
13.565200 4.090000
13.598800 3.903800
13.632400 3.932200
13.666100 3.928500
13.699700 4.010200
13.733300 4.037500
13.766900 4.056300
13.800500 4.007400
13.834100 3.744200
13.867700 3.504900
13.901300 3.313400
13.934900 3.243500
13.968500 3.004700
14.002200 2.795100
14.035800 2.780700
14.069400 2.826200
14.103000 2.959400
14.136600 3.124600
14.170200 3.160700
14.203800 3.862800
14.237400 3.780000
14.271000 3.986000
14.304600 4.228000
14.338300 4.550400
14.371900 4.776800
14.405500 5.027100
14.439100 5.307800
14.472700 5.413500
14.506300 5.272600
14.539900 4.962900
14.573500 4.826100
14.607100 4.740900
14.640700 4.363900
14.674300 4.134800
14.708000 3.978900
14.741600 4.284700
14.775200 4.684700
14.808800 5.180900
14.842400 5.773000
14.876000 5.467300
14.909600 5.257200
14.943200 5.274500
14.976800 5.446000
15.010400 5.412700
15.044100 5.037100
15.077700 4.800300
15.111300 4.661000
15.144900 4.363300
15.178500 4.465600
15.212100 4.817800
15.245700 4.941700
15.279300 5.140200
15.312900 5.267200
15.346500 4.893400
15.380200 4.680900
15.413800 4.562800
15.447400 4.441700
15.481000 4.606000
15.514600 4.891700
15.548200 5.079900
15.581800 5.413500
15.615400 5.355400
15.649000 5.269200
15.682600 5.482000
15.716300 4.699300
15.749900 4.546200
15.783500 4.422600
15.817100 4.374900
15.850700 4.599600
15.884300 4.481200
15.917900 4.594500
15.951500 4.614000
15.985100 4.799600
16.018700 4.998900
16.052300 4.968300
16.086000 5.168700
16.119600 5.744100
16.153200 5.961300
16.186800 6.273100
16.220400 6.281800
16.254000 5.865700
16.287600 5.739300
16.321200 5.289200
16.354800 5.133900
16.388400 4.633600
16.422100 4.360900
16.455700 4.273200
16.489300 4.348000
16.522900 4.610800
16.556500 4.619300
16.590100 4.758900
16.623700 4.857800
16.657300 4.596600
16.690900 4.599200
16.724500 4.729600
16.758200 5.205200
16.791800 5.647400
16.825400 5.346000
16.859000 4.587400
16.892600 4.579100
16.926200 4.283300
16.959800 4.343700
16.993400 4.738300
17.027000 5.292200
17.060600 6.065100
17.094300 6.319600
17.127900 6.449600
17.161500 6.486300
17.195100 6.029600
17.228700 5.684600
17.262300 5.910100
17.295900 6.256400
17.329500 5.978500
17.363100 5.840800
17.396700 5.878800
17.430400 5.793000
17.464000 5.045800
17.497600 4.640600
17.531200 4.330400
17.564800 4.341100
17.598400 4.680800
17.632000 5.012100
17.665600 5.198900
17.699200 5.000800
17.732800 4.893400
17.766400 4.752900
17.800100 4.712500
17.833700 4.686300
17.867300 4.853000
17.900900 4.766600
17.934500 4.996100
17.968100 5.209700
18.001700 5.535800
18.035300 5.611900
18.068900 5.418600
18.102500 5.319300
18.136200 5.137800
18.169800 4.977500
18.203400 4.936100
18.237000 4.828500
18.270600 4.317600
18.304200 4.080100
18.337800 4.175800
18.371400 4.493800
18.405000 4.701800
18.438600 4.883100
18.472300 5.074000
18.505900 5.247000
18.539500 5.445300
18.573100 5.076800
18.606700 4.985300
18.640300 5.340200
18.673900 5.323800
18.707500 5.312900
18.741100 5.396900
18.774700 5.396600
18.808400 5.813100
18.842000 5.620100
18.875600 5.550300
18.909200 5.758900
18.942800 5.949700
18.976400 6.403200
19.010000 6.340200
19.043600 6.098600
19.077200 5.883300
19.110800 5.718800
19.144400 5.741200
19.178100 5.628200
19.211700 5.386700
19.245300 4.929600
19.278900 4.854900
19.312500 5.059900
19.346100 5.527000
19.379700 5.773400
19.413300 5.703200
19.446900 5.578300
19.480500 5.303500
19.514200 5.138600
19.547800 5.208300
19.581400 5.829700
19.615000 5.994600
19.648600 6.063000
19.682200 6.279200
19.715800 6.389900
19.749400 6.073300
19.783000 5.753000
19.816600 5.527500
19.850300 5.489900
19.883900 5.857900
19.917500 5.700300
19.951100 5.419700
19.984700 5.375000
20.018300 5.362200
20.051900 5.346400
20.085500 5.803000
20.119100 6.152600
20.152700 6.182400
20.186400 6.179800
20.220000 6.229900
20.253600 6.217400
20.287200 6.067500
20.320800 6.340600
20.354400 6.685800
20.388000 6.384900
20.421600 6.263800
20.455200 6.087200
20.488800 6.099100
20.522400 6.039200
20.556100 5.760600
20.589700 5.782200
20.623300 5.665800
20.656900 5.822800
20.690500 5.709600
20.724100 5.850100
20.757700 6.032600
20.791300 6.174800
20.824900 6.164300
20.858500 6.134400
20.892200 6.032800
20.925800 6.059200
20.959400 6.176800
20.993000 6.059700
21.026600 6.059300
21.060200 6.072600
21.093800 6.167100
21.127400 6.128900
21.161000 6.063500
21.194600 6.075600
21.228300 6.353100
21.261900 6.363500
21.295500 6.497900
21.329100 6.569300
21.362700 5.995400
21.396300 5.770400
21.429900 5.779000
21.463500 5.603900
21.497100 5.623100
21.530700 5.605500
21.564400 5.823500
21.598000 5.843700
21.631600 5.827700
21.665200 5.701700
21.698800 5.854900
21.732400 5.745300
21.766000 5.718900
21.799600 5.544800
21.833200 5.228300
21.866800 5.140900
21.900400 5.418500
21.934100 5.622800
21.967700 5.362000
22.001300 5.076900
22.034900 5.114200
22.068500 5.473100
22.102100 5.804500
22.135700 5.733200
22.169300 5.397500
22.202900 5.467600
22.236500 5.936400
22.270200 6.001300
22.303800 5.792200
22.337400 5.657100
22.371000 5.497200
22.404600 5.380900
22.438200 5.536700
22.471800 6.239400
22.505400 6.239200
22.539000 6.188800
22.572600 6.248900
22.606300 6.193800
22.639900 6.028500
22.673500 5.971300
22.707100 6.009300
22.740700 5.836400
22.774300 6.167600
22.807900 5.423100
22.841500 5.214900
22.875100 5.151300
22.908700 5.204200
22.942400 5.569500
22.976000 6.086400
23.009600 6.003300
23.043200 5.953200
23.076800 5.948500
23.110400 5.969400
23.144000 5.828500
23.177600 6.092800
23.211200 6.119900
23.244800 5.854600
23.278400 5.650400
23.312100 5.666500
23.345700 5.498900
23.379300 5.215000
23.412900 5.260000
23.446500 5.814800
23.480100 6.312300
23.513700 6.711000
23.547300 6.804500
23.580900 6.983000
23.614500 7.057100
23.648200 6.692700
23.681800 6.792700
23.715400 6.863500
23.749000 6.611900
23.782600 6.712000
23.816200 6.658900
23.849800 6.597900
23.883400 6.251200
23.917000 6.452100
23.950600 6.651000
23.984300 6.870300
24.017900 7.256900
24.051500 6.863000
24.085100 6.670500
24.118700 6.484400
24.152300 6.238800
24.185900 6.216800
24.219500 6.734500
24.253100 6.892200
24.286700 6.417300
24.320400 6.423200
24.354000 6.670400
24.387600 6.498900
24.421200 6.434400
24.454800 6.272400
24.488400 6.007000
24.522000 5.989400
24.555600 6.114100
24.589200 6.157200
24.622800 6.247100
24.656400 6.545700
24.690100 6.477300
24.723700 6.271700
24.757300 6.264700
24.790900 6.590300
24.824500 6.344100
24.858100 6.022400
24.891700 5.796700
24.925300 5.755900
24.958900 5.699900
24.992500 5.911000
25.026200 6.242300
25.059800 6.482500
25.093400 6.257800
25.127000 5.960500
25.160600 5.276100
25.194200 4.912800
25.227800 4.701800
25.261400 4.510100
25.295000 4.255500
25.328600 4.132000
25.362300 4.067300
25.395900 3.723600
25.429500 3.219300
25.463100 2.905600
25.496700 2.596300
25.530300 2.292700
25.563900 2.031000
25.597500 1.883300
25.631100 1.762800
25.664700 1.676800
25.698400 1.579100
25.732000 1.416900
25.765600 1.311000
25.799200 1.259500
25.832800 1.213200
25.866400 1.004000
25.900000 0.626300
25.933600 0.300700
25.967200 0.166300
26.000800 0.113900
26.034400 0.093700
26.068100 0.077900
26.101700 0.063500
26.135300 0.050500
26.168900 0.038800
26.202500 0.028600
26.236100 0.019700
26.269700 0.012200
26.303300 0.006100
26.336900 0.001700
26.370500 0.000000
26.404200 0.000000
26.437800 0.000000
26.471400 0.000000
26.505000 0.000000
26.538600 0.000000
26.572200 0.000000
26.605800 0.000000
26.639400 0.000000
26.673000 0.000000
26.706600 0.000000
26.740300 0.000000
26.773900 0.000000
26.807500 0.000000
26.841100 0.000000
26.874700 0.000000
26.908300 0.000000
26.941900 0.000000
26.975500 0.000000
27.009100 0.000000
27.042700 0.000000
27.076400 0.000000
27.110000 0.000000
27.143600 0.000000
27.177200 0.000000
27.210800 0.000000
27.244400 0.000000
27.278000 0.000000
27.311600 0.000000
27.345200 0.000000
27.378800 0.000000
27.412400 0.000000
27.446100 0.000000
27.479700 0.000000
27.513300 0.000000
27.546900 0.000000
27.580500 0.000000
27.614100 0.000000
27.647700 0.000000
27.681300 0.000000
27.714900 0.000000
27.748500 0.000000
27.782200 0.000000
27.815800 0.000000
27.849400 0.000000
27.883000 0.000000
27.916600 0.000000
27.950200 0.000000
27.983800 0.000000
28.017400 0.000000
28.051000 0.000000
28.084600 0.000000
28.118300 0.000000
28.151900 0.000000
28.185500 0.000000
28.219100 0.000000
28.252700 0.000000
28.286300 0.000000
28.319900 0.000000
28.353500 0.000000
28.387100 0.000000
28.420700 0.000000
28.454400 0.000000
28.488000 0.000000
28.521600 0.000000
28.555200 0.000000
28.588800 0.000000
28.622400 0.000000
28.656000 0.000000
28.689600 0.000000
28.723200 0.000000
28.756800 0.000000
28.790400 0.000000
28.824100 0.000000
28.857700 0.000000
28.891300 0.000000
28.924900 0.000000
28.958500 0.000000
28.992100 0.000000
29.025700 0.000000
29.059300 0.000000
29.092900 0.000000
29.126500 0.000000
29.160200 0.000000
29.193800 0.000000
29.227400 0.000000
29.261000 0.000000
29.294600 0.000000
29.328200 0.000000
29.361800 0.000000
29.395400 0.000000
29.429000 0.000000
e
