set title 'mp-568388 - Density of States'
set xlabel 'Energy (eV)'
set ylabel 'DOS (states/eV)'
set grid
set xrange [-10:10]
set yrange [0:30.025]
set xzeroaxis lt -1
set terminal png size 800,600
set output 'mp-568388_dos_gnuplot.png'
plot '-' using 1:2 with lines title 'DOS'
-11.669100 0.000000
-11.656700 0.000000
-11.644400 0.000000
-11.632000 0.000000
-11.619600 0.000000
-11.607300 0.000000
-11.594900 0.000000
-11.582500 0.000000
-11.570200 0.000000
-11.557800 0.000000
-11.545500 0.000000
-11.533100 0.000000
-11.520700 0.000000
-11.508400 0.000000
-11.496000 0.000000
-11.483700 0.000000
-11.471300 0.000000
-11.458900 0.000000
-11.446600 0.000000
-11.434200 0.000000
-11.421900 0.000000
-11.409500 0.000000
-11.397100 0.000000
-11.384800 0.000000
-11.372400 0.000000
-11.360000 0.000000
-11.347700 0.000000
-11.335300 0.000000
-11.323000 0.000000
-11.310600 0.000000
-11.298200 0.000000
-11.285900 0.000000
-11.273500 0.000000
-11.261200 0.000000
-11.248800 0.000000
-11.236400 0.000000
-11.224100 0.000000
-11.211700 0.000000
-11.199300 0.000000
-11.187000 0.000000
-11.174600 0.000000
-11.162300 0.000000
-11.149900 0.000000
-11.137500 0.000000
-11.125200 0.000000
-11.112800 0.000000
-11.100500 0.000000
-11.088100 0.000000
-11.075700 0.000000
-11.063400 0.000000
-11.051000 0.000000
-11.038700 0.000000
-11.026300 0.000000
-11.013900 0.000000
-11.001600 0.000000
-10.989200 0.000000
-10.976800 0.000000
-10.964500 0.000000
-10.952100 0.000000
-10.939800 0.000000
-10.927400 0.000000
-10.915000 0.000000
-10.902700 0.000000
-10.890300 0.000000
-10.878000 0.000000
-10.865600 0.000000
-10.853200 0.000000
-10.840900 0.000000
-10.828500 0.000000
-10.816200 0.000000
-10.803800 0.000000
-10.791400 0.000000
-10.779100 0.000000
-10.766700 0.000000
-10.754300 0.000000
-10.742000 0.000000
-10.729600 0.000000
-10.717300 0.000000
-10.704900 0.000000
-10.692500 0.000000
-10.680200 0.000000
-10.667800 0.000000
-10.655500 0.000000
-10.643100 0.000000
-10.630700 0.000000
-10.618400 0.000000
-10.606000 0.000000
-10.593600 0.000000
-10.581300 0.000000
-10.568900 0.000000
-10.556600 0.000000
-10.544200 0.000700
-10.531800 0.100300
-10.519500 0.368300
-10.507100 0.818900
-10.494800 1.456800
-10.482400 2.091100
-10.470000 2.719000
-10.457700 3.373200
-10.445300 3.480800
-10.433000 3.481100
-10.420600 3.915200
-10.408200 4.384700
-10.395900 4.979300
-10.383500 5.992200
-10.371100 6.993100
-10.358800 7.121500
-10.346400 7.121900
-10.334100 7.122400
-10.321700 7.122800
-10.309300 7.123200
-10.297000 7.123600
-10.284600 7.124000
-10.272300 7.124400
-10.259900 7.124700
-10.247500 7.125100
-10.235200 7.046700
-10.222800 6.899000
-10.210500 6.680800
-10.198100 6.434000
-10.185700 6.121400
-10.173400 5.873000
-10.161000 5.865000
-10.148600 5.828100
-10.136300 5.684500
-10.123900 5.492100
-10.111600 5.176900
-10.099200 4.832500
-10.086800 4.832400
-10.074500 4.832400
-10.062100 4.832400
-10.049800 4.832400
-10.037400 4.832500
-10.025000 4.832500
-10.012700 4.832600
-10.000300 4.832700
-9.987900 4.832900
-9.975600 4.833000
-9.963200 4.833200
-9.950900 4.833400
-9.938500 4.833600
-9.926100 4.833900
-9.913800 4.834200
-9.901400 4.834500
-9.889100 4.834800
-9.876700 4.835100
-9.864300 4.835500
-9.852000 4.835900
-9.839600 5.116600
-9.827300 6.364300
-9.814900 7.641900
-9.802500 9.201300
-9.790200 11.916700
-9.777800 14.884700
-9.765400 17.961300
-9.753100 19.267900
-9.740700 20.301400
-9.728400 18.585800
-9.716000 18.614600
-9.703600 18.554900
-9.691300 18.536800
-9.678900 18.449700
-9.666600 18.221500
-9.654200 18.195800
-9.641800 18.160900
-9.629500 18.226200
-9.617100 18.292900
-9.604800 18.360800
-9.592400 18.430000
-9.580000 18.500500
-9.567700 9.513400
-9.555300 0.330800
-9.542900 0.000000
-9.530600 0.000000
-9.518200 0.000000
-9.505900 0.000000
-9.493500 0.000000
-9.481100 0.000000
-9.468800 0.000000
-9.456400 0.000000
-9.444100 0.000000
-9.431700 0.000000
-9.419300 0.000000
-9.407000 0.000000
-9.394600 0.000000
-9.382200 0.000000
-9.369900 0.000000
-9.357500 0.000000
-9.345200 0.000000
-9.332800 0.000000
-9.320400 0.000000
-9.308100 0.000000
-9.295700 0.000000
-9.283400 0.000000
-9.271000 0.000000
-9.258600 0.000000
-9.246300 0.000000
-9.233900 0.000000
-9.221600 0.000000
-9.209200 0.000000
-9.196800 0.000000
-9.184500 0.000000
-9.172100 0.000000
-9.159700 0.000000
-9.147400 0.000000
-9.135000 0.000000
-9.122700 0.000000
-9.110300 0.000000
-9.097900 0.000000
-9.085600 0.000000
-9.073200 0.000000
-9.060900 0.000000
-9.048500 0.000000
-9.036100 0.000000
-9.023800 0.000000
-9.011400 0.000000
-8.999100 0.000000
-8.986700 0.000000
-8.974300 0.000000
-8.962000 0.000000
-8.949600 0.000000
-8.937200 0.000000
-8.924900 0.000000
-8.912500 0.000000
-8.900200 0.000000
-8.887800 0.000000
-8.875400 0.000000
-8.863100 0.000000
-8.850700 0.000000
-8.838400 0.000000
-8.826000 0.000000
-8.813600 0.000000
-8.801300 0.000000
-8.788900 0.000000
-8.776500 0.000000
-8.764200 0.000000
-8.751800 0.000000
-8.739500 0.000000
-8.727100 0.000000
-8.714700 0.000000
-8.702400 0.000000
-8.690000 0.369400
-8.677700 1.517400
-8.665300 2.612700
-8.652900 3.607100
-8.640600 4.546000
-8.628200 4.592100
-8.615900 4.592700
-8.603500 4.593300
-8.591100 4.593900
-8.578800 4.594700
-8.566400 4.595500
-8.554000 4.596500
-8.541700 4.597500
-8.529300 4.598500
-8.517000 4.599700
-8.504600 4.600900
-8.492200 4.602200
-8.479900 4.603600
-8.467500 5.938100
-8.455200 9.922700
-8.442800 13.195000
-8.430400 20.799000
-8.418100 21.250600
-8.405700 21.738000
-8.393400 0.000000
-8.381000 1.801100
-8.368600 1.800900
-8.356300 1.800800
-8.343900 1.800600
-8.331500 1.800500
-8.319200 1.800400
-8.306800 1.800300
-8.294500 1.800200
-8.282100 1.800100
-8.269700 1.800000
-8.257400 1.799900
-8.245000 1.799800
-8.232700 1.799700
-8.220300 1.799700
-8.207900 1.799600
-8.195600 1.799600
-8.183200 1.799500
-8.170800 1.799500
-8.158500 1.799400
-8.146100 1.799400
-8.133800 1.799400
-8.121400 1.799300
-8.109000 1.799300
-8.096700 1.799300
-8.084300 1.799300
-8.072000 1.799300
-8.059600 1.799300
-8.047200 1.799300
-8.034900 1.799400
-8.022500 1.799400
-8.010200 1.799400
-7.997800 1.799500
-7.985400 1.799500
-7.973100 1.799600
-7.960700 1.799600
-7.948300 1.799700
-7.936000 1.799800
-7.923600 1.799800
-7.911300 1.799900
-7.898900 1.800000
-7.886500 1.800100
-7.874200 1.800200
-7.861800 1.823100
-7.849500 1.989000
-7.837100 2.273200
-7.824700 2.680700
-7.812400 2.892000
-7.800000 2.974300
-7.787700 2.973400
-7.775300 2.972600
-7.762900 2.971700
-7.750600 2.970900
-7.738200 2.970100
-7.725800 2.969200
-7.713500 2.968400
-7.701100 2.967500
-7.688800 2.966700
-7.676400 2.965800
-7.664000 2.965000
-7.651700 2.964100
-7.639300 2.963300
-7.627000 2.962400
-7.614600 2.961600
-7.602200 2.960700
-7.589900 2.959800
-7.577500 2.959000
-7.565100 2.958100
-7.552800 2.946600
-7.540400 2.818300
-7.528100 2.499100
-7.515700 2.086700
-7.503300 1.672300
-7.491000 1.246500
-7.478600 0.821700
-7.466300 0.457500
-7.453900 0.182000
-7.441500 0.000000
-7.429200 0.000000
-7.416800 0.000000
-7.404500 0.000000
-7.392100 0.000000
-7.379700 0.000000
-7.367400 0.000000
-7.355000 0.000000
-7.342600 0.000000
-7.330300 0.000000
-7.317900 1.598200
-7.305600 3.557400
-7.293200 5.103800
-7.280800 7.080700
-7.268500 8.023100
-7.256100 8.109900
-7.243800 8.097200
-7.231400 8.084600
-7.219000 8.072100
-7.206700 8.059700
-7.194300 8.047500
-7.182000 8.035300
-7.169600 7.771800
-7.157200 7.229100
-7.144900 6.505200
-7.132500 5.781000
-7.120100 5.113300
-7.107800 4.470600
-7.095400 3.849600
-7.083100 3.242900
-7.070700 2.839700
-7.058300 2.617500
-7.046000 2.528000
-7.033600 2.526200
-7.021300 2.526500
-7.008900 2.526800
-6.996500 2.527200
-6.984200 2.527500
-6.971800 2.527900
-6.959400 2.528300
-6.947100 2.528700
-6.934700 2.529200
-6.922400 2.529700
-6.910000 2.530200
-6.897600 0.165300
-6.885300 1.166000
-6.872900 1.166000
-6.860600 1.166000
-6.848200 1.166000
-6.835800 1.166000
-6.823500 1.166000
-6.811100 1.166000
-6.798800 1.166000
-6.786400 1.166000
-6.774000 1.166000
-6.761700 1.166000
-6.749300 1.166000
-6.736900 1.166000
-6.724600 1.166000
-6.712200 1.166000
-6.699900 1.166000
-6.687500 1.166000
-6.675100 1.166000
-6.662800 1.166000
-6.650400 1.166000
-6.638100 1.166000
-6.625700 1.166000
-6.613300 1.166000
-6.601000 1.166000
-6.588600 1.166000
-6.576300 1.166000
-6.563900 1.166000
-6.551500 1.166000
-6.539200 1.166000
-6.526800 1.165900
-6.514400 1.165900
-6.502100 1.165900
-6.489700 1.165900
-6.477400 1.165900
-6.465000 1.165900
-6.452600 1.165900
-6.440300 1.165900
-6.427900 1.165900
-6.415600 1.165900
-6.403200 1.165900
-6.390800 1.165900
-6.378500 1.165900
-6.366100 1.165900
-6.353700 1.165900
-6.341400 1.165900
-6.329000 1.165900
-6.316700 1.165900
-6.304300 1.165900
-6.291900 1.165900
-6.279600 1.165900
-6.267200 1.165900
-6.254900 1.165900
-6.242500 1.165900
-6.230100 1.165900
-6.217800 1.165900
-6.205400 1.165900
-6.193100 1.165900
-6.180700 1.165900
-6.168300 1.165900
-6.156000 1.165900
-6.143600 1.165800
-6.131200 1.165800
-6.118900 1.165800
-6.106500 1.165800
-6.094200 1.165800
-6.081800 1.165800
-6.069400 1.165800
-6.057100 1.165800
-6.044700 1.670900
-6.032400 2.442100
-6.020000 3.222400
-6.007600 3.301300
-5.995300 3.300400
-5.982900 3.299600
-5.970600 3.298700
-5.958200 3.297800
-5.945800 3.297000
-5.933500 3.296100
-5.921100 3.295300
-5.908700 3.294400
-5.896400 3.293600
-5.884000 3.292700
-5.871700 3.291900
-5.859300 3.291000
-5.846900 3.290200
-5.834600 3.289300
-5.822200 3.288400
-5.809900 3.287600
-5.797500 3.286700
-5.785100 3.285900
-5.772800 3.237800
-5.760400 2.857000
-5.748000 2.324300
-5.735700 1.790500
-5.723300 1.254100
-5.711000 0.712500
-5.698600 0.182700
-5.686200 0.000000
-5.673900 0.000000
-5.661500 0.000000
-5.649200 0.000000
-5.636800 0.000000
-5.624400 0.000000
-5.612100 0.000000
-5.599700 0.000000
-5.587400 0.000000
-5.575000 0.000000
-5.562600 0.000000
-5.550300 0.000000
-5.537900 0.000000
-5.525500 0.000000
-5.513200 0.000000
-5.500800 0.000000
-5.488500 0.000000
-5.476100 0.000000
-5.463700 0.000000
-5.451400 0.000000
-5.439000 0.000000
-5.426700 0.000000
-5.414300 0.000000
-5.401900 0.000000
-5.389600 0.000000
-5.377200 0.000000
-5.364900 0.000000
-5.352500 0.000000
-5.340100 0.000000
-5.327800 0.000000
-5.315400 0.000000
-5.303000 0.000000
-5.290700 0.000000
-5.278300 0.000000
-5.266000 0.000000
-5.253600 0.000000
-5.241200 0.000000
-5.228900 0.000000
-5.216500 0.000000
-5.204200 0.000000
-5.191800 0.000000
-5.179400 0.000000
-5.167100 0.000000
-5.154700 0.000000
-5.142400 0.000000
-5.130000 0.000000
-5.117600 0.000000
-5.105300 0.000000
-5.092900 0.000000
-5.080500 0.000000
-5.068200 0.000000
-5.055800 0.000000
-5.043500 0.000000
-5.031100 0.000000
-5.018700 0.000000
-5.006400 0.000000
-4.994000 0.000000
-4.981700 0.000000
-4.969300 0.000000
-4.956900 0.000000
-4.944600 0.000000
-4.932200 0.000000
-4.919800 0.000000
-4.907500 0.000000
-4.895100 0.000000
-4.882800 0.000000
-4.870400 0.000000
-4.858000 0.000000
-4.845700 0.000000
-4.833300 0.000000
-4.821000 0.000000
-4.808600 0.000000
-4.796200 0.000000
-4.783900 0.000000
-4.771500 0.000000
-4.759200 0.000000
-4.746800 0.000000
-4.734400 0.000000
-4.722100 0.000000
-4.709700 0.000000
-4.697300 0.000000
-4.685000 0.000000
-4.672600 0.000000
-4.660300 0.000000
-4.647900 0.000000
-4.635500 0.000000
-4.623200 0.000000
-4.610800 0.000000
-4.598500 0.000000
-4.586100 0.000000
-4.573700 0.000000
-4.561400 0.000000
-4.549000 0.000000
-4.536700 0.000000
-4.524300 0.000000
-4.511900 0.000000
-4.499600 0.000000
-4.487200 0.000000
-4.474800 0.000000
-4.462500 0.000000
-4.450100 0.000000
-4.437800 0.000000
-4.425400 0.000000
-4.413000 0.000000
-4.400700 0.000000
-4.388300 0.000000
-4.376000 0.000000
-4.363600 0.000000
-4.351200 0.000000
-4.338900 0.000000
-4.326500 0.000000
-4.314100 0.000000
-4.301800 0.000000
-4.289400 0.000000
-4.277100 0.000000
-4.264700 0.000000
-4.252300 0.000000
-4.240000 0.000000
-4.227600 0.000000
-4.215300 0.000000
-4.202900 0.000000
-4.190500 0.000000
-4.178200 0.000000
-4.165800 0.000000
-4.153500 0.000000
-4.141100 0.000000
-4.128700 0.000000
-4.116400 0.000000
-4.104000 0.000000
-4.091600 0.000000
-4.079300 0.000000
-4.066900 0.000000
-4.054600 0.000000
-4.042200 0.000000
-4.029800 0.000000
-4.017500 0.000000
-4.005100 0.000000
-3.992800 0.000000
-3.980400 0.000000
-3.968000 0.000000
-3.955700 0.000000
-3.943300 0.000000
-3.931000 0.000000
-3.918600 0.000000
-3.906200 0.000000
-3.893900 0.000000
-3.881500 0.000000
-3.869100 0.000000
-3.856800 0.000000
-3.844400 0.000000
-3.832100 0.000000
-3.819700 0.000000
-3.807300 0.000000
-3.795000 0.000000
-3.782600 0.000000
-3.770300 0.000000
-3.757900 0.000000
-3.745500 0.000000
-3.733200 0.000000
-3.720800 0.000000
-3.708400 0.000000
-3.696100 0.000000
-3.683700 0.000000
-3.671400 0.000000
-3.659000 0.000000
-3.646600 0.000000
-3.634300 0.000000
-3.621900 0.000000
-3.609600 0.000000
-3.597200 0.000000
-3.584800 0.000000
-3.572500 0.000000
-3.560100 0.000000
-3.547800 0.000000
-3.535400 0.000000
-3.523000 0.000000
-3.510700 0.000000
-3.498300 0.000000
-3.485900 0.000000
-3.473600 0.000000
-3.461200 0.000000
-3.448900 0.000000
-3.436500 0.000000
-3.424100 0.000000
-3.411800 0.000000
-3.399400 0.000000
-3.387100 0.000000
-3.374700 0.000000
-3.362300 0.000000
-3.350000 0.000000
-3.337600 0.000000
-3.325300 0.000000
-3.312900 0.000000
-3.300500 0.000000
-3.288200 0.000000
-3.275800 0.000000
-3.263400 0.000000
-3.251100 0.000000
-3.238700 0.000000
-3.226400 0.000000
-3.214000 0.000000
-3.201600 0.000000
-3.189300 0.000000
-3.176900 0.000000
-3.164600 0.000000
-3.152200 0.000000
-3.139800 0.000000
-3.127500 0.000000
-3.115100 0.000000
-3.102700 0.000000
-3.090400 0.000000
-3.078000 0.000000
-3.065700 0.000000
-3.053300 0.000000
-3.040900 0.000000
-3.028600 0.000000
-3.016200 0.000000
-3.003900 0.000000
-2.991500 0.000000
-2.979100 0.000000
-2.966800 0.000000
-2.954400 0.000000
-2.942100 0.000000
-2.929700 0.000000
-2.917300 0.000000
-2.905000 0.000000
-2.892600 0.000000
-2.880200 0.000000
-2.867900 0.000000
-2.855500 0.000000
-2.843200 0.000000
-2.830800 0.000000
-2.818400 0.000000
-2.806100 0.000000
-2.793700 0.000000
-2.781400 0.000000
-2.769000 0.000000
-2.756600 0.000000
-2.744300 0.000000
-2.731900 0.000000
-2.719600 0.000000
-2.707200 0.000000
-2.694800 0.000000
-2.682500 0.000000
-2.670100 0.000000
-2.657700 0.000000
-2.645400 0.000000
-2.633000 0.000000
-2.620700 0.000000
-2.608300 0.000000
-2.595900 0.000000
-2.583600 0.000000
-2.571200 0.000000
-2.558900 0.000000
-2.546500 0.000000
-2.534100 0.000000
-2.521800 0.000000
-2.509400 0.000000
-2.497000 0.000000
-2.484700 0.000000
-2.472300 0.000000
-2.460000 0.000000
-2.447600 0.000000
-2.435200 0.000000
-2.422900 0.000000
-2.410500 0.000000
-2.398200 0.000000
-2.385800 0.000000
-2.373400 0.000000
-2.361100 0.000000
-2.348700 0.000000
-2.336400 0.000000
-2.324000 0.000000
-2.311600 0.000000
-2.299300 0.000000
-2.286900 0.000000
-2.274500 0.000000
-2.262200 0.000000
-2.249800 0.000000
-2.237500 0.000000
-2.225100 0.000000
-2.212700 0.000000
-2.200400 0.000000
-2.188000 0.000000
-2.175700 0.000000
-2.163300 0.000000
-2.150900 0.000000
-2.138600 0.000000
-2.126200 0.000000
-2.113900 0.000000
-2.101500 0.000000
-2.089100 0.000000
-2.076800 0.000000
-2.064400 0.000000
-2.052000 0.000000
-2.039700 0.000000
-2.027300 0.000000
-2.015000 0.000000
-2.002600 0.000000
-1.990200 0.000000
-1.977900 0.000000
-1.965500 0.000000
-1.953200 0.000000
-1.940800 0.000000
-1.928400 0.000000
-1.916100 0.000000
-1.903700 0.000000
-1.891300 0.000000
-1.879000 0.000000
-1.866600 0.000000
-1.854300 0.000000
-1.841900 0.000000
-1.829500 0.000000
-1.817200 0.000000
-1.804800 0.000000
-1.792500 0.000000
-1.780100 0.000000
-1.767700 0.000000
-1.755400 0.000000
-1.743000 0.000000
-1.730700 0.000000
-1.718300 0.000000
-1.705900 0.000000
-1.693600 0.019800
-1.681200 0.096400
-1.668800 0.230500
-1.656500 0.422100
-1.644100 0.781200
-1.631800 1.192000
-1.619400 1.617100
-1.607000 1.977800
-1.594700 2.174900
-1.582300 2.174600
-1.570000 2.303700
-1.557600 2.693400
-1.545200 4.100600
-1.532900 4.483200
-1.520500 4.511200
-1.508200 4.508500
-1.495800 4.505900
-1.483400 4.503300
-1.471100 4.500800
-1.458700 4.498200
-1.446300 4.495700
-1.434000 4.493200
-1.421600 4.571800
-1.409300 4.731700
-1.396900 4.938600
-1.384500 5.192500
-1.372200 5.493500
-1.359800 5.841500
-1.347500 6.276300
-1.335100 6.465000
-1.322700 6.682300
-1.310400 7.797500
-1.298000 8.291000
-1.285600 8.447100
-1.273300 8.445500
-1.260900 8.442300
-1.248600 8.439200
-1.236200 8.510300
-1.223800 8.691700
-1.211500 8.779000
-1.199100 8.747600
-1.186800 8.727000
-1.174400 8.705200
-1.162000 8.708100
-1.149700 8.773100
-1.137300 8.839800
-1.125000 8.908200
-1.112600 9.105300
-1.100200 9.908600
-1.087900 10.237700
-1.075500 10.100100
-1.063100 10.002500
-1.050800 9.952700
-1.038400 9.951400
-1.026100 9.997100
-1.013700 8.272400
-1.001300 7.365600
-0.989000 7.288700
-0.976600 7.213100
-0.964300 7.138800
-0.951900 7.065800
-0.939500 6.994100
-0.927200 6.806600
-0.914800 6.662200
-0.902500 6.584200
-0.890100 6.507700
-0.877700 6.416400
-0.865400 6.305100
-0.853000 6.195400
-0.840600 6.087300
-0.828300 5.976200
-0.815900 5.886400
-0.803600 5.878200
-0.791200 5.801800
-0.778800 5.727100
-0.766500 5.672800
-0.754100 5.631800
-0.741800 5.581200
-0.729400 5.532000
-0.717000 5.484000
-0.704700 5.437400
-0.692300 5.392100
-0.679900 5.348200
-0.667600 5.305500
-0.655200 5.264200
-0.642900 5.225800
-0.630500 5.868200
-0.618100 6.428600
-0.605800 6.467000
-0.593400 6.518800
-0.581100 6.584300
-0.568700 6.659300
-0.556300 6.709200
-0.544000 6.720100
-0.531600 6.717100
-0.519300 6.717700
-0.506900 6.721900
-0.494500 6.728000
-0.482200 6.718400
-0.469800 6.688400
-0.457400 6.660200
-0.445100 6.656100
-0.432700 6.676100
-0.420400 6.719600
-0.408000 6.780200
-0.395600 6.849800
-0.383300 6.925700
-0.370900 6.950700
-0.358600 6.890600
-0.346200 6.678700
-0.333800 6.403100
-0.321500 6.354700
-0.309100 6.345400
-0.296800 6.392300
-0.284400 6.468700
-0.272000 6.547900
-0.259700 6.639400
-0.247300 6.769700
-0.234900 6.927500
-0.222600 6.620100
-0.210200 5.944200
-0.197900 5.366600
-0.185500 4.884400
-0.173100 4.455700
-0.160800 4.321400
-0.148400 4.326900
-0.136100 4.037600
-0.123700 3.637100
-0.111300 3.210700
-0.099000 4.273700
-0.086600 6.189300
-0.074200 6.926300
-0.061900 7.188200
-0.049500 7.475700
-0.037200 7.351000
-0.024800 7.384100
-0.012400 7.546200
-0.000100 7.653900
0.012300 7.707100
0.024600 7.925700
0.037000 8.432200
0.049400 9.077400
0.061700 10.246400
0.074100 12.121400
0.086400 13.120500
0.098800 12.871800
0.111200 11.333800
0.123500 9.136400
0.135900 7.372400
0.148300 5.815900
0.160600 4.572600
0.173000 4.314200
0.185300 4.634500
0.197700 5.220700
0.210100 7.059400
0.222400 9.773300
0.234800 13.277000
0.247100 16.170000
0.259500 17.647800
0.271900 17.431600
0.284200 16.146900
0.296600 14.513400
0.308900 12.271300
0.321300 11.234400
0.333700 10.831700
0.346000 10.871900
0.358400 11.299500
0.370800 12.476000
0.383100 12.340100
0.395500 10.677000
0.407800 8.109800
0.420200 7.756700
0.432600 8.186200
0.444900 8.606900
0.457300 9.064200
0.469600 9.880200
0.482000 10.855900
0.494400 11.991200
0.506700 13.191900
0.519100 8.919900
0.531500 9.795100
0.543800 15.039500
0.556200 14.849600
0.568500 14.577500
0.580900 14.088700
0.593300 13.575500
0.605600 13.858600
0.618000 13.836600
0.630300 13.324700
0.642700 13.296600
0.655100 12.803200
0.667400 12.335700
0.679800 12.075400
0.692100 11.955900
0.704500 12.111700
0.716900 12.417400
0.729200 12.842200
0.741600 14.063200
0.754000 14.714500
0.766300 14.995500
0.778700 14.890000
0.791000 14.868100
0.803400 15.227900
0.815800 15.766500
0.828100 16.403700
0.840500 17.464900
0.852800 17.802900
0.865200 16.349400
0.877600 18.859300
0.889900 22.893300
0.902300 24.056300
0.914600 24.100800
0.927000 26.788300
0.939400 27.295000
0.951700 26.035800
0.964100 25.254400
0.976500 23.782100
0.988800 18.362400
1.001200 12.027800
1.013500 7.281400
1.025900 5.558900
1.038300 4.079700
1.050600 0.227300
1.063000 2.690900
1.075300 4.572300
1.087700 5.599200
1.100100 5.845300
1.112400 6.141200
1.124800 6.448500
1.137100 6.767300
1.149500 7.097500
1.161900 7.310000
1.174200 7.234800
1.186600 7.087300
1.199000 6.923400
1.211300 6.743100
1.223700 6.546300
1.236000 6.333100
1.248400 6.103500
1.260800 4.892100
1.273100 4.220500
1.285500 3.979500
1.297800 4.010200
1.310200 4.042600
1.322600 4.076500
1.334900 4.111900
1.347300 4.149000
1.359700 4.187600
1.372000 4.227800
1.384400 4.269500
1.396700 4.312800
1.409100 4.357700
1.421500 4.404100
1.433800 4.453000
1.446200 4.508800
1.458500 4.572300
1.470900 4.643500
1.483300 4.718900
1.495600 4.796100
1.508000 4.875100
1.520300 4.953800
1.532700 5.029100
1.545100 5.101000
1.557400 5.169400
1.569800 5.234400
1.582200 5.296000
1.594500 5.354200
1.606900 5.408600
1.619200 5.462200
1.631600 5.516200
1.644000 5.570700
1.656300 5.625800
1.668700 5.683100
1.681000 5.737100
1.693400 5.782600
1.705800 5.862000
1.718100 5.974000
1.730500 6.156900
1.742800 6.369400
1.755200 11.357500
1.767600 11.797600
1.779900 12.266300
1.792300 12.117100
1.804700 11.303300
1.817000 10.082600
1.829400 9.427300
1.841700 8.707800
1.854100 8.028300
1.866500 7.730400
1.878800 7.718200
1.891200 7.706900
1.903500 7.696700
1.915900 7.687500
1.928300 7.679400
1.940600 7.672300
1.953000 7.666200
1.965400 7.661100
1.977700 7.657100
1.990100 7.654100
2.002400 7.652100
2.014800 7.651200
2.027200 7.651300
2.039500 7.652400
2.051900 7.645900
2.064200 7.501800
2.076600 7.094200
2.089000 6.565000
2.101300 6.053800
2.113700 5.701800
2.126000 5.376500
2.138400 5.178100
2.150800 5.290100
2.163100 5.373200
2.175500 5.410200
2.187900 5.275700
2.200200 5.013100
2.212600 4.635300
2.224900 4.268700
2.237300 3.949300
2.249700 3.737400
2.262000 3.643200
2.274400 3.618300
2.286700 3.595000
2.299100 3.554300
2.311500 3.493800
2.323800 3.413600
2.336200 3.313700
2.348500 3.194000
2.360900 3.053500
2.373300 2.874100
2.385600 2.649400
2.398000 2.379400
2.410400 2.066700
2.422700 1.733700
2.435100 1.385300
2.447400 1.021400
2.459800 0.672100
2.472200 0.468100
2.484500 0.285700
2.496900 0.124900
2.509200 0.010300
2.521600 0.000000
2.534000 0.000000
2.546300 0.000000
2.558700 0.000000
2.571100 0.000000
2.583400 0.000000
2.595800 0.000000
2.608100 0.000000
2.620500 0.000000
2.632900 0.000000
2.645200 0.000000
2.657600 0.000000
2.669900 0.000000
2.682300 0.000000
2.694700 0.000000
2.707000 0.000000
2.719400 0.000000
2.731700 0.000000
2.744100 0.000000
2.756500 0.000000
2.768800 0.000000
2.781200 0.000000
2.793600 0.000000
2.805900 0.000000
2.818300 0.000000
2.830600 0.000000
2.843000 0.000000
2.855400 0.000000
2.867700 0.000000
2.880100 0.000000
2.892400 0.000000
2.904800 0.000000
2.917200 0.000000
2.929500 0.000000
2.941900 0.000000
2.954200 0.000000
2.966600 0.000000
2.979000 0.000000
2.991300 0.000000
3.003700 0.000000
3.016100 0.000000
3.028400 0.000000
3.040800 0.000000
3.053100 0.000000
3.065500 0.000000
3.077900 0.000000
3.090200 0.000000
3.102600 0.000000
3.114900 0.000000
3.127300 0.000000
3.139700 0.000000
3.152000 0.000000
3.164400 0.000000
3.176800 0.000000
3.189100 0.000000
3.201500 0.000000
3.213800 0.000000
3.226200 0.000000
3.238600 0.000000
3.250900 0.000000
3.263300 0.000000
3.275600 0.000000
3.288000 0.000000
3.300400 0.000000
3.312700 0.000000
3.325100 0.000000
3.337400 0.000000
3.349800 0.000000
3.362200 0.001100
3.374500 0.004000
3.386900 0.008700
3.399300 0.015200
3.411600 0.023500
3.424000 0.033600
3.436300 0.046000
3.448700 0.065700
3.461100 0.085500
3.473400 0.105200
3.485800 0.125000
3.498100 0.144800
3.510500 0.164700
3.522900 0.184500
3.535200 0.204400
3.547600 0.224200
3.559900 0.244100
3.572300 0.264000
3.584700 0.284000
3.597000 0.303900
3.609400 0.323900
3.621800 0.343900
3.634100 0.363900
3.646500 0.383900
3.658800 0.404000
3.671200 0.424100
3.683600 0.444200
3.695900 0.464300
3.708300 0.484400
3.720600 0.508800
3.733000 0.552500
3.745400 0.616800
3.757700 0.723500
3.770100 0.886100
3.782500 1.069200
3.794800 1.254800
3.807200 1.442800
3.819500 1.633400
3.831900 1.826400
3.844300 2.021900
3.856600 2.219900
3.869000 2.420300
3.881300 2.623600
3.893700 2.830500
3.906100 3.029200
3.918400 3.173800
3.930800 3.294700
3.943100 3.416200
3.955500 3.538300
3.967900 3.659500
3.980200 3.769500
3.992600 3.868500
4.005000 3.544600
4.017300 3.309500
4.029700 3.337200
4.042000 3.365700
4.054400 3.394800
4.066800 3.424600
4.079100 3.454900
4.091500 3.485900
4.103800 3.517600
4.116200 3.599200
4.128600 3.724900
4.140900 3.851000
4.153300 3.977400
4.165600 4.104200
4.178000 4.231300
4.190400 4.358800
4.202700 4.486600
4.215100 4.614800
4.227500 5.041500
4.239800 5.833600
4.252200 6.353000
4.264500 6.599700
4.276900 6.573600
4.289300 6.833800
4.301600 6.817800
4.314000 6.831700
4.326300 6.844500
4.338700 6.897300
4.351100 7.014300
4.363400 7.170600
4.375800 7.343300
4.388200 7.545500
4.400500 7.876700
4.412900 8.207000
4.425200 8.502600
4.437600 8.755700
4.450000 8.947700
4.462300 9.187200
4.474700 11.147700
4.487000 11.250800
4.499400 11.158100
4.511800 11.190500
4.524100 11.573400
4.536500 11.970600
4.548800 12.344700
4.561200 12.757600
4.573600 13.225700
4.585900 13.897000
4.598300 15.132100
4.610700 12.512600
4.623000 11.228800
4.635400 10.494800
4.647700 10.141100
4.660100 9.955000
4.672500 9.920900
4.684800 10.497300
4.697200 13.203000
4.709500 16.285900
4.721900 15.534200
4.734300 15.996400
4.746600 16.005400
4.759000 15.461200
4.771300 14.101200
4.783700 11.862900
4.796100 10.892500
4.808400 10.402700
4.820800 10.175400
4.833200 10.211900
4.845500 10.506700
4.857900 9.875500
4.870200 8.837900
4.882600 8.662000
4.895000 8.461300
4.907300 8.270600
4.919700 8.075800
4.932000 7.857900
4.944400 7.616900
4.956800 7.352900
4.969100 7.065900
4.981500 6.755800
4.993900 6.555900
5.006200 6.531700
5.018600 6.500800
5.030900 6.450700
5.043300 6.402600
5.055700 6.364000
5.068000 6.334900
5.080400 6.315400
5.092700 6.305400
5.105100 6.305000
5.117500 6.316000
5.129800 6.340100
5.142200 6.227500
5.154500 5.993400
5.166900 5.718700
5.179300 5.339100
5.191600 4.869600
5.204000 4.439800
5.216400 4.230500
5.228700 4.316400
5.241100 4.818200
5.253400 5.593200
5.265800 5.630200
5.278200 5.656900
5.290500 5.716200
5.302900 5.809200
5.315200 5.393300
5.327600 4.880200
5.340000 4.637500
5.352300 4.490200
5.364700 4.351300
5.377000 4.221000
5.389400 4.099100
5.401800 3.985700
5.414100 3.919400
5.426500 3.938500
5.438900 3.982800
5.451200 4.052200
5.463600 4.142300
5.475900 4.245300
5.488300 4.361300
5.500700 4.490000
5.513000 4.631700
5.525400 4.786100
5.537700 4.968100
5.550100 4.701500
5.562500 4.296300
5.574800 4.187100
5.587200 4.366100
5.599600 4.779100
5.611900 6.971300
5.624300 8.906300
5.636600 11.355400
5.649000 13.321200
5.661400 9.644200
5.673700 8.604200
5.686100 8.081100
5.698400 7.433900
5.710800 6.654500
5.723200 5.742700
5.735500 5.097300
5.747900 4.508200
5.760200 4.090100
5.772600 3.792100
5.785000 3.531800
5.797300 3.309100
5.809700 3.124200
5.822100 2.949100
5.834400 2.774200
5.846800 2.599500
5.859100 3.061200
5.871500 5.240600
5.883900 5.929300
5.896200 5.247900
5.908600 5.622200
5.920900 6.009200
5.933300 6.061100
5.945700 6.563400
5.958000 6.622100
5.970400 6.871400
5.982700 7.525000
5.995100 8.290600
6.007500 9.088400
6.019800 9.218400
6.032200 8.615700
6.044600 8.011200
6.056900 7.410400
6.069300 6.813300
6.081600 6.190200
6.094000 5.714600
6.106400 5.477800
6.118700 5.190000
6.131100 4.851400
6.143400 4.488500
6.155800 4.124700
6.168200 3.760100
6.180500 3.394600
6.192900 3.028300
6.205300 2.661200
6.217600 2.280000
6.230000 1.675800
6.242300 1.126000
6.254700 0.255900
6.267100 0.000000
6.279400 0.000000
6.291800 0.000000
6.304100 0.000000
6.316500 0.000000
6.328900 0.000000
6.341200 0.000000
6.353600 0.000000
6.365900 0.000000
6.378300 0.000000
6.390700 0.000000
6.403000 0.000000
6.415400 0.000000
6.427800 0.000000
6.440100 0.000000
6.452500 0.000000
6.464800 0.000000
6.477200 0.000000
6.489600 0.000000
6.501900 0.000000
6.514300 0.000000
6.526600 0.000000
6.539000 0.000000
6.551400 0.000000
6.563700 0.000000
6.576100 0.000000
6.588400 0.000000
6.600800 0.000000
6.613200 0.000000
6.625500 0.000000
6.637900 0.000000
6.650300 0.000000
6.662600 0.000000
6.675000 0.000000
6.687300 0.000000
6.699700 0.000000
6.712100 0.000000
6.724400 0.000000
6.736800 0.000000
6.749100 0.000000
6.761500 0.000000
6.773900 0.000000
6.786200 0.000000
6.798600 0.000000
6.811000 0.000000
6.823300 0.000000
6.835700 0.000000
6.848000 0.000000
6.860400 0.000000
6.872800 0.000000
6.885100 0.000000
6.897500 0.000000
6.909800 0.000000
6.922200 0.000000
6.934600 0.000000
6.946900 0.000000
6.959300 0.000000
6.971600 0.000000
6.984000 0.000000
6.996400 0.000000
7.008700 0.000000
7.021100 0.000000
7.033500 0.000000
7.045800 0.000000
7.058200 0.000300
7.070500 0.004800
7.082900 0.015000
7.095300 0.030900
7.107600 0.052400
7.120000 0.079600
7.132300 0.117800
7.144700 0.166500
7.157100 0.215200
7.169400 0.263800
7.181800 0.312500
7.194100 0.361100
7.206500 0.409700
7.218900 0.458300
7.231200 0.506900
7.243600 0.555500
7.256000 0.604100
7.268300 0.652700
7.280700 0.701200
7.293000 0.749800
7.305400 0.800300
7.317800 0.854100
7.330100 0.911000
7.342500 0.970000
7.354800 1.030500
7.367200 1.092500
7.379600 1.175000
7.391900 1.304400
7.404300 1.637900
7.416700 1.991600
7.429000 2.366200
7.441400 2.763000
7.453700 3.182000
7.466100 3.462900
7.478500 3.653600
7.490800 3.864600
7.503200 4.439300
7.515500 4.799800
7.527900 5.026200
7.540300 5.255400
7.552600 5.487600
7.565000 5.722600
7.577300 5.960500
7.589700 6.200700
7.602100 6.443100
7.614400 6.687800
7.626800 6.877100
7.639200 6.953700
7.651500 6.917600
7.663900 6.768700
7.676200 6.968100
7.688600 7.190500
7.701000 7.230800
7.713300 7.043000
7.725700 6.689400
7.738000 6.428500
7.750400 6.255100
7.762800 6.154200
7.775100 6.127400
7.787500 6.151800
7.799800 6.170300
7.812200 6.180200
7.824600 6.181700
7.836900 6.153200
7.849300 6.085400
7.861700 5.927700
7.874000 5.759900
7.886400 5.657900
7.898700 5.621900
7.911100 5.637400
7.923500 5.649000
7.935800 5.597400
7.948200 5.665300
7.960500 5.466700
7.972900 5.269500
7.985300 5.073600
7.997600 4.878900
8.010000 4.685600
8.022300 4.494200
8.034700 4.305000
8.047100 3.992600
8.059400 3.772300
8.071800 3.686900
8.084200 3.647800
8.096500 3.623700
8.108900 3.614500
8.121200 3.656000
8.133600 3.750600
8.146000 3.870000
8.158300 4.004100
8.170700 4.152700
8.183000 4.348000
8.195400 4.629100
8.207800 4.457000
8.220100 5.305000
8.232500 7.514300
8.244900 6.828000
8.257200 5.811200
8.269600 5.794000
8.281900 6.030200
8.294300 6.193800
8.306700 6.224200
8.319000 6.196100
8.331400 7.605700
8.343700 6.867600
8.356100 6.800500
8.368500 7.074300
8.380800 7.353000
8.393200 7.636700
8.405500 7.887800
8.417900 8.021700
8.430300 8.092900
8.442600 8.050000
8.455000 7.901800
8.467400 7.759800
8.479700 7.623900
8.492100 7.535000
8.504400 7.516600
8.516800 7.622900
8.529200 8.039300
8.541500 8.601300
8.553900 8.960900
8.566200 9.215100
8.578600 9.717800
8.591000 10.521900
8.603300 10.773300
8.615700 11.025400
8.628000 11.199300
8.640400 13.556600
8.652800 10.705800
8.665100 9.061500
8.677500 7.546300
8.689900 6.488900
8.702200 6.336900
8.714600 6.502200
8.726900 6.687300
8.739300 6.899800
8.751700 7.157400
8.764000 7.469200
8.776400 8.080500
8.788700 8.809600
8.801100 9.161200
8.813500 9.135200
8.825800 8.731700
8.838200 8.015600
8.850600 7.971900
8.862900 8.076000
8.875300 7.938500
8.887600 7.839300
8.900000 7.781000
8.912400 7.750200
8.924700 7.742900
8.937100 7.335000
8.949400 6.355700
8.961800 5.435600
8.974200 4.737500
8.986500 4.187100
8.998900 3.769800
9.011200 3.493200
9.023600 3.690900
9.036000 4.086300
9.048300 4.481100
9.060700 5.017500
9.073100 5.504200
9.085400 5.946000
9.097800 6.395100
9.110100 6.789800
9.122500 7.180300
9.134900 7.706200
9.147200 8.593800
9.159600 9.628300
9.171900 10.328200
9.184300 10.693400
9.196700 10.723900
9.209000 10.504300
9.221400 10.587800
9.233700 11.265600
9.246100 11.370200
9.258500 8.901900
9.270800 7.736600
9.283200 7.788100
9.295600 7.883900
9.307900 8.024200
9.320300 8.208900
9.332600 8.437900
9.345000 8.707200
9.357400 8.960300
9.369700 10.009900
9.382100 10.755700
9.394400 8.482100
9.406800 8.238400
9.419200 7.969500
9.431500 7.665000
9.443900 7.322300
9.456300 7.099600
9.468600 7.178500
9.481000 7.745200
9.493300 8.128500
9.505700 8.321300
9.518100 8.920200
9.530400 9.712800
9.542800 9.535900
9.555100 9.366500
9.567500 9.204500
9.579900 9.062300
9.592200 9.285400
9.604600 9.739700
9.616900 9.620300
9.629300 9.415600
9.641700 7.983000
9.654000 7.794200
9.666400 7.602800
9.678800 7.408800
9.691100 7.212200
9.703500 7.087700
9.715800 7.006300
9.728200 6.963700
9.740600 6.985000
9.752900 7.053300
9.765300 7.104200
9.777600 7.258300
9.790000 7.658900
9.802400 7.984300
9.814700 9.071200
9.827100 9.512000
9.839400 8.585700
9.851800 7.912500
9.864200 7.843800
9.876500 7.702500
9.888900 7.177200
9.901300 6.643700
9.913600 6.841500
9.926000 7.095500
9.938300 7.393000
9.950700 7.742900
9.963100 9.982400
9.975400 10.436800
9.987800 10.836200
10.000100 11.180500
10.012500 11.469700
10.024900 9.411700
10.037200 8.974500
10.049600 8.730400
10.062000 8.662300
10.074300 8.648900
10.086700 8.668400
10.099000 8.645400
10.111400 8.236400
10.123800 7.602000
10.136100 7.213500
10.148500 6.898600
10.160800 6.638300
10.173200 6.363200
10.185600 6.161300
10.197900 6.100000
10.210300 10.589500
10.222600 10.664100
10.235000 12.701100
10.247400 10.581700
10.259700 9.837900
10.272100 10.306800
10.284500 10.487200
10.296800 10.384600
10.309200 10.038800
10.321500 9.306100
10.333900 8.686200
10.346300 8.402100
10.358600 8.347400
10.371000 8.217600
10.383300 8.134200
10.395700 8.217500
10.408100 8.373400
10.420400 8.592600
10.432800 8.889400
10.445100 9.262100
10.457500 9.950300
10.469900 10.721300
10.482200 11.420200
10.494600 11.481900
10.507000 11.476700
10.519300 11.493600
10.531700 11.631600
10.544000 11.647400
10.556400 11.907400
10.568800 11.658200
10.581100 11.354100
10.593500 10.987200
10.605800 10.914600
10.618200 11.095200
10.630600 11.319900
10.642900 10.381500
10.655300 10.607700
10.667700 10.732700
10.680000 10.806000
10.692400 10.827900
10.704700 10.770300
10.717100 11.037600
10.729500 11.223000
10.741800 10.874000
10.754200 10.342600
10.766500 9.692100
10.778900 9.239400
10.791300 8.949100
10.803600 8.725000
10.816000 8.527500
10.828300 8.364100
10.840700 8.264800
10.853100 8.194000
10.865400 8.118100
10.877800 8.029400
10.890200 7.960600
10.902500 7.928100
10.914900 7.934400
10.927200 7.980000
10.939600 8.080600
10.952000 8.275700
10.964300 8.498600
10.976700 8.718700
10.989000 8.902300
11.001400 9.068000
11.013800 9.034500
11.026100 8.796200
11.038500 8.407900
11.050800 8.142700
11.063200 8.019500
11.075600 8.039500
11.087900 8.201000
11.100300 8.489100
11.112700 9.269100
11.125000 12.968800
11.137400 12.539700
11.149700 8.471600
11.162100 8.563400
11.174500 8.496000
11.186800 8.397800
11.199200 8.273000
11.211500 8.168200
11.223900 8.087700
11.236300 8.016700
11.248600 7.836900
11.261000 7.386500
11.273400 6.900000
11.285700 6.377700
11.298100 6.086300
11.310400 5.872100
11.322800 5.672100
11.335200 5.504900
11.347500 5.395600
11.359900 5.226400
11.372200 5.085400
11.384600 5.055100
11.397000 5.032300
11.409300 4.996500
11.421700 4.936200
11.434000 4.852300
11.446400 4.747400
11.458800 4.621700
11.471100 4.475000
11.483500 4.298000
11.495900 4.088300
11.508200 3.873200
11.520600 3.647900
11.532900 3.361100
11.545300 3.068000
11.557700 2.774300
11.570000 2.480200
11.582400 2.185500
11.594700 1.892200
11.607100 1.670200
11.619500 1.527000
11.631800 1.381400
11.644200 1.235800
11.656500 1.091700
11.668900 0.949000
11.681300 0.807800
11.693600 0.667900
11.706000 0.562400
11.718400 0.483200
11.730700 0.410500
11.743100 0.344300
11.755400 0.284500
11.767800 0.231100
11.780200 0.184200
11.792500 0.143800
11.804900 0.109800
11.817200 0.082300
11.829600 0.061200
11.842000 0.046300
11.854300 0.034100
11.866700 0.023900
11.879100 0.015400
11.891400 0.008800
11.903800 0.004000
11.916100 0.001100
11.928500 0.000000
11.940900 0.000000
11.953200 0.000000
11.965600 0.000000
11.977900 0.000000
11.990300 0.000000
12.002700 0.000000
12.015000 0.000000
12.027400 0.000000
12.039700 0.000000
12.052100 0.000000
12.064500 0.000000
12.076800 0.000000
12.089200 0.000000
12.101600 0.000000
12.113900 0.000000
12.126300 0.000000
12.138600 0.000000
12.151000 0.000000
12.163400 0.000000
12.175700 0.000000
12.188100 0.000000
12.200400 0.000000
12.212800 0.000000
12.225200 0.000000
12.237500 0.000000
12.249900 0.000000
12.262200 0.000000
12.274600 0.000000
12.287000 0.000000
12.299300 0.000000
12.311700 0.000000
12.324100 0.000000
12.336400 0.000000
12.348800 0.000000
12.361100 0.000000
12.373500 0.000000
12.385900 0.000000
12.398200 0.000000
12.410600 0.000000
12.422900 0.000000
12.435300 0.000000
12.447700 0.000000
12.460000 0.000000
12.472400 0.000000
12.484800 0.000000
12.497100 0.000000
12.509500 0.000000
12.521800 0.000000
12.534200 0.000000
12.546600 0.000000
12.558900 0.000000
12.571300 0.000000
12.583600 0.000000
12.596000 0.000000
12.608400 0.000000
12.620700 0.000000
12.633100 0.000000
12.645400 0.000000
12.657800 0.000000
12.670200 0.000000
12.682500 0.000000
12.694900 0.000000
12.707300 0.000000
12.719600 0.000000
12.732000 0.000000
12.744300 0.000000
12.756700 0.000000
12.769100 0.000000
12.781400 0.000000
12.793800 0.000000
12.806100 0.000000
12.818500 0.000000
12.830900 0.000000
12.843200 0.000000
12.855600 0.000000
12.867900 0.000000
12.880300 0.000000
12.892700 0.000000
12.905000 0.000000
12.917400 0.000000
12.929800 0.000000
12.942100 0.000000
12.954500 0.000000
12.966800 0.000000
12.979200 0.000000
12.991600 0.000000
13.003900 0.000000
13.016300 0.000000
13.028600 0.000000
13.041000 0.000000
13.053400 0.000000
e
