set title 'mp-137 - Density of States'
set xlabel 'Energy (eV)'
set ylabel 'DOS (states/eV)'
set grid
set xrange [-10:10]
set yrange [0:65.936]
set xzeroaxis lt -1
set terminal png size 800,600
set output 'mp-137_dos_gnuplot.png'
plot '-' using 1:2 with lines title 'DOS'
-24.662800 0.000000
-24.637400 0.000000
-24.612000 0.000000
-24.586500 0.000000
-24.561100 0.000000
-24.535700 0.000000
-24.510300 0.000000
-24.484900 0.000000
-24.459400 0.000000
-24.434000 0.000000
-24.408600 0.000000
-24.383200 0.000000
-24.357800 0.000000
-24.332400 0.000000
-24.306900 0.000000
-24.281500 0.000000
-24.256100 0.000000
-24.230700 0.000000
-24.205300 0.000000
-24.179800 0.000000
-24.154400 0.000000
-24.129000 0.000000
-24.103600 0.000000
-24.078200 0.000000
-24.052700 0.000000
-24.027300 0.000000
-24.001900 0.000000
-23.976500 0.000000
-23.951100 0.000000
-23.925700 0.000000
-23.900200 0.000000
-23.874800 0.000000
-23.849400 0.000000
-23.824000 0.000000
-23.798600 0.000000
-23.773100 0.000000
-23.747700 0.000000
-23.722300 0.000000
-23.696900 0.000000
-23.671500 0.000000
-23.646000 0.000000
-23.620600 0.000000
-23.595200 0.000000
-23.569800 0.000000
-23.544400 0.000000
-23.518900 0.000000
-23.493500 0.000000
-23.468100 0.000000
-23.442700 0.000000
-23.417300 0.000000
-23.391900 0.000000
-23.366400 0.000000
-23.341000 0.000000
-23.315600 0.000000
-23.290200 0.000000
-23.264800 0.000000
-23.239300 0.000000
-23.213900 0.000000
-23.188500 0.000000
-23.163100 0.000000
-23.137700 0.000000
-23.112200 0.000000
-23.086800 0.000000
-23.061400 0.000000
-23.036000 0.000000
-23.010600 0.000000
-22.985200 0.000000
-22.959700 0.000000
-22.934300 0.000000
-22.908900 0.000000
-22.883500 0.000000
-22.858100 0.000000
-22.832600 0.000000
-22.807200 0.000000
-22.781800 0.000000
-22.756400 0.000000
-22.731000 0.000000
-22.705500 0.000000
-22.680100 0.000000
-22.654700 0.000000
-22.629300 0.000000
-22.603900 0.000000
-22.578400 0.000000
-22.553000 0.000000
-22.527600 0.000000
-22.502200 0.000000
-22.476800 0.000000
-22.451400 0.000000
-22.425900 0.000000
-22.400500 0.000000
-22.375100 0.000000
-22.349700 96.718400
-22.324300 0.000000
-22.298800 502.774200
-22.273400 172.275800
-22.248000 405.326800
-22.222600 244.142200
-22.197200 84.689200
-22.171700 420.590900
-22.146300 112.812300
-22.120900 257.140400
-22.095500 505.417600
-22.070100 406.120900
-22.044700 44.606900
-22.019200 0.000000
-21.993800 0.000000
-21.968400 0.000000
-21.943000 0.000000
-21.917600 0.000000
-21.892100 0.000000
-21.866700 0.000000
-21.841300 0.000000
-21.815900 0.000000
-21.790500 0.000000
-21.765000 0.000000
-21.739600 0.000000
-21.714200 0.000000
-21.688800 0.000000
-21.663400 0.000000
-21.637900 0.000000
-21.612500 0.000000
-21.587100 0.000000
-21.561700 0.000000
-21.536300 0.000000
-21.510900 0.000000
-21.485400 0.000000
-21.460000 0.000000
-21.434600 0.000000
-21.409200 0.000000
-21.383800 0.000000
-21.358300 0.000000
-21.332900 0.000000
-21.307500 0.000000
-21.282100 0.000000
-21.256700 0.000000
-21.231200 0.000000
-21.205800 0.000000
-21.180400 0.000000
-21.155000 0.000000
-21.129600 0.000000
-21.104200 0.000000
-21.078700 0.000000
-21.053300 0.000000
-21.027900 0.000000
-21.002500 0.000000
-20.977100 0.000000
-20.951600 0.000000
-20.926200 0.000000
-20.900800 0.000000
-20.875400 0.000000
-20.850000 0.000000
-20.824500 0.000000
-20.799100 0.000000
-20.773700 0.000000
-20.748300 0.000000
-20.722900 0.000000
-20.697400 0.000000
-20.672000 0.000000
-20.646600 0.000000
-20.621200 0.000000
-20.595800 0.000000
-20.570400 0.000000
-20.544900 0.000000
-20.519500 0.000000
-20.494100 0.000000
-20.468700 0.000000
-20.443300 0.000000
-20.417800 0.000000
-20.392400 0.000000
-20.367000 0.000000
-20.341600 0.000000
-20.316200 0.000000
-20.290700 0.000000
-20.265300 0.000000
-20.239900 0.000000
-20.214500 0.000000
-20.189100 0.000000
-20.163700 0.000000
-20.138200 0.000000
-20.112800 0.000000
-20.087400 0.000000
-20.062000 0.000000
-20.036600 0.000000
-20.011100 0.000000
-19.985700 0.000000
-19.960300 0.000000
-19.934900 0.000000
-19.909500 0.000000
-19.884000 0.000000
-19.858600 0.000000
-19.833200 0.000000
-19.807800 0.000000
-19.782400 0.000000
-19.756900 0.000000
-19.731500 0.000000
-19.706100 0.000000
-19.680700 0.000000
-19.655300 0.000000
-19.629900 0.000000
-19.604400 0.000000
-19.579000 0.000000
-19.553600 0.000000
-19.528200 0.000000
-19.502800 0.000000
-19.477300 0.000000
-19.451900 0.000000
-19.426500 0.000000
-19.401100 0.000000
-19.375700 0.000000
-19.350200 0.000000
-19.324800 0.000000
-19.299400 0.000000
-19.274000 0.000000
-19.248600 0.000000
-19.223200 0.000000
-19.197700 0.000000
-19.172300 0.000000
-19.146900 0.000000
-19.121500 0.000000
-19.096100 0.000000
-19.070600 0.000000
-19.045200 0.000000
-19.019800 0.000000
-18.994400 0.000000
-18.969000 0.000000
-18.943500 0.000000
-18.918100 0.000000
-18.892700 0.000000
-18.867300 0.000000
-18.841900 0.000000
-18.816400 0.000000
-18.791000 0.000000
-18.765600 0.000000
-18.740200 0.000000
-18.714800 0.000000
-18.689400 0.000000
-18.663900 0.000000
-18.638500 0.000000
-18.613100 0.000000
-18.587700 0.000000
-18.562300 0.000000
-18.536800 0.000000
-18.511400 0.000000
-18.486000 0.000000
-18.460600 0.000000
-18.435200 0.000000
-18.409700 0.000000
-18.384300 0.000000
-18.358900 0.000000
-18.333500 0.000000
-18.308100 0.000000
-18.282700 0.000000
-18.257200 0.000000
-18.231800 0.000000
-18.206400 0.000000
-18.181000 0.000000
-18.155600 0.000000
-18.130100 0.000000
-18.104700 0.000000
-18.079300 0.000000
-18.053900 0.000000
-18.028500 0.000000
-18.003000 0.000000
-17.977600 0.000000
-17.952200 0.000000
-17.926800 0.000000
-17.901400 0.000000
-17.875900 0.000000
-17.850500 0.000000
-17.825100 0.000000
-17.799700 0.000000
-17.774300 0.000000
-17.748900 0.000000
-17.723400 0.000000
-17.698000 0.000000
-17.672600 0.000000
-17.647200 0.000000
-17.621800 0.000000
-17.596300 0.000000
-17.570900 0.000000
-17.545500 0.000000
-17.520100 0.000000
-17.494700 0.000000
-17.469200 0.000000
-17.443800 0.000000
-17.418400 0.000000
-17.393000 0.000000
-17.367600 0.000000
-17.342200 0.000000
-17.316700 0.000000
-17.291300 0.000000
-17.265900 0.000000
-17.240500 0.000000
-17.215100 0.000000
-17.189600 0.000000
-17.164200 0.000000
-17.138800 0.000000
-17.113400 0.000000
-17.088000 0.000000
-17.062500 0.000000
-17.037100 0.000000
-17.011700 0.000000
-16.986300 0.000000
-16.960900 0.000000
-16.935400 0.000000
-16.910000 0.000000
-16.884600 0.000000
-16.859200 0.000000
-16.833800 0.000000
-16.808400 0.000000
-16.782900 0.000000
-16.757500 0.000000
-16.732100 0.000000
-16.706700 0.000000
-16.681300 0.000000
-16.655800 0.000000
-16.630400 0.000000
-16.605000 0.000000
-16.579600 0.000000
-16.554200 0.000000
-16.528700 0.000000
-16.503300 0.000000
-16.477900 0.000000
-16.452500 0.000000
-16.427100 0.000000
-16.401700 0.000000
-16.376200 0.000000
-16.350800 0.000000
-16.325400 0.000000
-16.300000 0.000000
-16.274600 0.000000
-16.249100 0.000000
-16.223700 0.000000
-16.198300 0.000000
-16.172900 0.000000
-16.147500 0.000000
-16.122000 0.000000
-16.096600 0.000000
-16.071200 0.000000
-16.045800 0.000000
-16.020400 0.000000
-15.994900 0.000000
-15.969500 0.000000
-15.944100 0.000000
-15.918700 0.000000
-15.893300 0.000000
-15.867900 0.000000
-15.842400 0.000000
-15.817000 0.000000
-15.791600 0.000000
-15.766200 0.000000
-15.740800 0.000000
-15.715300 0.000000
-15.689900 0.000000
-15.664500 0.000000
-15.639100 0.000000
-15.613700 0.000000
-15.588200 0.000000
-15.562800 0.000000
-15.537400 0.000000
-15.512000 0.000000
-15.486600 0.000000
-15.461200 0.000000
-15.435700 0.000000
-15.410300 0.000000
-15.384900 0.000000
-15.359500 0.000000
-15.334100 0.000000
-15.308600 0.000000
-15.283200 0.000000
-15.257800 0.000000
-15.232400 0.000000
-15.207000 0.000000
-15.181500 0.000000
-15.156100 0.000000
-15.130700 0.000000
-15.105300 0.000000
-15.079900 0.000000
-15.054400 0.000000
-15.029000 0.000000
-15.003600 0.000000
-14.978200 0.000000
-14.952800 0.000000
-14.927400 0.000000
-14.901900 0.000000
-14.876500 0.000000
-14.851100 0.000000
-14.825700 0.000000
-14.800300 0.000000
-14.774800 0.000000
-14.749400 0.000000
-14.724000 0.000000
-14.698600 0.000000
-14.673200 0.000000
-14.647700 0.000000
-14.622300 0.000000
-14.596900 0.000000
-14.571500 0.000000
-14.546100 0.000000
-14.520600 0.000000
-14.495200 0.000000
-14.469800 0.000000
-14.444400 0.000000
-14.419000 0.000000
-14.393600 0.000000
-14.368100 0.000000
-14.342700 0.000000
-14.317300 0.000000
-14.291900 0.000000
-14.266500 0.000000
-14.241000 0.000000
-14.215600 0.000000
-14.190200 0.000000
-14.164800 0.000000
-14.139400 0.000000
-14.113900 0.000000
-14.088500 0.000000
-14.063100 0.000000
-14.037700 0.000000
-14.012300 0.000000
-13.986900 0.000000
-13.961400 0.000000
-13.936000 0.000000
-13.910600 0.000000
-13.885200 0.000000
-13.859800 0.000000
-13.834300 0.000000
-13.808900 0.000000
-13.783500 0.000000
-13.758100 0.000000
-13.732700 0.000000
-13.707200 0.000000
-13.681800 0.000000
-13.656400 0.000000
-13.631000 0.000000
-13.605600 0.000000
-13.580100 0.000000
-13.554700 0.000000
-13.529300 0.000000
-13.503900 0.000000
-13.478500 0.000000
-13.453100 0.000000
-13.427600 0.000000
-13.402200 0.000000
-13.376800 0.000000
-13.351400 0.000000
-13.326000 0.000000
-13.300500 0.000000
-13.275100 0.000000
-13.249700 0.000000
-13.224300 0.000000
-13.198900 0.000000
-13.173400 0.000000
-13.148000 0.000000
-13.122600 0.000000
-13.097200 0.000000
-13.071800 0.000000
-13.046400 0.000000
-13.020900 0.000000
-12.995500 0.000000
-12.970100 0.000000
-12.944700 0.000000
-12.919300 0.000000
-12.893800 0.000000
-12.868400 0.000000
-12.843000 0.000000
-12.817600 0.000000
-12.792200 0.000000
-12.766700 0.000000
-12.741300 0.000000
-12.715900 0.000000
-12.690500 0.000000
-12.665100 0.000000
-12.639600 0.000000
-12.614200 0.000000
-12.588800 0.000000
-12.563400 0.000000
-12.538000 0.000000
-12.512600 0.000000
-12.487100 0.000000
-12.461700 0.000000
-12.436300 0.000000
-12.410900 0.000000
-12.385500 0.000000
-12.360000 0.000000
-12.334600 0.000000
-12.309200 0.000000
-12.283800 0.000000
-12.258400 0.000000
-12.232900 0.000000
-12.207500 0.000000
-12.182100 0.000000
-12.156700 0.000000
-12.131300 0.000000
-12.105900 0.000000
-12.080400 0.000000
-12.055000 0.000000
-12.029600 0.000000
-12.004200 0.000000
-11.978800 0.000000
-11.953300 0.000000
-11.927900 0.000000
-11.902500 0.000000
-11.877100 0.000000
-11.851700 0.000000
-11.826200 0.000000
-11.800800 0.000000
-11.775400 0.000000
-11.750000 0.000000
-11.724600 0.000000
-11.699100 0.000000
-11.673700 0.000000
-11.648300 0.000000
-11.622900 0.000000
-11.597500 0.000000
-11.572100 0.000000
-11.546600 0.000000
-11.521200 0.000000
-11.495800 0.000000
-11.470400 0.000000
-11.445000 0.000000
-11.419500 0.000000
-11.394100 0.000000
-11.368700 0.000000
-11.343300 0.000000
-11.317900 0.000000
-11.292400 0.000000
-11.267000 0.000000
-11.241600 0.000000
-11.216200 0.000000
-11.190800 0.000000
-11.165400 0.000000
-11.139900 0.000000
-11.114500 0.000000
-11.089100 0.000000
-11.063700 0.000000
-11.038300 0.000000
-11.012800 0.000000
-10.987400 0.000000
-10.962000 0.000000
-10.936600 0.000000
-10.911200 0.000000
-10.885700 0.000000
-10.860300 0.000000
-10.834900 0.000000
-10.809500 0.000000
-10.784100 0.000000
-10.758600 0.000000
-10.733200 0.000000
-10.707800 0.000000
-10.682400 0.000000
-10.657000 0.000000
-10.631600 0.000000
-10.606100 0.000000
-10.580700 0.000000
-10.555300 0.000000
-10.529900 0.000000
-10.504500 0.000000
-10.479000 0.000000
-10.453600 0.000000
-10.428200 0.000000
-10.402800 0.000000
-10.377400 0.000000
-10.351900 0.000000
-10.326500 0.000000
-10.301100 0.000000
-10.275700 0.000000
-10.250300 0.000000
-10.224900 0.000000
-10.199400 0.000000
-10.174000 0.000000
-10.148600 0.000000
-10.123200 0.000000
-10.097800 0.000000
-10.072300 0.000000
-10.046900 0.000000
-10.021500 0.000000
-9.996100 0.000000
-9.970700 0.000000
-9.945200 0.000000
-9.919800 0.000000
-9.894400 0.000000
-9.869000 0.000000
-9.843600 0.000000
-9.818100 0.000000
-9.792700 0.000000
-9.767300 0.000000
-9.741900 0.000000
-9.716500 0.000000
-9.691100 0.000000
-9.665600 0.000000
-9.640200 0.000000
-9.614800 0.000000
-9.589400 0.000000
-9.564000 0.000000
-9.538500 0.000000
-9.513100 0.000000
-9.487700 0.000000
-9.462300 0.000000
-9.436900 0.000000
-9.411400 0.000000
-9.386000 0.000000
-9.360600 0.000000
-9.335200 0.000000
-9.309800 0.000000
-9.284400 0.477400
-9.258900 0.538100
-9.233500 0.601200
-9.208100 0.666900
-9.182700 0.735000
-9.157300 0.805500
-9.131800 0.878600
-9.106400 0.954100
-9.081000 1.032100
-9.055600 1.112500
-9.030200 1.195400
-9.004700 1.280800
-8.979300 1.368700
-8.953900 1.525900
-8.928500 1.590000
-8.903100 1.654300
-8.877600 1.718800
-8.852200 1.783500
-8.826800 2.274400
-8.801400 2.304800
-8.776000 2.329700
-8.750600 2.349300
-8.725100 2.363400
-8.699700 2.372200
-8.674300 2.375500
-8.648900 2.373400
-8.623500 2.365900
-8.598000 2.353000
-8.572600 2.334600
-8.547200 2.310900
-8.521800 1.857200
-8.496400 1.795400
-8.470900 1.733300
-8.445500 1.671100
-8.420100 1.608700
-8.394700 1.546100
-8.369300 1.434800
-8.343900 1.846100
-8.318400 1.828900
-8.293000 1.819300
-8.267600 1.817400
-8.242200 1.823100
-8.216800 1.836500
-8.191300 1.857500
-8.165900 1.886200
-8.140500 1.922500
-8.115100 1.966500
-8.089700 1.520700
-8.064200 1.647000
-8.038800 1.778000
-8.013400 3.581500
-7.988000 3.871600
-7.962600 4.206400
-7.937100 3.510700
-7.911700 3.423200
-7.886300 3.333700
-7.860900 3.242200
-7.835500 3.148700
-7.810100 3.053100
-7.784600 2.955400
-7.759200 2.855800
-7.733800 2.754000
-7.708400 2.650300
-7.683000 2.544500
-7.657500 2.705000
-7.632100 2.419400
-7.606700 2.126400
-7.581300 0.784900
-7.555900 0.530000
-7.530400 0.000000
-7.505000 0.000000
-7.479600 0.000000
-7.454200 0.000000
-7.428800 3.275100
-7.403400 3.378700
-7.377900 3.463100
-7.352500 3.528300
-7.327100 3.574400
-7.301700 3.601300
-7.276300 3.609000
-7.250800 2.531100
-7.225400 2.489900
-7.200000 2.445100
-7.174600 2.396600
-7.149200 2.344600
-7.123700 2.288900
-7.098300 4.246400
-7.072900 4.691900
-7.047500 5.168800
-7.022100 4.019300
-6.996600 3.991600
-6.971200 3.961700
-6.945800 3.929500
-6.920400 3.895100
-6.895000 3.858400
-6.869600 3.819600
-6.844100 3.778500
-6.818700 3.984000
-6.793300 3.633400
-6.767900 3.612700
-6.742500 3.588200
-6.717000 3.559900
-6.691600 3.527900
-6.666200 3.492200
-6.640800 3.452700
-6.615400 3.409400
-6.589900 3.362400
-6.564500 59.941900
-6.539100 2.485800
-6.513700 2.070500
-6.488300 1.353400
-6.462900 1.034700
-6.437400 0.741300
-6.412000 0.000000
-6.386600 1.168300
-6.361200 1.459100
-6.335800 1.788000
-6.310300 2.143500
-6.284900 2.545200
-6.259500 3.768400
-6.234100 5.664800
-6.208700 6.126200
-6.183200 6.594800
-6.157800 6.624600
-6.132400 4.573700
-6.107000 4.473100
-6.081600 4.365700
-6.056100 4.251700
-6.030700 4.324000
-6.005300 4.152400
-5.979900 3.983200
-5.954500 3.816300
-5.929100 3.651900
-5.903600 3.773800
-5.878200 3.642300
-5.852800 3.514100
-5.827400 3.389400
-5.802000 1.909000
-5.776500 1.988100
-5.751100 2.068300
-5.725700 3.134000
-5.700300 3.483300
-5.674900 3.842800
-5.649400 4.212400
-5.624000 4.592300
-5.598600 4.982300
-5.573200 11.208500
-5.547800 11.693700
-5.522400 6.052900
-5.496900 1.238600
-5.471500 1.316400
-5.446100 1.760600
-5.420700 1.874200
-5.395300 1.990600
-5.369800 2.109800
-5.344400 2.231800
-5.319000 2.356600
-5.293600 2.484300
-5.268200 2.614700
-5.242700 2.747900
-5.217300 2.884000
-5.191900 3.559600
-5.166500 3.617300
-5.141100 3.865700
-5.115600 3.910000
-5.090200 3.946700
-5.064800 3.976000
-5.039400 3.997700
-5.014000 3.420900
-4.988600 3.350500
-4.963100 3.285300
-4.937700 3.225600
-4.912300 3.171100
-4.886900 2.864100
-4.861500 2.864500
-4.836000 2.867100
-4.810600 2.872000
-4.785200 4.543600
-4.759800 4.454400
-4.734400 2.530600
-4.708900 2.442600
-4.683500 2.355900
-4.658100 2.270700
-4.632700 2.186700
-4.607300 2.104200
-4.581900 2.023000
-4.556400 1.943100
-4.531000 1.864600
-4.505600 1.787500
-4.480200 1.711700
-4.454800 1.637300
-4.429300 1.564200
-4.403900 1.177700
-4.378500 1.140300
-4.353100 1.103000
-4.327700 1.065800
-4.302200 1.028500
-4.276800 0.991300
-4.251400 0.954200
-4.226000 0.917100
-4.200600 1.378200
-4.175100 1.216800
-4.149700 1.061500
-4.124300 0.000000
-4.098900 0.000000
-4.073500 0.000000
-4.048100 0.000000
-4.022600 0.000000
-3.997200 0.000000
-3.971800 0.000000
-3.946400 0.000000
-3.921000 0.000000
-3.895500 0.000000
-3.870100 2.450000
-3.844700 3.253000
-3.819300 4.125900
-3.793900 3.877600
-3.768400 3.725700
-3.743000 3.675100
-3.717600 3.608600
-3.692200 3.526100
-3.666800 3.427800
-3.641300 3.313600
-3.615900 3.183500
-3.590500 2.358000
-3.565100 2.234300
-3.539700 3.410500
-3.514300 3.692700
-3.488800 4.063300
-3.463400 5.346300
-3.438000 6.725300
-3.412600 5.532800
-3.387200 5.466500
-3.361700 5.377700
-3.336300 5.266500
-3.310900 5.132800
-3.285500 4.976600
-3.260100 3.331800
-3.234600 3.187100
-3.209200 3.043300
-3.183800 2.900400
-3.158400 2.758400
-3.133000 2.617200
-3.107600 2.477000
-3.082100 2.337600
-3.056700 2.199100
-3.031300 2.061500
-3.005900 1.924800
-2.980500 1.788900
-2.955000 1.654000
-2.929600 1.519900
-2.904200 1.057300
-2.878800 0.985800
-2.853400 0.917100
-2.827900 0.851200
-2.802500 0.788100
-2.777100 0.727900
-2.751700 0.670400
-2.726300 1.912100
-2.700800 1.959100
-2.675400 2.279400
-2.650000 2.139000
-2.624600 1.985100
-2.599200 2.106600
-2.573800 2.229200
-2.548300 2.353000
-2.522900 2.477800
-2.497500 2.603800
-2.472100 2.730900
-2.446700 2.929900
-2.421200 2.925100
-2.395800 2.917800
-2.370400 2.907700
-2.345000 2.895000
-2.319600 2.879700
-2.294100 5.330700
-2.268700 5.877400
-2.243300 6.701200
-2.217900 6.585100
-2.192500 5.960000
-2.167100 5.911500
-2.141600 5.849900
-2.116200 5.775200
-2.090800 5.687500
-2.065400 5.246700
-2.040000 5.136600
-2.014500 5.013700
-1.989100 6.276900
-1.963700 5.276300
-1.938300 2.536300
-1.912900 2.307800
-1.887400 2.088500
-1.862000 1.878400
-1.836600 1.677500
-1.811200 1.069500
-1.785800 0.952600
-1.760300 0.841500
-1.734900 0.736100
-1.709500 0.636400
-1.684100 0.542500
-1.658700 0.454400
-1.633300 0.000000
-1.607800 0.000000
-1.582400 0.000000
-1.557000 0.000000
-1.531600 0.000000
-1.506200 0.000000
-1.480700 0.000000
-1.455300 0.000000
-1.429900 0.000000
-1.404500 0.000000
-1.379100 0.000000
-1.353600 0.000000
-1.328200 0.000000
-1.302800 0.000000
-1.277400 0.000000
-1.252000 0.868200
-1.226600 1.087000
-1.201100 1.320100
-1.175700 1.567700
-1.150300 1.829700
-1.124900 2.969000
-1.099500 3.229700
-1.074000 3.496700
-1.048600 3.770000
-1.023200 4.049400
-0.997800 3.769400
-0.972400 3.816600
-0.946900 3.859800
-0.921500 3.899100
-0.896100 3.934300
-0.870700 3.965500
-0.845300 3.992600
-0.819800 4.111000
-0.794400 4.112600
-0.769000 3.555800
-0.743600 3.536400
-0.718200 3.518900
-0.692800 3.503200
-0.667300 3.489300
-0.641900 3.477300
-0.616500 4.052300
-0.591100 4.007500
-0.565700 4.577700
-0.540200 4.630700
-0.514800 4.684200
-0.489400 4.738200
-0.464000 4.792800
-0.438600 4.228000
-0.413100 4.224400
-0.387700 4.229500
-0.362300 4.243200
-0.336900 4.265600
-0.311500 4.296700
-0.286100 3.904600
-0.260600 4.834600
-0.235200 5.119200
-0.209800 5.477700
-0.184400 11.796200
-0.159000 2.877500
-0.133500 3.076000
-0.108100 2.820400
-0.082700 3.492400
-0.057300 2.476700
-0.031900 2.630800
-0.006400 2.795300
0.019000 2.970000
0.044400 3.155000
0.069800 3.350300
0.095200 3.581700
0.120700 3.660100
0.146100 3.734500
0.171500 3.799000
0.196900 3.797200
0.222300 3.789100
0.247700 4.622500
0.273200 4.789100
0.298600 4.963200
0.324000 5.144900
0.349400 5.334100
0.374800 5.531000
0.400300 5.735400
0.425700 5.813700
0.451100 5.934300
0.476500 6.607900
0.501900 9.192400
0.527400 10.784200
0.552800 8.609500
0.578200 8.208800
0.603600 5.710000
0.629000 5.202800
0.654400 5.037000
0.679900 4.879700
0.705300 5.146700
0.730700 5.068200
0.756100 5.002600
0.781500 4.949900
0.807000 4.406400
0.832400 4.081300
0.857800 4.209300
0.883200 4.342400
0.908600 6.867300
0.934100 6.989000
0.959500 6.993000
0.984900 6.879400
1.010300 3.660900
1.035700 5.139900
1.061200 5.613400
1.086600 7.532700
1.112000 7.975100
1.137400 8.482700
1.162800 9.055600
1.188200 7.140700
1.213700 8.095900
1.239100 8.479500
1.264500 9.132400
1.289900 9.091900
1.315300 8.378700
1.340800 8.848900
1.366200 9.145300
1.391600 7.865800
1.417000 7.138400
1.442400 4.970200
1.467900 4.749100
1.493300 4.550300
1.518700 4.374000
1.544100 3.894500
1.569500 3.954500
1.594900 3.928900
1.620400 3.915300
1.645800 3.442600
1.671200 3.522200
1.696600 4.621600
1.722000 5.165300
1.747500 6.075700
1.772900 11.619800
1.798300 11.365200
1.823700 11.440600
1.849100 11.378200
1.874600 16.758800
1.900000 9.610000
1.925400 9.183600
1.950800 8.710600
1.976200 8.191100
2.001700 7.625000
2.027100 4.913600
2.052500 4.775300
2.077900 4.648700
2.103300 6.052700
2.128700 6.254300
2.154200 7.414700
2.179600 8.364100
2.205000 7.881100
2.230400 9.507700
2.255800 9.799700
2.281300 9.623100
2.306700 9.174500
2.332100 9.200000
2.357500 6.629300
2.382900 6.175200
2.408400 5.732800
2.433800 5.302300
2.459200 4.883500
2.484600 3.772100
2.510000 3.589200
2.535400 8.731500
2.560900 0.000000
2.586300 0.000000
2.611700 0.000000
2.637100 0.000000
2.662500 0.000000
2.688000 0.000000
2.713400 0.000000
2.738800 0.000000
2.764200 0.000000
2.789600 0.000000
2.815100 0.000000
2.840500 0.000000
2.865900 0.000000
2.891300 0.000000
2.916700 0.000000
2.942200 0.000000
2.967600 0.000000
2.993000 0.000000
3.018400 0.000000
3.043800 0.000000
3.069200 0.000000
3.094700 0.000000
3.120100 0.000000
3.145500 0.000000
3.170900 0.000000
3.196300 0.000000
3.221800 0.000000
3.247200 0.000000
3.272600 0.000000
3.298000 0.000000
3.323400 0.000000
3.348900 0.000000
3.374300 0.000000
3.399700 0.000000
3.425100 1.771500
3.450500 2.598800
3.475900 3.579100
3.501400 4.712500
3.526800 3.873800
3.552200 3.669100
3.577600 3.477100
3.603000 3.297700
3.628500 3.532300
3.653900 3.483000
3.679300 3.454200
3.704700 2.886500
3.730100 2.930400
3.755600 2.982300
3.781000 4.474500
3.806400 4.540300
3.831800 4.595100
3.857200 4.638800
3.882700 4.982600
3.908100 5.041900
3.933500 5.091800
3.958900 5.132100
3.984300 5.163000
4.009700 5.184300
4.035200 5.196200
4.060600 5.198500
4.086000 5.191400
4.111400 4.470100
4.136800 3.587700
4.162300 3.177400
4.187700 2.823900
4.213100 2.760100
4.238500 2.702100
4.263900 2.649800
4.289400 2.603300
4.314800 2.562600
4.340200 3.627800
4.365600 3.821800
4.391000 3.818800
4.416400 4.085700
4.441900 3.699100
4.467300 3.621400
4.492700 3.544200
4.518100 3.467400
4.543500 3.391000
4.569000 3.315100
4.594400 18.478700
4.619800 5.374300
4.645200 5.051700
4.670600 4.958500
4.696100 4.860700
4.721500 4.758200
4.746900 4.651100
4.772300 4.539400
4.797700 4.423000
4.823200 4.302000
4.848600 4.176300
4.874000 5.294500
4.899400 2.317000
4.924800 3.803500
4.950200 4.328800
4.975700 4.911500
5.001100 5.551400
5.026500 6.248600
5.051900 7.134800
5.077300 8.961700
5.102800 13.316700
5.128200 11.915000
5.153600 11.811700
5.179000 6.953400
5.204400 6.648900
5.229900 5.743100
5.255300 5.020800
5.280700 4.371000
5.306100 4.350500
5.331500 2.584700
5.356900 2.719000
5.382400 5.608100
5.407800 4.026700
5.433200 4.239700
5.458600 4.452300
5.484000 4.664700
5.509500 5.583800
5.534900 5.883700
5.560300 6.187300
5.585700 4.445200
5.611100 4.488100
5.636600 4.163900
5.662000 4.151600
5.687400 4.143200
5.712800 4.977900
5.738200 5.085100
5.763700 5.200700
5.789100 10.672200
5.814500 6.480200
5.839900 6.341200
5.865300 6.207200
5.890700 6.078200
5.916200 8.245200
5.941600 6.110700
5.967000 6.093900
5.992400 6.077700
6.017800 17.085700
6.043300 3.346600
6.068700 3.444500
6.094100 3.542400
6.119500 3.640300
6.144900 4.599200
6.170400 4.794200
6.195800 4.992700
6.221200 5.194500
6.246600 9.733200
6.272000 12.173200
6.297500 13.118200
6.322900 11.608000
6.348300 3.471500
6.373700 3.556200
6.399100 6.157900
6.424500 6.453700
6.450000 6.727600
6.475400 5.334800
6.500800 5.323800
6.526200 5.314100
6.551600 5.305600
6.577100 5.298300
6.602500 5.292200
6.627900 5.287400
6.653300 8.807400
6.678700 6.044500
6.704200 5.947600
6.729600 6.564600
6.755000 6.278100
6.780400 4.383400
6.805800 4.391700
6.831200 4.400700
6.856700 4.410400
6.882100 5.251600
6.907500 5.285000
6.932900 5.314200
6.958300 5.339100
6.983800 5.359900
7.009200 5.376400
7.034600 10.829600
7.060000 7.170300
7.085400 5.283500
7.110900 5.363700
7.136300 8.715500
7.161700 5.564900
7.187100 5.509800
7.212500 5.455400
7.238000 5.844900
7.263400 5.848100
7.288800 5.841600
7.314200 5.788000
7.339600 5.742000
7.365000 5.703600
7.390500 6.788700
7.415900 6.693500
7.441300 6.584300
7.466700 5.657500
7.492100 4.426200
7.517600 4.351200
7.543000 4.816200
7.568400 5.124700
7.593800 5.181200
7.619200 5.249400
7.644700 5.329100
7.670100 5.420300
7.695500 5.523100
7.720900 5.488400
7.746300 5.596000
7.771700 6.050800
7.797200 8.530400
7.822600 8.223600
7.848000 5.995900
7.873400 5.941900
7.898800 5.896800
7.924300 5.860400
7.949700 6.487600
7.975100 7.354500
8.000500 7.421100
8.025900 7.517600
8.051400 6.709200
8.076800 6.518200
8.102200 6.226500
8.127600 5.958300
8.153000 5.713700
8.178500 5.492700
8.203900 4.520500
8.229300 5.090000
8.254700 6.051400
8.280100 8.182100
8.305500 8.019600
8.331000 7.683400
8.356400 3.743700
8.381800 3.880500
8.407200 4.031900
8.432600 4.198100
8.458100 4.379000
8.483500 8.368800
8.508900 8.669200
8.534300 8.761700
8.559700 6.157100
8.585200 4.170300
8.610600 3.971600
8.636000 3.648200
8.661400 3.439900
8.686800 5.175400
8.712200 5.751800
8.737700 6.436700
8.763100 7.230100
8.788500 8.081400
8.813900 8.400500
8.839300 8.719200
8.864800 7.627600
8.890200 6.709600
8.915600 5.450900
8.941000 3.508700
8.966400 5.932200
8.991900 6.914000
9.017300 8.082200
9.042700 6.186700
9.068100 6.332000
9.093500 6.489400
9.119000 6.658900
9.144400 12.155500
9.169800 11.938500
9.195200 11.292900
9.220600 8.660600
9.246000 8.412700
9.271500 8.156700
9.296900 10.900400
9.322300 3.139700
9.347700 3.183300
9.373100 3.216100
9.398600 3.238100
9.424000 4.206700
9.449400 4.222300
9.474800 5.393700
9.500200 5.433200
9.525700 4.123700
9.551100 4.007000
9.576500 3.907900
9.601900 3.826300
9.627300 3.762100
9.652700 3.715500
9.678200 3.686400
9.703600 3.674800
9.729000 3.680800
9.754400 3.010700
9.779800 3.205500
9.805300 3.958800
9.830700 5.899700
9.856100 7.148800
9.881500 8.270400
9.906900 7.583500
9.932400 9.093200
9.957800 4.088900
9.983200 4.029100
10.008600 4.011100
10.034000 4.034900
10.059500 3.693200
10.084900 3.993100
10.110300 3.523000
10.135700 3.562000
10.161100 3.570900
10.186500 3.549800
10.212000 4.058500
10.237400 4.476500
10.262800 4.906900
10.288200 2.645800
10.313600 8.506600
10.339100 5.186600
10.364500 4.964500
10.389900 4.754200
10.415300 4.555800
10.440700 4.369300
10.466200 4.194600
10.491600 5.787500
10.517000 5.263700
10.542400 5.456600
10.567800 5.648800
10.593200 5.840100
10.618700 6.030500
10.644100 7.818100
10.669500 7.723800
10.694900 7.921400
10.720300 10.411800
10.745800 10.607900
10.771200 5.292400
10.796600 5.474800
10.822000 5.646200
10.847400 5.290200
10.872900 6.271500
10.898300 10.280900
10.923700 10.463400
10.949100 7.823300
10.974500 6.559300
11.000000 2.334200
11.025400 2.355600
11.050800 2.373100
11.076200 2.386700
11.101600 2.396300
11.127000 2.402000
11.152500 4.874000
11.177900 4.553700
11.203300 4.216100
11.228700 3.860900
11.254100 2.203000
11.279600 1.843800
11.305000 1.510800
11.330400 1.204000
11.355800 3.531000
11.381200 4.222900
11.406700 6.128100
11.432100 10.104000
11.457500 8.739100
11.482900 7.377300
11.508300 5.074300
11.533700 4.527500
11.559200 4.008600
11.584600 3.517700
11.610000 37.235800
11.635400 8.798000
11.660800 8.128400
11.686300 7.463900
11.711700 6.804400
11.737100 5.498400
11.762500 5.064400
11.787900 4.608000
11.813400 4.129200
11.838800 2.383900
11.864200 3.333400
11.889600 0.000000
11.915000 0.000000
11.940500 0.000000
11.965900 0.000000
11.991300 0.000000
12.016700 22.034300
12.042100 15.648100
12.067500 9.820600
12.093000 6.895700
12.118400 2.889500
12.143800 2.406000
12.169200 1.965900
12.194600 1.569200
12.220100 8.054500
12.245500 8.414200
12.270900 4.731400
12.296300 2.805900
12.321700 2.804300
12.347200 2.803400
12.372600 2.803100
12.398000 2.803500
12.423400 2.804500
12.448800 2.806100
12.474200 4.670100
12.499700 5.618900
12.525100 6.697700
12.550500 7.906400
12.575900 14.442900
12.601300 11.508800
12.626800 4.846100
12.652200 4.861900
12.677600 4.877500
12.703000 4.892800
12.728400 4.907900
12.753900 11.510100
12.779300 0.000000
12.804700 0.000000
12.830100 0.000000
12.855500 0.000000
12.881000 0.000000
12.906400 0.000000
12.931800 7.064300
12.957200 10.231000
12.982600 8.803900
13.008000 7.792400
13.033500 6.152700
13.058900 5.781200
13.084300 5.363500
13.109700 8.079800
13.135100 7.456400
13.160600 6.695800
13.186000 6.043300
13.211400 5.498900
13.236800 3.904000
13.262200 4.845800
13.287700 4.602300
13.313100 4.376500
13.338500 4.168400
13.363900 3.120300
13.389300 2.913500
13.414700 6.839700
13.440200 10.643200
13.465600 11.582800
13.491000 12.066000
13.516400 9.039200
13.541800 10.685800
13.567300 10.052800
13.592700 9.893000
13.618100 9.772700
13.643500 8.906900
13.668900 11.728400
13.694400 10.997000
13.719800 9.552600
13.745200 3.725400
13.770600 6.198400
13.796000 6.687300
13.821500 7.273200
13.846900 7.586600
13.872300 10.795900
13.897700 10.638800
13.923100 10.544600
13.948500 5.738800
13.974000 4.837200
13.999400 4.020700
14.024800 2.944200
14.050200 5.301700
14.075600 5.571400
14.101100 7.447200
14.126500 12.111600
14.151900 12.199000
14.177300 11.394500
14.202700 9.291000
14.228200 7.734900
14.253600 7.248100
14.279000 6.763100
14.304400 4.000200
14.329800 3.848200
14.355200 3.707500
14.380700 3.578000
14.406100 5.191000
14.431500 5.358900
14.456900 5.544500
14.482300 5.324200
14.507800 5.671900
14.533200 19.748700
14.558600 8.140200
14.584000 7.616100
14.609400 7.092100
14.634900 7.544000
14.660300 7.718300
14.685700 7.103400
14.711100 6.463200
14.736500 5.797800
14.762000 3.566300
14.787400 2.921100
14.812800 2.097300
14.838200 4.027100
14.863600 4.225500
14.889000 5.057900
14.914500 5.439200
14.939900 5.837600
14.965300 6.253000
14.990700 8.742700
15.016100 8.626300
15.041600 11.346200
15.067000 10.231400
15.092400 9.885400
15.117800 9.938900
15.143200 7.245700
15.168700 6.099100
15.194100 5.080900
15.219500 3.716000
15.244900 4.030000
15.270300 4.886100
15.295700 5.356300
15.321200 5.866000
15.346600 7.675000
15.372000 7.656700
15.397400 7.616400
15.422800 9.706500
15.448300 11.350400
15.473700 5.109000
15.499100 4.613400
15.524500 4.691000
15.549900 6.080600
15.575400 13.450200
15.600800 8.323500
15.626200 9.022400
15.651600 9.306700
15.677000 10.332900
15.702500 10.408500
15.727900 10.449800
15.753300 10.456700
15.778700 12.873000
15.804100 8.568900
15.829500 7.127600
15.855000 4.023600
15.880400 4.254100
15.905800 5.046600
15.931200 5.265800
15.956600 5.481400
15.982100 5.693100
16.007500 5.901100
16.032900 6.619400
16.058300 7.008200
16.083700 7.285100
16.109200 7.525600
16.134600 9.642300
16.160000 9.440200
16.185400 4.510000
16.210800 4.738000
16.236200 6.043900
16.261700 6.322100
16.287100 7.107300
16.312500 7.436100
16.337900 7.762200
16.363300 8.085500
16.388800 8.923300
16.414200 8.768400
16.439600 8.624700
16.465000 12.226300
16.490400 8.754600
16.515900 6.613800
16.541300 6.395400
16.566700 6.194300
16.592100 6.970300
16.617500 6.371200
16.643000 6.857300
16.668400 6.868800
16.693800 6.889700
16.719200 7.419800
16.744600 7.118400
16.770000 7.022500
16.795500 6.944400
16.820900 6.276200
16.846300 6.555900
16.871700 6.640100
16.897100 6.729800
16.922600 4.802400
16.948000 5.029600
16.973400 5.260100
16.998800 20.457900
17.024200 8.588700
17.049700 8.012000
17.075100 7.493300
17.100500 7.032800
17.125900 9.537900
17.151300 10.383700
17.176800 5.809500
17.202200 5.454600
17.227600 5.135600
17.253000 4.852300
17.278400 4.604800
17.303800 4.393000
17.329300 4.217000
17.354700 3.285800
17.380100 3.497100
17.405500 19.751500
17.430900 6.987600
17.456400 6.772100
17.481800 6.045000
17.507200 5.428700
17.532600 4.923300
17.558000 3.608600
17.583500 3.912100
17.608900 4.277200
17.634300 7.700400
17.659700 9.109100
17.685100 10.485300
17.710500 11.076800
17.736000 9.630500
17.761400 8.010800
17.786800 2.999000
17.812200 3.179600
17.837600 9.743500
17.863100 14.627400
17.888500 30.119100
17.913900 5.359200
17.939300 6.065500
17.964700 6.735800
17.990200 7.055900
18.015600 7.543500
18.041000 10.521500
18.066400 9.393900
18.091800 7.016200
18.117300 6.857500
18.142700 6.730100
18.168100 6.102000
18.193500 6.381100
18.218900 6.267000
18.244300 8.693300
18.269800 8.606900
18.295200 10.254000
18.320600 10.547900
18.346000 14.360500
18.371400 11.919200
18.396900 2.887900
18.422300 3.056800
18.447700 3.883900
18.473100 4.294500
18.498500 4.569100
18.524000 4.851500
18.549400 5.141700
18.574800 9.316200
18.600200 11.360700
18.625600 58.624900
18.651000 11.855700
18.676500 4.618400
18.701900 5.233000
18.727300 5.529400
18.752700 5.831700
18.778100 13.929600
18.803600 8.462400
18.829000 7.839400
18.854400 6.442400
18.879800 8.028700
18.905200 8.105700
18.930700 8.155900
18.956100 8.179300
18.981500 8.175900
19.006900 8.058500
19.032300 7.968700
19.057800 8.074800
19.083200 7.550100
19.108600 7.075700
19.134000 6.105100
19.159400 7.966500
19.184800 7.072500
19.210300 7.502400
19.235700 7.891500
19.261100 8.239900
19.286500 11.727600
19.311900 10.769100
19.337400 8.696700
19.362800 5.694000
19.388200 5.993300
19.413600 8.699100
19.439000 5.152600
19.464500 5.163500
19.489900 5.477800
19.515300 5.496200
19.540700 5.515600
19.566100 5.535800
19.591500 5.556900
19.617000 5.578900
19.642400 5.601700
19.667800 5.625400
19.693200 5.959900
19.718600 6.071400
19.744100 6.121600
19.769500 6.172600
19.794900 6.224300
19.820300 5.290400
19.845700 5.690500
19.871200 5.917900
19.896600 9.825700
19.922000 11.023900
19.947400 6.062400
19.972800 4.691400
19.998300 5.303400
20.023700 5.406600
20.049100 5.506600
20.074500 5.603700
20.099900 5.697600
20.125300 5.788500
20.150800 5.876300
20.176200 5.961100
20.201600 6.042800
20.227000 6.121400
20.252400 6.196900
20.277900 6.802100
20.303300 7.190800
20.328700 7.399500
20.354100 8.821100
20.379500 9.477200
20.405000 9.757700
20.430400 9.264900
20.455800 9.118300
20.481200 8.898800
20.506600 9.010700
20.532000 7.251400
20.557500 6.490600
20.582900 6.885100
20.608300 7.055500
20.633700 7.276300
20.659100 7.496700
20.684600 7.599200
20.710000 7.694100
20.735400 8.029200
20.760800 8.129500
20.786200 8.223100
20.811700 8.309900
20.837100 8.389800
20.862500 9.021900
20.887900 9.003300
20.913300 8.916600
20.938800 9.706600
20.964200 7.251800
20.989600 7.390200
21.015000 7.546200
21.040400 7.719800
21.065800 16.185600
21.091300 10.042000
21.116700 9.246200
21.142100 8.868000
21.167500 8.443100
21.192900 7.971600
21.218400 3.882000
21.243800 4.079400
21.269200 4.034600
21.294600 5.379100
21.320000 5.747200
21.345500 6.178400
21.370900 6.672700
21.396300 7.230200
21.421700 12.732700
21.447100 6.839500
21.472500 6.516300
21.498000 7.641600
21.523400 7.646600
21.548800 7.681000
21.574200 7.744800
21.599600 7.199200
21.625100 16.687400
21.650500 8.007700
21.675900 7.940600
21.701300 6.725400
21.726700 5.601800
21.752200 5.472900
21.777600 6.106200
21.803000 6.105500
21.828400 5.337300
21.853800 6.329100
21.879300 9.776300
21.904700 11.175800
21.930100 5.898900
21.955500 5.823300
21.980900 6.415200
22.006300 6.567800
22.031800 7.844100
22.057200 7.544600
22.082600 8.339100
22.108000 8.797600
22.133400 8.360400
22.158900 8.561400
22.184300 8.802000
22.209700 8.773300
22.235100 10.608500
22.260500 8.881600
22.286000 9.383900
22.311400 37.134300
22.336800 14.201900
22.362200 13.780500
22.387600 8.886000
22.413000 4.789900
22.438500 4.691700
22.463900 5.240400
22.489300 5.282500
22.514700 5.337600
22.540100 5.405500
22.565600 5.486300
22.591000 46.823900
22.616400 14.373000
22.641800 12.219900
22.667200 15.451300
22.692700 11.032600
22.718100 144.981900
22.743500 7.911300
22.768900 13.521900
22.794300 7.104200
22.819800 7.404900
22.845200 7.724700
22.870600 11.667000
22.896000 16.692100
22.921400 5.549100
22.946800 4.942100
22.972300 11.667900
22.997700 26.450100
23.023100 8.158400
23.048500 7.933900
23.073900 7.483400
23.099400 7.296300
23.124800 7.268000
23.150200 7.369400
23.175600 6.814300
23.201000 11.123400
23.226500 9.325500
23.251900 12.950400
23.277300 14.674500
23.302700 9.735700
23.328100 8.724700
23.353500 6.826800
23.379000 6.714300
23.404400 4.937900
23.429800 4.619500
23.455200 4.225700
23.480600 3.796000
23.506100 3.472000
23.531500 3.162800
23.556900 2.870800
23.582300 2.619900
23.607700 2.409800
23.633200 2.213100
23.658600 2.012400
23.684000 1.836200
23.709400 1.116100
23.734800 0.797100
23.760300 0.635500
23.785700 0.575900
23.811100 0.728400
23.836500 0.569700
23.861900 0.063300
23.887300 0.000000
23.912800 0.000000
23.938200 0.000000
23.963600 0.000000
23.989000 0.000000
24.014400 0.000000
24.039900 0.000000
24.065300 0.000000
24.090700 0.000000
24.116100 0.000000
24.141500 0.000000
24.167000 0.000000
24.192400 0.000000
24.217800 0.000000
24.243200 0.000000
24.268600 0.000000
24.294000 0.000000
24.319500 0.000000
24.344900 0.000000
24.370300 0.000000
24.395700 0.000000
24.421100 0.000000
24.446600 0.000000
24.472000 0.000000
24.497400 0.000000
24.522800 0.000000
24.548200 0.000000
24.573700 0.000000
24.599100 0.000000
24.624500 0.000000
24.649900 0.000000
24.675300 0.000000
24.700800 0.000000
24.726200 0.000000
24.751600 0.000000
24.777000 0.000000
24.802400 0.000000
24.827800 0.000000
24.853300 0.000000
24.878700 0.000000
24.904100 0.000000
24.929500 0.000000
24.954900 0.000000
24.980400 0.000000
25.005800 0.000000
25.031200 0.000000
25.056600 0.000000
25.082000 0.000000
25.107500 0.000000
25.132900 0.000000
25.158300 0.000000
25.183700 0.000000
25.209100 0.000000
25.234500 0.000000
25.260000 0.000000
25.285400 0.000000
25.310800 0.000000
25.336200 0.000000
25.361600 0.000000
25.387100 0.000000
25.412500 0.000000
25.437900 0.000000
25.463300 0.000000
25.488700 0.000000
25.514200 0.000000
25.539600 0.000000
25.565000 0.000000
25.590400 0.000000
25.615800 0.000000
25.641300 0.000000
25.666700 0.000000
25.692100 0.000000
25.717500 0.000000
25.742900 0.000000
25.768300 0.000000
25.793800 0.000000
25.819200 0.000000
25.844600 0.000000
25.870000 0.000000
25.895400 0.000000
25.920900 0.000000
25.946300 0.000000
25.971700 0.000000
25.997100 0.000000
26.022500 0.000000
26.048000 0.000000
26.073400 0.000000
26.098800 0.000000
26.124200 0.000000
26.149600 0.000000
26.175000 0.000000
e
