set title 'mp-12779 - Density of States'
set xlabel 'Energy (eV)'
set ylabel 'DOS (states/eV)'
set grid
set xrange [-10:10]
set yrange [0:153.852]
set xzeroaxis lt -1
set terminal png size 800,600
set output 'mp-12779_dos_gnuplot.png'
plot '-' using 1:2 with lines title 'DOS'
-10.180000 0.000000
-10.167500 0.000000
-10.155100 0.000000
-10.142600 0.000000
-10.130200 0.000000
-10.117700 0.000000
-10.105200 0.000000
-10.092800 0.000000
-10.080300 0.000000
-10.067900 0.000000
-10.055400 0.000000
-10.043000 0.000000
-10.030500 0.000000
-10.018100 0.000000
-10.005600 0.000000
-9.993200 0.000000
-9.980700 0.000000
-9.968300 0.000000
-9.955800 0.000000
-9.943400 0.000000
-9.930900 0.000000
-9.918500 0.000000
-9.906000 0.000000
-9.893600 0.000000
-9.881100 0.000000
-9.868700 0.000000
-9.856200 0.000000
-9.843800 0.000000
-9.831300 0.000000
-9.818800 0.000000
-9.806400 0.000000
-9.793900 0.000000
-9.781500 0.000000
-9.769000 0.000000
-9.756600 0.000000
-9.744100 0.000000
-9.731700 0.000000
-9.719200 0.000000
-9.706800 0.000000
-9.694300 0.000000
-9.681900 0.000000
-9.669400 0.000000
-9.657000 0.000000
-9.644500 0.000000
-9.632100 0.000000
-9.619600 0.000000
-9.607200 0.000000
-9.594700 0.000000
-9.582300 0.000000
-9.569800 0.000000
-9.557400 0.000000
-9.544900 0.000000
-9.532500 0.000000
-9.520000 0.000000
-9.507500 0.000000
-9.495100 0.000000
-9.482600 0.000000
-9.470200 0.000000
-9.457700 0.000000
-9.445300 0.000000
-9.432800 0.000000
-9.420400 0.000000
-9.407900 0.000000
-9.395500 0.000000
-9.383000 0.000000
-9.370600 0.000000
-9.358100 0.000000
-9.345700 0.000000
-9.333200 0.000000
-9.320800 0.000000
-9.308300 0.000000
-9.295900 0.000000
-9.283400 0.000000
-9.271000 0.000000
-9.258500 0.000000
-9.246100 0.000000
-9.233600 0.000000
-9.221100 0.000000
-9.208700 0.000000
-9.196200 0.000000
-9.183800 0.000000
-9.171300 0.000000
-9.158900 0.000000
-9.146400 0.000000
-9.134000 0.000000
-9.121500 0.000000
-9.109100 0.000000
-9.096600 0.000000
-9.084200 0.000000
-9.071700 0.000000
-9.059300 0.000000
-9.046800 0.003400
-9.034400 0.494600
-9.021900 0.797100
-9.009500 1.046400
-8.997000 1.336100
-8.984600 1.500900
-8.972100 1.711600
-8.959700 1.934700
-8.947200 2.163200
-8.934800 2.397200
-8.922300 2.620400
-8.909800 2.856400
-8.897400 3.131700
-8.884900 3.426900
-8.872500 3.737000
-8.860000 4.070200
-8.847600 4.452200
-8.835100 4.850100
-8.822700 5.302900
-8.810200 5.833700
-8.797800 6.492200
-8.785300 7.190000
-8.772900 7.939800
-8.760400 8.988000
-8.748000 10.459600
-8.735500 12.251900
-8.723100 14.831000
-8.710600 18.985700
-8.698200 19.472800
-8.685700 20.376800
-8.673300 21.663200
-8.660800 22.516100
-8.648400 23.963600
-8.635900 28.704300
-8.623400 38.778300
-8.611000 0.000000
-8.598500 0.000000
-8.586100 0.000000
-8.573600 0.000000
-8.561200 0.000000
-8.548700 0.000000
-8.536300 0.000000
-8.523800 0.000000
-8.511400 0.000000
-8.498900 0.000000
-8.486500 0.000000
-8.474000 0.000000
-8.461600 0.000000
-8.449100 0.000000
-8.436700 0.000000
-8.424200 0.000000
-8.411800 0.000000
-8.399300 0.000000
-8.386900 0.000000
-8.374400 0.000000
-8.362000 0.000000
-8.349500 0.000000
-8.337000 0.000000
-8.324600 0.000000
-8.312100 0.000000
-8.299700 0.000000
-8.287200 0.000000
-8.274800 0.000000
-8.262300 0.000000
-8.249900 0.000000
-8.237400 0.000000
-8.225000 0.000000
-8.212500 0.000000
-8.200100 0.000000
-8.187600 0.000000
-8.175200 0.000000
-8.162700 0.000000
-8.150300 0.000000
-8.137800 0.000000
-8.125400 0.000000
-8.112900 0.000000
-8.100500 0.000000
-8.088000 0.000000
-8.075600 0.000000
-8.063100 0.000000
-8.050700 0.000000
-8.038200 0.000000
-8.025700 0.000000
-8.013300 0.000000
-8.000800 0.000000
-7.988400 0.000000
-7.975900 0.000000
-7.963500 0.000000
-7.951000 0.000000
-7.938600 0.000000
-7.926100 0.000000
-7.913700 0.000000
-7.901200 0.000000
-7.888800 0.000000
-7.876300 0.000000
-7.863900 0.000000
-7.851400 0.000000
-7.839000 0.000000
-7.826500 0.000000
-7.814100 0.000000
-7.801600 0.000000
-7.789200 0.000000
-7.776700 0.000000
-7.764300 0.000000
-7.751800 0.000000
-7.739300 0.000000
-7.726900 0.000000
-7.714400 0.000000
-7.702000 0.000000
-7.689500 0.000000
-7.677100 0.000000
-7.664600 0.000000
-7.652200 0.000000
-7.639700 0.000000
-7.627300 0.000000
-7.614800 0.000000
-7.602400 0.000000
-7.589900 0.000000
-7.577500 0.000000
-7.565000 0.000000
-7.552600 0.000000
-7.540100 0.000000
-7.527700 0.000000
-7.515200 0.000000
-7.502800 0.000000
-7.490300 0.000000
-7.477900 0.000000
-7.465400 0.000000
-7.452900 0.000000
-7.440500 0.000000
-7.428000 0.000000
-7.415600 0.000000
-7.403100 0.000000
-7.390700 0.000000
-7.378200 0.000000
-7.365800 0.000000
-7.353300 0.000000
-7.340900 0.000000
-7.328400 0.000000
-7.316000 0.000000
-7.303500 0.000000
-7.291100 0.000000
-7.278600 0.000000
-7.266200 0.000000
-7.253700 0.000000
-7.241300 0.000000
-7.228800 0.000000
-7.216400 0.000000
-7.203900 0.000000
-7.191500 0.000000
-7.179000 0.000000
-7.166600 0.000000
-7.154100 0.000000
-7.141600 0.000000
-7.129200 0.000000
-7.116700 0.000000
-7.104300 0.000000
-7.091800 0.000000
-7.079400 0.000000
-7.066900 0.000000
-7.054500 0.000000
-7.042000 0.000000
-7.029600 0.000000
-7.017100 0.000000
-7.004700 0.000000
-6.992200 0.000000
-6.979800 0.000000
-6.967300 0.000000
-6.954900 0.000000
-6.942400 0.000000
-6.930000 0.000000
-6.917500 0.000000
-6.905100 0.000000
-6.892600 0.000000
-6.880200 0.000000
-6.867700 0.000000
-6.855200 0.000000
-6.842800 0.000000
-6.830300 0.000000
-6.817900 0.000000
-6.805400 0.000000
-6.793000 0.000000
-6.780500 0.000000
-6.768100 0.000000
-6.755600 0.000000
-6.743200 0.000000
-6.730700 0.000000
-6.718300 0.000000
-6.705800 0.000000
-6.693400 0.000000
-6.680900 0.000000
-6.668500 0.000000
-6.656000 0.000000
-6.643600 0.000000
-6.631100 0.000000
-6.618700 0.000000
-6.606200 0.000000
-6.593800 0.000000
-6.581300 0.000000
-6.568900 0.000000
-6.556400 0.000000
-6.543900 0.000000
-6.531500 0.000000
-6.519000 0.000000
-6.506600 0.000000
-6.494100 0.000000
-6.481700 0.000000
-6.469200 0.000000
-6.456800 0.000000
-6.444300 0.000000
-6.431900 0.000000
-6.419400 0.000000
-6.407000 0.000000
-6.394500 0.000000
-6.382100 0.000000
-6.369600 0.000000
-6.357200 0.000000
-6.344700 8.666000
-6.332300 26.255100
-6.319800 45.822500
-6.307400 109.463900
-6.294900 112.075800
-6.282500 101.242700
-6.270000 69.931900
-6.257500 73.141600
-6.245100 73.936500
-6.232600 37.160100
-6.220200 3.979600
-6.207700 4.812400
-6.195300 7.786600
-6.182800 53.806600
-6.170400 117.916300
-6.157900 64.438600
-6.145500 134.990700
-6.133000 139.865600
-6.120600 59.643700
-6.108100 5.826300
-6.095700 5.441800
-6.083200 5.119200
-6.070800 4.663700
-6.058300 4.487600
-6.045900 4.479000
-6.033400 4.534100
-6.021000 4.623600
-6.008500 4.740700
-5.996100 4.884200
-5.983600 5.028400
-5.971100 5.208800
-5.958700 5.411300
-5.946200 5.657400
-5.933800 5.941100
-5.921300 6.260800
-5.908900 6.617200
-5.896400 7.035200
-5.884000 7.577600
-5.871500 8.328700
-5.859100 10.654700
-5.846600 10.417400
-5.834200 10.481200
-5.821700 10.388400
-5.809300 10.689000
-5.796800 10.528500
-5.784400 10.719800
-5.771900 10.775600
-5.759500 10.789300
-5.747000 10.868900
-5.734600 11.058200
-5.722100 11.398700
-5.709700 12.303500
-5.697200 16.904700
-5.684800 14.194500
-5.672300 6.455900
-5.659800 0.222700
-5.647400 0.000000
-5.634900 0.000000
-5.622500 0.000000
-5.610000 0.000000
-5.597600 0.000000
-5.585100 0.000000
-5.572700 0.000000
-5.560200 0.000000
-5.547800 0.000000
-5.535300 0.000000
-5.522900 0.000000
-5.510400 0.000000
-5.498000 0.000000
-5.485500 0.000000
-5.473100 0.000000
-5.460600 0.000000
-5.448200 0.000000
-5.435700 0.000000
-5.423300 0.000000
-5.410800 0.000000
-5.398400 0.000000
-5.385900 0.000000
-5.373400 0.000000
-5.361000 0.000000
-5.348500 0.000000
-5.336100 0.000000
-5.323600 0.000000
-5.311200 0.000000
-5.298700 0.000000
-5.286300 0.000000
-5.273800 0.000000
-5.261400 0.000000
-5.248900 0.000000
-5.236500 0.000000
-5.224000 0.000000
-5.211600 0.000000
-5.199100 0.000000
-5.186700 0.000000
-5.174200 0.000000
-5.161800 0.000000
-5.149300 0.000000
-5.136900 0.000000
-5.124400 0.000000
-5.112000 0.000000
-5.099500 0.000000
-5.087000 0.000000
-5.074600 0.000000
-5.062100 0.000000
-5.049700 0.000000
-5.037200 0.000000
-5.024800 0.000000
-5.012300 0.000000
-4.999900 0.000000
-4.987400 0.000000
-4.975000 0.000000
-4.962500 0.000000
-4.950100 0.000000
-4.937600 0.000000
-4.925200 0.000000
-4.912700 0.000000
-4.900300 0.000000
-4.887800 0.000000
-4.875400 0.000000
-4.862900 0.000000
-4.850500 0.000000
-4.838000 0.000000
-4.825600 0.000000
-4.813100 0.000000
-4.800700 0.000000
-4.788200 0.000000
-4.775700 0.000000
-4.763300 0.000000
-4.750800 0.000000
-4.738400 0.000000
-4.725900 0.000000
-4.713500 0.000000
-4.701000 0.000000
-4.688600 0.000000
-4.676100 0.000000
-4.663700 0.000000
-4.651200 0.000000
-4.638800 0.000000
-4.626300 0.000000
-4.613900 0.000000
-4.601400 0.000000
-4.589000 0.000000
-4.576500 0.000000
-4.564100 0.000000
-4.551600 0.000000
-4.539200 0.000000
-4.526700 0.000000
-4.514300 0.000000
-4.501800 0.000000
-4.489300 0.000000
-4.476900 0.000000
-4.464400 0.000000
-4.452000 0.000000
-4.439500 0.000000
-4.427100 0.000000
-4.414600 0.000000
-4.402200 0.000000
-4.389700 0.000000
-4.377300 0.000000
-4.364800 0.000000
-4.352400 0.000000
-4.339900 0.000000
-4.327500 0.000000
-4.315000 0.000000
-4.302600 0.000000
-4.290100 0.000000
-4.277700 0.000000
-4.265200 0.000000
-4.252800 0.000000
-4.240300 0.000000
-4.227900 0.000000
-4.215400 0.000000
-4.203000 0.000000
-4.190500 0.000000
-4.178000 0.000000
-4.165600 0.000000
-4.153100 0.000000
-4.140700 0.000000
-4.128200 0.000000
-4.115800 0.000000
-4.103300 0.000000
-4.090900 0.000000
-4.078400 0.000000
-4.066000 0.000000
-4.053500 0.000000
-4.041100 0.000000
-4.028600 0.000000
-4.016200 0.000000
-4.003700 0.000000
-3.991300 0.000000
-3.978800 0.000000
-3.966400 0.000000
-3.953900 0.000000
-3.941500 0.000000
-3.929000 0.000000
-3.916600 0.000000
-3.904100 0.000000
-3.891600 0.000000
-3.879200 0.000000
-3.866700 0.000000
-3.854300 0.000000
-3.841800 0.000000
-3.829400 0.000000
-3.816900 0.000000
-3.804500 0.000000
-3.792000 0.000000
-3.779600 0.000000
-3.767100 0.000000
-3.754700 0.000000
-3.742200 0.000000
-3.729800 0.000000
-3.717300 0.000000
-3.704900 0.000000
-3.692400 0.000000
-3.680000 0.000000
-3.667500 0.000000
-3.655100 0.000000
-3.642600 0.000000
-3.630200 0.000000
-3.617700 0.000000
-3.605200 0.000000
-3.592800 0.000000
-3.580300 0.000000
-3.567900 0.000000
-3.555400 0.000000
-3.543000 0.000000
-3.530500 0.000000
-3.518100 0.000000
-3.505600 0.000000
-3.493200 0.000000
-3.480700 0.000000
-3.468300 0.000000
-3.455800 0.000000
-3.443400 0.000000
-3.430900 0.000000
-3.418500 0.000000
-3.406000 0.000000
-3.393600 0.000000
-3.381100 0.000000
-3.368700 0.000000
-3.356200 0.000000
-3.343800 0.000000
-3.331300 0.000000
-3.318900 0.000000
-3.306400 0.000000
-3.293900 0.000000
-3.281500 0.000000
-3.269000 0.000000
-3.256600 0.000000
-3.244100 0.000000
-3.231700 0.000000
-3.219200 0.000000
-3.206800 0.000000
-3.194300 0.000000
-3.181900 0.000000
-3.169400 0.000000
-3.157000 0.000000
-3.144500 0.000000
-3.132100 0.000000
-3.119600 0.000000
-3.107200 0.000000
-3.094700 0.000000
-3.082300 0.000000
-3.069800 0.000000
-3.057400 0.000000
-3.044900 0.000000
-3.032500 0.000000
-3.020000 0.000000
-3.007500 0.000000
-2.995100 0.000000
-2.982600 0.000000
-2.970200 0.000000
-2.957700 0.000000
-2.945300 0.000000
-2.932800 0.000000
-2.920400 0.000000
-2.907900 0.000000
-2.895500 0.000000
-2.883000 0.000000
-2.870600 0.000000
-2.858100 0.000000
-2.845700 0.000000
-2.833200 0.000000
-2.820800 0.000000
-2.808300 0.000000
-2.795900 0.000000
-2.783400 0.000000
-2.771000 0.000000
-2.758500 0.000000
-2.746100 0.000000
-2.733600 0.000000
-2.721100 0.000000
-2.708700 0.000000
-2.696200 0.000000
-2.683800 0.000000
-2.671300 0.000000
-2.658900 0.000000
-2.646400 0.000000
-2.634000 0.000000
-2.621500 0.000000
-2.609100 0.000000
-2.596600 0.000000
-2.584200 0.000000
-2.571700 0.000000
-2.559300 0.000000
-2.546800 0.000000
-2.534400 0.000000
-2.521900 0.000000
-2.509500 0.000000
-2.497000 0.000000
-2.484600 0.000000
-2.472100 0.000000
-2.459700 0.000000
-2.447200 0.000000
-2.434800 0.000000
-2.422300 0.000000
-2.409800 0.000000
-2.397400 0.000000
-2.384900 0.000000
-2.372500 0.000000
-2.360000 0.000000
-2.347600 0.000000
-2.335100 0.000000
-2.322700 0.000000
-2.310200 0.000000
-2.297800 0.323400
-2.285300 1.045400
-2.272900 1.987300
-2.260400 2.653600
-2.248000 3.337000
-2.235500 3.817600
-2.223100 4.066300
-2.210600 4.601200
-2.198200 5.141000
-2.185700 5.999100
-2.173300 8.212100
-2.160800 7.520700
-2.148400 7.459100
-2.135900 7.970800
-2.123400 7.574900
-2.111000 8.358500
-2.098500 8.623500
-2.086100 8.174900
-2.073600 7.277100
-2.061200 6.336800
-2.048700 5.470800
-2.036300 4.511800
-2.023800 4.128400
-2.011400 3.886100
-1.998900 3.680900
-1.986500 3.455800
-1.974000 3.371900
-1.961600 3.296000
-1.949100 3.226900
-1.936700 3.181700
-1.924200 3.135200
-1.911800 3.099800
-1.899300 3.095000
-1.886900 3.085700
-1.874400 3.083000
-1.862000 3.090400
-1.849500 3.041100
-1.837100 2.994700
-1.824600 2.931000
-1.812100 2.869000
-1.799700 2.914900
-1.787200 2.912500
-1.774800 2.958800
-1.762300 3.034000
-1.749900 3.031900
-1.737400 2.904400
-1.725000 2.839800
-1.712500 2.681700
-1.700100 2.470800
-1.687600 2.366400
-1.675200 2.268100
-1.662700 2.177100
-1.650300 2.093600
-1.637800 2.018000
-1.625400 1.950200
-1.612900 1.885900
-1.600500 1.824400
-1.588000 1.765600
-1.575600 1.718200
-1.563100 1.674500
-1.550700 1.638500
-1.538200 1.604800
-1.525700 1.571600
-1.513300 1.539100
-1.500800 1.507500
-1.488400 1.476500
-1.475900 1.446100
-1.463500 1.416300
-1.451000 1.386500
-1.438600 1.357200
-1.426100 1.328400
-1.413700 1.300100
-1.401200 1.270900
-1.388800 1.240500
-1.376300 1.212100
-1.363900 1.187600
-1.351400 1.162800
-1.339000 1.138100
-1.326500 1.114100
-1.314100 1.090900
-1.301600 1.069700
-1.289200 1.050700
-1.276700 1.033400
-1.264300 1.017600
-1.251800 1.003200
-1.239300 0.989300
-1.226900 0.975400
-1.214400 0.961700
-1.202000 0.948100
-1.189500 0.934700
-1.177100 0.921300
-1.164600 0.908100
-1.152200 0.895000
-1.139700 0.881900
-1.127300 0.868700
-1.114800 0.855600
-1.102400 0.842700
-1.089900 0.829700
-1.077500 0.816800
-1.065000 0.803900
-1.052600 0.790700
-1.040100 0.777300
-1.027700 0.764400
-1.015200 0.752200
-1.002800 0.740600
-0.990300 0.729600
-0.977900 0.719200
-0.965400 0.709100
-0.953000 0.698300
-0.940500 0.687200
-0.928000 0.676400
-0.915600 0.665700
-0.903100 0.655100
-0.890700 0.644700
-0.878200 0.754500
-0.865800 0.806400
-0.853300 0.813500
-0.840900 0.835600
-0.828400 0.858800
-0.816000 0.882500
-0.803500 0.907700
-0.791100 0.934400
-0.778600 0.961200
-0.766200 0.986400
-0.753700 1.010500
-0.741300 1.017300
-0.728800 1.032500
-0.716400 1.058800
-0.703900 1.124500
-0.691500 1.318800
-0.679000 1.547300
-0.666600 1.782300
-0.654100 2.051600
-0.641600 2.434200
-0.629200 2.860100
-0.616700 3.037500
-0.604300 3.176500
-0.591800 3.247300
-0.579400 3.263600
-0.566900 3.319400
-0.554500 3.345300
-0.542000 3.085800
-0.529600 2.722600
-0.517100 2.615200
-0.504700 2.547000
-0.492200 2.486600
-0.479800 2.433800
-0.467300 2.349200
-0.454900 2.312700
-0.442400 2.305800
-0.430000 2.298800
-0.417500 2.292000
-0.405100 2.295100
-0.392600 2.294900
-0.380200 2.317000
-0.367700 2.352700
-0.355200 2.383300
-0.342800 2.395900
-0.330300 2.418400
-0.317900 2.437800
-0.305400 2.461400
-0.293000 2.489000
-0.280500 2.516700
-0.268100 2.547000
-0.255600 2.577000
-0.243200 2.611100
-0.230700 2.670400
-0.218300 2.751500
-0.205800 2.836800
-0.193400 2.926000
-0.180900 3.019100
-0.168500 3.102700
-0.156000 3.168800
-0.143600 3.230000
-0.131100 3.235800
-0.118700 3.195000
-0.106200 3.193500
-0.093800 3.230900
-0.081300 3.307500
-0.068900 3.358700
-0.056400 3.414700
-0.043900 3.473100
-0.031500 3.523400
-0.019000 3.575200
-0.006600 3.628600
0.005900 3.684600
0.018300 3.758100
0.030800 3.842700
0.043200 3.880100
0.055700 3.914500
0.068100 3.933900
0.080600 3.923500
0.093000 3.886900
0.105500 3.818400
0.117900 3.696500
0.130400 3.697900
0.142800 3.682200
0.155300 3.631900
0.167700 3.598100
0.180200 3.834400
0.192600 3.902400
0.205100 3.980200
0.217500 4.059500
0.230000 4.117700
0.242500 4.264700
0.254900 4.338200
0.267400 4.301200
0.279800 4.244600
0.292300 4.243800
0.304700 4.247300
0.317200 4.255800
0.329600 4.269600
0.342100 4.487100
0.354500 4.634200
0.367000 4.786100
0.379400 4.757900
0.391900 4.754600
0.404300 4.789600
0.416800 4.832600
0.429200 4.842100
0.441700 4.902500
0.454100 4.746600
0.466600 4.567700
0.479000 4.395500
0.491500 4.315900
0.503900 4.328100
0.516400 4.403000
0.528900 4.576600
0.541300 4.755900
0.553800 4.869200
0.566200 5.109400
0.578700 5.308600
0.591100 5.503700
0.603600 5.733700
0.616000 6.104600
0.628500 6.319200
0.640900 6.171200
0.653400 6.213700
0.665800 6.340000
0.678300 6.493500
0.690700 6.632500
0.703200 7.070700
0.715600 7.386800
0.728100 7.301700
0.740500 6.988400
0.753000 6.743800
0.765400 6.556700
0.777900 6.478800
0.790300 6.695200
0.802800 6.425100
0.815200 6.153000
0.827700 5.802000
0.840200 5.586200
0.852600 5.474700
0.865100 5.364300
0.877500 5.312500
0.890000 5.253300
0.902400 5.088300
0.914900 4.907700
0.927300 4.765000
0.939800 4.686800
0.952200 4.644300
0.964700 4.612800
0.977100 4.556000
0.989600 4.493000
1.002000 4.400000
1.014500 4.444400
1.026900 4.295400
1.039400 4.138100
1.051800 3.966900
1.064300 3.790200
1.076700 3.615000
1.089200 3.482700
1.101600 3.386500
1.114100 3.304700
1.126600 3.217200
1.139000 3.118200
1.151500 3.008800
1.163900 2.893600
1.176400 2.783400
1.188800 2.689200
1.201300 2.630000
1.213700 2.587000
1.226200 2.470000
1.238600 2.365200
1.251100 2.283500
1.263500 2.220300
1.276000 2.159400
1.288400 2.102400
1.300900 2.066300
1.313300 2.026600
1.325800 1.979200
1.338200 1.929400
1.350700 1.921500
1.363100 1.910700
1.375600 1.823200
1.388000 1.742800
1.400500 1.680400
1.412900 1.622500
1.425400 1.570800
1.437900 1.520800
1.450300 1.471200
1.462800 1.429600
1.475200 1.387400
1.487700 1.345200
1.500100 1.294400
1.512600 1.240700
1.525000 1.198600
1.537500 1.149900
1.549900 1.095600
1.562400 1.042100
1.574800 0.990000
1.587300 0.937200
1.599700 0.884300
1.612200 0.848500
1.624600 0.822000
1.637100 0.783500
1.649500 0.706700
1.662000 0.618000
1.674400 0.531200
1.686900 0.453900
1.699300 0.385700
1.711800 0.362200
1.724300 0.317700
1.736700 0.218000
1.749200 0.079300
1.761600 0.009200
1.774100 0.000000
1.786500 0.000000
1.799000 0.000000
1.811400 0.000000
1.823900 0.000000
1.836300 0.000000
1.848800 0.000000
1.861200 0.000000
1.873700 0.000000
1.886100 0.000000
1.898600 0.000000
1.911000 0.000000
1.923500 0.000000
1.935900 0.000000
1.948400 0.000000
1.960800 0.000000
1.973300 0.000000
1.985700 0.000000
1.998200 0.000000
2.010700 0.000000
2.023100 0.000000
2.035600 0.000000
2.048000 0.000000
2.060500 0.000000
2.072900 0.000000
2.085400 0.000000
2.097800 0.000000
2.110300 0.000000
2.122700 0.000000
2.135200 0.000000
2.147600 0.000000
2.160100 0.000000
2.172500 0.000000
2.185000 0.000000
2.197400 0.000000
2.209900 0.000000
2.222300 0.000000
2.234800 0.000000
2.247200 0.000000
2.259700 0.000000
2.272100 0.000000
2.284600 0.000000
2.297000 0.000000
2.309500 0.000000
2.322000 0.000000
2.334400 0.000000
2.346900 0.000000
2.359300 0.000000
2.371800 0.000000
2.384200 0.000000
2.396700 0.000000
2.409100 0.000100
2.421600 0.000100
2.434000 0.000200
2.446500 0.000400
2.458900 0.000600
2.471400 0.000800
2.483800 0.001000
2.496300 0.001300
2.508700 0.001600
2.521200 0.002000
2.533600 0.002400
2.546100 0.002800
2.558500 0.003200
2.571000 0.003700
2.583400 0.004200
2.595900 0.004800
2.608400 0.005400
2.620800 0.006000
2.633300 0.006600
2.645700 0.007300
2.658200 0.008000
2.670600 0.008800
2.683100 0.009600
2.695500 0.010400
2.708000 0.011200
2.720400 0.012100
2.732900 0.013000
2.745300 0.014000
2.757800 0.015000
2.770200 0.016000
2.782700 0.017100
2.795100 0.018200
2.807600 0.019300
2.820000 0.020800
2.832500 0.025700
2.844900 0.027500
2.857400 0.029300
2.869800 0.031100
2.882300 0.032900
2.894800 0.034600
2.907200 0.036400
2.919700 0.038100
2.932100 0.039800
2.944600 0.041500
2.957000 0.043200
2.969500 0.044900
2.981900 0.046500
2.994400 0.048100
3.006800 0.049700
3.019300 0.051300
3.031700 0.052900
3.044200 0.054500
3.056600 0.056100
3.069100 0.057600
3.081500 0.059100
3.094000 0.060700
3.106400 0.062700
3.118900 0.064800
3.131300 0.067000
3.143800 0.069200
3.156200 0.071400
3.168700 0.073600
3.181100 0.075900
3.193600 0.078200
3.206100 0.080500
3.218500 0.082900
3.231000 0.085300
3.243400 0.087700
3.255900 0.090100
3.268300 0.092600
3.280800 0.095200
3.293200 0.097900
3.305700 0.100600
3.318100 0.103500
3.330600 0.106500
3.343000 0.109600
3.355500 0.112800
3.367900 0.116300
3.380400 0.120600
3.392800 0.126300
3.405300 0.133400
3.417700 0.141100
3.430200 0.149400
3.442600 0.158400
3.455100 0.168100
3.467500 0.178500
3.480000 0.189600
3.492500 0.201400
3.504900 0.213700
3.517400 0.226600
3.529800 0.240000
3.542300 0.253900
3.554700 0.267200
3.567200 0.280100
3.579600 0.293400
3.592100 0.307300
3.604500 0.321600
3.617000 0.336600
3.629400 0.346600
3.641900 0.353400
3.654300 0.362000
3.666800 0.374300
3.679200 0.388200
3.691700 0.403600
3.704100 0.420500
3.716600 0.437600
3.729000 0.454600
3.741500 0.471800
3.753900 0.489400
3.766400 0.507000
3.778800 0.524500
3.791300 0.542100
3.803800 0.559700
3.816200 0.577600
3.828700 0.599700
3.841100 0.619600
3.853600 0.639200
3.866000 0.658100
3.878500 0.690200
3.890900 0.746700
3.903400 0.826500
3.915800 0.921400
3.928300 1.033500
3.940700 1.163900
3.953200 1.296500
3.965600 1.420200
3.978100 1.561200
3.990500 1.705800
4.003000 1.838700
4.015400 1.968500
4.027900 2.096300
4.040300 2.264200
4.052800 2.449800
4.065200 2.555600
4.077700 2.650400
4.090200 2.729900
4.102600 2.800800
4.115100 2.820300
4.127500 2.827900
4.140000 2.843200
4.152400 2.863400
4.164900 2.878200
4.177300 2.901600
4.189800 2.943400
4.202200 2.995500
4.214700 3.051900
4.227100 3.109700
4.239600 3.163600
4.252000 3.212200
4.264500 3.246500
4.276900 3.270900
4.289400 3.318900
4.301800 3.401700
4.314300 3.498000
4.326700 3.594900
4.339200 3.689300
4.351600 3.798000
4.364100 3.900200
4.376600 3.968900
4.389000 4.028900
4.401500 4.082400
4.413900 4.134600
4.426400 4.219300
4.438800 4.330900
4.451300 4.440000
4.463700 4.518200
4.476200 4.567300
4.488600 4.586300
4.501100 4.600600
4.513500 4.608900
4.526000 4.639500
4.538400 4.680900
4.550900 4.726900
4.563300 4.765000
4.575800 4.852300
4.588200 4.695800
4.600700 4.535100
4.613100 4.618700
4.625600 4.090800
4.638000 3.842400
4.650500 3.623700
4.662900 3.417400
4.675400 3.216700
4.687900 3.022100
4.700300 2.843100
4.712800 2.726200
4.725200 2.640600
4.737700 2.583600
4.750100 2.528900
4.762600 2.473300
4.775000 2.418400
4.787500 2.365000
4.799900 2.313100
4.812400 2.262700
4.824800 2.214500
4.837300 2.168200
4.849700 2.117000
4.862200 2.062600
4.874600 2.006000
4.887100 1.955000
4.899500 1.908400
4.912000 1.865800
4.924400 1.825800
4.936900 1.785500
4.949300 1.745600
4.961800 1.705900
4.974300 1.673700
4.986700 1.639500
4.999200 1.601900
5.011600 1.560700
5.024100 1.499800
5.036500 1.429500
5.049000 1.347700
5.061400 1.309200
5.073900 1.272900
5.086300 1.237500
5.098800 1.203600
5.111200 1.170600
5.123700 1.138400
5.136100 1.106900
5.148600 1.076200
5.161000 1.046300
5.173500 1.017100
5.185900 0.988800
5.198400 0.961200
5.210800 0.934300
5.223300 0.908300
5.235700 0.886400
5.248200 0.879100
5.260700 0.890500
5.273100 0.910400
5.285600 0.960200
5.298000 0.981100
5.310500 1.001300
5.322900 0.954600
5.335400 0.896100
5.347800 0.825600
5.360300 0.679900
5.372700 0.597800
5.385200 0.576100
5.397600 0.567900
5.410100 0.557800
5.422500 0.545900
5.435000 0.892700
5.447400 1.152400
5.459900 1.123400
5.472300 0.906800
5.484800 0.519000
5.497200 0.300000
5.509700 0.273200
5.522100 0.254100
5.534600 0.242800
5.547000 0.239200
5.559500 0.243500
5.572000 0.255500
5.584400 0.275300
5.596900 0.302900
5.609300 0.322400
5.621800 0.463900
5.634200 0.596200
5.646700 0.733200
5.659100 0.844300
5.671600 0.947000
5.684000 1.041200
5.696500 1.141200
5.708900 1.319300
5.721400 1.495400
5.733800 1.583700
5.746300 1.507400
5.758700 1.533100
5.771200 1.538200
5.783600 1.590700
5.796100 1.657600
5.808500 1.733400
5.821000 1.819500
5.833400 1.908200
5.845900 1.989700
5.858400 2.085900
5.870800 2.243900
5.883300 2.504500
5.895700 3.015800
5.908200 3.723600
5.920600 4.498400
5.933100 5.017900
5.945500 6.259900
5.958000 6.816800
5.970400 6.645000
5.982900 6.688300
5.995300 6.771800
6.007800 7.065000
6.020200 7.034600
6.032700 6.847800
6.045100 6.734500
6.057600 6.596300
6.070000 6.345800
6.082500 6.044600
6.094900 5.815500
6.107400 5.607900
6.119800 5.400300
6.132300 5.303500
6.144700 5.298600
6.157200 5.009600
6.169700 4.738900
6.182100 4.244900
6.194600 3.620800
6.207000 3.039200
6.219500 2.660600
6.231900 2.599000
6.244400 2.647700
6.256800 2.666000
6.269300 2.685300
6.281700 2.803200
6.294200 2.962700
6.306600 3.062700
6.319100 3.208500
6.331500 3.336200
6.344000 3.426400
6.356400 3.429200
6.368900 3.394000
6.381300 3.345600
6.393800 3.288600
6.406200 3.256000
6.418700 3.281700
6.431100 3.309700
6.443600 3.316200
6.456100 3.300200
6.468500 3.280900
6.481000 3.278000
6.493400 3.288500
6.505900 3.268600
6.518300 3.310400
6.530800 3.384700
6.543200 3.464900
6.555700 3.560800
6.568100 3.682300
6.580600 3.784200
6.593000 3.801900
6.605500 3.739100
6.617900 3.519100
6.630400 2.748100
6.642800 2.123500
6.655300 1.915100
6.667700 1.842500
6.680200 1.795300
6.692600 1.807300
6.705100 1.819200
6.717500 1.828500
6.730000 1.836900
6.742500 1.850300
6.754900 1.866900
6.767400 1.894200
6.779800 1.950800
6.792300 2.041500
6.804700 2.344700
6.817200 2.575300
6.829600 2.817500
6.842100 3.079900
6.854500 3.007800
6.867000 3.038500
6.879400 3.142600
6.891900 3.270000
6.904300 3.377900
6.916800 3.494100
6.929200 3.665000
6.941700 3.972300
6.954100 4.240700
6.966600 4.238000
6.979000 4.318200
6.991500 4.560800
7.003900 5.037900
7.016400 5.574100
7.028800 5.971800
7.041300 6.223800
7.053800 6.327900
7.066200 5.982300
7.078700 5.566400
7.091100 5.305400
7.103600 4.966100
7.116000 4.678900
7.128500 4.485800
7.140900 4.356600
7.153400 4.295000
7.165800 4.068400
7.178300 3.942800
7.190700 3.925000
7.203200 3.947500
7.215600 3.996700
7.228100 4.201400
7.240500 4.334800
7.253000 4.429400
7.265400 4.448200
7.277900 4.471800
7.290300 4.327800
7.302800 4.059300
7.315200 3.861700
7.327700 3.469500
7.340200 3.173000
7.352600 3.031500
7.365100 2.916600
7.377500 2.818100
7.390000 2.718400
7.402400 2.650400
7.414900 2.610800
7.427300 2.580700
7.439800 2.559300
7.452200 2.545200
7.464700 2.533200
7.477100 2.522800
7.489600 2.513800
7.502000 2.504600
7.514500 2.488300
7.526900 2.468700
7.539400 2.447900
7.551800 2.425900
7.564300 2.404800
7.576700 2.388700
7.589200 2.378400
7.601600 2.361500
7.614100 2.330200
7.626600 2.286100
7.639000 2.278900
7.651500 2.295900
7.663900 2.299600
7.676400 2.238600
7.688800 2.223100
7.701300 2.222500
7.713700 2.222700
7.726200 2.224200
7.738600 2.226400
7.751100 2.230100
7.763500 2.236200
7.776000 2.243000
7.788400 2.249700
7.800900 2.264000
7.813300 2.293500
7.825800 2.340800
7.838200 2.391500
7.850700 2.445300
7.863100 2.505800
7.875600 2.615700
7.888000 2.792500
7.900500 3.091300
7.912900 3.097500
7.925400 3.099000
7.937900 3.170500
7.950300 3.242300
7.962800 3.307700
7.975200 3.368400
7.987700 3.423800
8.000100 3.470200
8.012600 3.510300
8.025000 3.555500
8.037500 3.602100
8.049900 3.643400
8.062400 3.681200
8.074800 3.713300
8.087300 3.761100
8.099700 3.785800
8.112200 3.807100
8.124600 3.828500
8.137100 3.847700
8.149500 3.865900
8.162000 3.901000
8.174400 3.953300
8.186900 3.998900
8.199300 4.010900
8.211800 4.021800
8.224300 3.909200
8.236700 3.841700
8.249200 3.882600
8.261600 3.895100
8.274100 4.870900
8.286500 3.538200
8.299000 3.089300
8.311400 3.068300
8.323900 3.058100
8.336300 3.057700
8.348800 3.063200
8.361200 3.103600
8.373700 3.286900
8.386100 3.549500
8.398600 3.843100
8.411000 3.996900
8.423500 4.062800
8.435900 4.128100
8.448400 4.185700
8.460800 3.814500
8.473300 3.454100
8.485700 3.177300
8.498200 3.049500
8.510600 3.020800
8.523100 3.025700
8.535600 3.049300
8.548000 3.079600
8.560500 3.191000
8.572900 3.432600
8.585400 3.738100
8.597800 3.801200
8.610300 3.824200
8.622700 3.798900
8.635200 3.740600
8.647600 3.654900
8.660100 3.625900
8.672500 3.654800
8.685000 3.621100
8.697400 3.719700
8.709900 3.804800
8.722300 3.776900
8.734800 3.631300
8.747200 3.612800
8.759700 3.604200
8.772100 3.580000
8.784600 3.554800
8.797000 3.527700
8.809500 3.500100
8.822000 3.473000
8.834400 3.549300
8.846900 3.537000
8.859300 3.520500
8.871800 3.520800
8.884200 3.508300
8.896700 3.514500
8.909100 3.521300
8.921600 3.540300
8.934000 3.575700
8.946500 3.611200
8.958900 3.619900
8.971400 3.575500
8.983800 3.477000
8.996300 3.392700
9.008700 3.293700
9.021200 3.022100
9.033600 2.864400
9.046100 2.697300
9.058500 2.597500
9.071000 2.498900
9.083400 2.404200
9.095900 2.317800
9.108400 2.235000
9.120800 2.155900
9.133300 2.080400
9.145700 2.012200
9.158200 1.978600
9.170600 1.978800
9.183100 2.022100
9.195500 1.912800
9.208000 1.798100
9.220400 1.677000
9.232900 1.614600
9.245300 1.577200
9.257800 1.535000
9.270200 1.481000
9.282700 1.453100
9.295100 1.428500
9.307600 1.405900
9.320000 1.385500
9.332500 1.373700
9.344900 1.398200
9.357400 2.160700
9.369800 2.256400
9.382300 2.412800
9.394700 2.511300
9.407200 2.543800
9.419700 2.521000
9.432100 2.434800
9.444600 2.322100
9.457000 2.269200
9.469500 2.232900
9.481900 2.198900
9.494400 2.178200
9.506800 2.167100
9.519300 2.161900
9.531700 2.160400
9.544200 2.163800
9.556600 2.324600
9.569100 2.351500
9.581500 2.246100
9.594000 2.264500
9.606400 2.288900
9.618900 2.360800
9.631300 2.465900
9.643800 2.551200
9.656200 2.630700
9.668700 2.718400
9.681100 2.798200
9.693600 3.055200
9.706100 3.058500
9.718500 3.137200
9.731000 3.202000
9.743400 3.259400
9.755900 3.315100
9.768300 3.423500
9.780800 3.510300
9.793200 3.574900
9.805700 3.619500
9.818100 3.672300
9.830600 3.734200
9.843000 3.780500
9.855500 3.811400
9.867900 3.823100
9.880400 3.795000
9.892800 3.763200
9.905300 3.737200
9.917700 3.724900
9.930200 3.744300
9.942600 3.685100
9.955100 3.549900
9.967500 3.602000
9.980000 3.678300
9.992500 3.759500
10.004900 3.842200
10.017400 3.905300
10.029800 3.946600
10.042300 3.982000
10.054700 4.012100
10.067200 4.063200
10.079600 4.044100
10.092100 3.672700
10.104500 3.578900
10.117000 3.544400
10.129400 3.471500
10.141900 3.413300
10.154300 3.383700
10.166800 3.369800
10.179200 3.373500
10.191700 3.394600
10.204100 3.435800
10.216600 3.387200
10.229000 3.320900
10.241500 3.266100
10.253900 3.172200
10.266400 3.109400
10.278800 3.076700
10.291300 3.056400
10.303800 3.088200
10.316200 3.201600
10.328700 3.187700
10.341100 3.019000
10.353600 2.981200
10.366000 2.961500
10.378500 2.955200
10.390900 2.945700
10.403400 2.934900
10.415800 2.928000
10.428300 2.919100
10.440700 2.888800
10.453200 2.858000
10.465600 2.839200
10.478100 2.833400
10.490500 2.840600
10.503000 2.860800
10.515400 2.897900
10.527900 2.968900
10.540300 3.038100
10.552800 3.343100
10.565200 3.395800
10.577700 3.504000
10.590200 3.521100
10.602600 3.530200
10.615100 3.560600
10.627500 3.602500
10.640000 3.660200
10.652400 3.726000
10.664900 3.781300
10.677300 3.818200
10.689800 3.833200
10.702200 3.843600
10.714700 3.791500
10.727100 3.550700
10.739600 3.512000
10.752000 3.477100
10.764500 3.466100
10.776900 3.460800
10.789400 3.438000
10.801800 3.399500
10.814300 3.368400
10.826700 3.350400
10.839200 3.341500
10.851600 3.331700
10.864100 3.321700
10.876500 3.408600
10.889000 3.252000
10.901500 3.207400
10.913900 3.163700
10.926400 3.154100
10.938800 3.155700
10.951300 3.134000
10.963700 3.131300
10.976200 3.136700
10.988600 3.061600
11.001100 3.015800
11.013500 2.989100
11.026000 2.986000
11.038400 2.984400
11.050900 2.952700
11.063300 2.942800
11.075800 2.833900
11.088200 2.820500
11.100700 2.804500
11.113100 2.795500
11.125600 2.841200
11.138000 2.901500
11.150500 2.956700
11.162900 2.997500
11.175400 3.071900
11.187900 3.105500
11.200300 3.143800
11.212800 3.184500
11.225200 3.224700
11.237700 3.263800
11.250100 3.301900
11.262600 3.338800
11.275000 3.374000
11.287500 3.404200
11.299900 3.452700
11.312400 3.528200
11.324800 3.653400
11.337300 3.693300
11.349700 3.742600
11.362200 3.780600
11.374600 3.825300
11.387100 3.880000
11.399500 3.948900
11.412000 4.000000
11.424400 4.007300
11.436900 3.948900
11.449300 3.828200
11.461800 3.715500
11.474300 3.577200
11.486700 3.469200
11.499200 3.370600
11.511600 3.275600
11.524100 3.191700
11.536500 3.130800
11.549000 3.092100
11.561400 3.078200
11.573900 3.080500
11.586300 3.091500
11.598800 3.107800
11.611200 3.126700
11.623700 3.150100
11.636100 3.177900
11.648600 3.204400
11.661000 3.203000
11.673500 3.180900
11.685900 3.154000
11.698400 3.135500
11.710800 3.117900
11.723300 3.105100
11.735700 3.102600
11.748200 3.102200
11.760600 3.106900
11.773100 3.117200
11.785600 3.154200
11.798000 3.263300
11.810500 3.498800
11.822900 3.513500
11.835400 3.230800
11.847800 3.109000
11.860300 3.086100
11.872700 3.076000
11.885200 3.078400
11.897600 3.098000
11.910100 3.158400
11.922500 3.302200
11.935000 3.451200
11.947400 3.604800
11.959900 3.752800
11.972300 3.902600
11.984800 4.031700
11.997200 4.148100
12.009700 4.265600
12.022100 4.408400
12.034600 4.466500
12.047000 4.515700
12.059500 4.556800
12.072000 4.552200
12.084400 4.600700
12.096900 4.599000
12.109300 4.538300
12.121800 4.468500
12.134200 4.391200
12.146700 4.304300
12.159100 4.442200
12.171600 4.394500
12.184000 3.995300
12.196500 3.694700
12.208900 3.455500
12.221400 3.271500
12.233800 3.103500
12.246300 2.954200
12.258700 2.822600
12.271200 2.676300
12.283600 2.556200
12.296100 2.510600
12.308500 2.480400
12.321000 2.461300
12.333400 2.449900
12.345900 2.440800
12.358400 2.425700
12.370800 2.408800
12.383300 2.417500
12.395700 2.445300
12.408200 2.482900
12.420600 2.522000
12.433100 2.585700
12.445500 2.679800
12.458000 2.794600
12.470400 2.951600
12.482900 3.181300
12.495300 3.320100
12.507800 3.464400
12.520200 3.573100
12.532700 3.638700
12.545100 3.707800
12.557600 3.787600
12.570000 4.139900
12.582500 3.920200
12.594900 3.837900
12.607400 3.764800
12.619800 3.706100
12.632300 3.658100
12.644700 3.599900
12.657200 3.524900
12.669700 3.437300
12.682100 3.356200
12.694600 3.283200
12.707000 3.205200
12.719500 3.144100
12.731900 3.082300
12.744400 3.019700
12.756800 2.958200
12.769300 2.882700
12.781700 2.781900
12.794200 2.698200
12.806600 2.784200
12.819100 2.561400
12.831500 2.440900
12.844000 2.310400
12.856400 2.183800
12.868900 2.059200
12.881300 1.708600
12.893800 1.543700
12.906200 1.395100
12.918700 1.262800
12.931100 1.146800
12.943600 1.047100
12.956100 0.969700
12.968500 0.899200
12.981000 0.797900
12.993400 0.674000
13.005900 0.628900
13.018300 0.598000
13.030800 0.574800
13.043200 0.559200
13.055700 0.548600
13.068100 0.538400
13.080600 0.528900
13.093000 0.520600
13.105500 0.514000
13.117900 0.506200
13.130400 0.499800
13.142800 0.496600
13.155300 0.500500
13.167700 0.493100
13.180200 0.485200
13.192600 0.477100
13.205100 0.468800
13.217500 0.460200
13.230000 0.450800
13.242500 0.437700
13.254900 0.423600
13.267400 0.409800
13.279800 0.396200
13.292300 0.382900
13.304700 0.387700
13.317200 0.370300
13.329600 0.353500
13.342100 0.337300
13.354500 0.321700
13.367000 0.306700
13.379400 0.298800
13.391900 0.283600
13.404300 0.268600
13.416800 0.253800
13.429200 0.239300
13.441700 0.225100
13.454100 0.211100
13.466600 0.197400
13.479000 0.183900
13.491500 0.170700
13.503900 0.157800
13.516400 0.145100
13.528800 0.132600
13.541300 0.120400
13.553800 0.108500
13.566200 0.093000
13.578700 0.054400
13.591100 0.023500
13.603600 0.000000
13.616000 0.000000
13.628500 0.000000
13.640900 0.000000
13.653400 0.000000
13.665800 0.000000
13.678300 0.000000
13.690700 0.000000
13.703200 0.000000
13.715600 0.000000
13.728100 0.000000
13.740500 0.000000
13.753000 0.000000
13.765400 0.000000
13.777900 0.000000
13.790300 0.000000
13.802800 0.000000
13.815200 0.000000
13.827700 0.000000
13.840200 0.000000
13.852600 0.000000
13.865100 0.000000
13.877500 0.000000
13.890000 0.000000
13.902400 0.000000
13.914900 0.000000
13.927300 0.000000
13.939800 0.000000
13.952200 0.000000
13.964700 0.000000
13.977100 0.000000
13.989600 0.000000
14.002000 0.000000
14.014500 0.000000
14.026900 0.000000
14.039400 0.000000
14.051800 0.000000
14.064300 0.000000
14.076700 0.000000
14.089200 0.000000
14.101600 0.000000
14.114100 0.000000
14.126500 0.000000
14.139000 0.000000
14.151500 0.000000
14.163900 0.000000
14.176400 0.000000
14.188800 0.000000
14.201300 0.000000
14.213700 0.000000
14.226200 0.000000
14.238600 0.000000
14.251100 0.000000
14.263500 0.000000
14.276000 0.000000
14.288400 0.000000
14.300900 0.000000
14.313300 0.000000
14.325800 0.000000
14.338200 0.000000
14.350700 0.000000
14.363100 0.000000
14.375600 0.000000
14.388000 0.000000
14.400500 0.000000
14.412900 0.000000
14.425400 0.000000
14.437900 0.000000
14.450300 0.000000
14.462800 0.000000
14.475200 0.000000
14.487700 0.000000
14.500100 0.000000
14.512600 0.000000
14.525000 0.000000
14.537500 0.000000
14.549900 0.000000
14.562400 0.000000
14.574800 0.000000
14.587300 0.000000
14.599700 0.000000
14.612200 0.000000
14.624600 0.000000
14.637100 0.000000
14.649500 0.000000
14.662000 0.000000
14.674400 0.000000
14.686900 0.000000
14.699300 0.000000
14.711800 0.000000
14.724300 0.000000
e
