set title 'mp-22894 - Density of States'
set xlabel 'Energy (eV)'
set ylabel 'DOS (states/eV)'
set grid
set xrange [-10:10]
set yrange [0:74.388]
set xzeroaxis lt -1
set terminal png size 800,600
set output 'mp-22894_dos_gnuplot.png'
plot '-' using 1:2 with lines title 'DOS'
-12.426300 0.000000
-12.412600 0.000000
-12.398900 0.000000
-12.385200 0.000000
-12.371500 0.000000
-12.357800 0.000000
-12.344100 0.000000
-12.330300 0.000000
-12.316600 0.000000
-12.302900 0.000000
-12.289200 0.000000
-12.275500 0.000000
-12.261800 0.000000
-12.248100 0.000000
-12.234400 0.000000
-12.220700 0.000000
-12.206900 0.000000
-12.193200 0.000000
-12.179500 0.000000
-12.165800 0.000000
-12.152100 0.000000
-12.138400 0.000000
-12.124700 0.000000
-12.111000 0.000000
-12.097300 0.000000
-12.083500 0.000000
-12.069800 0.000000
-12.056100 0.000000
-12.042400 0.000000
-12.028700 0.000000
-12.015000 0.000000
-12.001300 0.000000
-11.987600 0.000000
-11.973900 0.000000
-11.960100 0.000000
-11.946400 0.000000
-11.932700 0.000000
-11.919000 0.000000
-11.905300 0.000000
-11.891600 0.000000
-11.877900 0.000000
-11.864200 0.000000
-11.850500 0.000000
-11.836700 0.000000
-11.823000 0.000000
-11.809300 0.000000
-11.795600 0.000000
-11.781900 0.000000
-11.768200 0.000000
-11.754500 0.000000
-11.740800 0.000000
-11.727100 0.000000
-11.713300 0.000000
-11.699600 0.000000
-11.685900 0.000000
-11.672200 0.000000
-11.658500 0.000000
-11.644800 0.000000
-11.631100 0.000000
-11.617400 0.000000
-11.603700 0.000000
-11.589900 0.000000
-11.576200 0.000000
-11.562500 0.000000
-11.548800 0.000000
-11.535100 0.000000
-11.521400 0.000000
-11.507700 0.000000
-11.494000 0.000000
-11.480300 0.000000
-11.466500 0.000000
-11.452800 0.000000
-11.439100 0.000000
-11.425400 0.000000
-11.411700 0.000000
-11.398000 0.000000
-11.384300 0.000000
-11.370600 0.000000
-11.356900 0.000000
-11.343100 0.000000
-11.329400 0.000000
-11.315700 0.000000
-11.302000 0.000000
-11.288300 0.000000
-11.274600 0.000000
-11.260900 0.000000
-11.247200 0.000000
-11.233500 0.000000
-11.219700 0.000000
-11.206000 0.000000
-11.192300 0.000000
-11.178600 0.011500
-11.164900 1.139900
-11.151200 1.607200
-11.137500 2.194100
-11.123800 2.603000
-11.110100 3.107200
-11.096300 3.621000
-11.082600 4.121600
-11.068900 4.695900
-11.055200 5.339200
-11.041500 6.044000
-11.027800 6.883600
-11.014100 7.775500
-11.000400 8.968300
-10.986700 10.486900
-10.972900 12.210600
-10.959200 14.900300
-10.945500 20.787800
-10.931800 25.241500
-10.918100 26.538000
-10.904400 27.999100
-10.890700 29.310900
-10.877000 33.815600
-10.863300 65.541600
-10.849500 0.000000
-10.835800 0.000000
-10.822100 0.000000
-10.808400 0.000000
-10.794700 0.000000
-10.781000 0.000000
-10.767300 0.000000
-10.753600 0.000000
-10.739900 0.000000
-10.726100 0.000000
-10.712400 0.000000
-10.698700 0.000000
-10.685000 0.000000
-10.671300 0.000000
-10.657600 0.000000
-10.643900 0.000000
-10.630200 0.000000
-10.616500 0.000000
-10.602700 0.000000
-10.589000 0.000000
-10.575300 0.000000
-10.561600 0.000000
-10.547900 0.000000
-10.534200 0.000000
-10.520500 0.000000
-10.506800 0.000000
-10.493100 0.000000
-10.479300 0.000000
-10.465600 0.000000
-10.451900 0.000000
-10.438200 0.000000
-10.424500 0.000000
-10.410800 0.000000
-10.397100 0.000000
-10.383400 0.000000
-10.369700 0.000000
-10.355900 0.000000
-10.342200 0.000000
-10.328500 0.000000
-10.314800 0.000000
-10.301100 0.000000
-10.287400 0.000000
-10.273700 0.000000
-10.260000 0.000000
-10.246300 0.000000
-10.232500 0.000000
-10.218800 0.000000
-10.205100 0.000000
-10.191400 0.000000
-10.177700 0.000000
-10.164000 0.000000
-10.150300 0.000000
-10.136600 0.000000
-10.122800 0.000000
-10.109100 0.000000
-10.095400 0.000000
-10.081700 0.000000
-10.068000 0.000000
-10.054300 0.000000
-10.040600 0.000000
-10.026900 0.000000
-10.013200 0.000000
-9.999400 0.000000
-9.985700 0.000000
-9.972000 0.000000
-9.958300 0.000000
-9.944600 0.000000
-9.930900 0.000000
-9.917200 0.000000
-9.903500 0.000000
-9.889800 0.000000
-9.876000 0.000000
-9.862300 0.000000
-9.848600 0.000000
-9.834900 0.000000
-9.821200 0.000000
-9.807500 0.000000
-9.793800 0.000000
-9.780100 0.000000
-9.766400 0.000000
-9.752600 0.000000
-9.738900 0.000000
-9.725200 0.000000
-9.711500 0.000000
-9.697800 0.000000
-9.684100 0.000000
-9.670400 0.000000
-9.656700 0.000000
-9.643000 0.000000
-9.629200 0.000000
-9.615500 0.000000
-9.601800 0.000000
-9.588100 0.000000
-9.574400 0.000000
-9.560700 0.000000
-9.547000 0.000000
-9.533300 0.000000
-9.519600 0.000000
-9.505800 0.000000
-9.492100 0.000000
-9.478400 0.000000
-9.464700 0.000000
-9.451000 0.000000
-9.437300 0.000000
-9.423600 0.000000
-9.409900 0.000000
-9.396200 0.000000
-9.382400 0.000000
-9.368700 0.000000
-9.355000 0.000000
-9.341300 0.000000
-9.327600 0.000000
-9.313900 0.000000
-9.300200 0.000000
-9.286500 0.000000
-9.272800 0.000000
-9.259000 0.000000
-9.245300 0.000000
-9.231600 0.000000
-9.217900 0.000000
-9.204200 0.000000
-9.190500 0.000000
-9.176800 0.000000
-9.163100 0.000000
-9.149400 0.000000
-9.135600 0.000000
-9.121900 0.000000
-9.108200 0.000000
-9.094500 0.000000
-9.080800 0.000000
-9.067100 0.000000
-9.053400 0.000000
-9.039700 0.000000
-9.026000 0.000000
-9.012200 0.000000
-8.998500 0.000000
-8.984800 0.000000
-8.971100 0.000000
-8.957400 0.000000
-8.943700 0.000000
-8.930000 0.000000
-8.916300 0.000000
-8.902600 0.000000
-8.888800 0.000000
-8.875100 0.000000
-8.861400 0.000000
-8.847700 0.000000
-8.834000 0.000000
-8.820300 0.000000
-8.806600 0.000000
-8.792900 0.000000
-8.779200 0.000000
-8.765400 0.000000
-8.751700 0.000000
-8.738000 0.000000
-8.724300 0.000000
-8.710600 0.000000
-8.696900 0.000000
-8.683200 0.000000
-8.669500 0.000000
-8.655800 0.000000
-8.642000 0.000000
-8.628300 0.000000
-8.614600 0.000000
-8.600900 0.000000
-8.587200 0.000000
-8.573500 0.000000
-8.559800 0.000000
-8.546100 0.000000
-8.532400 0.000000
-8.518600 0.000000
-8.504900 0.000000
-8.491200 0.000000
-8.477500 0.000000
-8.463800 0.000000
-8.450100 0.000000
-8.436400 0.000000
-8.422700 0.000000
-8.409000 0.000000
-8.395200 0.000000
-8.381500 0.000000
-8.367800 0.000000
-8.354100 0.000000
-8.340400 0.000000
-8.326700 0.000000
-8.313000 0.000000
-8.299300 0.000000
-8.285600 0.000000
-8.271800 0.000000
-8.258100 0.000000
-8.244400 0.000000
-8.230700 0.000000
-8.217000 0.000000
-8.203300 0.000000
-8.189600 0.000000
-8.175900 0.000000
-8.162200 0.000000
-8.148400 0.000000
-8.134700 0.000000
-8.121000 0.000000
-8.107300 0.000000
-8.093600 0.000000
-8.079900 0.000000
-8.066200 0.000000
-8.052500 0.000000
-8.038800 0.000000
-8.025000 0.000000
-8.011300 0.000000
-7.997600 0.000000
-7.983900 0.000000
-7.970200 0.000000
-7.956500 0.000000
-7.942800 0.000000
-7.929100 0.000000
-7.915400 0.000000
-7.901600 0.000000
-7.887900 0.000000
-7.874200 0.000000
-7.860500 0.000000
-7.846800 0.000000
-7.833100 0.000000
-7.819400 0.000000
-7.805700 0.000000
-7.792000 0.000000
-7.778200 0.000000
-7.764500 0.000000
-7.750800 0.000000
-7.737100 0.000000
-7.723400 0.000000
-7.709700 0.000000
-7.696000 0.000000
-7.682300 0.000000
-7.668600 0.000000
-7.654800 0.000000
-7.641100 0.000000
-7.627400 0.000000
-7.613700 0.000000
-7.600000 0.000000
-7.586300 0.000000
-7.572600 0.000000
-7.558900 0.000000
-7.545100 0.000000
-7.531400 0.000000
-7.517700 0.000000
-7.504000 0.000000
-7.490300 0.000000
-7.476600 0.000000
-7.462900 0.000000
-7.449200 0.000000
-7.435500 0.000000
-7.421700 0.000000
-7.408000 0.000000
-7.394300 0.000000
-7.380600 0.000000
-7.366900 0.000000
-7.353200 0.000000
-7.339500 0.000000
-7.325800 0.000000
-7.312100 0.000000
-7.298300 0.000000
-7.284600 0.000000
-7.270900 0.000000
-7.257200 0.000000
-7.243500 0.000000
-7.229800 0.000000
-7.216100 0.000000
-7.202400 0.000000
-7.188700 0.000000
-7.174900 0.000000
-7.161200 0.000000
-7.147500 0.000000
-7.133800 0.000000
-7.120100 0.000000
-7.106400 0.000000
-7.092700 0.000000
-7.079000 0.000000
-7.065300 0.000000
-7.051500 0.000000
-7.037800 0.000000
-7.024100 0.000000
-7.010400 0.000000
-6.996700 0.000000
-6.983000 0.000000
-6.969300 0.000000
-6.955600 0.000000
-6.941900 0.000000
-6.928100 0.000000
-6.914400 0.000000
-6.900700 0.000000
-6.887000 0.000000
-6.873300 0.000000
-6.859600 0.000000
-6.845900 0.000000
-6.832200 0.000000
-6.818500 0.000000
-6.804700 0.000000
-6.791000 0.000000
-6.777300 0.000000
-6.763600 0.000000
-6.749900 0.000000
-6.736200 0.000000
-6.722500 0.000000
-6.708800 0.000000
-6.695100 0.000000
-6.681300 0.000000
-6.667600 0.000000
-6.653900 0.000000
-6.640200 0.000000
-6.626500 0.000000
-6.612800 0.000000
-6.599100 0.000000
-6.585400 0.000000
-6.571700 0.000000
-6.557900 0.000000
-6.544200 0.000000
-6.530500 0.000000
-6.516800 0.000000
-6.503100 0.000000
-6.489400 0.000000
-6.475700 0.000000
-6.462000 0.000000
-6.448300 0.000000
-6.434500 0.000000
-6.420800 0.000000
-6.407100 0.000000
-6.393400 0.000000
-6.379700 0.000000
-6.366000 0.000000
-6.352300 0.000000
-6.338600 0.000000
-6.324900 0.000000
-6.311100 0.000000
-6.297400 0.000000
-6.283700 0.000000
-6.270000 0.000000
-6.256300 0.000000
-6.242600 0.000000
-6.228900 0.000000
-6.215200 0.000000
-6.201500 0.000000
-6.187700 0.000000
-6.174000 0.000000
-6.160300 0.000000
-6.146600 0.000000
-6.132900 0.000000
-6.119200 0.000000
-6.105500 0.000000
-6.091800 0.000000
-6.078100 0.000000
-6.064300 0.000000
-6.050600 0.000000
-6.036900 0.000000
-6.023200 0.000000
-6.009500 0.000000
-5.995800 0.000000
-5.982100 0.000000
-5.968400 0.000000
-5.954700 0.000000
-5.940900 0.000000
-5.927200 0.000000
-5.913500 0.000000
-5.899800 0.000000
-5.886100 0.000000
-5.872400 0.000000
-5.858700 0.000000
-5.845000 0.000000
-5.831300 0.000000
-5.817500 0.000000
-5.803800 0.000000
-5.790100 0.000000
-5.776400 0.000000
-5.762700 0.000000
-5.749000 0.000000
-5.735300 0.000000
-5.721600 0.000000
-5.707900 0.000000
-5.694100 0.000000
-5.680400 0.000000
-5.666700 0.000000
-5.653000 0.000000
-5.639300 0.000000
-5.625600 0.000000
-5.611900 0.000000
-5.598200 0.000000
-5.584500 0.000000
-5.570700 0.000000
-5.557000 0.000000
-5.543300 0.000000
-5.529600 0.000000
-5.515900 0.000000
-5.502200 0.000000
-5.488500 0.000000
-5.474800 0.000000
-5.461100 0.000000
-5.447300 0.000000
-5.433600 0.000000
-5.419900 0.000000
-5.406200 0.000000
-5.392500 0.000000
-5.378800 0.000000
-5.365100 0.000000
-5.351400 0.000000
-5.337700 0.000000
-5.323900 0.000000
-5.310200 0.000000
-5.296500 0.000000
-5.282800 0.000000
-5.269100 0.000000
-5.255400 0.000000
-5.241700 0.000000
-5.228000 0.000000
-5.214300 0.000000
-5.200500 0.000000
-5.186800 0.000000
-5.173100 0.000000
-5.159400 0.000000
-5.145700 0.000000
-5.132000 0.000000
-5.118300 0.000000
-5.104600 0.000000
-5.090800 0.000000
-5.077100 0.000000
-5.063400 0.000000
-5.049700 0.000000
-5.036000 0.000000
-5.022300 0.000000
-5.008600 0.000000
-4.994900 0.000000
-4.981200 0.000000
-4.967400 0.000000
-4.953700 0.000000
-4.940000 0.000000
-4.926300 0.000000
-4.912600 0.000000
-4.898900 0.000000
-4.885200 0.000000
-4.871500 0.000000
-4.857800 0.000000
-4.844000 0.000000
-4.830300 0.000000
-4.816600 0.000000
-4.802900 0.000000
-4.789200 0.000000
-4.775500 0.000000
-4.761800 0.000000
-4.748100 0.000000
-4.734400 0.000000
-4.720600 0.000000
-4.706900 0.000000
-4.693200 0.000000
-4.679500 0.000000
-4.665800 0.000000
-4.652100 0.000000
-4.638400 0.000000
-4.624700 0.000000
-4.611000 0.000000
-4.597200 0.000000
-4.583500 0.000000
-4.569800 0.000000
-4.556100 0.000000
-4.542400 0.000000
-4.528700 0.000000
-4.515000 0.000000
-4.501300 0.000000
-4.487600 0.000000
-4.473800 0.000000
-4.460100 0.000000
-4.446400 0.000000
-4.432700 0.000000
-4.419000 0.000000
-4.405300 0.000000
-4.391600 0.000000
-4.377900 0.000000
-4.364200 0.000000
-4.350400 0.000000
-4.336700 0.000000
-4.323000 0.000000
-4.309300 0.000000
-4.295600 0.000000
-4.281900 0.000000
-4.268200 0.000000
-4.254500 0.000000
-4.240800 0.000000
-4.227000 0.000000
-4.213300 0.000000
-4.199600 0.000000
-4.185900 0.000000
-4.172200 0.000000
-4.158500 0.000000
-4.144800 0.000000
-4.131100 0.000000
-4.117400 0.000000
-4.103600 0.000000
-4.089900 0.000000
-4.076200 0.000000
-4.062500 0.000000
-4.048800 0.000000
-4.035100 0.000000
-4.021400 0.000000
-4.007700 0.000000
-3.994000 0.000000
-3.980200 0.000000
-3.966500 0.000000
-3.952800 0.000000
-3.939100 0.000000
-3.925400 0.000000
-3.911700 0.000000
-3.898000 0.000000
-3.884300 0.000000
-3.870600 0.000000
-3.856800 0.000000
-3.843100 0.000000
-3.829400 0.000000
-3.815700 0.000000
-3.802000 0.000000
-3.788300 0.000000
-3.774600 0.000000
-3.760900 0.000000
-3.747200 0.000000
-3.733400 0.000000
-3.719700 0.000000
-3.706000 0.000000
-3.692300 0.000000
-3.678600 0.000000
-3.664900 0.000000
-3.651200 0.000000
-3.637500 0.000000
-3.623800 0.000000
-3.610000 0.000000
-3.596300 0.000000
-3.582600 0.000000
-3.568900 0.000000
-3.555200 0.000000
-3.541500 0.000000
-3.527800 0.000000
-3.514100 0.000000
-3.500400 0.000000
-3.486600 0.000000
-3.472900 0.000000
-3.459200 0.000000
-3.445500 0.000000
-3.431800 0.000000
-3.418100 0.000000
-3.404400 0.000000
-3.390700 0.000000
-3.377000 0.000000
-3.363200 0.000000
-3.349500 0.000000
-3.335800 0.000000
-3.322100 0.000000
-3.308400 0.000000
-3.294700 0.000000
-3.281000 0.000000
-3.267300 0.000000
-3.253600 0.000000
-3.239800 0.000000
-3.226100 0.000000
-3.212400 0.000000
-3.198700 0.000000
-3.185000 0.000000
-3.171300 0.000000
-3.157600 0.000000
-3.143900 0.000000
-3.130200 0.000000
-3.116400 0.000000
-3.102700 0.000000
-3.089000 0.000000
-3.075300 0.000000
-3.061600 0.000000
-3.047900 0.000000
-3.034200 0.000000
-3.020500 0.000000
-3.006800 0.000000
-2.993000 0.000000
-2.979300 0.000000
-2.965600 0.000000
-2.951900 0.000000
-2.938200 0.000000
-2.924500 0.000000
-2.910800 0.000000
-2.897100 0.000000
-2.883400 0.000000
-2.869600 0.000000
-2.855900 0.000000
-2.842200 0.000000
-2.828500 0.000000
-2.814800 0.000000
-2.801100 0.000000
-2.787400 0.000000
-2.773700 0.000000
-2.760000 0.000000
-2.746200 0.000000
-2.732500 0.000000
-2.718800 0.000000
-2.705100 5.826900
-2.691400 10.830600
-2.677700 15.627800
-2.664000 23.957000
-2.650300 28.215000
-2.636500 26.567900
-2.622800 24.454300
-2.609100 20.642700
-2.595400 17.630800
-2.581700 15.385200
-2.568000 14.640000
-2.554300 18.099500
-2.540600 17.214300
-2.526900 24.582600
-2.513100 21.856200
-2.499400 16.739400
-2.485700 16.154300
-2.472000 18.951700
-2.458300 21.413300
-2.444600 21.976500
-2.430900 24.181000
-2.417200 28.000200
-2.403500 35.414800
-2.389700 28.323500
-2.376000 24.695600
-2.362300 22.627800
-2.348600 21.591600
-2.334900 20.759600
-2.321200 19.751500
-2.307500 19.599400
-2.293800 20.208000
-2.280100 21.489100
-2.266300 22.900300
-2.252600 22.424200
-2.238900 24.547800
-2.225200 29.485300
-2.211500 24.709900
-2.197800 24.061000
-2.184100 23.343800
-2.170400 15.000700
-2.156700 9.410200
-2.142900 6.171200
-2.129200 2.117800
-2.115500 0.000000
-2.101800 0.000000
-2.088100 0.000000
-2.074400 0.000000
-2.060700 0.000000
-2.047000 0.000000
-2.033300 0.000000
-2.019500 0.000000
-2.005800 0.000000
-1.992100 0.000000
-1.978400 0.000000
-1.964700 0.000000
-1.951000 0.000000
-1.937300 0.000000
-1.923600 0.000000
-1.909900 0.000000
-1.896100 0.000000
-1.882400 0.000000
-1.868700 0.000000
-1.855000 0.000000
-1.841300 0.000000
-1.827600 0.000000
-1.813900 0.000000
-1.800200 0.000000
-1.786500 0.000000
-1.772700 0.000000
-1.759000 0.000000
-1.745300 0.000000
-1.731600 0.000000
-1.717900 0.000000
-1.704200 0.000000
-1.690500 0.000000
-1.676800 0.000000
-1.663100 0.000000
-1.649300 0.000000
-1.635600 2.056100
-1.621900 16.340200
-1.608200 18.857300
-1.594500 26.541700
-1.580800 51.192300
-1.567100 51.387000
-1.553400 57.436400
-1.539700 45.472700
-1.525900 31.406500
-1.512200 32.494500
-1.498500 67.625400
-1.484800 67.088300
-1.471100 29.853100
-1.457400 22.598800
-1.443700 17.383100
-1.430000 15.422800
-1.416300 11.946300
-1.402500 6.504000
-1.388800 6.159200
-1.375100 0.353700
-1.361400 0.494100
-1.347700 0.694600
-1.334000 3.997900
-1.320300 9.265800
-1.306600 10.620000
-1.292900 13.563900
-1.279100 13.186500
-1.265400 11.495700
-1.251700 8.803000
-1.238000 7.474800
-1.224300 6.174900
-1.210600 5.738400
-1.196900 4.856100
-1.183200 4.822300
-1.169500 4.837300
-1.155700 4.886700
-1.142000 5.068300
-1.128300 5.262400
-1.114600 5.417800
-1.100900 6.099800
-1.087200 5.332200
-1.073500 5.119300
-1.059800 4.816000
-1.046100 4.316200
-1.032300 4.099700
-1.018600 3.868100
-1.004900 3.628100
-0.991200 3.569200
-0.977500 3.493100
-0.963800 3.430600
-0.950100 3.364600
-0.936400 3.321500
-0.922700 3.284900
-0.908900 3.253800
-0.895200 3.227900
-0.881500 3.207800
-0.867800 3.190800
-0.854100 3.175500
-0.840400 3.155100
-0.826700 3.130700
-0.813000 3.090000
-0.799300 3.054800
-0.785500 3.031500
-0.771800 3.018000
-0.758100 3.035500
-0.744400 3.060400
-0.730700 3.091400
-0.717000 3.126900
-0.703300 3.157300
-0.689600 3.277200
-0.675900 3.460000
-0.662100 3.508800
-0.648400 3.540300
-0.634700 3.554000
-0.621000 3.562500
-0.607300 3.550200
-0.593600 3.401800
-0.579900 3.377000
-0.566200 3.325400
-0.552500 3.313400
-0.538700 3.329400
-0.525000 3.358800
-0.511300 3.398500
-0.497600 3.448100
-0.483900 3.506200
-0.470200 3.568200
-0.456500 3.620200
-0.442800 3.682800
-0.429100 3.730500
-0.415300 3.856900
-0.401600 4.061700
-0.387900 4.219700
-0.374200 4.448000
-0.360500 4.675200
-0.346800 4.913600
-0.333100 5.193600
-0.319400 5.409500
-0.305700 5.520100
-0.291900 5.433800
-0.278200 5.329800
-0.264500 5.314500
-0.250800 5.393400
-0.237100 5.486300
-0.223400 5.585200
-0.209700 5.688700
-0.196000 5.782300
-0.182200 5.793300
-0.168500 5.747100
-0.154800 5.855400
-0.141100 5.814400
-0.127400 5.766500
-0.113700 5.665800
-0.100000 5.500300
-0.086300 5.325700
-0.072600 4.996500
-0.058800 4.852600
-0.045100 4.790500
-0.031400 4.722300
-0.017700 4.640200
-0.004000 4.579300
0.009700 4.600900
0.023400 4.934800
0.037100 4.746900
0.050800 4.719300
0.064600 5.100500
0.078300 4.940500
0.092000 4.813600
0.105700 5.273400
0.119400 5.518200
0.133100 5.514300
0.146800 5.460900
0.160500 5.423600
0.174200 5.422400
0.188000 5.451700
0.201700 5.525800
0.215400 5.862900
0.229100 6.265400
0.242800 6.727900
0.256500 7.242400
0.270200 7.616600
0.283900 7.552900
0.297600 8.404400
0.311400 8.183000
0.325100 7.973400
0.338800 7.880000
0.352500 7.868600
0.366200 8.056800
0.379900 8.252900
0.393600 8.942600
0.407300 8.939000
0.421000 8.414000
0.434800 7.808900
0.448500 7.652900
0.462200 7.569600
0.475900 7.430000
0.489600 7.233900
0.503300 6.967500
0.517000 6.758300
0.530700 6.641500
0.544400 6.580200
0.558200 6.476800
0.571900 6.309600
0.585600 6.079300
0.599300 5.864300
0.613000 5.679800
0.626700 5.372700
0.640400 5.039200
0.654100 4.781900
0.667800 4.569800
0.681600 4.380200
0.695300 4.239000
0.709000 4.116000
0.722700 3.987800
0.736400 3.853700
0.750100 3.722500
0.763800 3.596800
0.777500 3.471900
0.791200 3.367900
0.805000 3.271600
0.818700 3.162600
0.832400 2.992400
0.846100 2.893500
0.859800 2.794000
0.873500 2.697500
0.887200 2.605900
0.900900 2.523100
0.914600 2.493000
0.928400 2.444400
0.942100 2.362500
0.955800 2.232100
0.969500 2.149100
0.983200 2.070500
0.996900 1.986000
1.010600 1.892700
1.024300 1.791500
1.038000 1.696800
1.051800 1.605900
1.065500 1.520700
1.079200 1.446900
1.092900 1.354700
1.106600 1.259900
1.120300 1.178500
1.134000 1.114800
1.147700 1.036400
1.161400 0.890400
1.175200 0.736400
1.188900 0.617300
1.202600 0.508000
1.216300 0.457800
1.230000 0.386300
1.243700 0.179800
1.257400 0.033300
1.271100 0.000000
1.284800 0.000000
1.298600 0.000000
1.312300 0.000000
1.326000 0.000000
1.339700 0.000000
1.353400 0.000000
1.367100 0.000000
1.380800 0.000000
1.394500 0.000000
1.408200 0.000000
1.422000 0.000000
1.435700 0.000000
1.449400 0.000000
1.463100 0.000000
1.476800 0.000000
1.490500 0.000000
1.504200 0.000000
1.517900 0.000000
1.531600 0.000000
1.545400 0.000000
1.559100 0.000000
1.572800 0.000000
1.586500 0.000000
1.600200 0.000000
1.613900 0.000000
1.627600 0.000000
1.641300 0.000000
1.655000 0.000000
1.668800 0.000000
1.682500 0.000000
1.696200 0.000000
1.709900 0.000000
1.723600 0.000000
1.737300 0.000000
1.751000 0.000000
1.764700 0.000000
1.778400 0.000000
1.792200 0.000000
1.805900 0.000000
1.819600 0.000000
1.833300 0.000000
1.847000 0.000000
1.860700 0.000000
1.874400 0.000000
1.888100 0.000000
1.901800 0.000000
1.915600 0.000000
1.929300 0.000000
1.943000 0.000000
1.956700 0.000000
1.970400 0.000000
1.984100 0.000000
1.997800 0.000000
2.011500 0.000000
2.025200 0.000000
2.039000 0.000000
2.052700 0.000000
2.066400 0.000000
2.080100 0.000000
2.093800 0.000000
2.107500 0.000000
2.121200 0.000000
2.134900 0.000000
2.148600 0.000000
2.162400 0.000000
2.176100 0.000000
2.189800 0.000000
2.203500 0.000000
2.217200 0.000000
2.230900 0.000000
2.244600 0.000000
2.258300 0.000000
2.272000 0.000000
2.285800 0.000000
2.299500 0.000000
2.313200 0.000000
2.326900 0.000000
2.340600 0.000000
2.354300 0.000000
2.368000 0.000000
2.381700 0.000000
2.395500 0.000000
2.409200 0.000000
2.422900 0.000000
2.436600 0.000000
2.450300 0.000000
2.464000 0.000000
2.477700 0.000000
2.491400 0.000000
2.505100 0.000000
2.518900 0.000000
2.532600 0.000000
2.546300 0.000000
2.560000 0.000000
2.573700 0.000000
2.587400 0.000000
2.601100 0.000000
2.614800 0.000000
2.628500 0.000000
2.642300 0.000000
2.656000 0.000000
2.669700 0.000000
2.683400 0.000300
2.697100 0.000900
2.710800 0.001700
2.724500 0.002900
2.738200 0.004300
2.751900 0.006000
2.765700 0.008100
2.779400 0.010400
2.793100 0.013000
2.806800 0.015800
2.820500 0.019000
2.834200 0.022500
2.847900 0.026200
2.861600 0.030300
2.875300 0.034800
2.889100 0.040000
2.902800 0.045900
2.916500 0.051500
2.930200 0.054900
2.943900 0.058200
2.957600 0.061200
2.971300 0.064100
2.985000 0.066800
2.998700 0.069400
3.012500 0.071700
3.026200 0.073900
3.039900 0.076000
3.053600 0.077800
3.067300 0.079500
3.081000 0.081800
3.094700 0.085000
3.108400 0.088300
3.122100 0.091700
3.135900 0.095000
3.149600 0.098500
3.163300 0.102000
3.177000 0.105500
3.190700 0.109100
3.204400 0.112700
3.218100 0.116300
3.231800 0.120000
3.245500 0.123800
3.259300 0.127600
3.273000 0.131500
3.286700 0.135400
3.300400 0.139300
3.314100 0.143300
3.327800 0.147400
3.341500 0.151500
3.355200 0.155700
3.368900 0.159900
3.382700 0.164200
3.396400 0.168600
3.410100 0.173300
3.423800 0.178500
3.437500 0.184200
3.451200 0.189700
3.464900 0.195000
3.478600 0.200200
3.492300 0.205400
3.506100 0.210700
3.519800 0.215900
3.533500 0.221100
3.547200 0.226400
3.560900 0.231700
3.574600 0.237100
3.588300 0.242600
3.602000 0.248100
3.615700 0.253700
3.629500 0.259400
3.643200 0.265100
3.656900 0.270800
3.670600 0.276700
3.684300 0.282800
3.698000 0.289100
3.711700 0.295700
3.725400 0.302800
3.739100 0.310300
3.752900 0.318300
3.766600 0.327400
3.780300 0.337100
3.794000 0.347500
3.807700 0.358400
3.821400 0.369900
3.835100 0.380600
3.848800 0.390800
3.862500 0.401200
3.876300 0.411800
3.890000 0.422700
3.903700 0.438100
3.917400 0.459400
3.931100 0.485000
3.944800 0.515000
3.958500 0.550500
3.972200 0.591000
3.985900 0.631800
3.999700 0.672400
4.013400 0.712700
4.027100 0.752700
4.040800 0.792500
4.054500 0.831900
4.068200 0.864300
4.081900 0.861400
4.095600 0.872600
4.109300 0.880500
4.123100 0.881200
4.136800 0.870500
4.150500 0.883500
4.164200 0.902600
4.177900 0.922200
4.191600 0.942500
4.205300 0.965400
4.219000 0.991500
4.232700 1.020200
4.246500 1.048500
4.260200 1.077200
4.273900 1.107000
4.287600 1.137900
4.301300 1.169300
4.315000 1.203400
4.328700 1.240700
4.342400 1.281200
4.356100 1.325800
4.369900 1.380600
4.383600 1.443500
4.397300 1.512400
4.411000 1.581100
4.424700 1.653400
4.438400 1.784100
4.452100 2.104000
4.465800 2.450100
4.479500 2.673300
4.493300 2.873900
4.507000 3.026500
4.520700 3.130300
4.534400 3.183200
4.548100 3.218700
4.561800 3.103500
4.575500 3.024000
4.589200 3.009500
4.602900 3.010700
4.616700 2.991600
4.630400 2.973300
4.644100 2.958100
4.657800 2.924600
4.671500 2.887000
4.685200 2.853300
4.698900 2.830300
4.712600 2.822300
4.726300 2.829600
4.740100 2.850000
4.753800 2.874100
4.767500 2.907000
4.781200 2.944800
4.794900 2.989800
4.808600 3.043900
4.822300 3.082900
4.836000 3.123100
4.849800 3.172500
4.863500 3.227000
4.877200 3.291100
4.890900 3.358300
4.904600 3.492500
4.918300 3.902300
4.932000 4.231800
4.945700 4.573300
4.959400 4.804300
4.973200 4.935500
4.986900 4.944600
5.000600 4.871100
5.014300 4.795500
5.028000 4.699200
5.041700 4.494900
5.055400 4.081200
5.069100 3.675900
5.082800 3.379200
5.096600 3.210700
5.110300 3.147800
5.124000 3.117200
5.137700 3.073800
5.151400 3.003000
5.165100 2.961700
5.178800 2.912000
5.192500 2.853800
5.206200 2.786900
5.220000 2.712200
5.233700 2.507100
5.247400 2.437000
5.261100 2.377900
5.274800 2.319200
5.288500 2.258300
5.302200 2.195200
5.315900 2.130000
5.329600 2.062700
5.343400 1.988700
5.357100 1.893700
5.370800 1.861600
5.384500 1.841200
5.398200 1.747500
5.411900 1.655700
5.425600 1.567100
5.439300 1.481700
5.453000 1.399600
5.466800 1.320800
5.480500 1.245200
5.494200 1.200100
5.507900 1.119400
5.521600 1.055400
5.535300 1.041600
5.549000 1.006200
5.562700 0.934100
5.576400 0.875500
5.590200 0.837900
5.603900 0.800000
5.617600 0.757200
5.631300 0.743500
5.645000 0.931200
5.658700 0.924600
5.672400 0.630800
5.686100 0.391800
5.699800 0.205700
5.713600 0.072300
5.727300 0.000000
5.741000 0.000000
5.754700 0.000000
5.768400 0.000000
5.782100 0.000000
5.795800 0.000000
5.809500 0.000000
5.823200 0.000000
5.837000 0.000000
5.850700 0.000000
5.864400 0.000000
5.878100 0.000000
5.891800 0.000000
5.905500 0.000000
5.919200 0.000000
5.932900 0.000000
5.946600 0.000000
5.960400 0.000000
5.974100 0.050300
5.987800 0.091300
6.001500 0.133700
6.015200 0.177600
6.028900 0.222900
6.042600 0.269400
6.056300 0.316200
6.070000 0.331500
6.083800 0.367700
6.097500 0.407100
6.111200 0.446700
6.124900 0.485100
6.138600 0.524200
6.152300 0.562100
6.166000 0.611100
6.179700 0.681300
6.193400 0.835300
6.207200 1.782800
6.220900 2.648300
6.234600 3.594200
6.248300 4.819600
6.262000 5.886500
6.275700 6.067100
6.289400 6.478000
6.303100 6.723200
6.316800 6.897000
6.330600 7.009100
6.344300 7.261100
6.358000 7.843100
6.371700 8.684200
6.385400 10.103400
6.399100 13.029400
6.412800 11.380200
6.426500 10.521700
6.440200 7.983800
6.454000 6.103000
6.467700 5.147200
6.481400 4.473000
6.495100 4.161000
6.508800 3.980100
6.522500 3.864100
6.536200 3.773500
6.549900 3.686400
6.563600 3.602500
6.577400 3.529900
6.591100 3.455200
6.604800 3.359500
6.618500 3.283300
6.632200 3.217300
6.645900 3.160700
6.659600 3.113200
6.673300 3.086000
6.687000 3.019000
6.700800 2.947000
6.714500 2.882800
6.728200 2.911500
6.741900 2.969700
6.755600 2.898800
6.769300 2.827800
6.783000 2.757600
6.796700 2.682300
6.810400 2.602900
6.824200 2.529700
6.837900 2.508500
6.851600 2.477300
6.865300 2.448000
6.879000 2.417800
6.892700 2.401700
6.906400 2.392000
6.920100 2.356700
6.933800 2.317100
6.947600 2.276700
6.961300 2.247600
6.975000 2.199400
6.988700 2.141200
7.002400 1.945700
7.016100 1.797300
7.029800 1.682300
7.043500 1.594200
7.057200 1.519100
7.071000 1.448400
7.084700 1.382400
7.098400 1.322500
7.112100 1.290600
7.125800 1.314300
7.139500 1.428400
7.153200 1.576200
7.166900 1.763900
7.180600 2.022700
7.194400 1.929800
7.208100 1.824700
7.221800 1.766400
7.235500 1.786100
7.249200 1.853900
7.262900 1.882100
7.276600 1.945700
7.290300 2.062100
7.304100 2.118500
7.317800 2.460900
7.331500 2.797500
7.345200 3.904600
7.358900 3.400000
7.372600 3.621300
7.386300 3.912700
7.400000 4.395100
7.413700 5.296200
7.427500 6.440000
7.441200 7.580200
7.454900 8.103400
7.468600 7.919400
7.482300 7.528300
7.496000 7.240900
7.509700 6.792500
7.523400 6.367000
7.537100 6.042400
7.550900 5.741300
7.564600 5.470600
7.578300 5.431600
7.592000 5.645800
7.605700 5.954500
7.619400 5.885200
7.633100 5.695900
7.646800 5.394100
7.660500 5.137100
7.674300 4.767300
7.688000 4.432300
7.701700 4.271000
7.715400 4.129100
7.729100 4.061500
7.742800 3.984900
7.756500 3.893700
7.770200 3.801600
7.783900 3.693700
7.797700 3.566900
7.811400 3.456100
7.825100 3.340600
7.838800 3.268300
7.852500 3.213500
7.866200 3.173200
7.879900 3.105500
7.893600 3.041300
7.907300 3.024400
7.921100 3.016700
7.934800 3.023100
7.948500 3.042900
7.962200 3.068700
7.975900 3.088900
7.989600 3.021400
8.003300 3.019200
8.017000 3.003400
8.030700 2.980400
8.044500 2.959600
8.058200 2.936900
8.071900 2.946000
8.085600 2.962900
8.099300 2.983100
8.113000 3.000600
8.126700 3.016800
8.140400 3.034800
8.154100 3.057200
8.167900 3.065900
8.181600 3.092800
8.195300 3.130800
8.209000 3.192200
8.222700 3.421500
8.236400 3.701900
8.250100 4.007300
8.263800 4.292300
8.277500 4.502400
8.291300 4.555500
8.305000 4.507300
8.318700 4.539700
8.332400 4.757200
8.346100 4.552200
8.359800 4.401200
8.373500 4.320200
8.387200 4.234400
8.400900 4.166000
8.414700 4.121400
8.428400 4.102000
8.442100 4.117000
8.455800 4.147800
8.469500 4.284400
8.483200 4.478000
8.496900 4.653600
8.510600 4.790400
8.524300 4.881800
8.538100 4.931700
8.551800 4.991300
8.565500 5.234100
8.579200 4.558600
8.592900 4.298900
8.606600 4.011300
8.620300 3.640300
8.634000 3.418900
8.647700 3.265800
8.661500 3.137100
8.675200 3.015200
8.688900 3.044600
8.702600 3.196500
8.716300 3.316400
8.730000 3.444200
8.743700 3.588200
8.757400 3.722500
8.771100 4.291100
8.784900 4.424900
8.798600 4.283900
8.812300 3.862700
8.826000 3.685100
8.839700 3.555300
8.853400 3.329200
8.867100 3.137000
8.880800 3.040400
8.894500 2.965100
8.908300 2.897200
8.922000 2.831300
8.935700 2.780500
8.949400 2.740000
8.963100 2.682500
8.976800 2.625600
8.990500 2.532900
9.004200 2.420600
9.017900 2.330300
9.031700 2.264000
9.045400 2.230400
9.059100 2.194500
9.072800 2.149800
9.086500 2.136400
9.100200 2.150900
9.113900 2.180700
9.127600 2.216900
9.141300 2.797500
9.155100 1.971400
9.168800 1.970700
9.182500 1.974700
9.196200 1.983100
9.209900 1.982900
9.223600 1.988300
9.237300 2.016900
9.251000 2.052700
9.264700 2.090200
9.278500 2.162000
9.292200 2.278600
9.305900 2.376400
9.319600 2.347800
9.333300 2.377700
9.347000 2.425300
9.360700 2.481100
9.374400 2.485100
9.388100 2.470200
9.401900 2.449200
9.415600 2.423500
9.429300 2.397700
9.443000 2.375100
9.456700 2.308700
9.470400 2.169800
9.484100 2.008000
9.497800 1.818100
9.511500 1.628200
9.525300 1.500900
9.539000 1.395900
9.552700 1.314400
9.566400 1.263500
9.580100 1.262000
9.593800 1.264900
9.607500 1.270200
9.621200 1.277800
9.634900 1.288700
9.648700 1.355500
9.662400 1.583000
9.676100 1.743600
9.689800 2.032400
9.703500 2.203100
9.717200 2.163700
9.730900 2.143700
9.744600 2.203500
9.758400 2.255200
9.772100 2.298900
9.785800 2.334800
9.799500 2.363200
9.813200 2.384400
9.826900 2.400400
9.840600 2.425500
9.854300 2.454300
9.868000 2.511400
9.881800 2.560400
9.895500 2.605300
9.909200 2.646800
9.922900 3.179700
9.936600 2.785600
9.950300 2.814300
9.964000 2.864900
9.977700 2.933700
9.991400 3.024200
10.005200 3.129400
10.018900 3.181700
10.032600 3.234700
10.046300 3.388200
10.060000 3.734100
10.073700 3.943600
10.087400 4.079300
10.101100 4.177100
10.114800 4.267000
10.128600 4.112600
10.142300 3.995000
10.156000 3.950300
10.169700 3.898100
10.183400 3.844400
10.197100 3.783400
10.210800 3.715700
10.224500 3.654300
10.238200 3.702000
10.252000 3.616400
10.265700 3.550100
10.279400 3.501900
10.293100 3.473200
10.306800 3.487900
10.320500 3.528700
10.334200 3.615900
10.347900 3.700500
10.361600 3.780500
10.375400 3.845000
10.389100 3.897100
10.402800 3.925100
10.416500 3.936100
10.430200 3.928700
10.443900 3.901700
10.457600 3.849600
10.471300 3.807400
10.485000 3.471300
10.498800 3.329100
10.512500 3.219800
10.526200 3.121100
10.539900 3.049500
10.553600 2.993700
10.567300 2.949100
10.581000 2.875200
10.594700 2.838500
10.608400 2.759200
10.622200 2.689700
10.635900 2.490900
10.649600 2.322300
10.663300 2.206400
10.677000 2.116000
10.690700 2.028700
10.704400 1.949300
10.718100 1.886700
10.731800 1.834000
10.745600 1.789900
10.759300 1.753000
10.773000 1.720700
10.786700 1.678100
10.800400 1.643600
10.814100 1.659900
10.827800 1.742800
10.841500 1.715600
10.855200 1.688100
10.869000 1.665700
10.882700 1.653100
10.896400 1.652300
10.910100 1.668000
10.923800 1.703200
10.937500 1.754000
10.951200 1.845600
10.964900 2.164000
10.978600 2.441300
10.992400 2.689000
11.006100 2.922800
11.019800 3.156600
11.033500 3.376500
11.047200 3.475200
11.060900 3.522400
11.074600 3.517900
11.088300 3.500200
11.102000 3.545700
11.115800 3.534800
11.129500 3.526900
11.143200 3.418700
11.156900 3.321800
11.170600 3.276200
11.184300 3.241500
11.198000 3.245800
11.211700 3.260300
11.225400 3.269400
11.239200 3.281700
11.252900 3.299900
11.266600 3.322000
11.280300 3.340500
11.294000 3.368600
11.307700 3.389000
11.321400 3.389900
11.335100 3.367800
11.348800 3.342200
11.362600 3.328900
11.376300 3.368000
11.390000 3.419300
11.403700 3.611900
11.417400 3.839100
11.431100 3.778900
11.444800 3.715300
11.458500 3.651100
11.472200 3.601100
11.486000 3.557300
11.499700 3.509900
11.513400 3.471000
11.527100 3.342400
11.540800 3.369000
11.554500 3.450300
11.568200 3.570900
11.581900 3.727600
11.595600 3.892600
11.609400 4.060600
11.623100 4.262600
11.636800 4.453900
11.650500 4.610200
11.664200 4.632400
11.677900 4.797300
11.691600 4.902100
11.705300 4.959200
11.719000 5.218600
11.732800 5.353000
11.746500 5.442800
11.760200 5.487700
11.773900 5.372200
11.787600 5.254900
11.801300 5.296800
11.815000 5.195300
11.828700 5.157200
11.842400 4.958600
11.856200 4.820800
11.869900 4.663900
11.883600 4.460300
11.897300 4.227900
11.911000 4.060300
11.924700 3.876900
11.938400 3.716500
11.952100 3.595300
11.965800 3.525000
11.979600 3.564800
11.993300 3.631600
12.007000 3.694300
12.020700 3.779100
12.034400 3.841700
12.048100 3.872400
12.061800 3.894700
12.075500 3.926800
12.089200 4.042700
12.103000 4.186100
12.116700 4.303600
12.130400 4.393200
12.144100 4.457600
12.157800 4.485100
12.171500 4.484400
12.185200 4.470000
12.198900 4.561400
12.212600 4.522100
12.226400 4.352300
12.240100 4.123600
12.253800 3.991600
12.267500 3.930300
12.281200 3.725800
12.294900 3.474400
12.308600 3.075500
12.322300 2.792600
12.336100 2.678800
12.349800 2.645500
12.363500 2.629200
12.377200 2.644600
12.390900 2.673900
12.404600 2.724300
12.418300 2.797000
12.432000 2.891900
12.445700 2.940800
12.459500 2.961400
12.473200 3.016200
12.486900 3.118000
12.500600 3.147800
12.514300 3.129500
12.528000 3.105800
12.541700 3.130000
12.555400 3.211300
12.569100 3.349700
12.582900 3.433200
12.596600 3.437200
12.610300 3.382600
12.624000 3.246100
12.637700 3.022200
12.651400 2.882800
12.665100 2.823200
12.678800 2.849700
12.692500 2.903100
12.706300 2.959200
12.720000 3.019500
12.733700 3.099200
12.747400 3.211000
12.761100 3.334300
12.774800 3.412600
12.788500 3.489600
12.802200 3.565000
12.815900 3.661100
12.829700 3.776300
12.843400 4.183800
12.857100 4.151000
12.870800 3.947300
12.884500 3.702500
12.898200 3.504500
12.911900 3.347600
12.925600 3.208700
12.939300 3.091000
12.953100 2.998200
12.966800 2.915000
12.980500 2.872900
12.994200 2.848400
13.007900 3.073700
13.021600 3.245900
13.035300 2.523400
13.049000 2.151700
13.062700 2.026400
13.076500 1.907400
13.090200 1.787600
13.103900 1.677600
13.117600 1.585200
13.131300 1.497200
13.145000 1.413700
13.158700 1.334700
13.172400 1.260500
13.186100 1.190800
13.199900 1.125400
13.213600 1.064200
13.227300 1.007400
13.241000 0.954800
13.254700 0.904500
13.268400 0.852400
13.282100 0.808800
13.295800 0.769600
13.309500 0.732300
13.323300 0.694700
13.337000 0.684700
13.350700 0.664500
13.364400 0.612100
13.378100 0.563800
13.391800 0.500500
13.405500 0.421900
13.419200 0.361900
13.432900 0.320500
13.446700 0.281900
13.460400 0.264600
13.474100 0.248100
13.487800 0.232100
13.501500 0.216500
13.515200 0.201200
13.528900 0.186300
13.542600 0.171900
13.556300 0.157800
13.570100 0.124300
13.583800 0.118700
13.597500 0.113200
13.611200 0.107900
13.624900 0.102700
13.638600 0.097700
13.652300 0.092800
13.666000 0.088000
13.679700 0.104200
13.693500 0.092900
13.707200 0.081500
13.720900 0.069900
13.734600 0.058100
13.748300 0.046200
13.762000 0.000000
13.775700 0.000000
13.789400 0.000000
13.803100 0.000000
13.816900 0.000000
13.830600 0.000000
13.844300 0.000000
13.858000 0.000000
13.871700 0.000000
13.885400 0.000000
13.899100 0.000000
13.912800 0.000000
13.926500 0.000000
13.940300 0.000000
13.954000 0.000000
13.967700 0.000000
13.981400 0.000000
13.995100 0.000000
14.008800 0.000000
14.022500 0.000000
14.036200 0.000000
14.049900 0.000000
14.063700 0.000000
14.077400 0.000000
14.091100 0.000000
14.104800 0.000000
14.118500 0.000000
14.132200 0.000000
14.145900 0.000000
14.159600 0.000000
14.173300 0.000000
14.187100 0.000000
14.200800 0.000000
14.214500 0.000000
14.228200 0.000000
14.241900 0.000000
14.255600 0.000000
14.269300 0.000000
14.283000 0.000000
14.296700 0.000000
14.310500 0.000000
14.324200 0.000000
14.337900 0.000000
14.351600 0.000000
14.365300 0.000000
14.379000 0.000000
14.392700 0.000000
14.406400 0.000000
14.420100 0.000000
14.433900 0.000000
14.447600 0.000000
14.461300 0.000000
14.475000 0.000000
14.488700 0.000000
14.502400 0.000000
14.516100 0.000000
14.529800 0.000000
14.543500 0.000000
14.557300 0.000000
14.571000 0.000000
14.584700 0.000000
14.598400 0.000000
14.612100 0.000000
14.625800 0.000000
14.639500 0.000000
14.653200 0.000000
14.666900 0.000000
14.680700 0.000000
14.694400 0.000000
14.708100 0.000000
14.721800 0.000000
14.735500 0.000000
14.749200 0.000000
14.762900 0.000000
14.776600 0.000000
14.790400 0.000000
14.804100 0.000000
14.817800 0.000000
14.831500 0.000000
14.845200 0.000000
14.858900 0.000000
14.872600 0.000000
14.886300 0.000000
14.900000 0.000000
14.913800 0.000000
14.927500 0.000000
14.941200 0.000000
14.954900 0.000000
14.968600 0.000000
14.982300 0.000000
14.996000 0.000000
e
