set title 'mp-1217896 - Density of States'
set xlabel 'Energy (eV)'
set ylabel 'DOS (states/eV)'
set grid
set xrange [-10:10]
set yrange [0:6.113]
set xzeroaxis lt -1
set terminal png size 800,600
set output 'mp-1217896_dos_gnuplot.png'
plot '-' using 1:2 with lines title 'DOS'
-32.415300 0.000000
-32.378600 0.000000
-32.342000 0.000000
-32.305300 0.000000
-32.268700 0.000000
-32.232100 0.000000
-32.195400 0.000000
-32.158800 0.000000
-32.122100 0.000000
-32.085500 0.000000
-32.048900 0.000000
-32.012200 0.000000
-31.975600 0.000000
-31.938900 0.000000
-31.902300 0.000000
-31.865700 0.000000
-31.829000 0.000000
-31.792400 0.000000
-31.755700 0.000000
-31.719100 0.000000
-31.682500 0.000000
-31.645800 0.000000
-31.609200 0.000000
-31.572500 0.000000
-31.535900 0.000000
-31.499300 0.000000
-31.462600 0.000000
-31.426000 0.000000
-31.389300 0.000000
-31.352700 0.000000
-31.316000 0.000000
-31.279400 0.000000
-31.242800 0.000000
-31.206100 0.000000
-31.169500 0.000000
-31.132800 0.000000
-31.096200 0.000000
-31.059600 0.000000
-31.022900 0.000000
-30.986300 0.000000
-30.949600 0.000000
-30.913000 0.000000
-30.876400 0.000000
-30.839700 0.000000
-30.803100 0.000000
-30.766400 0.000000
-30.729800 0.000000
-30.693200 0.000000
-30.656500 0.000000
-30.619900 0.000000
-30.583200 0.000000
-30.546600 0.000000
-30.510000 0.000000
-30.473300 0.000000
-30.436700 0.000000
-30.400000 0.000000
-30.363400 0.000000
-30.326800 0.000000
-30.290100 0.000000
-30.253500 0.000000
-30.216800 0.000000
-30.180200 0.000000
-30.143600 0.000000
-30.106900 0.000000
-30.070300 0.000000
-30.033600 0.000000
-29.997000 0.000000
-29.960400 0.000000
-29.923700 0.000000
-29.887100 0.000000
-29.850400 0.000000
-29.813800 0.000000
-29.777200 0.000000
-29.740500 0.000000
-29.703900 0.000000
-29.667200 0.000000
-29.630600 0.000000
-29.593900 0.000000
-29.557300 0.000000
-29.520700 0.000000
-29.484000 0.000000
-29.447400 0.000000
-29.410700 0.000000
-29.374100 0.000000
-29.337500 0.000000
-29.300800 0.000000
-29.264200 0.000000
-29.227500 0.000000
-29.190900 0.000000
-29.154300 0.000000
-29.117600 0.000000
-29.081000 5.646400
-29.044300 3.818200
-29.007700 3.692700
-28.971100 4.189500
-28.934400 5.133500
-28.897800 6.834300
-28.861100 3.432700
-28.824500 2.897300
-28.787900 2.032000
-28.751200 6.660000
-28.714600 8.802100
-28.677900 6.185700
-28.641300 15.590800
-28.604700 32.175300
-28.568000 3.357200
-28.531400 3.162600
-28.494700 3.066400
-28.458100 3.017400
-28.421500 3.183300
-28.384800 3.536000
-28.348200 4.345200
-28.311500 4.815500
-28.274900 8.104500
-28.238300 6.294000
-28.201600 5.216700
-28.165000 4.500100
-28.128300 4.379900
-28.091700 3.610200
-28.055000 3.471300
-28.018400 2.893300
-27.981800 0.000000
-27.945100 0.000000
-27.908500 0.000000
-27.871800 0.000000
-27.835200 0.000000
-27.798600 0.000000
-27.761900 0.000000
-27.725300 0.000000
-27.688600 0.000000
-27.652000 0.000000
-27.615400 0.000000
-27.578700 0.000000
-27.542100 0.000000
-27.505400 0.000000
-27.468800 0.000000
-27.432200 0.000000
-27.395500 0.000000
-27.358900 0.000000
-27.322200 0.000000
-27.285600 0.000000
-27.249000 0.000000
-27.212300 0.000000
-27.175700 0.000000
-27.139000 0.000000
-27.102400 0.000000
-27.065800 0.000000
-27.029100 0.000000
-26.992500 0.000000
-26.955800 0.000000
-26.919200 0.000000
-26.882600 0.000000
-26.845900 0.000000
-26.809300 0.000000
-26.772600 0.000000
-26.736000 0.000000
-26.699400 0.000000
-26.662700 0.000000
-26.626100 0.000000
-26.589400 0.000000
-26.552800 0.000000
-26.516100 0.000000
-26.479500 0.000000
-26.442900 0.000000
-26.406200 0.000000
-26.369600 0.000000
-26.332900 0.000000
-26.296300 0.000000
-26.259700 0.000000
-26.223000 0.000000
-26.186400 0.000000
-26.149700 0.000000
-26.113100 0.000000
-26.076500 0.000000
-26.039800 0.000000
-26.003200 0.000000
-25.966500 0.000000
-25.929900 0.000000
-25.893300 0.000000
-25.856600 0.000000
-25.820000 0.000000
-25.783300 0.000000
-25.746700 0.000000
-25.710100 0.000000
-25.673400 0.000000
-25.636800 0.000000
-25.600100 0.000000
-25.563500 0.000000
-25.526900 0.000000
-25.490200 0.000000
-25.453600 0.000000
-25.416900 0.000000
-25.380300 0.000000
-25.343700 0.000000
-25.307000 0.000000
-25.270400 0.000000
-25.233700 0.000000
-25.197100 0.000000
-25.160500 0.000000
-25.123800 0.000000
-25.087200 0.000000
-25.050500 0.000000
-25.013900 0.000000
-24.977200 0.000000
-24.940600 0.000000
-24.904000 0.000000
-24.867300 0.000000
-24.830700 0.000000
-24.794000 0.000000
-24.757400 0.000000
-24.720800 0.000000
-24.684100 0.000000
-24.647500 0.000000
-24.610800 0.000000
-24.574200 0.000000
-24.537600 0.000000
-24.500900 0.000000
-24.464300 0.000000
-24.427600 0.000000
-24.391000 0.000000
-24.354400 0.000000
-24.317700 0.000000
-24.281100 0.000000
-24.244400 0.000000
-24.207800 0.000000
-24.171200 0.000000
-24.134500 0.000000
-24.097900 0.000000
-24.061200 0.000000
-24.024600 0.000000
-23.988000 0.000000
-23.951300 0.000000
-23.914700 0.000000
-23.878000 0.000000
-23.841400 0.000000
-23.804800 0.000000
-23.768100 0.000000
-23.731500 0.000000
-23.694800 0.000000
-23.658200 0.000000
-23.621600 0.000000
-23.584900 0.000000
-23.548300 0.000000
-23.511600 0.000000
-23.475000 0.000000
-23.438400 0.000000
-23.401700 0.000000
-23.365100 0.000000
-23.328400 0.000000
-23.291800 0.000000
-23.255100 0.000000
-23.218500 0.000000
-23.181900 0.000000
-23.145200 0.000000
-23.108600 0.000000
-23.071900 0.000000
-23.035300 0.000000
-22.998700 0.000000
-22.962000 0.000000
-22.925400 0.000000
-22.888700 0.000000
-22.852100 0.000000
-22.815500 0.000000
-22.778800 0.000000
-22.742200 0.000000
-22.705500 0.000000
-22.668900 0.000000
-22.632300 0.000000
-22.595600 0.000000
-22.559000 0.000000
-22.522300 0.000000
-22.485700 0.000000
-22.449100 0.000000
-22.412400 0.000000
-22.375800 0.000000
-22.339100 0.000000
-22.302500 0.000000
-22.265900 0.000000
-22.229200 0.000000
-22.192600 0.000000
-22.155900 0.000000
-22.119300 0.000000
-22.082700 0.000000
-22.046000 0.000000
-22.009400 0.000000
-21.972700 0.000000
-21.936100 0.000000
-21.899500 0.000000
-21.862800 0.000000
-21.826200 0.000000
-21.789500 0.000000
-21.752900 0.000000
-21.716200 0.000000
-21.679600 0.000000
-21.643000 0.000000
-21.606300 0.000000
-21.569700 0.000000
-21.533000 0.000000
-21.496400 0.000000
-21.459800 0.000000
-21.423100 0.000000
-21.386500 0.000000
-21.349800 0.000000
-21.313200 0.000000
-21.276600 0.000000
-21.239900 0.000000
-21.203300 0.000000
-21.166600 0.000000
-21.130000 0.000000
-21.093400 0.000000
-21.056700 0.000000
-21.020100 0.000000
-20.983400 0.000000
-20.946800 0.000000
-20.910200 0.000000
-20.873500 0.000000
-20.836900 0.000000
-20.800200 0.000000
-20.763600 0.000000
-20.727000 0.000000
-20.690300 0.000000
-20.653700 0.000000
-20.617000 0.000000
-20.580400 0.000000
-20.543800 0.000000
-20.507100 0.000000
-20.470500 0.000000
-20.433800 0.000000
-20.397200 0.000000
-20.360600 0.000000
-20.323900 0.000000
-20.287300 0.000000
-20.250600 0.000000
-20.214000 0.000000
-20.177300 0.000000
-20.140700 0.000000
-20.104100 0.000000
-20.067400 0.000000
-20.030800 0.000000
-19.994100 0.000000
-19.957500 0.000000
-19.920900 0.000000
-19.884200 0.000000
-19.847600 0.000000
-19.810900 0.000000
-19.774300 0.000000
-19.737700 0.000000
-19.701000 0.000000
-19.664400 0.000000
-19.627700 0.000000
-19.591100 0.000000
-19.554500 0.000000
-19.517800 0.000000
-19.481200 0.000000
-19.444500 0.000000
-19.407900 0.000000
-19.371300 0.000000
-19.334600 0.000000
-19.298000 0.000000
-19.261300 0.000000
-19.224700 0.000000
-19.188100 0.000000
-19.151400 0.000000
-19.114800 0.000000
-19.078100 0.000000
-19.041500 0.000000
-19.004900 0.000000
-18.968200 0.000000
-18.931600 0.000000
-18.894900 0.000000
-18.858300 0.000000
-18.821700 0.000000
-18.785000 0.000000
-18.748400 0.000000
-18.711700 0.000000
-18.675100 0.000000
-18.638400 0.000000
-18.601800 0.000000
-18.565200 0.000000
-18.528500 0.000000
-18.491900 0.000000
-18.455200 0.000000
-18.418600 0.000000
-18.382000 0.000000
-18.345300 0.000000
-18.308700 0.000000
-18.272000 0.000000
-18.235400 0.000000
-18.198800 0.000000
-18.162100 0.000000
-18.125500 0.000000
-18.088800 0.000000
-18.052200 0.000000
-18.015600 0.000000
-17.978900 0.000000
-17.942300 0.000000
-17.905600 0.000000
-17.869000 0.000000
-17.832400 0.000000
-17.795700 0.000000
-17.759100 0.000000
-17.722400 0.000000
-17.685800 0.000000
-17.649200 0.000000
-17.612500 0.000000
-17.575900 0.000000
-17.539200 0.000000
-17.502600 0.000000
-17.466000 0.000000
-17.429300 0.000000
-17.392700 0.000000
-17.356000 0.000000
-17.319400 0.000000
-17.282800 0.000000
-17.246100 0.000000
-17.209500 0.000000
-17.172800 0.000000
-17.136200 0.000000
-17.099600 0.000000
-17.062900 0.000000
-17.026300 0.000000
-16.989600 0.000000
-16.953000 0.000000
-16.916300 0.000000
-16.879700 0.000000
-16.843100 0.000000
-16.806400 0.000000
-16.769800 0.000000
-16.733100 0.000000
-16.696500 0.000000
-16.659900 0.000000
-16.623200 0.000000
-16.586600 0.000000
-16.549900 0.000000
-16.513300 0.000000
-16.476700 0.000000
-16.440000 0.000000
-16.403400 0.000000
-16.366700 0.000000
-16.330100 0.000000
-16.293500 0.000000
-16.256800 0.000000
-16.220200 0.000000
-16.183500 0.000000
-16.146900 0.000000
-16.110300 0.000000
-16.073600 0.000000
-16.037000 0.000000
-16.000300 0.000000
-15.963700 0.000000
-15.927100 0.000000
-15.890400 0.000000
-15.853800 0.000000
-15.817100 0.000000
-15.780500 0.000000
-15.743900 0.000000
-15.707200 0.000000
-15.670600 0.000000
-15.633900 0.000000
-15.597300 0.000000
-15.560700 0.000000
-15.524000 0.000000
-15.487400 0.000000
-15.450700 0.000000
-15.414100 0.000000
-15.377400 0.000000
-15.340800 0.000000
-15.304200 0.000000
-15.267500 0.000000
-15.230900 0.000000
-15.194200 0.000000
-15.157600 0.000000
-15.121000 0.000000
-15.084300 0.000000
-15.047700 0.000000
-15.011000 0.000000
-14.974400 0.000000
-14.937800 0.000000
-14.901100 0.000000
-14.864500 0.000000
-14.827800 0.000000
-14.791200 0.000000
-14.754600 0.000000
-14.717900 0.000000
-14.681300 0.000000
-14.644600 0.000000
-14.608000 0.000000
-14.571400 0.000000
-14.534700 0.000000
-14.498100 0.000000
-14.461400 0.000000
-14.424800 0.000000
-14.388200 0.000000
-14.351500 0.000000
-14.314900 0.000000
-14.278200 0.000000
-14.241600 0.000000
-14.205000 0.000000
-14.168300 0.000000
-14.131700 0.000000
-14.095000 0.000000
-14.058400 0.000000
-14.021800 0.000000
-13.985100 0.000000
-13.948500 0.000000
-13.911800 0.000000
-13.875200 0.000000
-13.838500 0.000000
-13.801900 0.000000
-13.765300 0.000000
-13.728600 0.000000
-13.692000 0.000000
-13.655300 0.000000
-13.618700 0.000000
-13.582100 0.000000
-13.545400 0.000000
-13.508800 0.000000
-13.472100 0.000000
-13.435500 0.000000
-13.398900 0.000000
-13.362200 0.000000
-13.325600 0.000000
-13.288900 0.000000
-13.252300 0.000000
-13.215700 0.000000
-13.179000 0.000000
-13.142400 0.000000
-13.105700 0.000000
-13.069100 0.000000
-13.032500 0.000000
-12.995800 0.000000
-12.959200 0.000000
-12.922500 0.000000
-12.885900 0.000000
-12.849300 0.000000
-12.812600 0.000000
-12.776000 0.000000
-12.739300 0.000000
-12.702700 0.000000
-12.666100 0.000000
-12.629400 0.000000
-12.592800 0.000000
-12.556100 0.000000
-12.519500 0.000000
-12.482900 0.000000
-12.446200 0.000000
-12.409600 0.000000
-12.372900 0.000000
-12.336300 0.000000
-12.299600 0.000000
-12.263000 0.000000
-12.226400 0.000000
-12.189700 0.000000
-12.153100 0.000000
-12.116400 0.000000
-12.079800 0.000000
-12.043200 0.000000
-12.006500 0.000000
-11.969900 0.000000
-11.933200 0.000000
-11.896600 0.000000
-11.860000 0.000000
-11.823300 0.000000
-11.786700 0.000000
-11.750000 0.000000
-11.713400 0.000000
-11.676800 0.000000
-11.640100 0.000000
-11.603500 0.000000
-11.566800 0.000000
-11.530200 0.000000
-11.493600 0.000000
-11.456900 0.000000
-11.420300 0.000000
-11.383600 0.000000
-11.347000 0.000000
-11.310400 0.000000
-11.273700 0.000000
-11.237100 0.000000
-11.200400 0.000000
-11.163800 0.000000
-11.127200 0.000000
-11.090500 0.000000
-11.053900 0.000000
-11.017200 0.000000
-10.980600 0.000000
-10.944000 0.000000
-10.907300 0.000000
-10.870700 0.000000
-10.834000 0.000000
-10.797400 0.000000
-10.760800 0.000000
-10.724100 0.000000
-10.687500 0.000000
-10.650800 0.000000
-10.614200 0.000000
-10.577500 0.000000
-10.540900 0.000000
-10.504300 0.000000
-10.467600 0.000000
-10.431000 0.000000
-10.394300 0.000000
-10.357700 0.000000
-10.321100 0.000000
-10.284400 0.000000
-10.247800 0.000000
-10.211100 0.000000
-10.174500 0.000000
-10.137900 0.000000
-10.101200 0.000000
-10.064600 0.000000
-10.027900 0.000000
-9.991300 0.000000
-9.954700 0.000000
-9.918000 0.000000
-9.881400 0.000000
-9.844700 0.000000
-9.808100 0.000000
-9.771500 0.000000
-9.734800 0.000000
-9.698200 0.000000
-9.661500 0.000000
-9.624900 0.000000
-9.588300 0.000000
-9.551600 0.000000
-9.515000 0.000000
-9.478300 0.000000
-9.441700 0.000000
-9.405100 0.000000
-9.368400 0.000000
-9.331800 0.000000
-9.295100 0.000000
-9.258500 0.000000
-9.221900 0.000000
-9.185200 0.000000
-9.148600 0.000000
-9.111900 0.000000
-9.075300 0.000000
-9.038600 0.000000
-9.002000 0.000000
-8.965400 0.000000
-8.928700 0.000000
-8.892100 0.000000
-8.855400 0.000000
-8.818800 0.000000
-8.782200 0.000000
-8.745500 0.000000
-8.708900 0.000000
-8.672200 0.000000
-8.635600 0.000000
-8.599000 0.000000
-8.562300 0.000000
-8.525700 0.000000
-8.489000 0.000000
-8.452400 0.000000
-8.415800 0.000000
-8.379100 0.000000
-8.342500 0.000000
-8.305800 0.000000
-8.269200 0.000000
-8.232600 0.000000
-8.195900 0.000000
-8.159300 0.000000
-8.122600 0.000000
-8.086000 0.000000
-8.049400 0.000000
-8.012700 0.000000
-7.976100 0.000000
-7.939400 0.000000
-7.902800 0.000000
-7.866200 0.000000
-7.829500 0.000000
-7.792900 0.000000
-7.756200 0.000000
-7.719600 0.000000
-7.683000 0.000000
-7.646300 0.000000
-7.609700 0.000000
-7.573000 0.000000
-7.536400 0.000000
-7.499700 0.000000
-7.463100 0.000000
-7.426500 0.000000
-7.389800 0.000000
-7.353200 0.000000
-7.316500 0.000000
-7.279900 0.000000
-7.243300 0.000000
-7.206600 0.000000
-7.170000 0.000000
-7.133300 0.000000
-7.096700 0.000000
-7.060100 0.000000
-7.023400 0.000000
-6.986800 0.000000
-6.950100 0.000000
-6.913500 0.000000
-6.876900 0.000000
-6.840200 0.000000
-6.803600 0.000000
-6.766900 0.000000
-6.730300 0.000000
-6.693700 0.000000
-6.657000 0.000000
-6.620400 0.000000
-6.583700 0.000000
-6.547100 0.000000
-6.510500 0.000000
-6.473800 0.000000
-6.437200 0.000000
-6.400500 0.000000
-6.363900 0.000000
-6.327300 0.000000
-6.290600 0.000000
-6.254000 0.000000
-6.217300 0.000000
-6.180700 0.000000
-6.144100 0.000000
-6.107400 0.000000
-6.070800 0.000000
-6.034100 0.000000
-5.997500 0.000000
-5.960800 0.000000
-5.924200 0.000000
-5.887600 0.000000
-5.850900 0.000000
-5.814300 0.000000
-5.777600 0.000000
-5.741000 0.000000
-5.704400 0.000000
-5.667700 0.000000
-5.631100 0.000000
-5.594400 0.000000
-5.557800 0.000000
-5.521200 0.000000
-5.484500 0.000000
-5.447900 0.000000
-5.411200 0.000000
-5.374600 0.000000
-5.338000 0.000000
-5.301300 0.000000
-5.264700 0.000000
-5.228000 0.000000
-5.191400 0.000000
-5.154800 0.000000
-5.118100 0.000000
-5.081500 0.000000
-5.044800 0.000000
-5.008200 0.000000
-4.971600 0.000000
-4.934900 0.000000
-4.898300 0.000000
-4.861600 0.000000
-4.825000 0.000000
-4.788400 0.000000
-4.751700 0.000000
-4.715100 0.000000
-4.678400 0.000000
-4.641800 0.000000
-4.605200 0.000000
-4.568500 0.000000
-4.531900 0.000000
-4.495200 0.000000
-4.458600 0.000000
-4.422000 0.000000
-4.385300 0.000000
-4.348700 0.000000
-4.312000 0.000000
-4.275400 0.000000
-4.238700 0.000000
-4.202100 0.000000
-4.165500 0.000000
-4.128800 0.000000
-4.092200 0.000000
-4.055500 0.000000
-4.018900 0.000000
-3.982300 0.000000
-3.945600 0.000000
-3.909000 0.000000
-3.872300 0.000000
-3.835700 0.000000
-3.799100 0.000000
-3.762400 0.000000
-3.725800 0.000000
-3.689100 0.000000
-3.652500 0.000000
-3.615900 0.000000
-3.579200 0.000000
-3.542600 0.000000
-3.505900 0.000000
-3.469300 0.000000
-3.432700 0.000000
-3.396000 0.000000
-3.359400 0.000000
-3.322700 0.000000
-3.286100 0.000000
-3.249500 0.000000
-3.212800 0.000000
-3.176200 0.000000
-3.139500 0.000000
-3.102900 0.000000
-3.066300 0.000000
-3.029600 0.000000
-2.993000 0.000000
-2.956300 0.000000
-2.919700 0.000000
-2.883100 0.000000
-2.846400 0.000000
-2.809800 0.000000
-2.773100 0.000000
-2.736500 0.000000
-2.699800 0.000000
-2.663200 0.000000
-2.626600 0.000000
-2.589900 0.000000
-2.553300 0.000000
-2.516600 0.000000
-2.480000 0.000000
-2.443400 0.000000
-2.406700 0.000000
-2.370100 0.003900
-2.333400 0.015500
-2.296800 0.029800
-2.260200 0.046400
-2.223500 0.052000
-2.186900 0.056400
-2.150200 0.060100
-2.113600 0.065600
-2.077000 0.071700
-2.040300 0.077900
-2.003700 0.083400
-1.967000 0.088800
-1.930400 0.094700
-1.893800 0.099700
-1.857100 0.103900
-1.820500 0.107800
-1.783800 0.111400
-1.747200 0.114800
-1.710600 0.118800
-1.673900 0.123000
-1.637300 0.127500
-1.600600 0.131900
-1.564000 0.136500
-1.527400 0.141300
-1.490700 0.146100
-1.454100 0.150800
-1.417400 0.155600
-1.380800 0.160500
-1.344200 0.164600
-1.307500 0.168900
-1.270900 0.173400
-1.234200 0.178100
-1.197600 0.182900
-1.160900 0.187800
-1.124300 0.192800
-1.087700 0.198200
-1.051000 0.203900
-1.014400 0.209800
-0.977700 0.216000
-0.941100 0.222300
-0.904500 0.228900
-0.867800 0.237600
-0.831200 0.249500
-0.794500 0.259200
-0.757900 0.266200
-0.721300 0.269100
-0.684600 0.267900
-0.648000 0.272500
-0.611300 0.277500
-0.574700 0.282800
-0.538100 0.288400
-0.501400 0.294100
-0.464800 0.300000
-0.428100 0.306000
-0.391500 0.311700
-0.354900 0.317600
-0.318200 0.324400
-0.281600 0.332000
-0.244900 0.340400
-0.208300 0.349500
-0.171700 0.359200
-0.135000 0.369500
-0.098400 0.380400
-0.061700 0.392000
-0.025100 0.404500
0.011500 0.418200
0.048200 0.443100
0.084800 0.493700
0.121500 0.556700
0.158100 0.815600
0.194700 1.079700
0.231400 1.204700
0.268000 1.242700
0.304700 1.295600
0.341300 1.433800
0.378000 1.721500
0.414600 1.804800
0.451200 1.993500
0.487900 2.165100
0.524500 2.222000
0.561200 2.300000
0.597800 2.319100
0.634400 2.402400
0.671100 2.493600
0.707700 2.538700
0.744400 2.657000
0.781000 2.724400
0.817600 2.879800
0.854300 3.067800
0.890900 3.236900
0.927600 3.558900
0.964200 3.580700
1.000800 3.496100
1.037500 3.508800
1.074100 3.529100
1.110800 3.567600
1.147400 3.677800
1.184000 3.878000
1.220700 3.923900
1.257300 4.084200
1.294000 4.034600
1.330600 4.290000
1.367200 4.147700
1.403900 4.311200
1.440500 3.563200
1.477200 3.184600
1.513800 3.273700
1.550400 3.363100
1.587100 3.213700
1.623700 2.898300
1.660400 2.707600
1.697000 2.476200
1.733600 2.788200
1.770300 2.751900
1.806900 3.000500
1.843600 2.343900
1.880200 1.993300
1.916800 1.879700
1.953500 1.834200
1.990100 2.140800
2.026800 2.957700
2.063400 2.960500
2.100100 2.990300
2.136700 3.248200
2.173300 3.491700
2.210000 3.476500
2.246600 3.461600
2.283300 3.630100
2.319900 3.802200
2.356500 3.852700
2.393200 3.893700
2.429800 3.622100
2.466500 3.454300
2.503100 3.336900
2.539700 3.083800
2.576400 3.144500
2.613000 3.175500
2.649700 3.288500
2.686300 3.680300
2.722900 3.850800
2.759600 3.794600
2.796200 3.493200
2.832900 3.413900
2.869500 3.726700
2.906100 4.051300
2.942800 3.977700
2.979400 4.431600
3.016100 5.557100
3.052700 3.908500
3.089300 2.890900
3.126000 2.270900
3.162600 2.944700
3.199300 3.984500
3.235900 5.088800
3.272500 3.090700
3.309200 2.158500
3.345800 2.719500
3.382500 3.232400
3.419100 2.807700
3.455700 2.496500
3.492400 2.297000
3.529000 2.082200
3.565700 1.947200
3.602300 1.942500
3.639000 1.947700
3.675600 1.844000
3.712200 1.893800
3.748900 1.961400
3.785500 1.968300
3.822200 1.881000
3.858800 1.562200
3.895400 1.589000
3.932100 1.647700
3.968700 1.747800
4.005400 1.746800
4.042000 1.860700
4.078600 1.910800
4.115300 1.918200
4.151900 1.922100
4.188600 2.075200
4.225200 2.173600
4.261800 2.214700
4.298500 2.060700
4.335100 1.974700
4.371800 1.965600
4.408400 2.011700
4.445000 1.870200
4.481700 1.856300
4.518300 1.949100
4.555000 2.024200
4.591600 1.805500
4.628200 1.749000
4.664900 1.699400
4.701500 1.706000
4.738200 1.646800
4.774800 1.946900
4.811400 1.828900
4.848100 1.811700
4.884700 1.846800
4.921400 1.892100
4.958000 1.906500
4.994600 1.974800
5.031300 2.150500
5.067900 2.267600
5.104600 2.389500
5.141200 2.483000
5.177900 2.551200
5.214500 2.793500
5.251100 2.852500
5.287800 2.650000
5.324400 2.574000
5.361100 2.525700
5.397700 2.385800
5.434300 2.358900
5.471000 2.751900
5.507600 2.214900
5.544300 1.579400
5.580900 1.342600
5.617500 1.221800
5.654200 1.194400
5.690800 1.210000
5.727500 1.229000
5.764100 1.232600
5.800700 1.380500
5.837400 1.467100
5.874000 1.529500
5.910700 1.589800
5.947300 1.594200
5.983900 1.641500
6.020600 1.750600
6.057200 1.816800
6.093900 1.836800
6.130500 1.859300
6.167100 1.851100
6.203800 1.856800
6.240400 1.812700
6.277100 1.738600
6.313700 1.629000
6.350300 1.559800
6.387000 1.518800
6.423600 1.654400
6.460300 1.875900
6.496900 1.770600
6.533500 1.587800
6.570200 1.492200
6.606800 1.435000
6.643500 1.385600
6.680100 1.376500
6.716700 1.352500
6.753400 1.313100
6.790000 1.333800
6.826700 1.365000
6.863300 1.402700
6.900000 1.442000
6.936600 1.487300
6.973200 1.459200
7.009900 1.356100
7.046500 1.309100
7.083200 1.303100
7.119800 1.307700
7.156400 1.261800
7.193100 1.188000
7.229700 1.157700
7.266400 1.144600
7.303000 1.150900
7.339600 1.167000
7.376300 1.194300
7.412900 1.240800
7.449600 1.264000
7.486200 1.294100
7.522800 1.337500
7.559500 1.355600
7.596100 1.343400
7.632800 1.328200
7.669400 1.299400
7.706000 1.285700
7.742700 1.282700
7.779300 1.284900
7.816000 1.293400
7.852600 1.309700
7.889200 1.336200
7.925900 1.371800
7.962500 1.436700
7.999200 1.497500
8.035800 1.475200
8.072400 1.400800
8.109100 1.340200
8.145700 1.329500
8.182400 1.482100
8.219000 1.403700
8.255600 1.393600
8.292300 1.391600
8.328900 1.389900
8.365600 1.388400
8.402200 1.419700
8.438900 1.524600
8.475500 1.546700
8.512100 1.807700
8.548800 1.874100
8.585400 1.791400
8.622100 1.876700
8.658700 1.594200
8.695300 1.345000
8.732000 1.203900
8.768600 1.143300
8.805300 1.092700
8.841900 1.060700
8.878500 1.090300
8.915200 1.118800
8.951800 1.254200
8.988500 1.285900
9.025100 1.355300
9.061700 1.565800
9.098400 1.403900
9.135000 1.348900
9.171700 1.274300
9.208300 1.261100
9.244900 1.300300
9.281600 1.474900
9.318200 1.418600
9.354900 1.464600
9.391500 1.535500
9.428100 1.651700
9.464800 1.608900
9.501400 1.513100
9.538100 1.482700
9.574700 1.458500
9.611300 1.396700
9.648000 1.340400
9.684600 1.298900
9.721300 1.237100
9.757900 1.183300
9.794500 1.143600
9.831200 1.108600
9.867800 1.053400
9.904500 0.997900
9.941100 0.956900
9.977800 0.926900
10.014400 0.857000
10.051000 0.818700
10.087700 0.818100
10.124300 0.816600
10.161000 0.814400
10.197600 0.812100
10.234200 0.808600
10.270900 0.798300
10.307500 0.790300
10.344200 0.787200
10.380800 0.785100
10.417400 0.784600
10.454100 0.785100
10.490700 0.786600
10.527400 0.788400
10.564000 0.790200
10.600600 0.791400
10.637300 0.792700
10.673900 0.794500
10.710600 0.797200
10.747200 0.800000
10.783800 0.802900
10.820500 0.807300
10.857100 0.812200
10.893800 0.817800
10.930400 0.822100
10.967000 0.828800
11.003700 0.839800
11.040300 0.847600
11.077000 0.851800
11.113600 0.855700
11.150200 0.856700
11.186900 0.859500
11.223500 0.863000
11.260200 0.867000
11.296800 0.872700
11.333400 0.886100
11.370100 0.897800
11.406700 0.896900
11.443400 0.899800
11.480000 0.910800
11.516700 0.928300
11.553300 0.954200
11.589900 1.000000
11.626600 1.089200
11.663200 1.101300
11.699900 1.097400
11.736500 1.107900
11.773100 1.021500
11.809800 0.990000
11.846400 0.949000
11.883100 0.902300
11.919700 0.861900
11.956300 0.844100
11.993000 0.845000
12.029600 0.859200
12.066300 0.872400
12.102900 0.988400
12.139500 0.908400
12.176200 0.833700
12.212800 0.875200
12.249500 0.787500
12.286100 0.623300
12.322700 0.608000
12.359400 0.602600
12.396000 0.625400
12.432700 0.659400
12.469300 0.675200
12.505900 0.682300
12.542600 0.693100
12.579200 0.712500
12.615900 0.732600
12.652500 0.749900
12.689100 0.765300
12.725800 0.777100
12.762400 0.783800
12.799100 0.804400
12.835700 0.823100
12.872300 0.760700
12.909000 0.673300
12.945600 0.658500
12.982300 0.650700
13.018900 0.627300
13.055500 0.595500
13.092200 0.556000
13.128800 0.514700
13.165500 0.473200
13.202100 0.444000
13.238800 0.425000
13.275400 0.408800
13.312000 0.392600
13.348700 0.374700
13.385300 0.357900
13.422000 0.342800
13.458600 0.329700
13.495200 0.321000
13.531900 0.313000
13.568500 0.300800
13.605200 0.283800
13.641800 0.260600
13.678400 0.237200
13.715100 0.225800
13.751700 0.219300
13.788400 0.216700
13.825000 0.215700
13.861600 0.215400
13.898300 0.218600
13.934900 0.238700
13.971600 0.301000
14.008200 0.438900
14.044800 0.598700
14.081500 0.731200
14.118100 0.845500
14.154800 0.919200
14.191400 0.989100
14.228000 0.922300
14.264700 0.912800
14.301300 0.976500
14.338000 1.045500
14.374600 1.054400
14.411200 1.066500
14.447900 1.091800
14.484500 1.118800
14.521200 1.110600
14.557800 1.070400
14.594400 1.018300
14.631100 0.995300
14.667700 0.998000
14.704400 1.046100
14.741000 1.064600
14.777700 1.038000
14.814300 1.051800
14.850900 1.026700
14.887600 0.997600
14.924200 0.967100
14.960900 0.947200
14.997500 0.932800
15.034100 0.925600
15.070800 0.916400
15.107400 0.903800
15.144100 0.889500
15.180700 0.873000
15.217300 0.848800
15.254000 0.817300
15.290600 0.797800
15.327300 0.775000
15.363900 0.755700
15.400500 0.715800
15.437200 0.671400
15.473800 0.637300
15.510500 0.618000
15.547100 0.606000
15.583700 0.620100
15.620400 0.609300
15.657000 0.599400
15.693700 0.592500
15.730300 0.586300
15.766900 0.581500
15.803600 0.577600
15.840200 0.574000
15.876900 0.571300
15.913500 0.569400
15.950100 0.568400
15.986800 0.568900
16.023400 0.577700
16.060100 0.592700
16.096700 0.645300
16.133300 0.695800
16.170000 0.746000
16.206600 0.792100
16.243300 0.828700
16.279900 0.862700
16.316600 0.924700
16.353200 0.940600
16.389800 0.942700
16.426500 0.945100
16.463100 0.935300
16.499800 0.921300
16.536400 0.910500
16.573000 0.903500
16.609700 0.909300
16.646300 0.910400
16.683000 0.909600
16.719600 0.874300
16.756200 0.892200
16.792900 0.903300
16.829500 0.901400
16.866200 0.890700
16.902800 0.883300
16.939400 0.902000
16.976100 0.908700
17.012700 0.906200
17.049400 0.901000
17.086000 0.889700
17.122600 0.892900
17.159300 0.898500
17.195900 0.904800
17.232600 0.914100
17.269200 0.926900
17.305800 0.942900
17.342500 0.962300
17.379100 1.028300
17.415800 1.066900
17.452400 1.094000
17.489000 1.149900
17.525700 1.227500
17.562300 1.277300
17.599000 1.312800
17.635600 1.348800
17.672200 1.405200
17.708900 1.430800
17.745500 1.452300
17.782200 1.504600
17.818800 1.584800
17.855500 1.595200
17.892100 1.643700
17.928700 1.731700
17.965400 1.850700
18.002000 2.034500
18.038700 2.308700
18.075300 2.806800
18.111900 4.092200
18.148600 24.036500
18.185200 3.955500
18.221900 2.849500
18.258500 2.355100
18.295100 2.086900
18.331800 1.887700
18.368400 1.768700
18.405100 1.738400
18.441700 1.679000
18.478300 1.618000
18.515000 1.561800
18.551600 1.504500
18.588300 1.451400
18.624900 1.412000
18.661500 1.382700
18.698200 1.358800
18.734800 1.334500
18.771500 1.312400
18.808100 1.291200
18.844700 1.261600
18.881400 1.244400
18.918000 1.238400
18.954700 1.233600
18.991300 1.225300
19.027900 1.212900
19.064600 1.199000
19.101200 1.173000
19.137900 1.152600
19.174500 1.139700
19.211100 1.135900
19.247800 1.129600
19.284400 1.123400
19.321100 1.118200
19.357700 1.113300
19.394300 1.108600
19.431000 1.118200
19.467600 1.141900
19.504300 1.157800
19.540900 1.157900
19.577600 1.172900
19.614200 1.189900
19.650800 1.211700
19.687500 1.237400
19.724100 1.252500
19.760800 1.258900
19.797400 1.260900
19.834000 1.271900
19.870700 1.301500
19.907300 1.453200
19.944000 1.346700
19.980600 1.325300
20.017200 1.321200
20.053900 1.321400
20.090500 1.325900
20.127200 1.336100
20.163800 1.349900
20.200400 1.365700
20.237100 1.387100
20.273700 1.412100
20.310400 1.430300
20.347000 1.444600
20.383600 1.457900
20.420300 1.471100
20.456900 1.484000
20.493600 1.489800
20.530200 1.499700
20.566800 1.474700
20.603500 1.400800
20.640100 1.355500
20.676800 1.308600
20.713400 1.263400
20.750000 1.227800
20.786700 1.205400
20.823300 1.213800
20.860000 1.238000
20.896600 1.262800
20.933200 1.323900
20.969900 1.353400
21.006500 1.385600
21.043200 1.404200
21.079800 1.418400
21.116500 1.435900
21.153100 1.443700
21.189700 1.461800
21.226400 1.487100
21.263000 1.474000
21.299700 1.638100
21.336300 1.690500
21.372900 1.552900
21.409600 1.458600
21.446200 1.401100
21.482900 1.357400
21.519500 1.322100
21.556100 1.289200
21.592800 1.270900
21.629400 1.240700
21.666100 1.198400
21.702700 1.178200
21.739300 1.167800
21.776000 1.149800
21.812600 1.127800
21.849300 1.113300
21.885900 1.118600
21.922500 1.144800
21.959200 1.156100
21.995800 1.148800
22.032500 1.153200
22.069100 1.156300
22.105700 1.099400
22.142400 1.042600
22.179000 1.004800
22.215700 1.008500
22.252300 1.027600
22.288900 1.044200
22.325600 1.024100
22.362200 0.974100
22.398900 0.941800
22.435500 0.940600
22.472100 0.959000
22.508800 1.033600
22.545400 1.116700
22.582100 1.192700
22.618700 1.261600
22.655400 1.332000
22.692000 1.464400
22.728600 1.590100
22.765300 1.663500
22.801900 1.742300
22.838600 1.787100
22.875200 1.816100
22.911800 1.869300
22.948500 1.799300
22.985100 1.666300
23.021800 1.612900
23.058400 1.582100
23.095000 1.556100
23.131700 1.511700
23.168300 1.425400
23.205000 1.362800
23.241600 1.320900
23.278200 1.288200
23.314900 1.264500
23.351500 1.244100
23.388200 1.223500
23.424800 1.132000
23.461400 1.095000
23.498100 1.066900
23.534700 1.042700
23.571400 1.014700
23.608000 0.963800
23.644600 0.891400
23.681300 0.861500
23.717900 0.854400
23.754600 0.846900
23.791200 0.828800
23.827800 0.819400
23.864500 0.815700
23.901100 0.823500
23.937800 0.886700
23.974400 0.873500
24.011000 0.927000
24.047700 1.052400
24.084300 1.130700
24.121000 1.141300
24.157600 1.173500
24.194300 1.071200
24.230900 1.043300
24.267500 1.016500
24.304200 0.976200
24.340800 0.960100
24.377500 0.964300
24.414100 0.969000
24.450700 1.007400
24.487400 1.026600
24.524000 1.022000
24.560700 1.020200
24.597300 1.044100
24.633900 1.084600
24.670600 1.132000
24.707200 1.171600
24.743900 1.191800
24.780500 1.205500
24.817100 1.215400
24.853800 1.244900
24.890400 1.239000
24.927100 1.242500
24.963700 1.265600
25.000300 1.252000
25.037000 1.236900
25.073600 1.214500
25.110300 1.176000
25.146900 1.175100
25.183500 1.192000
25.220200 1.173200
25.256800 1.136600
25.293500 1.103700
25.330100 1.076700
25.366700 1.061000
25.403400 1.050700
25.440000 1.042900
25.476700 1.039100
25.513300 1.047000
25.549900 1.059300
25.586600 1.111000
25.623200 1.165500
25.659900 1.218000
25.696500 1.272100
25.733100 1.330100
25.769800 1.399000
25.806400 1.492500
25.843100 1.652400
25.879700 1.741700
25.916400 1.835800
25.953000 2.072500
25.989600 2.013600
26.026300 1.976000
26.062900 1.989800
26.099600 1.912800
26.136200 1.911600
26.172800 1.892500
26.209500 1.863700
26.246100 1.823500
26.282800 1.810500
26.319400 1.840400
26.356000 1.906200
26.392700 1.934400
26.429300 1.952800
26.466000 2.050800
26.502600 2.163600
26.539200 2.309700
26.575900 2.487100
26.612500 2.671900
26.649200 2.864000
26.685800 3.040100
26.722400 3.517100
26.759100 5.025900
26.795700 7.271000
26.832400 5.580100
26.869000 5.329200
26.905600 5.239300
26.942300 5.371700
26.978900 5.665800
27.015600 19.498400
27.052200 4.735500
27.088800 3.019800
27.125500 2.468200
27.162100 2.152000
27.198800 1.929200
27.235400 1.770400
27.272000 1.660100
27.308700 1.578600
27.345300 1.528800
27.382000 1.450000
27.418600 1.408300
27.455300 1.346500
27.491900 1.287100
27.528500 1.254900
27.565200 1.221100
27.601800 1.176400
27.638500 1.108100
27.675100 1.038000
27.711700 0.956900
27.748400 0.893900
27.785000 0.858000
27.821700 0.821200
27.858300 0.785300
27.894900 0.752700
27.931600 0.728600
27.968200 0.712400
28.004900 0.700400
28.041500 0.694900
28.078100 0.706500
28.114800 0.709800
28.151400 0.707700
28.188100 0.696900
28.224700 0.687400
28.261300 0.725100
28.298000 0.794400
28.334600 0.795400
28.371300 0.767600
28.407900 0.714400
28.444500 0.679400
28.481200 0.666600
28.517800 0.639600
28.554500 0.615600
28.591100 0.615400
28.627700 0.618300
28.664400 0.625600
28.701000 0.639600
28.737700 0.663500
28.774300 0.696100
28.810900 0.734500
28.847600 0.775800
28.884200 0.902200
28.920900 1.045000
28.957500 1.007300
28.994200 1.036400
29.030800 1.208500
29.067400 1.191500
29.104100 1.189600
29.140700 1.194100
29.177400 1.184800
29.214000 1.190700
29.250600 1.170400
29.287300 1.158300
29.323900 1.192200
29.360600 1.222800
29.397200 1.235900
29.433800 1.242300
29.470500 1.261700
29.507100 1.285500
29.543800 1.295700
29.580400 1.301300
29.617000 1.293400
29.653700 1.263500
29.690300 1.207400
29.727000 1.185300
29.763600 1.138600
29.800200 1.069000
29.836900 1.006400
29.873500 0.959200
29.910200 0.935500
29.946800 0.926900
29.983400 0.938400
30.020100 1.008200
30.056700 1.087600
30.093400 1.180500
30.130000 1.339400
30.166600 1.417800
30.203300 1.467600
30.239900 1.488500
30.276600 1.437500
30.313200 1.427500
30.349800 1.408400
30.386500 1.380400
30.423100 1.422500
30.459800 1.328800
30.496400 1.301600
30.533100 1.265000
30.569700 1.250700
30.606300 1.222800
30.643000 1.143100
30.679600 1.109900
30.716300 1.112000
30.752900 1.097500
30.789500 1.106500
30.826200 1.121300
30.862800 1.145100
30.899500 1.184900
30.936100 1.219200
30.972700 1.219700
31.009400 1.220600
31.046000 1.237600
31.082700 1.267400
31.119300 1.308300
31.155900 1.335400
31.192600 1.342200
31.229200 1.342700
31.265900 1.377500
31.302500 1.389000
31.339100 1.384500
31.375800 1.400000
31.412400 1.434800
31.449100 1.441800
31.485700 1.685300
31.522300 1.342200
31.559000 1.332300
31.595600 1.326300
31.632300 1.325800
31.668900 1.323100
31.705500 1.327700
31.742200 1.337300
31.778800 1.299200
31.815500 1.257400
31.852100 1.228900
31.888700 1.211900
31.925400 1.200700
31.962000 1.204500
31.998700 1.224500
32.035300 1.250500
32.071900 1.283200
32.108600 1.326700
32.145200 1.400600
32.181900 1.461600
32.218500 1.466200
32.255200 1.452300
32.291800 1.484400
32.328400 1.502700
32.365100 1.578700
32.401700 1.615800
32.438400 1.667200
32.475000 1.658100
32.511600 1.646100
32.548300 1.689900
32.584900 1.760500
32.621600 1.785900
32.658200 1.758000
32.694800 1.702600
32.731500 1.651500
32.768100 1.625100
32.804800 1.635100
32.841400 1.629200
32.878000 1.681000
32.914700 1.698600
32.951300 1.667800
32.988000 1.684400
33.024600 1.709300
33.061200 1.745700
33.097900 1.841900
33.134500 1.895900
33.171200 1.904600
33.207800 1.867400
33.244400 1.785600
33.281100 1.764400
33.317700 1.623500
33.354400 1.587600
33.391000 1.543800
33.427600 1.496400
33.464300 1.451700
33.500900 1.416200
33.537600 1.407600
33.574200 1.466200
33.610800 1.514500
33.647500 1.432700
33.684100 1.426900
33.720800 1.425200
33.757400 1.464500
33.794100 1.497400
33.830700 1.512500
33.867300 1.566500
33.904000 1.569600
33.940600 1.604200
33.977300 1.700800
34.013900 1.765800
34.050500 1.764300
34.087200 1.794800
34.123800 1.849200
34.160500 1.907800
34.197100 1.962600
34.233700 1.983000
34.270400 1.953000
34.307000 1.876200
34.343700 1.782900
34.380300 1.729000
34.416900 1.682700
34.453600 1.619800
34.490200 1.556500
34.526900 1.521500
34.563500 1.500700
34.600100 1.488500
34.636800 1.456100
34.673400 1.383100
34.710100 1.289000
34.746700 1.190900
34.783300 1.097000
34.820000 1.032700
34.856600 0.993600
34.893300 0.983700
34.929900 1.026900
34.966500 0.969000
35.003200 0.905500
35.039800 0.853400
35.076500 0.829000
35.113100 0.788500
35.149700 0.774900
35.186400 0.761700
35.223000 0.749600
35.259700 0.741400
35.296300 0.722300
35.333000 0.699400
35.369600 0.674800
35.406200 0.657200
35.442900 0.640900
35.479500 0.633200
35.516200 0.621700
35.552800 0.609800
35.589400 0.597400
35.626100 0.583300
35.662700 0.566100
35.699400 0.552300
35.736000 0.591100
35.772600 0.529900
35.809300 0.457700
35.845900 0.433300
35.882600 0.414600
35.919200 0.405700
35.955800 0.391000
35.992500 0.376800
36.029100 0.364400
36.065800 0.351000
36.102400 0.331200
36.139000 0.313700
36.175700 0.298900
36.212300 0.289800
36.249000 0.280600
36.285600 0.271000
36.322200 0.260700
36.358900 0.250300
36.395500 0.239400
36.432200 0.228100
36.468800 0.217800
36.505400 0.209000
36.542100 0.200800
36.578700 0.193100
36.615400 0.185300
36.652000 0.174800
36.688600 0.166200
36.725300 0.160400
36.761900 0.156000
36.798600 0.151300
36.835200 0.145900
36.871900 0.140500
36.908500 0.136500
36.945100 0.134800
36.981800 0.136000
37.018400 0.184100
37.055100 0.139600
37.091700 0.118100
37.128300 0.109200
37.165000 0.097600
37.201600 0.083800
37.238300 0.067900
37.274900 0.052700
37.311500 0.039500
37.348200 0.028400
37.384800 0.019300
37.421500 0.011200
37.458100 0.005100
37.494700 0.001400
37.531400 0.000000
37.568000 0.000000
37.604700 0.000000
37.641300 0.000000
37.677900 0.000000
37.714600 0.000000
37.751200 0.000000
37.787900 0.000000
37.824500 0.000000
37.861100 0.000000
37.897800 0.000000
37.934400 0.000000
37.971100 0.000000
38.007700 0.000000
38.044300 0.000000
38.081000 0.000000
38.117600 0.000000
38.154300 0.000000
38.190900 0.000000
38.227500 0.000000
38.264200 0.000000
38.300800 0.000000
38.337500 0.000000
38.374100 0.000000
38.410700 0.000000
38.447400 0.000000
38.484000 0.000000
38.520700 0.000000
38.557300 0.000000
38.594000 0.000000
38.630600 0.000000
38.667200 0.000000
38.703900 0.000000
38.740500 0.000000
38.777200 0.000000
38.813800 0.000000
38.850400 0.000000
38.887100 0.000000
38.923700 0.000000
38.960400 0.000000
38.997000 0.000000
39.033600 0.000000
39.070300 0.000000
39.106900 0.000000
39.143600 0.000000
39.180200 0.000000
39.216800 0.000000
39.253500 0.000000
39.290100 0.000000
39.326800 0.000000
39.363400 0.000000
39.400000 0.000000
39.436700 0.000000
39.473300 0.000000
39.510000 0.000000
39.546600 0.000000
39.583200 0.000000
39.619900 0.000000
39.656500 0.000000
39.693200 0.000000
39.729800 0.000000
39.766400 0.000000
39.803100 0.000000
39.839700 0.000000
39.876400 0.000000
39.913000 0.000000
39.949600 0.000000
39.986300 0.000000
40.022900 0.000000
40.059600 0.000000
40.096200 0.000000
40.132900 0.000000
40.169500 0.000000
40.206100 0.000000
40.242800 0.000000
40.279400 0.000000
40.316100 0.000000
40.352700 0.000000
40.389300 0.000000
40.426000 0.000000
40.462600 0.000000
40.499300 0.000000
40.535900 0.000000
40.572500 0.000000
40.609200 0.000000
40.645800 0.000000
40.682500 0.000000
40.719100 0.000000
40.755700 0.000000
40.792400 0.000000
40.829000 0.000000
40.865700 0.000000
e
