set title 'mp-977403 - Density of States'
set xlabel 'Energy (eV)'
set ylabel 'DOS (states/eV)'
set grid
set xrange [-10:10]
set yrange [0:83.988]
set xzeroaxis lt -1
set terminal png size 800,600
set output 'mp-977403_dos_gnuplot.png'
plot '-' using 1:2 with lines title 'DOS'
-25.050800 0.000000
-25.025500 0.000000
-25.000200 0.000000
-24.974900 0.000000
-24.949600 0.000000
-24.924300 0.000000
-24.899000 0.000000
-24.873700 0.000000
-24.848400 0.000000
-24.823100 0.000000
-24.797800 0.000000
-24.772500 0.000000
-24.747200 0.000000
-24.721900 0.000000
-24.696600 0.000000
-24.671300 0.000000
-24.646000 0.000000
-24.620700 0.000000
-24.595400 0.000000
-24.570100 0.000000
-24.544800 0.000000
-24.519500 0.000000
-24.494200 0.000000
-24.468900 0.000000
-24.443600 0.000000
-24.418300 0.000000
-24.393000 0.000000
-24.367700 0.000000
-24.342400 0.000000
-24.317100 0.000000
-24.291800 0.000000
-24.266500 0.000000
-24.241200 0.000000
-24.215900 0.000000
-24.190700 0.000000
-24.165400 0.000000
-24.140100 0.000000
-24.114800 0.000000
-24.089500 0.000000
-24.064200 0.000000
-24.038900 0.000000
-24.013600 0.000000
-23.988300 0.000000
-23.963000 0.000000
-23.937700 0.000000
-23.912400 0.000000
-23.887100 0.000000
-23.861800 0.000000
-23.836500 0.000000
-23.811200 0.000000
-23.785900 0.000000
-23.760600 0.000000
-23.735300 0.000000
-23.710000 0.000000
-23.684700 0.000000
-23.659400 0.000000
-23.634100 0.000000
-23.608800 0.000000
-23.583500 0.000000
-23.558200 0.000000
-23.532900 0.000000
-23.507600 0.000000
-23.482300 0.000000
-23.457000 0.000000
-23.431700 0.000000
-23.406400 0.000000
-23.381100 0.000000
-23.355800 0.000000
-23.330500 0.000000
-23.305200 0.000000
-23.279900 0.000000
-23.254600 0.000000
-23.229300 0.000000
-23.204000 0.000000
-23.178700 0.000000
-23.153400 0.000000
-23.128100 0.000000
-23.102800 0.000000
-23.077500 0.000000
-23.052200 0.000000
-23.026900 0.000000
-23.001600 0.000000
-22.976300 0.000000
-22.951000 0.000000
-22.925700 0.000000
-22.900400 0.000800
-22.875100 0.015900
-22.849800 0.193400
-22.824500 1.479100
-22.799200 7.211200
-22.773900 22.713000
-22.748700 46.773900
-22.723400 64.304600
-22.698100 65.034800
-22.672800 67.878600
-22.647500 94.679100
-22.622200 124.020700
-22.596900 114.489700
-22.571600 68.869600
-22.546300 26.406900
-22.521000 6.381100
-22.495700 0.963700
-22.470400 0.090400
-22.445100 0.005200
-22.419800 0.000200
-22.394500 0.000000
-22.369200 0.000000
-22.343900 0.000000
-22.318600 0.000000
-22.293300 0.000000
-22.268000 0.000000
-22.242700 0.000000
-22.217400 0.000000
-22.192100 0.000000
-22.166800 0.000000
-22.141500 0.000000
-22.116200 0.000000
-22.090900 0.000000
-22.065600 0.000000
-22.040300 0.000000
-22.015000 0.000000
-21.989700 0.000000
-21.964400 0.000000
-21.939100 0.000000
-21.913800 0.000000
-21.888500 0.000000
-21.863200 0.000000
-21.837900 0.000000
-21.812600 0.000000
-21.787300 0.000000
-21.762000 0.000000
-21.736700 0.000000
-21.711400 0.000000
-21.686100 0.000000
-21.660800 0.000000
-21.635500 0.000000
-21.610200 0.000000
-21.584900 0.000000
-21.559600 0.000000
-21.534300 0.000000
-21.509000 0.000000
-21.483700 0.000000
-21.458400 0.000000
-21.433100 0.000000
-21.407800 0.000000
-21.382500 0.000000
-21.357200 0.000000
-21.331900 0.000000
-21.306700 0.000000
-21.281400 0.000000
-21.256100 0.000000
-21.230800 0.000000
-21.205500 0.000000
-21.180200 0.000000
-21.154900 0.000000
-21.129600 0.000000
-21.104300 0.000000
-21.079000 0.000000
-21.053700 0.000000
-21.028400 0.000000
-21.003100 0.000000
-20.977800 0.000000
-20.952500 0.000000
-20.927200 0.000000
-20.901900 0.000000
-20.876600 0.000000
-20.851300 0.000000
-20.826000 0.000000
-20.800700 0.000000
-20.775400 0.000000
-20.750100 0.000000
-20.724800 0.000000
-20.699500 0.000000
-20.674200 0.000000
-20.648900 0.000000
-20.623600 0.000000
-20.598300 0.000000
-20.573000 0.000000
-20.547700 0.000000
-20.522400 0.000000
-20.497100 0.000000
-20.471800 0.000000
-20.446500 0.000000
-20.421200 0.000000
-20.395900 0.000000
-20.370600 0.000000
-20.345300 0.000000
-20.320000 0.000000
-20.294700 0.000000
-20.269400 0.000000
-20.244100 0.000000
-20.218800 0.000000
-20.193500 0.000000
-20.168200 0.000000
-20.142900 0.000000
-20.117600 0.000000
-20.092300 0.000000
-20.067000 0.000000
-20.041700 0.000000
-20.016400 0.000000
-19.991100 0.000000
-19.965800 0.000000
-19.940500 0.000000
-19.915200 0.000000
-19.889900 0.000000
-19.864700 0.000000
-19.839400 0.000000
-19.814100 0.000000
-19.788800 0.000000
-19.763500 0.000000
-19.738200 0.000000
-19.712900 0.000000
-19.687600 0.000000
-19.662300 0.000000
-19.637000 0.000000
-19.611700 0.000000
-19.586400 0.000000
-19.561100 0.000000
-19.535800 0.000000
-19.510500 0.000000
-19.485200 0.000000
-19.459900 0.000000
-19.434600 0.000000
-19.409300 0.000000
-19.384000 0.000000
-19.358700 0.000000
-19.333400 0.000000
-19.308100 0.000000
-19.282800 0.000000
-19.257500 0.000000
-19.232200 0.000000
-19.206900 0.000000
-19.181600 0.000000
-19.156300 0.000000
-19.131000 0.000000
-19.105700 0.000000
-19.080400 0.000000
-19.055100 0.000000
-19.029800 0.000000
-19.004500 0.000000
-18.979200 0.000000
-18.953900 0.000000
-18.928600 0.000000
-18.903300 0.000000
-18.878000 0.000000
-18.852700 0.000000
-18.827400 0.000000
-18.802100 0.000000
-18.776800 0.000000
-18.751500 0.000000
-18.726200 0.000000
-18.700900 0.000000
-18.675600 0.000000
-18.650300 0.000000
-18.625000 0.000000
-18.599700 0.000000
-18.574400 0.000000
-18.549100 0.000000
-18.523800 0.000000
-18.498500 0.000000
-18.473200 0.000000
-18.448000 0.000000
-18.422700 0.000000
-18.397400 0.000000
-18.372100 0.000000
-18.346800 0.000000
-18.321500 0.000000
-18.296200 0.000000
-18.270900 0.000000
-18.245600 0.000000
-18.220300 0.000000
-18.195000 0.000000
-18.169700 0.000000
-18.144400 0.000000
-18.119100 0.000000
-18.093800 0.000000
-18.068500 0.000000
-18.043200 0.000000
-18.017900 0.000000
-17.992600 0.000000
-17.967300 0.000000
-17.942000 0.000000
-17.916700 0.000000
-17.891400 0.000000
-17.866100 0.000000
-17.840800 0.000000
-17.815500 0.000000
-17.790200 0.000000
-17.764900 0.000000
-17.739600 0.000000
-17.714300 0.000000
-17.689000 0.000000
-17.663700 0.000000
-17.638400 0.000000
-17.613100 0.000000
-17.587800 0.000000
-17.562500 0.000000
-17.537200 0.000000
-17.511900 0.000000
-17.486600 0.000000
-17.461300 0.000000
-17.436000 0.000000
-17.410700 0.000000
-17.385400 0.000000
-17.360100 0.000000
-17.334800 0.000000
-17.309500 0.000000
-17.284200 0.000000
-17.258900 0.000000
-17.233600 0.000000
-17.208300 0.000000
-17.183000 0.000000
-17.157700 0.000000
-17.132400 0.000000
-17.107100 0.000000
-17.081800 0.000000
-17.056500 0.000000
-17.031200 0.000000
-17.006000 0.000000
-16.980700 0.000000
-16.955400 0.000000
-16.930100 0.000000
-16.904800 0.000000
-16.879500 0.000000
-16.854200 0.000000
-16.828900 0.000000
-16.803600 0.000000
-16.778300 0.000000
-16.753000 0.000000
-16.727700 0.000000
-16.702400 0.000000
-16.677100 0.000000
-16.651800 0.000000
-16.626500 0.000000
-16.601200 0.000000
-16.575900 0.000000
-16.550600 0.000000
-16.525300 0.000000
-16.500000 0.000000
-16.474700 0.000000
-16.449400 0.000000
-16.424100 0.000000
-16.398800 0.000000
-16.373500 0.000000
-16.348200 0.000000
-16.322900 0.000000
-16.297600 0.000000
-16.272300 0.000000
-16.247000 0.000000
-16.221700 0.000000
-16.196400 0.000000
-16.171100 0.000000
-16.145800 0.000000
-16.120500 0.000000
-16.095200 0.000000
-16.069900 0.000000
-16.044600 0.000000
-16.019300 0.000000
-15.994000 0.000000
-15.968700 0.000000
-15.943400 0.000000
-15.918100 0.000000
-15.892800 0.000000
-15.867500 0.000000
-15.842200 0.000000
-15.816900 0.000000
-15.791600 0.000000
-15.766300 0.000000
-15.741000 0.000000
-15.715700 0.000000
-15.690400 0.000000
-15.665100 0.000000
-15.639800 0.000000
-15.614500 0.000000
-15.589200 0.000000
-15.564000 0.000000
-15.538700 0.000000
-15.513400 0.000000
-15.488100 0.000000
-15.462800 0.000000
-15.437500 0.000000
-15.412200 0.000000
-15.386900 0.000000
-15.361600 0.000000
-15.336300 0.000000
-15.311000 0.000000
-15.285700 0.000000
-15.260400 0.000000
-15.235100 0.000000
-15.209800 0.000000
-15.184500 0.000000
-15.159200 0.000000
-15.133900 0.000000
-15.108600 0.000000
-15.083300 0.000000
-15.058000 0.000000
-15.032700 0.000000
-15.007400 0.000000
-14.982100 0.000000
-14.956800 0.000000
-14.931500 0.000000
-14.906200 0.000000
-14.880900 0.000000
-14.855600 0.000000
-14.830300 0.000000
-14.805000 0.000000
-14.779700 0.000000
-14.754400 0.000000
-14.729100 0.000000
-14.703800 0.000000
-14.678500 0.000000
-14.653200 0.000000
-14.627900 0.000000
-14.602600 0.000000
-14.577300 0.000000
-14.552000 0.000000
-14.526700 0.000000
-14.501400 0.000000
-14.476100 0.000000
-14.450800 0.000000
-14.425500 0.000000
-14.400200 0.000000
-14.374900 0.000000
-14.349600 0.000000
-14.324300 0.000000
-14.299000 0.000000
-14.273700 0.000000
-14.248400 0.000000
-14.223100 0.000000
-14.197800 0.000000
-14.172500 0.000000
-14.147200 0.000000
-14.122000 0.000000
-14.096700 0.000000
-14.071400 0.000000
-14.046100 0.000000
-14.020800 0.000000
-13.995500 0.000000
-13.970200 0.000000
-13.944900 0.000000
-13.919600 0.000000
-13.894300 0.000000
-13.869000 0.000000
-13.843700 0.000000
-13.818400 0.000000
-13.793100 0.000000
-13.767800 0.000000
-13.742500 0.000000
-13.717200 0.000000
-13.691900 0.000000
-13.666600 0.000000
-13.641300 0.000000
-13.616000 0.000000
-13.590700 0.000000
-13.565400 0.000000
-13.540100 0.000000
-13.514800 0.000000
-13.489500 0.000000
-13.464200 0.000000
-13.438900 0.000000
-13.413600 0.000000
-13.388300 0.000000
-13.363000 0.000000
-13.337700 0.000000
-13.312400 0.000000
-13.287100 0.000000
-13.261800 0.000000
-13.236500 0.000000
-13.211200 0.000000
-13.185900 0.000000
-13.160600 0.000000
-13.135300 0.000000
-13.110000 0.000000
-13.084700 0.000000
-13.059400 0.000000
-13.034100 0.000000
-13.008800 0.000000
-12.983500 0.000000
-12.958200 0.000000
-12.932900 0.000000
-12.907600 0.000000
-12.882300 0.000000
-12.857000 0.000000
-12.831700 0.000000
-12.806400 0.000000
-12.781100 0.000000
-12.755800 0.000000
-12.730500 0.000000
-12.705200 0.000000
-12.680000 0.000000
-12.654700 0.000000
-12.629400 0.000000
-12.604100 0.000000
-12.578800 0.000000
-12.553500 0.000000
-12.528200 0.000000
-12.502900 0.000000
-12.477600 0.000000
-12.452300 0.000000
-12.427000 0.000000
-12.401700 0.000000
-12.376400 0.000000
-12.351100 0.000000
-12.325800 0.000000
-12.300500 0.000000
-12.275200 0.000000
-12.249900 0.000000
-12.224600 0.000000
-12.199300 0.000000
-12.174000 0.000000
-12.148700 0.000000
-12.123400 0.000000
-12.098100 0.000000
-12.072800 0.000000
-12.047500 0.000000
-12.022200 0.000000
-11.996900 0.000000
-11.971600 0.000000
-11.946300 0.000000
-11.921000 0.000000
-11.895700 0.000000
-11.870400 0.000000
-11.845100 0.000000
-11.819800 0.000000
-11.794500 0.000000
-11.769200 0.000000
-11.743900 0.000000
-11.718600 0.000000
-11.693300 0.000000
-11.668000 0.000000
-11.642700 0.000000
-11.617400 0.000000
-11.592100 0.000000
-11.566800 0.000000
-11.541500 0.000000
-11.516200 0.000000
-11.490900 0.000000
-11.465600 0.000000
-11.440300 0.000000
-11.415000 0.000000
-11.389700 0.000000
-11.364400 0.000000
-11.339100 0.000000
-11.313800 0.000000
-11.288500 0.000000
-11.263200 0.000000
-11.238000 0.000000
-11.212700 0.000000
-11.187400 0.000000
-11.162100 0.000000
-11.136800 0.000000
-11.111500 0.000000
-11.086200 0.000000
-11.060900 0.000000
-11.035600 0.000000
-11.010300 0.000000
-10.985000 0.000000
-10.959700 0.000000
-10.934400 0.000000
-10.909100 0.000000
-10.883800 0.000000
-10.858500 0.000000
-10.833200 0.000000
-10.807900 0.000000
-10.782600 0.000000
-10.757300 0.000000
-10.732000 0.000000
-10.706700 0.000000
-10.681400 0.000000
-10.656100 0.000000
-10.630800 0.000000
-10.605500 0.000000
-10.580200 0.000000
-10.554900 0.000000
-10.529600 0.000000
-10.504300 0.000000
-10.479000 0.000000
-10.453700 0.000000
-10.428400 0.000000
-10.403100 0.000000
-10.377800 0.000000
-10.352500 0.000000
-10.327200 0.000000
-10.301900 0.000000
-10.276600 0.000000
-10.251300 0.000000
-10.226000 0.000000
-10.200700 0.000000
-10.175400 0.000000
-10.150100 0.000000
-10.124800 0.000000
-10.099500 0.000000
-10.074200 0.000000
-10.048900 0.000000
-10.023600 0.000000
-9.998300 0.000000
-9.973000 0.000000
-9.947700 0.000000
-9.922400 0.000000
-9.897100 0.000000
-9.871800 0.000000
-9.846500 0.000000
-9.821200 0.000000
-9.796000 0.000000
-9.770700 0.000000
-9.745400 0.000000
-9.720100 0.000000
-9.694800 0.000000
-9.669500 0.000000
-9.644200 0.001400
-9.618900 0.024700
-9.593600 0.272600
-9.568300 1.879600
-9.543000 8.197600
-9.517700 23.184600
-9.492400 44.779300
-9.467100 64.618100
-9.441800 76.352400
-9.416500 74.582900
-9.391200 56.196400
-9.365900 30.469100
-9.340600 11.377300
-9.315300 2.837100
-9.290000 0.460400
-9.264700 0.047600
-9.239400 0.003100
-9.214100 0.000100
-9.188800 0.000000
-9.163500 0.000000
-9.138200 0.000000
-9.112900 0.000000
-9.087600 0.000000
-9.062300 0.000000
-9.037000 0.000000
-9.011700 0.000000
-8.986400 0.000000
-8.961100 0.000000
-8.935800 0.000000
-8.910500 0.000000
-8.885200 0.000000
-8.859900 0.000000
-8.834600 0.000000
-8.809300 0.000000
-8.784000 0.000000
-8.758700 0.000000
-8.733400 0.000000
-8.708100 0.000000
-8.682800 0.000000
-8.657500 0.000000
-8.632200 0.000000
-8.606900 0.000000
-8.581600 0.000000
-8.556300 0.000000
-8.531000 0.000000
-8.505700 0.000000
-8.480400 0.000000
-8.455100 0.000000
-8.429800 0.000000
-8.404500 0.000000
-8.379200 0.000000
-8.354000 0.000000
-8.328700 0.000000
-8.303400 0.000000
-8.278100 0.000000
-8.252800 0.000000
-8.227500 0.000000
-8.202200 0.000000
-8.176900 0.000000
-8.151600 0.000000
-8.126300 0.000000
-8.101000 0.000000
-8.075700 0.000000
-8.050400 0.000000
-8.025100 0.000000
-7.999800 0.000000
-7.974500 0.000000
-7.949200 0.000000
-7.923900 0.000000
-7.898600 0.000000
-7.873300 0.000000
-7.848000 0.000000
-7.822700 0.000000
-7.797400 0.000000
-7.772100 0.000000
-7.746800 0.000000
-7.721500 0.000000
-7.696200 0.000000
-7.670900 0.000000
-7.645600 0.000000
-7.620300 0.000000
-7.595000 0.000000
-7.569700 0.000000
-7.544400 0.000000
-7.519100 0.000000
-7.493800 0.000000
-7.468500 0.000000
-7.443200 0.000000
-7.417900 0.000000
-7.392600 0.000000
-7.367300 0.000000
-7.342000 0.000000
-7.316700 0.000000
-7.291400 0.000000
-7.266100 0.000000
-7.240800 0.000000
-7.215500 0.000000
-7.190200 0.000000
-7.164900 0.000000
-7.139600 0.000000
-7.114300 0.000000
-7.089000 0.000000
-7.063700 0.000000
-7.038400 0.000000
-7.013100 0.000000
-6.987800 0.000000
-6.962500 0.000000
-6.937200 0.000000
-6.912000 0.000000
-6.886700 0.000000
-6.861400 0.000000
-6.836100 0.000000
-6.810800 0.000000
-6.785500 0.000000
-6.760200 0.000000
-6.734900 0.000000
-6.709600 0.000000
-6.684300 0.000000
-6.659000 0.000000
-6.633700 0.000000
-6.608400 0.000000
-6.583100 0.000000
-6.557800 0.000000
-6.532500 0.000000
-6.507200 0.000000
-6.481900 0.000000
-6.456600 0.000000
-6.431300 0.000000
-6.406000 0.000000
-6.380700 0.000000
-6.355400 0.000000
-6.330100 0.000000
-6.304800 0.000000
-6.279500 0.000000
-6.254200 0.000000
-6.228900 0.000000
-6.203600 0.000000
-6.178300 0.000000
-6.153000 0.000000
-6.127700 0.000000
-6.102400 0.000000
-6.077100 0.000000
-6.051800 0.000000
-6.026500 0.000000
-6.001200 0.000000
-5.975900 0.000000
-5.950600 0.000000
-5.925300 0.000000
-5.900000 0.000000
-5.874700 0.000000
-5.849400 0.000000
-5.824100 0.000000
-5.798800 0.000000
-5.773500 0.000000
-5.748200 0.000000
-5.722900 0.000000
-5.697600 0.000000
-5.672300 0.000000
-5.647000 0.000000
-5.621700 0.000000
-5.596400 0.000000
-5.571100 0.000000
-5.545800 0.000000
-5.520500 0.000000
-5.495200 0.000000
-5.470000 0.000000
-5.444700 0.000000
-5.419400 0.000000
-5.394100 0.000000
-5.368800 0.000000
-5.343500 0.000000
-5.318200 0.000000
-5.292900 0.000000
-5.267600 0.000000
-5.242300 0.000000
-5.217000 0.000000
-5.191700 0.000000
-5.166400 0.000000
-5.141100 0.000000
-5.115800 0.000000
-5.090500 0.000000
-5.065200 0.000000
-5.039900 0.000000
-5.014600 0.000000
-4.989300 0.000000
-4.964000 0.000000
-4.938700 0.000000
-4.913400 0.000000
-4.888100 0.000000
-4.862800 0.000000
-4.837500 0.000100
-4.812200 0.001300
-4.786900 0.007600
-4.761600 0.029800
-4.736300 0.085200
-4.711000 0.190700
-4.685700 0.339700
-4.660400 0.473400
-4.635100 0.541200
-4.609800 0.603300
-4.584500 0.727000
-4.559200 0.875300
-4.533900 1.024200
-4.508600 1.142800
-4.483300 1.161300
-4.458000 1.162300
-4.432700 1.295300
-4.407400 1.566500
-4.382100 1.895900
-4.356800 2.149800
-4.331500 2.187700
-4.306200 2.092000
-4.280900 2.150600
-4.255600 2.402000
-4.230300 2.632800
-4.205000 2.833200
-4.179700 3.058400
-4.154400 3.301300
-4.129100 3.711400
-4.103800 4.281400
-4.078500 4.506600
-4.053200 4.005200
-4.028000 3.267800
-4.002700 2.948600
-3.977400 2.834600
-3.952100 2.489500
-3.926800 2.139100
-3.901500 2.098500
-3.876200 2.112200
-3.850900 1.890700
-3.825600 1.653300
-3.800300 1.601200
-3.775000 1.494500
-3.749700 1.113900
-3.724400 0.621100
-3.699100 0.258300
-3.673800 0.078800
-3.648500 0.016800
-3.623200 0.002400
-3.597900 0.000200
-3.572600 0.000000
-3.547300 0.000000
-3.522000 0.000000
-3.496700 0.000000
-3.471400 0.000000
-3.446100 0.000000
-3.420800 0.000000
-3.395500 0.000000
-3.370200 0.000000
-3.344900 0.000000
-3.319600 0.000000
-3.294300 0.000000
-3.269000 0.000000
-3.243700 0.000000
-3.218400 0.000000
-3.193100 0.000000
-3.167800 0.000000
-3.142500 0.000000
-3.117200 0.000000
-3.091900 0.000000
-3.066600 0.000000
-3.041300 0.000000
-3.016000 0.000000
-2.990700 0.000000
-2.965400 0.000000
-2.940100 0.000000
-2.914800 0.000000
-2.889500 0.000000
-2.864200 0.000000
-2.838900 0.000000
-2.813600 0.000000
-2.788300 0.000000
-2.763000 0.000000
-2.737700 0.000000
-2.712400 0.000000
-2.687100 0.000000
-2.661800 0.000000
-2.636500 0.000000
-2.611200 0.000000
-2.586000 0.000000
-2.560700 0.000000
-2.535400 0.000000
-2.510100 0.000000
-2.484800 0.000000
-2.459500 0.000000
-2.434200 0.000000
-2.408900 0.000000
-2.383600 0.000000
-2.358300 0.000000
-2.333000 0.000000
-2.307700 0.000000
-2.282400 0.000000
-2.257100 0.000000
-2.231800 0.000000
-2.206500 0.000000
-2.181200 0.000000
-2.155900 0.000000
-2.130600 0.000000
-2.105300 0.000000
-2.080000 0.000000
-2.054700 0.000000
-2.029400 0.000000
-2.004100 0.000000
-1.978800 0.000000
-1.953500 0.000000
-1.928200 0.000000
-1.902900 0.000000
-1.877600 0.000000
-1.852300 0.000000
-1.827000 0.000000
-1.801700 0.000000
-1.776400 0.000000
-1.751100 0.000000
-1.725800 0.000000
-1.700500 0.000000
-1.675200 0.000000
-1.649900 0.000000
-1.624600 0.000000
-1.599300 0.000000
-1.574000 0.000000
-1.548700 0.000000
-1.523400 0.000000
-1.498100 0.000000
-1.472800 0.000000
-1.447500 0.000000
-1.422200 0.000000
-1.396900 0.000000
-1.371600 0.000000
-1.346300 0.000000
-1.321000 0.000000
-1.295700 0.000000
-1.270400 0.000000
-1.245100 0.000000
-1.219800 0.000000
-1.194500 0.000000
-1.169200 0.000000
-1.144000 0.000000
-1.118700 0.000000
-1.093400 0.000000
-1.068100 0.000000
-1.042800 0.000000
-1.017500 0.000000
-0.992200 0.000000
-0.966900 0.000000
-0.941600 0.000000
-0.916300 0.000000
-0.891000 0.000000
-0.865700 0.000000
-0.840400 0.000000
-0.815100 0.000000
-0.789800 0.000000
-0.764500 0.000000
-0.739200 0.000000
-0.713900 0.000000
-0.688600 0.000000
-0.663300 0.000000
-0.638000 0.000000
-0.612700 0.000400
-0.587400 0.003100
-0.562100 0.014600
-0.536800 0.044600
-0.511500 0.090600
-0.486200 0.123300
-0.460900 0.118600
-0.435600 0.108300
-0.410300 0.153500
-0.385000 0.249700
-0.359700 0.312900
-0.334400 0.286200
-0.309100 0.227000
-0.283800 0.256600
-0.258500 0.408800
-0.233200 0.566500
-0.207900 0.612600
-0.182600 0.627800
-0.157300 0.829500
-0.132000 1.232100
-0.106700 1.504100
-0.081400 1.455600
-0.056100 1.387400
-0.030800 1.620600
-0.005500 2.066100
0.019800 2.313400
0.045100 2.104700
0.070400 1.786000
0.095700 1.921400
0.121000 2.453700
0.146300 2.747800
0.171600 2.472500
0.196900 1.950000
0.222200 1.632600
0.247500 1.661700
0.272800 1.931900
0.298000 2.227600
0.323300 2.277100
0.348600 1.958600
0.373900 1.575000
0.399200 1.546700
0.424500 1.805000
0.449800 2.039700
0.475100 2.138900
0.500400 2.076600
0.525700 1.900900
0.551000 1.847800
0.576300 2.119000
0.601600 2.541000
0.626900 2.758800
0.652200 2.601000
0.677500 2.079200
0.702800 1.470600
0.728100 1.171800
0.753400 1.273000
0.778700 1.546200
0.804000 1.629100
0.829300 1.316800
0.854600 0.830600
0.879900 0.522100
0.905200 0.503400
0.930500 0.705700
0.955800 1.030400
0.981100 1.345200
1.006400 1.505000
1.031700 1.472000
1.057000 1.399500
1.082300 1.495800
1.107600 1.655800
1.132900 1.586400
1.158200 1.367600
1.183500 1.352600
1.208800 1.580600
1.234100 1.728200
1.259400 1.628900
1.284700 1.477100
1.310000 1.478500
1.335300 1.612300
1.360600 1.739600
1.385900 1.818100
1.411200 1.898700
1.436500 2.022800
1.461800 2.265200
1.487100 2.508700
1.512400 2.430000
1.537700 1.974900
1.563000 1.433300
1.588300 1.164400
1.613600 1.278400
1.638900 1.479200
1.664200 1.557500
1.689500 1.679400
1.714800 1.860000
1.740000 1.897800
1.765300 1.932100
1.790600 2.311700
1.815900 2.875500
1.841200 3.075600
1.866500 2.874700
1.891800 2.636800
1.917100 2.364800
1.942400 2.001500
1.967700 1.810300
1.993000 1.926200
2.018300 2.152700
2.043600 2.148200
2.068900 1.804600
2.094200 1.530800
2.119500 1.670000
2.144800 1.972200
2.170100 2.127500
2.195400 2.190200
2.220700 2.207100
2.246000 2.141300
2.271300 2.117700
2.296600 2.203900
2.321900 2.324900
2.347200 2.433500
2.372500 2.346000
2.397800 1.886100
2.423100 1.259500
2.448400 0.833300
2.473700 0.757200
2.499000 0.905800
2.524300 1.051500
2.549600 1.057000
2.574900 0.939900
2.600200 0.822700
2.625500 0.854800
2.650800 1.041600
2.676100 1.192700
2.701400 1.231800
2.726700 1.222100
2.752000 1.133400
2.777300 0.998100
2.802600 0.946500
2.827900 0.986700
2.853200 1.088500
2.878500 1.376600
2.903800 1.930900
2.929100 2.444900
2.954400 2.562200
2.979700 2.423500
3.005000 2.305600
3.030300 2.123000
3.055600 1.766900
3.080900 1.407600
3.106200 1.220500
3.131500 1.270900
3.156800 1.577800
3.182000 1.980400
3.207300 2.181000
3.232600 2.178900
3.257900 2.287800
3.283200 2.570700
3.308500 2.767800
3.333800 2.729100
3.359100 2.629500
3.384400 2.637500
3.409700 2.532400
3.435000 2.179900
3.460300 1.912200
3.485600 1.888500
3.510900 1.868000
3.536200 1.760100
3.561500 1.801400
3.586800 2.121700
3.612100 2.396500
3.637400 2.313200
3.662700 2.062300
3.688000 1.968200
3.713300 1.982500
3.738600 1.818600
3.763900 1.501900
3.789200 1.336900
3.814500 1.376500
3.839800 1.390500
3.865100 1.279600
3.890400 1.227700
3.915700 1.464300
3.941000 1.958000
3.966300 2.415800
3.991600 2.614300
4.016900 2.511800
4.042200 2.143500
4.067500 1.692700
4.092800 1.466500
4.118100 1.584900
4.143400 1.774200
4.168700 1.652300
4.194000 1.216400
4.219300 0.842900
4.244600 0.851200
4.269900 1.148400
4.295200 1.383800
4.320500 1.460800
4.345800 1.613900
4.371100 1.964500
4.396400 2.282000
4.421700 2.231900
4.447000 1.860200
4.472300 1.511700
4.497600 1.337000
4.522900 1.405300
4.548200 1.783800
4.573500 2.242800
4.598800 2.432100
4.624000 2.359600
4.649300 2.401300
4.674600 2.714700
4.699900 2.905000
4.725200 2.557200
4.750500 1.821600
4.775800 1.233500
4.801100 1.115000
4.826400 1.345800
4.851700 1.655700
4.877000 1.945000
4.902300 2.232200
4.927600 2.435700
4.952900 2.404300
4.978200 2.148400
5.003500 1.870400
5.028800 1.780300
5.054100 1.952600
5.079400 2.169100
5.104700 2.167000
5.130000 2.003600
5.155300 1.797900
5.180600 1.586900
5.205900 1.422500
5.231200 1.342200
5.256500 1.423500
5.281800 1.653100
5.307100 1.799200
5.332400 1.759900
5.357700 1.746600
5.383000 1.881500
5.408300 2.056200
5.433600 2.256300
5.458900 2.495200
5.484200 2.651200
5.509500 2.743600
5.534800 2.812800
5.560100 2.660000
5.585400 2.249300
5.610700 1.907300
5.636000 1.855800
5.661300 1.949500
5.686600 2.029500
5.711900 2.142700
5.737200 2.221000
5.762500 2.074900
5.787800 1.705600
5.813100 1.300300
5.838400 1.089400
5.863700 1.306700
5.889000 1.989400
5.914300 2.691100
5.939600 2.927800
5.964900 2.735900
5.990200 2.379700
6.015500 2.112600
6.040700 2.199600
6.066000 2.663800
6.091300 3.092200
6.116600 3.064500
6.141900 2.629600
6.167200 2.075600
6.192500 1.645200
6.217800 1.545100
6.243100 1.813100
6.268400 2.225100
6.293700 2.576400
6.319000 2.856900
6.344300 3.119900
6.369600 3.322900
6.394900 3.359400
6.420200 3.345600
6.445500 3.524500
6.470800 3.837700
6.496100 3.984900
6.521400 3.807600
6.546700 3.415300
6.572000 3.047400
6.597300 2.801500
6.622600 2.574700
6.647900 2.403100
6.673200 2.366400
6.698500 2.320700
6.723800 2.217600
6.749100 2.212000
6.774400 2.326800
6.799700 2.463300
6.825000 2.696100
6.850300 3.010100
6.875600 3.008500
6.900900 2.504000
6.926200 1.908900
6.951500 1.668700
6.976800 1.766000
7.002100 1.849300
7.027400 1.686000
7.052700 1.464100
7.078000 1.491000
7.103300 1.804100
7.128600 2.184000
7.153900 2.342600
7.179200 2.280500
7.204500 2.379700
7.229800 2.776700
7.255100 3.142800
7.280400 3.217000
7.305700 2.977400
7.331000 2.512400
7.356300 2.070600
7.381600 2.068900
7.406900 2.703500
7.432200 3.440200
7.457500 3.575900
7.482700 3.213400
7.508000 2.922900
7.533300 2.878500
7.558600 2.805300
7.583900 2.611100
7.609200 2.563400
7.634500 2.724200
7.659800 2.764000
7.685100 2.476000
7.710400 2.070800
7.735700 1.966000
7.761000 2.330600
7.786300 2.759800
7.811600 2.854300
7.836900 2.851700
7.862200 3.017000
7.887500 3.118600
7.912800 2.986700
7.938100 2.823600
7.963400 2.851200
7.988700 3.040500
8.014000 3.116700
8.039300 2.884800
8.064600 2.489200
8.089900 2.181000
8.115200 1.994900
8.140500 1.928500
8.165800 2.129300
8.191100 2.460500
8.216400 2.462000
8.241700 2.134300
8.267000 2.077200
8.292300 2.590900
8.317600 3.126700
8.342900 3.151700
8.368200 3.035900
8.393500 3.248000
8.418800 3.490100
8.444100 3.327300
8.469400 2.871500
8.494700 2.504100
8.520000 2.432000
8.545300 2.642000
8.570600 3.039600
8.595900 3.364300
8.621200 3.306400
8.646500 2.948100
8.671800 2.611700
8.697100 2.439000
8.722400 2.425900
8.747700 2.647600
8.773000 3.181000
8.798300 3.804400
8.823600 4.047100
8.848900 3.637800
8.874200 2.859800
8.899500 2.228600
8.924700 2.014700
8.950000 2.217500
8.975300 2.539100
9.000600 2.641100
9.025900 2.600300
9.051200 2.689000
9.076500 2.919700
9.101800 3.181400
9.127100 3.322600
9.152400 3.053900
9.177700 2.475400
9.203000 2.320600
9.228300 3.002400
9.253600 3.981800
9.278900 4.430500
9.304200 4.034500
9.329500 3.149600
9.354800 2.370000
9.380100 1.977600
9.405400 1.914100
9.430700 2.072900
9.456000 2.309500
9.481300 2.462200
9.506600 2.573200
9.531900 2.796400
9.557200 3.038600
9.582500 3.070800
9.607800 2.941400
9.633100 2.778900
9.658400 2.610200
9.683700 2.628900
9.709000 2.998000
9.734300 3.467700
9.759600 3.663700
9.784900 3.666000
9.810200 3.910200
9.835500 4.473300
9.860800 4.933700
9.886100 4.856500
9.911400 4.073700
9.936700 2.905900
9.962000 2.016300
9.987300 1.736000
10.012600 1.920400
10.037900 2.321700
10.063200 2.637300
10.088500 2.616900
10.113800 2.447700
10.139100 2.493800
10.164400 2.707700
10.189700 2.863400
10.215000 3.030900
10.240300 3.275000
10.265600 3.372100
10.290900 3.208600
10.316200 2.973400
10.341500 2.864300
10.366700 3.001400
10.392000 3.343300
10.417300 3.578300
10.442600 3.494600
10.467900 3.232500
10.493200 3.093400
10.518500 3.345200
10.543800 3.994300
10.569100 4.603100
10.594400 4.617400
10.619700 4.051600
10.645000 3.485200
10.670300 3.320200
10.695600 3.463100
10.720900 3.591700
10.746200 3.582500
10.771500 3.538900
10.796800 3.470300
10.822100 3.474700
10.847400 3.711500
10.872700 3.874400
10.898000 3.692100
10.923300 3.635300
10.948600 4.066100
10.973900 4.363900
10.999200 3.821100
11.024500 2.777600
11.049800 2.074800
11.075100 2.017300
11.100400 2.253400
11.125700 2.266200
11.151000 1.937500
11.176300 1.585400
11.201600 1.617900
11.226900 2.282700
11.252200 3.353000
11.277500 4.174000
11.302800 4.325300
11.328100 3.976300
11.353400 3.565200
11.378700 3.361700
11.404000 3.413300
11.429300 3.591000
11.454600 3.618800
11.479900 3.403100
11.505200 3.125000
11.530500 3.020700
11.555800 3.198300
11.581100 3.373700
11.606400 3.162100
11.631700 2.658300
11.657000 2.201000
11.682300 2.005200
11.707600 2.182600
11.732900 2.656800
11.758200 3.147800
11.783500 3.330100
11.808700 3.138800
11.834000 2.911000
11.859300 2.914100
11.884600 3.030900
11.909900 3.158500
11.935200 3.270000
11.960500 3.119300
11.985800 2.642500
12.011100 2.253200
12.036400 2.293100
12.061700 2.585800
12.087000 2.673000
12.112300 2.445900
12.137600 2.266200
12.162900 2.296400
12.188200 2.393800
12.213500 2.651100
12.238800 3.254200
12.264100 3.898400
12.289400 3.969100
12.314700 3.383100
12.340000 2.670100
12.365300 2.323400
12.390600 2.566300
12.415900 3.345500
12.441200 4.246700
12.466500 4.687900
12.491800 4.434000
12.517100 3.843200
12.542400 3.463700
12.567700 3.384900
12.593000 3.315600
12.618300 3.233400
12.643600 3.280200
12.668900 3.234400
12.694200 2.895400
12.719500 2.478000
12.744800 2.192900
12.770100 2.149400
12.795400 2.444700
12.820700 2.795300
12.846000 2.783300
12.871300 2.714200
12.896600 3.197400
12.921900 3.889800
12.947200 3.938400
12.972500 3.439300
12.997800 3.063500
13.023100 2.925200
13.048400 2.837400
13.073700 2.813500
13.099000 2.899700
13.124300 3.075500
13.149600 3.394500
13.174900 3.859900
13.200200 4.144300
13.225500 3.971400
13.250700 3.635600
13.276000 3.619200
13.301300 4.028400
13.326600 4.569200
13.351900 4.851000
13.377200 4.622000
13.402500 4.001100
13.427800 3.412000
13.453100 3.044100
13.478400 2.859100
13.503700 2.973200
13.529000 3.425700
13.554300 3.824100
13.579600 3.788900
13.604900 3.493700
13.630200 3.369700
13.655500 3.641900
13.680800 4.094800
13.706100 4.191600
13.731400 3.914600
13.756700 3.791500
13.782000 3.874000
13.807300 3.952900
13.832600 4.242000
13.857900 4.767900
13.883200 4.912200
13.908500 4.347600
13.933800 3.675200
13.959100 3.569700
13.984400 3.929000
14.009700 4.303000
14.035000 4.520000
14.060300 4.394200
14.085600 3.725800
14.110900 2.844200
14.136200 2.223500
14.161500 1.893100
14.186800 1.756900
14.212100 1.872100
14.237400 2.173400
14.262700 2.352700
14.288000 2.309800
14.313300 2.300800
14.338600 2.451900
14.363900 2.711000
14.389200 3.194700
14.414500 3.869400
14.439800 4.328600
14.465100 4.315300
14.490400 3.969500
14.515700 3.612100
14.541000 3.485600
14.566300 3.519200
14.591600 3.486300
14.616900 3.267100
14.642200 2.956700
14.667500 2.894700
14.692700 3.324500
14.718000 4.095700
14.743300 4.695200
14.768600 4.593200
14.793900 3.956700
14.819200 3.538200
14.844500 3.601400
14.869800 3.775700
14.895100 3.767700
14.920400 3.497700
14.945700 3.015400
14.971000 2.625500
14.996300 2.604400
15.021600 2.950600
15.046900 3.512000
15.072200 4.121300
15.097500 4.570200
15.122800 4.627500
15.148100 4.238400
15.173400 3.648100
15.198700 3.277700
15.224000 3.261200
15.249300 3.481700
15.274600 4.016700
15.299900 4.714100
15.325200 4.952000
15.350500 4.672100
15.375800 4.431500
15.401100 4.230400
15.426400 3.818000
15.451700 3.501100
15.477000 3.499700
15.502300 3.604200
15.527600 3.671200
15.552900 3.614700
15.578200 3.381200
15.603500 3.171300
15.628800 3.205500
15.654100 3.479500
15.679400 3.949900
15.704700 4.574600
15.730000 5.059600
15.755300 4.895700
15.780600 4.058600
15.805900 3.253900
15.831200 3.028000
15.856500 3.228700
15.881800 3.366100
15.907100 3.107100
15.932400 2.534200
15.957700 2.109600
15.983000 2.241400
16.008300 2.847200
16.033600 3.510200
16.058900 3.907700
16.084200 4.007000
16.109500 3.981000
16.134700 3.999500
16.160000 4.228900
16.185300 4.800000
16.210600 5.476200
16.235900 5.646300
16.261200 5.098100
16.286500 4.447300
16.311800 4.251000
16.337100 4.246400
16.362400 3.945600
16.387700 3.429200
16.413000 3.141900
16.438300 3.183300
16.463600 3.182300
16.488900 3.009400
16.514200 3.065900
16.539500 3.468500
16.564800 3.713600
16.590100 3.552400
16.615400 3.300600
16.640700 3.177100
16.666000 3.142700
16.691300 3.226200
16.716600 3.578800
16.741900 4.185900
16.767200 4.627200
16.792500 4.473100
16.817800 3.898000
16.843100 3.414200
16.868400 3.244400
16.893700 3.358700
16.919000 3.675900
16.944300 4.091100
16.969600 4.550500
16.994900 5.045000
17.020200 5.439300
17.045500 5.321900
17.070800 4.393500
17.096100 3.160500
17.121400 2.531800
17.146700 2.730100
17.172000 3.185300
17.197300 3.415800
17.222600 3.523000
17.247900 3.798800
17.273200 4.272300
17.298500 4.612400
17.323800 4.527200
17.349100 4.257300
17.374400 4.215600
17.399700 4.499400
17.425000 4.944900
17.450300 5.021400
17.475600 4.329900
17.500900 3.280500
17.526200 2.524900
17.551500 2.323000
17.576700 2.559900
17.602000 2.940700
17.627300 3.371200
17.652600 3.918500
17.677900 4.289300
17.703200 4.077300
17.728500 3.429800
17.753800 2.982700
17.779100 3.189700
17.804400 3.788400
17.829700 4.376100
17.855000 5.146200
17.880300 6.011700
17.905600 6.051500
17.930900 4.939000
17.956200 3.535800
17.981500 2.709100
18.006800 2.649800
18.032100 3.213000
18.057400 4.146400
18.082700 5.065500
18.108000 5.628800
18.133300 5.704400
18.158600 5.284800
18.183900 4.456000
18.209200 3.584600
18.234500 3.122000
18.259800 3.078500
18.285100 3.154300
18.310400 3.277000
18.335700 3.577800
18.361000 4.038300
18.386300 4.407700
18.411600 4.404600
18.436900 4.082700
18.462200 3.702700
18.487500 3.324700
18.512800 3.118100
18.538100 3.360600
18.563400 3.817300
18.588700 4.011600
18.614000 3.944200
18.639300 4.001200
18.664600 4.334100
18.689900 4.675300
18.715200 4.787300
18.740500 4.562700
18.765800 3.902500
18.791100 3.051100
18.816400 2.492900
18.841700 2.350800
18.867000 2.417400
18.892300 2.665600
18.917600 3.273600
18.942900 4.371300
18.968200 5.784800
18.993500 6.874700
19.018700 7.067000
19.044000 6.436400
19.069300 5.531500
19.094600 4.717700
19.119900 4.109700
19.145200 3.987800
19.170500 4.399000
19.195800 4.722800
19.221100 4.360500
19.246400 3.430900
19.271700 2.472800
19.297000 1.984700
19.322300 2.258500
19.347600 3.066400
19.372900 3.765700
19.398200 4.094700
19.423500 4.344700
19.448800 4.594000
19.474100 4.503900
19.499400 4.037200
19.524700 3.591000
19.550000 3.478800
19.575300 3.811600
19.600600 4.441700
19.625900 4.932700
19.651200 5.064500
19.676500 5.132900
19.701800 5.363000
19.727100 5.472500
19.752400 5.134600
19.777700 4.450800
19.803000 3.913000
19.828300 3.927300
19.853600 4.289100
19.878900 4.457200
19.904200 4.254600
19.929500 3.930300
19.954800 3.765000
19.980100 3.759100
20.005400 3.688100
20.030700 3.628000
20.056000 3.923700
20.081300 4.441800
20.106600 4.594800
20.131900 4.268800
20.157200 4.075800
20.182500 4.501900
20.207800 5.327000
20.233100 5.888400
20.258400 5.754100
20.283700 5.183200
20.309000 4.768300
20.334300 4.716000
20.359600 4.805800
20.384900 4.936300
20.410200 5.131700
20.435500 5.214700
20.460700 5.120700
20.486000 4.964400
20.511300 4.768800
20.536600 4.616400
20.561900 4.494900
20.587200 4.193200
20.612500 3.712900
20.637800 3.430600
20.663100 3.661100
20.688400 4.272800
20.713700 4.910900
20.739000 5.233500
20.764300 5.172600
20.789600 5.112000
20.814900 5.190100
20.840200 4.990300
20.865500 4.440000
20.890800 3.950700
20.916100 3.558100
20.941400 3.003400
20.966700 2.472600
20.992000 2.449400
21.017300 2.894500
21.042600 3.232300
21.067900 3.168600
21.093200 2.875200
21.118500 2.607400
21.143800 2.431600
21.169100 2.272300
21.194400 2.167500
21.219700 2.106900
21.245000 1.949400
21.270300 1.826100
21.295600 2.020500
21.320900 2.408100
21.346200 2.647700
21.371500 2.603400
21.396800 2.330500
21.422100 2.125900
21.447400 2.338700
21.472700 2.882600
21.498000 3.248800
21.523300 3.173000
21.548600 2.960600
21.573900 2.860300
21.599200 2.637800
21.624500 2.075400
21.649800 1.409000
21.675100 1.030800
21.700400 1.035500
21.725700 1.201900
21.751000 1.386500
21.776300 1.715900
21.801600 2.156000
21.826900 2.342000
21.852200 2.072000
21.877500 1.527400
21.902700 1.044300
21.928000 0.843100
21.953300 0.919800
21.978600 1.088800
22.003900 1.121500
22.029200 1.011900
22.054500 0.981400
22.079800 1.090700
22.105100 1.158200
22.130400 1.082000
22.155700 0.943600
22.181000 0.836000
22.206300 0.756200
22.231600 0.722300
22.256900 0.870800
22.282200 1.172200
22.307500 1.287500
22.332800 1.081500
22.358100 0.809100
22.383400 0.692700
22.408700 0.776200
22.434000 0.953400
22.459300 1.053500
22.484600 1.056500
22.509900 1.040900
22.535200 0.957700
22.560500 0.749700
22.585800 0.575900
22.611100 0.591800
22.636400 0.688600
22.661700 0.644000
22.687000 0.433500
22.712300 0.246600
22.737600 0.206700
22.762900 0.283600
22.788200 0.371800
22.813500 0.351800
22.838800 0.232900
22.864100 0.149700
22.889400 0.192600
22.914700 0.355000
22.940000 0.518900
22.965300 0.539700
22.990600 0.443900
23.015900 0.348100
23.041200 0.264700
23.066500 0.177900
23.091800 0.134200
23.117100 0.157400
23.142400 0.181600
23.167700 0.147500
23.193000 0.101500
23.218300 0.114900
23.243600 0.165900
23.268900 0.170100
23.294200 0.108600
23.319500 0.042500
23.344700 0.010200
23.370000 0.001500
23.395300 0.000100
23.420600 0.000000
23.445900 0.000000
23.471200 0.000000
23.496500 0.000000
23.521800 0.000000
23.547100 0.000000
23.572400 0.000000
23.597700 0.000000
23.623000 0.000000
23.648300 0.000000
23.673600 0.000000
23.698900 0.000000
23.724200 0.000000
23.749500 0.000000
23.774800 0.000000
23.800100 0.000000
23.825400 0.000000
23.850700 0.000000
23.876000 0.000000
23.901300 0.000000
23.926600 0.000000
23.951900 0.000000
23.977200 0.000000
24.002500 0.000000
24.027800 0.000000
24.053100 0.000000
24.078400 0.000000
24.103700 0.000000
24.129000 0.000000
24.154300 0.000000
24.179600 0.000000
24.204900 0.000000
24.230200 0.000000
24.255500 0.000000
24.280800 0.000000
24.306100 0.000000
24.331400 0.000000
24.356700 0.000000
24.382000 0.000000
24.407300 0.000000
24.432600 0.000000
24.457900 0.000000
24.483200 0.000000
24.508500 0.000000
24.533800 0.000000
24.559100 0.000000
24.584400 0.000000
24.609700 0.000000
24.635000 0.000000
24.660300 0.000000
24.685600 0.000000
24.710900 0.000000
24.736200 0.000000
24.761500 0.000000
24.786700 0.000000
24.812000 0.000000
24.837300 0.000000
24.862600 0.000000
24.887900 0.000000
24.913200 0.000000
24.938500 0.000000
24.963800 0.000000
24.989100 0.000000
25.014400 0.000000
25.039700 0.000000
25.065000 0.000000
25.090300 0.000000
25.115600 0.000000
25.140900 0.000000
25.166200 0.000000
25.191500 0.000000
25.216800 0.000000
25.242100 0.000000
25.267400 0.000000
25.292700 0.000000
25.318000 0.000000
25.343300 0.000000
25.368600 0.000000
25.393900 0.000000
25.419200 0.000000
25.444500 0.000000
25.469800 0.000000
25.495100 0.000000
25.520400 0.000000
25.545700 0.000000
e
