set title 'mp-1044716 - Density of States'
set xlabel 'Energy (eV)'
set ylabel 'DOS (states/eV)'
set grid
set xrange [-10:10]
set yrange [0:120.941]
set xzeroaxis lt -1
set terminal png size 800,600
set output 'mp-1044716_dos_gnuplot.png'
plot '-' using 1:2 with lines title 'DOS'
-18.954500 0.000000
-18.935900 0.000000
-18.917300 0.000000
-18.898700 0.000000
-18.880100 0.000000
-18.861500 0.000000
-18.842900 0.000000
-18.824300 0.000000
-18.805700 0.000000
-18.787100 0.000000
-18.768400 0.000000
-18.749800 0.000000
-18.731200 0.000000
-18.712600 0.000000
-18.694000 0.000000
-18.675400 0.000000
-18.656800 0.000000
-18.638200 0.000000
-18.619600 0.000000
-18.600900 0.000000
-18.582300 0.000000
-18.563700 0.000000
-18.545100 0.000000
-18.526500 0.000000
-18.507900 0.000000
-18.489300 0.000000
-18.470700 0.000000
-18.452100 0.000000
-18.433500 0.000000
-18.414800 0.000000
-18.396200 0.000000
-18.377600 0.000000
-18.359000 0.000000
-18.340400 0.000000
-18.321800 0.000000
-18.303200 0.000000
-18.284600 0.000000
-18.266000 0.000000
-18.247400 0.000000
-18.228700 0.000000
-18.210100 0.000000
-18.191500 0.000000
-18.172900 0.000000
-18.154300 0.000000
-18.135700 0.000000
-18.117100 0.000000
-18.098500 0.000000
-18.079900 0.000000
-18.061300 0.000000
-18.042600 0.000000
-18.024000 0.000000
-18.005400 0.000000
-17.986800 0.000000
-17.968200 0.000000
-17.949600 0.000000
-17.931000 0.000000
-17.912400 0.000000
-17.893800 0.000000
-17.875200 0.000000
-17.856500 0.000000
-17.837900 0.000000
-17.819300 0.000000
-17.800700 0.000000
-17.782100 0.000000
-17.763500 0.000000
-17.744900 0.000000
-17.726300 0.000000
-17.707700 0.000000
-17.689100 0.000000
-17.670400 0.000000
-17.651800 0.000000
-17.633200 0.000000
-17.614600 0.000000
-17.596000 0.000000
-17.577400 0.000000
-17.558800 0.000000
-17.540200 0.000000
-17.521600 0.000000
-17.502900 0.000000
-17.484300 0.000000
-17.465700 0.000000
-17.447100 0.000000
-17.428500 0.000000
-17.409900 0.000000
-17.391300 0.000000
-17.372700 0.000000
-17.354100 0.000000
-17.335500 0.000000
-17.316800 0.000000
-17.298200 0.000000
-17.279600 0.000000
-17.261000 0.066700
-17.242400 2.973600
-17.223800 3.872400
-17.205200 3.430300
-17.186600 3.756300
-17.168000 4.073600
-17.149400 3.912600
-17.130700 3.772600
-17.112100 3.938400
-17.093500 4.104100
-17.074900 4.269800
-17.056300 4.435500
-17.037700 4.474600
-17.019100 4.661300
-17.000500 4.884800
-16.981900 5.322100
-16.963300 5.760500
-16.944600 6.199100
-16.926000 6.790800
-16.907400 5.965900
-16.888800 4.578400
-16.870200 3.779500
-16.851600 2.980600
-16.833000 2.181600
-16.814400 0.000000
-16.795800 0.000000
-16.777200 0.000000
-16.758500 0.000000
-16.739900 0.000000
-16.721300 0.000000
-16.702700 6.637900
-16.684100 3.279300
-16.665500 4.556000
-16.646900 9.102600
-16.628300 8.206900
-16.609700 6.436300
-16.591100 5.902500
-16.572400 5.482100
-16.553800 5.068500
-16.535200 4.856100
-16.516600 4.653300
-16.498000 4.450600
-16.479400 4.340200
-16.460800 4.207700
-16.442200 4.075200
-16.423600 3.942600
-16.404900 4.062800
-16.386300 4.299200
-16.367700 3.970300
-16.349100 3.641300
-16.330500 4.424400
-16.311900 2.354900
-16.293300 0.000000
-16.274700 0.000000
-16.256100 0.000000
-16.237500 0.000000
-16.218800 0.000000
-16.200200 0.000000
-16.181600 0.000000
-16.163000 0.000000
-16.144400 0.000000
-16.125800 0.000000
-16.107200 0.000000
-16.088600 0.000000
-16.070000 0.000000
-16.051400 0.000000
-16.032700 0.000000
-16.014100 0.000000
-15.995500 0.000000
-15.976900 0.000000
-15.958300 4.797800
-15.939700 5.437200
-15.921100 5.967100
-15.902500 6.374200
-15.883900 9.249700
-15.865300 10.491900
-15.846600 11.154000
-15.828000 8.291100
-15.809400 6.163700
-15.790800 5.556500
-15.772200 4.949400
-15.753600 4.342300
-15.735000 4.072400
-15.716400 3.875100
-15.697800 3.488400
-15.679200 3.101800
-15.660500 2.715200
-15.641900 3.291800
-15.623300 1.280800
-15.604700 0.038700
-15.586100 0.000000
-15.567500 0.000000
-15.548900 0.000000
-15.530300 0.000000
-15.511700 0.000000
-15.493100 0.000000
-15.474400 5.703100
-15.455800 30.013500
-15.437200 19.987300
-15.418600 19.732600
-15.400000 17.492900
-15.381400 17.713100
-15.362800 11.540000
-15.344200 17.333900
-15.325600 40.335000
-15.306900 0.000000
-15.288300 0.000000
-15.269700 0.000000
-15.251100 0.000000
-15.232500 0.000000
-15.213900 0.000000
-15.195300 0.000000
-15.176700 0.000000
-15.158100 0.000000
-15.139500 0.000000
-15.120800 0.000000
-15.102200 0.000000
-15.083600 0.000000
-15.065000 0.000000
-15.046400 0.000000
-15.027800 0.000000
-15.009200 0.000000
-14.990600 0.000000
-14.972000 0.000000
-14.953400 40.663500
-14.934700 21.672200
-14.916100 15.689800
-14.897500 11.426000
-14.878900 0.000000
-14.860300 0.000000
-14.841700 0.000000
-14.823100 0.000000
-14.804500 6.889100
-14.785900 47.380600
-14.767300 25.893100
-14.748600 12.639600
-14.730000 21.534700
-14.711400 0.000000
-14.692800 0.000000
-14.674200 0.000000
-14.655600 0.000000
-14.637000 0.000000
-14.618400 0.000000
-14.599800 0.000000
-14.581200 0.000000
-14.562500 0.000000
-14.543900 0.000000
-14.525300 0.000000
-14.506700 0.000000
-14.488100 0.000000
-14.469500 0.000000
-14.450900 0.000000
-14.432300 0.000000
-14.413700 0.000000
-14.395100 0.000000
-14.376400 0.000000
-14.357800 0.000000
-14.339200 0.000000
-14.320600 0.000000
-14.302000 0.000000
-14.283400 0.000000
-14.264800 0.000000
-14.246200 0.000000
-14.227600 0.000000
-14.208900 0.000000
-14.190300 0.000000
-14.171700 0.000000
-14.153100 0.000000
-14.134500 0.000000
-14.115900 0.000000
-14.097300 0.000000
-14.078700 0.000000
-14.060100 0.000000
-14.041500 0.000000
-14.022800 0.000000
-14.004200 0.000000
-13.985600 0.000000
-13.967000 0.000000
-13.948400 0.000000
-13.929800 0.000000
-13.911200 0.000000
-13.892600 0.000000
-13.874000 0.000000
-13.855400 0.000000
-13.836700 0.000000
-13.818100 0.000000
-13.799500 0.000000
-13.780900 0.000000
-13.762300 0.000000
-13.743700 0.000000
-13.725100 0.000000
-13.706500 0.000000
-13.687900 0.000000
-13.669300 0.000000
-13.650600 0.000000
-13.632000 0.000000
-13.613400 0.000000
-13.594800 0.000000
-13.576200 0.000000
-13.557600 0.000000
-13.539000 0.000000
-13.520400 0.000000
-13.501800 0.000000
-13.483200 0.000000
-13.464500 0.000000
-13.445900 0.000000
-13.427300 0.000000
-13.408700 0.000000
-13.390100 0.000000
-13.371500 0.000000
-13.352900 0.000000
-13.334300 0.000000
-13.315700 0.000000
-13.297000 0.000000
-13.278400 0.000000
-13.259800 0.000000
-13.241200 0.000000
-13.222600 0.000000
-13.204000 0.000000
-13.185400 0.000000
-13.166800 0.000000
-13.148200 0.000000
-13.129600 0.000000
-13.110900 0.000000
-13.092300 0.000000
-13.073700 0.000000
-13.055100 0.000000
-13.036500 0.000000
-13.017900 0.000000
-12.999300 0.000000
-12.980700 0.000000
-12.962100 0.000000
-12.943500 0.000000
-12.924800 0.000000
-12.906200 0.000000
-12.887600 0.000000
-12.869000 0.000000
-12.850400 0.000000
-12.831800 0.000000
-12.813200 0.000000
-12.794600 0.000000
-12.776000 0.000000
-12.757400 0.000000
-12.738700 0.000000
-12.720100 0.000000
-12.701500 0.000000
-12.682900 0.000000
-12.664300 0.000000
-12.645700 0.000000
-12.627100 0.000000
-12.608500 0.000000
-12.589900 0.000000
-12.571300 0.000000
-12.552600 0.000000
-12.534000 0.000000
-12.515400 0.000000
-12.496800 0.000000
-12.478200 0.000000
-12.459600 0.000000
-12.441000 0.000000
-12.422400 0.000000
-12.403800 0.000000
-12.385200 0.000000
-12.366500 0.000000
-12.347900 0.000000
-12.329300 0.000000
-12.310700 0.000000
-12.292100 0.000000
-12.273500 0.000000
-12.254900 0.000000
-12.236300 0.000000
-12.217700 0.000000
-12.199000 0.000000
-12.180400 0.000000
-12.161800 0.000000
-12.143200 0.000000
-12.124600 0.000000
-12.106000 0.000000
-12.087400 0.000000
-12.068800 0.000000
-12.050200 0.000000
-12.031600 0.000000
-12.012900 0.000000
-11.994300 0.000000
-11.975700 0.000000
-11.957100 0.000000
-11.938500 0.000000
-11.919900 0.000000
-11.901300 0.000000
-11.882700 0.000000
-11.864100 0.000000
-11.845500 0.000000
-11.826800 0.000000
-11.808200 0.000000
-11.789600 0.000000
-11.771000 0.000000
-11.752400 0.000000
-11.733800 0.000000
-11.715200 0.000000
-11.696600 0.000000
-11.678000 0.000000
-11.659400 0.000000
-11.640700 0.000000
-11.622100 0.000000
-11.603500 0.000000
-11.584900 0.000000
-11.566300 0.000000
-11.547700 0.000000
-11.529100 0.000000
-11.510500 0.000000
-11.491900 0.000000
-11.473300 0.000000
-11.454600 0.000000
-11.436000 0.000000
-11.417400 0.000000
-11.398800 0.000000
-11.380200 0.000000
-11.361600 0.000000
-11.343000 0.000000
-11.324400 0.000000
-11.305800 0.000000
-11.287200 0.000000
-11.268500 0.000000
-11.249900 0.000000
-11.231300 0.000000
-11.212700 0.000000
-11.194100 0.000000
-11.175500 0.000000
-11.156900 0.000000
-11.138300 0.000000
-11.119700 0.000000
-11.101000 0.000000
-11.082400 0.000000
-11.063800 0.000000
-11.045200 0.000000
-11.026600 0.000000
-11.008000 0.000000
-10.989400 0.000000
-10.970800 0.000000
-10.952200 0.000000
-10.933600 0.000000
-10.914900 0.000000
-10.896300 0.000000
-10.877700 0.000000
-10.859100 0.000000
-10.840500 0.000000
-10.821900 0.000000
-10.803300 0.000000
-10.784700 0.000000
-10.766100 0.000000
-10.747500 0.000000
-10.728800 0.000000
-10.710200 0.000000
-10.691600 0.000000
-10.673000 0.000000
-10.654400 0.000000
-10.635800 0.000000
-10.617200 0.000000
-10.598600 0.000000
-10.580000 0.000000
-10.561400 0.000000
-10.542700 0.000000
-10.524100 0.000000
-10.505500 0.000000
-10.486900 0.000000
-10.468300 0.000000
-10.449700 0.000000
-10.431100 0.000000
-10.412500 0.000000
-10.393900 0.000000
-10.375300 0.000000
-10.356600 0.000000
-10.338000 0.000000
-10.319400 0.000000
-10.300800 0.000000
-10.282200 0.000000
-10.263600 0.000000
-10.245000 0.000000
-10.226400 0.000000
-10.207800 0.000000
-10.189200 0.000000
-10.170500 0.000000
-10.151900 0.000000
-10.133300 0.000000
-10.114700 0.000000
-10.096100 0.000000
-10.077500 0.000000
-10.058900 0.000000
-10.040300 0.000000
-10.021700 0.000000
-10.003000 0.000000
-9.984400 0.000000
-9.965800 0.000000
-9.947200 0.000000
-9.928600 0.000000
-9.910000 0.000000
-9.891400 0.000000
-9.872800 0.000000
-9.854200 0.000000
-9.835600 0.000000
-9.816900 0.000000
-9.798300 0.000000
-9.779700 0.000000
-9.761100 0.000000
-9.742500 0.000000
-9.723900 0.000000
-9.705300 0.000000
-9.686700 0.000000
-9.668100 0.000000
-9.649500 0.000000
-9.630800 0.000000
-9.612200 0.000000
-9.593600 0.000000
-9.575000 0.000000
-9.556400 0.000000
-9.537800 0.000000
-9.519200 0.000000
-9.500600 0.000000
-9.482000 0.000000
-9.463400 0.000000
-9.444700 0.000000
-9.426100 0.000000
-9.407500 0.000000
-9.388900 0.000000
-9.370300 0.000000
-9.351700 0.000000
-9.333100 0.000000
-9.314500 0.000000
-9.295900 0.000000
-9.277300 0.000000
-9.258600 0.000000
-9.240000 0.000000
-9.221400 0.000000
-9.202800 0.000000
-9.184200 0.000000
-9.165600 0.000000
-9.147000 0.000000
-9.128400 0.000000
-9.109800 0.000000
-9.091200 0.000000
-9.072500 0.000000
-9.053900 0.000000
-9.035300 0.000000
-9.016700 0.000000
-8.998100 0.000000
-8.979500 0.000000
-8.960900 0.000000
-8.942300 0.000000
-8.923700 0.000000
-8.905000 0.000000
-8.886400 0.000000
-8.867800 0.000000
-8.849200 0.000000
-8.830600 0.000000
-8.812000 0.000000
-8.793400 0.000000
-8.774800 0.000000
-8.756200 0.000000
-8.737600 0.000000
-8.718900 0.000000
-8.700300 0.000000
-8.681700 0.000000
-8.663100 0.000000
-8.644500 0.000000
-8.625900 0.000000
-8.607300 0.000000
-8.588700 0.000000
-8.570100 0.000000
-8.551500 0.000000
-8.532800 0.000000
-8.514200 0.000000
-8.495600 0.000000
-8.477000 0.000000
-8.458400 0.000000
-8.439800 0.000000
-8.421200 0.000000
-8.402600 0.000000
-8.384000 0.000000
-8.365400 0.000000
-8.346700 0.000000
-8.328100 0.000000
-8.309500 0.000000
-8.290900 0.000000
-8.272300 0.000000
-8.253700 0.000000
-8.235100 0.000000
-8.216500 0.000000
-8.197900 0.000000
-8.179300 0.000000
-8.160600 0.000000
-8.142000 0.000000
-8.123400 0.000000
-8.104800 0.000000
-8.086200 0.000000
-8.067600 0.000000
-8.049000 0.000000
-8.030400 0.000000
-8.011800 0.000000
-7.993200 0.000000
-7.974500 0.000000
-7.955900 0.000000
-7.937300 0.000000
-7.918700 0.000000
-7.900100 0.000000
-7.881500 0.000000
-7.862900 0.000000
-7.844300 0.000000
-7.825700 0.000000
-7.807000 0.000000
-7.788400 0.000000
-7.769800 0.000000
-7.751200 0.000000
-7.732600 0.000000
-7.714000 0.000000
-7.695400 0.000000
-7.676800 0.000000
-7.658200 0.000000
-7.639600 0.000000
-7.620900 0.000000
-7.602300 0.000000
-7.583700 0.000000
-7.565100 0.000000
-7.546500 0.000000
-7.527900 0.000000
-7.509300 0.000000
-7.490700 0.000000
-7.472100 0.000000
-7.453500 0.000000
-7.434800 0.000000
-7.416200 0.000000
-7.397600 0.000000
-7.379000 0.000000
-7.360400 0.000000
-7.341800 0.000000
-7.323200 0.000000
-7.304600 0.000000
-7.286000 0.000000
-7.267400 0.000000
-7.248700 0.000000
-7.230100 0.000000
-7.211500 0.000000
-7.192900 0.000000
-7.174300 0.000000
-7.155700 0.000000
-7.137100 0.000000
-7.118500 0.000000
-7.099900 0.000000
-7.081300 0.000000
-7.062600 0.000000
-7.044000 5.917900
-7.025400 6.621700
-7.006800 8.728900
-6.988200 19.866200
-6.969600 28.470500
-6.951000 14.443200
-6.932400 11.110700
-6.913800 7.850100
-6.895200 6.872800
-6.876500 5.894100
-6.857900 4.733600
-6.839300 3.070900
-6.820700 3.183100
-6.802100 3.734000
-6.783500 3.823200
-6.764900 4.129600
-6.746300 4.918100
-6.727700 5.752100
-6.709000 6.247800
-6.690400 5.848800
-6.671800 5.677400
-6.653200 5.552900
-6.634600 5.427800
-6.616000 5.301400
-6.597400 5.021400
-6.578800 4.653900
-6.560200 4.268500
-6.541600 4.075900
-6.522900 3.883700
-6.504300 3.604200
-6.485700 3.370800
-6.467100 3.210300
-6.448500 3.166800
-6.429900 3.123300
-6.411300 3.079700
-6.392700 3.036200
-6.374100 2.992600
-6.355500 2.949000
-6.336800 3.056100
-6.318200 3.111800
-6.299600 3.147900
-6.281000 3.196800
-6.262400 3.115500
-6.243800 3.034100
-6.225200 2.952700
-6.206600 2.871100
-6.188000 2.889400
-6.169400 3.157900
-6.150700 3.499000
-6.132100 3.879100
-6.113500 4.059000
-6.094900 1.863200
-6.076300 1.791500
-6.057700 1.839100
-6.039100 1.893000
-6.020500 1.952300
-6.001900 2.011600
-5.983300 2.070900
-5.964600 2.130200
-5.946000 2.189500
-5.927400 2.248800
-5.908800 2.308200
-5.890200 2.367500
-5.871600 2.802900
-5.853000 4.227600
-5.834400 4.946000
-5.815800 3.536300
-5.797200 3.338800
-5.778500 2.005500
-5.759900 0.877100
-5.741300 0.625800
-5.722700 0.374400
-5.704100 0.154300
-5.685500 0.035400
-5.666900 0.000000
-5.648300 0.000000
-5.629700 0.000000
-5.611000 0.000000
-5.592400 0.000000
-5.573800 0.000000
-5.555200 0.000000
-5.536600 0.000000
-5.518000 0.000000
-5.499400 0.000000
-5.480800 0.000000
-5.462200 0.000000
-5.443600 2.350400
-5.424900 0.542500
-5.406300 0.601400
-5.387700 0.660200
-5.369100 0.719000
-5.350500 0.777900
-5.331900 0.836700
-5.313300 0.895500
-5.294700 0.954300
-5.276100 1.013100
-5.257500 1.071800
-5.238800 1.130600
-5.220200 1.189400
-5.201600 1.282300
-5.183000 1.566200
-5.164400 2.048900
-5.145800 2.893700
-5.127200 3.819600
-5.108600 3.267700
-5.090000 2.272900
-5.071400 1.740500
-5.052700 1.657300
-5.034100 1.602100
-5.015500 1.571900
-4.996900 1.547600
-4.978300 1.523200
-4.959700 1.498900
-4.941100 1.474600
-4.922500 1.450300
-4.903900 1.426000
-4.885300 1.401700
-4.866600 1.377400
-4.848000 1.353200
-4.829400 1.328900
-4.810800 1.304600
-4.792200 1.283200
-4.773600 1.266000
-4.755000 1.251500
-4.736400 1.240700
-4.717800 1.231600
-4.699200 1.222600
-4.680500 1.213500
-4.661900 1.204500
-4.643300 1.195400
-4.624700 1.186400
-4.606100 1.193600
-4.587500 1.194300
-4.568900 1.195000
-4.550300 1.200200
-4.531700 1.188900
-4.513000 1.177500
-4.494400 1.166200
-4.475800 1.154900
-4.457200 1.143600
-4.438600 1.132300
-4.420000 1.121000
-4.401400 1.109600
-4.382800 1.098300
-4.364200 1.087000
-4.345600 1.075700
-4.326900 1.064400
-4.308300 1.056600
-4.289700 1.061500
-4.271100 1.075700
-4.252500 1.100200
-4.233900 1.139400
-4.215300 1.179900
-4.196700 1.207400
-4.178100 1.219800
-4.159500 1.219600
-4.140800 1.199000
-4.122200 1.170400
-4.103600 1.141700
-4.085000 1.113000
-4.066400 1.084400
-4.047800 1.055700
-4.029200 1.027000
-4.010600 1.160400
-3.992000 1.256000
-3.973400 1.254700
-3.954700 1.351500
-3.936100 0.980300
-3.917500 0.609800
-3.898900 0.325000
-3.880300 0.118400
-3.861700 0.000800
-3.843100 0.000000
-3.824500 0.000000
-3.805900 0.000000
-3.787300 0.000000
-3.768600 0.000000
-3.750000 0.000000
-3.731400 0.000000
-3.712800 0.000000
-3.694200 0.000000
-3.675600 0.000000
-3.657000 1.407000
-3.638400 5.001500
-3.619800 6.695900
-3.601200 12.585300
-3.582500 17.691900
-3.563900 19.140200
-3.545300 16.033400
-3.526700 12.327500
-3.508100 9.890500
-3.489500 8.412200
-3.470900 17.142600
-3.452300 3.270600
-3.433700 2.148100
-3.415000 2.435100
-3.396400 2.722200
-3.377800 3.007300
-3.359200 3.163100
-3.340600 3.254900
-3.322000 3.347400
-3.303400 5.505300
-3.284800 7.572400
-3.266200 8.093900
-3.247600 12.328400
-3.228900 18.848200
-3.210300 15.585600
-3.191700 6.557900
-3.173100 0.000000
-3.154500 0.000000
-3.135900 0.000000
-3.117300 0.000000
-3.098700 0.000000
-3.080100 0.000000
-3.061500 0.224900
-3.042800 1.202100
-3.024200 2.821600
-3.005600 5.243400
-2.987000 9.861600
-2.968400 8.548100
-2.949800 8.827400
-2.931200 9.136700
-2.912600 9.184500
-2.894000 8.618500
-2.875400 7.232800
-2.856700 5.609400
-2.838100 3.311700
-2.819500 2.684400
-2.800900 2.351000
-2.782300 2.077900
-2.763700 1.848300
-2.745100 8.080100
-2.726500 4.587600
-2.707900 4.959800
-2.689300 5.349400
-2.670600 6.499900
-2.652000 9.633200
-2.633400 14.346600
-2.614800 31.110600
-2.596200 15.553200
-2.577600 7.680100
-2.559000 7.959700
-2.540400 8.334600
-2.521800 8.878000
-2.503200 13.479400
-2.484500 13.429600
-2.465900 12.650500
-2.447300 11.546600
-2.428700 10.366400
-2.410100 9.832900
-2.391500 9.667600
-2.372900 9.064200
-2.354300 7.046400
-2.335700 2.711500
-2.317000 1.121200
-2.298400 0.731900
-2.279800 0.659400
-2.261200 0.585100
-2.242600 0.528900
-2.224000 0.495100
-2.205400 1.199300
-2.186800 4.263600
-2.168200 6.137900
-2.149600 5.689700
-2.130900 5.252800
-2.112300 4.833400
-2.093700 4.516500
-2.075100 4.733100
-2.056500 5.028800
-2.037900 5.391600
-2.019300 7.147200
-2.000700 6.583300
-1.982100 4.858000
-1.963500 5.030400
-1.944800 5.202900
-1.926200 14.575300
-1.907600 9.174600
-1.889000 5.165100
-1.870400 3.640000
-1.851800 2.117200
-1.833200 1.369400
-1.814600 1.646300
-1.796000 2.511900
-1.777400 6.554300
-1.758700 9.776800
-1.740100 10.631800
-1.721500 10.247100
-1.702900 12.718000
-1.684300 11.877400
-1.665700 10.968000
-1.647100 9.951900
-1.628500 8.831600
-1.609900 8.363400
-1.591300 8.416100
-1.572600 5.928600
-1.554000 10.918700
-1.535400 6.678100
-1.516800 6.207700
-1.498200 5.737400
-1.479600 5.267300
-1.461000 5.591500
-1.442400 5.870200
-1.423800 5.232100
-1.405200 8.188200
-1.386500 9.694900
-1.367900 9.643200
-1.349300 7.724300
-1.330700 4.717200
-1.312100 1.430700
-1.293500 0.000000
-1.274900 0.000000
-1.256300 0.000000
-1.237700 0.000000
-1.219000 0.000000
-1.200400 0.069000
-1.181800 0.487200
-1.163200 1.041600
-1.144600 1.601100
-1.126000 7.478900
-1.107400 7.821200
-1.088800 9.753900
-1.070200 12.000000
-1.051600 13.024500
-1.032900 12.361700
-1.014300 12.015400
-0.995700 13.259400
-0.977100 10.617800
-0.958500 4.526800
-0.939900 3.954700
-0.921300 4.399800
-0.902700 5.420100
-0.884100 5.977800
-0.865500 6.490600
-0.846800 7.133800
-0.828200 6.971000
-0.809600 6.815600
-0.791000 8.259600
-0.772400 9.866500
-0.753800 10.199800
-0.735200 9.382200
-0.716600 10.242800
-0.698000 10.577800
-0.679400 9.239000
-0.660700 7.929700
-0.642100 7.224600
-0.623500 6.631800
-0.604900 6.390800
-0.586300 6.210500
-0.567700 6.067500
-0.549100 6.041300
-0.530500 6.849800
-0.511900 7.950000
-0.493300 7.316000
-0.474600 5.722100
-0.456000 4.227100
-0.437400 4.030900
-0.418800 4.582000
-0.400200 6.743500
-0.381600 5.846900
-0.363000 10.179300
-0.344400 17.426200
-0.325800 11.864500
-0.307200 10.368400
-0.288500 10.045700
-0.269900 10.560900
-0.251300 4.672500
-0.232700 2.951400
-0.214100 2.139400
-0.195500 1.950600
-0.176900 1.938700
-0.158300 1.904400
-0.139700 1.690200
-0.121000 1.453100
-0.102400 2.489100
-0.083800 4.158200
-0.065200 5.618800
-0.046600 9.322100
-0.028000 13.367400
-0.009400 17.378900
0.009200 20.205200
0.027800 12.399400
0.046400 8.323800
0.065100 5.364300
0.083700 4.310400
0.102300 3.252100
0.120900 2.567200
0.139500 2.188300
0.158100 2.130800
0.176700 1.653700
0.195300 0.775400
0.213900 4.165300
0.232500 8.719000
0.251200 11.937200
0.269800 14.320300
0.288400 21.431600
0.307000 26.623600
0.325600 17.481800
0.344200 9.431400
0.362800 9.079900
0.381400 23.438100
0.400000 36.149300
0.418600 20.362000
0.437300 13.661000
0.455900 11.186700
0.474500 27.371000
0.493100 24.332500
0.511700 16.770200
0.530300 12.780600
0.548900 3.916700
0.567500 0.000000
0.586100 6.206200
0.604700 23.030100
0.623400 42.397300
0.642000 27.091600
0.660600 18.704600
0.679200 16.844800
0.697800 10.440900
0.716400 9.522800
0.735000 9.400400
0.753600 9.865300
0.772200 10.307400
0.790800 7.084700
0.809500 7.077100
0.828100 8.636400
0.846700 16.440000
0.865300 15.032100
0.883900 10.825500
0.902500 7.202800
0.921100 6.501500
0.939700 6.196800
0.958300 5.898300
0.977000 5.997100
0.995600 6.370600
1.014200 4.794800
1.032800 4.133600
1.051400 3.599100
1.070000 3.107800
1.088600 3.098800
1.107200 2.810500
1.125800 0.072400
1.144400 0.000000
1.163100 0.000000
1.181700 0.000000
1.200300 0.000000
1.218900 0.000000
1.237500 0.000000
1.256100 0.000000
1.274700 0.000000
1.293300 0.000000
1.311900 0.000000
1.330500 0.000000
1.349200 0.000000
1.367800 0.000000
1.386400 0.000000
1.405000 0.000000
1.423600 0.000000
1.442200 0.000000
1.460800 0.000000
1.479400 0.000000
1.498000 0.000000
1.516600 0.000000
1.535300 16.438900
1.553900 61.367600
1.572500 109.946700
1.591100 0.000000
1.609700 0.000000
1.628300 0.000000
1.646900 0.000000
1.665500 0.000000
1.684100 0.000000
1.702700 0.000000
1.721400 0.000000
1.740000 0.000000
1.758600 0.000000
1.777200 0.000000
1.795800 0.000000
1.814400 0.000000
1.833000 0.000000
1.851600 0.000000
1.870200 0.000000
1.888800 0.000000
1.907500 0.000000
1.926100 0.000000
1.944700 0.000000
1.963300 0.000000
1.981900 0.000000
2.000500 0.000000
2.019100 0.000000
2.037700 0.000000
2.056300 0.000000
2.075000 0.000000
2.093600 0.000000
2.112200 0.000000
2.130800 0.000000
2.149400 0.000000
2.168000 0.000000
2.186600 0.000000
2.205200 0.000000
2.223800 0.000000
2.242400 0.000000
2.261100 0.000000
2.279700 0.000000
2.298300 0.000000
2.316900 0.000000
2.335500 0.000000
2.354100 0.000000
2.372700 0.000000
2.391300 0.000000
2.409900 0.000000
2.428500 0.000000
2.447200 0.000000
2.465800 0.000000
2.484400 0.000000
2.503000 0.000000
2.521600 0.000000
2.540200 0.000000
2.558800 0.000000
2.577400 0.000000
2.596000 0.000000
2.614600 0.000000
2.633300 0.000000
2.651900 0.000000
2.670500 0.000000
2.689100 0.000000
2.707700 0.104200
2.726300 0.204600
2.744900 0.287300
2.763500 0.328100
2.782100 0.362900
2.800700 0.404600
2.819400 0.451700
2.838000 0.500300
2.856600 0.551300
2.875200 0.605600
2.893800 0.661700
2.912400 0.719500
2.931000 0.779000
2.949600 0.829500
2.968200 0.880300
2.986900 0.949100
3.005500 1.039600
3.024100 1.140400
3.042700 1.244600
3.061300 1.349300
3.079900 1.455100
3.098500 1.668300
3.117100 2.065800
3.135700 2.117500
3.154300 2.013000
3.173000 2.078800
3.191600 2.124400
3.210200 2.163600
3.228800 2.184400
3.247400 2.164600
3.266000 2.180400
3.284600 2.252000
3.303200 2.329700
3.321800 2.410000
3.340400 2.492800
3.359100 2.585700
3.377700 2.689400
3.396300 2.790300
3.414900 2.923000
3.433500 3.091200
3.452100 3.304900
3.470700 3.556300
3.489300 3.811700
3.507900 4.071300
3.526500 5.989800
3.545200 6.189100
3.563800 3.213600
3.582400 2.921500
3.601000 2.754100
3.619600 2.513900
3.638200 2.273800
3.656800 2.033900
3.675400 1.794000
3.694000 1.554300
3.712600 1.662200
3.731300 0.287100
3.749900 0.565100
3.768500 0.892300
3.787100 1.087200
3.805700 1.332000
3.824300 1.607200
3.842900 1.785300
3.861500 2.094700
3.880100 2.414200
3.898700 2.799700
3.917400 3.554200
3.936000 4.220200
3.954600 4.494500
3.973200 5.044000
3.991800 5.640100
4.010400 6.368000
4.029000 12.015600
4.047600 25.305900
4.066200 26.590400
4.084900 10.149200
4.103500 1.101800
4.122100 1.124900
4.140700 1.147900
4.159300 1.170800
4.177900 1.193700
4.196500 1.217100
4.215100 1.241100
4.233700 1.265600
4.252300 1.290800
4.271000 1.315800
4.289600 1.340500
4.308200 1.365100
4.326800 1.389000
4.345400 1.412100
4.364000 1.435100
4.382600 1.458100
4.401200 1.481200
4.419800 1.504200
4.438400 1.578600
4.457100 1.642300
4.475700 1.708400
4.494300 1.783300
4.512900 1.871100
4.531500 1.980500
4.550100 2.114700
4.568700 2.203200
4.587300 2.298200
4.605900 2.398800
4.624500 2.504600
4.643200 2.617500
4.661800 2.739600
4.680400 2.880700
4.699000 3.067600
4.717600 3.564800
4.736200 4.737900
4.754800 7.242300
4.773400 7.708900
4.792000 6.819300
4.810600 3.762000
4.829300 4.760600
4.847900 0.000000
4.866500 0.000000
4.885100 0.000000
4.903700 0.000000
4.922300 0.000000
4.940900 0.000000
4.959500 0.000000
4.978100 0.000000
4.996700 0.000000
5.015400 0.000000
5.034000 0.000000
5.052600 0.000000
5.071200 0.000000
5.089800 0.000000
5.108400 0.000000
5.127000 0.027700
5.145600 0.078100
5.164200 0.145500
5.182900 0.226200
5.201500 0.313200
5.220100 0.406300
5.238700 0.493400
5.257300 0.496000
5.275900 0.527800
5.294500 0.575200
5.313100 0.622400
5.331700 0.669700
5.350300 0.719000
5.369000 0.782000
5.387600 0.850500
5.406200 0.915200
5.424800 0.976100
5.443400 1.033100
5.462000 1.077400
5.480600 1.106300
5.499200 1.119600
5.517800 1.122600
5.536400 1.174200
5.555100 1.226900
5.573700 1.276600
5.592300 1.326100
5.610900 1.376000
5.629500 1.426800
5.648100 1.480100
5.666700 1.536400
5.685300 1.595600
5.703900 1.657700
5.722500 1.722600
5.741200 1.795600
5.759800 2.332600
5.778400 2.933900
5.797000 3.439600
5.815600 4.688500
5.834200 9.022500
5.852800 8.760100
5.871400 9.067000
5.890000 8.659700
5.908600 9.427700
5.927300 7.269600
5.945900 5.329100
5.964500 3.436900
5.983100 0.424500
6.001700 0.068800
6.020300 0.229600
6.038900 0.468500
6.057500 0.807000
6.076100 1.247200
6.094700 1.904300
6.113400 4.273500
6.132000 12.945900
6.150600 12.534600
6.169200 12.055800
6.187800 12.465200
6.206400 15.009400
6.225000 15.852700
6.243600 13.572200
6.262200 9.011600
6.280900 6.854800
6.299500 7.253700
6.318100 10.829900
6.336700 16.242600
6.355300 17.048400
6.373900 15.771300
6.392500 14.480900
6.411100 8.220400
6.429700 6.075000
6.448300 4.985700
6.467000 6.080700
6.485600 1.645500
6.504200 1.765500
6.522800 1.886800
6.541400 2.084000
6.560000 2.310700
6.578600 2.467500
6.597200 2.435800
6.615800 2.398400
6.634400 2.456700
6.653100 2.533400
6.671700 2.625900
6.690300 2.728700
6.708900 2.977200
6.727500 3.196400
6.746100 3.366900
6.764700 3.344000
6.783300 3.308900
6.801900 3.265300
6.820500 3.243800
6.839200 3.293100
6.857800 3.365100
6.876400 3.466300
6.895000 3.602700
6.913600 3.712500
6.932200 3.835400
6.950800 4.354000
6.969400 4.060800
6.988000 3.479400
7.006600 2.439700
7.025300 2.021800
7.043900 1.861200
7.062500 1.728700
7.081100 1.755500
7.099700 1.731800
7.118300 1.449400
7.136900 1.152100
7.155500 0.909600
7.174100 0.652100
7.192700 0.209000
7.211400 0.000000
7.230000 0.000000
7.248600 0.000000
7.267200 0.000000
7.285800 0.000000
7.304400 0.000000
7.323000 0.000000
7.341600 0.000000
7.360200 0.000000
7.378900 0.000000
7.397500 0.000000
7.416100 0.000000
7.434700 0.000000
7.453300 0.000000
7.471900 0.000000
7.490500 0.000000
7.509100 0.197700
7.527700 0.874900
7.546300 1.406900
7.565000 1.822500
7.583600 2.282800
7.602200 2.717400
7.620800 4.733900
7.639400 8.837400
7.658000 9.809500
7.676600 10.263300
7.695200 10.447600
7.713800 9.996300
7.732400 9.010400
7.751100 7.784200
7.769700 6.898900
7.788300 6.058900
7.806900 4.987400
7.825500 3.648600
7.844100 3.119600
7.862700 3.005500
7.881300 2.794600
7.899900 2.547400
7.918500 2.207600
7.937200 1.869200
7.955800 1.726600
7.974400 1.616300
7.993000 1.536500
8.011600 1.539700
8.030200 1.561800
8.048800 1.582600
8.067400 1.596200
8.086000 1.587800
8.104600 1.578200
8.123300 1.575000
8.141900 1.578500
8.160500 1.588600
8.179100 1.605900
8.197700 1.633300
8.216300 1.696800
8.234900 1.839500
8.253500 1.962000
8.272100 2.088100
8.290700 2.232100
8.309400 2.398400
8.328000 3.362100
8.346600 5.300100
8.365200 6.206300
8.383800 6.338600
8.402400 6.193600
8.421000 5.717600
8.439600 5.275400
8.458200 4.882400
8.476900 4.445300
8.495500 3.840100
8.514100 3.152600
8.532700 2.545100
8.551300 1.991300
8.569900 1.419500
8.588500 0.887400
8.607100 0.466900
8.625700 0.149900
8.644300 0.000000
8.663000 0.000000
8.681600 0.000000
8.700200 0.000000
8.718800 0.000000
8.737400 0.016500
8.756000 0.096800
8.774600 0.232000
8.793200 0.450200
8.811800 0.764600
8.830400 1.164300
8.849100 1.652400
8.867700 2.455400
8.886300 3.401700
8.904900 5.126900
8.923500 5.248800
8.942100 5.879200
8.960700 6.113700
8.979300 6.785300
8.997900 8.714200
9.016500 7.366000
9.035200 7.072600
9.053800 6.710900
9.072400 6.515800
9.091000 7.496000
9.109600 5.870300
9.128200 3.853200
9.146800 3.663900
9.165400 3.376000
9.184000 3.492100
9.202600 4.447300
9.221300 4.817500
9.239900 4.944400
9.258500 5.733700
9.277100 4.949100
9.295700 4.474400
9.314300 4.241500
9.332900 4.328400
9.351500 4.478700
9.370100 4.575300
9.388700 3.566000
9.407400 3.131500
9.426000 2.876000
9.444600 2.730700
9.463200 2.584400
9.481800 2.380900
9.500400 2.226900
9.519000 2.092200
9.537600 1.965100
9.556200 1.841600
9.574900 1.726600
9.593500 1.617300
9.612100 1.571300
9.630700 1.541100
9.649300 1.510900
9.667900 1.480800
9.686500 1.450800
9.705100 1.717000
9.723700 2.568800
9.742300 7.678800
9.761000 6.610400
9.779600 7.510100
9.798200 8.736500
9.816800 9.230600
9.835400 8.985000
9.854000 6.910500
9.872600 5.049300
9.891200 4.973600
9.909800 4.897500
9.928400 4.809900
9.947100 4.362000
9.965700 4.155800
9.984300 3.963900
10.002900 3.924400
10.021500 5.291500
10.040100 7.095500
10.058700 9.454800
10.077300 10.829800
10.095900 10.507900
10.114500 10.479700
10.133200 10.402000
10.151800 9.301800
10.170400 8.831800
10.189000 8.611000
10.207600 8.390700
10.226200 8.003900
10.244800 7.513900
10.263400 7.109600
10.282000 6.935100
10.300600 5.082700
10.319300 3.449700
10.337900 2.727700
10.356500 2.198500
10.375100 1.934900
10.393700 1.752400
10.412300 2.915300
10.430900 1.516500
10.449500 1.595700
10.468100 1.676000
10.486700 1.757300
10.505400 1.839800
10.524000 1.928600
10.542600 2.046000
10.561200 2.207900
10.579800 2.665900
10.598400 3.198800
10.617000 3.734900
10.635600 4.274400
10.654200 7.902100
10.672900 12.404400
10.691500 13.730600
10.710100 14.762500
10.728700 14.941900
10.747300 12.625900
10.765900 13.019900
10.784500 23.602500
10.803100 24.363600
10.821700 25.910600
10.840300 13.516800
10.859000 5.926900
10.877600 3.392100
10.896200 7.168800
10.914800 9.944600
10.933400 8.567700
10.952000 7.536200
10.970600 6.636700
10.989200 6.553200
11.007800 6.819500
11.026400 7.054000
11.045100 7.294100
11.063700 6.887600
11.082300 4.176400
11.100900 3.562100
11.119500 3.012200
11.138100 2.521400
11.156700 2.297700
11.175300 2.346400
11.193900 2.722700
11.212500 3.249900
11.231200 3.857900
11.249800 4.601500
11.268400 5.791700
11.287000 7.244000
11.305600 9.207300
11.324200 11.061500
11.342800 12.535800
11.361400 13.037400
11.380000 13.018100
11.398600 3.420900
11.417300 3.012300
11.435900 2.638800
11.454500 2.450100
11.473100 2.434900
11.491700 2.409200
11.510300 2.369700
11.528900 2.383800
11.547500 2.430000
11.566100 2.561600
11.584700 2.788300
11.603400 3.868400
11.622000 7.635200
11.640600 7.586800
11.659200 8.140100
11.677800 7.390000
11.696400 6.607900
11.715000 6.151000
11.733600 5.857900
11.752200 5.670300
11.770900 5.487100
11.789500 5.486900
11.808100 5.512700
11.826700 6.579300
11.845300 8.461100
11.863900 9.089000
11.882500 7.800400
11.901100 8.170600
11.919700 6.946800
11.938300 6.274300
11.957000 8.297400
11.975600 8.027400
11.994200 7.988900
12.012800 8.286900
12.031400 8.537000
12.050000 9.414500
12.068600 9.772100
12.087200 10.348300
12.105800 9.225400
12.124400 6.577400
12.143100 3.537300
12.161700 1.499600
12.180300 1.422400
12.198900 1.275500
12.217500 0.978000
12.236100 1.071400
12.254700 5.369300
12.273300 5.129500
12.291900 5.822500
12.310500 6.733600
12.329200 10.331600
12.347800 10.827800
12.366400 10.438400
12.385000 10.778200
12.403600 10.795200
12.422200 12.145600
12.440800 11.839700
12.459400 10.048900
12.478000 5.280600
12.496600 2.544900
12.515300 2.328600
12.533900 3.134300
12.552500 3.457400
12.571100 3.749800
12.589700 3.913500
12.608300 4.141600
12.626900 4.323700
12.645500 4.607800
12.664100 4.910000
12.682700 8.255100
12.701400 12.354600
12.720000 13.164500
12.738600 10.837000
12.757200 10.161100
12.775800 10.343400
12.794400 8.828400
12.813000 8.039100
12.831600 6.754800
12.850200 6.134900
12.868900 6.428900
12.887500 5.804200
12.906100 6.178900
12.924700 6.191400
12.943300 6.001500
12.961900 5.268900
12.980500 4.972800
12.999100 4.878000
13.017700 4.995900
13.036300 5.212500
13.055000 5.584400
13.073600 6.005400
13.092200 6.764900
13.110800 7.444800
13.129400 3.919500
13.148000 3.250300
13.166600 3.738100
13.185200 4.495900
13.203800 7.565100
13.222400 11.948300
13.241100 14.471200
13.259700 15.092600
13.278300 16.591500
13.296900 11.516300
13.315500 8.196000
13.334100 6.778800
13.352700 6.790300
13.371300 6.886800
13.389900 6.930300
13.408500 7.657700
13.427200 6.579200
13.445800 6.227600
13.464400 5.836900
13.483000 6.213800
13.501600 6.768000
13.520200 7.105700
13.538800 7.384400
13.557400 9.567300
13.576000 9.053100
13.594600 8.053100
13.613300 6.774600
13.631900 6.548400
13.650500 6.536600
13.669100 6.607100
13.687700 6.236200
13.706300 6.392800
13.724900 6.176700
13.743500 6.316700
13.762100 6.484500
13.780700 7.009900
13.799400 7.585300
13.818000 7.447300
13.836600 6.932100
13.855200 4.934400
13.873800 3.906300
13.892400 3.196200
13.911000 2.160900
13.929600 0.965900
13.948200 0.383300
13.966900 0.270900
13.985500 0.362500
14.004100 0.489800
14.022700 0.638600
14.041300 0.809900
14.059900 1.269500
14.078500 3.432900
14.097100 7.167500
14.115700 17.218500
14.134300 8.545900
14.153000 8.061900
14.171600 7.646300
14.190200 7.414800
14.208800 7.093200
14.227400 5.842300
14.246000 3.964200
14.264600 3.047600
14.283200 2.690600
14.301800 2.486500
14.320400 2.689600
14.339100 2.719700
14.357700 2.703200
14.376300 2.807900
14.394900 2.861500
14.413500 2.732700
14.432100 2.888500
14.450700 3.876200
14.469300 5.443200
14.487900 5.491200
14.506500 5.950400
14.525200 6.216800
14.543800 6.169200
14.562400 6.197900
14.581000 6.004100
14.599600 5.738800
14.618200 5.092200
14.636800 4.391000
14.655400 4.005500
14.674000 3.749700
14.692600 3.437400
14.711300 2.977000
14.729900 3.000300
14.748500 3.038500
14.767100 3.128900
14.785700 3.296100
14.804300 3.605300
14.822900 4.200800
14.841500 4.818200
14.860100 5.097900
14.878700 5.308600
14.897400 5.463300
14.916000 5.535400
14.934600 5.477100
14.953200 5.273800
14.971800 5.358100
14.990400 5.314600
15.009000 5.288400
15.027600 5.295400
15.046200 5.621500
15.064900 5.733800
15.083500 5.238500
15.102100 4.833400
15.120700 4.875800
15.139300 5.234500
15.157900 5.933400
15.176500 7.119600
15.195100 8.165600
15.213700 8.282500
15.232300 8.966000
15.251000 9.725100
15.269600 9.126300
15.288200 8.363900
15.306800 7.370600
15.325400 6.495200
15.344000 5.780400
15.362600 5.029200
15.381200 4.379000
15.399800 4.022600
15.418400 3.851000
15.437100 3.699100
15.455700 3.429800
15.474300 3.310500
15.492900 3.594500
15.511500 3.190200
15.530100 3.262300
15.548700 2.890400
15.567300 2.755300
15.585900 3.319700
15.604500 5.025200
15.623200 6.633000
15.641800 7.394800
15.660400 8.206800
15.679000 8.765900
15.697600 8.924300
15.716200 8.574000
15.734800 7.524700
15.753400 4.398200
15.772000 4.218400
15.790600 4.952000
15.809300 6.032100
15.827900 7.475800
15.846500 8.346600
15.865100 9.075500
15.883700 10.597700
15.902300 9.385600
15.920900 9.228000
15.939500 8.794200
15.958100 8.505000
15.976700 8.900400
15.995400 8.159400
16.014000 7.053200
16.032600 6.097800
16.051200 5.369400
16.069800 4.763600
16.088400 4.111900
16.107000 3.583000
16.125600 3.090100
16.144200 2.683400
16.162900 2.303200
16.181500 1.670600
16.200100 1.475600
16.218700 1.308100
16.237300 1.162400
16.255900 1.012700
16.274500 0.873800
16.293100 0.738800
16.311700 0.604200
16.330300 0.469800
16.349000 0.349700
16.367600 0.317000
16.386200 0.286300
16.404800 0.284500
16.423400 0.276800
16.442000 0.237200
16.460600 0.190200
16.479200 0.147500
16.497800 0.109300
16.516400 0.075500
16.535100 0.046000
16.553700 0.021000
16.572300 0.001200
16.590900 0.000000
16.609500 0.000000
16.628100 0.000000
16.646700 0.000000
16.665300 0.000000
16.683900 0.000000
16.702500 0.000000
16.721200 0.000000
16.739800 0.000000
16.758400 0.000000
16.777000 0.000000
16.795600 0.000000
16.814200 0.000000
16.832800 0.000000
16.851400 0.000000
16.870000 0.000000
16.888600 0.000000
16.907300 0.000000
16.925900 0.000000
16.944500 0.000000
16.963100 0.000000
16.981700 0.000000
17.000300 0.000000
17.018900 0.000000
17.037500 0.000000
17.056100 0.000000
17.074700 0.000000
17.093400 0.000000
17.112000 0.000000
17.130600 0.000000
17.149200 0.000000
17.167800 0.000000
17.186400 0.000000
17.205000 0.000000
17.223600 0.000000
17.242200 0.000000
17.260900 0.000000
17.279500 0.000000
17.298100 0.000000
17.316700 0.000000
17.335300 0.000000
17.353900 0.000000
17.372500 0.000000
17.391100 0.000000
17.409700 0.000000
17.428300 0.000000
17.447000 0.000000
17.465600 0.000000
17.484200 0.000000
17.502800 0.000000
17.521400 0.000000
17.540000 0.000000
17.558600 0.000000
17.577200 0.000000
17.595800 0.000000
17.614400 0.000000
17.633100 0.000000
17.651700 0.000000
17.670300 0.000000
17.688900 0.000000
17.707500 0.000000
17.726100 0.000000
17.744700 0.000000
17.763300 0.000000
17.781900 0.000000
17.800500 0.000000
17.819200 0.000000
17.837800 0.000000
17.856400 0.000000
17.875000 0.000000
17.893600 0.000000
17.912200 0.000000
17.930800 0.000000
17.949400 0.000000
17.968000 0.000000
17.986600 0.000000
18.005300 0.000000
18.023900 0.000000
18.042500 0.000000
18.061100 0.000000
18.079700 0.000000
18.098300 0.000000
18.116900 0.000000
18.135500 0.000000
18.154100 0.000000
18.172700 0.000000
18.191400 0.000000
18.210000 0.000000
18.228600 0.000000
18.247200 0.000000
18.265800 0.000000
e
