set title 'mp-1188028 - Density of States'
set xlabel 'Energy (eV)'
set ylabel 'DOS (states/eV)'
set grid
set xrange [-10:10]
set yrange [0:4.226]
set xzeroaxis lt -1
set terminal png size 800,600
set output 'mp-1188028_dos_gnuplot.png'
plot '-' using 1:2 with lines title 'DOS'
-44.904400 0.000000
-44.860800 0.000000
-44.817300 0.000000
-44.773800 0.000000
-44.730200 0.000000
-44.686700 0.000000
-44.643100 0.000000
-44.599600 0.000000
-44.556000 0.000000
-44.512500 0.000000
-44.469000 0.000000
-44.425400 0.000000
-44.381900 0.000000
-44.338300 0.000000
-44.294800 0.000000
-44.251200 0.000000
-44.207700 0.000000
-44.164100 0.000000
-44.120600 0.000000
-44.077100 0.000000
-44.033500 0.000000
-43.990000 0.000000
-43.946400 0.000000
-43.902900 0.000000
-43.859300 0.000000
-43.815800 0.000000
-43.772200 0.000000
-43.728700 0.000000
-43.685200 0.000000
-43.641600 0.000000
-43.598100 0.000000
-43.554500 0.000000
-43.511000 0.000000
-43.467400 0.000000
-43.423900 0.000000
-43.380300 0.000000
-43.336800 0.000000
-43.293300 0.000000
-43.249700 0.000000
-43.206200 0.000000
-43.162600 0.000000
-43.119100 0.000000
-43.075500 0.000000
-43.032000 0.000000
-42.988400 0.000000
-42.944900 0.000000
-42.901400 0.000000
-42.857800 0.000000
-42.814300 0.000000
-42.770700 0.000000
-42.727200 0.000000
-42.683600 0.000000
-42.640100 0.000000
-42.596500 0.000000
-42.553000 0.000000
-42.509500 0.000000
-42.465900 0.000000
-42.422400 0.000000
-42.378800 0.000000
-42.335300 0.000000
-42.291700 0.000000
-42.248200 0.000000
-42.204700 0.000000
-42.161100 0.000000
-42.117600 0.000000
-42.074000 0.000000
-42.030500 0.000000
-41.986900 0.000000
-41.943400 0.000000
-41.899800 0.000000
-41.856300 0.000000
-41.812800 0.000000
-41.769200 0.000000
-41.725700 0.000000
-41.682100 0.000000
-41.638600 0.000000
-41.595000 0.000000
-41.551500 0.000000
-41.507900 0.000000
-41.464400 0.000000
-41.420900 0.000000
-41.377300 0.000000
-41.333800 0.000000
-41.290200 0.000000
-41.246700 0.000000
-41.203100 0.000000
-41.159600 0.000000
-41.116000 0.000000
-41.072500 0.003800
-41.029000 0.252400
-40.985400 4.098000
-40.941900 17.040700
-40.898300 18.697400
-40.854800 5.425300
-40.811200 0.405200
-40.767700 0.007500
-40.724100 0.000000
-40.680600 0.000000
-40.637100 0.000000
-40.593500 0.000000
-40.550000 0.000000
-40.506400 0.000000
-40.462900 0.000000
-40.419300 0.000000
-40.375800 0.000000
-40.332300 0.000000
-40.288700 0.000000
-40.245200 0.000000
-40.201600 0.000000
-40.158100 0.000000
-40.114500 0.000000
-40.071000 0.000000
-40.027400 0.000000
-39.983900 0.000000
-39.940400 0.000000
-39.896800 0.000000
-39.853300 0.000000
-39.809700 0.000000
-39.766200 0.000000
-39.722600 0.000000
-39.679100 0.000000
-39.635500 0.000000
-39.592000 0.000000
-39.548500 0.000000
-39.504900 0.000000
-39.461400 0.000000
-39.417800 0.000000
-39.374300 0.000000
-39.330700 0.000000
-39.287200 0.000000
-39.243600 0.000000
-39.200100 0.000000
-39.156600 0.000000
-39.113000 0.000000
-39.069500 0.000000
-39.025900 0.000000
-38.982400 0.000000
-38.938800 0.000000
-38.895300 0.000000
-38.851700 0.000000
-38.808200 0.000000
-38.764700 0.000000
-38.721100 0.000000
-38.677600 0.000000
-38.634000 0.000000
-38.590500 0.000000
-38.546900 0.000000
-38.503400 0.000000
-38.459800 0.000000
-38.416300 0.000000
-38.372800 0.000000
-38.329200 0.000000
-38.285700 0.000000
-38.242100 0.000000
-38.198600 0.000000
-38.155000 0.000000
-38.111500 0.000000
-38.068000 0.000000
-38.024400 0.000000
-37.980900 0.000000
-37.937300 0.000000
-37.893800 0.000000
-37.850200 0.000000
-37.806700 0.000000
-37.763100 0.000000
-37.719600 0.000000
-37.676100 0.000000
-37.632500 0.000000
-37.589000 0.000000
-37.545400 0.000000
-37.501900 0.000000
-37.458300 0.000000
-37.414800 0.000000
-37.371200 0.000000
-37.327700 0.000000
-37.284200 0.000000
-37.240600 0.000000
-37.197100 0.000000
-37.153500 0.000000
-37.110000 0.000000
-37.066400 0.000000
-37.022900 0.000000
-36.979300 0.000000
-36.935800 0.000000
-36.892300 0.000000
-36.848700 0.000000
-36.805200 0.000000
-36.761600 0.000000
-36.718100 0.000000
-36.674500 0.000000
-36.631000 0.000000
-36.587400 0.000000
-36.543900 0.000000
-36.500400 0.000000
-36.456800 0.000000
-36.413300 0.000000
-36.369700 0.000000
-36.326200 0.000000
-36.282600 0.000000
-36.239100 0.000000
-36.195500 0.000000
-36.152000 0.000000
-36.108500 0.000000
-36.064900 0.000000
-36.021400 0.000000
-35.977800 0.000000
-35.934300 0.000000
-35.890700 0.000000
-35.847200 0.000000
-35.803700 0.000000
-35.760100 0.000000
-35.716600 0.000000
-35.673000 0.000000
-35.629500 0.000000
-35.585900 0.000000
-35.542400 0.000000
-35.498800 0.000000
-35.455300 0.000000
-35.411800 0.000000
-35.368200 0.000000
-35.324700 0.000000
-35.281100 0.000000
-35.237600 0.000000
-35.194000 0.000000
-35.150500 0.000000
-35.106900 0.000000
-35.063400 0.000000
-35.019900 0.000000
-34.976300 0.000000
-34.932800 0.000000
-34.889200 0.000000
-34.845700 0.000000
-34.802100 0.000000
-34.758600 0.000000
-34.715000 0.000000
-34.671500 0.000000
-34.628000 0.000000
-34.584400 0.000000
-34.540900 0.000000
-34.497300 0.000000
-34.453800 0.000000
-34.410200 0.000000
-34.366700 0.000000
-34.323100 0.000000
-34.279600 0.000000
-34.236100 0.000000
-34.192500 0.000000
-34.149000 0.000000
-34.105400 0.000000
-34.061900 0.000000
-34.018300 0.000000
-33.974800 0.000000
-33.931300 0.000000
-33.887700 0.000000
-33.844200 0.000000
-33.800600 0.000000
-33.757100 0.000000
-33.713500 0.000000
-33.670000 0.000000
-33.626400 0.000000
-33.582900 0.000000
-33.539400 0.000000
-33.495800 0.000000
-33.452300 0.000000
-33.408700 0.000000
-33.365200 0.000000
-33.321600 0.000000
-33.278100 0.000000
-33.234500 0.000000
-33.191000 0.000000
-33.147500 0.000000
-33.103900 0.000000
-33.060400 0.000000
-33.016800 0.000000
-32.973300 0.000000
-32.929700 0.000000
-32.886200 0.000000
-32.842600 0.000000
-32.799100 0.000000
-32.755600 0.000000
-32.712000 0.000000
-32.668500 0.000000
-32.624900 0.000000
-32.581400 0.000000
-32.537800 0.000000
-32.494300 0.000000
-32.450700 0.000000
-32.407200 0.000000
-32.363700 0.000000
-32.320100 0.000000
-32.276600 0.000000
-32.233000 0.000000
-32.189500 0.000000
-32.145900 0.000000
-32.102400 0.000000
-32.058800 0.000000
-32.015300 0.000000
-31.971800 0.000000
-31.928200 0.000000
-31.884700 0.000000
-31.841100 0.000000
-31.797600 0.000000
-31.754000 0.000000
-31.710500 0.000000
-31.667000 0.000000
-31.623400 0.000000
-31.579900 0.000000
-31.536300 0.000000
-31.492800 0.000000
-31.449200 0.000000
-31.405700 0.000000
-31.362100 0.000000
-31.318600 0.000000
-31.275100 0.000000
-31.231500 0.000000
-31.188000 0.000000
-31.144400 0.000000
-31.100900 0.000000
-31.057300 0.000000
-31.013800 0.000000
-30.970200 0.000000
-30.926700 0.000000
-30.883200 0.000000
-30.839600 0.000000
-30.796100 0.000000
-30.752500 0.000000
-30.709000 0.000000
-30.665400 0.000000
-30.621900 0.000000
-30.578300 0.000000
-30.534800 0.000000
-30.491300 0.000000
-30.447700 0.000000
-30.404200 0.000000
-30.360600 0.000000
-30.317100 0.000000
-30.273500 0.000000
-30.230000 0.000000
-30.186400 0.000000
-30.142900 0.000000
-30.099400 0.000000
-30.055800 0.000000
-30.012300 0.000000
-29.968700 0.000000
-29.925200 0.000000
-29.881600 0.000000
-29.838100 0.000000
-29.794500 0.000000
-29.751000 0.000000
-29.707500 0.000000
-29.663900 0.000000
-29.620400 0.000000
-29.576800 0.000000
-29.533300 0.000000
-29.489700 0.000000
-29.446200 0.000000
-29.402700 0.000000
-29.359100 0.000000
-29.315600 0.000000
-29.272000 0.000000
-29.228500 0.000000
-29.184900 0.000000
-29.141400 0.000000
-29.097800 0.000000
-29.054300 0.000000
-29.010800 0.000000
-28.967200 0.000000
-28.923700 0.000000
-28.880100 0.000000
-28.836600 0.000000
-28.793000 0.000000
-28.749500 0.000000
-28.705900 0.000000
-28.662400 0.000000
-28.618900 0.000000
-28.575300 0.000000
-28.531800 0.000000
-28.488200 0.000000
-28.444700 0.000000
-28.401100 0.000000
-28.357600 0.000000
-28.314000 0.000000
-28.270500 0.000000
-28.227000 0.000000
-28.183400 0.000000
-28.139900 0.000000
-28.096300 0.000000
-28.052800 0.000000
-28.009200 0.000000
-27.965700 0.000000
-27.922100 0.000000
-27.878600 0.000000
-27.835100 0.000000
-27.791500 0.000000
-27.748000 0.000000
-27.704400 0.000000
-27.660900 0.000000
-27.617300 0.000000
-27.573800 0.000000
-27.530300 0.000000
-27.486700 0.000000
-27.443200 0.000000
-27.399600 0.000000
-27.356100 0.000000
-27.312500 0.000000
-27.269000 0.000000
-27.225400 0.000000
-27.181900 0.000000
-27.138400 0.000000
-27.094800 0.000000
-27.051300 0.000000
-27.007700 0.000000
-26.964200 0.000000
-26.920600 0.000000
-26.877100 0.000000
-26.833500 0.000000
-26.790000 0.000000
-26.746500 0.000000
-26.702900 0.000000
-26.659400 0.000000
-26.615800 0.000000
-26.572300 0.000000
-26.528700 0.000000
-26.485200 0.000000
-26.441600 0.000000
-26.398100 0.000000
-26.354600 0.000000
-26.311000 0.000000
-26.267500 0.000000
-26.223900 0.000000
-26.180400 0.000000
-26.136800 0.000000
-26.093300 0.000000
-26.049700 0.000000
-26.006200 0.000000
-25.962700 0.000000
-25.919100 0.000000
-25.875600 0.000000
-25.832000 0.000000
-25.788500 0.000000
-25.744900 0.000000
-25.701400 0.000000
-25.657800 0.000000
-25.614300 0.000000
-25.570800 0.000000
-25.527200 0.000000
-25.483700 0.000000
-25.440100 0.000000
-25.396600 0.000000
-25.353000 0.000000
-25.309500 0.000000
-25.266000 0.000000
-25.222400 0.000000
-25.178900 0.000000
-25.135300 0.000000
-25.091800 0.000000
-25.048200 0.000000
-25.004700 0.000000
-24.961100 0.000000
-24.917600 0.000000
-24.874100 0.000000
-24.830500 0.000000
-24.787000 0.000000
-24.743400 0.000000
-24.699900 0.000000
-24.656300 0.000000
-24.612800 0.000000
-24.569200 0.000000
-24.525700 0.000000
-24.482200 0.000000
-24.438600 0.000000
-24.395100 0.000000
-24.351500 0.000000
-24.308000 0.000000
-24.264400 0.000000
-24.220900 0.000000
-24.177300 0.000000
-24.133800 0.000000
-24.090300 0.000000
-24.046700 0.000000
-24.003200 0.000000
-23.959600 0.000000
-23.916100 0.000000
-23.872500 0.000000
-23.829000 0.000000
-23.785400 0.000000
-23.741900 0.000000
-23.698400 0.000000
-23.654800 0.000000
-23.611300 0.000000
-23.567700 0.000000
-23.524200 0.000000
-23.480600 0.000000
-23.437100 0.000000
-23.393500 0.000000
-23.350000 0.000000
-23.306500 0.000000
-23.262900 0.000000
-23.219400 0.000000
-23.175800 0.000000
-23.132300 0.000000
-23.088700 0.000000
-23.045200 0.000000
-23.001700 0.000000
-22.958100 0.000000
-22.914600 0.000000
-22.871000 0.000000
-22.827500 0.000000
-22.783900 0.000000
-22.740400 0.000000
-22.696800 0.000000
-22.653300 0.000000
-22.609800 0.000000
-22.566200 0.000000
-22.522700 0.000000
-22.479100 0.000000
-22.435600 0.000000
-22.392000 0.000000
-22.348500 0.000000
-22.304900 0.000000
-22.261400 0.000000
-22.217900 0.000000
-22.174300 0.000000
-22.130800 0.000000
-22.087200 0.000000
-22.043700 0.000000
-22.000100 0.000000
-21.956600 0.000000
-21.913000 0.000000
-21.869500 0.000000
-21.826000 0.000000
-21.782400 0.000000
-21.738900 0.000000
-21.695300 0.000000
-21.651800 0.000000
-21.608200 0.000000
-21.564700 0.000000
-21.521100 0.000000
-21.477600 0.000000
-21.434100 0.000000
-21.390500 0.000000
-21.347000 0.000000
-21.303400 0.000000
-21.259900 0.000000
-21.216300 0.000000
-21.172800 0.000000
-21.129300 0.000000
-21.085700 0.000000
-21.042200 0.000000
-20.998600 0.000000
-20.955100 0.000000
-20.911500 0.000000
-20.868000 0.000000
-20.824400 0.000000
-20.780900 0.000000
-20.737400 0.000000
-20.693800 0.000000
-20.650300 0.000000
-20.606700 0.000000
-20.563200 0.000000
-20.519600 0.000000
-20.476100 0.000000
-20.432500 0.000000
-20.389000 0.000000
-20.345500 0.000000
-20.301900 0.000000
-20.258400 0.000000
-20.214800 0.000000
-20.171300 0.000000
-20.127700 0.000000
-20.084200 0.000000
-20.040600 0.000000
-19.997100 0.000000
-19.953600 0.000000
-19.910000 0.000000
-19.866500 0.000000
-19.822900 0.000000
-19.779400 0.000000
-19.735800 0.000000
-19.692300 0.000000
-19.648700 0.000000
-19.605200 0.000000
-19.561700 0.000000
-19.518100 0.000000
-19.474600 0.000000
-19.431000 0.000000
-19.387500 0.000000
-19.343900 0.004500
-19.300400 0.209400
-19.256800 2.773800
-19.213300 11.831200
-19.169800 20.201400
-19.126200 24.504400
-19.082700 36.098000
-19.039100 31.738000
-18.995600 9.571900
-18.952000 0.838500
-18.908500 0.019700
-18.865000 0.000100
-18.821400 0.000000
-18.777900 0.000000
-18.734300 0.000000
-18.690800 0.000000
-18.647200 0.000000
-18.603700 0.000000
-18.560100 0.000000
-18.516600 0.000000
-18.473100 0.000000
-18.429500 0.000000
-18.386000 0.000000
-18.342400 0.000000
-18.298900 0.000000
-18.255300 0.000000
-18.211800 0.000000
-18.168200 0.000000
-18.124700 0.000000
-18.081200 0.000000
-18.037600 0.000000
-17.994100 0.000000
-17.950500 0.000000
-17.907000 0.000000
-17.863400 0.000000
-17.819900 0.000000
-17.776300 0.000000
-17.732800 0.000000
-17.689300 0.000000
-17.645700 0.000000
-17.602200 0.000000
-17.558600 0.000000
-17.515100 0.000000
-17.471500 0.000000
-17.428000 0.000000
-17.384400 0.000000
-17.340900 0.000000
-17.297400 0.000000
-17.253800 0.000000
-17.210300 0.000000
-17.166700 0.000000
-17.123200 0.000000
-17.079600 0.000000
-17.036100 0.000000
-16.992500 0.000000
-16.949000 0.000000
-16.905500 0.000000
-16.861900 0.000000
-16.818400 0.000000
-16.774800 0.000000
-16.731300 0.000000
-16.687700 0.000000
-16.644200 0.000000
-16.600700 0.000000
-16.557100 0.000000
-16.513600 0.000000
-16.470000 0.000000
-16.426500 0.000000
-16.382900 0.000000
-16.339400 0.000000
-16.295800 0.000000
-16.252300 0.000000
-16.208800 0.000000
-16.165200 0.000000
-16.121700 0.000000
-16.078100 0.000000
-16.034600 0.000000
-15.991000 0.000000
-15.947500 0.000000
-15.903900 0.000000
-15.860400 0.000000
-15.816900 0.000000
-15.773300 0.000000
-15.729800 0.000000
-15.686200 0.000000
-15.642700 0.000000
-15.599100 0.000000
-15.555600 0.000000
-15.512000 0.000000
-15.468500 0.000000
-15.425000 0.000000
-15.381400 0.000000
-15.337900 0.000000
-15.294300 0.000000
-15.250800 0.000000
-15.207200 0.000000
-15.163700 0.000000
-15.120100 0.000000
-15.076600 0.000000
-15.033100 0.000000
-14.989500 0.000000
-14.946000 0.000000
-14.902400 0.000000
-14.858900 0.000000
-14.815300 0.000000
-14.771800 0.000000
-14.728300 0.000000
-14.684700 0.000000
-14.641200 0.000000
-14.597600 0.000000
-14.554100 0.000000
-14.510500 0.000000
-14.467000 0.000000
-14.423400 0.000000
-14.379900 0.000000
-14.336400 0.000000
-14.292800 0.000000
-14.249300 0.000000
-14.205700 0.000000
-14.162200 0.000000
-14.118600 0.000000
-14.075100 0.000000
-14.031500 0.000000
-13.988000 0.000000
-13.944500 0.000000
-13.900900 0.000000
-13.857400 0.000000
-13.813800 0.000000
-13.770300 0.000000
-13.726700 0.000000
-13.683200 0.000000
-13.639600 0.000000
-13.596100 0.000000
-13.552600 0.000000
-13.509000 0.000000
-13.465500 0.000000
-13.421900 0.000000
-13.378400 0.000000
-13.334800 0.000000
-13.291300 0.000000
-13.247700 0.000000
-13.204200 0.000000
-13.160700 0.000000
-13.117100 0.000000
-13.073600 0.000000
-13.030000 0.000000
-12.986500 0.000000
-12.942900 0.000000
-12.899400 0.000000
-12.855800 0.000000
-12.812300 0.000000
-12.768800 0.000000
-12.725200 0.000000
-12.681700 0.000000
-12.638100 0.000000
-12.594600 0.000000
-12.551000 0.000000
-12.507500 0.000000
-12.464000 0.000000
-12.420400 0.000000
-12.376900 0.000000
-12.333300 0.000000
-12.289800 0.000000
-12.246200 0.000000
-12.202700 0.000000
-12.159100 0.000000
-12.115600 0.000000
-12.072100 0.000000
-12.028500 0.000000
-11.985000 0.000000
-11.941400 0.000000
-11.897900 0.000000
-11.854300 0.000000
-11.810800 0.000000
-11.767200 0.000000
-11.723700 0.000000
-11.680200 0.000000
-11.636600 0.000000
-11.593100 0.000000
-11.549500 0.000000
-11.506000 0.000000
-11.462400 0.000000
-11.418900 0.000000
-11.375300 0.000000
-11.331800 0.000000
-11.288300 0.000000
-11.244700 0.000000
-11.201200 0.000000
-11.157600 0.000000
-11.114100 0.000000
-11.070500 0.000000
-11.027000 0.000000
-10.983400 0.000000
-10.939900 0.000000
-10.896400 0.000000
-10.852800 0.000000
-10.809300 0.000000
-10.765700 0.000000
-10.722200 0.000000
-10.678600 0.000000
-10.635100 0.000000
-10.591500 0.000000
-10.548000 0.000000
-10.504500 0.000000
-10.460900 0.000000
-10.417400 0.000000
-10.373800 0.000000
-10.330300 0.000000
-10.286700 0.000000
-10.243200 0.000000
-10.199700 0.000000
-10.156100 0.000000
-10.112600 0.000000
-10.069000 0.000000
-10.025500 0.000000
-9.981900 0.000000
-9.938400 0.000000
-9.894800 0.000000
-9.851300 0.000000
-9.807800 0.000000
-9.764200 0.000000
-9.720700 0.000000
-9.677100 0.000000
-9.633600 0.000000
-9.590000 0.000000
-9.546500 0.000000
-9.502900 0.000000
-9.459400 0.000000
-9.415900 0.000000
-9.372300 0.000000
-9.328800 0.000000
-9.285200 0.000000
-9.241700 0.000000
-9.198100 0.000000
-9.154600 0.000000
-9.111000 0.000000
-9.067500 0.000000
-9.024000 0.000000
-8.980400 0.000000
-8.936900 0.000000
-8.893300 0.000000
-8.849800 0.000000
-8.806200 0.000000
-8.762700 0.000000
-8.719100 0.000000
-8.675600 0.000000
-8.632100 0.000000
-8.588500 0.000000
-8.545000 0.000000
-8.501400 0.000000
-8.457900 0.000000
-8.414300 0.000000
-8.370800 0.000000
-8.327300 0.000000
-8.283700 0.000000
-8.240200 0.000000
-8.196600 0.000000
-8.153100 0.000000
-8.109500 0.000000
-8.066000 0.000000
-8.022400 0.000000
-7.978900 0.000000
-7.935400 0.000000
-7.891800 0.000000
-7.848300 0.000000
-7.804700 0.000000
-7.761200 0.000000
-7.717600 0.000000
-7.674100 0.000000
-7.630500 0.000000
-7.587000 0.000000
-7.543500 0.000000
-7.499900 0.000000
-7.456400 0.000000
-7.412800 0.000000
-7.369300 0.000000
-7.325700 0.000000
-7.282200 0.000000
-7.238600 0.000000
-7.195100 0.000000
-7.151600 0.000000
-7.108000 0.000000
-7.064500 0.000000
-7.020900 0.000000
-6.977400 0.000000
-6.933800 0.000000
-6.890300 0.000000
-6.846700 0.000000
-6.803200 0.000000
-6.759700 0.000000
-6.716100 0.000000
-6.672600 0.000000
-6.629000 0.000000
-6.585500 0.000000
-6.541900 0.000000
-6.498400 0.000000
-6.454800 0.000000
-6.411300 0.000000
-6.367800 0.000000
-6.324200 0.000100
-6.280700 0.001800
-6.237100 0.014200
-6.193600 0.041600
-6.150000 0.094500
-6.106500 0.182100
-6.063000 0.199400
-6.019400 0.136300
-5.975900 0.205100
-5.932300 0.280000
-5.888800 0.240500
-5.845200 0.334400
-5.801700 0.429800
-5.758100 0.298700
-5.714600 0.262900
-5.671100 0.383500
-5.627500 0.335600
-5.584000 0.265400
-5.540400 0.439100
-5.496900 0.578500
-5.453300 0.612900
-5.409800 0.616200
-5.366200 0.415800
-5.322700 0.265400
-5.279200 0.476500
-5.235600 0.669100
-5.192100 0.673400
-5.148500 0.634300
-5.105000 0.454500
-5.061400 0.463400
-5.017900 0.821700
-4.974300 0.942700
-4.930800 0.863200
-4.887300 0.810100
-4.843700 0.679100
-4.800200 0.574000
-4.756600 0.723200
-4.713100 0.781500
-4.669500 0.625500
-4.626000 0.486300
-4.582400 0.551500
-4.538900 0.714100
-4.495400 0.859800
-4.451800 0.988000
-4.408300 0.978500
-4.364700 0.725600
-4.321200 0.463400
-4.277600 0.732000
-4.234100 1.061800
-4.190500 0.898100
-4.147000 0.705100
-4.103500 0.513800
-4.059900 0.685500
-4.016400 1.041600
-3.972800 0.855800
-3.929300 0.406900
-3.885700 0.319800
-3.842200 0.879800
-3.798700 1.227500
-3.755100 0.887200
-3.711600 0.876100
-3.668000 1.283000
-3.624500 1.179400
-3.580900 0.929200
-3.537400 0.691400
-3.493800 0.524700
-3.450300 0.813500
-3.406800 0.922000
-3.363200 0.781500
-3.319700 0.773300
-3.276100 0.882800
-3.232600 0.855100
-3.189000 0.883700
-3.145500 1.429100
-3.101900 1.731700
-3.058400 1.392000
-3.014900 1.239200
-2.971300 1.062300
-2.927800 1.044800
-2.884200 1.640400
-2.840700 1.785900
-2.797100 1.306000
-2.753600 1.442800
-2.710000 1.690400
-2.666500 1.459200
-2.623000 0.977400
-2.579400 1.080700
-2.535900 1.459700
-2.492300 1.461800
-2.448800 1.283600
-2.405200 0.999200
-2.361700 1.087700
-2.318100 1.174100
-2.274600 1.437500
-2.231100 1.637800
-2.187500 1.215000
-2.144000 0.949400
-2.100400 0.965200
-2.056900 1.078600
-2.013300 1.234000
-1.969800 1.409500
-1.926300 1.626700
-1.882700 1.099700
-1.839200 0.437600
-1.795600 0.554600
-1.752100 0.896900
-1.708500 1.010500
-1.665000 1.488100
-1.621400 2.109300
-1.577900 1.763000
-1.534400 1.326100
-1.490800 1.455500
-1.447300 1.690500
-1.403700 1.840300
-1.360200 1.877400
-1.316600 1.767800
-1.273100 1.788900
-1.229500 1.729900
-1.186000 1.770600
-1.142500 1.640500
-1.098900 1.434700
-1.055400 1.661900
-1.011800 2.032100
-0.968300 1.990800
-0.924700 1.536100
-0.881200 1.278100
-0.837600 1.608600
-0.794100 1.985500
-0.750600 1.985900
-0.707000 1.684700
-0.663500 1.134200
-0.619900 0.752900
-0.576400 0.564400
-0.532800 0.594000
-0.489300 0.534700
-0.445700 0.237700
-0.402200 0.045100
-0.358700 0.013400
-0.315100 0.084700
-0.271600 0.217900
-0.228000 0.242100
-0.184500 0.214400
-0.140900 0.229900
-0.097400 0.200200
-0.053800 0.133800
-0.010300 0.268700
0.033200 0.431100
0.076800 0.464400
0.120300 0.438500
0.163900 0.438900
0.207400 0.556000
0.251000 0.512900
0.294500 0.335700
0.338000 0.233100
0.381600 0.081800
0.425100 0.008400
0.468700 0.001600
0.512200 0.022400
0.555800 0.104100
0.599300 0.170400
0.642900 0.138000
0.686400 0.121100
0.729900 0.130800
0.773500 0.221500
0.817000 0.248200
0.860600 0.226400
0.904100 0.228500
0.947700 0.207000
0.991200 0.154100
1.034800 0.086900
1.078300 0.155200
1.121800 0.185100
1.165400 0.164600
1.208900 0.191700
1.252500 0.135300
1.296000 0.094300
1.339600 0.180900
1.383100 0.303500
1.426700 0.317100
1.470200 0.358100
1.513700 0.390000
1.557300 0.328400
1.600800 0.280800
1.644400 0.270100
1.687900 0.214600
1.731500 0.330600
1.775000 0.434700
1.818600 0.477500
1.862100 0.704700
1.905600 0.754600
1.949200 0.902000
1.992700 1.059200
2.036300 1.144000
2.079800 1.257000
2.123400 1.360300
2.166900 1.166800
2.210500 1.111300
2.254000 1.653600
2.297500 1.965500
2.341100 1.698400
2.384600 1.410500
2.428200 1.764600
2.471700 2.598800
2.515300 2.762100
2.558800 2.048700
2.602300 1.594500
2.645900 1.702400
2.689400 1.785300
2.733000 1.940900
2.776500 1.681300
2.820100 1.800000
2.863600 1.874300
2.907200 1.429100
2.950700 1.218200
2.994200 1.334500
3.037800 1.458100
3.081300 1.744100
3.124900 2.034800
3.168400 2.449500
3.212000 1.949000
3.255500 1.355300
3.299100 1.616900
3.342600 2.248700
3.386100 2.787900
3.429700 2.859100
3.473200 2.480500
3.516800 2.474700
3.560300 2.658300
3.603900 2.490300
3.647400 1.929800
3.691000 1.500300
3.734500 1.985700
3.778000 2.778200
3.821600 2.909100
3.865100 2.929500
3.908700 3.250400
3.952200 3.649300
3.995800 3.167100
4.039300 3.090800
4.082900 3.640800
4.126400 3.841700
4.169900 3.692600
4.213500 2.759700
4.257000 2.155300
4.300600 2.262900
4.344100 1.961400
4.387700 1.559300
4.431200 1.735900
4.474700 2.168700
4.518300 2.678300
4.561800 2.545600
4.605400 1.793300
4.648900 1.617100
4.692500 1.552800
4.736000 1.286000
4.779600 1.219100
4.823100 1.783600
4.866600 1.989600
4.910200 1.641700
4.953700 1.500500
4.997300 1.709100
5.040800 2.249100
5.084400 2.316900
5.127900 1.725300
5.171500 1.427800
5.215000 1.767300
5.258500 2.000100
5.302100 1.799700
5.345600 1.927800
5.389200 1.962300
5.432700 1.330200
5.476300 0.880400
5.519800 0.728300
5.563400 1.215800
5.606900 1.617000
5.650400 1.635600
5.694000 1.701000
5.737500 1.510000
5.781100 1.445500
5.824600 1.272100
5.868200 1.324800
5.911700 1.708200
5.955300 2.210600
5.998800 2.156300
6.042300 2.171600
6.085900 2.461500
6.129400 2.539400
6.173000 2.787900
6.216500 3.337700
6.260100 2.767600
6.303600 2.013000
6.347200 1.710000
6.390700 1.643600
6.434200 1.768700
6.477800 2.019100
6.521300 1.701100
6.564900 1.186200
6.608400 1.376500
6.652000 1.811500
6.695500 1.758300
6.739000 1.927400
6.782600 2.729900
6.826100 3.027100
6.869700 2.499600
6.913200 1.855600
6.956800 1.687300
7.000300 1.697000
7.043900 1.696300
7.087400 1.371000
7.130900 1.066600
7.174500 1.704800
7.218000 2.370300
7.261600 2.487400
7.305100 1.988700
7.348700 1.593100
7.392200 1.864400
7.435800 2.150400
7.479300 2.180200
7.522800 1.805100
7.566400 1.525600
7.609900 1.938200
7.653500 2.341600
7.697000 2.388200
7.740600 2.704100
7.784100 2.286700
7.827700 1.891800
7.871200 1.905000
7.914700 1.642800
7.958300 1.523000
8.001800 1.931700
8.045400 2.252600
8.088900 2.052900
8.132500 1.841300
8.176000 1.592900
8.219600 1.203400
8.263100 1.295900
8.306600 1.923700
8.350200 2.134100
8.393700 2.050500
8.437300 2.051000
8.480800 2.112500
8.524400 2.213000
8.567900 1.725300
8.611500 1.288200
8.655000 1.611000
8.698500 2.350300
8.742100 2.521200
8.785600 2.587400
8.829200 2.359300
8.872700 1.833900
8.916300 1.785600
8.959800 1.936000
9.003300 2.095400
9.046900 1.884400
9.090400 1.959600
9.134000 2.112300
9.177500 2.105500
9.221100 2.184200
9.264600 1.941100
9.308200 1.452100
9.351700 1.627800
9.395200 2.011200
9.438800 1.898000
9.482300 1.774300
9.525900 1.743200
9.569400 2.434200
9.613000 2.999400
9.656500 2.875200
9.700100 2.360500
9.743600 2.044500
9.787100 2.502700
9.830700 2.946700
9.874200 2.697800
9.917800 2.367300
9.961300 2.222600
10.004900 2.465700
10.048400 2.583200
10.092000 2.516700
10.135500 2.732300
10.179000 2.980500
10.222600 3.483300
10.266100 3.704200
10.309700 2.819300
10.353200 2.197800
10.396800 2.348000
10.440300 2.213700
10.483900 2.681400
10.527400 3.083100
10.570900 3.227600
10.614500 4.353300
10.658000 4.951900
10.701600 3.806700
10.745100 3.498100
10.788700 3.461800
10.832200 3.176500
10.875700 3.577000
10.919300 3.894200
10.962800 3.966700
11.006400 3.584900
11.049900 3.408900
11.093500 4.279100
11.137000 4.439900
11.180600 3.906800
11.224100 3.566800
11.267600 3.398500
11.311200 3.671700
11.354700 3.863400
11.398300 4.070800
11.441800 4.512300
11.485400 4.216500
11.528900 3.243500
11.572500 3.017300
11.616000 3.307700
11.659500 3.120400
11.703100 3.401200
11.746600 4.814700
11.790200 5.007300
11.833700 3.619800
11.877300 2.664400
11.920800 2.933700
11.964400 3.431800
12.007900 3.732100
12.051400 4.440500
12.095000 4.367800
12.138500 3.557300
12.182100 2.894200
12.225600 2.969100
12.269200 3.189500
12.312700 3.647100
12.356300 4.016000
12.399800 3.282800
12.443300 3.015600
12.486900 3.520700
12.530400 3.454200
12.574000 3.192300
12.617500 3.029200
12.661100 2.905500
12.704600 2.781800
12.748200 2.992100
12.791700 3.273500
12.835200 3.373500
12.878800 3.036500
12.922300 2.674200
12.965900 2.825600
13.009400 2.944000
13.053000 2.682700
13.096500 2.413500
13.140000 1.804100
13.183600 1.561300
13.227100 1.982600
13.270700 2.231100
13.314200 2.222800
13.357800 2.239200
13.401300 2.403200
13.444900 2.331100
13.488400 1.847400
13.531900 1.476600
13.575500 1.435200
13.619000 1.793900
13.662600 2.325000
13.706100 2.217800
13.749700 1.509800
13.793200 0.801400
13.836800 0.999900
13.880300 1.360000
13.923800 1.047500
13.967400 1.023800
14.010900 1.204100
14.054500 1.546500
14.098000 1.802600
14.141600 1.587600
14.185100 1.208600
14.228700 0.878400
14.272200 0.700600
14.315700 0.687900
14.359300 0.707700
14.402800 0.819200
14.446400 0.932900
14.489900 1.265100
14.533500 1.651900
14.577000 1.513000
14.620600 1.499400
14.664100 1.584400
14.707600 1.425000
14.751200 1.284100
14.794700 1.193600
14.838300 1.499500
14.881800 1.687400
14.925400 1.786800
14.968900 1.792300
15.012500 1.205800
15.056000 0.811900
15.099500 0.949800
15.143100 1.222900
15.186600 1.077400
15.230200 0.940500
15.273700 1.422500
15.317300 2.057000
15.360800 2.230700
15.404300 1.968100
15.447900 1.685700
15.491400 1.580300
15.535000 1.555100
15.578500 1.705700
15.622100 2.153300
15.665600 2.374900
15.709200 2.289400
15.752700 2.395600
15.796200 2.136700
15.839800 1.415500
15.883300 1.415100
15.926900 1.468800
15.970400 1.334000
16.014000 1.569300
16.057500 1.691200
16.101100 2.004600
16.144600 2.352300
16.188100 1.989400
16.231700 1.596000
16.275200 1.385100
16.318800 1.937800
16.362300 1.784100
16.405900 1.155400
16.449400 1.207700
16.493000 1.585000
16.536500 1.498100
16.580000 1.109900
16.623600 1.249900
16.667100 1.328600
16.710700 0.950700
16.754200 1.166500
16.797800 1.473200
16.841300 1.659000
16.884900 2.212400
16.928400 2.831800
16.971900 2.342300
17.015500 1.550000
17.059000 1.046500
17.102600 1.046300
17.146100 1.534700
17.189700 1.690000
17.233200 1.491600
17.276700 1.662800
17.320300 1.792000
17.363800 1.549600
17.407400 1.762700
17.450900 2.080300
17.494500 1.800900
17.538000 1.634700
17.581600 1.758700
17.625100 1.828600
17.668600 1.779300
17.712200 1.667100
17.755700 1.932200
17.799300 1.585400
17.842800 1.163700
17.886400 1.815400
17.929900 2.485900
17.973500 2.529900
18.017000 2.952100
18.060500 3.421300
18.104100 2.794400
18.147600 2.367900
18.191200 2.844000
18.234700 3.133400
18.278300 3.040700
18.321800 2.848500
18.365400 2.631100
18.408900 2.617600
18.452400 2.801300
18.496000 2.886100
18.539500 3.110300
18.583100 3.522500
18.626600 3.666800
18.670200 3.449700
18.713700 3.023700
18.757300 2.876400
18.800800 2.648400
18.844300 2.543700
18.887900 3.069100
18.931400 3.099100
18.975000 2.949800
19.018500 3.311400
19.062100 3.416600
19.105600 3.191900
19.149200 2.870400
19.192700 2.588300
19.236200 2.355800
19.279800 2.644400
19.323300 3.096400
19.366900 3.596500
19.410400 3.857800
19.454000 3.706600
19.497500 3.286800
19.541000 3.078500
19.584600 2.726300
19.628100 2.364600
19.671700 2.943100
19.715200 3.901000
19.758800 3.508800
19.802300 2.670500
19.845900 2.672200
19.889400 3.374000
19.932900 3.476900
19.976500 3.354100
20.020000 3.070600
20.063600 2.603900
20.107100 1.999400
20.150700 1.911600
20.194200 2.606500
20.237800 3.229100
20.281300 3.101600
20.324800 2.719700
20.368400 3.116200
20.411900 3.362000
20.455500 2.849500
20.499000 2.388400
20.542600 2.184600
20.586100 2.028000
20.629700 1.825100
20.673200 1.823200
20.716700 1.994900
20.760300 2.230800
20.803800 2.665600
20.847400 2.649800
20.890900 1.960500
20.934500 1.537400
20.978000 2.001800
21.021600 3.045000
21.065100 3.168200
21.108600 2.625100
21.152200 2.268500
21.195700 2.441700
21.239300 2.383900
21.282800 2.033400
21.326400 2.136700
21.369900 2.265100
21.413500 2.066000
21.457000 2.070600
21.500500 2.260300
21.544100 2.555700
21.587600 2.071000
21.631200 1.672100
21.674700 2.196500
21.718300 2.300000
21.761800 2.163400
21.805300 2.169700
21.848900 2.026100
21.892400 2.457300
21.936000 3.471700
21.979500 3.529900
22.023100 3.001000
22.066600 2.836900
22.110200 2.382500
22.153700 2.411100
22.197200 2.946700
22.240800 2.815700
22.284300 2.464500
22.327900 2.448100
22.371400 2.152300
22.415000 1.641700
22.458500 2.164700
22.502100 2.790900
22.545600 2.863000
22.589100 2.853700
22.632700 2.534500
22.676200 2.456500
22.719800 2.853400
22.763300 3.215000
22.806900 3.182700
22.850400 2.477800
22.894000 2.429000
22.937500 3.136000
22.981000 3.572600
23.024600 3.324500
23.068100 3.216500
23.111700 3.208700
23.155200 2.423500
23.198800 2.020100
23.242300 2.603200
23.285900 2.805700
23.329400 2.869600
23.372900 3.069700
23.416500 2.344200
23.460000 2.052200
23.503600 2.094000
23.547100 2.264900
23.590700 2.565400
23.634200 2.504000
23.677700 2.060100
23.721300 1.934900
23.764800 2.178000
23.808400 2.530700
23.851900 2.096200
23.895500 1.843100
23.939000 1.675000
23.982600 1.694400
24.026100 2.526700
24.069600 2.741200
24.113200 2.345100
24.156700 1.932200
24.200300 1.993000
24.243800 2.442700
24.287400 2.160100
24.330900 1.913500
24.374500 1.988500
24.418000 2.430000
24.461500 2.795700
24.505100 2.709900
24.548600 2.324600
24.592200 1.610000
24.635700 1.658200
24.679300 2.506300
24.722800 3.295400
24.766400 3.005900
24.809900 2.664000
24.853400 2.508600
24.897000 2.411800
24.940500 2.236600
24.984100 2.273700
25.027600 2.240500
25.071200 2.889900
25.114700 3.918200
25.158300 3.671700
25.201800 2.875100
25.245300 2.376400
25.288900 2.843400
25.332400 3.448000
25.376000 3.298400
25.419500 2.713700
25.463100 2.479200
25.506600 2.176700
25.550200 2.051500
25.593700 2.213400
25.637200 2.532000
25.680800 2.805400
25.724300 3.038400
25.767900 3.368600
25.811400 3.229800
25.855000 3.234600
25.898500 3.422600
25.942000 4.153000
25.985600 3.726400
26.029100 2.823700
26.072700 3.217300
26.116200 3.917800
26.159800 3.517200
26.203300 2.961700
26.246900 2.543000
26.290400 2.442000
26.333900 2.587900
26.377500 3.000000
26.421000 3.117200
26.464600 2.310500
26.508100 1.460000
26.551700 1.587400
26.595200 1.972800
26.638800 2.022400
26.682300 2.899900
26.725800 2.994500
26.769400 2.385900
26.812900 2.563900
26.856500 2.622900
26.900000 2.747000
26.943600 2.535300
26.987100 2.093600
27.030700 1.583300
27.074200 1.578400
27.117700 2.315700
27.161300 3.048100
27.204800 2.863500
27.248400 2.339400
27.291900 2.125600
27.335500 2.241300
27.379000 2.510700
27.422600 2.457300
27.466100 2.408200
27.509600 3.020900
27.553200 3.668400
27.596700 3.150400
27.640300 2.487400
27.683800 2.512000
27.727400 2.575100
27.770900 2.193900
27.814500 1.877400
27.858000 2.598200
27.901500 3.095700
27.945100 2.509400
27.988600 1.858900
28.032200 1.888000
28.075700 2.192000
28.119300 2.501500
28.162800 2.315700
28.206300 2.002200
28.249900 2.018200
28.293400 1.869900
28.337000 1.935500
28.380500 2.756200
28.424100 3.122600
28.467600 2.789700
28.511200 2.752000
28.554700 2.904300
28.598200 3.381700
28.641800 3.438000
28.685300 2.897300
28.728900 2.821500
28.772400 3.169800
28.816000 3.031900
28.859500 2.987200
28.903100 3.224700
28.946600 3.075300
28.990100 2.258700
29.033700 1.807900
29.077200 2.154700
29.120800 2.120600
29.164300 1.807100
29.207900 1.626700
29.251400 1.679600
29.295000 1.811300
29.338500 2.003600
29.382000 2.414800
29.425600 2.319300
29.469100 2.080200
29.512700 2.148200
29.556200 2.099900
29.599800 1.436100
29.643300 1.343900
29.686900 2.135000
29.730400 2.227000
29.773900 1.708900
29.817500 1.525000
29.861000 1.770200
29.904600 2.384200
29.948100 2.406000
29.991700 1.914100
30.035200 2.377900
30.078700 3.214100
30.122300 2.801600
30.165800 2.340500
30.209400 2.325100
30.252900 2.315800
30.296500 2.437900
30.340000 2.759900
30.383600 2.872700
30.427100 2.937700
30.470600 2.258700
30.514200 2.228300
30.557700 3.224800
30.601300 3.271900
30.644800 2.366800
30.688400 1.974400
30.731900 2.203200
30.775500 2.447500
30.819000 2.333600
30.862500 2.096200
30.906100 2.212500
30.949600 2.460300
30.993200 2.363700
31.036700 2.586200
31.080300 2.525000
31.123800 1.906500
31.167400 1.562500
31.210900 1.681000
31.254400 2.187400
31.298000 2.864800
31.341500 2.937700
31.385100 2.905000
31.428600 2.696200
31.472200 2.498600
31.515700 2.419700
31.559300 2.454800
31.602800 2.701100
31.646300 2.507000
31.689900 2.340700
31.733400 2.029500
31.777000 1.898100
31.820500 2.400500
31.864100 3.054700
31.907600 3.315600
31.951200 3.318200
31.994700 3.585300
32.038200 4.264700
32.081800 3.824200
32.125300 2.899600
32.168900 2.656800
32.212400 2.937900
32.256000 3.373000
32.299500 2.880800
32.343000 2.501300
32.386600 3.473100
32.430100 4.677800
32.473700 4.824500
32.517200 3.948400
32.560800 4.033700
32.604300 4.070000
32.647900 2.835400
32.691400 1.985800
32.734900 1.948500
32.778500 2.317600
32.822000 2.746500
32.865600 2.691100
32.909100 2.286400
32.952700 2.636900
32.996200 3.151500
33.039800 2.529400
33.083300 1.669000
33.126800 1.830800
33.170400 2.139300
33.213900 1.841500
33.257500 1.722100
33.301000 2.140000
33.344600 2.299900
33.388100 2.024500
33.431700 1.652700
33.475200 1.896600
33.518700 2.015600
33.562300 1.937100
33.605800 2.943600
33.649400 3.598800
33.692900 2.546700
33.736500 2.105800
33.780000 3.028400
33.823600 3.481800
33.867100 3.541100
33.910600 3.380800
33.954200 3.136500
33.997700 3.362100
34.041300 3.242200
34.084800 2.727700
34.128400 2.673000
34.171900 3.272700
34.215500 3.450200
34.259000 2.553600
34.302500 1.990500
34.346100 2.459600
34.389600 3.262800
34.433200 3.720700
34.476700 4.109600
34.520300 4.084100
34.563800 3.240700
34.607300 2.613600
34.650900 2.452900
34.694400 2.423800
34.738000 2.150800
34.781500 1.912600
34.825100 2.626500
34.868600 3.396000
34.912200 3.644400
34.955700 3.055000
34.999200 2.506200
35.042800 2.261100
35.086300 2.847200
35.129900 3.961400
35.173400 4.059200
35.217000 3.467000
35.260500 2.604400
35.304100 1.816100
35.347600 1.660700
35.391100 2.288100
35.434700 2.808700
35.478200 2.590200
35.521800 2.127100
35.565300 1.976300
35.608900 1.539200
35.652400 1.099700
35.696000 1.391300
35.739500 2.138300
35.783000 1.958100
35.826600 1.222800
35.870100 1.059200
35.913700 0.943300
35.957200 0.819100
36.000800 0.780900
36.044300 0.810400
36.087900 0.869700
36.131400 0.671600
36.174900 0.341500
36.218500 0.137700
36.262000 0.291500
36.305600 0.804200
36.349100 0.841900
36.392700 0.512300
36.436200 0.319600
36.479700 0.242400
36.523300 0.287100
36.566800 0.446400
36.610400 0.556500
36.653900 0.348300
36.697500 0.149700
36.741000 0.063400
36.784600 0.025300
36.828100 0.101900
36.871600 0.191800
36.915200 0.136000
36.958700 0.109600
37.002300 0.069200
37.045800 0.015200
37.089400 0.028900
37.132900 0.103800
37.176500 0.139100
37.220000 0.140500
37.263500 0.158200
37.307100 0.163900
37.350600 0.130400
37.394200 0.070500
37.437700 0.018500
37.481300 0.001600
37.524800 0.000000
37.568400 0.000900
37.611900 0.016400
37.655400 0.075200
37.699000 0.089800
37.742500 0.028100
37.786100 0.002200
37.829600 0.000000
37.873200 0.000000
37.916700 0.000000
37.960300 0.000000
38.003800 0.000000
38.047300 0.000000
38.090900 0.000000
38.134400 0.000300
38.178000 0.004500
38.221500 0.019500
38.265100 0.022000
38.308600 0.006500
38.352200 0.000500
38.395700 0.000000
38.439200 0.000000
38.482800 0.000000
38.526300 0.000000
38.569900 0.000000
38.613400 0.000000
38.657000 0.000000
38.700500 0.000000
38.744000 0.000000
38.787600 0.000000
38.831100 0.000000
38.874700 0.000000
38.918200 0.000000
38.961800 0.000000
39.005300 0.000000
39.048900 0.000000
39.092400 0.000000
39.135900 0.000000
39.179500 0.000000
39.223000 0.000000
39.266600 0.000000
39.310100 0.000000
39.353700 0.000000
39.397200 0.000000
39.440800 0.000000
39.484300 0.000000
39.527800 0.000000
39.571400 0.000000
39.614900 0.000000
39.658500 0.000000
39.702000 0.000000
39.745600 0.000000
39.789100 0.000000
39.832700 0.000000
39.876200 0.000000
39.919700 0.000000
39.963300 0.000000
40.006800 0.000000
40.050400 0.000000
40.093900 0.000000
40.137500 0.000000
40.181000 0.000000
40.224600 0.000000
40.268100 0.000000
40.311600 0.000000
40.355200 0.000000
40.398700 0.000000
40.442300 0.000000
40.485800 0.000000
40.529400 0.000000
40.572900 0.000000
40.616500 0.000000
40.660000 0.000000
40.703500 0.000000
40.747100 0.000000
40.790600 0.000000
40.834200 0.000000
40.877700 0.000000
40.921300 0.000000
40.964800 0.000000
41.008300 0.000000
41.051900 0.000000
41.095400 0.000000
41.139000 0.000000
41.182500 0.000000
41.226100 0.000000
41.269600 0.000000
41.313200 0.000000
41.356700 0.000000
41.400200 0.000000
41.443800 0.000000
41.487300 0.000000
41.530900 0.000000
41.574400 0.000000
41.618000 0.000000
41.661500 0.000000
41.705100 0.000000
41.748600 0.000000
41.792100 0.000000
41.835700 0.000000
41.879200 0.000000
41.922800 0.000000
41.966300 0.000000
42.009900 0.000000
42.053400 0.000000
42.097000 0.000000
42.140500 0.000000
42.184000 0.000000
e
