set title 'mp-16315 - Density of States'
set xlabel 'Energy (eV)'
set ylabel 'DOS (states/eV)'
set grid
set xrange [-10:10]
set yrange [0:21.039]
set xzeroaxis lt -1
set terminal png size 800,600
set output 'mp-16315_dos_gnuplot.png'
plot '-' using 1:2 with lines title 'DOS'
-20.119300 0.000000
-20.098000 0.000000
-20.076700 0.000000
-20.055400 0.000000
-20.034100 0.000000
-20.012800 0.000000
-19.991500 0.000000
-19.970200 0.000000
-19.948900 0.000000
-19.927600 0.000000
-19.906300 0.000000
-19.885100 0.000000
-19.863800 0.000000
-19.842500 0.000000
-19.821200 0.000000
-19.799900 0.000000
-19.778600 0.000000
-19.757300 0.000000
-19.736000 0.000000
-19.714700 0.000000
-19.693400 0.000000
-19.672100 0.000000
-19.650900 0.000000
-19.629600 0.000000
-19.608300 0.000000
-19.587000 0.000000
-19.565700 0.000000
-19.544400 0.000000
-19.523100 0.000000
-19.501800 0.000000
-19.480500 0.000000
-19.459200 0.000000
-19.438000 0.000000
-19.416700 0.000000
-19.395400 0.000000
-19.374100 0.000000
-19.352800 0.000000
-19.331500 0.000000
-19.310200 0.000000
-19.288900 0.000000
-19.267600 0.000000
-19.246300 0.000000
-19.225000 0.000000
-19.203800 0.000000
-19.182500 0.000000
-19.161200 0.000000
-19.139900 0.000000
-19.118600 0.000000
-19.097300 0.000000
-19.076000 0.000000
-19.054700 0.000000
-19.033400 0.000000
-19.012100 0.000000
-18.990800 0.000000
-18.969600 0.000000
-18.948300 0.000000
-18.927000 0.000000
-18.905700 0.000000
-18.884400 0.000000
-18.863100 0.000000
-18.841800 0.000000
-18.820500 0.000000
-18.799200 0.000000
-18.777900 0.000000
-18.756600 0.000000
-18.735400 0.000000
-18.714100 0.000000
-18.692800 0.000000
-18.671500 0.000000
-18.650200 0.000000
-18.628900 0.000000
-18.607600 0.000000
-18.586300 0.000000
-18.565000 0.000000
-18.543700 0.000000
-18.522400 0.000000
-18.501200 0.000000
-18.479900 0.000000
-18.458600 0.000000
-18.437300 0.000000
-18.416000 0.000000
-18.394700 0.000000
-18.373400 0.000000
-18.352100 0.000000
-18.330800 0.000000
-18.309500 0.000000
-18.288300 0.000000
-18.267000 0.000000
-18.245700 0.000000
-18.224400 0.000000
-18.203100 0.000000
-18.181800 315.645100
-18.160500 0.000000
-18.139200 713.468400
-18.117900 0.000000
-18.096600 0.000000
-18.075300 0.000000
-18.054100 0.000000
-18.032800 0.000000
-18.011500 0.000000
-17.990200 0.000000
-17.968900 0.000000
-17.947600 0.000000
-17.926300 0.000000
-17.905000 0.000000
-17.883700 0.000000
-17.862400 0.000000
-17.841100 0.000000
-17.819900 0.000000
-17.798600 0.000000
-17.777300 0.000000
-17.756000 0.000000
-17.734700 0.000000
-17.713400 0.000000
-17.692100 0.000000
-17.670800 0.000000
-17.649500 0.000000
-17.628200 0.000000
-17.606900 0.000000
-17.585700 0.000000
-17.564400 0.000000
-17.543100 0.000000
-17.521800 0.000000
-17.500500 0.000000
-17.479200 0.000000
-17.457900 0.000000
-17.436600 0.000000
-17.415300 0.000000
-17.394000 0.000000
-17.372700 0.000000
-17.351500 0.000000
-17.330200 0.000000
-17.308900 0.000000
-17.287600 0.000000
-17.266300 0.000000
-17.245000 0.000000
-17.223700 0.000000
-17.202400 0.000000
-17.181100 0.000000
-17.159800 0.000000
-17.138600 0.000000
-17.117300 0.000000
-17.096000 0.000000
-17.074700 0.000000
-17.053400 0.000000
-17.032100 0.000000
-17.010800 0.000000
-16.989500 0.000000
-16.968200 0.000000
-16.946900 0.000000
-16.925600 0.000000
-16.904400 0.000000
-16.883100 0.000000
-16.861800 0.000000
-16.840500 0.000000
-16.819200 0.000000
-16.797900 0.000000
-16.776600 0.000000
-16.755300 0.000000
-16.734000 0.000000
-16.712700 0.000000
-16.691400 0.000000
-16.670200 0.000000
-16.648900 0.000000
-16.627600 0.000000
-16.606300 0.000000
-16.585000 0.000000
-16.563700 0.000000
-16.542400 0.000000
-16.521100 0.000000
-16.499800 0.000000
-16.478500 0.000000
-16.457200 0.000000
-16.436000 0.000000
-16.414700 0.000000
-16.393400 0.000000
-16.372100 0.000000
-16.350800 0.000000
-16.329500 0.000000
-16.308200 0.000000
-16.286900 0.000000
-16.265600 0.000000
-16.244300 0.000000
-16.223000 0.000000
-16.201800 0.000000
-16.180500 0.000000
-16.159200 0.000000
-16.137900 0.000000
-16.116600 0.000000
-16.095300 0.000000
-16.074000 0.000000
-16.052700 0.000000
-16.031400 0.000000
-16.010100 0.000000
-15.988900 0.000000
-15.967600 0.000000
-15.946300 0.000000
-15.925000 0.000000
-15.903700 0.000000
-15.882400 0.000000
-15.861100 0.000000
-15.839800 0.000000
-15.818500 0.000000
-15.797200 0.000000
-15.775900 0.000000
-15.754700 0.000000
-15.733400 0.000000
-15.712100 0.000000
-15.690800 0.000000
-15.669500 0.000000
-15.648200 0.000000
-15.626900 0.000000
-15.605600 0.000000
-15.584300 0.000000
-15.563000 0.000000
-15.541700 0.000000
-15.520500 0.000000
-15.499200 0.000000
-15.477900 0.000000
-15.456600 0.000000
-15.435300 0.000000
-15.414000 0.000000
-15.392700 0.000000
-15.371400 0.000000
-15.350100 0.000000
-15.328800 0.000000
-15.307500 0.000000
-15.286300 0.000000
-15.265000 0.000000
-15.243700 0.000000
-15.222400 0.000000
-15.201100 0.000000
-15.179800 0.000000
-15.158500 0.000000
-15.137200 0.000000
-15.115900 0.000000
-15.094600 0.000000
-15.073300 0.000000
-15.052100 0.000000
-15.030800 0.000000
-15.009500 0.000000
-14.988200 0.000000
-14.966900 0.000000
-14.945600 0.000000
-14.924300 0.000000
-14.903000 0.000000
-14.881700 0.000000
-14.860400 0.000000
-14.839200 0.000000
-14.817900 0.000000
-14.796600 0.000000
-14.775300 0.000000
-14.754000 0.000000
-14.732700 0.000000
-14.711400 0.000000
-14.690100 0.000000
-14.668800 0.000000
-14.647500 0.000000
-14.626200 0.000000
-14.605000 0.000000
-14.583700 0.000000
-14.562400 0.000000
-14.541100 0.000000
-14.519800 0.000000
-14.498500 0.000000
-14.477200 0.000000
-14.455900 0.000000
-14.434600 0.000000
-14.413300 0.000000
-14.392000 0.000000
-14.370800 0.000000
-14.349500 0.000000
-14.328200 0.000000
-14.306900 0.000000
-14.285600 0.000000
-14.264300 0.000000
-14.243000 0.000000
-14.221700 0.000000
-14.200400 0.000000
-14.179100 0.000000
-14.157800 0.000000
-14.136600 0.000000
-14.115300 0.000000
-14.094000 0.000000
-14.072700 0.000000
-14.051400 0.000000
-14.030100 0.000000
-14.008800 0.000000
-13.987500 0.000000
-13.966200 0.000000
-13.944900 0.000000
-13.923600 0.000000
-13.902400 0.000000
-13.881100 0.000000
-13.859800 0.000000
-13.838500 0.000000
-13.817200 0.000000
-13.795900 0.000000
-13.774600 0.000000
-13.753300 0.000000
-13.732000 0.000000
-13.710700 0.000000
-13.689500 0.000000
-13.668200 0.000000
-13.646900 0.000000
-13.625600 0.000000
-13.604300 0.000000
-13.583000 0.000000
-13.561700 0.000000
-13.540400 0.000000
-13.519100 0.000000
-13.497800 0.000000
-13.476500 0.000000
-13.455300 0.000000
-13.434000 0.000000
-13.412700 0.000000
-13.391400 0.000000
-13.370100 0.000000
-13.348800 0.000000
-13.327500 0.000000
-13.306200 0.000000
-13.284900 0.000000
-13.263600 0.000000
-13.242300 0.000000
-13.221100 0.000000
-13.199800 0.000000
-13.178500 0.000000
-13.157200 0.000000
-13.135900 0.000000
-13.114600 0.000000
-13.093300 0.000000
-13.072000 0.000000
-13.050700 0.000000
-13.029400 0.000000
-13.008100 0.000000
-12.986900 0.000000
-12.965600 0.000000
-12.944300 0.000000
-12.923000 0.000000
-12.901700 0.000000
-12.880400 0.000000
-12.859100 0.000000
-12.837800 0.000000
-12.816500 0.000000
-12.795200 0.000000
-12.773900 0.000000
-12.752700 0.000000
-12.731400 0.000000
-12.710100 0.000000
-12.688800 0.000000
-12.667500 0.000000
-12.646200 0.000000
-12.624900 0.000000
-12.603600 0.000000
-12.582300 0.000000
-12.561000 0.000000
-12.539700 0.000000
-12.518500 0.000000
-12.497200 0.000000
-12.475900 0.000000
-12.454600 0.000000
-12.433300 0.000000
-12.412000 0.000000
-12.390700 0.000000
-12.369400 0.000000
-12.348100 0.000000
-12.326800 0.000000
-12.305600 0.000000
-12.284300 0.000000
-12.263000 0.000000
-12.241700 0.000000
-12.220400 0.000000
-12.199100 0.000000
-12.177800 0.000000
-12.156500 0.000000
-12.135200 0.000000
-12.113900 0.000000
-12.092600 0.000000
-12.071400 0.000000
-12.050100 0.000000
-12.028800 0.000000
-12.007500 0.000000
-11.986200 0.000000
-11.964900 0.000000
-11.943600 0.000000
-11.922300 0.000000
-11.901000 0.000000
-11.879700 0.000000
-11.858400 0.000000
-11.837200 0.000000
-11.815900 0.000000
-11.794600 0.000000
-11.773300 0.000000
-11.752000 0.000000
-11.730700 0.000000
-11.709400 0.000000
-11.688100 0.000000
-11.666800 0.000000
-11.645500 0.000000
-11.624200 0.000000
-11.603000 0.000000
-11.581700 0.000000
-11.560400 0.000000
-11.539100 0.000000
-11.517800 0.000000
-11.496500 0.000000
-11.475200 0.000000
-11.453900 0.000000
-11.432600 0.000000
-11.411300 0.000000
-11.390000 0.000000
-11.368800 0.000000
-11.347500 0.000000
-11.326200 0.000000
-11.304900 0.000000
-11.283600 0.000000
-11.262300 0.000000
-11.241000 0.000000
-11.219700 0.000000
-11.198400 0.000000
-11.177100 0.000000
-11.155900 0.000000
-11.134600 0.000000
-11.113300 0.000000
-11.092000 0.000000
-11.070700 0.000000
-11.049400 0.000000
-11.028100 0.000000
-11.006800 0.000000
-10.985500 0.000000
-10.964200 0.000000
-10.942900 0.000000
-10.921700 0.000000
-10.900400 0.000000
-10.879100 0.000000
-10.857800 0.000000
-10.836500 0.000000
-10.815200 0.000000
-10.793900 0.000000
-10.772600 0.000000
-10.751300 0.000000
-10.730000 0.000000
-10.708700 0.000000
-10.687500 0.000000
-10.666200 0.000000
-10.644900 0.000000
-10.623600 0.000000
-10.602300 0.000000
-10.581000 0.000000
-10.559700 0.000000
-10.538400 0.000000
-10.517100 0.000000
-10.495800 0.000000
-10.474500 0.000000
-10.453300 0.000000
-10.432000 0.000000
-10.410700 0.000000
-10.389400 0.000000
-10.368100 0.000000
-10.346800 0.000000
-10.325500 0.000000
-10.304200 0.000000
-10.282900 0.000000
-10.261600 0.000000
-10.240300 0.000000
-10.219100 0.000000
-10.197800 0.000000
-10.176500 0.000000
-10.155200 0.000000
-10.133900 0.000000
-10.112600 0.000000
-10.091300 0.000000
-10.070000 0.000000
-10.048700 0.000000
-10.027400 0.000000
-10.006200 0.000000
-9.984900 0.000000
-9.963600 0.000000
-9.942300 0.000000
-9.921000 0.000000
-9.899700 0.000000
-9.878400 0.000000
-9.857100 0.000000
-9.835800 0.000000
-9.814500 0.000000
-9.793200 0.000000
-9.772000 0.000000
-9.750700 0.000000
-9.729400 0.000000
-9.708100 0.000000
-9.686800 0.000000
-9.665500 0.000000
-9.644200 0.000000
-9.622900 0.000000
-9.601600 0.000000
-9.580300 0.000000
-9.559000 0.000000
-9.537800 0.000000
-9.516500 0.000000
-9.495200 0.000000
-9.473900 0.000000
-9.452600 0.000000
-9.431300 0.000000
-9.410000 0.000000
-9.388700 0.000000
-9.367400 0.000000
-9.346100 0.000000
-9.324800 0.000000
-9.303600 0.000000
-9.282300 0.000000
-9.261000 0.000000
-9.239700 0.000000
-9.218400 0.000000
-9.197100 0.000000
-9.175800 0.000000
-9.154500 0.000000
-9.133200 0.000000
-9.111900 0.000000
-9.090600 0.000000
-9.069400 0.000000
-9.048100 0.000000
-9.026800 0.000000
-9.005500 0.000000
-8.984200 0.000000
-8.962900 0.000000
-8.941600 0.000000
-8.920300 0.000000
-8.899000 0.000000
-8.877700 0.000000
-8.856500 0.000000
-8.835200 0.000000
-8.813900 0.000000
-8.792600 0.000000
-8.771300 0.000000
-8.750000 0.000000
-8.728700 0.000000
-8.707400 0.000000
-8.686100 0.000000
-8.664800 0.000000
-8.643500 0.000000
-8.622300 0.000000
-8.601000 0.000000
-8.579700 0.000000
-8.558400 0.000000
-8.537100 0.000000
-8.515800 0.000000
-8.494500 0.000000
-8.473200 0.000000
-8.451900 0.000000
-8.430600 0.000000
-8.409300 0.000000
-8.388100 0.000000
-8.366800 0.000000
-8.345500 0.000000
-8.324200 0.000000
-8.302900 0.000000
-8.281600 0.000000
-8.260300 0.000000
-8.239000 0.000000
-8.217700 0.000000
-8.196400 0.000000
-8.175100 0.000000
-8.153900 0.000000
-8.132600 0.000000
-8.111300 0.000000
-8.090000 0.000000
-8.068700 0.000000
-8.047400 0.000000
-8.026100 0.000000
-8.004800 0.000000
-7.983500 0.000000
-7.962200 0.000000
-7.940900 0.000000
-7.919700 0.000000
-7.898400 0.000000
-7.877100 0.000000
-7.855800 0.000000
-7.834500 0.000000
-7.813200 0.000000
-7.791900 0.000000
-7.770600 0.000000
-7.749300 0.000000
-7.728000 0.000000
-7.706800 0.000000
-7.685500 0.000000
-7.664200 0.000000
-7.642900 0.000000
-7.621600 0.000000
-7.600300 0.000000
-7.579000 0.000000
-7.557700 0.000000
-7.536400 0.000000
-7.515100 0.000000
-7.493800 0.000000
-7.472600 0.000000
-7.451300 0.000000
-7.430000 0.000000
-7.408700 0.000000
-7.387400 0.000000
-7.366100 0.000000
-7.344800 0.000000
-7.323500 0.000000
-7.302200 0.000000
-7.280900 0.000000
-7.259600 0.000000
-7.238400 0.000000
-7.217100 0.000000
-7.195800 0.000000
-7.174500 0.000000
-7.153200 0.000000
-7.131900 0.000000
-7.110600 0.000000
-7.089300 0.000000
-7.068000 0.000000
-7.046700 0.000000
-7.025400 0.000000
-7.004200 0.000000
-6.982900 0.000000
-6.961600 0.000000
-6.940300 0.000000
-6.919000 0.000000
-6.897700 0.000000
-6.876400 0.000000
-6.855100 0.000000
-6.833800 0.000000
-6.812500 0.000000
-6.791200 0.000000
-6.770000 0.000000
-6.748700 0.000000
-6.727400 0.000000
-6.706100 0.000000
-6.684800 0.000000
-6.663500 0.000000
-6.642200 0.000000
-6.620900 0.000000
-6.599600 0.000000
-6.578300 0.000000
-6.557100 0.000000
-6.535800 0.000000
-6.514500 0.000000
-6.493200 0.000000
-6.471900 0.000000
-6.450600 0.000000
-6.429300 0.000000
-6.408000 0.000000
-6.386700 0.000000
-6.365400 0.000000
-6.344100 0.000000
-6.322900 0.000000
-6.301600 0.000000
-6.280300 0.000000
-6.259000 0.000000
-6.237700 0.000000
-6.216400 0.000000
-6.195100 0.000000
-6.173800 0.000000
-6.152500 0.000000
-6.131200 0.000000
-6.109900 0.000000
-6.088700 0.000000
-6.067400 0.000000
-6.046100 0.000000
-6.024800 0.000000
-6.003500 0.000000
-5.982200 0.000000
-5.960900 0.000000
-5.939600 0.000000
-5.918300 0.000000
-5.897000 0.000000
-5.875700 0.000000
-5.854500 0.000000
-5.833200 0.000000
-5.811900 0.000000
-5.790600 0.000000
-5.769300 0.000000
-5.748000 0.000000
-5.726700 0.000000
-5.705400 0.000000
-5.684100 0.000000
-5.662800 0.000000
-5.641500 0.000000
-5.620300 0.000000
-5.599000 0.000000
-5.577700 0.000000
-5.556400 0.000000
-5.535100 0.000000
-5.513800 0.000000
-5.492500 0.000000
-5.471200 0.000000
-5.449900 0.000000
-5.428600 0.000000
-5.407400 0.000000
-5.386100 0.000000
-5.364800 0.000000
-5.343500 0.000000
-5.322200 0.000000
-5.300900 0.000000
-5.279600 0.000000
-5.258300 0.000000
-5.237000 0.000000
-5.215700 0.000000
-5.194400 0.000000
-5.173200 0.000000
-5.151900 0.000000
-5.130600 0.000000
-5.109300 0.000000
-5.088000 0.000000
-5.066700 0.000000
-5.045400 0.000000
-5.024100 0.002100
-5.002800 0.042500
-4.981500 0.134600
-4.960200 0.168500
-4.939000 0.195100
-4.917700 0.229100
-4.896400 0.270500
-4.875100 0.310900
-4.853800 0.327800
-4.832500 0.335200
-4.811200 0.353100
-4.789900 0.374400
-4.768600 0.396500
-4.747300 0.419600
-4.726000 0.445100
-4.704800 0.473500
-4.683500 0.482100
-4.662200 0.498400
-4.640900 0.513100
-4.619600 0.526200
-4.598300 0.539800
-4.577000 0.554900
-4.555700 0.577200
-4.534400 0.597500
-4.513100 0.618500
-4.491800 0.640000
-4.470600 0.658900
-4.449300 0.671600
-4.428000 0.682800
-4.406700 0.697700
-4.385400 0.714000
-4.364100 0.731600
-4.342800 0.749400
-4.321500 0.766800
-4.300200 0.784600
-4.278900 0.803100
-4.257600 0.822000
-4.236400 0.841300
-4.215100 0.861000
-4.193800 0.882500
-4.172500 0.900400
-4.151200 0.919000
-4.129900 0.937400
-4.108600 0.956600
-4.087300 0.976900
-4.066000 0.997200
-4.044700 1.017800
-4.023500 1.038600
-4.002200 1.060300
-3.980900 1.084100
-3.959600 1.109900
-3.938300 1.136400
-3.917000 1.163000
-3.895700 1.189600
-3.874400 1.216500
-3.853100 1.243800
-3.831800 1.273000
-3.810500 1.302800
-3.789300 1.333400
-3.768000 1.372600
-3.746700 1.411600
-3.725400 1.456100
-3.704100 1.507800
-3.682800 1.572800
-3.661500 1.639800
-3.640200 1.709700
-3.618900 1.782800
-3.597600 1.862600
-3.576300 1.934600
-3.555100 1.970700
-3.533800 2.018200
-3.512500 2.076000
-3.491200 2.157600
-3.469900 2.285100
-3.448600 2.480400
-3.427300 2.434600
-3.406000 2.301200
-3.384700 2.425600
-3.363400 2.492000
-3.342100 2.653700
-3.320900 2.783000
-3.299600 2.806300
-3.278300 2.881900
-3.257000 2.859900
-3.235700 3.022500
-3.214400 2.421200
-3.193100 2.683200
-3.171800 3.039600
-3.150500 2.806600
-3.129200 2.979000
-3.107900 3.438600
-3.086700 3.851900
-3.065400 4.236300
-3.044100 4.300700
-3.022800 5.352600
-3.001500 6.425800
-2.980200 9.021700
-2.958900 8.044100
-2.937600 6.345700
-2.916300 5.454100
-2.895000 3.902800
-2.873800 3.137300
-2.852500 2.516900
-2.831200 2.200300
-2.809900 1.847400
-2.788600 1.409900
-2.767300 1.196100
-2.746000 1.002000
-2.724700 0.853400
-2.703400 0.687800
-2.682100 0.541200
-2.660800 0.461400
-2.639600 0.152800
-2.618300 0.010000
-2.597000 0.000000
-2.575700 0.000000
-2.554400 0.000000
-2.533100 0.000000
-2.511800 0.000000
-2.490500 0.000000
-2.469200 0.000000
-2.447900 0.000000
-2.426600 0.000000
-2.405400 0.000000
-2.384100 0.000000
-2.362800 0.000000
-2.341500 0.000000
-2.320200 0.000000
-2.298900 0.000000
-2.277600 0.000000
-2.256300 0.000000
-2.235000 0.000000
-2.213700 0.000000
-2.192400 0.000000
-2.171200 0.000000
-2.149900 0.000000
-2.128600 0.000000
-2.107300 0.000000
-2.086000 0.000000
-2.064700 0.000000
-2.043400 0.000000
-2.022100 0.000000
-2.000800 0.000000
-1.979500 0.000000
-1.958200 0.000000
-1.937000 0.000000
-1.915700 0.000000
-1.894400 0.000000
-1.873100 0.000000
-1.851800 0.000000
-1.830500 0.000000
-1.809200 0.000000
-1.787900 0.000000
-1.766600 0.000000
-1.745300 0.000000
-1.724100 0.000000
-1.702800 0.000000
-1.681500 0.000000
-1.660200 0.000000
-1.638900 0.000000
-1.617600 0.000000
-1.596300 0.000000
-1.575000 0.000000
-1.553700 0.000000
-1.532400 0.000000
-1.511100 0.000000
-1.489900 0.000000
-1.468600 0.000000
-1.447300 0.000000
-1.426000 0.000000
-1.404700 0.000000
-1.383400 0.000000
-1.362100 0.000000
-1.340800 0.000000
-1.319500 0.000000
-1.298200 0.000000
-1.276900 0.000000
-1.255700 0.000000
-1.234400 0.000000
-1.213100 0.000000
-1.191800 0.000000
-1.170500 0.000000
-1.149200 0.001400
-1.127900 0.010300
-1.106600 0.027300
-1.085300 0.058800
-1.064000 0.165500
-1.042700 0.112000
-1.021500 0.128000
-1.000200 0.146300
-0.978900 0.163100
-0.957600 0.178200
-0.936300 0.191700
-0.915000 0.246200
-0.893700 0.287100
-0.872400 0.366500
-0.851100 0.479100
-0.829800 0.509300
-0.808500 0.540300
-0.787300 0.591000
-0.766000 0.641900
-0.744700 0.692100
-0.723400 0.741500
-0.702100 0.825800
-0.680800 0.867400
-0.659500 0.900900
-0.638200 0.942800
-0.616900 0.991900
-0.595600 1.038700
-0.574400 1.087600
-0.553100 1.137800
-0.531800 1.194100
-0.510500 1.254600
-0.489200 1.404500
-0.467900 1.459000
-0.446600 1.446400
-0.425300 1.465700
-0.404000 1.480400
-0.382700 1.478400
-0.361400 1.569200
-0.340200 1.610100
-0.318900 1.673000
-0.297600 1.731400
-0.276300 1.786700
-0.255000 1.869900
-0.233700 2.069000
-0.212400 2.153200
-0.191100 2.285000
-0.169800 2.453400
-0.148500 2.630700
-0.127200 2.849500
-0.106000 3.132800
-0.084700 3.327200
-0.063400 3.647000
-0.042100 4.039600
-0.020800 4.760800
0.000500 6.021100
0.021800 6.611100
0.043100 5.883700
0.064400 6.100700
0.085700 5.990500
0.107000 5.942600
0.128200 5.575000
0.149500 5.350300
0.170800 4.936700
0.192100 4.589300
0.213400 4.217800
0.234700 3.896900
0.256000 3.747800
0.277300 3.807900
0.298600 4.559100
0.319900 4.966900
0.341200 5.953200
0.362400 6.067800
0.383700 4.424800
0.405000 3.507700
0.426300 3.307600
0.447600 3.288200
0.468900 3.182200
0.490200 2.952600
0.511500 3.083000
0.532800 3.786400
0.554100 4.327400
0.575300 4.615900
0.596600 4.927000
0.617900 5.799500
0.639200 6.205000
0.660500 6.245700
0.681800 6.560500
0.703100 6.284800
0.724400 6.164500
0.745700 5.224000
0.767000 4.354400
0.788300 3.794800
0.809500 3.096000
0.830800 2.908700
0.852100 2.675200
0.873400 2.740900
0.894700 2.481300
0.916000 2.596600
0.937300 2.742000
0.958600 2.801400
0.979900 2.686100
1.001200 2.776600
1.022500 3.109300
1.043700 3.328600
1.065000 3.449800
1.086300 3.762400
1.107600 4.137900
1.128900 5.062000
1.150200 6.960800
1.171500 7.441200
1.192800 8.024600
1.214100 7.779100
1.235400 7.275200
1.256700 7.287300
1.277900 7.006300
1.299200 4.912900
1.320500 3.523000
1.341800 3.662000
1.363100 5.409800
1.384400 8.689900
1.405700 9.486200
1.427000 9.505500
1.448300 10.210800
1.469600 10.817800
1.490900 10.731200
1.512100 11.705600
1.533400 13.156800
1.554700 10.794100
1.576000 9.453500
1.597300 9.896200
1.618600 10.105300
1.639900 11.022400
1.661200 10.691200
1.682500 9.196500
1.703800 8.710800
1.725000 9.493000
1.746300 10.077300
1.767600 9.912600
1.788900 9.559800
1.810200 9.202400
1.831500 9.708300
1.852800 11.471500
1.874100 11.908300
1.895400 11.386700
1.916700 10.034000
1.938000 8.579700
1.959200 7.134400
1.980500 6.945400
2.001800 8.351800
2.023100 12.079700
2.044400 13.220100
2.065700 11.905600
2.087000 10.012800
2.108300 8.255600
2.129600 6.721900
2.150900 6.460400
2.172200 6.499000
2.193400 6.460300
2.214700 7.024300
2.236000 6.827300
2.257300 6.510800
2.278600 5.488800
2.299900 6.561400
2.321200 8.174300
2.342500 10.110000
2.363800 10.757200
2.385100 10.452800
2.406400 9.784000
2.427600 9.842500
2.448900 10.075800
2.470200 9.363400
2.491500 9.988200
2.512800 10.443300
2.534100 9.658900
2.555400 9.563200
2.576700 9.798600
2.598000 10.948800
2.619300 13.347500
2.640600 13.289900
2.661800 12.382500
2.683100 11.777500
2.704400 12.050500
2.725700 13.495500
2.747000 11.390700
2.768300 14.118000
2.789600 13.610300
2.810900 11.673100
2.832200 12.922400
2.853500 12.948800
2.874700 11.371000
2.896000 11.573400
2.917300 13.652700
2.938600 16.223900
2.959900 16.532900
2.981200 15.690000
3.002500 16.799600
3.023800 19.126000
3.045100 15.540400
3.066400 13.699400
3.087700 12.979200
3.108900 11.189000
3.130200 9.600000
3.151500 9.677200
3.172800 8.369800
3.194100 8.704600
3.215400 8.523200
3.236700 8.054200
3.258000 7.499000
3.279300 5.563400
3.300600 6.019000
3.321900 8.010200
3.343100 10.120000
3.364400 11.473500
3.385700 12.663600
3.407000 12.383200
3.428300 13.816100
3.449600 15.755100
3.470900 18.824000
3.492200 14.576900
3.513500 12.413800
3.534800 12.291800
3.556100 12.299300
3.577300 13.006100
3.598600 11.892000
3.619900 11.572500
3.641200 10.792800
3.662500 8.885400
3.683800 8.092300
3.705100 7.832400
3.726400 8.049800
3.747700 8.305700
3.769000 9.230800
3.790300 10.767100
3.811500 12.790400
3.832800 13.959000
3.854100 19.009300
3.875400 13.878100
3.896700 7.890400
3.918000 6.532500
3.939300 7.997400
3.960600 7.209700
3.981900 7.754900
4.003200 8.207400
4.024400 8.373200
4.045700 8.719300
4.067000 9.760000
4.088300 9.869400
4.109600 9.519900
4.130900 9.133400
4.152200 9.050800
4.173500 9.079500
4.194800 9.305500
4.216100 8.614000
4.237400 8.220300
4.258600 8.235500
4.279900 9.615700
4.301200 10.528700
4.322500 11.925900
4.343800 13.010400
4.365100 13.840500
4.386400 11.143800
4.407700 12.595800
4.429000 16.227700
4.450300 15.036400
4.471600 15.122200
4.492800 13.822800
4.514100 11.626200
4.535400 9.605900
4.556700 10.652200
4.578000 14.883800
4.599300 14.897800
4.620600 13.011300
4.641900 11.835200
4.663200 12.072400
4.684500 12.759900
4.705800 13.504500
4.727000 14.649600
4.748300 13.210600
4.769600 12.720900
4.790900 14.372500
4.812200 18.194100
4.833500 17.935800
4.854800 14.345000
4.876100 14.779900
4.897400 11.680000
4.918700 10.071000
4.940000 9.998200
4.961200 13.180300
4.982500 15.340600
5.003800 11.655600
5.025100 8.797800
5.046400 7.357100
5.067700 7.410000
5.089000 8.817500
5.110300 9.994100
5.131600 9.643900
5.152900 9.684900
5.174200 9.687000
5.195400 9.663700
5.216700 9.094200
5.238000 7.383000
5.259300 6.777000
5.280600 8.051300
5.301900 8.103300
5.323200 8.884800
5.344500 10.172300
5.365800 11.211500
5.387100 11.266500
5.408300 11.088900
5.429600 10.690600
5.450900 9.735600
5.472200 9.821300
5.493500 11.706000
5.514800 16.757800
5.536100 12.063900
5.557400 11.338000
5.578700 10.559300
5.600000 10.071700
5.621300 10.717800
5.642500 12.485500
5.663800 11.953800
5.685100 10.449600
5.706400 8.285100
5.727700 7.382700
5.749000 7.154800
5.770300 7.004800
5.791600 6.987900
5.812900 6.847400
5.834200 7.776600
5.855500 9.543100
5.876700 14.478300
5.898000 15.286300
5.919300 14.594600
5.940600 12.609400
5.961900 11.144400
5.983200 7.814500
6.004500 4.239400
6.025800 3.557600
6.047100 4.747700
6.068400 5.335100
6.089700 5.936700
6.110900 6.835300
6.132200 10.298100
6.153500 11.861300
6.174800 11.858500
6.196100 10.112500
6.217400 7.165300
6.238700 5.477500
6.260000 4.706800
6.281300 5.104400
6.302600 5.444600
6.323900 6.233500
6.345100 7.255700
6.366400 4.738400
6.387700 4.592200
6.409000 3.437400
6.430300 3.554800
6.451600 3.621300
6.472900 3.847900
6.494200 4.093200
6.515500 4.674500
6.536800 4.799900
6.558000 4.804500
6.579300 4.990200
6.600600 5.148500
6.621900 5.317200
6.643200 5.499600
6.664500 5.921500
6.685800 6.909000
6.707100 7.954100
6.728400 8.987000
6.749700 8.546800
6.771000 7.815900
6.792200 7.236800
6.813500 7.030400
6.834800 6.740200
6.856100 5.871200
6.877400 5.328700
6.898700 4.399400
6.920000 3.664100
6.941300 3.314800
6.962600 3.230700
6.983900 3.081700
7.005200 2.669900
7.026400 2.277100
7.047700 1.896500
7.069000 1.567700
7.090300 1.391000
7.111600 1.283300
7.132900 1.143600
7.154200 1.069200
7.175500 1.029200
7.196800 1.053800
7.218100 1.190600
7.239400 1.321600
7.260600 1.447100
7.281900 1.604800
7.303200 1.617900
7.324500 1.538700
7.345800 1.662500
7.367100 1.818800
7.388400 2.029600
7.409700 2.276300
7.431000 3.004800
7.452300 2.382300
7.473600 2.417600
7.494800 2.532100
7.516100 2.697200
7.537400 3.048600
7.558700 3.208500
7.580000 3.288700
7.601300 3.437300
7.622600 3.783400
7.643900 3.963700
7.665200 4.113900
7.686500 4.443300
7.707700 4.923700
7.729000 5.066800
7.750300 5.465000
7.771600 6.238900
7.792900 6.280400
7.814200 5.811900
7.835500 5.400900
7.856800 4.995300
7.878100 4.797200
7.899400 4.967600
7.920700 4.536000
7.941900 4.400000
7.963200 4.375800
7.984500 4.313400
8.005800 4.096900
8.027100 3.949800
8.048400 3.882000
8.069700 3.865300
8.091000 3.863500
8.112300 4.034100
8.133600 3.650500
8.154900 3.780100
8.176100 4.087700
8.197400 4.470100
8.218700 4.894500
8.240000 5.390500
8.261300 5.913200
8.282600 6.009100
8.303900 6.208100
8.325200 6.120100
8.346500 6.180100
8.367800 6.180500
8.389100 5.683300
8.410300 5.209300
8.431600 4.954900
8.452900 3.543700
8.474200 3.719000
8.495500 4.051400
8.516800 4.404700
8.538100 5.246100
8.559400 5.337800
8.580700 5.033900
8.602000 4.787000
8.623300 4.478700
8.644500 4.209700
8.665800 3.996200
8.687100 3.864000
8.708400 3.830300
8.729700 3.794200
8.751000 3.700700
8.772300 3.617300
8.793600 3.447200
8.814900 3.373200
8.836200 3.320800
8.857400 3.285700
8.878700 3.371500
8.900000 3.163600
8.921300 3.064300
8.942600 2.966400
8.963900 2.848600
8.985200 2.732200
9.006500 2.619700
9.027800 2.531800
9.049100 2.463600
9.070400 2.405600
9.091600 2.423400
9.112900 2.420200
9.134200 2.385600
9.155500 2.335800
9.176800 2.309600
9.198100 2.298600
9.219400 2.290300
9.240700 2.265900
9.262000 2.253500
9.283300 2.257900
9.304600 2.273800
9.325800 2.291100
9.347100 2.326100
9.368400 2.363200
9.389700 2.404500
9.411000 2.431900
9.432300 2.422100
9.453600 2.399400
9.474900 2.445500
9.496200 2.514500
9.517500 2.519900
9.538800 2.560600
9.560000 2.588400
9.581300 2.602800
9.602600 2.611000
9.623900 2.584700
9.645200 2.581100
9.666500 2.617600
9.687800 2.641700
9.709100 2.696200
9.730400 2.920300
9.751700 2.900900
9.773000 2.823200
9.794200 2.770500
9.815500 2.715600
9.836800 2.671000
9.858100 2.673200
9.879400 2.683600
9.900700 2.567600
9.922000 2.453300
9.943300 2.359000
9.964600 2.266700
9.985900 2.170200
10.007100 2.096900
10.028400 2.023300
10.049700 1.998800
10.071000 1.995200
10.092300 1.985400
10.113600 1.997400
10.134900 4.661500
10.156200 2.152100
10.177500 2.229600
10.198800 2.266300
10.220100 2.253900
10.241300 2.298300
10.262600 2.347000
10.283900 2.418100
10.305200 2.528600
10.326500 2.650100
10.347800 2.675000
10.369100 2.707700
10.390400 2.690800
10.411700 2.647300
10.433000 2.605400
10.454300 2.565300
10.475500 2.500700
10.496800 2.461400
10.518100 2.422200
10.539400 2.385900
10.560700 2.353400
10.582000 2.323000
10.603300 2.283200
10.624600 2.208200
10.645900 2.195300
10.667200 2.181200
10.688500 2.131600
10.709700 2.064600
10.731000 2.059200
10.752300 2.058800
10.773600 2.098500
10.794900 2.273400
10.816200 2.524500
10.837500 2.382500
10.858800 2.312200
10.880100 2.340300
10.901400 2.363100
10.922700 2.517300
10.943900 2.486900
10.965200 2.519200
10.986500 2.504000
11.007800 2.503800
11.029100 2.336600
11.050400 2.249900
11.071700 2.169400
11.093000 2.055900
11.114300 2.071500
11.135600 2.031200
11.156800 1.997800
11.178100 1.966700
11.199400 1.930900
11.220700 1.915500
11.242000 1.889400
11.263300 1.869700
11.284600 1.855600
11.305900 1.860300
11.327200 1.849200
11.348500 1.852800
11.369800 1.900300
11.391000 1.940000
11.412300 1.965300
11.433600 2.013300
11.454900 2.109600
11.476200 2.218500
11.497500 2.244800
11.518800 2.317300
11.540100 2.406100
11.561400 2.500300
11.582700 2.582700
11.604000 2.689300
11.625200 2.835600
11.646500 2.876100
11.667800 2.948900
11.689100 3.019800
11.710400 3.059600
11.731700 3.056200
11.753000 3.040100
11.774300 3.047900
11.795600 3.043200
11.816900 3.002500
11.838200 2.941900
11.859400 2.863100
11.880700 2.753900
11.902000 2.714100
11.923300 2.674700
11.944600 2.627800
11.965900 2.574800
11.987200 2.540700
12.008500 2.547200
12.029800 2.507400
12.051100 2.439800
12.072400 2.329600
12.093600 2.208700
12.114900 2.116300
12.136200 2.063900
12.157500 2.044500
12.178800 2.053200
12.200100 2.070100
12.221400 2.104800
12.242700 2.142500
12.264000 2.237100
12.285300 2.331300
12.306500 2.388900
12.327800 2.459200
12.349100 2.579800
12.370400 2.711400
12.391700 2.941300
12.413000 3.148500
12.434300 3.080300
12.455600 3.010700
12.476900 2.961700
12.498200 2.896700
12.519500 2.736500
12.540700 2.402600
12.562000 2.333400
12.583300 2.278300
12.604600 2.238500
12.625900 2.203200
12.647200 2.131500
12.668500 2.223300
12.689800 2.318800
12.711100 2.450200
12.732400 2.628000
12.753700 2.838300
12.774900 3.071300
12.796200 3.318700
12.817500 3.524100
12.838800 3.748700
12.860100 3.925200
12.881400 4.086600
12.902700 5.240400
12.924000 5.062700
12.945300 5.154000
12.966600 4.987100
12.987900 4.830600
13.009100 4.751400
13.030400 4.645400
13.051700 4.698800
13.073000 4.840600
13.094300 4.983600
13.115600 5.118600
13.136900 5.602000
13.158200 5.893200
13.179500 5.631900
13.200800 5.596800
13.222100 5.777100
13.243300 5.660400
13.264600 5.594600
13.285900 5.325400
13.307200 4.766500
13.328500 4.526400
13.349800 4.289100
13.371100 4.184000
13.392400 4.150900
13.413700 4.021600
13.435000 3.931200
13.456300 3.511500
13.477500 3.276700
13.498800 3.098000
13.520100 2.917800
13.541400 2.795800
13.562700 2.598200
13.584000 2.474800
13.605300 2.367600
13.626600 2.357000
13.647900 2.407400
13.669200 2.408700
13.690400 2.373800
13.711700 2.331500
13.733000 2.304200
13.754300 2.301000
13.775600 2.408400
13.796900 2.126500
13.818200 2.000100
13.839500 1.902900
13.860800 1.814700
13.882100 1.796800
13.903400 1.763600
13.924600 1.751100
13.945900 1.724400
13.967200 1.764200
13.988500 1.819900
14.009800 1.932900
14.031100 2.030000
14.052400 2.074800
14.073700 2.170300
14.095000 2.291700
14.116300 2.295400
14.137600 2.355500
14.158800 2.404100
14.180100 2.462300
14.201400 2.540000
14.222700 2.553600
14.244000 2.583600
14.265300 2.602500
14.286600 2.597200
14.307900 2.624800
14.329200 2.627400
14.350500 2.669900
14.371800 2.735600
14.393000 2.837200
14.414300 2.965400
14.435600 3.238900
14.456900 3.561500
14.478200 3.726900
14.499500 3.797800
14.520800 3.807600
14.542100 3.843900
14.563400 3.897600
14.584700 3.915100
14.606000 3.976000
14.627200 3.902600
14.648500 3.899100
14.669800 3.950400
14.691100 3.924500
14.712400 3.867200
14.733700 3.906200
14.755000 4.048300
14.776300 4.194500
14.797600 4.129300
14.818900 4.022100
14.840100 4.055200
14.861400 3.744900
14.882700 3.677300
14.904000 3.506300
14.925300 3.285300
14.946600 3.220200
14.967900 3.210700
14.989200 3.181900
15.010500 3.189000
15.031800 3.154800
15.053100 3.082400
15.074300 2.991600
15.095600 2.961500
15.116900 2.933100
15.138200 2.832500
15.159500 2.710600
15.180800 2.658300
15.202100 2.638300
15.223400 2.643600
15.244700 2.657900
15.266000 2.695100
15.287300 2.742600
15.308500 2.804600
15.329800 3.101500
15.351100 3.099500
15.372400 3.049200
15.393700 3.086100
15.415000 3.182300
15.436300 3.274600
15.457600 3.565900
15.478900 3.716700
15.500200 3.835800
15.521500 3.890200
15.542700 3.907100
15.564000 3.944000
15.585300 3.868600
15.606600 3.765000
15.627900 3.591600
15.649200 3.484900
15.670500 3.386600
15.691800 3.333400
15.713100 3.324300
15.734400 3.274100
15.755700 3.234600
15.776900 3.496100
15.798200 3.257700
15.819500 3.271500
15.840800 3.357500
15.862100 3.341700
15.883400 3.283300
15.904700 3.259900
15.926000 3.291600
15.947300 3.241600
15.968600 3.256600
15.989800 3.360200
16.011100 3.172600
16.032400 3.192000
16.053700 3.132200
16.075000 3.072700
16.096300 3.028800
16.117600 3.007100
16.138900 3.011800
16.160200 2.999500
16.181500 3.017600
16.202800 3.055400
16.224000 3.077000
16.245300 3.078600
16.266600 2.979100
16.287900 2.759400
16.309200 2.502200
16.330500 2.425300
16.351800 2.550400
16.373100 2.787200
16.394400 3.017900
16.415700 3.414400
16.437000 3.831600
16.458200 4.174700
16.479500 4.093800
16.500800 4.283200
16.522100 4.222300
16.543400 3.894700
16.564700 3.782300
16.586000 3.795100
16.607300 3.831300
16.628600 3.934800
16.649900 4.184300
16.671200 4.589400
16.692400 4.793000
16.713700 5.107600
16.735000 5.081500
16.756300 5.020100
16.777600 5.001400
16.798900 5.061800
16.820200 4.759700
16.841500 4.450300
16.862800 4.225300
16.884100 4.064700
16.905400 3.940700
16.926600 3.717500
16.947900 3.559100
16.969200 3.465600
16.990500 3.429700
17.011800 3.297000
17.033100 3.092700
17.054400 2.863900
17.075700 2.721000
17.097000 2.649300
17.118300 2.681300
17.139500 2.767100
17.160800 2.858400
17.182100 2.963800
17.203400 3.074700
17.224700 3.223300
17.246000 3.309000
17.267300 3.421300
17.288600 3.496400
17.309900 3.441000
17.331200 3.328500
17.352500 3.360900
17.373700 3.445000
17.395000 3.548700
17.416300 3.658900
17.437600 3.748000
17.458900 3.767900
17.480200 3.772500
17.501500 3.809500
17.522800 3.899400
17.544100 3.781600
17.565400 3.756900
17.586700 3.701700
17.607900 3.610500
17.629200 3.481200
17.650500 3.298100
17.671800 3.155600
17.693100 3.014400
17.714400 2.924200
17.735700 2.837800
17.757000 2.798300
17.778300 2.780500
17.799600 2.772400
17.820900 2.629600
17.842100 2.562000
17.863400 2.502000
17.884700 2.438900
17.906000 2.374700
17.927300 2.367600
17.948600 2.401900
17.969900 2.492200
17.991200 2.601100
18.012500 2.755400
18.033800 2.924500
18.055100 3.145600
18.076300 3.519200
18.097600 3.749000
18.118900 3.842200
18.140200 3.976300
18.161500 4.002800
18.182800 3.962900
18.204100 3.796100
18.225400 3.688200
18.246700 3.503000
18.268000 3.433400
18.289200 3.556500
18.310500 3.165000
18.331800 2.849800
18.353100 2.611300
18.374400 2.501900
18.395700 2.443400
18.417000 2.464200
18.438300 2.532200
18.459600 2.601900
18.480900 2.703200
18.502200 2.787100
18.523400 2.955200
18.544700 3.157300
18.566000 3.384500
18.587300 3.641400
18.608600 3.868700
18.629900 4.097900
18.651200 4.242800
18.672500 4.340900
18.693800 4.440300
18.715100 4.282300
18.736400 4.047300
18.757600 3.858500
18.778900 3.754000
18.800200 3.631000
18.821500 3.590400
18.842800 3.582600
18.864100 3.600000
18.885400 3.610900
18.906700 3.714500
18.928000 3.762100
18.949300 3.857900
18.970600 3.787000
18.991800 3.763800
19.013100 3.753800
19.034400 3.834900
19.055700 3.907600
19.077000 4.033300
19.098300 4.034800
19.119600 4.118900
19.140900 4.103300
19.162200 4.133200
19.183500 4.078800
19.204800 4.040300
19.226000 3.949800
19.247300 3.938300
19.268600 3.815600
19.289900 3.743800
19.311200 3.498800
19.332500 3.373000
19.353800 3.254300
19.375100 3.164200
19.396400 3.149400
19.417700 3.084300
19.438900 3.081700
19.460200 3.039000
19.481500 2.956000
19.502800 2.858700
19.524100 2.753800
19.545400 2.632500
19.566700 2.375700
19.588000 2.167100
19.609300 1.995400
19.630600 1.791000
19.651900 1.653200
19.673100 1.529300
19.694400 1.410100
19.715700 1.305100
19.737000 1.211900
19.758300 1.154400
19.779600 1.037800
19.800900 0.953700
19.822200 0.889400
19.843500 0.820200
19.864800 0.721700
19.886100 0.650500
19.907300 0.580400
19.928600 0.512200
19.949900 0.444300
19.971200 0.428400
19.992500 0.324800
20.013800 0.275900
20.035100 0.234300
20.056400 0.200200
20.077700 0.172700
20.099000 0.149300
20.120300 0.128500
20.141500 0.109200
20.162800 0.091500
20.184100 0.075700
20.205400 0.061700
20.226700 0.049400
20.248000 0.039000
20.269300 0.030300
20.290600 0.023000
20.311900 0.016800
20.333200 0.011700
20.354500 0.007700
20.375700 0.004900
20.397000 0.003100
20.418300 0.002100
20.439600 0.001300
20.460900 0.000800
20.482200 0.000400
20.503500 0.000100
20.524800 0.000000
20.546100 0.000000
20.567400 0.000000
20.588600 0.000000
20.609900 0.000000
20.631200 0.000000
20.652500 0.000000
20.673800 0.000000
20.695100 0.000000
20.716400 0.000000
20.737700 0.000000
20.759000 0.000000
20.780300 0.000000
20.801600 0.000000
20.822800 0.000000
20.844100 0.000000
20.865400 0.000000
20.886700 0.000000
20.908000 0.000000
20.929300 0.000000
20.950600 0.000000
20.971900 0.000000
20.993200 0.000000
21.014500 0.000000
21.035800 0.000000
21.057000 0.000000
21.078300 0.000000
21.099600 0.000000
21.120900 0.000000
21.142200 0.000000
21.163500 0.000000
21.184800 0.000000
21.206100 0.000000
21.227400 0.000000
21.248700 0.000000
21.270000 0.000000
21.291200 0.000000
21.312500 0.000000
21.333800 0.000000
21.355100 0.000000
21.376400 0.000000
21.397700 0.000000
21.419000 0.000000
21.440300 0.000000
21.461600 0.000000
21.482900 0.000000
21.504200 0.000000
21.525400 0.000000
21.546700 0.000000
21.568000 0.000000
21.589300 0.000000
21.610600 0.000000
21.631900 0.000000
21.653200 0.000000
21.674500 0.000000
21.695800 0.000000
21.717100 0.000000
21.738400 0.000000
21.759600 0.000000
21.780900 0.000000
21.802200 0.000000
21.823500 0.000000
21.844800 0.000000
21.866100 0.000000
21.887400 0.000000
21.908700 0.000000
21.930000 0.000000
21.951300 0.000000
21.972500 0.000000
21.993800 0.000000
22.015100 0.000000
22.036400 0.000000
22.057700 0.000000
22.079000 0.000000
22.100300 0.000000
22.121600 0.000000
22.142900 0.000000
22.164200 0.000000
22.185500 0.000000
22.206700 0.000000
22.228000 0.000000
22.249300 0.000000
22.270600 0.000000
22.291900 0.000000
22.313200 0.000000
22.334500 0.000000
22.355800 0.000000
22.377100 0.000000
22.398400 0.000000
22.419700 0.000000
22.440900 0.000000
22.462200 0.000000
e
