set title 'mp-9852 - Density of States'
set xlabel 'Energy (eV)'
set ylabel 'DOS (states/eV)'
set grid
set xrange [-10:10]
set yrange [0:13.893]
set xzeroaxis lt -1
set terminal png size 800,600
set output 'mp-9852_dos_gnuplot.png'
plot '-' using 1:2 with lines title 'DOS'
-21.326400 0.000000
-21.308900 0.000000
-21.291500 0.000000
-21.274000 0.000000
-21.256500 0.000000
-21.239000 0.000000
-21.221500 0.000000
-21.204000 0.000000
-21.186500 0.000000
-21.169100 0.000000
-21.151600 0.000000
-21.134100 0.000000
-21.116600 0.000000
-21.099100 0.000000
-21.081600 0.000000
-21.064100 0.000000
-21.046700 0.000000
-21.029200 0.000000
-21.011700 0.000000
-20.994200 0.000000
-20.976700 0.000000
-20.959200 0.000000
-20.941700 0.000000
-20.924300 0.000000
-20.906800 0.000000
-20.889300 0.000000
-20.871800 0.000000
-20.854300 0.000000
-20.836800 0.000000
-20.819300 0.000000
-20.801800 0.000000
-20.784400 0.000000
-20.766900 0.000000
-20.749400 0.000000
-20.731900 0.000000
-20.714400 0.000000
-20.696900 0.000000
-20.679400 0.000000
-20.662000 0.000000
-20.644500 0.000000
-20.627000 0.000000
-20.609500 0.000000
-20.592000 0.000000
-20.574500 0.000000
-20.557000 0.000000
-20.539600 0.000000
-20.522100 0.000000
-20.504600 0.000000
-20.487100 0.000000
-20.469600 0.000000
-20.452100 0.000000
-20.434600 0.000000
-20.417200 0.000000
-20.399700 0.000000
-20.382200 0.000000
-20.364700 0.000000
-20.347200 0.000000
-20.329700 0.000000
-20.312200 0.000000
-20.294800 0.000000
-20.277300 0.000000
-20.259800 0.000000
-20.242300 0.000000
-20.224800 0.000000
-20.207300 0.000000
-20.189800 0.000000
-20.172400 0.000000
-20.154900 0.000000
-20.137400 0.000000
-20.119900 0.000000
-20.102400 0.000000
-20.084900 0.000000
-20.067400 0.000000
-20.050000 0.000000
-20.032500 0.000000
-20.015000 0.000000
-19.997500 0.000000
-19.980000 0.000000
-19.962500 0.000000
-19.945000 0.000000
-19.927600 0.000000
-19.910100 0.000000
-19.892600 0.000000
-19.875100 0.000000
-19.857600 0.000000
-19.840100 0.000000
-19.822600 0.000000
-19.805100 0.000000
-19.787700 0.000000
-19.770200 0.000000
-19.752700 0.000000
-19.735200 312.485000
-19.717700 0.000000
-19.700200 0.000000
-19.682700 0.000000
-19.665300 0.000000
-19.647800 0.000000
-19.630300 0.000000
-19.612800 0.000000
-19.595300 0.000000
-19.577800 0.000000
-19.560300 231.574200
-19.542900 0.000000
-19.525400 0.000000
-19.507900 0.000000
-19.490400 0.000000
-19.472900 0.000000
-19.455400 0.000000
-19.437900 0.000000
-19.420500 0.000000
-19.403000 0.000000
-19.385500 0.000000
-19.368000 0.000000
-19.350500 0.000000
-19.333000 0.000000
-19.315500 0.000000
-19.298100 0.000000
-19.280600 0.000000
-19.263100 0.000000
-19.245600 0.000000
-19.228100 0.000000
-19.210600 0.000000
-19.193100 0.000000
-19.175700 0.000000
-19.158200 0.000000
-19.140700 0.000000
-19.123200 0.000000
-19.105700 0.000000
-19.088200 0.000000
-19.070700 0.000000
-19.053300 0.000000
-19.035800 0.000000
-19.018300 0.000000
-19.000800 0.000000
-18.983300 0.000000
-18.965800 0.000000
-18.948300 0.000000
-18.930900 0.000000
-18.913400 0.000000
-18.895900 0.000000
-18.878400 0.000000
-18.860900 0.000000
-18.843400 0.000000
-18.825900 0.000000
-18.808400 0.000000
-18.791000 0.000000
-18.773500 0.000000
-18.756000 0.000000
-18.738500 0.000000
-18.721000 0.000000
-18.703500 0.000000
-18.686000 0.000000
-18.668600 0.000000
-18.651100 0.000000
-18.633600 0.000000
-18.616100 0.000000
-18.598600 0.000000
-18.581100 0.000000
-18.563600 0.000000
-18.546200 0.000000
-18.528700 0.000000
-18.511200 0.000000
-18.493700 0.000000
-18.476200 0.000000
-18.458700 0.000000
-18.441200 0.000000
-18.423800 0.000000
-18.406300 0.000000
-18.388800 0.000000
-18.371300 0.000000
-18.353800 0.000000
-18.336300 0.000000
-18.318800 0.000000
-18.301400 0.000000
-18.283900 0.000000
-18.266400 0.000000
-18.248900 0.000000
-18.231400 0.000000
-18.213900 0.000000
-18.196400 0.000000
-18.179000 0.000000
-18.161500 0.000000
-18.144000 0.000000
-18.126500 0.000000
-18.109000 0.000000
-18.091500 0.000000
-18.074000 0.000000
-18.056600 0.000000
-18.039100 0.000000
-18.021600 0.000000
-18.004100 0.000000
-17.986600 0.000000
-17.969100 0.000000
-17.951600 0.000000
-17.934200 0.000000
-17.916700 0.000000
-17.899200 0.000000
-17.881700 0.000000
-17.864200 0.000000
-17.846700 0.000000
-17.829200 0.000000
-17.811700 0.000000
-17.794300 0.000000
-17.776800 0.000000
-17.759300 0.000000
-17.741800 0.000000
-17.724300 0.000000
-17.706800 0.000000
-17.689300 0.000000
-17.671900 0.000000
-17.654400 0.000000
-17.636900 0.000000
-17.619400 0.000000
-17.601900 0.000000
-17.584400 0.000000
-17.566900 0.000000
-17.549500 0.000000
-17.532000 0.000000
-17.514500 0.000000
-17.497000 0.000000
-17.479500 0.000000
-17.462000 0.000000
-17.444500 0.000000
-17.427100 0.000000
-17.409600 0.000000
-17.392100 0.000000
-17.374600 0.000000
-17.357100 0.000000
-17.339600 0.000000
-17.322100 0.000000
-17.304700 0.000000
-17.287200 0.000000
-17.269700 0.000000
-17.252200 0.000000
-17.234700 0.000000
-17.217200 0.000000
-17.199700 0.000000
-17.182300 0.000000
-17.164800 0.000000
-17.147300 0.000000
-17.129800 0.000000
-17.112300 0.000000
-17.094800 0.000000
-17.077300 0.000000
-17.059900 0.000000
-17.042400 0.000000
-17.024900 0.000000
-17.007400 0.000000
-16.989900 0.000000
-16.972400 0.000000
-16.954900 0.000000
-16.937500 0.000000
-16.920000 0.000000
-16.902500 0.000000
-16.885000 0.000000
-16.867500 0.000000
-16.850000 0.000000
-16.832500 0.000000
-16.815000 0.000000
-16.797600 0.000000
-16.780100 0.000000
-16.762600 0.000000
-16.745100 0.000000
-16.727600 0.000000
-16.710100 0.000000
-16.692600 0.000000
-16.675200 0.000000
-16.657700 0.000000
-16.640200 0.000000
-16.622700 0.000000
-16.605200 0.000000
-16.587700 0.000000
-16.570200 0.000000
-16.552800 0.000000
-16.535300 0.000000
-16.517800 0.000000
-16.500300 0.000000
-16.482800 0.000000
-16.465300 0.000000
-16.447800 0.000000
-16.430400 0.000000
-16.412900 0.000000
-16.395400 0.000000
-16.377900 0.000000
-16.360400 0.000000
-16.342900 0.000000
-16.325400 0.000000
-16.308000 0.000000
-16.290500 0.000000
-16.273000 0.000000
-16.255500 0.000000
-16.238000 0.000000
-16.220500 0.000000
-16.203000 0.000000
-16.185600 0.000000
-16.168100 0.000000
-16.150600 0.000000
-16.133100 0.000000
-16.115600 0.000000
-16.098100 0.000000
-16.080600 0.000000
-16.063200 0.000000
-16.045700 0.000000
-16.028200 0.000000
-16.010700 0.000000
-15.993200 0.000000
-15.975700 0.000000
-15.958200 0.000000
-15.940800 0.000000
-15.923300 0.000000
-15.905800 0.000000
-15.888300 0.000000
-15.870800 0.000000
-15.853300 0.000000
-15.835800 0.000000
-15.818300 0.000000
-15.800900 0.000000
-15.783400 0.000000
-15.765900 0.000000
-15.748400 0.000000
-15.730900 0.000000
-15.713400 0.000000
-15.695900 0.000000
-15.678500 0.000000
-15.661000 0.000000
-15.643500 0.000000
-15.626000 0.000000
-15.608500 0.000000
-15.591000 0.000000
-15.573500 0.000000
-15.556100 0.000000
-15.538600 0.000000
-15.521100 0.000000
-15.503600 0.000000
-15.486100 0.000000
-15.468600 0.000000
-15.451100 0.000000
-15.433700 0.000000
-15.416200 0.000000
-15.398700 0.000000
-15.381200 0.000000
-15.363700 0.000000
-15.346200 0.000000
-15.328700 0.000000
-15.311300 0.000000
-15.293800 0.000000
-15.276300 0.000000
-15.258800 0.000000
-15.241300 0.000000
-15.223800 0.000000
-15.206300 0.000000
-15.188900 0.000000
-15.171400 0.000000
-15.153900 0.000000
-15.136400 0.000000
-15.118900 0.000000
-15.101400 0.000000
-15.083900 0.000000
-15.066500 0.000000
-15.049000 0.000000
-15.031500 0.000000
-15.014000 0.000000
-14.996500 0.000000
-14.979000 0.000000
-14.961500 0.000000
-14.944100 0.000000
-14.926600 0.000000
-14.909100 0.000000
-14.891600 0.000000
-14.874100 0.000000
-14.856600 0.000000
-14.839100 0.000000
-14.821700 0.000000
-14.804200 0.000000
-14.786700 0.000000
-14.769200 0.000000
-14.751700 0.000000
-14.734200 0.000000
-14.716700 0.000000
-14.699200 0.000000
-14.681800 0.000000
-14.664300 0.000000
-14.646800 0.000000
-14.629300 0.000000
-14.611800 0.000000
-14.594300 0.000000
-14.576800 0.000000
-14.559400 0.000000
-14.541900 0.000000
-14.524400 0.000000
-14.506900 0.000000
-14.489400 0.000000
-14.471900 0.000000
-14.454400 0.000000
-14.437000 0.000000
-14.419500 0.000000
-14.402000 0.000000
-14.384500 0.000000
-14.367000 0.000000
-14.349500 0.000000
-14.332000 0.000000
-14.314600 0.000000
-14.297100 0.000000
-14.279600 0.000000
-14.262100 0.000000
-14.244600 0.000000
-14.227100 0.000000
-14.209600 0.000000
-14.192200 0.000000
-14.174700 0.000000
-14.157200 0.000000
-14.139700 0.000000
-14.122200 0.000000
-14.104700 0.000000
-14.087200 0.000000
-14.069800 0.000000
-14.052300 0.000000
-14.034800 0.000000
-14.017300 0.000000
-13.999800 0.000000
-13.982300 0.000000
-13.964800 0.000000
-13.947400 0.000000
-13.929900 0.000000
-13.912400 0.000000
-13.894900 0.000000
-13.877400 0.000000
-13.859900 0.000000
-13.842400 0.000000
-13.825000 0.000000
-13.807500 0.000000
-13.790000 0.000000
-13.772500 0.000000
-13.755000 0.000000
-13.737500 0.000000
-13.720000 0.000000
-13.702500 0.000000
-13.685100 0.000000
-13.667600 0.000000
-13.650100 0.000000
-13.632600 0.000000
-13.615100 0.000000
-13.597600 0.000000
-13.580100 0.000000
-13.562700 0.000000
-13.545200 0.000000
-13.527700 0.000000
-13.510200 0.000000
-13.492700 0.000000
-13.475200 0.000000
-13.457700 0.000000
-13.440300 0.000000
-13.422800 0.000000
-13.405300 0.000000
-13.387800 0.000000
-13.370300 0.000000
-13.352800 0.000000
-13.335300 0.000000
-13.317900 0.000000
-13.300400 0.000000
-13.282900 0.000000
-13.265400 0.000000
-13.247900 0.000000
-13.230400 0.000000
-13.212900 0.000000
-13.195500 0.000000
-13.178000 0.000000
-13.160500 0.000000
-13.143000 0.000000
-13.125500 0.000000
-13.108000 0.000000
-13.090500 0.000000
-13.073100 0.000000
-13.055600 0.000000
-13.038100 0.000000
-13.020600 0.000000
-13.003100 0.000000
-12.985600 0.000000
-12.968100 0.000000
-12.950700 0.000000
-12.933200 0.000000
-12.915700 0.000000
-12.898200 0.000000
-12.880700 0.000000
-12.863200 0.000000
-12.845700 0.000000
-12.828300 0.000000
-12.810800 0.000000
-12.793300 0.000000
-12.775800 0.000000
-12.758300 0.000000
-12.740800 0.000000
-12.723300 0.000000
-12.705800 0.000000
-12.688400 0.000000
-12.670900 0.000000
-12.653400 0.000000
-12.635900 0.000000
-12.618400 0.000000
-12.600900 0.000000
-12.583400 0.000000
-12.566000 0.000000
-12.548500 0.000000
-12.531000 0.000000
-12.513500 0.000000
-12.496000 0.000000
-12.478500 0.000000
-12.461000 0.000000
-12.443600 0.000000
-12.426100 0.000000
-12.408600 0.000000
-12.391100 0.000000
-12.373600 0.000000
-12.356100 0.000000
-12.338600 0.000000
-12.321200 0.000000
-12.303700 0.000000
-12.286200 0.000000
-12.268700 0.000000
-12.251200 0.000000
-12.233700 0.000000
-12.216200 0.000000
-12.198800 0.000000
-12.181300 0.000000
-12.163800 0.000000
-12.146300 0.000000
-12.128800 0.000000
-12.111300 0.000000
-12.093800 0.000000
-12.076400 0.000000
-12.058900 0.000000
-12.041400 0.000000
-12.023900 0.000000
-12.006400 0.000000
-11.988900 0.000000
-11.971400 0.000000
-11.954000 0.000000
-11.936500 0.000000
-11.919000 0.000000
-11.901500 0.000000
-11.884000 0.000000
-11.866500 0.000000
-11.849000 0.000000
-11.831600 0.000000
-11.814100 0.000000
-11.796600 0.000000
-11.779100 0.000000
-11.761600 0.000000
-11.744100 0.000000
-11.726600 0.000000
-11.709100 0.000000
-11.691700 0.000000
-11.674200 0.000000
-11.656700 0.000000
-11.639200 0.000000
-11.621700 0.000000
-11.604200 0.000000
-11.586700 0.000000
-11.569300 0.000000
-11.551800 0.000000
-11.534300 0.000000
-11.516800 0.000000
-11.499300 0.000000
-11.481800 0.000000
-11.464300 0.000000
-11.446900 0.000000
-11.429400 0.000000
-11.411900 0.000000
-11.394400 0.000000
-11.376900 0.000000
-11.359400 0.000000
-11.341900 0.000000
-11.324500 0.000000
-11.307000 0.000000
-11.289500 0.000000
-11.272000 0.000000
-11.254500 0.000000
-11.237000 0.000000
-11.219500 0.000000
-11.202100 0.000000
-11.184600 0.000000
-11.167100 0.000000
-11.149600 0.000000
-11.132100 0.000000
-11.114600 0.000000
-11.097100 0.000000
-11.079700 0.000000
-11.062200 0.000000
-11.044700 0.000000
-11.027200 0.000000
-11.009700 0.000000
-10.992200 0.000000
-10.974700 0.000000
-10.957300 0.000000
-10.939800 0.000000
-10.922300 0.000000
-10.904800 0.000000
-10.887300 0.000000
-10.869800 0.000000
-10.852300 0.000000
-10.834900 0.000000
-10.817400 0.000000
-10.799900 0.000000
-10.782400 0.000000
-10.764900 0.000000
-10.747400 0.000000
-10.729900 0.000000
-10.712400 0.000000
-10.695000 0.000000
-10.677500 0.000000
-10.660000 0.000000
-10.642500 0.000000
-10.625000 0.000000
-10.607500 0.000000
-10.590000 0.000000
-10.572600 0.000000
-10.555100 0.000000
-10.537600 0.000000
-10.520100 0.000000
-10.502600 0.000000
-10.485100 0.000000
-10.467600 0.000000
-10.450200 0.000000
-10.432700 0.000000
-10.415200 0.000000
-10.397700 0.000000
-10.380200 0.000000
-10.362700 0.000000
-10.345200 0.000000
-10.327800 0.000000
-10.310300 0.000000
-10.292800 0.000000
-10.275300 0.000000
-10.257800 0.000000
-10.240300 0.000000
-10.222800 0.000000
-10.205400 0.000000
-10.187900 0.000000
-10.170400 0.000000
-10.152900 0.000000
-10.135400 0.000000
-10.117900 0.000000
-10.100400 0.000000
-10.083000 0.000000
-10.065500 0.000000
-10.048000 0.000000
-10.030500 0.000000
-10.013000 0.000000
-9.995500 0.000000
-9.978000 0.000000
-9.960600 0.000000
-9.943100 0.000000
-9.925600 0.000000
-9.908100 0.000000
-9.890600 0.000000
-9.873100 0.000000
-9.855600 0.000000
-9.838200 0.000000
-9.820700 0.000000
-9.803200 0.000000
-9.785700 0.000000
-9.768200 0.000000
-9.750700 0.000000
-9.733200 0.000000
-9.715700 0.000000
-9.698300 0.000000
-9.680800 0.000000
-9.663300 0.000000
-9.645800 0.000000
-9.628300 0.000000
-9.610800 0.000000
-9.593300 0.000000
-9.575900 0.000000
-9.558400 0.000000
-9.540900 0.000000
-9.523400 0.000000
-9.505900 0.000000
-9.488400 0.000000
-9.470900 0.000000
-9.453500 0.000000
-9.436000 0.000000
-9.418500 0.000000
-9.401000 0.000000
-9.383500 0.000000
-9.366000 0.000000
-9.348500 0.000000
-9.331100 0.000000
-9.313600 0.000000
-9.296100 0.000000
-9.278600 0.000000
-9.261100 0.000000
-9.243600 0.000000
-9.226100 0.000000
-9.208700 0.000000
-9.191200 0.000000
-9.173700 0.000000
-9.156200 0.000000
-9.138700 0.180300
-9.121200 0.557500
-9.103700 0.796200
-9.086300 0.897200
-9.068800 1.036900
-9.051300 1.184700
-9.033800 1.337200
-9.016300 1.483000
-8.998800 1.617200
-8.981300 1.727800
-8.963900 1.849400
-8.946400 1.984900
-8.928900 2.130300
-8.911400 2.297000
-8.893900 2.470700
-8.876400 2.659400
-8.858900 2.939600
-8.841500 3.353100
-8.824000 3.510000
-8.806500 3.461400
-8.789000 3.514800
-8.771500 3.583900
-8.754000 3.631700
-8.736500 3.698500
-8.719000 3.767500
-8.701600 3.834000
-8.684100 3.927600
-8.666600 4.021800
-8.649100 4.348600
-8.631600 4.531500
-8.614100 4.496800
-8.596600 4.454100
-8.579200 4.447900
-8.561700 4.462300
-8.544200 4.453900
-8.526700 4.429100
-8.509200 4.386800
-8.491700 4.286200
-8.474200 3.956900
-8.456800 3.659400
-8.439300 3.569600
-8.421800 3.480900
-8.404300 3.396700
-8.386800 3.316300
-8.369300 3.241200
-8.351800 3.173700
-8.334400 3.193000
-8.316900 3.206100
-8.299400 3.226300
-8.281900 3.252300
-8.264400 3.284000
-8.246900 3.321600
-8.229400 3.353300
-8.212000 3.298600
-8.194500 3.214000
-8.177000 3.150900
-8.159500 3.132200
-8.142000 3.108200
-8.124500 3.033900
-8.107000 2.936100
-8.089600 2.805300
-8.072100 2.658000
-8.054600 2.446900
-8.037100 2.251100
-8.019600 2.134300
-8.002100 2.030300
-7.984600 1.930900
-7.967200 1.836300
-7.949700 1.745200
-7.932200 1.655500
-7.914700 1.581100
-7.897200 1.521800
-7.879700 1.464600
-7.862200 1.410200
-7.844800 1.357600
-7.827300 1.308400
-7.809800 1.263500
-7.792300 1.212500
-7.774800 1.155000
-7.757300 1.103000
-7.739800 1.061300
-7.722300 1.016500
-7.704900 0.967300
-7.687400 0.914000
-7.669900 0.857500
-7.652400 0.791900
-7.634900 0.724800
-7.617400 0.656200
-7.599900 0.557200
-7.582500 0.466100
-7.565000 0.391100
-7.547500 0.325900
-7.530000 0.266900
-7.512500 0.213800
-7.495000 0.294900
-7.477500 0.400700
-7.460100 0.471500
-7.442600 0.538300
-7.425100 0.599300
-7.407600 0.708700
-7.390100 0.825400
-7.372600 0.953700
-7.355100 1.111700
-7.337700 1.320500
-7.320200 1.472900
-7.302700 1.586300
-7.285200 1.694000
-7.267700 1.798200
-7.250200 1.915100
-7.232700 2.047700
-7.215300 2.200600
-7.197800 2.411000
-7.180300 2.564200
-7.162800 2.718600
-7.145300 2.855500
-7.127800 2.954000
-7.110300 3.047800
-7.092900 3.135500
-7.075400 3.196800
-7.057900 3.256900
-7.040400 3.305500
-7.022900 3.348300
-7.005400 3.427800
-6.987900 3.539000
-6.970500 3.658400
-6.953000 3.778900
-6.935500 3.887400
-6.918000 3.921300
-6.900500 4.203800
-6.883000 4.267400
-6.865500 4.071100
-6.848100 3.988100
-6.830600 3.955600
-6.813100 3.866900
-6.795600 3.768800
-6.778100 3.732400
-6.760600 3.010500
-6.743100 2.948300
-6.725600 2.887900
-6.708200 2.826100
-6.690700 2.762600
-6.673200 2.694400
-6.655700 2.627000
-6.638200 2.564600
-6.620700 2.503400
-6.603200 2.440200
-6.585800 2.378500
-6.568300 2.318800
-6.550800 2.263100
-6.533300 2.216100
-6.515800 2.172200
-6.498300 2.127000
-6.480800 2.083700
-6.463400 2.045200
-6.445900 2.002900
-6.428400 1.963100
-6.410900 1.928900
-6.393400 1.896700
-6.375900 1.866300
-6.358400 1.836500
-6.341000 1.805200
-6.323500 1.780800
-6.306000 1.763900
-6.288500 1.747400
-6.271000 1.731500
-6.253500 1.715600
-6.236000 1.696600
-6.218600 1.675800
-6.201100 1.653700
-6.183600 1.630500
-6.166100 1.606900
-6.148600 1.586000
-6.131100 1.566400
-6.113600 1.545000
-6.096200 1.523600
-6.078700 1.571100
-6.061200 1.693100
-6.043700 1.843500
-6.026200 2.009500
-6.008700 2.193600
-5.991200 2.473100
-5.973800 2.757500
-5.956300 2.955500
-5.938800 3.096400
-5.921300 3.131600
-5.903800 3.135600
-5.886300 3.099400
-5.868800 3.001200
-5.851400 2.910900
-5.833900 2.856300
-5.816400 2.815300
-5.798900 2.794600
-5.781400 2.778200
-5.763900 2.760400
-5.746400 2.747800
-5.728900 2.746000
-5.711500 2.759100
-5.694000 2.805200
-5.676500 2.870700
-5.659000 2.940200
-5.641500 3.006200
-5.624000 3.033100
-5.606500 2.923900
-5.589100 2.722800
-5.571600 2.429100
-5.554100 2.017100
-5.536600 1.690000
-5.519100 1.540800
-5.501600 1.537000
-5.484100 1.556700
-5.466700 1.586700
-5.449200 1.616700
-5.431700 1.642200
-5.414200 1.666500
-5.396700 1.690200
-5.379200 1.713200
-5.361700 1.735500
-5.344300 1.757800
-5.326800 1.781100
-5.309300 1.816200
-5.291800 1.860200
-5.274300 1.929100
-5.256800 2.025600
-5.239300 2.132300
-5.221900 2.238600
-5.204400 2.353900
-5.186900 2.472000
-5.169400 2.615900
-5.151900 2.805600
-5.134400 3.028800
-5.116900 3.256900
-5.099500 3.614200
-5.082000 3.807300
-5.064500 3.850400
-5.047000 3.749700
-5.029500 3.523600
-5.012000 3.372600
-4.994500 3.318400
-4.977100 3.272600
-4.959600 3.224700
-4.942100 3.180300
-4.924600 3.135300
-4.907100 3.079600
-4.889600 3.003200
-4.872100 2.902500
-4.854700 2.776200
-4.837200 2.659500
-4.819700 2.593200
-4.802200 2.592100
-4.784700 2.521500
-4.767200 2.445400
-4.749700 2.391300
-4.732200 2.353700
-4.714800 2.323000
-4.697300 2.310400
-4.679800 2.303200
-4.662300 2.283100
-4.644800 2.263800
-4.627300 2.250500
-4.609800 2.235000
-4.592400 2.213900
-4.574900 2.178500
-4.557400 2.106900
-4.539900 2.092700
-4.522400 2.098900
-4.504900 2.102000
-4.487400 2.042400
-4.470000 1.970500
-4.452500 1.910500
-4.435000 1.902200
-4.417500 1.900500
-4.400000 1.903300
-4.382500 1.955700
-4.365000 1.986600
-4.347600 1.992700
-4.330100 2.009300
-4.312600 2.047400
-4.295100 2.091300
-4.277600 2.028600
-4.260100 2.017600
-4.242600 2.044000
-4.225200 2.095500
-4.207700 1.995900
-4.190200 1.976900
-4.172700 1.962000
-4.155200 1.966100
-4.137700 1.979900
-4.120200 2.002300
-4.102800 2.029900
-4.085300 2.057500
-4.067800 2.091000
-4.050300 2.145300
-4.032800 2.224800
-4.015300 2.272100
-3.997800 2.298600
-3.980400 2.328700
-3.962900 2.350300
-3.945400 2.346900
-3.927900 2.323100
-3.910400 2.308500
-3.892900 2.297500
-3.875400 2.287900
-3.858000 2.266700
-3.840500 2.247100
-3.823000 2.237100
-3.805500 2.227300
-3.788000 2.215400
-3.770500 2.198500
-3.753000 2.186100
-3.735500 2.191500
-3.718100 2.220000
-3.700600 2.247400
-3.683100 2.277800
-3.665600 2.312200
-3.648100 2.351400
-3.630600 2.383800
-3.613100 2.415900
-3.595700 2.449600
-3.578200 2.483500
-3.560700 2.518000
-3.543200 2.552800
-3.525700 2.593000
-3.508200 2.636700
-3.490700 2.683000
-3.473300 2.732700
-3.455800 2.786500
-3.438300 2.843200
-3.420800 2.920300
-3.403300 3.025700
-3.385800 3.151400
-3.368300 3.301400
-3.350900 3.496000
-3.333400 3.648200
-3.315900 3.746300
-3.298400 3.820400
-3.280900 3.836000
-3.263400 3.886900
-3.245900 3.919600
-3.228500 3.937700
-3.211000 3.916700
-3.193500 3.794600
-3.176000 3.644900
-3.158500 3.508400
-3.141000 3.399800
-3.123500 3.289500
-3.106100 3.206300
-3.088600 3.142500
-3.071100 3.099100
-3.053600 3.033600
-3.036100 2.962300
-3.018600 2.898700
-3.001100 2.835000
-2.983700 2.760500
-2.966200 2.677300
-2.948700 2.548300
-2.931200 2.462500
-2.913700 2.386300
-2.896200 2.304900
-2.878700 2.211200
-2.861300 2.124500
-2.843800 2.053700
-2.826300 1.977600
-2.808800 1.917000
-2.791300 1.870400
-2.773800 1.827300
-2.756300 1.816200
-2.738800 1.867000
-2.721400 1.886200
-2.703900 1.833600
-2.686400 1.709500
-2.668900 1.667400
-2.651400 1.639100
-2.633900 1.659500
-2.616400 1.646000
-2.599000 1.640900
-2.581500 1.640100
-2.564000 1.658000
-2.546500 1.651500
-2.529000 1.633300
-2.511500 1.618300
-2.494000 1.601900
-2.476600 1.582500
-2.459100 1.558800
-2.441600 1.525400
-2.424100 1.703200
-2.406600 1.756200
-2.389100 1.590500
-2.371600 1.654300
-2.354200 1.718700
-2.336700 1.791900
-2.319200 1.852300
-2.301700 1.869600
-2.284200 1.933800
-2.266700 2.042500
-2.249200 2.090800
-2.231800 2.125000
-2.214300 2.165300
-2.196800 2.217900
-2.179300 2.293700
-2.161800 2.410200
-2.144300 2.576400
-2.126800 2.726400
-2.109400 2.856600
-2.091900 2.994900
-2.074400 3.134800
-2.056900 3.174400
-2.039400 3.223300
-2.021900 3.194900
-2.004400 3.254200
-1.987000 3.300700
-1.969500 3.268100
-1.952000 3.220400
-1.934500 3.174400
-1.917000 3.123300
-1.899500 3.053600
-1.882000 2.989800
-1.864600 2.926000
-1.847100 2.893200
-1.829600 2.870900
-1.812100 2.848400
-1.794600 2.826200
-1.777100 2.804300
-1.759600 2.785000
-1.742100 2.767700
-1.724700 2.749000
-1.707200 2.725900
-1.689700 2.710200
-1.672200 2.696200
-1.654700 2.682600
-1.637200 2.671100
-1.619700 2.656700
-1.602300 2.640500
-1.584800 2.623400
-1.567300 2.605300
-1.549800 2.585700
-1.532300 2.565800
-1.514800 2.549100
-1.497300 2.536700
-1.479900 2.529500
-1.462400 2.525900
-1.444900 2.522500
-1.427400 2.515900
-1.409900 2.506900
-1.392400 2.497100
-1.374900 2.491400
-1.357500 2.497100
-1.340000 2.504700
-1.322500 2.511000
-1.305000 2.510100
-1.287500 2.489500
-1.270000 2.452900
-1.252500 2.417800
-1.235100 2.376500
-1.217600 2.325600
-1.200100 2.270400
-1.182600 2.214700
-1.165100 2.177100
-1.147600 2.290000
-1.130100 2.273100
-1.112700 2.105400
-1.095200 1.984300
-1.077700 1.915100
-1.060200 1.858500
-1.042700 1.816400
-1.025200 1.853700
-1.007700 1.944000
-0.990300 1.970000
-0.972800 1.800500
-0.955300 1.580500
-0.937800 1.358900
-0.920300 1.433100
-0.902800 1.288600
-0.885300 1.034600
-0.867900 0.902700
-0.850400 0.449600
-0.832900 0.393700
-0.815400 0.342600
-0.797900 0.360400
-0.780400 0.444600
-0.762900 0.541400
-0.745400 0.649400
-0.728000 0.768000
-0.710500 0.901900
-0.693000 1.007000
-0.675500 1.097700
-0.658000 1.187200
-0.640500 1.277800
-0.623000 1.374000
-0.605600 1.497900
-0.588100 1.653300
-0.570600 1.818900
-0.553100 1.980600
-0.535600 2.138900
-0.518100 2.276100
-0.500600 2.360500
-0.483200 2.381400
-0.465700 2.413100
-0.448200 2.498800
-0.430700 2.596500
-0.413200 2.705200
-0.395700 2.817900
-0.378200 2.910300
-0.360800 2.988700
-0.343300 3.058600
-0.325800 3.091400
-0.308300 3.114600
-0.290800 3.142600
-0.273300 3.175100
-0.255800 3.152700
-0.238400 3.149500
-0.220900 3.140900
-0.203400 3.119300
-0.185900 3.078300
-0.168400 3.032700
-0.150900 3.004000
-0.133400 2.997100
-0.116000 2.999300
-0.098500 3.011100
-0.081000 3.035600
-0.063500 3.073000
-0.046000 3.124400
-0.028500 3.186900
-0.011000 3.263400
0.006400 3.348300
0.023900 3.451400
0.041400 3.560200
0.058900 3.691800
0.076400 3.831100
0.093900 4.018100
0.111400 4.090900
0.128800 4.136900
0.146300 4.174500
0.163800 4.273500
0.181300 4.314800
0.198800 4.365100
0.216300 4.459300
0.233800 4.634100
0.251300 4.935800
0.268700 5.218400
0.286200 5.526200
0.303700 5.574500
0.321200 5.455300
0.338700 5.258800
0.356200 5.053100
0.373700 5.083500
0.391100 5.179500
0.408600 5.302500
0.426100 5.428600
0.443600 5.615400
0.461100 6.057300
0.478600 6.475300
0.496100 6.868100
0.513500 7.049700
0.531000 7.001500
0.548500 7.003700
0.566000 7.028600
0.583500 7.005700
0.601000 7.044400
0.618500 7.564700
0.635900 7.474500
0.653400 7.462300
0.670900 7.598800
0.688400 7.908900
0.705900 7.990100
0.723400 8.021100
0.740900 8.507500
0.758300 7.720400
0.775800 7.013300
0.793300 6.251200
0.810800 5.748800
0.828300 5.455200
0.845800 5.343200
0.863300 4.928000
0.880700 4.740100
0.898200 4.675400
0.915700 4.496900
0.933200 4.426200
0.950700 4.408800
0.968200 4.403500
0.985700 4.483200
1.003100 4.465100
1.020600 4.418500
1.038100 4.146200
1.055600 4.014400
1.073100 4.034000
1.090600 4.037900
1.108100 3.465500
1.125500 3.214100
1.143000 3.440200
1.160500 3.783100
1.178000 4.540300
1.195500 5.312400
1.213000 5.717400
1.230500 6.323900
1.248000 6.752500
1.265400 7.052400
1.282900 7.322700
1.300400 7.372700
1.317900 7.364400
1.335400 7.393400
1.352900 7.402500
1.370400 7.362900
1.387800 7.168700
1.405300 6.930800
1.422800 6.705200
1.440300 6.418200
1.457800 6.061700
1.475300 5.934700
1.492800 5.767600
1.510200 5.426200
1.527700 5.254200
1.545200 5.206100
1.562700 5.339900
1.580200 5.599000
1.597700 5.780700
1.615200 5.732300
1.632600 5.756400
1.650100 6.493500
1.667600 6.891600
1.685100 5.733100
1.702600 5.346700
1.720100 5.143200
1.737600 5.041400
1.755000 4.876600
1.772500 4.799700
1.790000 4.736600
1.807500 4.674300
1.825000 4.640800
1.842500 4.695500
1.860000 4.672500
1.877400 4.714600
1.894900 4.812100
1.912400 4.886100
1.929900 4.837200
1.947400 4.688300
1.964900 4.536900
1.982400 4.463200
1.999800 4.447300
2.017300 4.429500
2.034800 4.324900
2.052300 4.284600
2.069800 4.382200
2.087300 4.562200
2.104800 4.752200
2.122200 4.958000
2.139700 5.169000
2.157200 5.349400
2.174700 5.563600
2.192200 5.961300
2.209700 6.302400
2.227200 6.547900
2.244700 6.957200
2.262100 7.473100
2.279600 7.895700
2.297100 7.741200
2.314600 7.599900
2.332100 7.290500
2.349600 7.254800
2.367100 7.497200
2.384500 7.690300
2.402000 7.526500
2.419500 7.424200
2.437000 7.458200
2.454500 7.349700
2.472000 7.377500
2.489500 7.522700
2.506900 7.822500
2.524400 7.977800
2.541900 8.958300
2.559400 8.941600
2.576900 8.542600
2.594400 8.161700
2.611900 8.091900
2.629300 8.303300
2.646800 8.267900
2.664300 8.027000
2.681800 8.033900
2.699300 8.180800
2.716800 7.838600
2.734300 7.539700
2.751700 7.107500
2.769200 6.813400
2.786700 6.635000
2.804200 6.524400
2.821700 6.389600
2.839200 6.337200
2.856700 6.507500
2.874100 6.806100
2.891600 7.381600
2.909100 7.459500
2.926600 7.411500
2.944100 7.097600
2.961600 6.520600
2.979100 6.244700
2.996500 6.062400
3.014000 5.796000
3.031500 5.987100
3.049000 6.461400
3.066500 6.794400
3.084000 6.734600
3.101500 6.564400
3.118900 6.473000
3.136400 6.238400
3.153900 6.132400
3.171400 6.183100
3.188900 5.996500
3.206400 5.982800
3.223900 5.551800
3.241400 5.254700
3.258800 5.106100
3.276300 5.155400
3.293800 5.319600
3.311300 5.573700
3.328800 6.214100
3.346300 7.304000
3.363800 8.149000
3.381200 7.022600
3.398700 6.758400
3.416200 6.615600
3.433700 6.646600
3.451200 6.553000
3.468700 6.445500
3.486200 6.142300
3.503600 6.076600
3.521100 6.547500
3.538600 6.567400
3.556100 6.688400
3.573600 6.853700
3.591100 6.904700
3.608600 6.938700
3.626000 6.926600
3.643500 6.951200
3.661000 7.075200
3.678500 7.311200
3.696000 7.760900
3.713500 8.166700
3.731000 8.210500
3.748400 7.537300
3.765900 7.715500
3.783400 7.629400
3.800900 7.713700
3.818400 8.352100
3.835900 9.032100
3.853400 9.450700
3.870800 9.565500
3.888300 9.666200
3.905800 9.774900
3.923300 9.561600
3.940800 9.397000
3.958300 9.318600
3.975800 9.743000
3.993200 9.227900
4.010700 8.738200
4.028200 8.584000
4.045700 8.630600
4.063200 8.376000
4.080700 8.853800
4.098200 10.689500
4.115600 12.105700
4.133100 11.301200
4.150600 10.021000
4.168100 8.901200
4.185600 9.014700
4.203100 9.634400
4.220600 10.047900
4.238100 10.476300
4.255500 12.105200
4.273000 10.427600
4.290500 9.313500
4.308000 9.413700
4.325500 9.119800
4.343000 9.311500
4.360500 9.197500
4.377900 9.223600
4.395400 9.388500
4.412900 9.897500
4.430400 9.544100
4.447900 9.091700
4.465400 8.466500
4.482900 7.680900
4.500300 5.922100
4.517800 5.293400
4.535300 5.070300
4.552800 4.926000
4.570300 4.176700
4.587800 3.755600
4.605300 3.359800
4.622700 3.110300
4.640200 3.049700
4.657700 3.407900
4.675200 3.881100
4.692700 4.175000
4.710200 4.518200
4.727700 4.621900
4.745100 4.383900
4.762600 4.629900
4.780100 5.086700
4.797600 5.736000
4.815100 6.717800
4.832600 7.714600
4.850100 8.100100
4.867500 8.595300
4.885000 9.002200
4.902500 9.234000
4.920000 9.740100
4.937500 10.072600
4.955000 10.585400
4.972500 9.947500
4.989900 8.536400
5.007400 7.392900
5.024900 5.758300
5.042400 4.775100
5.059900 4.512100
5.077400 4.304600
5.094900 4.204800
5.112300 4.106800
5.129800 3.943600
5.147300 3.796300
5.164800 3.606700
5.182300 3.356800
5.199800 3.070000
5.217300 2.786500
5.234800 2.521300
5.252200 2.312300
5.269700 2.167200
5.287200 2.146900
5.304700 1.757900
5.322200 1.189000
5.339700 0.800500
5.357200 0.681700
5.374600 0.583500
5.392100 0.508400
5.409600 0.445100
5.427100 0.380700
5.444600 0.290300
5.462100 0.189800
5.479600 0.108600
5.497000 0.045500
5.514500 0.008900
5.532000 0.000000
5.549500 0.000000
5.567000 0.000000
5.584500 0.000000
5.602000 0.000000
5.619400 0.000000
5.636900 0.000000
5.654400 0.000000
5.671900 0.000000
5.689400 0.019900
5.706900 0.126500
5.724400 0.150200
5.741800 0.175400
5.759300 0.202000
5.776800 0.230200
5.794300 0.257300
5.811800 0.278000
5.829300 0.300700
5.846800 0.322100
5.864200 0.344400
5.881700 0.370300
5.899200 0.389400
5.916700 0.399800
5.934200 0.404100
5.951700 0.419600
5.969200 0.439800
5.986600 0.463900
6.004100 0.491900
6.021600 0.523700
6.039100 0.559500
6.056600 0.598900
6.074100 0.644100
6.091600 0.702600
6.109000 0.765600
6.126500 0.832600
6.144000 0.911500
6.161500 1.002600
6.179000 1.100900
6.196500 1.204300
6.214000 1.314000
6.231500 1.433500
6.248900 1.612200
6.266400 2.032700
6.283900 2.022100
6.301400 1.826900
6.318900 1.660600
6.336400 1.582700
6.353900 1.559800
6.371300 1.554200
6.388800 1.580400
6.406300 1.627100
6.423800 1.692600
6.441300 1.760700
6.458800 1.848800
6.476300 1.963400
6.493700 2.096600
6.511200 2.247300
6.528700 2.434700
6.546200 2.690700
6.563700 2.697400
6.581200 2.720400
6.598700 2.759800
6.616100 2.782400
6.633600 2.822400
6.651100 2.785900
6.668600 2.717900
6.686100 2.843800
6.703600 2.898500
6.721100 3.001000
6.738500 3.120400
6.756000 3.167300
6.773500 3.216100
6.791000 3.279600
6.808500 3.381300
6.826000 3.514200
6.843500 3.711600
6.860900 3.981400
6.878400 4.303800
6.895900 4.512100
6.913400 4.581700
6.930900 4.592800
6.948400 4.599100
6.965900 4.774400
6.983300 4.832700
7.000800 4.755300
7.018300 4.941100
7.035800 5.112200
7.053300 5.199300
7.070800 5.250000
7.088300 5.266700
7.105700 5.202300
7.123200 5.164500
7.140700 5.251800
7.158200 5.338900
7.175700 5.412100
7.193200 5.455000
7.210700 5.368900
7.228200 5.311000
7.245600 5.261600
7.263100 5.283000
7.280600 5.344800
7.298100 5.745600
7.315600 5.947500
7.333100 6.015600
7.350600 6.121500
7.368000 6.276500
7.385500 6.751100
7.403000 6.770400
7.420500 6.729200
7.438000 6.825900
7.455500 6.963700
7.473000 7.169900
7.490400 7.201800
7.507900 6.978700
7.525400 6.623300
7.542900 6.184500
7.560400 5.856600
7.577900 5.641600
7.595400 5.524300
7.612800 5.465400
7.630300 5.404400
7.647800 5.091800
7.665300 4.854200
7.682800 4.833500
7.700300 4.987300
7.717800 5.267500
7.735200 5.704900
7.752700 6.479200
7.770200 6.692300
7.787700 6.859800
7.805200 7.153100
7.822700 7.627800
7.840200 7.787000
7.857600 7.893600
7.875100 8.013900
7.892600 8.320900
7.910100 8.685200
7.927600 9.051500
7.945100 9.351300
7.962600 9.466700
7.980000 9.734400
7.997500 9.373100
8.015000 8.899700
8.032500 8.138000
8.050000 7.852100
8.067500 7.338900
8.085000 7.085500
8.102400 7.036700
8.119900 7.072600
8.137400 7.262000
8.154900 7.500200
8.172400 8.216500
8.189900 8.667700
8.207400 8.923400
8.224900 9.370600
8.242300 9.434800
8.259800 9.283200
8.277300 9.041600
8.294800 8.738100
8.312300 8.532100
8.329800 8.692200
8.347300 8.793500
8.364700 9.180000
8.382200 9.523600
8.399700 9.823900
8.417200 10.056300
8.434700 9.631600
8.452200 9.421900
8.469700 8.721700
8.487100 8.658600
8.504600 8.627700
8.522100 8.748700
8.539600 8.661300
8.557100 8.839400
8.574600 9.045000
8.592100 9.342800
8.609500 9.725900
8.627000 9.553800
8.644500 9.004400
8.662000 9.235400
8.679500 9.042500
8.697000 8.609200
8.714500 8.861000
8.731900 9.270900
8.749400 9.383800
8.766900 9.525200
8.784400 10.427900
8.801900 10.014100
8.819400 9.644700
8.836900 9.800700
8.854300 9.936900
8.871800 10.210100
8.889300 9.699400
8.906800 8.902200
8.924300 8.214300
8.941800 8.089700
8.959300 8.327400
8.976700 7.989300
8.994200 7.931500
9.011700 8.476000
9.029200 8.678600
9.046700 8.411600
9.064200 8.320400
9.081700 8.543800
9.099100 9.189000
9.116600 9.456800
9.134100 9.494200
9.151600 9.582900
9.169100 9.472800
9.186600 9.625500
9.204100 9.246200
9.221600 9.207600
9.239000 9.157000
9.256500 9.350800
9.274000 9.592800
9.291500 9.938700
9.309000 10.043400
9.326500 9.892700
9.344000 10.145000
9.361400 10.335100
9.378900 10.377400
9.396400 10.773800
9.413900 11.532600
9.431400 12.296200
9.448900 12.630100
9.466400 12.559500
9.483800 12.286300
9.501300 12.261700
9.518800 12.261600
9.536300 11.932700
9.553800 11.614900
9.571300 11.192600
9.588800 10.632000
9.606200 10.481700
9.623700 10.052900
9.641200 10.415100
9.658700 10.393600
9.676200 10.235300
9.693700 10.226400
9.711200 10.256800
9.728600 10.404400
9.746100 9.804700
9.763600 9.874600
9.781100 10.551500
9.798600 11.258300
9.816100 12.021500
9.833600 10.918400
9.851000 10.249400
9.868500 10.280600
9.886000 10.221700
9.903500 10.075200
9.921000 10.152800
9.938500 10.022800
9.956000 9.933300
9.973400 10.165100
9.990900 10.718500
10.008400 11.070100
10.025900 11.022200
10.043400 10.918900
10.060900 10.843900
10.078400 10.529300
10.095800 10.729200
10.113300 10.319900
10.130800 9.663900
10.148300 8.880600
10.165800 8.312900
10.183300 8.089300
10.200800 8.485400
10.218300 9.272000
10.235700 9.768300
10.253200 9.345300
10.270700 8.393700
10.288200 8.001700
10.305700 7.802900
10.323200 8.058000
10.340700 8.816900
10.358100 10.038300
10.375600 9.838400
10.393100 9.544700
10.410600 9.265800
10.428100 9.401100
10.445600 9.533900
10.463100 9.593400
10.480500 9.363100
10.498000 9.002400
10.515500 8.765300
10.533000 8.617200
10.550500 8.556600
10.568000 8.673000
10.585500 8.629400
10.602900 8.613500
10.620400 8.697200
10.637900 9.025000
10.655400 9.389500
10.672900 9.499000
10.690400 9.963500
10.707900 10.334800
10.725300 9.768200
10.742800 9.162900
10.760300 8.766700
10.777800 8.944300
10.795300 9.271400
10.812800 9.089300
10.830300 8.829300
10.847700 8.557400
10.865200 8.705200
10.882700 8.978800
10.900200 9.281300
10.917700 9.046400
10.935200 8.798400
10.952700 8.467400
10.970100 8.313500
10.987600 8.687600
11.005100 8.815300
11.022600 8.942800
11.040100 9.270800
11.057600 9.595500
11.075100 9.938700
11.092500 10.346000
11.110000 10.647200
11.127500 10.892100
11.145000 10.567000
11.162500 9.817400
11.180000 9.575500
11.197500 9.290900
11.215000 8.427200
11.232400 8.236300
11.249900 8.375800
11.267400 8.496500
11.284900 8.691100
11.302400 8.770100
11.319900 8.850000
11.337400 8.374500
11.354800 7.687200
11.372300 7.439000
11.389800 6.940100
11.407300 7.090900
11.424800 7.446300
11.442300 8.114100
11.459800 8.134900
11.477200 7.943600
11.494700 7.539600
11.512200 7.438700
11.529700 7.555400
11.547200 8.028000
11.564700 8.785400
11.582200 8.896100
11.599600 7.926500
11.617100 7.174700
11.634600 6.727300
11.652100 6.512900
11.669600 6.164900
11.687100 6.088000
11.704600 6.075100
11.722000 5.941500
11.739500 5.617400
11.757000 5.116200
11.774500 4.753000
11.792000 5.168300
11.809500 4.762200
11.827000 3.995700
11.844400 2.985700
11.861900 2.345600
11.879400 1.901700
11.896900 1.601100
11.914400 1.348900
11.931900 1.109300
11.949400 0.857900
11.966800 0.595600
11.984300 0.408700
12.001800 0.263300
12.019300 0.119300
12.036800 0.025300
12.054300 0.000200
12.071800 0.000000
12.089200 0.000000
12.106700 0.000000
12.124200 0.000000
12.141700 0.000000
12.159200 0.000000
12.176700 0.000000
12.194200 0.000000
12.211700 0.000000
12.229100 0.000000
12.246600 0.000000
12.264100 0.000000
12.281600 0.000000
12.299100 0.000000
12.316600 0.000000
12.334100 0.000000
12.351500 0.000000
12.369000 0.000000
12.386500 0.000000
12.404000 0.000000
12.421500 0.000000
12.439000 0.000000
12.456500 0.000000
12.473900 0.000000
12.491400 0.000000
12.508900 0.000000
12.526400 0.000000
12.543900 0.000000
12.561400 0.000000
12.578900 0.000000
12.596300 0.000000
12.613800 0.000000
12.631300 0.000000
12.648800 0.000000
12.666300 0.000000
12.683800 0.000000
12.701300 0.000000
12.718700 0.000000
12.736200 0.000000
12.753700 0.000000
12.771200 0.000000
12.788700 0.000000
12.806200 0.000000
12.823700 0.000000
12.841100 0.000000
12.858600 0.000000
12.876100 0.000000
12.893600 0.000000
12.911100 0.000000
12.928600 0.000000
12.946100 0.000000
12.963500 0.000000
12.981000 0.000000
12.998500 0.000000
13.016000 0.000000
13.033500 0.000000
13.051000 0.000000
13.068500 0.000000
13.085900 0.000000
13.103400 0.000000
13.120900 0.000000
13.138400 0.000000
13.155900 0.000000
13.173400 0.000000
13.190900 0.000000
13.208400 0.000000
13.225800 0.000000
13.243300 0.000000
13.260800 0.000000
13.278300 0.000000
13.295800 0.000000
13.313300 0.000000
13.330800 0.000000
13.348200 0.000000
13.365700 0.000000
13.383200 0.000000
13.400700 0.000000
13.418200 0.000000
13.435700 0.000000
13.453200 0.000000
13.470600 0.000000
13.488100 0.000000
13.505600 0.000000
13.523100 0.000000
13.540600 0.000000
13.558100 0.000000
13.575600 0.000000
13.593000 0.000000
13.610500 0.000000
13.628000 0.000000
13.645500 0.000000
e
