set title 'mp-974603 - Density of States'
set xlabel 'Energy (eV)'
set ylabel 'DOS (states/eV)'
set grid
set xrange [-10:10]
set yrange [0:28.114]
set xzeroaxis lt -1
set terminal png size 800,600
set output 'mp-974603_dos_gnuplot.png'
plot '-' using 1:2 with lines title 'DOS'
-25.588100 0.000000
-25.559100 0.000000
-25.530200 0.000000
-25.501200 0.000000
-25.472200 0.000000
-25.443300 0.000000
-25.414300 0.000000
-25.385300 0.000000
-25.356400 0.000000
-25.327400 0.000000
-25.298500 0.000000
-25.269500 0.000000
-25.240500 0.000000
-25.211600 0.000000
-25.182600 0.000000
-25.153600 0.000000
-25.124700 0.000000
-25.095700 0.000000
-25.066700 0.000000
-25.037800 0.000000
-25.008800 0.000000
-24.979800 0.000000
-24.950900 0.000000
-24.921900 0.000000
-24.893000 0.000000
-24.864000 0.000000
-24.835000 0.000000
-24.806100 0.000000
-24.777100 0.000000
-24.748100 0.000000
-24.719200 0.000000
-24.690200 0.000000
-24.661200 0.000000
-24.632300 0.000000
-24.603300 0.000000
-24.574300 0.000000
-24.545400 0.000000
-24.516400 0.000000
-24.487400 0.000000
-24.458500 0.000000
-24.429500 0.000000
-24.400600 0.000000
-24.371600 0.000000
-24.342600 0.000000
-24.313700 0.000000
-24.284700 0.000000
-24.255700 0.000000
-24.226800 0.000000
-24.197800 0.000000
-24.168800 0.000000
-24.139900 0.000000
-24.110900 0.000000
-24.081900 0.000000
-24.053000 0.000000
-24.024000 0.000000
-23.995100 0.000000
-23.966100 0.000000
-23.937100 0.000000
-23.908200 0.000000
-23.879200 0.000000
-23.850200 0.000000
-23.821300 0.000000
-23.792300 0.000000
-23.763300 0.000000
-23.734400 0.000000
-23.705400 0.000000
-23.676400 0.000000
-23.647500 0.000000
-23.618500 0.000000
-23.589600 0.000000
-23.560600 0.000000
-23.531600 0.000000
-23.502700 0.000000
-23.473700 0.000000
-23.444700 0.000000
-23.415800 0.000000
-23.386800 0.000000
-23.357800 0.000000
-23.328900 0.000000
-23.299900 0.000000
-23.270900 0.000000
-23.242000 0.000000
-23.213000 0.000000
-23.184100 0.000000
-23.155100 0.000000
-23.126100 0.000000
-23.097200 0.000000
-23.068200 0.000000
-23.039200 0.000000
-23.010300 0.000000
-22.981300 0.000000
-22.952300 0.103600
-22.923400 3.343400
-22.894400 5.417400
-22.865400 8.201400
-22.836500 17.294600
-22.807500 17.713700
-22.778600 28.554500
-22.749600 29.074800
-22.720600 28.261900
-22.691700 22.099800
-22.662700 88.230300
-22.633700 26.282300
-22.604800 0.000000
-22.575800 0.000000
-22.546800 0.000000
-22.517900 0.000000
-22.488900 0.000000
-22.459900 0.000000
-22.431000 0.000000
-22.402000 0.000000
-22.373100 0.000000
-22.344100 0.000000
-22.315100 0.000000
-22.286200 0.000000
-22.257200 0.000000
-22.228200 0.000000
-22.199300 0.000000
-22.170300 0.000000
-22.141300 0.000000
-22.112400 0.000000
-22.083400 0.000000
-22.054400 0.000000
-22.025500 0.000000
-21.996500 0.000000
-21.967600 0.000000
-21.938600 0.000000
-21.909600 0.000000
-21.880700 0.000000
-21.851700 0.000000
-21.822700 0.000000
-21.793800 0.000000
-21.764800 0.000000
-21.735800 0.000000
-21.706900 0.000000
-21.677900 0.000000
-21.648900 0.000000
-21.620000 0.000000
-21.591000 0.000000
-21.562100 0.000000
-21.533100 0.000000
-21.504100 0.000000
-21.475200 0.000000
-21.446200 0.000000
-21.417200 0.000000
-21.388300 0.000000
-21.359300 0.000000
-21.330300 0.000000
-21.301400 0.000000
-21.272400 0.000000
-21.243400 0.000000
-21.214500 0.000000
-21.185500 0.000000
-21.156600 0.000000
-21.127600 0.000000
-21.098600 0.000000
-21.069700 0.000000
-21.040700 0.000000
-21.011700 0.000000
-20.982800 0.000000
-20.953800 0.000000
-20.924800 0.000000
-20.895900 0.000000
-20.866900 0.000000
-20.837900 0.000000
-20.809000 0.000000
-20.780000 0.000000
-20.751100 0.000000
-20.722100 0.000000
-20.693100 0.000000
-20.664200 0.000000
-20.635200 0.000000
-20.606200 0.000000
-20.577300 0.000000
-20.548300 0.000000
-20.519300 0.000000
-20.490400 0.000000
-20.461400 0.000000
-20.432400 0.000000
-20.403500 0.000000
-20.374500 0.000000
-20.345600 0.000000
-20.316600 0.000000
-20.287600 0.000000
-20.258700 0.000000
-20.229700 0.000000
-20.200700 0.000000
-20.171800 0.000000
-20.142800 0.000000
-20.113800 0.000000
-20.084900 0.000000
-20.055900 0.000000
-20.026900 0.000000
-19.998000 0.000000
-19.969000 0.000000
-19.940100 0.000000
-19.911100 0.000000
-19.882100 0.000000
-19.853200 0.000000
-19.824200 0.000000
-19.795200 0.000000
-19.766300 0.000000
-19.737300 0.000000
-19.708300 0.000000
-19.679400 0.000000
-19.650400 0.000000
-19.621400 0.000000
-19.592500 0.000000
-19.563500 0.000000
-19.534500 0.000000
-19.505600 0.000000
-19.476600 0.000000
-19.447700 0.000000
-19.418700 0.000000
-19.389700 0.000000
-19.360800 0.000000
-19.331800 0.000000
-19.302800 0.000000
-19.273900 0.000000
-19.244900 0.000000
-19.215900 0.000000
-19.187000 0.000000
-19.158000 0.000000
-19.129000 0.000000
-19.100100 0.000000
-19.071100 0.000000
-19.042200 0.000000
-19.013200 0.000000
-18.984200 0.000000
-18.955300 0.000000
-18.926300 0.000000
-18.897300 0.000000
-18.868400 0.000000
-18.839400 0.000000
-18.810400 0.000000
-18.781500 0.000000
-18.752500 0.000000
-18.723500 0.000000
-18.694600 0.000000
-18.665600 0.000000
-18.636700 0.000000
-18.607700 0.000000
-18.578700 0.000000
-18.549800 0.000000
-18.520800 0.000000
-18.491800 0.000000
-18.462900 0.000000
-18.433900 0.000000
-18.404900 0.000000
-18.376000 0.000000
-18.347000 0.000000
-18.318000 0.000000
-18.289100 0.000000
-18.260100 0.000000
-18.231200 0.000000
-18.202200 0.000000
-18.173200 0.000000
-18.144300 0.000000
-18.115300 0.000000
-18.086300 0.000000
-18.057400 0.000000
-18.028400 0.000000
-17.999400 0.000000
-17.970500 0.000000
-17.941500 0.000000
-17.912500 0.000000
-17.883600 0.000000
-17.854600 0.000000
-17.825700 0.000000
-17.796700 0.000000
-17.767700 0.000000
-17.738800 0.000000
-17.709800 0.000000
-17.680800 0.000000
-17.651900 0.000000
-17.622900 0.000000
-17.593900 0.000000
-17.565000 0.000000
-17.536000 0.000000
-17.507000 0.000000
-17.478100 0.000000
-17.449100 0.000000
-17.420200 0.000000
-17.391200 0.000000
-17.362200 0.000000
-17.333300 0.000000
-17.304300 0.000000
-17.275300 0.000000
-17.246400 0.000000
-17.217400 0.000000
-17.188400 0.000000
-17.159500 0.000000
-17.130500 0.000000
-17.101500 0.000000
-17.072600 0.000000
-17.043600 0.000000
-17.014700 0.000000
-16.985700 0.000000
-16.956700 0.000000
-16.927800 0.000000
-16.898800 0.000000
-16.869800 0.000000
-16.840900 0.000000
-16.811900 0.000000
-16.782900 0.000000
-16.754000 0.000000
-16.725000 0.000000
-16.696000 0.000000
-16.667100 0.000000
-16.638100 0.000000
-16.609200 0.000000
-16.580200 0.000000
-16.551200 0.000000
-16.522300 0.000000
-16.493300 0.000000
-16.464300 0.000000
-16.435400 0.000000
-16.406400 0.000000
-16.377400 0.000000
-16.348500 0.000000
-16.319500 0.000000
-16.290500 0.000000
-16.261600 0.000000
-16.232600 0.000000
-16.203700 0.000000
-16.174700 0.000000
-16.145700 0.000000
-16.116800 0.000000
-16.087800 0.000000
-16.058800 0.000000
-16.029900 0.000000
-16.000900 0.000000
-15.971900 0.000000
-15.943000 0.000000
-15.914000 0.000000
-15.885000 0.000000
-15.856100 0.000000
-15.827100 0.000000
-15.798200 0.000000
-15.769200 0.000000
-15.740200 0.000000
-15.711300 0.000000
-15.682300 0.000000
-15.653300 0.000000
-15.624400 0.000000
-15.595400 0.000000
-15.566400 0.000000
-15.537500 0.000000
-15.508500 0.000000
-15.479500 0.000000
-15.450600 0.000000
-15.421600 0.000000
-15.392700 0.000000
-15.363700 0.000000
-15.334700 0.000000
-15.305800 0.000000
-15.276800 0.000000
-15.247800 0.000000
-15.218900 0.000000
-15.189900 0.000000
-15.160900 0.000000
-15.132000 0.000000
-15.103000 0.000000
-15.074000 0.000000
-15.045100 0.000000
-15.016100 0.000000
-14.987200 0.000000
-14.958200 0.000000
-14.929200 0.000000
-14.900300 0.000000
-14.871300 0.000000
-14.842300 0.000000
-14.813400 0.000000
-14.784400 0.000000
-14.755400 0.000000
-14.726500 0.000000
-14.697500 0.000000
-14.668500 0.000000
-14.639600 0.000000
-14.610600 0.000000
-14.581700 0.000000
-14.552700 0.000000
-14.523700 0.000000
-14.494800 0.000000
-14.465800 0.000000
-14.436800 0.000000
-14.407900 0.000000
-14.378900 0.000000
-14.349900 0.000000
-14.321000 0.000000
-14.292000 0.000000
-14.263000 0.000000
-14.234100 0.000000
-14.205100 0.000000
-14.176100 0.000000
-14.147200 0.000000
-14.118200 0.000000
-14.089300 0.000000
-14.060300 0.000000
-14.031300 0.000000
-14.002400 0.000000
-13.973400 0.000000
-13.944400 0.000000
-13.915500 0.000000
-13.886500 0.000000
-13.857500 0.000000
-13.828600 0.000000
-13.799600 0.000000
-13.770600 0.000000
-13.741700 0.000000
-13.712700 0.000000
-13.683800 0.000000
-13.654800 0.000000
-13.625800 0.000000
-13.596900 0.000000
-13.567900 0.000000
-13.538900 0.000000
-13.510000 0.000000
-13.481000 0.000000
-13.452000 0.000000
-13.423100 0.000000
-13.394100 0.000000
-13.365100 0.000000
-13.336200 0.000000
-13.307200 0.000000
-13.278300 0.000000
-13.249300 0.000000
-13.220300 0.000000
-13.191400 0.000000
-13.162400 0.000000
-13.133400 0.000000
-13.104500 0.000000
-13.075500 0.000000
-13.046500 0.000000
-13.017600 0.000000
-12.988600 0.000000
-12.959600 0.000000
-12.930700 0.000000
-12.901700 0.000000
-12.872800 0.000000
-12.843800 0.000000
-12.814800 0.000000
-12.785900 0.000000
-12.756900 0.000000
-12.727900 0.000000
-12.699000 0.000000
-12.670000 0.000000
-12.641000 0.000000
-12.612100 0.000000
-12.583100 0.000000
-12.554100 0.000000
-12.525200 0.000000
-12.496200 0.000000
-12.467300 0.000000
-12.438300 0.000000
-12.409300 0.000000
-12.380400 0.000000
-12.351400 0.000000
-12.322400 0.000000
-12.293500 0.000000
-12.264500 0.000000
-12.235500 0.000000
-12.206600 0.000000
-12.177600 0.000000
-12.148600 0.000000
-12.119700 0.000000
-12.090700 0.000000
-12.061800 0.000000
-12.032800 0.000000
-12.003800 0.000000
-11.974900 0.000000
-11.945900 0.000000
-11.916900 0.000000
-11.888000 0.000000
-11.859000 0.000000
-11.830000 0.000000
-11.801100 0.000000
-11.772100 0.000000
-11.743100 0.000000
-11.714200 0.000000
-11.685200 0.000000
-11.656300 0.000000
-11.627300 0.000000
-11.598300 0.000000
-11.569400 0.000000
-11.540400 0.000000
-11.511400 0.000000
-11.482500 0.000000
-11.453500 0.000000
-11.424500 0.000000
-11.395600 0.000000
-11.366600 0.000000
-11.337600 0.000000
-11.308700 0.000000
-11.279700 0.000000
-11.250800 0.000000
-11.221800 0.000000
-11.192800 0.000000
-11.163900 0.000000
-11.134900 0.000000
-11.105900 0.000000
-11.077000 0.000000
-11.048000 0.000000
-11.019000 0.000000
-10.990100 0.000000
-10.961100 0.000000
-10.932100 0.000000
-10.903200 0.000000
-10.874200 0.000000
-10.845300 0.000000
-10.816300 0.000000
-10.787300 0.000000
-10.758400 0.000000
-10.729400 0.000000
-10.700400 0.000000
-10.671500 0.000000
-10.642500 0.000000
-10.613500 0.000000
-10.584600 0.000000
-10.555600 0.000000
-10.526600 0.000000
-10.497700 0.000000
-10.468700 0.000000
-10.439800 0.000000
-10.410800 0.000000
-10.381800 0.000000
-10.352900 0.000000
-10.323900 0.000000
-10.294900 0.000000
-10.266000 0.000000
-10.237000 0.000000
-10.208000 0.000000
-10.179100 0.000000
-10.150100 0.000000
-10.121100 0.000000
-10.092200 0.000000
-10.063200 0.000000
-10.034300 0.000000
-10.005300 0.000000
-9.976300 0.000000
-9.947400 0.000000
-9.918400 0.000000
-9.889400 0.000000
-9.860500 0.000000
-9.831500 0.000000
-9.802500 0.000000
-9.773600 0.000000
-9.744600 0.000000
-9.715600 0.000000
-9.686700 0.000000
-9.657700 0.000000
-9.628800 0.000000
-9.599800 0.000000
-9.570800 0.000000
-9.541900 0.000000
-9.512900 0.000000
-9.483900 0.000000
-9.455000 0.000000
-9.426000 0.000000
-9.397000 0.000000
-9.368100 0.000000
-9.339100 0.000000
-9.310100 0.000000
-9.281200 0.000000
-9.252200 0.000000
-9.223300 0.000000
-9.194300 0.000000
-9.165300 0.000000
-9.136400 0.000000
-9.107400 0.000000
-9.078400 0.000000
-9.049500 0.000000
-9.020500 0.000000
-8.991500 0.000000
-8.962600 0.000000
-8.933600 0.000000
-8.904600 0.000000
-8.875700 0.000000
-8.846700 0.000000
-8.817700 0.000000
-8.788800 0.000000
-8.759800 0.000000
-8.730900 0.000000
-8.701900 0.000000
-8.672900 0.000000
-8.644000 0.000000
-8.615000 0.000000
-8.586000 0.000000
-8.557100 0.000000
-8.528100 0.000000
-8.499100 0.000000
-8.470200 0.000000
-8.441200 0.000000
-8.412200 0.000000
-8.383300 0.000000
-8.354300 0.000000
-8.325400 0.000000
-8.296400 0.000000
-8.267400 0.000000
-8.238500 0.000000
-8.209500 0.000000
-8.180500 0.000000
-8.151600 0.000000
-8.122600 0.000000
-8.093600 0.000000
-8.064700 0.000000
-8.035700 0.000000
-8.006700 0.000000
-7.977800 0.000000
-7.948800 0.000000
-7.919900 0.000000
-7.890900 0.000000
-7.861900 0.000000
-7.833000 0.000000
-7.804000 0.000000
-7.775000 0.000000
-7.746100 0.000000
-7.717100 0.000000
-7.688100 0.000000
-7.659200 0.298300
-7.630200 1.373600
-7.601200 3.111300
-7.572300 3.131200
-7.543300 3.203400
-7.514400 3.463800
-7.485400 3.559700
-7.456400 3.705600
-7.427500 3.837600
-7.398500 4.001600
-7.369500 4.214400
-7.340600 4.437900
-7.311600 4.744200
-7.282600 5.189400
-7.253700 5.725800
-7.224700 6.484900
-7.195700 7.451800
-7.166800 10.383100
-7.137800 12.315400
-7.108900 21.072600
-7.079900 19.218000
-7.050900 4.883200
-7.022000 2.632100
-6.993000 1.423300
-6.964000 3.177400
-6.935100 8.956300
-6.906100 9.578000
-6.877100 14.752400
-6.848200 6.841600
-6.819200 6.195100
-6.790200 5.487300
-6.761300 4.762500
-6.732300 6.579800
-6.703400 9.118900
-6.674400 10.511900
-6.645400 11.102700
-6.616500 10.233400
-6.587500 9.277800
-6.558500 11.568400
-6.529600 9.088500
-6.500600 5.420800
-6.471600 4.079500
-6.442700 4.244200
-6.413700 7.627300
-6.384700 7.841300
-6.355800 7.446700
-6.326800 7.854900
-6.297900 10.529300
-6.268900 13.415300
-6.239900 13.475400
-6.211000 10.473200
-6.182000 12.082700
-6.153000 13.601800
-6.124100 13.156500
-6.095100 13.810400
-6.066100 14.481800
-6.037200 15.161000
-6.008200 17.366700
-5.979200 17.241700
-5.950300 23.744100
-5.921300 19.666400
-5.892400 20.286900
-5.863400 19.736500
-5.834400 21.807000
-5.805500 21.888000
-5.776500 21.720100
-5.747500 20.324100
-5.718600 17.368300
-5.689600 9.251000
-5.660600 5.357300
-5.631700 6.208400
-5.602700 4.347200
-5.573700 4.502800
-5.544800 5.135600
-5.515800 4.910000
-5.486900 5.327100
-5.457900 4.690300
-5.428900 4.493000
-5.400000 4.522500
-5.371000 5.298800
-5.342000 5.947400
-5.313100 5.322400
-5.284100 5.494000
-5.255100 5.450700
-5.226200 5.584400
-5.197200 4.922200
-5.168200 4.603100
-5.139300 4.509000
-5.110300 4.616000
-5.081400 4.988000
-5.052400 5.837300
-5.023400 4.905300
-4.994500 4.358700
-4.965500 4.044800
-4.936500 3.969600
-4.907600 3.792300
-4.878600 3.617000
-4.849600 3.525800
-4.820700 3.563600
-4.791700 3.596600
-4.762700 3.768600
-4.733800 4.128000
-4.704800 4.308000
-4.675900 3.914200
-4.646900 4.304500
-4.617900 5.086800
-4.589000 5.956800
-4.560000 7.587200
-4.531000 8.093900
-4.502100 8.683800
-4.473100 13.562200
-4.444100 10.579200
-4.415200 10.810400
-4.386200 10.327700
-4.357200 8.489100
-4.328300 7.307200
-4.299300 5.635000
-4.270400 5.212800
-4.241400 4.307800
-4.212400 3.947400
-4.183500 3.856900
-4.154500 3.899600
-4.125500 4.049500
-4.096600 5.061000
-4.067600 4.213200
-4.038600 3.924600
-4.009700 4.982800
-3.980700 4.778800
-3.951700 6.097400
-3.922800 6.079700
-3.893800 6.947800
-3.864800 9.940300
-3.835900 9.709800
-3.806900 10.002700
-3.778000 9.347700
-3.749000 10.299100
-3.720000 9.521600
-3.691100 8.078400
-3.662100 6.173700
-3.633100 9.572300
-3.604200 9.740400
-3.575200 10.501800
-3.546200 14.294900
-3.517300 17.161100
-3.488300 17.146900
-3.459300 17.854500
-3.430400 20.951500
-3.401400 17.253100
-3.372500 25.558100
-3.343500 22.825500
-3.314500 20.879600
-3.285600 16.855300
-3.256600 8.393500
-3.227600 5.730800
-3.198700 5.252700
-3.169700 4.831300
-3.140700 4.341800
-3.111800 4.113100
-3.082800 3.788800
-3.053800 3.578400
-3.024900 2.850500
-2.995900 2.691700
-2.967000 2.676500
-2.938000 2.661200
-2.909000 2.822700
-2.880100 3.003300
-2.851100 2.886800
-2.822100 3.451800
-2.793200 3.731700
-2.764200 3.989500
-2.735200 4.202400
-2.706300 4.562800
-2.677300 5.031000
-2.648300 5.413000
-2.619400 6.168800
-2.590400 6.519500
-2.561500 7.119800
-2.532500 7.595500
-2.503500 8.784400
-2.474600 8.196600
-2.445600 7.047000
-2.416600 5.511100
-2.387700 3.265900
-2.358700 3.275700
-2.329700 3.339800
-2.300800 3.389600
-2.271800 3.470300
-2.242800 3.652600
-2.213900 3.962700
-2.184900 4.454900
-2.156000 5.460200
-2.127000 6.959800
-2.098000 8.114200
-2.069100 2.889700
-2.040100 1.516700
-2.011100 1.204900
-1.982200 0.873400
-1.953200 0.697600
-1.924200 0.514200
-1.895300 0.427500
-1.866300 0.129300
-1.837300 0.000000
-1.808400 0.000000
-1.779400 0.000000
-1.750500 0.000000
-1.721500 0.000000
-1.692500 0.000000
-1.663600 0.000000
-1.634600 0.000000
-1.605600 0.000000
-1.576700 0.000000
-1.547700 0.000000
-1.518700 0.000000
-1.489800 0.000000
-1.460800 0.000000
-1.431800 0.000100
-1.402900 0.001800
-1.373900 0.005300
-1.345000 0.010700
-1.316000 0.018000
-1.287000 0.027200
-1.258100 0.038300
-1.229100 0.051400
-1.200100 0.063400
-1.171200 0.073500
-1.142200 0.081700
-1.113200 0.087900
-1.084300 0.092200
-1.055300 0.094800
-1.026300 0.097400
-0.997400 0.101100
-0.968400 0.105700
-0.939500 0.111400
-0.910500 0.118000
-0.881500 0.125300
-0.852600 0.132900
-0.823600 0.140700
-0.794600 0.148600
-0.765700 0.156700
-0.736700 0.164400
-0.707700 0.171300
-0.678800 0.177300
-0.649800 0.182300
-0.620800 0.187100
-0.591900 0.192300
-0.562900 0.198300
-0.534000 0.205000
-0.505000 0.212300
-0.476000 0.219700
-0.447100 0.226800
-0.418100 0.233700
-0.389100 0.240600
-0.360200 0.247600
-0.331200 0.254600
-0.302200 0.261600
-0.273300 0.268700
-0.244300 0.275800
-0.215300 0.283300
-0.186400 0.291300
-0.157400 0.300000
-0.128500 0.309200
-0.099500 0.318800
-0.070500 0.328400
-0.041600 0.337800
-0.012600 0.347000
0.016400 0.356100
0.045300 0.365000
0.074300 0.373800
0.103300 0.382700
0.132200 0.391500
0.161200 0.400400
0.190200 0.409400
0.219100 0.418400
0.248100 0.427400
0.277000 0.436500
0.306000 0.446800
0.335000 0.457800
0.363900 0.470300
0.392900 0.482900
0.421900 0.495600
0.450800 0.507800
0.479800 0.520200
0.508800 0.532900
0.537700 0.545900
0.566700 0.559200
0.595700 0.572800
0.624600 0.637900
0.653600 0.703800
0.682500 0.764400
0.711500 0.759400
0.740500 0.740500
0.769400 0.727100
0.798400 0.740600
0.827400 0.754900
0.856300 0.769300
0.885300 0.783400
0.914300 0.796300
0.943200 0.795800
0.972200 0.791300
1.001200 0.801200
1.030100 0.806700
1.059100 0.811600
1.088000 0.815800
1.117000 0.819400
1.146000 0.822300
1.174900 0.828100
1.203900 0.839900
1.232900 0.857600
1.261800 0.867400
1.290800 0.874600
1.319800 0.949800
1.348700 1.102600
1.377700 1.196600
1.406700 1.189900
1.435600 1.226600
1.464600 1.355100
1.493600 1.316300
1.522500 1.375700
1.551500 1.454900
1.580400 2.209800
1.609400 1.749800
1.638400 1.790300
1.667300 1.818200
1.696300 1.794100
1.725300 1.763600
1.754200 1.800600
1.783200 1.833000
1.812200 1.861600
1.841100 1.875100
1.870100 1.966500
1.899100 2.103400
1.928000 2.069700
1.957000 2.114300
1.985900 2.151700
2.014900 2.207600
2.043900 2.278600
2.072800 2.386900
2.101800 2.471000
2.130800 2.579400
2.159700 2.997600
2.188700 2.395000
2.217700 2.301200
2.246600 2.180700
2.275600 2.082800
2.304600 1.996400
2.333500 1.962600
2.362500 2.028500
2.391400 2.156000
2.420400 2.385000
2.449400 2.642400
2.478300 4.408000
2.507300 2.132000
2.536300 1.832400
2.565200 1.609000
2.594200 1.444200
2.623200 1.322400
2.652100 1.219200
2.681100 1.124200
2.710100 1.082600
2.739000 1.082200
2.768000 0.942900
2.796900 0.830800
2.825900 0.738800
2.854900 0.655900
2.883800 0.595400
2.912800 0.570500
2.941800 0.607400
2.970700 0.580600
2.999700 0.459900
3.028700 0.303600
3.057600 0.177000
3.086600 0.074700
3.115600 0.004300
3.144500 0.000000
3.173500 0.000000
3.202400 0.000000
3.231400 0.000000
3.260400 0.000000
3.289300 0.000000
3.318300 0.000000
3.347300 0.000000
3.376200 0.000000
3.405200 0.000000
3.434200 0.000000
3.463100 0.000000
3.492100 0.000000
3.521100 0.000000
3.550000 0.000000
3.579000 0.000000
3.607900 0.000000
3.636900 0.000000
3.665900 0.000000
3.694800 0.000000
3.723800 0.000000
3.752800 0.000000
3.781700 0.000000
3.810700 0.000000
3.839700 0.000000
3.868600 0.000000
3.897600 0.000000
3.926600 0.000000
3.955500 0.000000
3.984500 0.000000
4.013400 0.000000
4.042400 0.000000
4.071400 0.000000
4.100300 0.000000
4.129300 0.000000
4.158300 0.000000
4.187200 0.000000
4.216200 0.000000
4.245200 0.000000
4.274100 0.000000
4.303100 0.000000
4.332100 0.000000
4.361000 0.000000
4.390000 0.000000
4.418900 0.000000
4.447900 0.000000
4.476900 0.000000
4.505800 0.000000
4.534800 0.000000
4.563800 0.000000
4.592700 0.000000
4.621700 0.000000
4.650700 0.000000
4.679600 0.000000
4.708600 0.000000
4.737600 0.000000
4.766500 0.000000
4.795500 0.000000
4.824400 0.000000
4.853400 0.000000
4.882400 0.000000
4.911300 0.000000
4.940300 0.000000
4.969300 0.000000
4.998200 0.000000
5.027200 0.000000
5.056200 0.079000
5.085100 0.127700
5.114100 0.156400
5.143100 0.269000
5.172000 0.339100
5.201000 0.411600
5.229900 0.441000
5.258900 0.470200
5.287900 0.481800
5.316800 0.532200
5.345800 0.579000
5.374800 0.628100
5.403700 0.711400
5.432700 0.744300
5.461700 0.779000
5.490600 0.796300
5.519600 0.832100
5.548600 0.875100
5.577500 0.918400
5.606500 0.963900
5.635400 1.020100
5.664400 1.103100
5.693400 1.167400
5.722300 1.235400
5.751300 1.290000
5.780300 1.373600
5.809200 1.486000
5.838200 1.583400
5.867200 1.633200
5.896100 1.664000
5.925100 1.679500
5.954100 1.900300
5.983000 2.133700
6.012000 2.221700
6.040900 2.400600
6.069900 2.587400
6.098900 2.746200
6.127800 2.948200
6.156800 3.166600
6.185800 3.460400
6.214700 3.829700
6.243700 4.219900
6.272700 4.621900
6.301600 5.144200
6.330600 6.022600
6.359600 5.773900
6.388500 5.033700
6.417500 4.375400
6.446500 3.945800
6.475400 3.695800
6.504400 3.707000
6.533300 3.417400
6.562300 3.082800
6.591300 2.908500
6.620200 2.792900
6.649200 2.583300
6.678200 2.457600
6.707100 2.328300
6.736100 2.161900
6.765100 2.122400
6.794000 1.589500
6.823000 1.384500
6.852000 1.259800
6.880900 1.157600
6.909900 1.033400
6.938800 0.968800
6.967800 0.907800
6.996800 0.805300
7.025700 0.720700
7.054700 0.670500
7.083700 0.598900
7.112600 0.543500
7.141600 0.515200
7.170600 0.517200
7.199500 0.526900
7.228500 0.589000
7.257500 0.632600
7.286400 0.644200
7.315400 0.653300
7.344300 0.680200
7.373300 0.730400
7.402300 0.845400
7.431200 0.937300
7.460200 0.996300
7.489200 0.941700
7.518100 0.952500
7.547100 0.978200
7.576100 1.019900
7.605000 1.076800
7.634000 1.145300
7.663000 1.208800
7.691900 1.304100
7.720900 1.392600
7.749800 1.596900
7.778800 1.786200
7.807800 1.762100
7.836700 1.777300
7.865700 1.804700
7.894700 1.789900
7.923600 1.810100
7.952600 1.754100
7.981600 1.788800
8.010500 1.850900
8.039500 2.019100
8.068500 2.207300
8.097400 2.418300
8.126400 2.668000
8.155300 3.181700
8.184300 2.900500
8.213300 2.727500
8.242200 2.575300
8.271200 2.370100
8.300200 2.223500
8.329100 2.029000
8.358100 1.915100
8.387100 1.854800
8.416000 1.838800
8.445000 1.830000
8.474000 1.867000
8.502900 1.913300
8.531900 2.030700
8.560800 2.246200
8.589800 2.406400
8.618800 2.466700
8.647700 2.475000
8.676700 2.466000
8.705700 2.478300
8.734600 2.507200
8.763600 2.531000
8.792600 2.587200
8.821500 2.644900
8.850500 2.757300
8.879500 2.651800
8.908400 2.447100
8.937400 2.246500
8.966300 2.081300
8.995300 1.942800
9.024300 1.710800
9.053200 1.711900
9.082200 1.716500
9.111200 1.733900
9.140100 1.726700
9.169100 1.712100
9.198100 1.959300
9.227000 2.016200
9.256000 2.089500
9.285000 2.156700
9.313900 2.218100
9.342900 2.330700
9.371800 2.557200
9.400800 2.817500
9.429800 3.011200
9.458700 3.332100
9.487700 3.367600
9.516700 3.472800
9.545600 3.398900
9.574600 3.483400
9.603600 3.556600
9.632500 3.518700
9.661500 3.478700
9.690500 3.640700
9.719400 4.128300
9.748400 4.676600
9.777300 4.889600
9.806300 4.826000
9.835300 4.643700
9.864200 4.490000
9.893200 4.158900
9.922200 3.693100
9.951100 3.454100
9.980100 2.914500
10.009100 2.680900
10.038000 2.563600
10.067000 2.423000
10.096000 2.398500
10.124900 2.357400
10.153900 2.308400
10.182800 2.267600
10.211800 2.180100
10.240800 2.169900
10.269700 2.184400
10.298700 2.287500
10.327700 2.186800
10.356600 2.032300
10.385600 1.991000
10.414600 2.001400
10.443500 2.042500
10.472500 2.078000
10.501500 2.119000
10.530400 2.129200
10.559400 2.135300
10.588300 2.154700
10.617300 2.196000
10.646300 2.222200
10.675200 2.301900
10.704200 2.337300
10.733200 2.335100
10.762100 2.342600
10.791100 2.359500
10.820100 2.380900
10.849000 2.363600
10.878000 2.310300
10.907000 2.229900
10.935900 2.092400
10.964900 2.021200
10.993800 1.979300
11.022800 1.962600
11.051800 1.758700
11.080700 1.812600
11.109700 1.884200
11.138700 2.047100
11.167600 1.945800
11.196600 2.078100
11.225600 2.098000
11.254500 2.061000
11.283500 2.111500
11.312500 2.206500
11.341400 2.275000
11.370400 2.250500
11.399300 2.314600
11.428300 2.389400
11.457300 2.600600
11.486200 2.424700
11.515200 2.407700
11.544200 2.365500
11.573100 2.416900
11.602100 2.460900
11.631100 2.490600
11.660000 2.536900
11.689000 2.568800
11.718000 2.788800
11.746900 2.907400
11.775900 2.668000
11.804900 2.391500
11.833800 2.442100
11.862800 2.513900
11.891700 2.661400
11.920700 2.791200
11.949700 2.990100
11.978600 3.338500
12.007600 3.696000
12.036600 4.233900
12.065500 4.682500
12.094500 3.499000
12.123500 3.212300
12.152400 2.963600
12.181400 2.735500
12.210400 2.508900
12.239300 2.407100
12.268300 2.295600
12.297200 2.171400
12.326200 2.051600
12.355200 1.969100
12.384100 1.816800
12.413100 1.809700
12.442100 1.835100
12.471000 1.855200
12.500000 2.184900
12.529000 1.888900
12.557900 1.836200
12.586900 1.809300
12.615900 1.775600
12.644800 1.759700
12.673800 1.737300
12.702700 1.805000
12.731700 1.756300
12.760700 1.755300
12.789600 1.774500
12.818600 1.803700
12.847600 1.916400
12.876500 2.020400
12.905500 2.042300
12.934500 2.039500
12.963400 2.004100
12.992400 2.007500
13.021400 2.003400
13.050300 1.989300
13.079300 1.960400
13.108200 1.922100
13.137200 1.860600
13.166200 1.819200
13.195100 1.841600
13.224100 1.851900
13.253100 1.859500
13.282000 1.880100
13.311000 1.941600
13.340000 1.990400
13.368900 1.993200
13.397900 1.994700
13.426900 1.991400
13.455800 1.987200
13.484800 1.993500
13.513700 2.018700
13.542700 2.026200
13.571700 1.989200
13.600600 2.039300
13.629600 2.115400
13.658600 2.194700
13.687500 2.293000
13.716500 2.390900
13.745500 2.399600
13.774400 2.347900
13.803400 2.236300
13.832400 2.090600
13.861300 2.027900
13.890300 2.013600
13.919200 2.000700
13.948200 1.957100
13.977200 2.310300
14.006100 1.860400
14.035100 1.700600
14.064100 1.588200
14.093000 1.484000
14.122000 1.400200
14.151000 1.325800
14.179900 1.859900
14.208900 1.576100
14.237900 1.784200
14.266800 1.823200
14.295800 2.029600
14.324700 2.208800
14.353700 2.331900
14.382700 2.387700
14.411600 2.283000
14.440600 2.134300
14.469600 1.851400
14.498500 1.690000
14.527500 1.639000
14.556500 1.618000
14.585400 1.608300
14.614400 1.745200
14.643400 1.714200
14.672300 1.599500
14.701300 1.910000
14.730200 2.608100
14.759200 2.335600
14.788200 2.505500
14.817100 2.737900
14.846100 2.781900
14.875100 2.723200
14.904000 2.432800
14.933000 2.506000
14.962000 2.566100
14.990900 2.632100
15.019900 2.703700
15.048900 2.776300
15.077800 2.680700
15.106800 2.994000
15.135700 3.240900
15.164700 3.326100
15.193700 2.996800
15.222600 2.743200
15.251600 2.521800
15.280600 2.338800
15.309500 2.239000
15.338500 2.200500
15.367500 2.215700
15.396400 2.584300
15.425400 2.675600
15.454400 2.820900
15.483300 2.920500
15.512300 2.938300
15.541200 2.830300
15.570200 2.816800
15.599200 2.759800
15.628100 2.516500
15.657100 2.303800
15.686100 2.182500
15.715000 2.149500
15.744000 2.265600
15.773000 2.117800
15.801900 1.988100
15.830900 1.987200
15.859900 1.982900
15.888800 1.939300
15.917800 1.866700
15.946700 1.876500
15.975700 1.791100
16.004700 1.692300
16.033600 1.668300
16.062600 1.836100
16.091600 1.791200
16.120500 1.841900
16.149500 1.765500
16.178500 2.012400
16.207400 1.905600
16.236400 1.902600
16.265400 1.881600
16.294300 1.962200
16.323300 1.998500
16.352200 2.182000
16.381200 2.070200
16.410200 2.130400
16.439100 2.227000
16.468100 2.302200
16.497100 2.191900
16.526000 2.213800
16.555000 2.258600
16.584000 2.389800
16.612900 2.589800
16.641900 2.909400
16.670900 3.051200
16.699800 3.008400
16.728800 2.848900
16.757700 2.719300
16.786700 2.688800
16.815700 2.698600
16.844600 2.711800
16.873600 2.725300
16.902600 2.756800
16.931500 2.704200
16.960500 2.707800
16.989500 2.745900
17.018400 2.771800
17.047400 2.849700
17.076400 2.849700
17.105300 2.745800
17.134300 2.810100
17.163300 2.821800
17.192200 3.379100
17.221200 3.613700
17.250100 4.007400
17.279100 4.306800
17.308100 4.814900
17.337000 4.893400
17.366000 4.468300
17.395000 3.949700
17.423900 3.517400
17.452900 3.208700
17.481900 3.032700
17.510800 2.983000
17.539800 2.900800
17.568800 2.812600
17.597700 2.747000
17.626700 2.689600
17.655600 2.619500
17.684600 2.567300
17.713600 2.544000
17.742500 2.524600
17.771500 2.469000
17.800500 2.406600
17.829400 2.387200
17.858400 2.470000
17.887400 2.530800
17.916300 2.639200
17.945300 2.686200
17.974300 2.718100
18.003200 2.999000
18.032200 2.838500
18.061100 3.088000
18.090100 2.660200
18.119100 2.610400
18.148000 2.632100
18.177000 2.647800
18.206000 2.651900
18.234900 2.627800
18.263900 2.592500
18.292900 2.561100
18.321800 2.567600
18.350800 3.020300
18.379800 3.135200
18.408700 3.078000
18.437700 2.971500
18.466600 2.746700
18.495600 2.325400
18.524600 2.222500
18.553500 2.238400
18.582500 2.426000
18.611500 2.725200
18.640400 3.416000
18.669400 3.313000
18.698400 3.010000
18.727300 2.595400
18.756300 2.373100
18.785300 2.719900
18.814200 2.826100
18.843200 2.333800
18.872100 2.435900
18.901100 2.634300
18.930100 2.804900
18.959000 3.164400
18.988000 2.731200
19.017000 2.658500
19.045900 2.657900
19.074900 2.912900
19.103900 3.074500
19.132800 3.137600
19.161800 3.379000
19.190800 3.577200
19.219700 3.447800
19.248700 3.423900
19.277600 3.427600
19.306600 3.469900
19.335600 3.526500
19.364500 3.495000
19.393500 3.529500
19.422500 3.661300
19.451400 3.816400
19.480400 3.867600
19.509400 3.996700
19.538300 3.904200
19.567300 3.998300
19.596300 3.625800
19.625200 3.350000
19.654200 3.170600
19.683100 3.036800
19.712100 2.973500
19.741100 3.571400
19.770000 3.998700
19.799000 4.175000
19.828000 3.815900
19.856900 3.597300
19.885900 3.246600
19.914900 3.500400
19.943800 3.480300
19.972800 3.314300
20.001800 3.495400
20.030700 3.630300
20.059700 3.957800
20.088600 3.836500
20.117600 3.820700
20.146600 3.962000
20.175500 3.910300
20.204500 3.820300
20.233500 3.987800
20.262400 4.277100
20.291400 4.540300
20.320400 4.548900
20.349300 4.654500
20.378300 4.798700
20.407300 4.844800
20.436200 5.168200
20.465200 5.398300
20.494100 5.733700
20.523100 5.968300
20.552100 5.943800
20.581000 5.752400
20.610000 4.171600
20.639000 3.854100
20.667900 3.628200
20.696900 3.430000
20.725900 3.489000
20.754800 3.144200
20.783800 3.020900
20.812800 2.907600
20.841700 3.035200
20.870700 3.103900
20.899600 3.170500
20.928600 3.209500
20.957600 3.366400
20.986500 3.546000
21.015500 3.701900
21.044500 3.828100
21.073400 3.981300
21.102400 4.181700
21.131400 4.369500
21.160300 4.649300
21.189300 4.774200
21.218300 4.820400
21.247200 4.823400
21.276200 4.815600
21.305100 4.793300
21.334100 4.894700
21.363100 5.140100
21.392000 5.043500
21.421000 4.643400
21.450000 4.409900
21.478900 4.118000
21.507900 4.206800
21.536900 4.294200
21.565800 4.166100
21.594800 4.074800
21.623800 3.976600
21.652700 4.064600
21.681700 4.213000
21.710600 4.051900
21.739600 3.956600
21.768600 3.854200
21.797500 3.637800
21.826500 3.591900
21.855500 3.658400
21.884400 3.759300
21.913400 3.938900
21.942400 4.140100
21.971300 4.382900
22.000300 4.580700
22.029300 4.759200
22.058200 4.827200
22.087200 5.086000
22.116200 5.211200
22.145100 5.271300
22.174100 5.266200
22.203000 4.830500
22.232000 4.185600
22.261000 3.667600
22.289900 3.403900
22.318900 3.181000
22.347900 3.021200
22.376800 2.927600
22.405800 2.832600
22.434800 2.764100
22.463700 2.727300
22.492700 2.845100
22.521700 2.975800
22.550600 3.026100
22.579600 3.629400
22.608500 3.627800
22.637500 3.632000
22.666500 3.500100
22.695400 3.478100
22.724400 3.254900
22.753400 3.287200
22.782300 3.264000
22.811300 3.213100
22.840300 3.119800
22.869200 2.996400
22.898200 2.557000
22.927200 2.350900
22.956100 2.700900
22.985100 2.253800
23.014000 2.273300
23.043000 2.325700
23.072000 2.386700
23.100900 2.457400
23.129900 2.536200
23.158900 2.655200
23.187800 2.791500
23.216800 2.914400
23.245800 3.066900
23.274700 3.198200
23.303700 3.408400
23.332700 3.790100
23.361600 2.937900
23.390600 2.773200
23.419500 2.637200
23.448500 2.561200
23.477500 2.492400
23.506400 2.459700
23.535400 2.478400
23.564400 2.492000
23.593300 2.528900
23.622300 2.588800
23.651300 2.682200
23.680200 3.023900
23.709200 3.429200
23.738200 3.542900
23.767100 3.405000
23.796100 3.443700
23.825000 3.529000
23.854000 3.523200
23.883000 3.468300
23.911900 3.430200
23.940900 3.379700
23.969900 3.349700
23.998800 3.371100
24.027800 3.387900
24.056800 3.393200
24.085700 3.310800
24.114700 3.243000
24.143700 3.200800
24.172600 3.158900
24.201600 3.164400
24.230500 3.191100
24.259500 3.167600
24.288500 3.185800
24.317400 3.173500
24.346400 3.304500
24.375400 3.546700
24.404300 3.782700
24.433300 4.065300
24.462300 4.418200
24.491200 4.733300
24.520200 4.962000
24.549200 5.044600
24.578100 4.919200
24.607100 4.792600
24.636000 4.619000
24.665000 4.386800
24.694000 4.254200
24.722900 4.141300
24.751900 4.139900
24.780900 3.879100
24.809800 3.807100
24.838800 4.175000
24.867800 3.853700
24.896700 3.800800
24.925700 4.281200
24.954700 4.090800
24.983600 4.683500
25.012600 5.009400
25.041500 4.960900
25.070500 5.164700
25.099500 4.688100
25.128400 4.418000
25.157400 4.345300
25.186400 3.487700
25.215300 3.357300
25.244300 3.638500
25.273300 3.295200
25.302200 3.370300
25.331200 3.618600
25.360200 3.829000
25.389100 3.928000
25.418100 3.598900
25.447000 3.367700
25.476000 3.315200
25.505000 3.397100
25.533900 5.270100
25.562900 3.977400
25.591900 4.337800
25.620800 4.684100
25.649800 4.426900
25.678800 4.249500
25.707700 4.002400
25.736700 3.897700
25.765700 3.696000
25.794600 3.566700
25.823600 3.458100
25.852500 3.518900
25.881500 3.717200
25.910500 3.920300
25.939400 4.249400
25.968400 4.489600
25.997400 4.228900
26.026300 3.825600
26.055300 3.783300
26.084300 3.828500
26.113200 3.900500
26.142200 3.977000
26.171200 3.797600
26.200100 3.740500
26.229100 4.276200
26.258000 3.488200
26.287000 2.970800
26.316000 2.719900
26.344900 2.705500
26.373900 2.932400
26.402900 3.360600
26.431800 4.034700
26.460800 4.651900
26.489800 4.646400
26.518700 4.421400
26.547700 4.333100
26.576700 3.988500
26.605600 3.561400
26.634600 3.390200
26.663500 3.347400
26.692500 3.329600
26.721500 3.357700
26.750400 3.484300
26.779400 3.636900
26.808400 4.158200
26.837300 4.614000
26.866300 4.922900
26.895300 5.022600
26.924200 5.526800
26.953200 5.634400
26.982200 6.017600
27.011100 4.865600
27.040100 4.372400
27.069000 3.981500
27.098000 3.608900
27.127000 3.340800
27.155900 2.925300
27.184900 2.648300
27.213900 2.432900
27.242800 2.518400
27.271800 2.723000
27.300800 2.933900
27.329700 3.339500
27.358700 4.115400
27.387700 5.030600
27.416600 5.652000
27.445600 6.505000
27.474600 6.636800
27.503500 5.708500
27.532500 4.871100
27.561400 4.686300
27.590400 5.104800
27.619400 5.209700
27.648300 5.189300
27.677300 5.204000
27.706300 5.034800
27.735200 5.269600
27.764200 4.329600
27.793200 4.140400
27.822100 3.971100
27.851100 3.847200
27.880100 3.795900
27.909000 3.730500
27.938000 3.809600
27.966900 3.930800
27.995900 4.116500
28.024900 4.401300
28.053800 5.015000
28.082800 4.859100
28.111800 5.082500
28.140700 4.969400
28.169700 5.046100
28.198700 4.889400
28.227600 4.795000
28.256600 4.496200
28.285600 4.276200
28.314500 4.450100
28.343500 4.618800
28.372400 4.674200
28.401400 4.893900
28.430400 5.513700
28.459300 5.048100
28.488300 5.282800
28.517300 5.714100
28.546200 5.894000
28.575200 6.146800
28.604200 5.990200
28.633100 5.722600
28.662100 5.495900
28.691100 5.328300
28.720000 4.499000
28.749000 4.161400
28.777900 4.410400
28.806900 3.779000
28.835900 3.447000
28.864800 3.223900
28.893800 3.039000
28.922800 2.864900
28.951700 2.711800
28.980700 2.708500
29.009700 2.674200
29.038600 2.723800
29.067600 2.762500
29.096600 2.676600
29.125500 2.012800
29.154500 1.895800
29.183400 1.768000
29.212400 1.863100
29.241400 1.878900
29.270300 1.567900
29.299300 1.143000
29.328300 1.052400
29.357200 1.002900
29.386200 0.948800
29.415200 0.901600
29.444100 0.876900
29.473100 0.726900
29.502100 0.718600
29.531000 0.677400
29.560000 0.619400
29.588900 0.516800
29.617900 0.482200
29.646900 0.434700
29.675800 0.388700
29.704800 1.494400
29.733800 0.000000
29.762700 0.000000
29.791700 0.000000
29.820700 0.000000
29.849600 0.000000
29.878600 0.000000
29.907600 0.000000
29.936500 0.000000
29.965500 0.000000
29.994400 0.000000
30.023400 0.000000
30.052400 0.000000
30.081300 0.000000
30.110300 0.000000
30.139300 0.000000
30.168200 0.000000
30.197200 0.000000
30.226200 0.000000
30.255100 0.000000
30.284100 0.000000
30.313100 0.000000
30.342000 0.000000
30.371000 0.000000
30.399900 0.000000
30.428900 0.000000
30.457900 0.000000
30.486800 0.000000
30.515800 0.000000
30.544800 0.000000
30.573700 0.000000
30.602700 0.000000
30.631700 0.000000
30.660600 0.000000
30.689600 0.000000
30.718600 0.000000
30.747500 0.000000
30.776500 0.000000
30.805400 0.000000
30.834400 0.000000
30.863400 0.000000
30.892300 0.000000
30.921300 0.000000
30.950300 0.000000
30.979200 0.000000
31.008200 0.000000
31.037200 0.000000
31.066100 0.000000
31.095100 0.000000
31.124100 0.000000
31.153000 0.000000
31.182000 0.000000
31.210900 0.000000
31.239900 0.000000
31.268900 0.000000
31.297800 0.000000
31.326800 0.000000
31.355800 0.000000
31.384700 0.000000
31.413700 0.000000
31.442700 0.000000
31.471600 0.000000
31.500600 0.000000
31.529600 0.000000
31.558500 0.000000
31.587500 0.000000
31.616400 0.000000
31.645400 0.000000
31.674400 0.000000
31.703300 0.000000
31.732300 0.000000
31.761300 0.000000
31.790200 0.000000
31.819200 0.000000
31.848200 0.000000
31.877100 0.000000
31.906100 0.000000
31.935100 0.000000
31.964000 0.000000
31.993000 0.000000
32.021900 0.000000
32.050900 0.000000
32.079900 0.000000
32.108800 0.000000
32.137800 0.000000
32.166800 0.000000
32.195700 0.000000
32.224700 0.000000
32.253700 0.000000
32.282600 0.000000
32.311600 0.000000
32.340600 0.000000
e
