set title 'mp-1620 - Density of States'
set xlabel 'Energy (eV)'
set ylabel 'DOS (states/eV)'
set grid
set xrange [-10:10]
set yrange [0:6.133]
set xzeroaxis lt -1
set terminal png size 800,600
set output 'mp-1620_dos_gnuplot.png'
plot '-' using 1:2 with lines title 'DOS'
-30.677300 0.000000
-30.648000 0.000000
-30.618800 0.000000
-30.589500 0.000000
-30.560300 0.000000
-30.531000 0.000000
-30.501700 0.000000
-30.472500 0.000000
-30.443200 0.000000
-30.414000 0.000000
-30.384700 0.000000
-30.355500 0.000000
-30.326200 0.000000
-30.297000 0.000000
-30.267700 0.000000
-30.238500 0.000000
-30.209200 0.000000
-30.180000 0.000000
-30.150700 0.000000
-30.121500 0.000000
-30.092200 0.000000
-30.063000 0.000000
-30.033700 0.000000
-30.004500 0.000000
-29.975200 0.000000
-29.946000 0.000000
-29.916700 0.000000
-29.887500 0.000000
-29.858200 0.000000
-29.829000 0.000000
-29.799700 0.000000
-29.770500 0.000000
-29.741200 0.000000
-29.712000 0.000000
-29.682700 0.000000
-29.653500 0.000000
-29.624200 0.000000
-29.595000 0.000000
-29.565700 0.000000
-29.536500 0.000000
-29.507200 0.000000
-29.478000 0.000000
-29.448700 0.000000
-29.419500 0.000000
-29.390200 0.000000
-29.361000 0.000000
-29.331700 0.000000
-29.302500 0.000000
-29.273200 0.000000
-29.244000 0.000000
-29.214700 0.000000
-29.185500 0.000000
-29.156200 0.000000
-29.127000 0.000000
-29.097700 0.000000
-29.068500 0.000000
-29.039200 0.000000
-29.010000 0.000000
-28.980700 0.000000
-28.951500 0.000000
-28.922200 0.000000
-28.893000 0.000000
-28.863700 0.000000
-28.834500 0.000000
-28.805200 0.000000
-28.776000 0.000000
-28.746700 0.000000
-28.717500 0.000000
-28.688200 0.000000
-28.658900 0.000000
-28.629700 0.000000
-28.600400 0.000000
-28.571200 0.000000
-28.541900 0.000000
-28.512700 0.000000
-28.483400 0.000000
-28.454200 0.000000
-28.424900 0.000000
-28.395700 0.000000
-28.366400 0.000000
-28.337200 0.000000
-28.307900 0.000000
-28.278700 0.000000
-28.249400 0.000000
-28.220200 0.000000
-28.190900 0.000000
-28.161700 0.000000
-28.132400 0.000000
-28.103200 0.000000
-28.073900 0.000000
-28.044700 0.000000
-28.015400 15.733200
-27.986200 25.743800
-27.956900 14.767300
-27.927700 12.990800
-27.898400 12.727200
-27.869200 19.169300
-27.839900 23.448600
-27.810700 82.854000
-27.781400 0.000000
-27.752200 0.000000
-27.722900 0.000000
-27.693700 0.000000
-27.664400 0.000000
-27.635200 0.000000
-27.605900 0.000000
-27.576700 0.000000
-27.547400 0.000000
-27.518200 0.000000
-27.488900 0.000000
-27.459700 0.000000
-27.430400 0.000000
-27.401200 0.000000
-27.371900 0.000000
-27.342700 0.000000
-27.313400 0.000000
-27.284200 0.000000
-27.254900 0.000000
-27.225700 0.000000
-27.196400 0.000000
-27.167200 0.000000
-27.137900 0.000000
-27.108700 0.000000
-27.079400 0.000000
-27.050200 0.000000
-27.020900 0.000000
-26.991700 0.000000
-26.962400 0.000000
-26.933200 0.000000
-26.903900 0.000000
-26.874600 0.000000
-26.845400 0.000000
-26.816100 0.000000
-26.786900 0.000000
-26.757600 0.000000
-26.728400 0.000000
-26.699100 0.000000
-26.669900 0.000000
-26.640600 0.000000
-26.611400 0.000000
-26.582100 0.000000
-26.552900 0.000000
-26.523600 0.000000
-26.494400 0.000000
-26.465100 0.000000
-26.435900 0.000000
-26.406600 0.000000
-26.377400 0.000000
-26.348100 0.000000
-26.318900 0.000000
-26.289600 0.000000
-26.260400 0.000000
-26.231100 0.000000
-26.201900 0.000000
-26.172600 0.000000
-26.143400 0.000000
-26.114100 0.000000
-26.084900 0.000000
-26.055600 0.000000
-26.026400 0.000000
-25.997100 0.000000
-25.967900 0.000000
-25.938600 0.000000
-25.909400 0.000000
-25.880100 0.000000
-25.850900 0.000000
-25.821600 0.000000
-25.792400 0.000000
-25.763100 0.000000
-25.733900 0.000000
-25.704600 0.000000
-25.675400 0.000000
-25.646100 0.000000
-25.616900 0.000000
-25.587600 0.000000
-25.558400 0.000000
-25.529100 0.000000
-25.499900 0.000000
-25.470600 0.000000
-25.441400 0.000000
-25.412100 0.000000
-25.382900 0.000000
-25.353600 0.000000
-25.324400 0.000000
-25.295100 0.000000
-25.265900 0.000000
-25.236600 0.000000
-25.207400 0.000000
-25.178100 0.000000
-25.148900 0.000000
-25.119600 0.000000
-25.090400 0.000000
-25.061100 0.000000
-25.031800 0.000000
-25.002600 0.000000
-24.973300 0.000000
-24.944100 0.000000
-24.914800 0.000000
-24.885600 0.000000
-24.856300 0.000000
-24.827100 0.000000
-24.797800 0.000000
-24.768600 0.000000
-24.739300 0.000000
-24.710100 0.000000
-24.680800 0.000000
-24.651600 0.000000
-24.622300 0.000000
-24.593100 0.000000
-24.563800 0.000000
-24.534600 0.000000
-24.505300 0.000000
-24.476100 0.000000
-24.446800 0.000000
-24.417600 0.000000
-24.388300 0.000000
-24.359100 0.000000
-24.329800 0.000000
-24.300600 0.000000
-24.271300 0.000000
-24.242100 0.000000
-24.212800 0.000000
-24.183600 0.000000
-24.154300 0.000000
-24.125100 0.000000
-24.095800 0.000000
-24.066600 0.000000
-24.037300 0.000000
-24.008100 0.000000
-23.978800 0.000000
-23.949600 0.000000
-23.920300 0.000000
-23.891100 0.000000
-23.861800 0.000000
-23.832600 0.000000
-23.803300 0.000000
-23.774100 0.000000
-23.744800 0.000000
-23.715600 0.000000
-23.686300 0.000000
-23.657100 0.000000
-23.627800 0.000000
-23.598600 0.000000
-23.569300 0.000000
-23.540100 0.000000
-23.510800 0.000000
-23.481600 0.000000
-23.452300 0.000000
-23.423100 0.000000
-23.393800 0.000000
-23.364600 0.000000
-23.335300 0.000000
-23.306100 0.000000
-23.276800 0.000000
-23.247600 0.000000
-23.218300 0.000000
-23.189000 0.000000
-23.159800 0.000000
-23.130500 0.000000
-23.101300 0.000000
-23.072000 0.000000
-23.042800 0.000000
-23.013500 0.000000
-22.984300 0.000000
-22.955000 0.000000
-22.925800 0.000000
-22.896500 0.000000
-22.867300 0.000000
-22.838000 0.000000
-22.808800 0.000000
-22.779500 0.000000
-22.750300 0.000000
-22.721000 0.000000
-22.691800 0.000000
-22.662500 0.000000
-22.633300 0.000000
-22.604000 0.000000
-22.574800 0.000000
-22.545500 0.000000
-22.516300 0.000000
-22.487000 0.000000
-22.457800 0.000000
-22.428500 0.000000
-22.399300 0.000000
-22.370000 0.000000
-22.340800 0.000000
-22.311500 0.000000
-22.282300 0.000000
-22.253000 0.000000
-22.223800 0.000000
-22.194500 0.000000
-22.165300 0.000000
-22.136000 0.000000
-22.106800 0.000000
-22.077500 0.000000
-22.048300 0.000000
-22.019000 0.000000
-21.989800 0.000000
-21.960500 0.000000
-21.931300 0.000000
-21.902000 0.000000
-21.872800 0.000000
-21.843500 0.000000
-21.814300 0.000000
-21.785000 0.000000
-21.755800 0.000000
-21.726500 0.000000
-21.697300 0.000000
-21.668000 0.000000
-21.638800 0.000000
-21.609500 0.000000
-21.580300 0.000000
-21.551000 0.000000
-21.521800 0.000000
-21.492500 0.000000
-21.463300 0.000000
-21.434000 0.000000
-21.404800 0.000000
-21.375500 0.000000
-21.346200 0.000000
-21.317000 0.000000
-21.287700 0.000000
-21.258500 0.000000
-21.229200 0.000000
-21.200000 0.000000
-21.170700 0.000000
-21.141500 0.000000
-21.112200 0.000000
-21.083000 0.000000
-21.053700 0.000000
-21.024500 0.000000
-20.995200 0.000000
-20.966000 0.000000
-20.936700 0.000000
-20.907500 0.000000
-20.878200 0.000000
-20.849000 0.000000
-20.819700 0.000000
-20.790500 0.000000
-20.761200 0.000000
-20.732000 0.000000
-20.702700 0.000000
-20.673500 0.000000
-20.644200 0.000000
-20.615000 0.000000
-20.585700 0.000000
-20.556500 0.000000
-20.527200 0.000000
-20.498000 0.000000
-20.468700 0.000000
-20.439500 0.000000
-20.410200 0.000000
-20.381000 0.000000
-20.351700 0.000000
-20.322500 0.000000
-20.293200 0.000000
-20.264000 0.000000
-20.234700 0.000000
-20.205500 0.000000
-20.176200 0.000000
-20.147000 0.000000
-20.117700 0.000000
-20.088500 0.000000
-20.059200 0.000000
-20.030000 0.000000
-20.000700 0.000000
-19.971500 0.000000
-19.942200 0.000000
-19.913000 0.000000
-19.883700 0.000000
-19.854500 0.000000
-19.825200 0.000000
-19.796000 0.000000
-19.766700 0.000000
-19.737500 0.000000
-19.708200 0.000000
-19.679000 0.000000
-19.649700 0.000000
-19.620500 0.000000
-19.591200 0.000000
-19.562000 0.000000
-19.532700 0.000000
-19.503400 0.000000
-19.474200 0.000000
-19.444900 0.000000
-19.415700 0.000000
-19.386400 0.000000
-19.357200 0.000000
-19.327900 0.000000
-19.298700 0.000000
-19.269400 0.000000
-19.240200 0.000000
-19.210900 0.000000
-19.181700 0.000000
-19.152400 0.000000
-19.123200 0.000000
-19.093900 0.000000
-19.064700 0.000000
-19.035400 0.000000
-19.006200 0.000000
-18.976900 0.000000
-18.947700 0.000000
-18.918400 0.000000
-18.889200 0.000000
-18.859900 0.000000
-18.830700 0.000000
-18.801400 0.000000
-18.772200 0.000000
-18.742900 0.000000
-18.713700 0.000000
-18.684400 0.000000
-18.655200 0.000000
-18.625900 0.000000
-18.596700 0.000000
-18.567400 0.000000
-18.538200 0.000000
-18.508900 0.000000
-18.479700 0.000000
-18.450400 0.000000
-18.421200 0.000000
-18.391900 0.000000
-18.362700 0.000000
-18.333400 0.000000
-18.304200 0.000000
-18.274900 0.000000
-18.245700 0.000000
-18.216400 0.000000
-18.187200 0.000000
-18.157900 0.000000
-18.128700 0.000000
-18.099400 0.000000
-18.070200 0.000000
-18.040900 0.000000
-18.011700 0.000000
-17.982400 0.000000
-17.953200 0.000000
-17.923900 0.000000
-17.894700 0.000000
-17.865400 0.000000
-17.836200 0.000000
-17.806900 0.000000
-17.777700 0.000000
-17.748400 0.000000
-17.719200 0.000000
-17.689900 0.000000
-17.660600 0.000000
-17.631400 0.000000
-17.602100 0.000000
-17.572900 0.000000
-17.543600 0.000000
-17.514400 0.000000
-17.485100 0.000000
-17.455900 0.000000
-17.426600 0.000000
-17.397400 0.000000
-17.368100 0.000000
-17.338900 0.000000
-17.309600 0.000000
-17.280400 0.000000
-17.251100 0.000000
-17.221900 0.000000
-17.192600 0.000000
-17.163400 0.000000
-17.134100 0.000000
-17.104900 0.000000
-17.075600 0.000000
-17.046400 0.000000
-17.017100 0.000000
-16.987900 0.000000
-16.958600 0.000000
-16.929400 0.000000
-16.900100 0.000000
-16.870900 0.000000
-16.841600 0.000000
-16.812400 0.000000
-16.783100 0.000000
-16.753900 0.000000
-16.724600 0.000000
-16.695400 0.000000
-16.666100 0.000000
-16.636900 0.000000
-16.607600 0.000000
-16.578400 0.000000
-16.549100 0.000000
-16.519900 0.000000
-16.490600 0.000000
-16.461400 0.000000
-16.432100 0.000000
-16.402900 0.000000
-16.373600 0.000000
-16.344400 0.000000
-16.315100 0.000000
-16.285900 0.000000
-16.256600 0.000000
-16.227400 0.000000
-16.198100 0.000000
-16.168900 0.000000
-16.139600 0.000000
-16.110400 0.000000
-16.081100 0.000000
-16.051900 0.000000
-16.022600 0.000000
-15.993400 0.000000
-15.964100 0.000000
-15.934900 0.000000
-15.905600 0.000000
-15.876400 0.000000
-15.847100 0.000000
-15.817800 0.000000
-15.788600 0.000000
-15.759300 0.000000
-15.730100 0.000000
-15.700800 0.000000
-15.671600 0.000000
-15.642300 0.000000
-15.613100 0.000000
-15.583800 0.000000
-15.554600 0.000000
-15.525300 0.000000
-15.496100 0.000000
-15.466800 0.000000
-15.437600 0.000000
-15.408300 0.000000
-15.379100 0.000000
-15.349800 0.000000
-15.320600 0.000000
-15.291300 0.000000
-15.262100 0.000000
-15.232800 0.000000
-15.203600 0.000000
-15.174300 0.000000
-15.145100 0.000000
-15.115800 0.000000
-15.086600 0.000000
-15.057300 0.000000
-15.028100 0.000000
-14.998800 0.000000
-14.969600 0.000000
-14.940300 0.000000
-14.911100 0.000000
-14.881800 0.000000
-14.852600 0.000000
-14.823300 0.000000
-14.794100 0.000000
-14.764800 0.000000
-14.735600 0.000000
-14.706300 0.000000
-14.677100 0.000000
-14.647800 0.000000
-14.618600 0.000000
-14.589300 0.000000
-14.560100 0.000000
-14.530800 0.000000
-14.501600 0.000000
-14.472300 0.000000
-14.443100 0.000000
-14.413800 0.000000
-14.384600 0.000000
-14.355300 0.000000
-14.326100 0.000000
-14.296800 0.000000
-14.267600 0.000000
-14.238300 0.000000
-14.209100 0.000000
-14.179800 0.000000
-14.150600 0.000000
-14.121300 0.000000
-14.092100 0.000000
-14.062800 0.000000
-14.033500 0.000000
-14.004300 0.000000
-13.975000 0.000000
-13.945800 0.000000
-13.916500 0.000000
-13.887300 0.000000
-13.858000 0.000000
-13.828800 0.000000
-13.799500 0.000000
-13.770300 0.000000
-13.741000 0.000000
-13.711800 0.000000
-13.682500 0.000000
-13.653300 0.000000
-13.624000 0.000000
-13.594800 0.000000
-13.565500 0.000000
-13.536300 0.000000
-13.507000 0.000000
-13.477800 0.000000
-13.448500 0.000000
-13.419300 0.000000
-13.390000 0.000000
-13.360800 0.000000
-13.331500 0.000000
-13.302300 0.000000
-13.273000 0.000000
-13.243800 0.000000
-13.214500 0.000000
-13.185300 0.000000
-13.156000 0.000000
-13.126800 0.000000
-13.097500 0.000000
-13.068300 0.000000
-13.039000 0.000000
-13.009800 0.000000
-12.980500 0.000000
-12.951300 0.000000
-12.922000 0.000000
-12.892800 0.000000
-12.863500 0.000000
-12.834300 0.000000
-12.805000 0.000000
-12.775800 0.000000
-12.746500 0.000000
-12.717300 0.000000
-12.688000 0.000000
-12.658800 0.000000
-12.629500 0.000000
-12.600300 0.000000
-12.571000 0.000000
-12.541800 0.000000
-12.512500 0.000000
-12.483300 0.000000
-12.454000 0.000000
-12.424800 0.000000
-12.395500 0.000000
-12.366300 0.000000
-12.337000 0.000000
-12.307800 0.000000
-12.278500 0.000000
-12.249300 0.000000
-12.220000 0.000000
-12.190700 0.000000
-12.161500 0.000000
-12.132200 0.000000
-12.103000 0.000000
-12.073700 0.000000
-12.044500 0.000000
-12.015200 0.000000
-11.986000 0.000000
-11.956700 0.000000
-11.927500 0.000000
-11.898200 0.000000
-11.869000 0.000000
-11.839700 0.000000
-11.810500 0.000000
-11.781200 0.000000
-11.752000 0.000000
-11.722700 0.000000
-11.693500 0.000000
-11.664200 0.000000
-11.635000 0.000000
-11.605700 0.000000
-11.576500 0.000000
-11.547200 0.000000
-11.518000 0.000000
-11.488700 0.000000
-11.459500 0.000000
-11.430200 0.000000
-11.401000 0.000000
-11.371700 0.000000
-11.342500 0.000000
-11.313200 0.000000
-11.284000 0.000000
-11.254700 0.000000
-11.225500 0.000000
-11.196200 0.000000
-11.167000 0.000000
-11.137700 0.000000
-11.108500 0.000000
-11.079200 0.000000
-11.050000 0.000000
-11.020700 0.000000
-10.991500 0.000000
-10.962200 0.000000
-10.933000 0.000000
-10.903700 0.000000
-10.874500 0.000000
-10.845200 0.000000
-10.816000 0.000000
-10.786700 0.000000
-10.757500 0.000000
-10.728200 0.000000
-10.699000 0.000000
-10.669700 0.000000
-10.640500 0.000000
-10.611200 0.000000
-10.582000 0.000000
-10.552700 0.000000
-10.523500 0.000000
-10.494200 0.000000
-10.465000 0.000000
-10.435700 0.000000
-10.406500 0.000000
-10.377200 0.000000
-10.347900 0.000000
-10.318700 0.000000
-10.289400 0.000000
-10.260200 0.000000
-10.230900 0.000000
-10.201700 0.000000
-10.172400 0.000000
-10.143200 0.000000
-10.113900 0.000000
-10.084700 0.000000
-10.055400 0.000000
-10.026200 0.000000
-9.996900 0.000000
-9.967700 0.000000
-9.938400 0.000000
-9.909200 0.000000
-9.879900 0.000000
-9.850700 0.000000
-9.821400 0.000000
-9.792200 0.000000
-9.762900 0.000000
-9.733700 0.000000
-9.704400 0.000000
-9.675200 0.000000
-9.645900 0.000000
-9.616700 0.000000
-9.587400 0.000000
-9.558200 0.000000
-9.528900 0.000000
-9.499700 0.000000
-9.470400 0.000000
-9.441200 0.000000
-9.411900 0.000000
-9.382700 0.000000
-9.353400 0.000000
-9.324200 0.000000
-9.294900 0.000000
-9.265700 0.000000
-9.236400 0.000000
-9.207200 0.000000
-9.177900 0.000000
-9.148700 0.000000
-9.119400 0.000000
-9.090200 0.000000
-9.060900 0.000000
-9.031700 0.000000
-9.002400 0.000000
-8.973200 0.000000
-8.943900 0.000000
-8.914700 0.000000
-8.885400 0.000000
-8.856200 0.000000
-8.826900 0.000000
-8.797700 0.000000
-8.768400 0.000000
-8.739200 0.000000
-8.709900 0.000000
-8.680700 0.000000
-8.651400 0.000000
-8.622200 0.000000
-8.592900 0.000000
-8.563700 0.000000
-8.534400 0.000000
-8.505100 0.000000
-8.475900 0.000000
-8.446600 0.000000
-8.417400 0.000000
-8.388100 0.000000
-8.358900 0.000000
-8.329600 0.000000
-8.300400 0.000000
-8.271100 0.000000
-8.241900 0.000000
-8.212600 0.000000
-8.183400 0.000000
-8.154100 0.000000
-8.124900 0.000000
-8.095600 0.000000
-8.066400 0.000000
-8.037100 0.000000
-8.007900 0.000000
-7.978600 0.000000
-7.949400 0.000000
-7.920100 0.000000
-7.890900 0.000000
-7.861600 0.000000
-7.832400 0.000000
-7.803100 0.000000
-7.773900 0.000000
-7.744600 0.000000
-7.715400 0.000000
-7.686100 0.000000
-7.656900 0.000000
-7.627600 0.000000
-7.598400 0.000000
-7.569100 0.000000
-7.539900 0.000000
-7.510600 0.000000
-7.481400 0.000000
-7.452100 0.000000
-7.422900 0.000000
-7.393600 0.000000
-7.364400 0.000000
-7.335100 0.000000
-7.305900 0.000000
-7.276600 0.000000
-7.247400 0.000000
-7.218100 0.000000
-7.188900 0.000000
-7.159600 0.000000
-7.130400 0.000000
-7.101100 0.000000
-7.071900 0.000000
-7.042600 0.000000
-7.013400 0.000000
-6.984100 0.000000
-6.954900 0.000000
-6.925600 0.000000
-6.896400 0.000000
-6.867100 0.000000
-6.837900 0.000000
-6.808600 0.000000
-6.779400 0.000000
-6.750100 0.000000
-6.720900 0.000000
-6.691600 0.000000
-6.662300 0.000000
-6.633100 0.000000
-6.603800 0.000000
-6.574600 0.000000
-6.545300 0.000000
-6.516100 0.000000
-6.486800 0.000000
-6.457600 0.000000
-6.428300 0.000000
-6.399100 0.000000
-6.369800 0.000000
-6.340600 0.000000
-6.311300 0.000000
-6.282100 0.000000
-6.252800 0.000000
-6.223600 0.000000
-6.194300 0.000000
-6.165100 0.000000
-6.135800 0.000000
-6.106600 0.000000
-6.077300 0.000000
-6.048100 0.000000
-6.018800 0.000000
-5.989600 0.000000
-5.960300 0.000000
-5.931100 0.000000
-5.901800 0.000000
-5.872600 0.000000
-5.843300 0.000000
-5.814100 0.000000
-5.784800 0.000000
-5.755600 0.000000
-5.726300 0.000000
-5.697100 0.000000
-5.667800 0.000000
-5.638600 0.000000
-5.609300 0.000000
-5.580100 0.000000
-5.550800 0.000000
-5.521600 0.000000
-5.492300 0.000000
-5.463100 0.000000
-5.433800 0.000000
-5.404600 0.000000
-5.375300 0.000000
-5.346100 0.000000
-5.316800 0.000000
-5.287600 0.000000
-5.258300 0.000000
-5.229100 0.000000
-5.199800 0.000000
-5.170600 0.000000
-5.141300 0.000000
-5.112100 0.000000
-5.082800 0.000000
-5.053600 0.000000
-5.024300 0.000000
-4.995100 0.000000
-4.965800 0.000000
-4.936600 0.000000
-4.907300 0.000000
-4.878100 0.000000
-4.848800 0.000000
-4.819500 0.000000
-4.790300 0.000000
-4.761000 0.000000
-4.731800 0.000000
-4.702500 0.000000
-4.673300 0.000000
-4.644000 0.000000
-4.614800 0.000000
-4.585500 0.000000
-4.556300 0.000000
-4.527000 0.000000
-4.497800 0.000000
-4.468500 0.000000
-4.439300 0.000000
-4.410000 0.000000
-4.380800 0.000000
-4.351500 0.000000
-4.322300 0.000000
-4.293000 0.000000
-4.263800 0.000000
-4.234500 0.000000
-4.205300 0.000000
-4.176000 0.000000
-4.146800 0.000000
-4.117500 0.000000
-4.088300 0.000000
-4.059000 0.000000
-4.029800 0.000000
-4.000500 0.000000
-3.971300 0.000000
-3.942000 0.000000
-3.912800 0.000000
-3.883500 0.000000
-3.854300 0.000000
-3.825000 0.000000
-3.795800 0.000000
-3.766500 0.000000
-3.737300 0.000000
-3.708000 0.032000
-3.678800 0.049000
-3.649500 0.066500
-3.620300 0.078900
-3.591000 0.087500
-3.561800 0.093300
-3.532500 0.102700
-3.503300 0.113200
-3.474000 0.122400
-3.444800 0.128800
-3.415500 0.133800
-3.386300 0.138700
-3.357000 0.144600
-3.327800 0.151300
-3.298500 0.158300
-3.269300 0.165600
-3.240000 0.172200
-3.210800 0.176900
-3.181500 0.181200
-3.152300 0.185700
-3.123000 0.190400
-3.093800 0.195300
-3.064500 0.200400
-3.035300 0.205700
-3.006000 0.211300
-2.976700 0.217200
-2.947500 0.223200
-2.918200 0.227700
-2.889000 0.231600
-2.859700 0.235500
-2.830500 0.239700
-2.801200 0.243900
-2.772000 0.248300
-2.742700 0.252800
-2.713500 0.257600
-2.684200 0.262500
-2.655000 0.267600
-2.625700 0.272700
-2.596500 0.277400
-2.567200 0.282200
-2.538000 0.286200
-2.508700 0.290100
-2.479500 0.294200
-2.450200 0.298400
-2.421000 0.302700
-2.391700 0.307100
-2.362500 0.311600
-2.333200 0.316100
-2.304000 0.320700
-2.274700 0.325200
-2.245500 0.329900
-2.216200 0.334500
-2.187000 0.339100
-2.157700 0.344000
-2.128500 0.349000
-2.099200 0.353700
-2.070000 0.358100
-2.040700 0.362500
-2.011500 0.367100
-1.982200 0.371700
-1.953000 0.376500
-1.923700 0.381300
-1.894500 0.386300
-1.865200 0.391400
-1.836000 0.396900
-1.806700 0.402600
-1.777500 0.408300
-1.748200 0.414300
-1.719000 0.420600
-1.689700 0.427100
-1.660500 0.434300
-1.631200 0.442500
-1.602000 0.453000
-1.572700 0.465400
-1.543500 0.473500
-1.514200 0.478200
-1.485000 0.494800
-1.455700 0.498500
-1.426500 0.490900
-1.397200 0.487200
-1.368000 0.486300
-1.338700 0.488200
-1.309500 0.493400
-1.280200 0.506500
-1.251000 0.499700
-1.221700 0.498500
-1.192400 0.499100
-1.163200 0.500600
-1.133900 0.502700
-1.104700 0.504100
-1.075400 0.506000
-1.046200 0.508300
-1.016900 0.510300
-0.987700 0.510100
-0.958400 0.512300
-0.929200 0.514700
-0.899900 0.516300
-0.870700 0.518100
-0.841400 0.519900
-0.812200 0.521300
-0.782900 0.522200
-0.753700 0.522600
-0.724400 0.524000
-0.695200 0.526000
-0.665900 0.531500
-0.636700 0.537700
-0.607400 0.544700
-0.578200 0.561400
-0.548900 0.561600
-0.519700 0.567800
-0.490400 0.573700
-0.461200 0.579500
-0.431900 0.585300
-0.402700 0.597700
-0.373400 0.601600
-0.344200 0.603400
-0.314900 0.608700
-0.285700 0.614700
-0.256400 0.621100
-0.227200 0.627700
-0.197900 0.634400
-0.168700 0.641400
-0.139400 0.649300
-0.110200 0.658800
-0.080900 0.672200
-0.051700 0.685900
-0.022400 0.703800
0.006800 0.719800
0.036100 0.739000
0.065300 0.748100
0.094600 0.757100
0.123800 0.765100
0.153100 0.772100
0.182300 0.787000
0.211600 0.826300
0.240800 0.892500
0.270100 0.907600
0.299300 0.852900
0.328600 0.804400
0.357800 0.782400
0.387100 0.770600
0.416300 0.767200
0.445600 0.768000
0.474800 0.780600
0.504100 0.813200
0.533300 0.840000
0.562600 0.874600
0.591800 0.922300
0.621100 0.987900
0.650400 1.049900
0.679600 1.147200
0.708900 1.258100
0.738100 1.354000
0.767400 1.432900
0.796600 1.305000
0.825900 0.920800
0.855100 0.868200
0.884400 0.816600
0.913600 0.796700
0.942900 0.755100
0.972100 0.739700
1.001400 0.741300
1.030600 0.761700
1.059900 0.790200
1.089100 0.833000
1.118400 0.882800
1.147600 0.923400
1.176900 1.019900
1.206100 0.965200
1.235400 0.904100
1.264600 0.872400
1.293900 0.856100
1.323100 0.843500
1.352400 0.829100
1.381600 0.822500
1.410900 0.815400
1.440100 0.807900
1.469400 0.801800
1.498600 0.796700
1.527900 0.788200
1.557100 0.782700
1.586400 0.776800
1.615600 0.771100
1.644900 0.764600
1.674100 0.760000
1.703400 0.755500
1.732600 0.750300
1.761900 0.744500
1.791100 0.739300
1.820400 0.733300
1.849600 0.727000
1.878900 0.719800
1.908100 0.710700
1.937400 0.703500
1.966600 0.696300
1.995900 0.689500
2.025100 0.682800
2.054400 0.676400
2.083600 0.670200
2.112900 0.664100
2.142100 0.658500
2.171400 0.652800
2.200600 0.646300
2.229900 0.637800
2.259100 0.629600
2.288400 0.621400
2.317600 0.613000
2.346900 0.605200
2.376100 0.597100
2.405400 0.589400
2.434600 0.582200
2.463900 0.575400
2.493200 0.576300
2.522400 0.581900
2.551700 0.590500
2.580900 0.599500
2.610200 0.612100
2.639400 0.609800
2.668700 0.604100
2.697900 0.601300
2.727200 0.602300
2.756400 0.605000
2.785700 0.608400
2.814900 0.612300
2.844200 0.614300
2.873400 0.614500
2.902700 0.616300
2.931900 0.618500
2.961200 0.620200
2.990400 0.621700
3.019700 0.623500
3.048900 0.625400
3.078200 0.628400
3.107400 0.632200
3.136700 0.652000
3.165900 0.671200
3.195200 0.678000
3.224400 0.670500
3.253700 0.660900
3.282900 0.652000
3.312200 0.648700
3.341400 0.641700
3.370700 0.634400
3.399900 0.636400
3.429200 0.643000
3.458400 0.641200
3.487700 0.647700
3.516900 0.659200
3.546200 0.676900
3.575400 0.717200
3.604700 0.764900
3.633900 0.843800
3.663200 1.110100
3.692400 1.204500
3.721700 1.280000
3.750900 1.297200
3.780200 1.294300
3.809400 1.297400
3.838700 1.319100
3.867900 1.318000
3.897200 1.322000
3.926400 1.314000
3.955700 1.296400
3.984900 1.271400
4.014200 1.255800
4.043400 1.246700
4.072700 1.233400
4.101900 1.228600
4.131200 1.216000
4.160400 1.205700
4.189700 1.178500
4.218900 1.157000
4.248200 1.115900
4.277400 1.073900
4.306700 1.050200
4.336000 1.024400
4.365200 1.024200
4.394500 1.033100
4.423700 1.040900
4.453000 1.063000
4.482200 1.094900
4.511500 1.142800
4.540700 1.164000
4.570000 1.143700
4.599200 1.125200
4.628500 1.119900
4.657700 1.095400
4.687000 1.133200
4.716200 1.171300
4.745500 1.199800
4.774700 1.175500
4.804000 1.119400
4.833200 0.952500
4.862500 0.811800
4.891700 0.702100
4.921000 0.655400
4.950200 0.623800
4.979500 0.608000
5.008700 0.605300
5.038000 0.611500
5.067200 0.623500
5.096500 0.634100
5.125700 0.652200
5.155000 0.675600
5.184200 0.703000
5.213500 0.715100
5.242700 0.753100
5.272000 0.779600
5.301200 0.820500
5.330500 0.857200
5.359700 0.929500
5.389000 0.982600
5.418200 1.009800
5.447500 1.038000
5.476700 1.043100
5.506000 1.042900
5.535200 1.049700
5.564500 1.068000
5.593700 1.089100
5.623000 1.109400
5.652200 1.133100
5.681500 1.176700
5.710700 1.215300
5.740000 1.257800
5.769200 1.301800
5.798500 1.364300
5.827700 1.440300
5.857000 1.531900
5.886200 1.622500
5.915500 1.670100
5.944700 1.700700
5.974000 1.766900
6.003200 1.817600
6.032500 1.811000
6.061700 1.626200
6.091000 1.484100
6.120200 1.385700
6.149500 1.326200
6.178800 1.288600
6.208000 1.239700
6.237300 1.221100
6.266500 1.194400
6.295800 1.219200
6.325000 1.214200
6.354300 1.210200
6.383500 1.193200
6.412800 1.174700
6.442000 1.132500
6.471300 1.123800
6.500500 1.184400
6.529800 1.439200
6.559000 1.552600
6.588300 1.489100
6.617500 1.519200
6.646800 1.538400
6.676000 1.549700
6.705300 1.570800
6.734500 1.665800
6.763800 1.705200
6.793000 1.760100
6.822300 1.788000
6.851500 1.766600
6.880800 1.862900
6.910000 1.934600
6.939300 1.995600
6.968500 1.754800
6.997800 1.817800
7.027000 1.989300
7.056300 2.066900
7.085500 1.970500
7.114800 1.902400
7.144000 1.889000
7.173300 1.897700
7.202500 1.951400
7.231800 1.988000
7.261000 2.167600
7.290300 2.416200
7.319500 2.863700
7.348800 3.230900
7.378000 3.749900
7.407300 3.921100
7.436500 5.575400
7.465800 5.072500
7.495000 4.357000
7.524300 4.024100
7.553500 4.247300
7.582800 4.581300
7.612000 4.568700
7.641300 4.430500
7.670500 4.755500
7.699800 5.023600
7.729000 5.217800
7.758300 5.235000
7.787500 5.312500
7.816800 5.245600
7.846000 4.804100
7.875300 4.490500
7.904500 3.980500
7.933800 3.541100
7.963000 3.096700
7.992300 2.750600
8.021600 2.473100
8.050800 2.262400
8.080100 2.104300
8.109300 1.960200
8.138600 1.856200
8.167800 1.745400
8.197100 1.648100
8.226300 1.565100
8.255600 1.475700
8.284800 1.426300
8.314100 1.362900
8.343300 1.325600
8.372600 1.358500
8.401800 1.369500
8.431100 1.401500
8.460300 1.328000
8.489600 1.270200
8.518800 1.188900
8.548100 1.138500
8.577300 1.100200
8.606600 1.069700
8.635800 1.043300
8.665100 1.020100
8.694300 0.998900
8.723600 0.980000
8.752800 0.963900
8.782100 0.950200
8.811300 0.935900
8.840600 0.918600
8.869800 0.903400
8.899100 0.890700
8.928300 0.880900
8.957600 0.870400
8.986800 0.858000
9.016100 0.848400
9.045300 0.838600
9.074600 0.830700
9.103800 0.824700
9.133100 0.821400
9.162300 0.818600
9.191600 0.809700
9.220800 0.821500
9.250100 0.801300
9.279300 0.794100
9.308600 0.786800
9.337800 0.783200
9.367100 0.785300
9.396300 0.790200
9.425600 0.795700
9.454800 0.803600
9.484100 0.820800
9.513300 0.830200
9.542600 0.844800
9.571800 0.848600
9.601100 0.839100
9.630300 0.855100
9.659600 0.898000
9.688800 0.950500
9.718100 0.918500
9.747300 0.873100
9.776600 0.908900
9.805800 0.821900
9.835100 0.676800
9.864400 0.578300
9.893600 0.491000
9.922900 0.430600
9.952100 0.343800
9.981400 0.222700
10.010600 0.220300
10.039900 0.219000
10.069100 0.218600
10.098400 0.217900
10.127600 0.217400
10.156900 0.218400
10.186100 0.219400
10.215400 0.220300
10.244600 0.221000
10.273900 0.221700
10.303100 0.227700
10.332400 0.238800
10.361600 0.251200
10.390900 0.259100
10.420100 0.267800
10.449400 0.277800
10.478600 0.295600
10.507900 0.346000
10.537100 0.476100
10.566400 0.630800
10.595600 0.671500
10.624900 0.676700
10.654100 0.715500
10.683400 0.695700
10.712600 0.624300
10.741900 0.617600
10.771100 0.617500
10.800400 0.621900
10.829600 0.629100
10.858900 0.639600
10.888100 0.653100
10.917400 0.669200
10.946600 0.688600
10.975900 0.752900
11.005100 0.774000
11.034400 0.812800
11.063600 0.850900
11.092900 0.848600
11.122100 0.832100
11.151400 0.830300
11.180600 0.831300
11.209900 0.838200
11.239100 0.851300
11.268400 0.867300
11.297600 0.887300
11.326900 0.914700
11.356100 0.959200
11.385400 1.021400
11.414600 1.056600
11.443900 1.091800
11.473100 1.124500
11.502400 1.159000
11.531600 1.198700
11.560900 1.247600
11.590100 1.312900
11.619400 1.343400
11.648700 1.400600
11.677900 1.377900
11.707200 1.405600
11.736400 1.438400
11.765700 1.459200
11.794900 1.490600
11.824200 1.522400
11.853400 1.557300
11.882700 1.605800
11.911900 1.650600
11.941200 1.718600
11.970400 1.805700
11.999700 1.846200
12.028900 1.883400
12.058200 1.904400
12.087400 1.902100
12.116700 1.895500
12.145900 1.886600
12.175200 1.867200
12.204400 1.869500
12.233700 1.884300
12.262900 1.913900
12.292200 1.999400
12.321400 2.298800
12.350700 2.420900
12.379900 2.454500
12.409200 2.511200
12.438400 2.657700
12.467700 2.663500
12.496900 2.651500
12.526200 2.643800
12.555400 2.603100
12.584700 2.607900
12.613900 2.703500
12.643200 2.915600
12.672400 3.126000
12.701700 3.069400
12.730900 2.934600
12.760200 3.085900
12.789400 2.870500
12.818700 3.117700
12.847900 2.473900
12.877200 2.066900
12.906400 1.912300
12.935700 1.815500
12.964900 1.766200
12.994200 1.679600
13.023400 1.686900
13.052700 1.807600
13.081900 2.090900
13.111200 2.385200
13.140400 2.446600
13.169700 2.392900
13.198900 2.141900
13.228200 1.930900
13.257400 1.822300
13.286700 1.755100
13.315900 1.727000
13.345200 1.709300
13.374400 1.715700
13.403700 1.745800
13.432900 1.725700
13.462200 1.705300
13.491500 1.685600
13.520700 1.674000
13.550000 1.667100
13.579200 1.643700
13.608500 1.627700
13.637700 1.619800
13.667000 1.613600
13.696200 1.577100
13.725500 1.557100
13.754700 1.546800
13.784000 1.536500
13.813200 1.531400
13.842500 1.559000
13.871700 1.579800
13.901000 1.627500
13.930200 1.660700
13.959500 1.692200
13.988700 1.733100
14.018000 1.797300
14.047200 1.813400
14.076500 1.857500
14.105700 1.937600
14.135000 1.995100
14.164200 1.994500
14.193500 1.963400
14.222700 1.901300
14.252000 1.901000
14.281200 1.937700
14.310500 2.031800
14.339700 2.127700
14.369000 2.315600
14.398200 2.473000
14.427500 2.733700
14.456700 2.737500
14.486000 2.706800
14.515200 2.791400
14.544500 2.842800
14.573700 2.957400
14.603000 2.943600
14.632200 2.803300
14.661500 2.715400
14.690700 2.609600
14.720000 2.390800
14.749200 2.125600
14.778500 1.905400
14.807700 1.713200
14.837000 1.585300
14.866200 1.491500
14.895500 1.435000
14.924700 1.414300
14.954000 1.447500
14.983200 1.457100
15.012500 1.476300
15.041700 1.493800
15.071000 1.507400
15.100200 1.505300
15.129500 1.495700
15.158700 1.446400
15.188000 1.421500
15.217200 1.429700
15.246500 1.431400
15.275700 1.442000
15.305000 1.462300
15.334300 1.504000
15.363500 1.524700
15.392800 1.539000
15.422000 1.556800
15.451300 1.562800
15.480500 1.578000
15.509800 1.607400
15.539000 1.610600
15.568300 1.597300
15.597500 1.590200
15.626800 1.588300
15.656000 1.587200
15.685300 1.598200
15.714500 1.623200
15.743800 1.673400
15.773000 1.718800
15.802300 1.759800
15.831500 1.743000
15.860800 1.748800
15.890000 1.745100
15.919300 1.765800
15.948500 1.734400
15.977800 1.748100
16.007000 1.696600
16.036300 1.651100
16.065500 1.624100
16.094800 1.615100
16.124000 1.612500
16.153300 1.610100
16.182500 1.624900
16.211800 1.637100
16.241000 1.655200
16.270300 1.631700
16.299500 1.622600
16.328800 1.638300
16.358000 1.648000
16.387300 1.663300
16.416500 1.642600
16.445800 1.605600
16.475000 1.576500
16.504300 1.499600
16.533500 1.427900
16.562800 1.410900
16.592000 1.398300
16.621300 1.404200
16.650500 1.391100
16.679800 1.376000
16.709000 1.374600
16.738300 1.370900
16.767500 1.391900
16.796800 1.420500
16.826000 1.449700
16.855300 1.467900
16.884500 1.513900
16.913800 1.528200
16.943000 1.550300
16.972300 1.580200
17.001500 1.617700
17.030800 1.663500
17.060000 1.690700
17.089300 1.742100
17.118500 1.789000
17.147800 1.851900
17.177100 1.897200
17.206300 1.995400
17.235600 2.052000
17.264800 2.060900
17.294100 2.091800
17.323300 2.106000
17.352600 2.116900
17.381800 2.063900
17.411100 1.948200
17.440300 1.876100
17.469600 1.731900
17.498800 1.662600
17.528100 1.589800
17.557300 1.538200
17.586600 1.486900
17.615800 1.461400
17.645100 1.423100
17.674300 1.386800
17.703600 1.331900
17.732800 1.317000
17.762100 1.328000
17.791300 1.280200
17.820600 1.252400
17.849800 1.229000
17.879100 1.225000
17.908300 1.213200
17.937600 1.221000
17.966800 1.262400
17.996100 1.343400
18.025300 1.432200
18.054600 1.496500
18.083800 1.508000
18.113100 1.499800
18.142300 1.473300
18.171600 1.455500
18.200800 1.484500
18.230100 1.535200
18.259300 1.577100
18.288600 1.623900
18.317800 1.659700
18.347100 1.675500
18.376300 1.690000
18.405600 1.685700
18.434800 1.666900
18.464100 1.637300
18.493300 1.595400
18.522600 1.568500
18.551800 1.554800
18.581100 1.553300
18.610300 1.546800
18.639600 1.551000
18.668800 1.507700
18.698100 1.507100
18.727300 1.494200
18.756600 1.373000
18.785800 1.295300
18.815100 1.264000
18.844300 1.232300
18.873600 1.216400
18.902800 1.186000
18.932100 1.145400
18.961300 1.137300
18.990600 1.163300
19.019900 1.232200
19.049100 1.205600
19.078400 1.207200
19.107600 1.188100
19.136900 1.184700
19.166100 1.188900
19.195400 1.196400
19.224600 1.209400
19.253900 1.246300
19.283100 1.217300
19.312400 1.199100
19.341600 1.185100
19.370900 1.193300
19.400100 1.245000
19.429400 1.275300
19.458600 1.319400
19.487900 1.372600
19.517100 1.436300
19.546400 1.527200
19.575600 1.640700
19.604900 1.753800
19.634100 1.812400
19.663400 1.823100
19.692600 1.790400
19.721900 1.714800
19.751100 1.645000
19.780400 1.594400
19.809600 1.554200
19.838900 1.585600
19.868100 1.630800
19.897400 1.662000
19.926600 1.680700
19.955900 1.721700
19.985100 1.754900
20.014400 1.759500
20.043600 1.749800
20.072900 1.686800
20.102100 1.670500
20.131400 1.669300
20.160600 1.666100
20.189900 1.705100
20.219100 1.753300
20.248400 1.791200
20.277600 1.837200
20.306900 1.890400
20.336100 1.913000
20.365400 1.901700
20.394600 1.928300
20.423900 1.920100
20.453100 1.905300
20.482400 1.907100
20.511600 1.921800
20.540900 1.905300
20.570100 1.858600
20.599400 1.800400
20.628600 1.725200
20.657900 1.670500
20.687100 1.622400
20.716400 1.585900
20.745600 1.577600
20.774900 1.542500
20.804100 1.532800
20.833400 1.532600
20.862700 1.536400
20.891900 1.535600
20.921200 1.542700
20.950400 1.566700
20.979700 1.637300
21.008900 1.649700
21.038200 1.660400
21.067400 1.668200
21.096700 1.670100
21.125900 1.636900
21.155200 1.638300
21.184400 1.591000
21.213700 1.571700
21.242900 1.562500
21.272200 1.570600
21.301400 1.562500
21.330700 1.551600
21.359900 1.557000
21.389200 1.556700
21.418400 1.555600
21.447700 1.600400
21.476900 1.586600
21.506200 1.599500
21.535400 1.590900
21.564700 1.578600
21.593900 1.576300
21.623200 1.569200
21.652400 1.556800
21.681700 1.510000
21.710900 1.476300
21.740200 1.433800
21.769400 1.393900
21.798700 1.340600
21.827900 1.280400
21.857200 1.215800
21.886400 1.160600
21.915700 1.120400
21.944900 1.096000
21.974200 1.071500
22.003400 1.054500
22.032700 1.030400
22.061900 1.013700
22.091200 1.002400
22.120400 0.995100
22.149700 0.997900
22.178900 1.008900
22.208200 1.022400
22.237400 1.035100
22.266700 1.042500
22.295900 1.033200
22.325200 1.007000
22.354400 0.976500
22.383700 0.939300
22.412900 0.904100
22.442200 0.873100
22.471400 0.849200
22.500700 0.832600
22.529900 0.818800
22.559200 0.807200
22.588400 0.804200
22.617700 0.799500
22.647000 0.792900
22.676200 0.784200
22.705500 0.775500
22.734700 0.791100
22.764000 0.798700
22.793200 0.791000
22.822500 0.751900
22.851700 0.702800
22.881000 0.664700
22.910200 0.639000
22.939500 0.614200
22.968700 0.587000
22.998000 0.561600
23.027200 0.540000
23.056500 0.520100
23.085700 0.502900
23.115000 0.489400
23.144200 0.480600
23.173500 0.455900
23.202700 0.439800
23.232000 0.404300
23.261200 0.385900
23.290500 0.368100
23.319700 0.355500
23.349000 0.347900
23.378200 0.338900
23.407500 0.329200
23.436700 0.317000
23.466000 0.307400
23.495200 0.294700
23.524500 0.278000
23.553700 0.264400
23.583000 0.255100
23.612200 0.251600
23.641500 0.227800
23.670700 0.220800
23.700000 0.214000
23.729200 0.207300
23.758500 0.200800
23.787700 0.193700
23.817000 0.187800
23.846200 0.182200
23.875500 0.177300
23.904700 0.172600
23.934000 0.167900
23.963200 0.162900
23.992500 0.157600
24.021700 0.153100
24.051000 0.148900
24.080200 0.144800
24.109500 0.140700
24.138700 0.137000
24.168000 0.133900
24.197200 0.135100
24.226500 0.120500
24.255700 0.118000
24.285000 0.113900
24.314200 0.112300
24.343500 0.110700
24.372700 0.109100
24.402000 0.107400
24.431200 0.105600
24.460500 0.103900
24.489800 0.104000
24.519000 0.103400
24.548300 0.106200
24.577500 0.112400
24.606800 0.107800
24.636000 0.104400
24.665300 0.101800
24.694500 0.099000
24.723800 0.099000
24.753000 0.105800
24.782300 0.095800
24.811500 0.083000
24.840800 0.055000
24.870000 0.041900
24.899300 0.033400
24.928500 0.028100
24.957800 0.024300
24.987000 0.022500
25.016300 0.021800
25.045500 0.019700
25.074800 0.017100
25.104000 0.011400
25.133300 0.001200
25.162500 0.000000
25.191800 0.000000
25.221000 0.000000
25.250300 0.000000
25.279500 0.000000
25.308800 0.000000
25.338000 0.000000
25.367300 0.000000
25.396500 0.000000
25.425800 0.000000
25.455000 0.000000
25.484300 0.000000
25.513500 0.000000
25.542800 0.000000
25.572000 0.000000
25.601300 0.000000
25.630500 0.000000
25.659800 0.000000
25.689000 0.000000
25.718300 0.000000
25.747500 0.000000
25.776800 0.000000
25.806000 0.000000
25.835300 0.000000
25.864500 0.000000
25.893800 0.000000
25.923000 0.000000
25.952300 0.000000
25.981500 0.000000
26.010800 0.000000
26.040000 0.000000
26.069300 0.000000
26.098500 0.000000
26.127800 0.000000
26.157000 0.000000
26.186300 0.000000
26.215500 0.000000
26.244800 0.000000
26.274000 0.000000
26.303300 0.000000
26.332600 0.000000
26.361800 0.000000
26.391100 0.000000
26.420300 0.000000
26.449600 0.000000
26.478800 0.000000
26.508100 0.000000
26.537300 0.000000
26.566600 0.000000
26.595800 0.000000
26.625100 0.000000
26.654300 0.000000
26.683600 0.000000
26.712800 0.000000
26.742100 0.000000
26.771300 0.000000
26.800600 0.000000
26.829800 0.000000
26.859100 0.000000
26.888300 0.000000
26.917600 0.000000
26.946800 0.000000
26.976100 0.000000
27.005300 0.000000
27.034600 0.000000
27.063800 0.000000
27.093100 0.000000
27.122300 0.000000
27.151600 0.000000
27.180800 0.000000
27.210100 0.000000
27.239300 0.000000
27.268600 0.000000
27.297800 0.000000
27.327100 0.000000
27.356300 0.000000
27.385600 0.000000
27.414800 0.000000
27.444100 0.000000
27.473300 0.000000
27.502600 0.000000
27.531800 0.000000
27.561100 0.000000
27.590300 0.000000
27.619600 0.000000
27.648800 0.000000
27.678100 0.000000
27.707300 0.000000
27.736600 0.000000
27.765800 0.000000
27.795100 0.000000
27.824300 0.000000
e
