set title 'mp-20599 - Density of States'
set xlabel 'Energy (eV)'
set ylabel 'DOS (states/eV)'
set grid
set xrange [-10:10]
set yrange [0:243.404]
set xzeroaxis lt -1
set terminal png size 800,600
set output 'mp-20599_dos_gnuplot.png'
plot '-' using 1:2 with lines title 'DOS'
-11.554600 0.000000
-11.537500 0.000000
-11.520400 0.000000
-11.503300 0.000000
-11.486200 0.000000
-11.469100 0.000000
-11.452000 0.000000
-11.434900 0.000000
-11.417800 0.000000
-11.400700 0.000000
-11.383600 0.000000
-11.366600 0.000000
-11.349500 0.000000
-11.332400 0.000000
-11.315300 0.000000
-11.298200 0.000000
-11.281100 0.000000
-11.264000 0.000000
-11.246900 0.000000
-11.229800 0.000000
-11.212700 0.000000
-11.195600 0.000000
-11.178500 0.000000
-11.161400 0.000000
-11.144300 0.000000
-11.127300 0.000000
-11.110200 0.000000
-11.093100 0.000000
-11.076000 0.000000
-11.058900 0.000000
-11.041800 0.000000
-11.024700 0.000000
-11.007600 0.000000
-10.990500 0.000000
-10.973400 0.000000
-10.956300 0.000000
-10.939200 0.000000
-10.922100 0.000000
-10.905000 0.000000
-10.887900 0.000000
-10.870900 0.000000
-10.853800 0.000000
-10.836700 0.000000
-10.819600 0.000000
-10.802500 0.000000
-10.785400 0.000000
-10.768300 0.000000
-10.751200 0.000000
-10.734100 0.000000
-10.717000 0.000000
-10.699900 0.000000
-10.682800 0.000000
-10.665700 0.000000
-10.648600 0.000000
-10.631500 0.000000
-10.614500 0.000000
-10.597400 0.000000
-10.580300 0.000000
-10.563200 0.000000
-10.546100 0.000000
-10.529000 0.000000
-10.511900 0.000000
-10.494800 0.000000
-10.477700 0.000000
-10.460600 0.000000
-10.443500 0.000000
-10.426400 0.000000
-10.409300 0.000000
-10.392200 0.000000
-10.375100 0.000000
-10.358100 0.000000
-10.341000 0.000000
-10.323900 0.000000
-10.306800 0.000000
-10.289700 0.000000
-10.272600 0.000000
-10.255500 0.000000
-10.238400 0.000000
-10.221300 0.000000
-10.204200 0.000000
-10.187100 0.000000
-10.170000 0.000000
-10.152900 0.000000
-10.135800 0.000000
-10.118700 0.000000
-10.101700 0.000000
-10.084600 0.000000
-10.067500 0.000000
-10.050400 0.000000
-10.033300 0.000000
-10.016200 0.000000
-9.999100 4.238000
-9.982000 106.910500
-9.964900 62.851300
-9.947800 73.939600
-9.930700 67.250200
-9.913600 80.408600
-9.896500 124.843400
-9.879400 135.736800
-9.862300 153.535100
-9.845300 154.839900
-9.828200 95.332000
-9.811100 50.186100
-9.794000 107.275600
-9.776900 92.142700
-9.759800 131.723900
-9.742700 147.325200
-9.725600 221.276800
-9.708500 100.935000
-9.691400 117.677200
-9.674300 127.839300
-9.657200 0.000000
-9.640100 0.000000
-9.623000 0.000000
-9.605900 0.000000
-9.588900 0.000000
-9.571800 0.000000
-9.554700 0.000000
-9.537600 0.000000
-9.520500 0.000000
-9.503400 0.000000
-9.486300 0.000000
-9.469200 0.000000
-9.452100 0.000000
-9.435000 0.000000
-9.417900 0.000000
-9.400800 0.000000
-9.383700 0.000000
-9.366600 0.000000
-9.349500 0.000000
-9.332500 0.000000
-9.315400 0.000000
-9.298300 0.000000
-9.281200 0.000000
-9.264100 0.000000
-9.247000 0.000000
-9.229900 0.000000
-9.212800 0.000000
-9.195700 0.000000
-9.178600 0.000000
-9.161500 0.000000
-9.144400 0.000000
-9.127300 0.000000
-9.110200 0.000000
-9.093100 0.000000
-9.076100 0.000000
-9.059000 0.000000
-9.041900 0.000000
-9.024800 0.000000
-9.007700 0.000000
-8.990600 0.000000
-8.973500 0.000000
-8.956400 0.000000
-8.939300 0.000000
-8.922200 0.000000
-8.905100 0.000000
-8.888000 0.000000
-8.870900 0.000000
-8.853800 0.000000
-8.836700 0.000000
-8.819700 0.000000
-8.802600 0.000000
-8.785500 0.000000
-8.768400 0.000000
-8.751300 0.000000
-8.734200 0.000000
-8.717100 0.000000
-8.700000 0.000000
-8.682900 0.000000
-8.665800 0.000000
-8.648700 0.000000
-8.631600 0.000000
-8.614500 0.000000
-8.597400 0.000000
-8.580300 0.000000
-8.563300 0.000000
-8.546200 0.000000
-8.529100 0.000000
-8.512000 0.000000
-8.494900 0.000000
-8.477800 0.000000
-8.460700 0.000000
-8.443600 0.000000
-8.426500 0.000000
-8.409400 0.000000
-8.392300 0.000000
-8.375200 0.000000
-8.358100 0.000000
-8.341000 0.000000
-8.323900 0.000000
-8.306900 0.000000
-8.289800 0.000000
-8.272700 0.000000
-8.255600 0.000000
-8.238500 0.000000
-8.221400 0.000000
-8.204300 0.000000
-8.187200 0.000000
-8.170100 0.000000
-8.153000 0.000000
-8.135900 0.000000
-8.118800 0.000000
-8.101700 0.000000
-8.084600 0.000000
-8.067500 0.000000
-8.050500 0.000000
-8.033400 0.000000
-8.016300 0.000000
-7.999200 0.000000
-7.982100 0.000000
-7.965000 0.000000
-7.947900 0.000000
-7.930800 0.000000
-7.913700 0.000000
-7.896600 0.000000
-7.879500 0.000000
-7.862400 0.000000
-7.845300 0.000000
-7.828200 0.000000
-7.811200 0.000000
-7.794100 0.000000
-7.777000 0.000000
-7.759900 0.000000
-7.742800 0.000000
-7.725700 0.000000
-7.708600 0.000000
-7.691500 0.000000
-7.674400 0.000000
-7.657300 0.000000
-7.640200 0.000000
-7.623100 0.000000
-7.606000 0.000000
-7.588900 0.000000
-7.571800 0.000000
-7.554800 0.000000
-7.537700 0.000000
-7.520600 0.000000
-7.503500 0.000000
-7.486400 0.000000
-7.469300 0.000000
-7.452200 0.000000
-7.435100 0.000000
-7.418000 0.000000
-7.400900 0.000000
-7.383800 0.000000
-7.366700 0.000000
-7.349600 0.000000
-7.332500 0.000000
-7.315400 0.000000
-7.298400 0.000000
-7.281300 0.000000
-7.264200 0.000000
-7.247100 0.000000
-7.230000 0.000000
-7.212900 0.000000
-7.195800 0.000000
-7.178700 0.000000
-7.161600 0.000000
-7.144500 0.000000
-7.127400 0.000000
-7.110300 0.000000
-7.093200 0.000000
-7.076100 0.000000
-7.059000 0.000000
-7.042000 0.000000
-7.024900 0.000000
-7.007800 0.000000
-6.990700 0.000000
-6.973600 0.000000
-6.956500 0.000000
-6.939400 0.000000
-6.922300 0.000000
-6.905200 0.000000
-6.888100 0.000000
-6.871000 0.000000
-6.853900 0.000000
-6.836800 0.000000
-6.819700 0.000000
-6.802600 0.000000
-6.785600 0.000000
-6.768500 0.000000
-6.751400 0.000000
-6.734300 0.000000
-6.717200 0.000000
-6.700100 0.000000
-6.683000 0.000000
-6.665900 0.000000
-6.648800 0.000000
-6.631700 0.000000
-6.614600 0.000000
-6.597500 0.000000
-6.580400 0.000000
-6.563300 0.000000
-6.546200 0.000000
-6.529200 0.000000
-6.512100 0.000000
-6.495000 0.000000
-6.477900 0.000000
-6.460800 0.000000
-6.443700 0.000000
-6.426600 0.000000
-6.409500 0.000000
-6.392400 0.000000
-6.375300 0.000000
-6.358200 0.000000
-6.341100 0.000000
-6.324000 0.000000
-6.306900 0.000000
-6.289800 0.000000
-6.272800 0.000000
-6.255700 0.000000
-6.238600 0.000000
-6.221500 0.000000
-6.204400 0.000000
-6.187300 0.000000
-6.170200 0.000000
-6.153100 0.000000
-6.136000 0.000000
-6.118900 0.000000
-6.101800 0.000000
-6.084700 0.000000
-6.067600 0.000000
-6.050500 0.000000
-6.033400 0.000000
-6.016400 0.000000
-5.999300 0.000000
-5.982200 0.000000
-5.965100 0.000000
-5.948000 0.000000
-5.930900 0.000000
-5.913800 0.000000
-5.896700 0.000000
-5.879600 0.000000
-5.862500 0.000000
-5.845400 0.000000
-5.828300 0.000000
-5.811200 0.000000
-5.794100 0.000000
-5.777000 0.000000
-5.760000 0.000000
-5.742900 0.000000
-5.725800 0.000000
-5.708700 0.000000
-5.691600 0.000000
-5.674500 0.000000
-5.657400 0.000000
-5.640300 0.000000
-5.623200 0.000000
-5.606100 0.000000
-5.589000 0.000000
-5.571900 0.000000
-5.554800 0.000000
-5.537700 0.000000
-5.520600 0.000000
-5.503600 0.000000
-5.486500 0.000000
-5.469400 0.000000
-5.452300 0.000000
-5.435200 0.000000
-5.418100 0.000000
-5.401000 0.000000
-5.383900 0.000000
-5.366800 0.000000
-5.349700 0.000000
-5.332600 0.000000
-5.315500 0.000000
-5.298400 0.000000
-5.281300 0.000000
-5.264200 0.000000
-5.247200 0.000000
-5.230100 0.000000
-5.213000 0.000000
-5.195900 0.000000
-5.178800 0.000000
-5.161700 0.000000
-5.144600 0.000000
-5.127500 0.000000
-5.110400 0.000000
-5.093300 0.000000
-5.076200 0.000000
-5.059100 0.000000
-5.042000 0.000000
-5.024900 0.000000
-5.007800 0.000000
-4.990800 0.000000
-4.973700 0.000000
-4.956600 0.000000
-4.939500 0.000000
-4.922400 0.000000
-4.905300 0.000000
-4.888200 0.000000
-4.871100 0.000000
-4.854000 0.000000
-4.836900 0.000000
-4.819800 0.000000
-4.802700 0.000000
-4.785600 0.000000
-4.768500 0.000000
-4.751500 0.000000
-4.734400 0.000000
-4.717300 0.000000
-4.700200 0.000000
-4.683100 0.000000
-4.666000 0.000000
-4.648900 0.000000
-4.631800 0.000000
-4.614700 0.000000
-4.597600 0.000000
-4.580500 0.000000
-4.563400 0.000000
-4.546300 0.000000
-4.529200 0.000000
-4.512100 0.000000
-4.495100 0.000000
-4.478000 0.000000
-4.460900 0.000000
-4.443800 0.000000
-4.426700 0.000000
-4.409600 0.000000
-4.392500 0.000000
-4.375400 0.000000
-4.358300 0.000000
-4.341200 0.000000
-4.324100 0.000000
-4.307000 0.000000
-4.289900 0.000000
-4.272800 0.000000
-4.255700 0.000000
-4.238700 0.002600
-4.221600 0.033100
-4.204500 0.097800
-4.187400 0.287900
-4.170300 0.209100
-4.153200 0.236900
-4.136100 0.271400
-4.119000 0.306600
-4.101900 0.341400
-4.084800 0.374200
-4.067700 0.394900
-4.050600 0.412500
-4.033500 0.424700
-4.016400 0.438200
-3.999300 0.454400
-3.982300 0.466100
-3.965200 0.487100
-3.948100 0.509200
-3.931000 0.532300
-3.913900 0.556300
-3.896800 0.581200
-3.879700 0.588600
-3.862600 0.597600
-3.845500 0.608200
-3.828400 0.622900
-3.811300 0.636400
-3.794200 0.648600
-3.777100 0.660200
-3.760000 0.672400
-3.742900 0.685900
-3.725900 0.700300
-3.708800 0.715100
-3.691700 0.730600
-3.674600 0.748300
-3.657500 0.766800
-3.640400 0.784700
-3.623300 0.798900
-3.606200 0.809000
-3.589100 0.815900
-3.572000 0.826300
-3.554900 0.837500
-3.537800 0.848600
-3.520700 0.859400
-3.503600 0.869900
-3.486500 0.881200
-3.469500 0.894500
-3.452400 0.908800
-3.435300 0.923000
-3.418200 0.938000
-3.401100 0.953300
-3.384000 0.968700
-3.366900 0.984500
-3.349800 1.000600
-3.332700 1.016600
-3.315600 1.031800
-3.298500 1.042800
-3.281400 1.055900
-3.264300 1.070100
-3.247200 1.085800
-3.230100 1.102900
-3.213100 1.121900
-3.196000 1.143300
-3.178900 1.166200
-3.161800 1.190700
-3.144700 1.216700
-3.127600 1.245100
-3.110500 1.279700
-3.093400 1.324600
-3.076300 1.362800
-3.059200 1.384400
-3.042100 1.380700
-3.025000 1.379000
-3.007900 1.378700
-2.990800 1.379000
-2.973700 1.478200
-2.956700 1.459700
-2.939600 1.417400
-2.922500 1.419700
-2.905400 1.386700
-2.888300 1.380300
-2.871200 1.380900
-2.854100 1.376600
-2.837000 1.370100
-2.819900 1.361900
-2.802800 1.352000
-2.785700 1.345200
-2.768600 1.347200
-2.751500 1.350300
-2.734400 1.359500
-2.717300 1.372500
-2.700300 1.390000
-2.683200 1.425300
-2.666100 1.421400
-2.649000 1.438200
-2.631900 1.452600
-2.614800 1.463900
-2.597700 1.472000
-2.580600 1.469100
-2.563500 1.457800
-2.546400 1.444700
-2.529300 1.436300
-2.512200 1.424500
-2.495100 1.386700
-2.478000 1.270800
-2.460900 1.237300
-2.443900 1.203900
-2.426800 1.201100
-2.409700 1.183000
-2.392600 1.149000
-2.375500 1.096000
-2.358400 1.023100
-2.341300 0.949300
-2.324200 0.900900
-2.307100 0.894700
-2.290000 0.917200
-2.272900 0.914200
-2.255800 0.899200
-2.238700 0.862700
-2.221600 0.896300
-2.204500 0.975000
-2.187500 1.113500
-2.170400 1.286000
-2.153300 1.409800
-2.136200 1.527800
-2.119100 1.654700
-2.102000 1.732400
-2.084900 1.766600
-2.067800 1.810900
-2.050700 1.867200
-2.033600 1.923200
-2.016500 1.970400
-1.999400 1.981700
-1.982300 2.126100
-1.965200 2.115500
-1.948100 2.008400
-1.931100 2.021100
-1.914000 2.052000
-1.896900 2.147500
-1.879800 2.213800
-1.862700 2.287700
-1.845600 2.541000
-1.828500 2.422200
-1.811400 2.349700
-1.794300 2.408500
-1.777200 2.473200
-1.760100 2.553500
-1.743000 2.463400
-1.725900 2.430600
-1.708800 2.281700
-1.691700 2.264400
-1.674700 2.195200
-1.657600 2.175000
-1.640500 2.163000
-1.623400 2.150900
-1.606300 2.160900
-1.589200 2.197300
-1.572100 2.211800
-1.555000 2.253900
-1.537900 2.314700
-1.520800 2.401000
-1.503700 2.524100
-1.486600 2.596900
-1.469500 2.614700
-1.452400 2.662900
-1.435400 2.694400
-1.418300 2.593100
-1.401200 2.590700
-1.384100 2.596100
-1.367000 2.609300
-1.349900 2.623600
-1.332800 2.633800
-1.315700 2.645100
-1.298600 2.669800
-1.281500 2.675100
-1.264400 2.686600
-1.247300 2.700400
-1.230200 2.703000
-1.213100 2.757600
-1.196000 2.791200
-1.179000 2.788000
-1.161900 2.780300
-1.144800 2.788700
-1.127700 2.797400
-1.110600 3.094800
-1.093500 2.962800
-1.076400 2.958800
-1.059300 2.989100
-1.042200 3.029200
-1.025100 3.085000
-1.008000 3.156400
-0.990900 3.242900
-0.973800 3.371100
-0.956700 3.384400
-0.939600 3.466000
-0.922600 3.552400
-0.905500 3.565700
-0.888400 3.605100
-0.871300 3.657400
-0.854200 3.703500
-0.837100 3.779900
-0.820000 3.648400
-0.802900 3.219800
-0.785800 3.188100
-0.768700 3.232400
-0.751600 3.283900
-0.734500 3.475600
-0.717400 3.464100
-0.700300 3.420400
-0.683200 3.503900
-0.666200 3.568200
-0.649100 3.805600
-0.632000 4.326700
-0.614900 4.783500
-0.597800 5.154100
-0.580700 4.640600
-0.563600 4.035800
-0.546500 3.674500
-0.529400 3.413800
-0.512300 3.287600
-0.495200 3.217700
-0.478100 2.969900
-0.461000 2.836900
-0.443900 2.761600
-0.426800 2.685500
-0.409800 2.617700
-0.392700 2.561900
-0.375600 2.514300
-0.358500 2.493800
-0.341400 2.399800
-0.324300 2.351800
-0.307200 2.338600
-0.290100 2.276000
-0.273000 2.216200
-0.255900 2.164900
-0.238800 2.115200
-0.221700 2.069100
-0.204600 2.034900
-0.187500 1.969700
-0.170400 1.912700
-0.153400 1.867000
-0.136300 1.832500
-0.119200 1.853000
-0.102100 1.919500
-0.085000 1.927600
-0.067900 1.879100
-0.050800 1.830400
-0.033700 1.750300
-0.016600 1.978700
0.000500 1.636100
0.017600 1.646800
0.034700 1.826300
0.051800 1.673000
0.068900 1.388700
0.086000 1.118300
0.103000 0.944100
0.120100 0.834600
0.137200 0.752900
0.154300 0.696100
0.171400 0.535900
0.188500 0.377600
0.205600 0.225000
0.222700 0.106400
0.239800 0.027000
0.256900 0.000000
0.274000 0.000000
0.291100 0.000000
0.308200 0.000000
0.325300 0.000000
0.342400 0.000000
0.359400 0.000000
0.376500 0.000000
0.393600 0.000000
0.410700 0.000000
0.427800 0.000000
0.444900 0.000000
0.462000 0.000000
0.479100 0.000000
0.496200 0.000000
0.513300 0.000000
0.530400 0.000000
0.547500 0.000000
0.564600 0.000000
0.581700 0.000000
0.598800 0.000000
0.615800 0.000000
0.632900 0.000000
0.650000 0.000000
0.667100 0.000000
0.684200 0.000000
0.701300 0.000000
0.718400 0.000000
0.735500 0.000000
0.752600 0.000000
0.769700 0.000000
0.786800 0.000000
0.803900 0.000000
0.821000 0.000000
0.838100 0.000000
0.855200 0.000000
0.872200 0.000000
0.889300 0.000000
0.906400 0.000000
0.923500 0.000000
0.940600 0.000000
0.957700 0.000000
0.974800 0.000000
0.991900 0.000000
1.009000 0.000000
1.026100 0.000000
1.043200 0.000000
1.060300 0.000000
1.077400 0.000000
1.094500 0.000000
1.111600 0.000000
1.128600 0.000000
1.145700 0.000000
1.162800 0.000000
1.179900 0.000000
1.197000 0.000000
1.214100 0.000000
1.231200 0.000000
1.248300 0.000000
1.265400 0.000000
1.282500 0.000000
1.299600 0.000000
1.316700 0.000000
1.333800 0.000000
1.350900 0.000000
1.368000 0.000000
1.385000 0.000000
1.402100 0.000000
1.419200 0.000000
1.436300 0.000000
1.453400 0.000000
1.470500 0.000000
1.487600 0.000000
1.504700 0.000000
1.521800 0.000000
1.538900 0.000000
1.556000 0.000000
1.573100 0.000000
1.590200 0.000000
1.607300 0.000000
1.624400 0.000000
1.641400 0.000000
1.658500 0.000000
1.675600 0.000000
1.692700 0.000000
1.709800 0.000000
1.726900 0.000000
1.744000 0.000000
1.761100 0.000000
1.778200 0.000000
1.795300 0.000000
1.812400 0.000000
1.829500 0.000000
1.846600 0.000000
1.863700 0.000000
1.880700 0.000000
1.897800 0.000000
1.914900 0.000000
1.932000 0.000000
1.949100 0.000000
1.966200 0.015300
1.983300 0.048100
2.000400 0.061200
2.017500 0.073400
2.034600 0.084800
2.051700 0.095300
2.068800 0.105000
2.085900 0.113800
2.103000 0.130000
2.120100 0.149600
2.137100 0.166000
2.154200 0.179200
2.171300 0.176000
2.188400 0.183400
2.205500 0.192000
2.222600 0.199300
2.239700 0.209700
2.256800 0.221400
2.273900 0.233600
2.291000 0.246400
2.308100 0.259700
2.325200 0.273500
2.342300 0.287900
2.359400 0.302700
2.376500 0.340400
2.393500 0.365700
2.410600 0.399500
2.427700 0.439400
2.444800 0.483700
2.461900 0.530700
2.479000 0.581000
2.496100 0.637300
2.513200 0.693400
2.530300 0.762600
2.547400 0.845300
2.564500 0.951800
2.581600 1.089000
2.598700 1.219900
2.615800 1.486200
2.632900 1.714300
2.649900 1.844300
2.667000 2.046100
2.684100 2.247100
2.701200 2.226400
2.718300 2.336400
2.735400 2.778100
2.752500 3.345100
2.769600 3.824800
2.786700 4.189500
2.803800 3.031900
2.820900 2.745100
2.838000 2.753200
2.855100 2.786100
2.872200 2.839400
2.889300 2.958100
2.906300 3.020500
2.923400 3.063400
2.940500 3.088000
2.957600 3.109200
2.974700 3.165900
2.991800 3.251600
3.008900 3.638400
3.026000 3.765000
3.043100 3.919100
3.060200 4.146300
3.077300 4.521800
3.094400 4.377200
3.111500 4.288600
3.128600 4.012500
3.145700 3.925500
3.162700 3.908300
3.179800 4.290800
3.196900 5.069700
3.214000 5.740900
3.231100 5.546300
3.248200 5.572500
3.265300 5.371100
3.282400 5.052700
3.299500 5.642200
3.316600 5.962400
3.333700 6.474700
3.350800 7.041500
3.367900 7.884600
3.385000 8.187500
3.402100 8.103200
3.419100 8.561300
3.436200 8.901700
3.453300 9.001200
3.470400 9.178500
3.487500 9.304300
3.504600 9.420900
3.521700 9.553800
3.538800 9.099100
3.555900 8.014400
3.573000 6.664200
3.590100 5.968600
3.607200 5.540100
3.624300 5.813400
3.641400 6.634100
3.658500 6.951300
3.675500 7.033100
3.692600 7.096900
3.709700 7.270500
3.726800 7.440200
3.743900 7.252200
3.761000 7.744000
3.778100 7.354000
3.795200 7.295200
3.812300 8.804200
3.829400 9.031400
3.846500 9.076800
3.863600 10.100200
3.880700 9.346000
3.897800 8.396600
3.914900 7.829100
3.931900 8.218600
3.949000 8.665700
3.966100 9.167800
3.983200 9.877600
4.000300 10.463700
4.017400 11.749900
4.034500 13.512900
4.051600 12.812600
4.068700 16.065400
4.085800 18.209300
4.102900 14.601600
4.120000 11.656400
4.137100 11.383100
4.154200 14.236400
4.171300 15.297900
4.188300 15.834100
4.205400 13.995000
4.222500 14.991900
4.239600 17.108600
4.256700 13.529400
4.273800 12.098000
4.290900 11.745100
4.308000 11.767900
4.325100 11.836400
4.342200 8.823900
4.359300 7.230400
4.376400 6.878200
4.393500 8.093600
4.410600 11.562500
4.427700 14.864800
4.444700 13.801300
4.461800 12.557400
4.478900 11.912000
4.496000 10.295300
4.513100 9.704900
4.530200 9.689500
4.547300 9.104300
4.564400 8.444800
4.581500 7.864300
4.598600 7.603000
4.615700 6.441000
4.632800 5.928900
4.649900 5.671600
4.667000 5.941700
4.684100 6.106500
4.701100 5.931100
4.718200 5.940200
4.735300 6.719400
4.752400 6.281400
4.769500 6.447000
4.786600 7.247800
4.803700 8.359800
4.820800 9.739400
4.837900 10.265500
4.855000 11.989000
4.872100 12.296300
4.889200 12.398400
4.906300 13.670300
4.923400 12.939100
4.940400 9.161300
4.957500 7.847500
4.974600 6.748200
4.991700 6.334400
5.008800 6.101200
5.025900 6.022900
5.043000 6.008600
5.060100 6.251500
5.077200 6.404500
5.094300 6.936600
5.111400 8.355800
5.128500 9.686300
5.145600 12.385000
5.162700 13.776800
5.179800 11.197200
5.196800 10.436000
5.213900 9.349000
5.231000 9.872300
5.248100 10.467100
5.265200 10.831100
5.282300 12.488200
5.299400 12.204100
5.316500 8.866300
5.333600 6.276500
5.350700 4.922200
5.367800 4.563100
5.384900 4.515100
5.402000 4.553300
5.419100 4.216300
5.436200 4.089400
5.453200 4.028000
5.470300 3.960900
5.487400 3.942400
5.504500 3.923800
5.521600 3.933500
5.538700 3.940600
5.555800 3.943500
5.572900 3.867500
5.590000 3.753500
5.607100 3.630800
5.624200 3.482300
5.641300 3.193400
5.658400 3.020000
5.675500 2.819800
5.692600 2.521400
5.709600 2.443800
5.726700 2.343700
5.743800 2.232700
5.760900 2.237400
5.778000 2.359400
5.795100 2.268000
5.812200 2.330500
5.829300 2.407600
5.846400 2.637700
5.863500 2.818000
5.880600 2.944900
5.897700 3.022400
5.914800 3.099200
5.931900 3.256700
5.949000 3.416100
5.966000 3.590800
5.983100 3.633600
6.000200 3.723300
6.017300 3.987300
6.034400 4.484800
6.051500 4.972800
6.068600 5.441900
6.085700 6.287400
6.102800 6.296200
6.119900 5.783500
6.137000 5.528500
6.154100 5.502300
6.171200 5.719400
6.188300 5.646900
6.205400 5.355500
6.222400 4.812900
6.239500 4.440600
6.256600 4.285600
6.273700 4.037600
6.290800 3.705800
6.307900 3.400900
6.325000 3.228100
6.342100 3.233200
6.359200 3.357400
6.376300 3.136300
6.393400 3.260700
6.410500 3.354500
6.427600 3.490300
6.444700 3.694900
6.461800 3.771300
6.478800 3.718400
6.495900 3.545700
6.513000 3.252700
6.530100 2.883600
6.547200 2.899700
6.564300 2.932200
6.581400 2.861400
6.598500 2.827100
6.615600 2.798600
6.632700 2.780700
6.649800 2.761300
6.666900 2.743500
6.684000 2.729600
6.701100 2.702300
6.718200 2.683500
6.735200 2.693200
6.752300 2.691300
6.769400 2.699200
6.786500 2.707800
6.803600 2.710400
6.820700 2.714200
6.837800 2.726300
6.854900 2.746400
6.872000 2.780500
6.889100 2.884200
6.906200 2.966000
6.923300 3.053300
6.940400 3.172400
6.957500 3.248100
6.974600 3.264100
6.991600 3.380400
7.008700 3.459100
7.025800 3.510200
7.042900 3.561000
7.060000 3.629800
7.077100 3.592600
7.094200 3.444600
7.111300 3.348300
7.128400 3.298100
7.145500 3.131400
7.162600 2.914800
7.179700 2.731500
7.196800 2.605100
7.213900 2.496600
7.231000 2.420000
7.248000 2.348900
7.265100 2.296900
7.282200 2.256800
7.299300 2.222000
7.316400 2.193700
7.333500 2.184200
7.350600 2.170100
7.367700 2.311500
7.384800 2.268600
7.401900 2.258800
7.419000 2.279000
7.436100 2.376400
7.453200 2.510800
7.470300 2.642600
7.487400 2.741800
7.504400 2.859900
7.521500 3.103700
7.538600 3.131800
7.555700 3.168300
7.572800 3.233800
7.589900 3.319400
7.607000 3.395600
7.624100 3.411600
7.641200 3.278400
7.658300 3.152900
7.675400 3.081300
7.692500 2.964800
7.709600 2.827400
7.726700 2.703100
7.743800 2.586400
7.760800 2.479600
7.777900 2.387700
7.795000 2.309600
7.812100 2.251900
7.829200 2.209900
7.846300 2.190500
7.863400 2.204500
7.880500 2.116500
7.897600 2.153600
7.914700 2.191800
7.931800 2.210500
7.948900 2.192100
7.966000 2.170600
7.983100 2.145600
8.000200 2.128800
8.017200 2.144800
8.034300 2.230100
8.051400 2.322900
8.068500 2.412400
8.085600 2.494400
8.102700 2.548500
8.119800 2.572500
8.136900 2.611200
8.154000 2.674100
8.171100 2.639300
8.188200 2.581900
8.205300 2.548000
8.222400 2.527200
8.239500 2.514100
8.256500 2.510400
8.273600 2.516600
8.290700 2.528500
8.307800 2.546000
8.324900 2.573300
8.342000 2.629300
8.359100 2.744500
8.376200 2.934000
8.393300 2.774600
8.410400 2.773500
8.427500 2.755300
8.444600 2.719200
8.461700 2.759000
8.478800 2.759200
8.495900 2.790100
8.512900 2.812200
8.530000 2.792000
8.547100 2.753700
8.564200 2.733800
8.581300 2.710700
8.598400 2.644500
8.615500 2.573700
8.632600 2.513900
8.649700 2.485800
8.666800 2.464700
8.683900 2.438400
8.701000 2.291500
8.718100 2.224700
8.735200 2.186200
8.752300 2.157300
8.769300 2.134500
8.786400 2.114000
8.803500 2.100800
8.820600 2.090100
8.837700 2.084800
8.854800 2.081400
8.871900 2.080000
8.889000 2.080400
8.906100 2.089500
8.923200 2.120100
8.940300 2.168700
8.957400 2.217600
8.974500 2.316800
8.991600 2.330800
9.008700 2.333000
9.025700 2.366200
9.042800 2.305600
9.059900 2.293000
9.077000 2.277800
9.094100 2.218100
9.111200 2.175900
9.128300 2.135300
9.145400 2.034900
9.162500 1.947000
9.179600 1.887700
9.196700 1.841000
9.213800 1.798700
9.230900 1.759700
9.248000 1.727600
9.265100 1.704000
9.282100 1.690800
9.299200 1.681400
9.316300 1.678000
9.333400 1.680600
9.350500 1.760700
9.367600 1.887200
9.384700 2.321800
9.401800 2.670000
9.418900 3.140400
9.436000 3.481300
9.453100 3.698300
9.470200 3.821500
9.487300 3.950400
9.504400 3.983000
9.521500 4.061700
9.538500 4.049800
9.555600 3.987200
9.572700 3.849600
9.589800 3.776100
9.606900 3.710200
9.624000 3.640300
9.641100 3.569500
9.658200 3.521600
9.675300 3.468900
9.692400 3.343700
9.709500 3.352600
9.726600 3.298700
9.743700 3.255600
9.760800 3.213000
9.777900 3.139700
9.794900 3.065300
9.812000 2.966400
9.829100 2.880200
9.846200 2.794900
9.863300 2.693400
9.880400 2.595000
9.897500 2.506100
9.914600 2.433700
9.931700 2.378200
9.948800 2.362700
9.965900 2.394400
9.983000 2.446500
10.000100 2.515400
10.017200 2.624800
10.034300 2.675200
10.051300 2.807600
10.068400 2.857000
10.085500 2.907700
10.102600 2.942800
10.119700 2.952800
10.136800 2.943900
10.153900 2.923000
10.171000 2.947700
10.188100 2.933100
10.205200 2.947600
10.222300 2.962900
10.239400 2.969200
10.256500 2.973500
10.273600 2.977400
10.290700 2.973500
10.307700 2.989100
10.324800 3.045000
10.341900 3.061700
10.359000 3.092600
10.376100 3.126500
10.393200 3.160300
10.410300 3.200400
10.427400 3.257400
10.444500 3.378800
10.461600 3.533500
10.478700 3.690200
10.495800 3.829400
10.512900 3.849900
10.530000 3.866100
10.547100 3.892400
10.564100 3.906400
10.581200 3.985300
10.598300 3.975300
10.615400 3.867400
10.632500 3.805500
10.649600 3.762200
10.666700 3.748800
10.683800 3.806300
10.700900 3.849500
10.718000 3.886700
10.735100 3.949700
10.752200 4.006100
10.769300 4.054700
10.786400 4.116400
10.803500 4.088300
10.820500 4.046100
10.837600 4.041900
10.854700 4.042300
10.871800 4.037400
10.888900 4.000400
10.906000 3.824900
10.923100 3.706800
10.940200 3.595100
10.957300 3.542000
10.974400 3.491500
10.991500 3.402000
11.008600 3.265300
11.025700 3.078400
11.042800 2.985800
11.059900 2.925400
11.076900 2.871200
11.094000 2.803400
11.111100 2.858200
11.128200 2.899500
11.145300 3.000200
11.162400 3.149900
11.179500 3.368300
11.196600 3.583800
11.213700 3.787800
11.230800 3.930700
11.247900 3.988500
11.265000 4.002200
11.282100 4.041400
11.299200 4.099600
11.316300 4.134700
11.333300 4.094600
11.350400 4.146100
11.367500 4.184800
11.384600 4.280800
11.401700 4.388300
11.418800 4.582600
11.435900 4.809600
11.453000 4.865500
11.470100 4.942500
11.487200 4.979000
11.504300 4.996100
11.521400 4.973000
11.538500 4.841100
11.555600 4.643300
11.572600 4.472400
11.589700 4.367000
11.606800 4.279600
11.623900 4.115600
11.641000 3.934000
11.658100 3.829200
11.675200 3.765200
11.692300 3.605200
11.709400 3.429800
11.726500 3.320100
11.743600 3.223500
11.760700 3.096100
11.777800 3.029700
11.794900 2.969200
11.812000 2.929700
11.829000 2.885100
11.846100 2.938200
11.863200 2.914000
11.880300 3.023700
11.897400 3.051400
11.914500 3.223000
11.931600 3.736000
11.948700 3.872300
11.965800 4.116400
11.982900 4.286900
12.000000 4.493300
12.017100 4.943900
12.034200 4.977600
12.051300 5.153100
12.068400 5.272000
12.085400 5.430600
12.102500 5.385800
12.119600 5.255900
12.136700 4.879100
12.153800 4.438700
12.170900 4.332800
12.188000 4.273100
12.205100 4.214200
12.222200 4.191300
12.239300 3.856200
12.256400 3.669800
12.273500 3.521900
12.290600 3.574700
12.307700 3.490000
12.324800 3.458300
12.341800 3.426200
12.358900 3.327400
12.376000 3.289300
12.393100 3.336000
12.410200 3.404500
12.427300 3.500800
12.444400 3.816700
12.461500 4.104700
12.478600 4.208700
12.495700 4.216100
12.512800 4.302600
12.529900 4.243200
12.547000 4.059900
12.564100 3.869900
12.581200 3.712400
12.598200 3.486900
12.615300 3.217100
12.632400 3.070900
12.649500 2.945000
12.666600 2.849300
12.683700 2.759300
12.700800 2.607200
12.717900 2.554900
12.735000 2.583800
12.752100 2.688700
12.769200 2.836500
12.786300 3.041500
12.803400 3.248800
12.820500 3.449500
12.837600 3.599000
12.854600 3.867200
12.871700 3.838300
12.888800 3.799900
12.905900 3.787100
12.923000 3.728600
12.940100 3.645500
12.957200 3.548900
12.974300 3.485200
12.991400 3.386000
13.008500 3.192600
13.025600 3.012600
13.042700 2.853900
13.059800 2.718500
13.076900 2.635900
13.094000 2.713200
13.111000 2.552000
13.128100 2.410700
13.145200 2.212200
13.162300 2.094400
13.179400 2.019200
13.196500 1.919100
13.213600 1.848000
13.230700 1.770900
13.247800 1.684600
13.264900 1.607500
13.282000 1.521600
13.299100 1.453000
13.316200 1.394800
13.333300 1.339500
13.350400 1.286900
13.367400 1.235300
13.384500 1.203800
13.401600 1.187000
13.418700 1.162000
13.435800 1.138600
13.452900 1.124000
13.470000 1.119200
13.487100 1.200900
13.504200 1.170000
13.521300 1.093800
13.538400 0.975700
13.555500 0.959100
13.572600 0.942300
13.589700 0.928600
13.606800 0.926500
13.623800 0.925700
13.640900 0.921900
13.658000 0.918000
13.675100 0.923700
13.692200 0.933700
13.709300 0.944000
13.726400 0.955800
13.743500 0.968300
13.760600 0.981300
13.777700 1.009000
13.794800 1.048000
13.811900 1.091200
13.829000 1.137000
13.846100 1.184400
13.863200 1.229800
13.880200 1.260400
13.897300 1.286100
13.914400 1.260800
13.931500 1.275900
13.948600 1.287200
13.965700 1.297100
13.982800 1.297400
13.999900 1.332000
14.017000 1.364200
14.034100 1.379400
14.051200 1.335000
14.068300 1.348300
14.085400 1.400000
14.102500 1.390300
14.119600 1.383900
14.136600 1.373300
14.153700 1.359300
14.170800 1.360100
14.187900 1.381600
14.205000 1.391100
14.222100 1.413300
14.239200 1.438000
14.256300 1.462500
14.273400 1.486800
14.290500 1.511500
14.307600 1.535200
14.324700 1.563500
14.341800 1.595400
14.358900 1.626300
14.376000 1.658000
14.393000 1.690400
14.410100 1.723500
14.427200 1.757600
14.444300 1.841200
14.461400 1.933200
14.478500 2.016000
14.495600 2.116800
14.512700 2.243100
14.529800 2.392300
14.546900 2.690600
14.564000 2.813100
14.581100 2.984400
14.598200 3.128500
14.615300 3.266800
14.632300 3.337600
14.649400 3.332900
14.666500 3.148600
14.683600 3.120300
14.700700 3.132200
14.717800 3.032300
14.734900 3.041700
14.752000 3.133500
14.769100 3.126600
14.786200 3.061200
14.803300 3.056200
14.820400 3.036200
14.837500 3.051100
14.854600 3.068300
14.871700 3.094200
14.888700 3.118500
14.905800 3.146100
14.922900 3.202200
14.940000 3.279500
14.957100 3.411500
14.974200 3.638100
14.991300 3.668400
15.008400 3.917600
15.025500 4.080900
15.042600 4.016600
15.059700 4.001000
15.076800 3.958700
15.093900 3.999500
15.111000 4.036600
15.128100 4.080000
15.145100 4.048200
15.162200 4.055100
15.179300 4.097200
15.196400 4.514800
15.213500 4.579500
15.230600 4.538900
15.247700 4.527400
15.264800 4.503300
15.281900 4.423500
15.299000 4.431600
15.316100 4.389300
15.333200 4.372500
15.350300 4.800700
15.367400 4.530500
15.384500 4.605200
15.401500 4.616200
15.418600 4.500400
15.435700 4.389400
15.452800 4.200800
15.469900 4.243500
15.487000 4.191200
15.504100 4.209000
15.521200 4.169100
15.538300 4.139000
15.555400 4.099500
15.572500 4.097200
15.589600 4.112800
15.606700 4.245000
15.623800 4.362900
15.640900 4.194500
15.657900 4.129000
15.675000 4.097300
15.692100 4.121200
15.709200 4.101200
15.726300 4.043900
15.743400 3.954200
15.760500 3.896900
15.777600 3.812100
15.794700 3.739800
15.811800 3.663600
15.828900 3.595700
15.846000 3.543200
15.863100 3.504400
15.880200 3.491300
15.897300 3.503000
15.914300 3.516900
15.931400 3.507800
15.948500 3.529500
15.965600 3.612500
15.982700 3.618300
15.999800 3.593600
16.016900 3.607500
16.034000 3.730200
16.051100 4.071100
16.068200 4.010200
16.085300 3.979000
16.102400 3.942200
16.119500 3.968400
16.136600 3.942500
16.153700 3.958400
16.170700 4.003500
16.187800 3.991200
16.204900 3.941600
16.222000 3.931900
16.239100 3.949800
16.256200 3.987100
16.273300 4.033800
16.290400 4.089400
16.307500 4.165800
16.324600 4.175700
16.341700 4.326000
16.358800 4.261300
16.375900 4.196100
16.393000 4.258800
16.410100 4.372100
16.427100 4.495600
16.444200 4.331600
16.461300 4.163600
16.478400 4.044400
16.495500 3.922500
16.512600 3.777600
16.529700 3.736400
16.546800 3.666800
16.563900 3.641700
16.581000 3.630700
16.598100 3.638700
16.615200 3.665900
16.632300 3.698900
16.649400 3.732400
16.666500 3.755900
16.683500 3.763300
16.700600 3.752400
16.717700 3.754500
16.734800 3.772600
16.751900 4.479800
16.769000 4.054300
16.786100 3.864200
16.803200 3.943700
16.820300 3.988200
16.837400 4.025100
16.854500 4.069600
16.871600 4.136700
16.888700 4.128700
16.905800 4.137700
16.922900 4.163100
16.939900 4.202800
16.957000 4.258100
16.974100 4.333400
16.991200 4.371600
17.008300 4.255200
17.025400 4.215000
17.042500 4.198200
17.059600 4.188300
17.076700 4.156300
17.093800 4.105600
17.110900 4.077500
17.128000 4.066000
17.145100 4.115200
17.162200 4.175800
17.179300 4.131500
17.196300 3.950400
17.213400 3.897600
17.230500 3.870200
17.247600 3.837700
17.264700 3.862700
17.281800 3.966000
17.298900 4.080500
17.316000 4.218000
17.333100 4.344400
17.350200 4.406800
17.367300 4.376000
17.384400 4.293400
17.401500 4.302900
17.418600 4.272700
17.435700 4.205100
17.452700 4.132200
17.469800 4.052200
17.486900 4.029500
17.504000 3.976100
17.521100 3.853900
17.538200 3.789800
17.555300 3.750400
17.572400 3.668400
17.589500 3.569000
17.606600 3.501800
17.623700 3.531700
17.640800 3.549800
17.657900 3.549500
17.675000 3.537900
17.692100 3.531800
17.709100 3.525400
17.726200 3.527300
17.743300 3.552800
17.760400 3.545800
17.777500 3.556100
17.794600 3.579000
17.811700 3.663700
17.828800 3.730900
17.845900 4.044300
17.863000 4.421400
17.880100 4.949800
17.897200 4.450700
17.914300 4.312700
17.931400 4.181100
17.948400 4.130300
17.965500 4.036600
17.982600 3.950100
17.999700 3.948800
18.016800 3.797200
18.033900 3.709000
18.051000 3.667600
18.068100 3.662500
18.085200 3.626100
18.102300 3.661700
18.119400 3.697200
18.136500 3.744700
18.153600 3.726800
18.170700 3.742500
18.187800 3.741100
18.204800 3.751500
18.221900 3.790900
18.239000 3.866200
18.256100 3.977400
18.273200 4.110200
18.290300 4.161500
18.307400 4.237500
18.324500 4.203000
18.341600 4.163100
18.358700 4.167200
18.375800 4.201900
18.392900 4.264500
18.410000 4.251100
18.427100 4.225400
18.444200 4.132000
18.461200 4.041600
18.478300 4.019400
18.495400 4.034300
18.512500 4.014000
18.529600 4.008600
18.546700 3.955000
18.563800 3.977100
18.580900 3.988900
18.598000 3.999800
18.615100 4.009800
18.632200 4.045800
18.649300 4.145700
18.666400 4.245000
18.683500 4.242000
18.700600 4.325800
18.717600 4.363700
18.734700 4.281900
18.751800 4.190700
18.768900 4.030800
18.786000 3.984400
18.803100 3.944000
18.820200 3.918500
18.837300 3.886600
18.854400 3.944900
18.871500 3.897700
18.888600 3.836300
18.905700 3.786300
18.922800 3.783300
18.939900 3.789600
18.957000 3.808600
18.974000 3.834400
18.991100 3.868900
19.008200 3.916000
19.025300 3.925300
19.042400 3.977000
19.059500 4.063600
19.076600 4.097700
19.093700 4.145400
19.110800 4.207500
19.127900 4.194500
19.145000 4.159400
19.162100 4.104800
19.179200 4.131900
19.196300 4.192700
19.213400 4.231400
19.230400 4.243000
19.247500 4.314500
19.264600 4.327400
19.281700 4.305700
19.298800 4.249000
19.315900 4.197900
19.333000 4.143600
19.350100 4.097100
19.367200 4.070600
19.384300 4.049900
19.401400 4.010500
19.418500 3.983900
19.435600 3.972800
19.452700 4.006700
19.469800 4.000900
19.486800 3.998400
19.503900 4.000200
19.521000 4.041000
19.538100 4.053800
19.555200 4.045700
19.572300 4.037000
19.589400 4.030800
19.606500 3.974200
19.623600 3.931100
19.640700 3.876900
19.657800 3.824600
19.674900 3.807800
19.692000 3.816000
19.709100 3.841600
19.726200 3.878500
19.743200 3.642200
19.760300 3.408300
19.777400 3.345800
19.794500 3.309000
19.811600 3.283300
19.828700 3.269200
19.845800 3.295100
19.862900 3.334300
19.880000 3.398200
19.897100 3.488800
19.914200 3.601400
19.931300 3.735000
19.948400 3.860300
19.965500 3.985800
19.982600 4.068500
19.999600 4.044600
20.016700 3.898700
20.033800 3.612000
20.050900 3.429300
20.068000 3.332700
20.085100 3.205700
20.102200 3.103500
20.119300 3.008600
20.136400 2.916000
20.153500 2.815800
20.170600 2.728300
20.187700 2.650900
20.204800 2.573000
20.221900 2.483400
20.239000 2.396400
20.256000 2.237400
20.273100 2.020600
20.290200 1.874000
20.307300 1.759500
20.324400 1.672400
20.341500 1.629300
20.358600 1.600700
20.375700 1.546800
20.392800 1.511800
20.409900 1.477400
20.427000 1.447200
20.444100 1.422200
20.461200 1.420800
20.478300 1.407100
20.495400 1.391300
20.512400 1.362700
20.529500 1.296400
20.546600 1.229400
20.563700 1.169200
20.580800 1.114200
20.597900 1.061700
20.615000 1.012200
20.632100 0.966000
20.649200 0.935400
20.666300 0.911900
20.683400 0.887400
20.700500 0.861500
20.717600 0.834000
20.734700 0.793000
20.751800 0.718600
20.768800 0.628600
20.785900 0.549200
20.803000 0.475200
20.820100 0.407100
20.837200 0.346400
20.854300 0.298200
20.871400 0.262200
20.888500 0.231600
20.905600 0.201700
20.922700 0.172500
20.939800 0.144100
20.956900 0.116100
20.974000 0.088500
20.991100 0.061300
21.008100 0.038400
21.025200 0.021800
21.042300 0.010000
21.059400 0.002700
21.076500 0.000000
21.093600 0.000000
21.110700 0.000000
21.127800 0.000000
21.144900 0.000000
21.162000 0.000000
21.179100 0.000000
21.196200 0.000000
21.213300 0.000000
21.230400 0.000000
21.247500 0.000000
21.264500 0.000000
21.281600 0.000000
21.298700 0.000000
21.315800 0.000000
21.332900 0.000000
21.350000 0.000000
21.367100 0.000000
21.384200 0.000000
21.401300 0.000000
21.418400 0.000000
21.435500 0.000000
21.452600 0.000000
21.469700 0.000000
21.486800 0.000000
21.503900 0.000000
21.520900 0.000000
21.538000 0.000000
21.555100 0.000000
21.572200 0.000000
21.589300 0.000000
21.606400 0.000000
21.623500 0.000000
21.640600 0.000000
21.657700 0.000000
21.674800 0.000000
21.691900 0.000000
21.709000 0.000000
21.726100 0.000000
21.743200 0.000000
21.760300 0.000000
21.777300 0.000000
21.794400 0.000000
21.811500 0.000000
21.828600 0.000000
21.845700 0.000000
21.862800 0.000000
21.879900 0.000000
21.897000 0.000000
21.914100 0.000000
21.931200 0.000000
21.948300 0.000000
21.965400 0.000000
21.982500 0.000000
21.999600 0.000000
22.016700 0.000000
22.033700 0.000000
22.050800 0.000000
22.067900 0.000000
22.085000 0.000000
22.102100 0.000000
22.119200 0.000000
22.136300 0.000000
22.153400 0.000000
22.170500 0.000000
22.187600 0.000000
22.204700 0.000000
22.221800 0.000000
22.238900 0.000000
22.256000 0.000000
22.273100 0.000000
22.290100 0.000000
22.307200 0.000000
22.324300 0.000000
22.341400 0.000000
22.358500 0.000000
22.375600 0.000000
22.392700 0.000000
22.409800 0.000000
22.426900 0.000000
22.444000 0.000000
22.461100 0.000000
22.478200 0.000000
22.495300 0.000000
22.512400 0.000000
22.529500 0.000000
22.546500 0.000000
22.563600 0.000000
22.580700 0.000000
22.597800 0.000000
22.614900 0.000000
22.632000 0.000000
e
