set title 'mp-74 - Density of States'
set xlabel 'Energy (eV)'
set ylabel 'DOS (states/eV)'
set grid
set xrange [-10:10]
set yrange [0:3.402]
set xzeroaxis lt -1
set terminal png size 800,600
set output 'mp-74_dos_gnuplot.png'
plot '-' using 1:2 with lines title 'DOS'
-44.059100 0.000000
-44.014300 0.000000
-43.969600 0.000000
-43.924800 0.000000
-43.880000 0.000000
-43.835300 0.000000
-43.790500 0.000000
-43.745700 0.000000
-43.701000 0.000000
-43.656200 0.000000
-43.611400 0.000000
-43.566700 0.000000
-43.521900 0.000000
-43.477100 0.000000
-43.432400 0.000000
-43.387600 0.000000
-43.342800 0.000000
-43.298100 0.000000
-43.253300 0.000000
-43.208500 0.000000
-43.163800 0.000000
-43.119000 0.000000
-43.074200 0.000000
-43.029500 0.000000
-42.984700 0.000000
-42.940000 0.000000
-42.895200 0.000000
-42.850400 0.000000
-42.805700 0.000000
-42.760900 0.000000
-42.716100 0.000000
-42.671400 0.000000
-42.626600 0.000000
-42.581800 0.000000
-42.537100 0.000000
-42.492300 0.000000
-42.447500 0.000000
-42.402800 0.000000
-42.358000 0.000000
-42.313200 0.000000
-42.268500 0.000000
-42.223700 0.000000
-42.178900 0.000000
-42.134200 0.000000
-42.089400 0.000000
-42.044600 0.000000
-41.999900 0.000000
-41.955100 0.000000
-41.910300 0.000000
-41.865600 0.000000
-41.820800 0.000000
-41.776100 0.000000
-41.731300 0.000000
-41.686500 0.000000
-41.641800 0.000000
-41.597000 0.000000
-41.552200 0.000000
-41.507500 0.000000
-41.462700 0.000000
-41.417900 0.000000
-41.373200 0.000000
-41.328400 0.000000
-41.283600 0.000000
-41.238900 0.000000
-41.194100 0.000000
-41.149300 0.000000
-41.104600 0.000000
-41.059800 0.000000
-41.015000 0.000000
-40.970300 0.000000
-40.925500 0.000000
-40.880700 0.000000
-40.836000 0.000000
-40.791200 0.000000
-40.746500 0.000000
-40.701700 0.000000
-40.656900 0.000000
-40.612200 0.000000
-40.567400 0.000000
-40.522600 0.000000
-40.477900 0.000000
-40.433100 0.000000
-40.388300 0.000000
-40.343600 0.000000
-40.298800 0.000000
-40.254000 0.000000
-40.209300 0.000000
-40.164500 0.000000
-40.119700 0.000000
-40.075000 0.000000
-40.030200 0.000000
-39.985400 0.702000
-39.940700 3.920200
-39.895900 8.191200
-39.851100 12.946600
-39.806400 7.559700
-39.761600 2.894200
-39.716800 5.517400
-39.672100 6.545700
-39.627300 7.289000
-39.582600 7.941300
-39.537800 15.418000
-39.493000 16.300800
-39.448300 17.599500
-39.403500 11.044200
-39.358700 5.534700
-39.314000 0.000000
-39.269200 0.000000
-39.224400 0.000000
-39.179700 0.000000
-39.134900 0.000000
-39.090100 0.000000
-39.045400 0.000000
-39.000600 0.000000
-38.955800 0.000000
-38.911100 0.000000
-38.866300 0.000000
-38.821500 0.000000
-38.776800 0.000000
-38.732000 0.000000
-38.687200 0.000000
-38.642500 0.000000
-38.597700 0.000000
-38.552900 0.000000
-38.508200 0.000000
-38.463400 0.000000
-38.418700 0.000000
-38.373900 0.000000
-38.329100 0.000000
-38.284400 0.000000
-38.239600 0.000000
-38.194800 0.000000
-38.150100 0.000000
-38.105300 0.000000
-38.060500 0.000000
-38.015800 0.000000
-37.971000 0.000000
-37.926200 0.000000
-37.881500 0.000000
-37.836700 0.000000
-37.791900 0.000000
-37.747200 0.000000
-37.702400 0.000000
-37.657600 0.000000
-37.612900 0.000000
-37.568100 0.000000
-37.523300 0.000000
-37.478600 0.000000
-37.433800 0.000000
-37.389100 0.000000
-37.344300 0.000000
-37.299500 0.000000
-37.254800 0.000000
-37.210000 0.000000
-37.165200 0.000000
-37.120500 0.000000
-37.075700 0.000000
-37.030900 0.000000
-36.986200 0.000000
-36.941400 0.000000
-36.896600 0.000000
-36.851900 0.000000
-36.807100 0.000000
-36.762300 0.000000
-36.717600 0.000000
-36.672800 0.000000
-36.628000 0.000000
-36.583300 0.000000
-36.538500 0.000000
-36.493700 0.000000
-36.449000 0.000000
-36.404200 0.000000
-36.359400 0.000000
-36.314700 0.000000
-36.269900 0.000000
-36.225200 0.000000
-36.180400 0.000000
-36.135600 0.000000
-36.090900 0.000000
-36.046100 0.000000
-36.001300 0.000000
-35.956600 0.000000
-35.911800 0.000000
-35.867000 0.000000
-35.822300 0.000000
-35.777500 0.000000
-35.732700 0.000000
-35.688000 0.000000
-35.643200 0.000000
-35.598400 0.000000
-35.553700 0.000000
-35.508900 0.000000
-35.464100 0.000000
-35.419400 0.000000
-35.374600 0.000000
-35.329800 0.000000
-35.285100 0.000000
-35.240300 0.000000
-35.195500 0.000000
-35.150800 0.000000
-35.106000 0.000000
-35.061300 0.000000
-35.016500 0.000000
-34.971700 0.000000
-34.927000 0.000000
-34.882200 0.000000
-34.837400 0.000000
-34.792700 0.000000
-34.747900 0.000000
-34.703100 0.000000
-34.658400 0.000000
-34.613600 0.000000
-34.568800 0.000000
-34.524100 0.000000
-34.479300 0.000000
-34.434500 0.000000
-34.389800 0.000000
-34.345000 0.000000
-34.300200 0.000000
-34.255500 0.000000
-34.210700 0.000000
-34.165900 0.000000
-34.121200 0.000000
-34.076400 0.000000
-34.031700 0.000000
-33.986900 0.000000
-33.942100 0.000000
-33.897400 0.000000
-33.852600 0.000000
-33.807800 0.000000
-33.763100 0.000000
-33.718300 0.000000
-33.673500 0.000000
-33.628800 0.000000
-33.584000 0.000000
-33.539200 0.000000
-33.494500 0.000000
-33.449700 0.000000
-33.404900 0.000000
-33.360200 0.000000
-33.315400 0.000000
-33.270600 0.000000
-33.225900 0.000000
-33.181100 0.000000
-33.136300 0.000000
-33.091600 0.000000
-33.046800 0.000000
-33.002000 0.000000
-32.957300 0.000000
-32.912500 0.000000
-32.867800 0.000000
-32.823000 0.000000
-32.778200 0.000000
-32.733500 0.000000
-32.688700 0.000000
-32.643900 0.000000
-32.599200 0.000000
-32.554400 0.000000
-32.509600 0.000000
-32.464900 0.000000
-32.420100 0.000000
-32.375300 0.000000
-32.330600 0.000000
-32.285800 0.000000
-32.241000 0.000000
-32.196300 0.000000
-32.151500 0.000000
-32.106700 0.000000
-32.062000 0.000000
-32.017200 0.000000
-31.972400 0.000000
-31.927700 0.000000
-31.882900 0.000000
-31.838100 0.000000
-31.793400 0.000000
-31.748600 0.000000
-31.703900 0.000000
-31.659100 0.000000
-31.614300 0.000000
-31.569600 0.000000
-31.524800 0.000000
-31.480000 0.000000
-31.435300 0.000000
-31.390500 0.000000
-31.345700 0.000000
-31.301000 0.000000
-31.256200 0.000000
-31.211400 0.000000
-31.166700 0.000000
-31.121900 0.000000
-31.077100 0.000000
-31.032400 0.000000
-30.987600 0.000000
-30.942800 0.000000
-30.898100 0.000000
-30.853300 0.000000
-30.808500 0.000000
-30.763800 0.000000
-30.719000 0.000000
-30.674300 0.000000
-30.629500 0.000000
-30.584700 0.000000
-30.540000 0.000000
-30.495200 0.000000
-30.450400 0.000000
-30.405700 0.000000
-30.360900 0.000000
-30.316100 0.000000
-30.271400 0.000000
-30.226600 0.000000
-30.181800 0.000000
-30.137100 0.000000
-30.092300 0.000000
-30.047500 0.000000
-30.002800 0.000000
-29.958000 0.000000
-29.913200 0.000000
-29.868500 0.000000
-29.823700 0.000000
-29.778900 0.000000
-29.734200 0.000000
-29.689400 0.000000
-29.644600 0.000000
-29.599900 0.000000
-29.555100 0.000000
-29.510400 0.000000
-29.465600 0.000000
-29.420800 0.000000
-29.376100 0.000000
-29.331300 0.000000
-29.286500 0.000000
-29.241800 0.000000
-29.197000 0.000000
-29.152200 0.000000
-29.107500 0.000000
-29.062700 0.000000
-29.017900 0.000000
-28.973200 0.000000
-28.928400 0.000000
-28.883600 0.000000
-28.838900 0.000000
-28.794100 0.000000
-28.749300 0.000000
-28.704600 0.000000
-28.659800 0.000000
-28.615000 0.000000
-28.570300 0.000000
-28.525500 0.000000
-28.480700 0.000000
-28.436000 0.000000
-28.391200 0.000000
-28.346500 0.000000
-28.301700 0.000000
-28.256900 0.000000
-28.212200 0.000000
-28.167400 0.000000
-28.122600 0.000000
-28.077900 0.000000
-28.033100 0.000000
-27.988300 0.000000
-27.943600 0.000000
-27.898800 0.000000
-27.854000 0.000000
-27.809300 0.000000
-27.764500 0.000000
-27.719700 0.000000
-27.675000 0.000000
-27.630200 0.000000
-27.585400 0.000000
-27.540700 0.000000
-27.495900 0.000000
-27.451100 0.000000
-27.406400 0.000000
-27.361600 0.000000
-27.316900 0.000000
-27.272100 0.000000
-27.227300 0.000000
-27.182600 0.000000
-27.137800 0.000000
-27.093000 0.000000
-27.048300 0.000000
-27.003500 0.000000
-26.958700 0.000000
-26.914000 0.000000
-26.869200 0.000000
-26.824400 0.000000
-26.779700 0.000000
-26.734900 0.000000
-26.690100 0.000000
-26.645400 0.000000
-26.600600 0.000000
-26.555800 0.000000
-26.511100 0.000000
-26.466300 0.000000
-26.421500 0.000000
-26.376800 0.000000
-26.332000 0.000000
-26.287200 0.000000
-26.242500 0.000000
-26.197700 0.000000
-26.153000 0.000000
-26.108200 0.000000
-26.063400 0.000000
-26.018700 0.000000
-25.973900 0.000000
-25.929100 0.000000
-25.884400 0.000000
-25.839600 0.000000
-25.794800 0.000000
-25.750100 0.000000
-25.705300 0.000000
-25.660500 0.000000
-25.615800 0.000000
-25.571000 0.000000
-25.526200 0.000000
-25.481500 0.000000
-25.436700 0.000000
-25.391900 0.000000
-25.347200 0.000000
-25.302400 0.000000
-25.257600 0.000000
-25.212900 0.000000
-25.168100 0.000000
-25.123400 0.000000
-25.078600 0.000000
-25.033800 0.000000
-24.989100 0.000000
-24.944300 0.000000
-24.899500 0.000000
-24.854800 0.000000
-24.810000 0.000000
-24.765200 0.000000
-24.720500 0.000000
-24.675700 0.000000
-24.630900 0.000000
-24.586200 0.000000
-24.541400 0.000000
-24.496600 0.000000
-24.451900 0.000000
-24.407100 0.000000
-24.362300 0.000000
-24.317600 0.000000
-24.272800 0.000000
-24.228000 0.000000
-24.183300 0.000000
-24.138500 0.000000
-24.093700 0.000000
-24.049000 0.000000
-24.004200 0.000000
-23.959500 0.000000
-23.914700 0.000000
-23.869900 0.000000
-23.825200 0.000000
-23.780400 0.000000
-23.735600 0.000000
-23.690900 0.000000
-23.646100 0.000000
-23.601300 0.000000
-23.556600 0.000000
-23.511800 0.000000
-23.467000 0.000000
-23.422300 0.000000
-23.377500 0.000000
-23.332700 0.000000
-23.288000 0.000000
-23.243200 0.000000
-23.198400 0.000000
-23.153700 0.000000
-23.108900 0.000000
-23.064100 0.000000
-23.019400 0.000000
-22.974600 0.000000
-22.929800 0.000000
-22.885100 0.000000
-22.840300 0.000000
-22.795600 0.000000
-22.750800 0.000000
-22.706000 0.000000
-22.661300 0.000000
-22.616500 0.000000
-22.571700 0.000000
-22.527000 0.000000
-22.482200 0.000000
-22.437400 0.000000
-22.392700 0.000000
-22.347900 0.000000
-22.303100 0.000000
-22.258400 0.000000
-22.213600 0.000000
-22.168800 0.000000
-22.124100 0.000000
-22.079300 0.000000
-22.034500 0.000000
-21.989800 0.000000
-21.945000 0.000000
-21.900200 0.000000
-21.855500 0.000000
-21.810700 0.000000
-21.766000 0.000000
-21.721200 0.000000
-21.676400 0.000000
-21.631700 0.000000
-21.586900 0.000000
-21.542100 0.000000
-21.497400 0.000000
-21.452600 0.000000
-21.407800 0.000000
-21.363100 0.000000
-21.318300 0.000000
-21.273500 0.000000
-21.228800 0.000000
-21.184000 0.000000
-21.139200 0.000000
-21.094500 0.000000
-21.049700 0.000000
-21.004900 0.000000
-20.960200 0.000000
-20.915400 0.000000
-20.870600 0.000000
-20.825900 0.000000
-20.781100 0.000000
-20.736300 0.000000
-20.691600 0.000000
-20.646800 0.000000
-20.602100 0.000000
-20.557300 0.000000
-20.512500 0.000000
-20.467800 0.000000
-20.423000 0.000000
-20.378200 0.000000
-20.333500 0.000000
-20.288700 0.000000
-20.243900 0.000000
-20.199200 0.000000
-20.154400 0.000000
-20.109600 0.000000
-20.064900 0.000000
-20.020100 0.000000
-19.975300 0.000000
-19.930600 0.000000
-19.885800 0.000000
-19.841000 0.000000
-19.796300 0.000000
-19.751500 0.000000
-19.706700 0.000000
-19.662000 0.000000
-19.617200 0.000000
-19.572400 0.000000
-19.527700 0.000000
-19.482900 0.000000
-19.438200 0.000000
-19.393400 0.000000
-19.348600 0.000000
-19.303900 0.000000
-19.259100 0.000000
-19.214300 0.000000
-19.169600 0.000000
-19.124800 0.000000
-19.080000 0.000000
-19.035300 0.000000
-18.990500 0.000000
-18.945700 0.000000
-18.901000 0.000000
-18.856200 0.000000
-18.811400 0.000000
-18.766700 0.000000
-18.721900 0.000000
-18.677100 0.000000
-18.632400 0.000000
-18.587600 0.000000
-18.542800 0.000000
-18.498100 0.000000
-18.453300 0.000000
-18.408600 0.000000
-18.363800 0.000000
-18.319000 0.000000
-18.274300 0.000000
-18.229500 0.000000
-18.184700 0.000000
-18.140000 0.000000
-18.095200 0.000000
-18.050400 0.000000
-18.005700 0.000000
-17.960900 0.000000
-17.916100 0.000000
-17.871400 0.000000
-17.826600 0.000000
-17.781800 0.000000
-17.737100 0.000000
-17.692300 0.000000
-17.647500 0.000000
-17.602800 0.000000
-17.558000 0.000000
-17.513200 0.000000
-17.468500 0.000000
-17.423700 0.000000
-17.378900 0.000000
-17.334200 0.000000
-17.289400 0.000000
-17.244700 0.000000
-17.199900 0.000000
-17.155100 0.000000
-17.110400 0.000000
-17.065600 0.000000
-17.020800 0.000000
-16.976100 0.000000
-16.931300 0.000000
-16.886500 0.000000
-16.841800 0.000000
-16.797000 0.000000
-16.752200 0.000000
-16.707500 0.000000
-16.662700 0.000000
-16.617900 0.000000
-16.573200 0.000000
-16.528400 0.000000
-16.483600 0.000000
-16.438900 0.000000
-16.394100 0.000000
-16.349300 0.000000
-16.304600 0.000000
-16.259800 0.000000
-16.215000 0.000000
-16.170300 0.000000
-16.125500 0.000000
-16.080800 0.000000
-16.036000 0.000000
-15.991200 0.000000
-15.946500 0.000000
-15.901700 0.000000
-15.856900 0.000000
-15.812200 0.000000
-15.767400 0.000000
-15.722600 0.000000
-15.677900 0.000000
-15.633100 0.000000
-15.588300 0.000000
-15.543600 0.000000
-15.498800 0.000000
-15.454000 0.000000
-15.409300 0.000000
-15.364500 0.000000
-15.319700 0.000000
-15.275000 0.000000
-15.230200 0.000000
-15.185400 0.000000
-15.140700 0.000000
-15.095900 0.000000
-15.051200 0.000000
-15.006400 0.000000
-14.961600 0.000000
-14.916900 0.000000
-14.872100 0.000000
-14.827300 0.000000
-14.782600 0.000000
-14.737800 0.000000
-14.693000 0.000000
-14.648300 0.000000
-14.603500 0.000000
-14.558700 0.000000
-14.514000 0.000000
-14.469200 0.000000
-14.424400 0.000000
-14.379700 0.000000
-14.334900 0.000000
-14.290100 0.000000
-14.245400 0.000000
-14.200600 0.000000
-14.155800 0.000000
-14.111100 0.000000
-14.066300 0.000000
-14.021500 0.000000
-13.976800 0.000000
-13.932000 0.000000
-13.887300 0.000000
-13.842500 0.000000
-13.797700 0.000000
-13.753000 0.000000
-13.708200 0.000000
-13.663400 0.000000
-13.618700 0.000000
-13.573900 0.000000
-13.529100 0.000000
-13.484400 0.000000
-13.439600 0.000000
-13.394800 0.000000
-13.350100 0.000000
-13.305300 0.000000
-13.260500 0.000000
-13.215800 0.000000
-13.171000 0.000000
-13.126200 0.000000
-13.081500 0.000000
-13.036700 0.000000
-12.991900 0.000000
-12.947200 0.000000
-12.902400 0.000000
-12.857700 0.000000
-12.812900 0.000000
-12.768100 0.000000
-12.723400 0.000000
-12.678600 0.000000
-12.633800 0.000000
-12.589100 0.000000
-12.544300 0.000000
-12.499500 0.000000
-12.454800 0.000000
-12.410000 0.000000
-12.365200 0.000000
-12.320500 0.000000
-12.275700 0.000000
-12.230900 0.000000
-12.186200 0.000000
-12.141400 0.000000
-12.096600 0.000000
-12.051900 0.000000
-12.007100 0.000000
-11.962300 0.000000
-11.917600 0.000000
-11.872800 0.000000
-11.828000 0.000000
-11.783300 0.000000
-11.738500 0.000000
-11.693800 0.000000
-11.649000 0.000000
-11.604200 0.000000
-11.559500 0.000000
-11.514700 0.000000
-11.469900 0.000000
-11.425200 0.000000
-11.380400 0.000000
-11.335600 0.000000
-11.290900 0.000000
-11.246100 0.000000
-11.201300 0.000000
-11.156600 0.000000
-11.111800 0.000000
-11.067000 0.000000
-11.022300 0.000000
-10.977500 0.000000
-10.932700 0.000000
-10.888000 0.000000
-10.843200 0.000000
-10.798400 0.000000
-10.753700 0.000000
-10.708900 0.000000
-10.664100 0.000000
-10.619400 0.000000
-10.574600 0.000000
-10.529900 0.000000
-10.485100 0.000000
-10.440300 0.000000
-10.395600 0.000000
-10.350800 0.000000
-10.306000 0.000000
-10.261300 0.000000
-10.216500 0.000000
-10.171700 0.000000
-10.127000 0.000000
-10.082200 0.000000
-10.037400 0.000000
-9.992700 0.000000
-9.947900 0.000000
-9.903100 0.000000
-9.858400 0.000000
-9.813600 0.000000
-9.768800 0.000000
-9.724100 0.000000
-9.679300 0.000000
-9.634500 0.000000
-9.589800 0.000000
-9.545000 0.000000
-9.500300 0.000000
-9.455500 0.000000
-9.410700 0.000000
-9.366000 0.000000
-9.321200 0.000000
-9.276400 0.000000
-9.231700 0.000000
-9.186900 0.000000
-9.142100 0.000000
-9.097400 0.000000
-9.052600 0.000000
-9.007800 0.000000
-8.963100 0.000000
-8.918300 0.000000
-8.873500 0.000000
-8.828800 0.000000
-8.784000 0.000000
-8.739200 0.000000
-8.694500 0.000000
-8.649700 0.000000
-8.604900 0.000000
-8.560200 0.000000
-8.515400 0.000000
-8.470600 0.000000
-8.425900 0.000000
-8.381100 0.000000
-8.336400 0.000000
-8.291600 0.000000
-8.246800 0.000000
-8.202100 0.000000
-8.157300 0.000000
-8.112500 0.000000
-8.067800 0.000000
-8.023000 0.000000
-7.978200 0.000000
-7.933500 0.000000
-7.888700 0.000000
-7.843900 0.000000
-7.799200 0.000000
-7.754400 0.000000
-7.709600 0.000000
-7.664900 0.000000
-7.620100 0.000000
-7.575300 0.000000
-7.530600 0.000000
-7.485800 0.000000
-7.441000 0.000000
-7.396300 0.000000
-7.351500 0.000000
-7.306700 0.000000
-7.262000 0.000000
-7.217200 0.000000
-7.172500 0.000000
-7.127700 0.000000
-7.082900 0.000000
-7.038200 0.000000
-6.993400 0.000000
-6.948600 0.000000
-6.903900 0.000000
-6.859100 0.000000
-6.814300 0.000000
-6.769600 0.000000
-6.724800 0.000000
-6.680000 0.000000
-6.635300 0.000000
-6.590500 0.000000
-6.545700 0.000000
-6.501000 0.000000
-6.456200 0.000000
-6.411400 0.000000
-6.366700 0.000000
-6.321900 0.000000
-6.277100 0.000000
-6.232400 0.000000
-6.187600 0.000000
-6.142900 0.000000
-6.098100 0.000000
-6.053300 0.000000
-6.008600 0.000000
-5.963800 0.000000
-5.919000 0.000000
-5.874300 0.000000
-5.829500 0.000000
-5.784700 0.000000
-5.740000 0.000000
-5.695200 0.000000
-5.650400 0.000000
-5.605700 0.000000
-5.560900 0.000000
-5.516100 0.000000
-5.471400 0.000000
-5.426600 0.000000
-5.381800 0.000000
-5.337100 0.000000
-5.292300 0.000000
-5.247500 0.000000
-5.202800 0.000000
-5.158000 0.000000
-5.113200 0.000000
-5.068500 0.000000
-5.023700 0.000000
-4.979000 0.000000
-4.934200 0.000000
-4.889400 0.000000
-4.844700 0.000000
-4.799900 0.000000
-4.755100 0.000000
-4.710400 0.000000
-4.665600 0.000000
-4.620800 0.000000
-4.576100 0.000000
-4.531300 0.000000
-4.486500 0.000000
-4.441800 0.000000
-4.397000 0.000000
-4.352200 0.000000
-4.307500 0.000000
-4.262700 0.000000
-4.217900 0.000000
-4.173200 0.000000
-4.128400 0.000000
-4.083600 0.000000
-4.038900 0.000000
-3.994100 0.000000
-3.949300 0.000000
-3.904600 0.000000
-3.859800 0.000000
-3.815100 0.000000
-3.770300 0.000000
-3.725500 0.000000
-3.680800 0.000000
-3.636000 0.000000
-3.591200 0.000000
-3.546500 0.000000
-3.501700 0.000000
-3.456900 0.000000
-3.412200 0.000000
-3.367400 0.000000
-3.322600 0.000000
-3.277900 0.000000
-3.233100 0.000000
-3.188300 0.000000
-3.143600 0.000000
-3.098800 0.000000
-3.054000 0.000000
-3.009300 0.000000
-2.964500 0.000000
-2.919700 0.000000
-2.875000 0.000000
-2.830200 0.000000
-2.785500 0.000000
-2.740700 0.000000
-2.695900 0.000000
-2.651200 0.000000
-2.606400 0.000000
-2.561600 0.000000
-2.516900 0.000000
-2.472100 0.000000
-2.427300 0.000000
-2.382600 0.000000
-2.337800 0.000000
-2.293000 0.000000
-2.248300 0.000000
-2.203500 0.000000
-2.158700 0.000000
-2.114000 0.000000
-2.069200 0.000000
-2.024400 0.000000
-1.979700 0.000000
-1.934900 0.000000
-1.890100 0.000000
-1.845400 0.000000
-1.800600 0.000000
-1.755800 0.000000
-1.711100 0.000000
-1.666300 0.000000
-1.621600 0.000000
-1.576800 0.000000
-1.532000 0.000000
-1.487300 0.000000
-1.442500 0.000000
-1.397700 0.000000
-1.353000 0.000000
-1.308200 0.000000
-1.263400 0.000000
-1.218700 0.000000
-1.173900 0.000000
-1.129100 0.000000
-1.084400 0.000000
-1.039600 0.000000
-0.994800 0.000000
-0.950100 0.000000
-0.905300 0.000000
-0.860500 0.000000
-0.815800 0.000100
-0.771000 0.010800
-0.726200 0.017000
-0.681500 0.022400
-0.636700 0.028300
-0.591900 0.030900
-0.547200 0.033900
-0.502400 0.037500
-0.457700 0.041300
-0.412900 0.044300
-0.368100 0.046900
-0.323400 0.049400
-0.278600 0.052200
-0.233800 0.055300
-0.189100 0.058500
-0.144300 0.061500
-0.099500 0.063700
-0.054800 0.066400
-0.010000 0.069200
0.034800 0.072000
0.079500 0.075100
0.124300 0.078300
0.169100 0.081600
0.213800 0.084400
0.258600 0.087400
0.303400 0.090700
0.348100 0.094100
0.392900 0.097700
0.437700 0.101500
0.482400 0.105500
0.527200 0.109600
0.571900 0.113800
0.616700 0.118300
0.661500 0.123100
0.706200 0.128400
0.751000 0.134300
0.795800 0.140600
0.840500 0.147400
0.885300 0.219800
0.930100 0.269900
0.974800 0.313400
1.019600 0.358300
1.064400 0.512900
1.109100 0.632200
1.153900 0.769300
1.198700 0.951600
1.243400 1.028100
1.288200 1.132200
1.333000 1.217900
1.377700 1.274400
1.422500 1.349500
1.467300 1.436400
1.512000 1.518000
1.556800 1.621000
1.601600 1.768400
1.646300 1.830500
1.691100 1.954500
1.735800 2.065700
1.780600 2.363900
1.825400 2.370600
1.870100 2.066500
1.914900 1.993300
1.959700 1.882400
2.004400 1.810600
2.049200 1.787700
2.094000 1.819300
2.138700 1.772600
2.183500 1.665900
2.228300 1.590000
2.273000 1.527100
2.317800 1.484700
2.362600 1.425700
2.407300 1.357600
2.452100 1.302100
2.496900 1.172200
2.541600 1.099500
2.586400 1.079100
2.631200 1.078100
2.675900 1.150000
2.720700 1.379300
2.765400 1.437900
2.810200 1.435900
2.855000 1.380700
2.899700 1.374800
2.944500 1.371300
2.989300 1.389500
3.034000 1.404400
3.078800 1.385800
3.123600 1.273900
3.168300 1.316000
3.213100 1.320100
3.257900 1.308600
3.302600 1.238300
3.347400 1.229600
3.392200 1.271700
3.436900 1.382000
3.481700 1.465500
3.526500 1.488900
3.571200 1.503000
3.616000 1.526500
3.660800 1.492800
3.705500 1.489400
3.750300 1.504100
3.795100 1.513600
3.839800 1.566800
3.884600 1.530900
3.929300 1.592800
3.974100 1.798200
4.018900 1.923800
4.063600 1.997800
4.108400 2.105800
4.153200 2.183000
4.197900 2.411600
4.242700 2.950800
4.287500 2.701600
4.332200 3.092300
4.377000 2.785100
4.421800 2.146200
4.466500 1.899400
4.511300 1.707300
4.556100 1.501400
4.600800 1.318300
4.645600 1.138700
4.690400 1.181400
4.735100 1.348300
4.779900 1.617600
4.824700 1.627100
4.869400 1.528300
4.914200 1.442300
4.959000 1.360200
5.003700 1.317500
5.048500 1.293100
5.093200 1.252300
5.138000 1.196100
5.182800 1.201400
5.227500 1.259900
5.272300 1.307500
5.317100 1.410300
5.361800 1.530900
5.406600 1.628900
5.451400 1.565800
5.496100 1.618400
5.540900 1.641400
5.585700 1.619200
5.630400 1.615000
5.675200 1.688600
5.720000 1.626600
5.764700 1.845000
5.809500 1.547400
5.854300 1.441200
5.899000 1.467900
5.943800 1.540500
5.988600 1.450800
6.033300 1.397300
6.078100 1.356700
6.122800 1.325400
6.167600 1.299700
6.212400 1.286100
6.257100 1.276000
6.301900 1.261600
6.346700 1.261900
6.391400 1.260300
6.436200 1.247600
6.481000 1.245700
6.525700 1.240300
6.570500 1.224800
6.615300 1.237900
6.660000 1.253300
6.704800 1.266500
6.749600 1.297700
6.794300 1.328500
6.839100 1.364700
6.883900 1.335000
6.928600 1.376900
6.973400 1.434600
7.018200 1.502900
7.062900 1.609600
7.107700 1.677200
7.152500 1.848400
7.197200 2.012700
7.242000 2.434200
7.286700 2.451200
7.331500 2.438100
7.376300 2.460300
7.421000 1.958100
7.465800 1.697800
7.510600 1.515900
7.555300 1.297400
7.600100 1.125000
7.644900 1.000500
7.689600 0.954700
7.734400 0.871000
7.779200 0.707000
7.823900 0.234400
7.868700 0.235400
7.913500 0.236000
7.958200 0.235800
8.003000 0.230600
8.047800 0.227500
8.092500 0.228300
8.137300 0.230400
8.182100 0.232400
8.226800 0.234100
8.271600 0.235700
8.316400 0.236900
8.361100 0.237900
8.405900 0.238800
8.450600 0.239500
8.495400 0.240200
8.540200 0.240600
8.584900 0.240900
8.629700 0.241000
8.674500 0.240500
8.719200 0.238700
8.764000 0.236700
8.808800 0.236600
8.853500 0.237400
8.898300 0.238200
8.943100 0.239200
8.987800 0.240200
9.032600 0.241100
9.077400 0.241900
9.122100 0.242700
9.166900 0.243500
9.211700 0.244200
9.256400 0.244700
9.301200 0.245100
9.346000 0.245400
9.390700 0.245200
9.435500 0.244700
9.480200 0.243600
9.525000 0.243300
9.569800 0.243300
9.614500 0.243400
9.659300 0.243600
9.704100 0.243800
9.748800 0.244200
9.793600 0.244600
9.838400 0.245200
9.883100 0.245800
9.927900 0.246700
9.972700 0.247600
10.017400 0.248400
10.062200 0.249300
10.107000 0.251500
10.151700 0.252600
10.196500 0.253200
10.241300 0.253000
10.286000 0.252900
10.330800 0.252600
10.375600 0.252100
10.420300 0.251600
10.465100 0.251700
10.509900 0.250100
10.554600 0.248600
10.599400 0.248400
10.644100 0.248300
10.688900 0.248300
10.733700 0.248400
10.778400 0.248500
10.823200 0.249100
10.868000 0.249100
10.912700 0.248400
10.957500 0.247200
11.002300 0.245900
11.047000 0.244300
11.091800 0.243000
11.136600 0.241800
11.181300 0.241000
11.226100 0.240200
11.270900 0.239300
11.315600 0.238300
11.360400 0.237500
11.405200 0.236600
11.449900 0.235600
11.494700 0.234700
11.539500 0.233800
11.584200 0.232900
11.629000 0.232100
11.673800 0.231200
11.718500 0.230400
11.763300 0.228800
11.808000 0.227900
11.852800 0.226700
11.897600 0.225100
11.942300 0.223300
11.987100 0.221800
12.031900 0.220300
12.076600 0.219000
12.121400 0.217700
12.166200 0.216400
12.210900 0.215200
12.255700 0.214000
12.300500 0.212800
12.345200 0.211400
12.390000 0.209900
12.434800 0.208200
12.479500 0.206300
12.524300 0.204400
12.569100 0.202700
12.613800 0.201100
12.658600 0.199600
12.703400 0.198000
12.748100 0.196300
12.792900 0.193900
12.837600 0.192400
12.882400 0.190700
12.927200 0.189000
12.971900 0.187300
13.016700 0.185600
13.061500 0.183800
13.106200 0.182000
13.151000 0.180200
13.195800 0.178300
13.240500 0.176200
13.285300 0.174200
13.330100 0.172100
13.374800 0.169500
13.419600 0.166700
13.464400 0.164400
13.509100 0.162200
13.553900 0.160100
13.598700 0.158000
13.643400 0.155900
13.688200 0.154000
13.733000 0.151000
13.777700 0.149200
13.822500 0.147500
13.867300 0.145800
13.912000 0.143600
13.956800 0.141200
14.001500 0.138600
14.046300 0.135900
14.091100 0.133000
14.135800 0.129900
14.180600 0.126600
14.225400 0.123800
14.270100 0.121100
14.314900 0.118500
14.359700 0.115900
14.404400 0.114000
14.449200 0.111700
14.494000 0.109300
14.538700 0.106100
14.583500 0.102200
14.628300 0.097300
14.673000 0.091600
14.717800 0.077700
14.762600 0.071600
14.807300 0.066400
14.852100 0.062500
14.896900 0.059700
14.941600 0.057400
14.986400 0.055200
15.031200 0.053000
15.075900 0.050100
15.120700 0.057200
15.165400 0.383200
15.210200 0.642400
15.255000 0.644200
15.299700 0.568200
15.344500 0.519200
15.389300 0.475700
15.434000 0.453400
15.478800 0.429400
15.523600 0.416300
15.568300 0.406900
15.613100 0.401900
15.657900 0.395500
15.702600 0.382500
15.747400 0.373400
15.792200 0.367300
15.836900 0.338600
15.881700 0.334900
15.926500 0.332000
15.971200 0.329900
16.016000 0.334000
16.060800 0.328900
16.105500 0.315200
16.150300 0.311200
16.195000 0.307600
16.239800 0.304600
16.284600 0.302000
16.329300 0.299600
16.374100 0.297600
16.418900 0.295700
16.463600 0.292700
16.508400 0.290500
16.553200 0.288900
16.597900 0.287400
16.642700 0.285900
16.687500 0.291800
16.732200 0.285300
16.777000 0.280400
16.821800 0.279100
16.866500 0.278600
16.911300 0.278300
16.956100 0.274200
17.000800 0.271800
17.045600 0.270400
17.090400 0.268800
17.135100 0.267000
17.179900 0.265600
17.224700 0.264500
17.269400 0.263700
17.314200 0.263100
17.358900 0.262000
17.403700 0.260200
17.448500 0.258800
17.493200 0.257700
17.538000 0.256800
17.582800 0.258200
17.627500 0.260300
17.672300 0.257200
17.717100 0.261100
17.761800 0.260700
17.806600 0.258500
17.851400 0.256100
17.896100 0.254400
17.940900 0.252900
17.985700 0.251200
18.030400 0.250300
18.075200 0.250400
18.120000 0.251700
18.164700 0.252500
18.209500 0.274700
18.254300 0.293100
18.299000 0.276300
18.343800 0.279500
18.388500 0.290500
18.433300 0.290300
18.478100 0.296200
18.522800 0.326600
18.567600 0.343400
18.612400 0.383300
18.657100 0.421800
18.701900 0.512800
18.746700 0.588200
18.791400 0.597200
18.836200 0.563100
18.881000 0.543200
18.925700 0.529200
18.970500 0.506800
19.015300 0.503900
19.060000 0.503900
19.104800 0.500200
19.149600 0.483500
19.194300 0.467700
19.239100 0.463600
19.283900 0.464800
19.328600 0.466100
19.373400 0.465300
19.418200 0.492900
19.462900 0.511200
19.507700 0.489200
19.552400 0.482500
19.597200 0.478600
19.642000 0.472500
19.686700 0.466100
19.731500 0.468800
19.776300 0.474700
19.821000 0.479900
19.865800 0.483800
19.910600 0.488000
19.955300 0.492800
20.000100 0.493700
20.044900 0.499200
20.089600 0.502500
20.134400 0.506000
20.179200 0.502900
20.223900 0.507100
20.268700 0.505600
20.313500 0.503600
20.358200 0.525100
20.403000 0.526900
20.447800 0.538400
20.492500 0.523000
20.537300 0.525000
20.582100 0.527300
20.626800 0.531800
20.671600 0.543100
20.716300 0.530700
20.761100 0.530400
20.805900 0.531900
20.850600 0.532100
20.895400 0.529900
20.940200 0.528600
20.984900 0.526000
21.029700 0.522500
21.074500 0.520200
21.119200 0.518500
21.164000 0.517000
21.208800 0.521600
21.253500 0.518200
21.298300 0.516800
21.343100 0.517000
21.387800 0.518400
21.432600 0.520400
21.477400 0.523100
21.522100 0.525700
21.566900 0.527500
21.611700 0.528100
21.656400 0.528600
21.701200 0.528300
21.745900 0.526800
21.790700 0.525900
21.835500 0.526500
21.880200 0.525500
21.925000 0.523400
21.969800 0.521400
22.014500 0.520100
22.059300 0.519400
22.104100 0.519200
22.148800 0.519800
22.193600 0.520900
22.238400 0.522600
22.283100 0.524900
22.327900 0.527500
22.372700 0.530400
22.417400 0.533100
22.462200 0.534600
22.507000 0.535900
22.551700 0.536800
22.596500 0.537600
22.641300 0.538100
22.686000 0.537900
22.730800 0.537600
22.775600 0.538400
22.820300 0.539700
22.865100 0.541600
22.909800 0.543900
22.954600 0.545200
22.999400 0.547100
23.044100 0.549700
23.088900 0.553400
23.133700 0.558000
23.178400 0.563100
23.223200 0.568400
23.268000 0.574500
23.312700 0.581600
23.357500 0.634100
23.402300 0.668000
23.447000 0.703700
23.491800 0.744100
23.536600 0.803700
23.581300 0.879600
23.626100 1.071900
23.670900 0.943800
23.715600 0.828900
23.760400 0.777700
23.805200 0.729200
23.849900 0.695600
23.894700 0.677100
23.939500 0.657500
23.984200 0.637900
24.029000 0.627200
24.073700 0.624100
24.118500 0.619400
24.163300 0.612900
24.208000 0.608100
24.252800 0.603500
24.297600 0.597900
24.342300 0.595200
24.387100 0.591100
24.431900 0.589600
24.476600 0.587400
24.521400 0.586600
24.566200 0.588500
24.610900 0.592700
24.655700 0.601800
24.700500 0.616500
24.745200 0.618600
24.790000 0.624300
24.834800 0.617800
24.879500 0.601500
24.924300 0.587600
24.969100 0.567000
25.013800 0.547600
25.058600 0.555300
25.103300 0.545100
25.148100 0.543300
25.192900 0.542600
25.237600 0.544900
25.282400 0.558800
25.327200 0.575100
25.371900 0.614800
25.416700 0.647300
25.461500 0.559900
25.506200 0.535200
25.551000 0.510000
25.595800 0.468300
25.640500 0.457100
25.685300 0.448100
25.730100 0.431600
25.774800 0.411100
25.819600 0.396400
25.864400 0.390400
25.909100 0.386000
25.953900 0.383200
25.998700 0.382000
26.043400 0.380500
26.088200 0.376300
26.133000 0.378100
26.177700 0.382000
26.222500 0.385000
26.267200 0.376100
26.312000 0.358700
26.356800 0.343000
26.401500 0.334600
26.446300 0.326900
26.491100 0.319400
26.535800 0.311900
26.580600 0.304700
26.625400 0.297200
26.670100 0.290300
26.714900 0.283400
26.759700 0.273500
26.804400 0.268500
26.849200 0.267000
26.894000 0.268100
26.938700 0.270700
26.983500 0.274200
27.028300 0.279700
27.073000 0.288200
27.117800 0.298700
27.162600 0.307000
27.207300 0.316000
27.252100 0.325400
27.296900 0.335900
27.341600 0.345300
27.386400 0.355800
27.431100 0.367400
27.475900 0.379100
27.520700 0.391400
27.565400 0.403700
27.610200 0.416300
27.655000 0.428700
27.699700 0.440900
27.744500 0.455800
27.789300 0.471400
27.834000 0.487300
27.878800 0.502200
27.923600 0.519100
27.968300 0.539600
28.013100 0.563100
28.057900 0.588400
28.102600 0.615100
28.147400 0.677300
28.192200 0.685400
28.236900 0.733900
28.281700 0.747300
28.326500 0.765400
28.371200 0.778700
28.416000 0.789100
28.460700 0.790800
28.505500 0.789900
28.550300 0.794900
28.595000 0.805700
28.639800 0.817100
28.684600 0.828300
28.729300 0.839200
28.774100 0.850900
28.818900 0.955900
28.863600 0.864000
28.908400 0.866600
28.953200 0.918300
28.997900 0.843100
29.042700 0.831600
29.087500 0.827500
29.132200 0.851900
29.177000 0.808600
29.221800 0.813700
29.266500 0.831300
29.311300 0.840700
29.356100 0.829200
29.400800 0.805800
29.445600 0.780700
29.490400 0.756700
29.535100 0.753100
29.579900 0.735400
29.624600 0.717200
29.669400 0.695100
29.714200 0.684300
29.758900 0.662600
29.803700 0.646600
29.848500 0.635000
29.893200 0.635300
29.938000 0.617200
29.982800 0.605200
30.027500 0.596100
30.072300 0.587700
30.117100 0.578400
30.161800 0.570500
30.206600 0.562500
30.251400 0.554100
30.296100 0.543500
30.340900 0.537600
30.385700 0.533000
30.430400 0.525400
30.475200 0.524100
30.520000 0.517900
30.564700 0.511000
30.609500 0.504800
30.654200 0.497900
30.699000 0.492200
30.743800 0.487000
30.788500 0.483900
30.833300 0.482400
30.878100 0.482000
30.922800 0.476600
30.967600 0.483400
31.012400 0.480500
31.057100 0.476800
31.101900 0.475600
31.146700 0.492500
31.191400 0.511900
31.236200 0.543100
31.281000 0.971800
31.325700 1.397200
31.370500 3.494800
31.415300 3.512700
31.460000 0.851900
31.504800 1.016900
31.549600 0.621600
31.594300 0.557300
31.639100 0.505300
31.683900 0.468300
31.728600 0.435300
31.773400 0.381100
31.818100 0.326200
31.862900 0.291600
31.907700 0.276000
31.952400 0.267700
31.997200 0.276800
32.042000 0.258800
32.086700 0.261600
32.131500 0.263900
32.176300 0.266100
32.221000 0.268000
32.265800 0.270100
32.310600 0.272900
32.355300 0.276300
32.400100 0.280100
32.444900 0.297400
32.489600 0.295300
32.534400 0.302500
32.579200 0.314600
32.623900 0.328700
32.668700 0.347000
32.713500 0.365300
32.758200 0.382200
32.803000 0.399900
32.847800 0.414200
32.892500 0.419500
32.937300 0.439100
32.982000 0.458200
33.026800 0.474400
33.071600 0.483500
33.116300 0.494600
33.161100 0.494400
33.205900 0.487100
33.250600 0.487600
33.295400 0.488500
33.340200 0.490400
33.384900 0.493400
33.429700 0.496400
33.474500 0.500900
33.519200 0.518200
33.564000 0.509400
33.608800 0.529400
33.653500 0.551700
33.698300 0.569000
33.743100 0.577000
33.787800 0.569200
33.832600 0.574700
33.877400 0.585700
33.922100 0.596100
33.966900 0.621900
34.011600 0.621100
34.056400 0.621000
34.101200 0.629400
34.145900 0.637900
34.190700 0.646800
34.235500 0.654000
34.280200 0.659800
34.325000 0.666000
34.369800 0.672600
34.414500 0.679700
34.459300 0.694700
34.504100 0.706500
34.548800 0.716700
34.593600 0.722400
34.638400 0.731300
34.683100 0.743600
34.727900 0.747100
34.772700 0.737800
34.817400 0.721100
34.862200 0.706200
34.907000 0.701600
34.951700 0.725200
34.996500 0.755700
35.041300 0.795500
35.086000 0.810700
35.130800 0.777700
35.175500 0.779900
35.220300 0.767200
35.265100 0.664500
35.309800 0.631100
35.354600 0.613800
35.399400 0.598600
35.444100 0.581500
35.488900 0.572000
35.533700 0.564600
35.578400 0.557400
35.623200 0.550100
35.668000 0.544600
35.712700 0.538900
35.757500 0.534200
35.802300 0.532900
35.847000 0.533300
35.891800 0.535900
35.936600 0.538200
35.981300 0.540200
36.026100 0.547700
36.070900 0.533900
36.115600 0.532700
36.160400 0.535600
36.205200 0.541300
36.249900 0.550500
36.294700 0.586200
36.339400 0.615700
36.384200 0.576200
36.429000 0.550400
36.473700 0.539300
36.518500 0.541500
36.563300 0.536100
36.608000 0.539100
36.652800 0.544300
36.697600 0.548000
36.742300 0.554000
36.787100 0.562200
36.831900 0.572400
36.876600 0.585000
36.921400 0.611400
36.966200 0.630700
37.010900 0.638100
37.055700 0.622700
37.100500 0.593400
37.145200 0.578500
37.190000 0.576100
37.234800 0.574300
37.279500 0.570200
37.324300 0.568700
37.369000 0.574500
37.413800 0.597400
37.458600 0.625600
37.503300 0.649300
37.548100 0.678700
37.592900 0.670400
37.637600 0.645400
37.682400 0.631400
37.727200 0.644800
37.771900 0.646700
37.816700 0.627000
37.861500 0.597100
37.906200 0.566500
37.951000 0.536700
37.995800 0.506600
38.040500 0.476300
38.085300 0.450500
38.130100 0.430800
38.174800 0.414100
38.219600 0.398400
38.264400 0.385000
38.309100 0.373000
38.353900 0.361400
38.398700 0.350600
38.443400 0.340700
38.488200 0.331100
38.532900 0.321500
38.577700 0.312400
38.622500 0.303600
38.667200 0.295100
38.712000 0.286900
38.756800 0.279300
38.801500 0.272000
38.846300 0.265200
38.891100 0.257000
38.935800 0.251100
38.980600 0.245600
39.025400 0.235400
39.070100 0.226500
39.114900 0.222200
39.159700 0.217800
39.204400 0.213200
39.249200 0.208600
39.294000 0.203300
39.338700 0.195200
39.383500 0.192600
39.428300 0.193500
39.473000 0.184400
39.517800 0.178300
39.562600 0.186700
39.607300 0.181400
39.652100 0.166300
39.696800 0.149600
39.741600 0.132000
39.786400 0.113100
39.831100 0.096200
39.875900 0.084600
39.920700 0.072700
39.965400 0.064000
40.010200 0.061300
40.055000 0.060800
40.099700 0.060200
40.144500 0.058400
40.189300 0.056300
40.234000 0.053800
40.278800 0.051700
40.323600 0.052000
40.368300 0.052800
40.413100 0.053200
40.457900 0.048400
40.502600 0.038400
40.547400 0.031800
40.592200 0.028000
40.636900 0.024300
40.681700 0.020600
40.726400 0.016100
40.771200 0.014200
40.816000 0.012500
40.860700 0.010800
40.905500 0.009000
40.950300 0.007200
40.995000 0.005700
41.039800 0.004300
41.084600 0.003200
41.129300 0.002300
41.174100 0.001600
41.218900 0.001000
41.263600 0.000600
41.308400 0.000300
41.353200 0.000100
41.397900 0.000000
41.442700 0.000000
41.487500 0.000000
41.532200 0.000000
41.577000 0.000000
41.621800 0.000000
41.666500 0.000000
41.711300 0.000000
41.756100 0.000000
41.800800 0.000000
41.845600 0.000000
41.890300 0.000000
41.935100 0.000000
41.979900 0.000000
42.024600 0.000000
42.069400 0.000000
42.114200 0.000000
42.158900 0.000000
42.203700 0.000000
42.248500 0.000000
42.293200 0.000000
42.338000 0.000000
42.382800 0.000000
42.427500 0.000000
42.472300 0.000000
42.517100 0.000000
42.561800 0.000000
42.606600 0.000000
42.651400 0.000000
42.696100 0.000000
42.740900 0.000000
42.785700 0.000000
42.830400 0.000000
42.875200 0.000000
42.920000 0.000000
42.964700 0.000000
43.009500 0.000000
43.054200 0.000000
43.099000 0.000000
43.143800 0.000000
43.188500 0.000000
43.233300 0.000000
43.278100 0.000000
43.322800 0.000000
43.367600 0.000000
43.412400 0.000000
43.457100 0.000000
43.501900 0.000000
43.546700 0.000000
43.591400 0.000000
43.636200 0.000000
43.681000 0.000000
43.725700 0.000000
43.770500 0.000000
43.815300 0.000000
43.860000 0.000000
43.904800 0.000000
43.949600 0.000000
43.994300 0.000000
44.039100 0.000000
44.083800 0.000000
44.128600 0.000000
44.173400 0.000000
44.218100 0.000000
44.262900 0.000000
44.307700 0.000000
44.352400 0.000000
44.397200 0.000000
44.442000 0.000000
44.486700 0.000000
44.531500 0.000000
44.576300 0.000000
44.621000 0.000000
44.665800 0.000000
44.710600 0.000000
44.755300 0.000000
44.800100 0.000000
44.844900 0.000000
44.889600 0.000000
44.934400 0.000000
44.979200 0.000000
45.023900 0.000000
45.068700 0.000000
45.113500 0.000000
45.158200 0.000000
45.203000 0.000000
45.247700 0.000000
45.292500 0.000000
45.337300 0.000000
45.382000 0.000000
45.426800 0.000000
45.471600 0.000000
e
