set title 'mp-1187255 - Density of States'
set xlabel 'Energy (eV)'
set ylabel 'DOS (states/eV)'
set grid
set xrange [-10:10]
set yrange [0:3.751]
set xzeroaxis lt -1
set terminal png size 800,600
set output 'mp-1187255_dos_gnuplot.png'
plot '-' using 1:2 with lines title 'DOS'
-29.118400 0.000000
-29.081700 0.000000
-29.045100 0.000000
-29.008400 0.000000
-28.971700 0.000000
-28.935100 0.000000
-28.898400 0.000000
-28.861700 0.000000
-28.825100 0.000000
-28.788400 0.000000
-28.751800 0.000000
-28.715100 0.000000
-28.678400 0.000000
-28.641800 0.000000
-28.605100 0.000000
-28.568400 0.000000
-28.531800 0.000000
-28.495100 0.000000
-28.458500 0.000000
-28.421800 0.000000
-28.385100 0.000000
-28.348500 0.000000
-28.311800 0.000000
-28.275100 0.000000
-28.238500 0.000000
-28.201800 0.000000
-28.165200 0.000000
-28.128500 0.000000
-28.091800 0.000000
-28.055200 0.000000
-28.018500 0.000000
-27.981800 0.000000
-27.945200 0.000000
-27.908500 0.000000
-27.871900 0.000000
-27.835200 0.000000
-27.798500 0.000000
-27.761900 0.000000
-27.725200 0.000000
-27.688500 0.000000
-27.651900 0.000000
-27.615200 0.000000
-27.578600 0.000000
-27.541900 0.000000
-27.505200 0.000000
-27.468600 0.000000
-27.431900 0.000000
-27.395200 0.000000
-27.358600 0.000000
-27.321900 0.000000
-27.285300 0.000000
-27.248600 0.000000
-27.211900 0.000000
-27.175300 0.000000
-27.138600 0.000000
-27.101900 0.000000
-27.065300 0.000000
-27.028600 0.000000
-26.992000 0.000000
-26.955300 0.000000
-26.918600 0.000000
-26.882000 0.000000
-26.845300 0.000000
-26.808600 0.000000
-26.772000 0.000000
-26.735300 0.000000
-26.698700 0.000000
-26.662000 0.000000
-26.625300 0.000000
-26.588700 0.000000
-26.552000 0.000000
-26.515300 0.000000
-26.478700 0.000000
-26.442000 0.000000
-26.405400 0.000000
-26.368700 0.000000
-26.332000 0.000000
-26.295400 0.000000
-26.258700 0.000000
-26.222000 0.000000
-26.185400 0.000000
-26.148700 0.000000
-26.112100 0.000000
-26.075400 0.000000
-26.038700 0.000000
-26.002100 0.000000
-25.965400 0.000000
-25.928700 0.000300
-25.892100 0.018700
-25.855400 0.448900
-25.818800 4.249300
-25.782100 17.003500
-25.745400 32.377400
-25.708800 34.530000
-25.672100 27.942900
-25.635400 25.430700
-25.598800 16.494000
-25.562100 4.641200
-25.525500 0.498400
-25.488800 0.019800
-25.452100 0.000300
-25.415500 0.000000
-25.378800 0.000000
-25.342200 0.000000
-25.305500 0.000000
-25.268800 0.000000
-25.232200 0.000000
-25.195500 0.000000
-25.158800 0.000000
-25.122200 0.000000
-25.085500 0.000000
-25.048900 0.000000
-25.012200 0.000000
-24.975500 0.000000
-24.938900 0.000000
-24.902200 0.000000
-24.865500 0.000000
-24.828900 0.000000
-24.792200 0.000000
-24.755600 0.000000
-24.718900 0.000000
-24.682200 0.000000
-24.645600 0.000000
-24.608900 0.000000
-24.572200 0.000000
-24.535600 0.000000
-24.498900 0.000000
-24.462300 0.000000
-24.425600 0.000000
-24.388900 0.000000
-24.352300 0.000000
-24.315600 0.000000
-24.278900 0.000000
-24.242300 0.000000
-24.205600 0.000000
-24.169000 0.000000
-24.132300 0.000000
-24.095600 0.000000
-24.059000 0.000000
-24.022300 0.000000
-23.985600 0.000000
-23.949000 0.000000
-23.912300 0.000000
-23.875700 0.000000
-23.839000 0.000000
-23.802300 0.000000
-23.765700 0.000000
-23.729000 0.000000
-23.692300 0.000000
-23.655700 0.000000
-23.619000 0.000000
-23.582400 0.000000
-23.545700 0.000000
-23.509000 0.000000
-23.472400 0.000000
-23.435700 0.000000
-23.399000 0.000000
-23.362400 0.000000
-23.325700 0.000000
-23.289100 0.000000
-23.252400 0.000000
-23.215700 0.000000
-23.179100 0.000000
-23.142400 0.000000
-23.105700 0.000000
-23.069100 0.000000
-23.032400 0.000000
-22.995800 0.000000
-22.959100 0.000000
-22.922400 0.000000
-22.885800 0.000000
-22.849100 0.000000
-22.812400 0.000000
-22.775800 0.000000
-22.739100 0.000000
-22.702500 0.000000
-22.665800 0.000000
-22.629100 0.000000
-22.592500 0.000000
-22.555800 0.000000
-22.519100 0.000000
-22.482500 0.000000
-22.445800 0.000000
-22.409200 0.000000
-22.372500 0.000000
-22.335800 0.000000
-22.299200 0.000000
-22.262500 0.000000
-22.225800 0.000000
-22.189200 0.000000
-22.152500 0.000000
-22.115900 0.000000
-22.079200 0.000000
-22.042500 0.000000
-22.005900 0.000000
-21.969200 0.000000
-21.932500 0.000000
-21.895900 0.000000
-21.859200 0.000000
-21.822600 0.000000
-21.785900 0.000000
-21.749200 0.000000
-21.712600 0.000000
-21.675900 0.000000
-21.639200 0.000000
-21.602600 0.000000
-21.565900 0.000000
-21.529300 0.000000
-21.492600 0.000000
-21.455900 0.000000
-21.419300 0.000000
-21.382600 0.000000
-21.345900 0.000000
-21.309300 0.000000
-21.272600 0.000000
-21.236000 0.000000
-21.199300 0.000000
-21.162600 0.000000
-21.126000 0.000000
-21.089300 0.000000
-21.052600 0.000000
-21.016000 0.000000
-20.979300 0.000000
-20.942700 0.000000
-20.906000 0.000000
-20.869300 0.000000
-20.832700 0.000000
-20.796000 0.000000
-20.759300 0.000000
-20.722700 0.000000
-20.686000 0.000000
-20.649400 0.000000
-20.612700 0.000000
-20.576000 0.000000
-20.539400 0.000000
-20.502700 0.000000
-20.466000 0.000000
-20.429400 0.000000
-20.392700 0.000000
-20.356100 0.000000
-20.319400 0.000000
-20.282700 0.000000
-20.246100 0.000000
-20.209400 0.000000
-20.172700 0.000000
-20.136100 0.000000
-20.099400 0.000000
-20.062800 0.000000
-20.026100 0.000000
-19.989400 0.000000
-19.952800 0.000000
-19.916100 0.000000
-19.879400 0.000000
-19.842800 0.000000
-19.806100 0.000000
-19.769500 0.000000
-19.732800 0.000000
-19.696100 0.000000
-19.659500 0.000000
-19.622800 0.000000
-19.586100 0.000000
-19.549500 0.000000
-19.512800 0.000000
-19.476200 0.000000
-19.439500 0.000000
-19.402800 0.000000
-19.366200 0.000000
-19.329500 0.000000
-19.292800 0.000000
-19.256200 0.000000
-19.219500 0.000000
-19.182900 0.000000
-19.146200 0.000000
-19.109500 0.000000
-19.072900 0.000000
-19.036200 0.000000
-18.999500 0.000000
-18.962900 0.000000
-18.926200 0.000000
-18.889600 0.000000
-18.852900 0.000000
-18.816200 0.000000
-18.779600 0.000000
-18.742900 0.000000
-18.706200 0.000000
-18.669600 0.000000
-18.632900 0.000000
-18.596300 0.000000
-18.559600 0.000000
-18.522900 0.000000
-18.486300 0.000000
-18.449600 0.000000
-18.413000 0.000000
-18.376300 0.000000
-18.339600 0.000000
-18.303000 0.000000
-18.266300 0.000000
-18.229600 0.000000
-18.193000 0.000000
-18.156300 0.000000
-18.119700 0.000000
-18.083000 0.000000
-18.046300 0.000000
-18.009700 0.000000
-17.973000 0.000000
-17.936300 0.000000
-17.899700 0.000000
-17.863000 0.000000
-17.826400 0.000000
-17.789700 0.000000
-17.753000 0.000000
-17.716400 0.000000
-17.679700 0.000000
-17.643000 0.000000
-17.606400 0.000000
-17.569700 0.000000
-17.533100 0.000000
-17.496400 0.000000
-17.459700 0.000000
-17.423100 0.000000
-17.386400 0.000000
-17.349700 0.000000
-17.313100 0.000000
-17.276400 0.000000
-17.239800 0.000000
-17.203100 0.000000
-17.166400 0.000000
-17.129800 0.000000
-17.093100 0.000000
-17.056400 0.000000
-17.019800 0.000000
-16.983100 0.000000
-16.946500 0.000000
-16.909800 0.000000
-16.873100 0.000000
-16.836500 0.000000
-16.799800 0.000000
-16.763100 0.000000
-16.726500 0.000000
-16.689800 0.000000
-16.653200 0.000000
-16.616500 0.000000
-16.579800 0.000000
-16.543200 0.000000
-16.506500 0.000000
-16.469800 0.000000
-16.433200 0.000000
-16.396500 0.000000
-16.359900 0.000000
-16.323200 0.000000
-16.286500 0.000000
-16.249900 0.000000
-16.213200 0.000000
-16.176500 0.000000
-16.139900 0.000000
-16.103200 0.000000
-16.066600 0.000000
-16.029900 0.000000
-15.993200 0.000000
-15.956600 0.000000
-15.919900 0.000000
-15.883200 0.000000
-15.846600 0.000000
-15.809900 0.000000
-15.773300 0.000000
-15.736600 0.000000
-15.699900 0.000000
-15.663300 0.000000
-15.626600 0.000000
-15.589900 0.000000
-15.553300 0.000000
-15.516600 0.000000
-15.480000 0.000000
-15.443300 0.000000
-15.406600 0.000000
-15.370000 0.000000
-15.333300 0.000000
-15.296600 0.000000
-15.260000 0.000000
-15.223300 0.000000
-15.186700 0.000000
-15.150000 0.000000
-15.113300 0.000000
-15.076700 0.000000
-15.040000 0.000000
-15.003300 0.000000
-14.966700 0.000000
-14.930000 0.000000
-14.893400 0.000000
-14.856700 0.000000
-14.820000 0.000000
-14.783400 0.000000
-14.746700 0.000000
-14.710000 0.000000
-14.673400 0.000000
-14.636700 0.000000
-14.600100 0.000000
-14.563400 0.000000
-14.526700 0.000000
-14.490100 0.000000
-14.453400 0.000000
-14.416700 0.000000
-14.380100 0.000000
-14.343400 0.000000
-14.306800 0.000000
-14.270100 0.000000
-14.233400 0.000000
-14.196800 0.000000
-14.160100 0.000000
-14.123400 0.000000
-14.086800 0.000000
-14.050100 0.000000
-14.013500 0.000000
-13.976800 0.000000
-13.940100 0.000000
-13.903500 0.000000
-13.866800 0.000000
-13.830100 0.000000
-13.793500 0.000000
-13.756800 0.000000
-13.720200 0.000000
-13.683500 0.000000
-13.646800 0.000000
-13.610200 0.000000
-13.573500 0.000000
-13.536800 0.000000
-13.500200 0.000000
-13.463500 0.000000
-13.426900 0.000000
-13.390200 0.000000
-13.353500 0.000000
-13.316900 0.000000
-13.280200 0.000000
-13.243500 0.000000
-13.206900 0.000000
-13.170200 0.000000
-13.133600 0.000000
-13.096900 0.000000
-13.060200 0.000000
-13.023600 0.000000
-12.986900 0.000000
-12.950200 0.000000
-12.913600 0.000000
-12.876900 0.000000
-12.840300 0.000000
-12.803600 0.000000
-12.766900 0.000000
-12.730300 0.000000
-12.693600 0.000000
-12.656900 0.000000
-12.620300 0.000000
-12.583600 0.000000
-12.547000 0.000000
-12.510300 0.000000
-12.473600 0.000000
-12.437000 0.000000
-12.400300 0.000000
-12.363600 0.000000
-12.327000 0.000000
-12.290300 0.000000
-12.253700 0.000000
-12.217000 0.000000
-12.180300 0.000000
-12.143700 0.000000
-12.107000 0.000000
-12.070300 0.000000
-12.033700 0.000000
-11.997000 0.000000
-11.960400 0.000000
-11.923700 0.000000
-11.887000 0.000000
-11.850400 0.000000
-11.813700 0.000000
-11.777000 0.000000
-11.740400 0.000000
-11.703700 0.000000
-11.667100 0.000000
-11.630400 0.000000
-11.593700 0.000000
-11.557100 0.000000
-11.520400 0.000000
-11.483700 0.000000
-11.447100 0.000000
-11.410400 0.000000
-11.373800 0.000000
-11.337100 0.000000
-11.300400 0.000000
-11.263800 0.000000
-11.227100 0.000000
-11.190500 0.000000
-11.153800 0.000000
-11.117100 0.000000
-11.080500 0.000000
-11.043800 0.000000
-11.007100 0.000000
-10.970500 0.000000
-10.933800 0.000000
-10.897200 0.000000
-10.860500 0.000000
-10.823800 0.000000
-10.787200 0.000000
-10.750500 0.000000
-10.713800 0.000000
-10.677200 0.000000
-10.640500 0.000000
-10.603900 0.000000
-10.567200 0.000000
-10.530500 0.000000
-10.493900 0.000000
-10.457200 0.000000
-10.420500 0.000000
-10.383900 0.000000
-10.347200 0.000000
-10.310600 0.000000
-10.273900 0.000000
-10.237200 0.000000
-10.200600 0.000000
-10.163900 0.000000
-10.127200 0.000000
-10.090600 0.000000
-10.053900 0.000000
-10.017300 0.000000
-9.980600 0.000000
-9.943900 0.000000
-9.907300 0.000000
-9.870600 0.000000
-9.833900 0.000000
-9.797300 0.000000
-9.760600 0.000000
-9.724000 0.000000
-9.687300 0.000000
-9.650600 0.000000
-9.614000 0.000000
-9.577300 0.000000
-9.540600 0.000000
-9.504000 0.000000
-9.467300 0.000000
-9.430700 0.000000
-9.394000 0.000000
-9.357300 0.000000
-9.320700 0.000000
-9.284000 0.000000
-9.247300 0.000000
-9.210700 0.000000
-9.174000 0.000000
-9.137400 0.000000
-9.100700 0.000000
-9.064000 0.000000
-9.027400 0.000000
-8.990700 0.000000
-8.954000 0.000000
-8.917400 0.000000
-8.880700 0.000000
-8.844100 0.000000
-8.807400 0.000000
-8.770700 0.000000
-8.734100 0.000000
-8.697400 0.000000
-8.660700 0.000000
-8.624100 0.000000
-8.587400 0.000000
-8.550800 0.000000
-8.514100 0.000000
-8.477400 0.000000
-8.440800 0.000000
-8.404100 0.000000
-8.367400 0.000000
-8.330800 0.000000
-8.294100 0.000000
-8.257500 0.000000
-8.220800 0.000000
-8.184100 0.000000
-8.147500 0.000000
-8.110800 0.000000
-8.074100 0.000000
-8.037500 0.000000
-8.000800 0.000000
-7.964200 0.000000
-7.927500 0.000000
-7.890800 0.000000
-7.854200 0.000000
-7.817500 0.000000
-7.780800 0.000000
-7.744200 0.000000
-7.707500 0.000000
-7.670900 0.000000
-7.634200 0.000000
-7.597500 0.000000
-7.560900 0.000000
-7.524200 0.000000
-7.487500 0.000000
-7.450900 0.000000
-7.414200 0.000000
-7.377600 0.000000
-7.340900 0.000000
-7.304200 0.000000
-7.267600 0.000000
-7.230900 0.000000
-7.194200 0.000000
-7.157600 0.000000
-7.120900 0.000000
-7.084300 0.000000
-7.047600 0.000000
-7.010900 0.000000
-6.974300 0.000000
-6.937600 0.000000
-6.900900 0.000000
-6.864300 0.000000
-6.827600 0.000000
-6.791000 0.000000
-6.754300 0.000000
-6.717600 0.000000
-6.681000 0.000000
-6.644300 0.000000
-6.607600 0.000000
-6.571000 0.000000
-6.534300 0.000000
-6.497700 0.000000
-6.461000 0.000000
-6.424300 0.000000
-6.387700 0.000000
-6.351000 0.000000
-6.314300 0.000000
-6.277700 0.000000
-6.241000 0.000000
-6.204400 0.000000
-6.167700 0.000700
-6.131000 0.006100
-6.094400 0.022500
-6.057700 0.044800
-6.021000 0.078800
-5.984400 0.143300
-5.947700 0.208200
-5.911100 0.173900
-5.874400 0.089100
-5.837700 0.120700
-5.801100 0.254200
-5.764400 0.293700
-5.727700 0.249700
-5.691100 0.293000
-5.654400 0.357500
-5.617800 0.274900
-5.581100 0.172900
-5.544400 0.190700
-5.507800 0.352100
-5.471100 0.432100
-5.434400 0.338100
-5.397800 0.291900
-5.361100 0.360600
-5.324500 0.374900
-5.287800 0.319600
-5.251100 0.424600
-5.214500 0.573500
-5.177800 0.535300
-5.141100 0.487800
-5.104500 0.425200
-5.067800 0.347800
-5.031200 0.316300
-4.994500 0.290100
-4.957800 0.315300
-4.921200 0.503800
-4.884500 0.662500
-4.847800 0.606000
-4.811200 0.533800
-4.774500 0.620700
-4.737900 0.639600
-4.701200 0.607200
-4.664500 0.685700
-4.627900 0.743700
-4.591200 0.574100
-4.554500 0.444300
-4.517900 0.614300
-4.481200 0.649200
-4.444600 0.429500
-4.407900 0.457600
-4.371200 0.729600
-4.334600 0.857900
-4.297900 0.766200
-4.261300 0.712300
-4.224600 0.681400
-4.187900 0.574800
-4.151300 0.546500
-4.114600 0.751400
-4.077900 0.917100
-4.041300 0.905200
-4.004600 0.833200
-3.968000 0.692000
-3.931300 0.587600
-3.894600 0.648900
-3.858000 0.686900
-3.821300 0.535800
-3.784600 0.494400
-3.748000 0.683600
-3.711300 0.743900
-3.674700 0.758700
-3.638000 0.885500
-3.601300 0.877500
-3.564700 0.681300
-3.528000 0.516200
-3.491300 0.650200
-3.454700 0.770600
-3.418000 0.673000
-3.381400 0.952000
-3.344700 1.263500
-3.308000 1.211700
-3.271400 1.046000
-3.234700 0.764700
-3.198000 0.621100
-3.161400 0.604200
-3.124700 0.730800
-3.088100 1.083500
-3.051400 1.081000
-3.014700 0.820100
-2.978100 0.693700
-2.941400 0.507200
-2.904700 0.440000
-2.868100 0.567000
-2.831400 0.771800
-2.794800 1.106900
-2.758100 1.366200
-2.721400 1.501800
-2.684800 1.446700
-2.648100 1.092800
-2.611400 0.806200
-2.574800 0.904400
-2.538100 1.146400
-2.501500 1.027800
-2.464800 0.794500
-2.428100 1.007800
-2.391500 1.655800
-2.354800 2.056700
-2.318100 1.696700
-2.281500 1.254000
-2.244800 0.984800
-2.208200 0.859100
-2.171500 0.965000
-2.134800 1.004200
-2.098200 0.904100
-2.061500 1.053600
-2.024800 1.208100
-1.988200 1.048900
-1.951500 0.791100
-1.914900 0.785900
-1.878200 1.021400
-1.841500 1.062400
-1.804900 0.988800
-1.768200 0.771200
-1.731500 0.685800
-1.694900 1.096800
-1.658200 1.379400
-1.621600 1.257000
-1.584900 1.157600
-1.548200 0.952300
-1.511600 0.696200
-1.474900 0.756100
-1.438200 1.007300
-1.401600 0.945200
-1.364900 0.797900
-1.328300 1.137400
-1.291600 1.514000
-1.254900 1.526000
-1.218300 1.279800
-1.181600 0.750800
-1.144900 0.390600
-1.108300 0.412900
-1.071600 0.633700
-1.035000 0.955600
-0.998300 1.537800
-0.961600 1.997200
-0.925000 1.867400
-0.888300 1.649600
-0.851600 1.707800
-0.815000 1.923700
-0.778300 1.960500
-0.741700 1.516000
-0.705000 1.154100
-0.668300 1.083800
-0.631700 1.066500
-0.595000 1.139500
-0.558300 1.223700
-0.521700 1.163700
-0.485000 1.043800
-0.448400 1.139100
-0.411700 1.154400
-0.375000 1.096100
-0.338400 1.280000
-0.301700 1.432200
-0.265000 1.320200
-0.228400 1.443300
-0.191700 1.588100
-0.155100 1.578800
-0.118400 1.694900
-0.081700 1.494800
-0.045100 1.308000
-0.008400 1.504100
0.028300 1.515100
0.064900 1.084300
0.101600 0.956700
0.138200 1.303400
0.174900 1.612000
0.211600 1.359600
0.248200 0.864400
0.284900 0.740500
0.321600 0.886500
0.358200 0.940700
0.394900 0.777700
0.431500 0.465700
0.468200 0.252200
0.504900 0.150600
0.541500 0.099700
0.578200 0.148300
0.614900 0.284100
0.651500 0.442600
0.688200 0.498500
0.724800 0.490800
0.761500 0.415300
0.798200 0.205900
0.834800 0.172700
0.871500 0.291400
0.908200 0.229800
0.944800 0.110200
0.981500 0.181400
1.018100 0.326300
1.054800 0.403500
1.091500 0.386000
1.128100 0.285200
1.164800 0.233300
1.201500 0.143700
1.238100 0.090200
1.274800 0.121600
1.311400 0.136500
1.348100 0.118000
1.384800 0.083100
1.421400 0.126600
1.458100 0.215400
1.494800 0.216400
1.531400 0.140500
1.568100 0.121500
1.604700 0.226400
1.641400 0.244400
1.678100 0.164900
1.714700 0.173500
1.751400 0.334700
1.788100 0.516900
1.824700 0.426100
1.861400 0.414700
1.898000 0.592400
1.934700 0.620000
1.971400 0.767200
2.008000 0.904200
2.044700 0.675100
2.081400 0.442100
2.118000 0.544000
2.154700 0.735000
2.191300 0.806600
2.228000 0.875700
2.264700 0.841800
2.301300 0.828400
2.338000 1.144300
2.374700 1.414100
2.411300 1.422400
2.448000 1.431900
2.484600 1.359900
2.521300 1.175400
2.558000 1.092700
2.594600 1.219800
2.631300 1.677700
2.668000 2.015800
2.704600 2.014000
2.741300 2.088100
2.777900 2.060000
2.814600 1.841800
2.851300 1.757200
2.887900 1.642400
2.924600 1.535600
2.961200 1.655200
2.997900 1.349100
3.034600 0.791000
3.071200 0.805300
3.107900 1.044000
3.144600 1.218600
3.181200 1.307500
3.217900 1.134500
3.254500 0.935500
3.291200 1.150500
3.327900 1.873600
3.364500 2.511600
3.401200 2.483200
3.437900 2.140300
3.474500 1.964300
3.511200 1.843800
3.547800 1.781900
3.584500 1.681800
3.621200 1.562400
3.657800 1.657100
3.694500 1.925900
3.731200 1.874800
3.767800 1.459800
3.804500 1.207700
3.841100 1.296300
3.877800 1.462600
3.914500 1.585500
3.951100 1.990100
3.987800 2.537500
4.024500 2.820500
4.061100 2.674300
4.097800 2.179500
4.134400 1.784300
4.171100 1.772000
4.207800 2.247300
4.244400 2.800000
4.281100 3.056200
4.317800 3.204500
4.354400 3.233700
4.391100 3.058800
4.427700 3.222200
4.464400 3.409700
4.501100 3.043200
4.537700 2.307200
4.574400 2.172800
4.611100 2.431500
4.647700 2.349800
4.684400 2.309800
4.721000 2.338400
4.757700 2.382700
4.794400 2.668100
4.831000 2.786300
4.867700 2.363800
4.904400 1.834700
4.941000 1.448900
4.977700 1.436000
5.014300 1.877600
5.051000 2.194500
5.087700 1.917400
5.124300 1.481600
5.161000 1.422700
5.197700 1.415200
5.234300 1.492500
5.271000 1.672200
5.307600 1.584900
5.344300 1.584800
5.381000 1.557400
5.417600 1.409400
5.454300 1.450400
5.491000 1.794100
5.527600 2.204300
5.564300 2.163900
5.600900 1.792400
5.637600 1.461300
5.674300 1.323400
5.710900 1.433800
5.747600 1.558100
5.784300 1.705500
5.820900 2.080600
5.857600 2.194700
5.894200 1.983000
5.930900 1.883900
5.967600 1.769600
6.004200 1.343300
6.040900 1.116700
6.077600 1.194700
6.114200 1.092100
6.150900 0.988700
6.187500 1.153200
6.224200 1.325000
6.260900 1.331800
6.297500 1.438900
6.334200 1.520500
6.370900 1.207600
6.407500 0.953900
6.444200 1.082600
6.480800 1.047100
6.517500 0.888900
6.554200 0.877000
6.590800 1.143600
6.627500 1.649900
6.664200 1.755200
6.700800 1.492300
6.737500 1.326700
6.774100 1.632800
6.810800 2.142000
6.847500 2.082400
6.884100 1.901100
6.920800 2.022800
6.957500 1.926800
6.994100 1.773200
7.030800 2.049300
7.067400 2.569800
7.104100 2.806900
7.140800 2.455400
7.177400 2.178300
7.214100 2.285600
7.250800 2.147600
7.287400 1.817800
7.324100 1.524600
7.360700 1.321100
7.397400 1.648100
7.434100 2.427500
7.470700 2.855700
7.507400 2.733300
7.544100 2.358800
7.580700 1.809100
7.617400 1.456800
7.654000 1.505600
7.690700 1.911400
7.727400 2.210500
7.764000 2.076500
7.800700 1.503500
7.837400 0.961000
7.874000 0.972500
7.910700 1.677400
7.947300 2.367900
7.984000 2.376600
8.020700 1.914600
8.057300 1.818700
8.094000 2.172400
8.130700 2.247200
8.167300 2.184500
8.204000 2.048000
8.240600 1.793000
8.277300 1.854600
8.314000 1.905100
8.350600 1.683500
8.387300 1.647000
8.424000 1.979900
8.460600 2.297700
8.497300 2.314500
8.533900 2.207200
8.570600 2.009100
8.607300 1.880900
8.643900 1.952300
8.680600 2.166100
8.717300 2.184100
8.753900 1.879100
8.790600 1.543200
8.827200 1.396200
8.863900 1.829600
8.900600 2.292100
8.937200 2.256300
8.973900 2.457000
9.010600 2.668300
9.047200 2.138800
9.083900 1.367700
9.120500 1.161500
9.157200 1.453600
9.193900 1.912400
9.230500 2.348600
9.267200 2.477500
9.303900 1.945900
9.340500 1.775500
9.377200 2.141000
9.413800 2.225800
9.450500 2.161000
9.487200 2.257400
9.523800 2.436900
9.560500 2.219500
9.597200 1.744500
9.633800 1.839000
9.670500 2.336500
9.707100 2.565500
9.743800 2.373600
9.780500 2.256300
9.817100 2.152800
9.853800 2.046100
9.890400 2.101900
9.927100 2.154800
9.963800 2.297100
10.000400 2.401300
10.037100 2.695300
10.073800 3.102500
10.110400 3.269600
10.147100 3.317500
10.183700 3.223700
10.220400 2.871500
10.257100 2.289600
10.293700 2.194200
10.330400 2.653400
10.367100 2.505800
10.403700 2.112200
10.440400 2.336800
10.477000 2.547300
10.513700 2.482000
10.550400 2.462700
10.587000 2.413500
10.623700 2.157700
10.660400 1.949100
10.697000 2.293700
10.733700 3.140600
10.770300 3.497600
10.807000 3.484900
10.843700 3.120800
10.880300 2.317400
10.917000 2.136300
10.953700 2.580400
10.990300 2.876000
11.027000 2.677800
11.063600 2.136400
11.100300 1.992800
11.137000 2.121700
11.173600 1.859600
11.210300 1.755900
11.247000 2.116900
11.283600 2.524900
11.320300 2.517800
11.356900 2.267800
11.393600 2.144800
11.430300 2.295900
11.466900 2.638600
11.503600 3.057000
11.540300 3.147900
11.576900 2.745800
11.613600 2.576700
11.650200 3.149500
11.686900 3.537300
11.723600 3.013500
11.760200 2.453200
11.796900 2.605000
11.833600 2.983400
11.870200 3.081200
11.906900 3.005100
11.943500 2.761300
11.980200 2.417500
12.016900 2.676300
12.053500 3.567500
12.090200 3.811800
12.126900 3.225000
12.163500 3.068600
12.200200 3.278400
12.236800 3.540200
12.273500 4.169200
12.310200 4.564000
12.346800 4.388300
12.383500 3.973300
12.420200 3.422600
12.456800 3.048000
12.493500 2.891200
12.530100 2.862400
12.566800 2.810900
12.603500 2.660000
12.640100 2.990500
12.676800 3.557300
12.713500 3.116900
12.750100 2.316500
12.786800 2.337500
12.823400 2.910300
12.860100 3.372300
12.896800 3.674900
12.933400 3.676100
12.970100 3.093900
13.006800 2.702900
13.043400 3.050200
13.080100 3.048700
13.116700 2.601500
13.153400 2.360500
13.190100 2.280100
13.226700 2.374500
13.263400 2.503600
13.300100 2.552000
13.336700 2.432500
13.373400 2.460800
13.410000 2.580200
13.446700 2.785900
13.483400 3.226100
13.520000 3.525200
13.556700 3.273400
13.593400 2.889800
13.630000 3.223600
13.666700 3.825600
13.703300 3.661600
13.740000 2.981000
13.776700 2.906400
13.813300 2.916100
13.850000 2.677700
13.886700 2.592000
13.923300 2.488600
13.960000 2.426100
13.996600 2.703300
14.033300 2.938200
14.070000 3.169000
14.106600 3.620000
14.143300 3.967200
14.180000 3.900500
14.216600 3.496100
14.253300 3.331100
14.289900 3.505500
14.326600 3.453000
14.363300 2.881800
14.399900 2.105300
14.436600 1.650900
14.473300 1.656200
14.509900 2.220600
14.546600 2.566300
14.583200 2.336600
14.619900 2.111000
14.656600 1.901200
14.693200 1.600800
14.729900 1.473800
14.766600 1.533600
14.803200 1.626800
14.839900 1.490700
14.876500 1.248900
14.913200 1.350800
14.949900 1.980400
14.986500 2.212800
15.023200 1.627200
15.059900 0.980300
15.096500 0.952300
15.133200 1.359800
15.169800 1.390400
15.206500 1.123600
15.243200 1.180400
15.279800 1.430500
15.316500 1.265800
15.353200 1.018700
15.389800 1.052900
15.426500 1.095200
15.463100 1.351500
15.499800 1.748800
15.536500 1.945100
15.573100 1.885800
15.609800 1.534000
15.646500 1.019500
15.683100 0.606100
15.719800 0.540900
15.756400 0.820900
15.793100 1.245800
15.829800 1.385800
15.866400 1.110200
15.903100 0.813800
15.939800 0.669000
15.976400 0.809600
16.013100 0.990100
16.049700 0.848200
16.086400 0.769300
16.123100 0.821000
16.159700 0.658000
16.196400 0.719500
16.233100 1.207400
16.269700 1.433500
16.306400 1.330800
16.343000 1.457000
16.379700 1.682700
16.416400 1.807600
16.453000 1.772100
16.489700 1.524100
16.526400 1.363300
16.563000 1.252500
16.599700 1.448500
16.636300 1.924000
16.673000 2.189100
16.709700 1.960800
16.746300 1.875000
16.783000 2.170900
16.819700 2.124300
16.856300 1.665200
16.893000 1.436800
16.929600 1.453300
16.966300 1.761700
17.003000 2.059300
17.039600 2.122900
17.076300 2.429600
17.112900 2.551600
17.149600 2.139800
17.186300 1.866700
17.222900 1.651400
17.259600 1.337400
17.296300 1.637600
17.332900 2.175100
17.369600 2.263900
17.406200 2.170200
17.442900 2.024800
17.479600 1.838000
17.516200 1.498700
17.552900 1.310300
17.589600 1.407400
17.626200 1.410500
17.662900 1.218000
17.699500 1.103800
17.736200 1.162300
17.772900 1.111000
17.809500 1.095100
17.846200 1.422500
17.882900 1.571600
17.919500 1.346400
17.956200 1.207000
17.992800 1.256900
18.029500 1.525400
18.066200 1.591600
18.102800 1.503300
18.139500 1.517000
18.176200 1.411400
18.212800 1.540900
18.249500 1.852300
18.286100 1.594600
18.322800 1.152300
18.359500 0.971000
18.396100 1.077100
18.432800 1.502100
18.469500 1.864100
18.506100 1.880500
18.542800 1.793300
18.579400 1.796700
18.616100 2.030500
18.652800 2.155700
18.689400 2.127700
18.726100 1.784200
18.762800 1.209600
18.799400 0.890600
18.836100 1.032400
18.872700 1.400800
18.909400 1.529900
18.946100 1.725400
18.982700 2.194800
19.019400 2.257400
19.056100 1.861100
19.092700 1.632900
19.129400 1.881100
19.166000 2.197500
19.202700 2.189300
19.239400 2.488900
19.276000 2.857900
19.312700 2.535100
19.349400 2.168600
19.386000 1.943800
19.422700 1.770700
19.459300 1.984400
19.496000 2.589600
19.532700 2.774200
19.569300 2.448300
19.606000 2.000000
19.642700 1.793900
19.679300 1.924500
19.716000 1.941300
19.752600 2.203800
19.789300 2.716200
19.826000 2.904000
19.862600 2.747800
19.899300 2.524300
19.936000 2.377300
19.972600 2.301400
20.009300 2.298000
20.045900 2.181400
20.082600 2.000600
20.119300 2.120400
20.155900 2.639100
20.192600 3.152100
20.229300 3.583800
20.265900 3.654800
20.302600 3.314600
20.339200 2.820300
20.375900 2.275900
20.412600 2.251500
20.449200 2.585300
20.485900 2.442400
20.522600 2.104400
20.559200 2.505300
20.595900 3.217700
20.632500 3.450000
20.669200 3.367200
20.705900 3.097900
20.742500 2.712100
20.779200 2.514400
20.815900 2.587400
20.852500 2.976200
20.889200 3.270900
20.925800 3.036400
20.962500 2.697300
20.999200 4.171000
21.035800 11.952500
21.072500 22.063300
21.109200 18.480400
21.145800 8.136600
21.182500 3.686000
21.219100 2.996300
21.255800 3.174400
21.292500 3.027000
21.329100 3.207700
21.365800 3.864300
21.402500 3.846700
21.439100 3.530700
21.475800 3.857200
21.512400 3.830700
21.549100 3.013400
21.585800 2.564900
21.622400 2.911900
21.659100 3.155600
21.695800 2.808800
21.732400 2.057100
21.769100 2.020900
21.805700 3.062000
21.842400 3.280500
21.879100 2.396000
21.915700 2.037300
21.952400 2.356700
21.989100 2.627000
22.025700 2.470200
22.062400 2.149300
22.099000 1.832000
22.135700 1.532500
22.172400 1.707800
22.209000 2.145800
22.245700 2.018600
22.282400 1.719700
22.319000 2.049000
22.355700 2.407700
22.392300 2.146000
22.429000 1.985400
22.465700 2.433400
22.502300 2.635900
22.539000 2.276300
22.575700 2.083500
22.612300 2.391600
22.649000 2.443900
22.685600 1.957200
22.722300 1.665600
22.759000 1.532100
22.795600 1.363800
22.832300 1.581000
22.869000 2.135000
22.905600 2.469900
22.942300 2.453900
22.978900 2.109700
23.015600 1.483700
23.052300 1.111000
23.088900 1.229100
23.125600 1.692500
23.162300 1.907900
23.198900 1.855400
23.235600 1.858700
23.272200 1.628300
23.308900 1.568300
23.345600 2.385000
23.382200 3.325600
23.418900 3.385100
23.455600 2.776000
23.492200 2.436800
23.528900 2.696700
23.565500 2.907700
23.602200 2.889100
23.638900 2.519700
23.675500 2.014600
23.712200 2.299400
23.748900 2.847000
23.785500 2.726800
23.822200 2.414500
23.858800 2.398900
23.895500 2.369100
23.932200 2.505200
23.968800 2.660800
24.005500 2.339800
24.042200 1.772300
24.078800 1.403200
24.115500 1.575700
24.152100 1.899400
24.188800 1.846500
24.225500 1.756400
24.262100 1.996000
24.298800 2.342400
24.335400 2.364700
24.372100 2.355500
24.408800 2.787200
24.445400 3.188600
24.482100 3.332600
24.518800 3.435400
24.555400 3.281200
24.592100 3.266500
24.628700 3.276000
24.665400 2.645900
24.702100 2.044700
24.738700 2.011900
24.775400 2.389500
24.812100 2.830600
24.848700 3.134900
24.885400 2.817200
24.922000 2.391900
24.958700 2.714100
24.995400 3.014600
25.032000 2.770000
25.068700 2.543900
25.105400 2.551800
25.142000 2.448800
25.178700 2.191400
25.215300 1.935300
25.252000 1.866300
25.288700 2.063100
25.325300 2.198600
25.362000 2.163700
25.398700 1.948400
25.435300 1.586500
25.472000 1.696000
25.508600 1.971100
25.545300 1.858000
25.582000 1.665300
25.618600 1.661600
25.655300 2.001200
25.692000 2.432300
25.728600 2.276400
25.765300 1.969400
25.801900 2.002900
25.838600 1.952600
25.875300 1.597100
25.911900 1.623600
25.948600 1.998200
25.985300 2.543300
26.021900 2.710500
26.058600 2.163300
26.095200 1.949900
26.131900 2.403400
26.168600 3.027400
26.205200 3.143800
26.241900 2.911800
26.278600 2.768200
26.315200 2.432200
26.351900 2.012900
26.388500 2.062600
26.425200 2.463300
26.461900 2.880500
26.498500 2.947200
26.535200 2.509900
26.571900 2.156600
26.608500 2.119200
26.645200 2.184600
26.681800 2.263400
26.718500 2.784500
26.755200 3.152900
26.791800 2.499700
26.828500 1.960200
26.865200 2.067400
26.901800 2.403800
26.938500 2.494900
26.975100 2.098900
27.011800 1.898200
27.048500 2.558500
27.085100 3.324200
27.121800 3.484600
27.158500 3.409300
27.195100 3.073400
27.231800 3.058300
27.268400 3.261000
27.305100 3.049700
27.341800 2.690100
27.378400 2.661700
27.415100 3.062200
27.451800 3.372500
27.488400 2.925500
27.525100 2.177900
27.561700 2.056700
27.598400 2.800900
27.635100 3.290900
27.671700 3.244700
27.708400 3.421300
27.745100 3.334100
27.781700 2.806200
27.818400 2.716100
27.855000 2.847200
27.891700 2.444300
27.928400 1.687900
27.965000 1.540100
28.001700 2.167400
28.038400 2.888400
28.075000 2.941700
28.111700 2.417200
28.148300 2.452300
28.185000 3.109500
28.221700 3.371000
28.258300 2.874300
28.295000 2.379000
28.331700 2.366800
28.368300 2.442500
28.405000 2.397300
28.441600 2.406300
28.478300 2.352000
28.515000 2.243200
28.551600 2.943600
28.588300 3.706300
28.625000 3.343500
28.661600 2.683800
28.698300 2.087400
28.734900 1.840100
28.771600 1.978200
28.808300 2.332500
28.844900 2.552500
28.881600 2.207000
28.918300 1.907200
28.954900 2.160000
28.991600 2.281600
29.028200 2.269900
29.064900 2.584000
29.101600 2.845300
29.138200 3.011800
29.174900 2.827400
29.211600 2.322600
29.248200 2.097500
29.284900 2.158100
29.321500 2.215200
29.358200 1.921200
29.394900 2.024600
29.431500 2.793000
29.468200 2.980100
29.504900 2.838100
29.541500 2.915200
29.578200 2.793500
29.614800 2.732200
29.651500 2.856800
29.688200 2.947200
29.724800 2.910800
29.761500 2.422800
29.798200 1.722200
29.834800 1.376400
29.871500 1.140100
29.908100 1.049100
29.944800 1.339100
29.981500 2.005400
30.018100 2.524800
30.054800 2.773600
30.091500 2.948600
30.128100 2.745000
30.164800 2.130100
30.201400 1.987600
30.238100 2.581500
30.274800 3.154300
30.311400 3.073300
30.348100 3.003800
30.384800 3.124500
30.421400 3.283800
30.458100 3.202300
30.494700 2.554800
30.531400 1.952800
30.568100 2.050900
30.604700 2.314500
30.641400 2.264500
30.678100 2.157100
30.714700 2.368800
30.751400 2.547000
30.788000 2.446500
30.824700 2.506600
30.861400 2.847200
30.898000 3.112100
30.934700 3.065200
30.971400 2.643400
31.008000 1.997300
31.044700 1.706900
31.081300 1.883800
31.118000 1.886800
31.154700 1.710500
31.191300 1.540600
31.228000 1.262100
31.264600 1.454900
31.301300 2.306600
31.338000 2.850400
31.374600 2.332100
31.411300 1.595800
31.448000 1.597600
31.484600 2.303100
31.521300 2.851500
31.557900 2.947300
31.594600 2.808600
31.631300 2.421300
31.667900 2.146100
31.704600 2.266700
31.741300 2.231500
31.777900 1.886700
31.814600 1.874800
31.851200 2.364900
31.887900 2.406300
31.924600 1.751700
31.961200 1.272800
31.997900 1.680300
32.034600 2.763100
32.071200 3.672000
32.107900 3.703600
32.144500 2.824700
32.181200 1.837100
32.217900 1.313900
32.254500 1.335700
32.291200 1.308800
32.327900 1.004000
32.364500 1.259100
32.401200 1.993400
32.437800 2.436800
32.474500 2.275600
32.511200 1.912400
32.547800 1.766700
32.584500 1.708800
32.621200 2.156300
32.657800 2.638400
32.694500 2.344900
32.731100 1.953200
32.767800 1.861300
32.804500 1.768700
32.841100 1.486600
32.877800 1.235200
32.914500 1.586900
32.951100 2.318600
32.987800 2.875600
33.024400 2.836400
33.061100 2.567500
33.097800 2.539500
33.134400 2.616600
33.171100 2.507700
33.207800 2.335600
33.244400 2.256500
33.281100 2.085400
33.317700 2.005200
33.354400 2.515300
33.391100 2.942800
33.427700 2.468400
33.464400 2.022600
33.501100 2.289100
33.537700 2.424300
33.574400 2.098000
33.611000 1.809300
33.647700 2.002000
33.684400 2.364700
33.721000 2.365600
33.757700 2.244200
33.794400 2.418700
33.831000 2.325700
33.867700 1.945500
33.904300 1.884600
33.941000 2.233100
33.977700 2.383800
34.014300 2.130900
34.051000 2.092200
34.087700 2.258600
34.124300 2.239100
34.161000 2.327000
34.197600 2.751200
34.234300 2.636700
34.271000 2.485200
34.307600 2.786100
34.344300 2.633800
34.381000 1.907500
34.417600 1.891100
34.454300 2.509300
34.490900 2.513900
34.527600 1.932900
34.564300 2.008800
34.600900 2.720900
34.637600 2.747400
34.674300 2.129700
34.710900 2.062300
34.747600 2.342000
34.784200 2.121900
34.820900 1.869100
34.857600 2.091000
34.894200 2.270400
34.930900 2.047100
34.967600 1.949000
35.004200 2.148300
35.040900 2.893700
35.077500 3.506000
35.114200 3.390200
35.150900 3.125500
35.187500 2.847600
35.224200 2.586700
35.260900 2.331000
35.297500 2.319500
35.334200 2.404100
35.370800 2.211100
35.407500 1.722100
35.444200 1.562200
35.480800 2.254800
35.517500 3.096100
35.554200 3.090500
35.590800 2.569400
35.627500 2.505900
35.664100 2.890400
35.700800 3.146000
35.737500 2.706800
35.774100 2.133600
35.810800 2.268300
35.847500 2.445000
35.884100 2.368000
35.920800 2.395000
35.957400 2.395000
35.994100 2.355300
36.030800 2.169100
36.067400 2.083900
36.104100 1.901000
36.140800 1.507000
36.177400 1.492200
36.214100 1.825000
36.250700 1.737600
36.287400 1.720900
36.324100 1.908400
36.360700 1.852100
36.397400 1.911000
36.434100 2.075200
36.470700 2.119100
36.507400 1.894600
36.544000 1.773600
36.580700 1.768700
36.617400 1.849200
36.654000 2.389400
36.690700 3.014800
36.727400 3.215500
36.764000 2.770500
36.800700 2.194200
36.837300 2.606100
36.874000 3.459100
36.910700 3.390000
36.947300 2.819400
36.984000 2.338100
37.020700 2.282700
37.057300 2.606500
37.094000 2.796500
37.130600 2.883300
37.167300 2.688400
37.204000 2.329100
37.240600 2.081000
37.277300 2.430100
37.314000 3.303500
37.350600 3.650200
37.387300 2.961500
37.423900 2.460000
37.460600 3.001900
37.497300 3.754300
37.533900 3.810300
37.570600 3.267000
37.607300 3.047600
37.643900 3.449200
37.680600 4.091900
37.717200 4.387600
37.753900 4.003400
37.790600 3.357700
37.827200 2.641400
37.863900 2.558800
37.900600 2.480100
37.937200 2.027100
37.973900 2.038400
38.010500 2.198600
38.047200 2.019000
38.083900 1.923000
38.120500 1.751300
38.157200 1.563500
38.193900 1.615500
38.230500 1.730600
38.267200 1.980200
38.303800 2.222700
38.340500 2.175500
38.377200 2.161400
38.413800 1.873800
38.450500 1.389300
38.487100 1.258200
38.523800 1.337500
38.560500 1.332100
38.597100 1.137900
38.633800 0.966400
38.670500 1.050700
38.707100 1.025300
38.743800 0.799000
38.780400 0.819800
38.817100 1.000100
38.853800 0.866600
38.890400 0.547400
38.927100 0.504800
38.963800 0.688500
39.000400 0.736600
39.037100 0.512400
39.073700 0.329500
39.110400 0.360200
39.147100 0.395800
39.183700 0.312100
39.220400 0.242300
39.257100 0.207900
39.293700 0.130200
39.330400 0.076500
39.367000 0.070500
39.403700 0.121400
39.440400 0.179300
39.477000 0.156200
39.513700 0.124200
39.550400 0.101900
39.587000 0.043500
39.623700 0.007800
39.660300 0.007600
39.697000 0.041600
39.733700 0.103900
39.770300 0.111500
39.807000 0.071200
39.843700 0.098800
39.880300 0.123400
39.917000 0.069300
39.953600 0.056700
39.990300 0.097300
40.027000 0.076900
40.063600 0.022900
40.100300 0.002500
40.137000 0.000100
40.173600 0.000000
40.210300 0.000000
40.246900 0.000000
40.283600 0.000000
40.320300 0.000200
40.356900 0.003900
40.393600 0.034900
40.430300 0.115500
40.466900 0.144200
40.503600 0.070800
40.540200 0.026500
40.576900 0.025700
40.613600 0.016000
40.650200 0.003800
40.686900 0.000300
40.723600 0.000000
40.760200 0.000000
40.796900 0.000900
40.833500 0.007200
40.870200 0.021100
40.906900 0.023000
40.943500 0.009400
40.980200 0.001400
41.016900 0.000100
41.053500 0.000000
41.090200 0.000000
41.126800 0.000000
41.163500 0.000000
41.200200 0.000000
41.236800 0.000000
41.273500 0.000000
41.310200 0.000000
41.346800 0.000000
41.383500 0.000000
41.420100 0.000000
41.456800 0.000000
41.493500 0.000000
41.530100 0.000000
41.566800 0.000000
41.603500 0.000000
41.640100 0.000000
41.676800 0.000000
41.713400 0.000000
41.750100 0.000000
41.786800 0.000000
41.823400 0.000000
41.860100 0.000000
41.896800 0.000000
41.933400 0.000000
41.970100 0.000000
42.006700 0.000000
42.043400 0.000000
42.080100 0.000000
42.116700 0.000000
42.153400 0.000000
42.190100 0.000000
42.226700 0.000000
42.263400 0.000000
42.300000 0.000000
42.336700 0.000000
42.373400 0.000000
42.410000 0.000000
42.446700 0.000000
42.483400 0.000000
42.520000 0.000000
42.556700 0.000000
42.593300 0.000000
42.630000 0.000000
42.666700 0.000000
42.703300 0.000000
42.740000 0.000000
42.776700 0.000000
42.813300 0.000000
42.850000 0.000000
42.886600 0.000000
42.923300 0.000000
42.960000 0.000000
42.996600 0.000000
43.033300 0.000000
43.070000 0.000000
43.106600 0.000000
43.143300 0.000000
43.179900 0.000000
43.216600 0.000000
43.253300 0.000000
43.289900 0.000000
43.326600 0.000000
43.363300 0.000000
43.399900 0.000000
43.436600 0.000000
43.473200 0.000000
43.509900 0.000000
43.546600 0.000000
43.583200 0.000000
43.619900 0.000000
43.656600 0.000000
43.693200 0.000000
43.729900 0.000000
43.766500 0.000000
43.803200 0.000000
43.839900 0.000000
43.876500 0.000000
43.913200 0.000000
43.949900 0.000000
43.986500 0.000000
44.023200 0.000000
44.059800 0.000000
44.096500 0.000000
44.133200 0.000000
44.169800 0.000000
44.206500 0.000000
e
