set title 'mp-502 - Density of States'
set xlabel 'Energy (eV)'
set ylabel 'DOS (states/eV)'
set grid
set xrange [-10:10]
set yrange [0:148.229]
set xzeroaxis lt -1
set terminal png size 800,600
set output 'mp-502_dos_gnuplot.png'
plot '-' using 1:2 with lines title 'DOS'
-15.101000 0.000000
-15.085300 0.000000
-15.069600 0.000000
-15.053800 0.000000
-15.038100 0.000000
-15.022400 0.000000
-15.006600 0.000000
-14.990900 0.000000
-14.975200 0.000000
-14.959400 0.000000
-14.943700 0.000000
-14.928000 0.000000
-14.912200 0.000000
-14.896500 0.000000
-14.880800 0.000000
-14.865000 0.000000
-14.849300 0.000000
-14.833600 0.000000
-14.817800 0.000000
-14.802100 0.000000
-14.786400 0.000000
-14.770600 0.000000
-14.754900 0.000000
-14.739200 0.000000
-14.723400 0.000000
-14.707700 0.000000
-14.692000 0.000000
-14.676200 0.000000
-14.660500 0.000000
-14.644800 0.000000
-14.629000 0.000000
-14.613300 0.000000
-14.597600 0.000000
-14.581800 0.000000
-14.566100 0.000000
-14.550400 0.000000
-14.534600 0.000000
-14.518900 0.000000
-14.503200 0.000000
-14.487500 0.000000
-14.471700 0.000000
-14.456000 0.000000
-14.440300 0.000000
-14.424500 0.000000
-14.408800 0.000000
-14.393100 0.000000
-14.377300 0.000000
-14.361600 0.000000
-14.345900 0.000000
-14.330100 0.000000
-14.314400 0.000000
-14.298700 0.000000
-14.282900 0.000000
-14.267200 0.000000
-14.251500 0.000000
-14.235700 0.000000
-14.220000 0.000000
-14.204300 0.000000
-14.188500 0.000000
-14.172800 0.000000
-14.157100 0.000000
-14.141300 0.000000
-14.125600 0.000000
-14.109900 0.000000
-14.094100 0.000000
-14.078400 0.000000
-14.062700 0.000000
-14.046900 0.000000
-14.031200 0.000000
-14.015500 0.000000
-13.999700 0.000000
-13.984000 0.000000
-13.968300 0.000000
-13.952500 0.000000
-13.936800 0.000000
-13.921100 0.000000
-13.905300 0.000000
-13.889600 0.000000
-13.873900 0.000000
-13.858100 0.000000
-13.842400 0.000000
-13.826700 0.000000
-13.811000 0.000000
-13.795200 0.000000
-13.779500 0.000000
-13.763800 0.000000
-13.748000 0.000000
-13.732300 0.000000
-13.716600 0.000000
-13.700800 0.000000
-13.685100 0.000000
-13.669400 0.013000
-13.653600 1.866100
-13.637900 7.055800
-13.622200 22.891300
-13.606400 39.743500
-13.590700 44.764400
-13.575000 0.000000
-13.559200 0.000000
-13.543500 0.000000
-13.527800 0.000000
-13.512000 66.602700
-13.496300 33.664800
-13.480600 10.326800
-13.464800 2.637900
-13.449100 0.076400
-13.433400 0.000000
-13.417600 0.000000
-13.401900 0.000000
-13.386200 0.000000
-13.370400 0.000000
-13.354700 0.000000
-13.339000 0.000000
-13.323200 0.000000
-13.307500 0.000000
-13.291800 0.000000
-13.276000 0.000000
-13.260300 0.000000
-13.244600 0.000000
-13.228800 0.000000
-13.213100 0.000000
-13.197400 0.000000
-13.181600 0.000000
-13.165900 0.000000
-13.150200 0.000000
-13.134400 0.000000
-13.118700 0.000000
-13.103000 0.000000
-13.087300 0.000000
-13.071500 0.000000
-13.055800 0.000000
-13.040100 0.000000
-13.024300 0.000000
-13.008600 0.000000
-12.992900 0.000000
-12.977100 0.000000
-12.961400 0.000000
-12.945700 0.000000
-12.929900 0.000000
-12.914200 0.000000
-12.898500 0.000000
-12.882700 0.000000
-12.867000 0.000000
-12.851300 0.000000
-12.835500 0.000000
-12.819800 0.000000
-12.804100 0.000000
-12.788300 0.000000
-12.772600 0.000000
-12.756900 0.000000
-12.741100 0.000000
-12.725400 0.000000
-12.709700 0.000000
-12.693900 0.000000
-12.678200 0.000000
-12.662500 0.000000
-12.646700 0.000000
-12.631000 0.000000
-12.615300 0.000000
-12.599500 0.010400
-12.583800 4.102300
-12.568100 19.387000
-12.552300 102.628900
-12.536600 0.000000
-12.520900 0.000000
-12.505100 48.012200
-12.489400 39.137500
-12.473700 24.253000
-12.457900 7.419800
-12.442200 1.540300
-12.426500 0.000000
-12.410800 0.000000
-12.395000 0.000000
-12.379300 0.000000
-12.363600 0.000000
-12.347800 0.000000
-12.332100 0.000000
-12.316400 0.000000
-12.300600 0.000000
-12.284900 0.000000
-12.269200 0.000000
-12.253400 0.000000
-12.237700 0.000000
-12.222000 0.000000
-12.206200 0.000000
-12.190500 0.000000
-12.174800 0.000000
-12.159000 0.000000
-12.143300 11.992300
-12.127600 29.723700
-12.111800 63.585800
-12.096100 29.496000
-12.080400 105.793400
-12.064600 0.000000
-12.048900 0.000000
-12.033200 0.000000
-12.017400 0.000000
-12.001700 0.000000
-11.986000 0.000000
-11.970200 0.000000
-11.954500 0.000000
-11.938800 0.000000
-11.923000 10.059400
-11.907300 108.750500
-11.891600 41.203900
-11.875800 0.000000
-11.860100 0.000000
-11.844400 46.890400
-11.828600 40.409200
-11.812900 31.477200
-11.797200 1.171500
-11.781400 0.000000
-11.765700 0.000000
-11.750000 0.000000
-11.734200 0.000000
-11.718500 0.000000
-11.702800 0.000000
-11.687100 0.000000
-11.671300 0.000000
-11.655600 0.000000
-11.639900 0.000000
-11.624100 0.000000
-11.608400 0.000000
-11.592700 0.000000
-11.576900 0.000000
-11.561200 0.000000
-11.545500 0.000000
-11.529700 0.000000
-11.514000 0.000000
-11.498300 0.000000
-11.482500 0.000000
-11.466800 0.000000
-11.451100 0.000000
-11.435300 0.000000
-11.419600 0.000000
-11.403900 0.000000
-11.388100 0.000000
-11.372400 0.000000
-11.356700 0.000000
-11.340900 0.000000
-11.325200 0.000000
-11.309500 0.000000
-11.293700 0.000000
-11.278000 0.000000
-11.262300 0.000000
-11.246500 0.000000
-11.230800 0.000000
-11.215100 0.000000
-11.199300 0.000000
-11.183600 0.000000
-11.167900 0.000000
-11.152100 0.000000
-11.136400 0.000000
-11.120700 0.000000
-11.104900 17.320800
-11.089200 128.268000
-11.073500 0.000000
-11.057700 90.971900
-11.042000 0.000000
-11.026300 0.000000
-11.010500 0.000000
-10.994800 0.000000
-10.979100 0.000000
-10.963400 0.000000
-10.947600 0.000000
-10.931900 0.000000
-10.916200 0.000000
-10.900400 0.000000
-10.884700 0.000000
-10.869000 0.000000
-10.853200 0.000000
-10.837500 0.000000
-10.821800 0.000000
-10.806000 0.000000
-10.790300 0.000000
-10.774600 0.000000
-10.758800 0.000000
-10.743100 0.000000
-10.727400 0.000000
-10.711600 0.000000
-10.695900 0.000000
-10.680200 0.000000
-10.664400 0.000000
-10.648700 0.000000
-10.633000 0.000000
-10.617200 0.000000
-10.601500 0.000000
-10.585800 0.000000
-10.570000 0.000000
-10.554300 0.000000
-10.538600 0.000000
-10.522800 0.000000
-10.507100 0.000000
-10.491400 0.000000
-10.475600 0.000000
-10.459900 0.000000
-10.444200 0.000000
-10.428400 0.000000
-10.412700 0.000000
-10.397000 0.000000
-10.381200 0.000000
-10.365500 0.000000
-10.349800 0.000000
-10.334000 0.000000
-10.318300 0.000000
-10.302600 0.000000
-10.286900 0.000000
-10.271100 0.000000
-10.255400 0.000000
-10.239700 0.000000
-10.223900 0.000000
-10.208200 0.000000
-10.192500 0.000000
-10.176700 0.000000
-10.161000 0.000000
-10.145300 0.000000
-10.129500 0.000000
-10.113800 0.000000
-10.098100 0.000000
-10.082300 0.000000
-10.066600 0.000000
-10.050900 0.000000
-10.035100 0.000000
-10.019400 0.000000
-10.003700 0.000000
-9.987900 0.000000
-9.972200 0.000000
-9.956500 0.000000
-9.940700 0.000000
-9.925000 0.000000
-9.909300 0.000000
-9.893500 0.000000
-9.877800 0.000000
-9.862100 0.000000
-9.846300 0.000000
-9.830600 0.000000
-9.814900 0.000000
-9.799100 0.000000
-9.783400 0.000000
-9.767700 0.000000
-9.751900 0.000000
-9.736200 0.000000
-9.720500 0.000000
-9.704700 0.000000
-9.689000 0.000000
-9.673300 0.000600
-9.657500 0.964400
-9.641800 3.832700
-9.626100 10.885400
-9.610300 19.316000
-9.594600 21.574600
-9.578900 25.143200
-9.563200 24.847000
-9.547400 23.268200
-9.531700 0.000000
-9.516000 0.000000
-9.500200 0.000000
-9.484500 0.000000
-9.468800 26.979700
-9.453000 58.353100
-9.437300 30.005500
-9.421600 12.373900
-9.405800 0.787300
-9.390100 0.000000
-9.374400 0.000000
-9.358600 0.000000
-9.342900 0.000000
-9.327200 0.000000
-9.311400 0.000000
-9.295700 0.000000
-9.280000 0.000000
-9.264200 0.000000
-9.248500 0.000000
-9.232800 0.000000
-9.217000 0.000000
-9.201300 0.000000
-9.185600 0.000000
-9.169800 0.000000
-9.154100 0.000000
-9.138400 0.000000
-9.122600 0.000000
-9.106900 0.000000
-9.091200 0.000000
-9.075400 0.000000
-9.059700 0.000000
-9.044000 0.000000
-9.028200 0.000000
-9.012500 0.000000
-8.996800 0.000000
-8.981000 0.000000
-8.965300 0.000000
-8.949600 0.000000
-8.933800 0.000000
-8.918100 0.000000
-8.902400 0.000000
-8.886700 0.000000
-8.870900 0.000000
-8.855200 0.000000
-8.839500 0.000000
-8.823700 0.000000
-8.808000 0.000000
-8.792300 0.000000
-8.776500 0.000000
-8.760800 0.000000
-8.745100 0.000000
-8.729300 0.000000
-8.713600 0.000000
-8.697900 0.000000
-8.682100 0.000000
-8.666400 5.799600
-8.650700 19.291800
-8.634900 29.731500
-8.619200 69.833100
-8.603500 17.311500
-8.587700 0.000000
-8.572000 0.000000
-8.556300 0.000000
-8.540500 19.634600
-8.524800 69.014600
-8.509100 24.876500
-8.493300 18.522900
-8.477600 11.937800
-8.461900 0.667800
-8.446100 0.000000
-8.430400 0.000000
-8.414700 0.000000
-8.398900 0.000000
-8.383200 0.000000
-8.367500 0.000000
-8.351700 0.000000
-8.336000 0.000000
-8.320300 0.000000
-8.304500 0.000000
-8.288800 0.000000
-8.273100 0.000000
-8.257300 0.000000
-8.241600 0.000000
-8.225900 0.000000
-8.210100 0.000000
-8.194400 0.000000
-8.178700 0.000000
-8.163000 0.000000
-8.147200 0.000000
-8.131500 0.000000
-8.115800 0.000000
-8.100000 0.000000
-8.084300 0.000000
-8.068600 0.000000
-8.052800 0.000000
-8.037100 0.000000
-8.021400 0.000000
-8.005600 0.000000
-7.989900 0.000000
-7.974200 0.000000
-7.958400 0.000000
-7.942700 0.000000
-7.927000 0.000000
-7.911200 0.000000
-7.895500 0.000000
-7.879800 0.000000
-7.864000 0.000000
-7.848300 0.000000
-7.832600 0.000000
-7.816800 0.000000
-7.801100 0.000000
-7.785400 0.000000
-7.769600 0.000000
-7.753900 0.000000
-7.738200 0.000000
-7.722400 0.000000
-7.706700 0.000000
-7.691000 0.000000
-7.675200 0.000000
-7.659500 0.000000
-7.643800 0.000000
-7.628000 0.000000
-7.612300 0.000000
-7.596600 0.000000
-7.580800 0.000000
-7.565100 0.000000
-7.549400 0.000000
-7.533600 0.000000
-7.517900 0.000000
-7.502200 0.000000
-7.486500 9.658000
-7.470700 46.049300
-7.455000 89.686300
-7.439300 1.703400
-7.423500 134.753600
-7.407800 0.000000
-7.392100 0.000000
-7.376300 0.000000
-7.360600 0.000000
-7.344900 0.000000
-7.329100 0.000000
-7.313400 0.000000
-7.297700 0.000000
-7.281900 0.000000
-7.266200 0.000000
-7.250500 0.000000
-7.234700 0.000000
-7.219000 0.000000
-7.203300 0.000000
-7.187500 0.000000
-7.171800 0.000000
-7.156100 0.000000
-7.140300 0.000000
-7.124600 0.000000
-7.108900 0.000000
-7.093100 0.000000
-7.077400 0.000000
-7.061700 0.000000
-7.045900 0.000000
-7.030200 0.000000
-7.014500 0.000000
-6.998700 0.000000
-6.983000 0.000000
-6.967300 0.000000
-6.951500 0.000000
-6.935800 0.000000
-6.920100 0.000000
-6.904300 0.000000
-6.888600 0.000000
-6.872900 0.000000
-6.857100 11.470400
-6.841400 20.293000
-6.825700 20.581700
-6.809900 20.488500
-6.794200 58.046300
-6.778500 19.632700
-6.762800 0.000000
-6.747000 0.000000
-6.731300 0.000000
-6.715600 0.000000
-6.699800 9.755500
-6.684100 24.633400
-6.668400 31.064900
-6.652600 29.096000
-6.636900 17.339000
-6.621200 7.910500
-6.605400 3.478500
-6.589700 0.405100
-6.574000 0.000000
-6.558200 0.000000
-6.542500 0.000000
-6.526800 0.000000
-6.511000 0.000000
-6.495300 0.000000
-6.479600 0.000000
-6.463800 0.000000
-6.448100 0.000000
-6.432400 0.000000
-6.416600 0.000000
-6.400900 0.000000
-6.385200 0.000000
-6.369400 0.000000
-6.353700 0.000000
-6.338000 0.000000
-6.322200 0.000000
-6.306500 0.000000
-6.290800 0.000000
-6.275000 0.000000
-6.259300 0.000000
-6.243600 0.000000
-6.227800 0.000000
-6.212100 0.000000
-6.196400 0.000000
-6.180600 0.000000
-6.164900 0.000000
-6.149200 0.000000
-6.133400 0.000000
-6.117700 0.000000
-6.102000 0.000000
-6.086200 0.000000
-6.070500 0.000000
-6.054800 0.000000
-6.039100 0.000000
-6.023300 0.000000
-6.007600 0.000000
-5.991900 0.000000
-5.976100 0.000000
-5.960400 0.000000
-5.944700 0.000000
-5.928900 0.000000
-5.913200 0.000000
-5.897500 0.000000
-5.881700 0.000000
-5.866000 0.000000
-5.850300 0.000000
-5.834500 0.000000
-5.818800 0.000000
-5.803100 0.000000
-5.787300 0.000000
-5.771600 0.000000
-5.755900 0.000000
-5.740100 0.000000
-5.724400 0.000000
-5.708700 0.000000
-5.692900 0.000000
-5.677200 0.000000
-5.661500 0.000000
-5.645700 0.000000
-5.630000 0.000000
-5.614300 0.000000
-5.598500 0.000000
-5.582800 0.000000
-5.567100 0.000000
-5.551300 0.000000
-5.535600 0.000000
-5.519900 0.000000
-5.504100 0.000000
-5.488400 0.000000
-5.472700 0.000000
-5.456900 0.000000
-5.441200 0.000000
-5.425500 0.000000
-5.409700 0.000000
-5.394000 0.000000
-5.378300 0.000000
-5.362600 0.000000
-5.346800 0.000000
-5.331100 0.000000
-5.315400 0.000000
-5.299600 0.000000
-5.283900 0.000000
-5.268200 0.000000
-5.252400 0.000000
-5.236700 0.000000
-5.221000 0.000000
-5.205200 0.000000
-5.189500 0.000000
-5.173800 0.000000
-5.158000 0.000000
-5.142300 0.000000
-5.126600 0.000000
-5.110800 0.000000
-5.095100 0.000000
-5.079400 0.000000
-5.063600 0.000000
-5.047900 0.000000
-5.032200 0.000000
-5.016400 0.000000
-5.000700 0.000000
-4.985000 0.000000
-4.969200 0.000000
-4.953500 0.000000
-4.937800 0.000000
-4.922000 0.000000
-4.906300 0.000000
-4.890600 0.000000
-4.874800 0.000000
-4.859100 0.000000
-4.843400 0.000000
-4.827600 0.000000
-4.811900 0.000000
-4.796200 0.000000
-4.780400 0.000000
-4.764700 0.000000
-4.749000 0.000000
-4.733200 0.000000
-4.717500 0.000000
-4.701800 0.000000
-4.686000 0.000000
-4.670300 0.000000
-4.654600 0.000000
-4.638900 0.000000
-4.623100 0.000000
-4.607400 0.000000
-4.591700 0.000000
-4.575900 0.000000
-4.560200 0.000000
-4.544500 0.000000
-4.528700 0.000000
-4.513000 0.000000
-4.497300 0.000000
-4.481500 0.000000
-4.465800 0.000000
-4.450100 0.000000
-4.434300 0.000000
-4.418600 0.000000
-4.402900 0.000000
-4.387100 0.000000
-4.371400 0.000000
-4.355700 0.000000
-4.339900 0.000000
-4.324200 0.000000
-4.308500 0.000000
-4.292700 0.000000
-4.277000 0.000000
-4.261300 0.000000
-4.245500 0.000000
-4.229800 0.000000
-4.214100 0.000000
-4.198300 0.000000
-4.182600 0.000000
-4.166900 0.000000
-4.151100 0.000000
-4.135400 0.000000
-4.119700 0.000000
-4.103900 0.000000
-4.088200 0.000000
-4.072500 0.000000
-4.056700 0.000000
-4.041000 0.000000
-4.025300 0.000000
-4.009500 0.000000
-3.993800 0.000000
-3.978100 0.000000
-3.962400 0.000000
-3.946600 0.000000
-3.930900 0.000000
-3.915200 0.000000
-3.899400 0.000000
-3.883700 0.000000
-3.868000 0.000000
-3.852200 0.000000
-3.836500 0.000000
-3.820800 0.000000
-3.805000 64.230500
-3.789300 44.576600
-3.773600 18.141800
-3.757800 128.599800
-3.742100 27.820500
-3.726400 23.798800
-3.710600 8.289300
-3.694900 0.000000
-3.679200 0.000000
-3.663400 0.000000
-3.647700 0.000000
-3.632000 47.041900
-3.616200 28.730100
-3.600500 19.579600
-3.584800 12.711500
-3.569000 7.686900
-3.553300 8.284000
-3.537600 49.298400
-3.521800 29.417500
-3.506100 14.754800
-3.490400 10.263700
-3.474600 7.519500
-3.458900 6.366300
-3.443200 4.725400
-3.427400 6.230800
-3.411700 6.689800
-3.396000 6.671800
-3.380200 6.654600
-3.364500 6.638200
-3.348800 6.622600
-3.333000 6.607600
-3.317300 6.593500
-3.301600 9.249400
-3.285800 11.762000
-3.270100 10.754600
-3.254400 9.753200
-3.238700 12.524900
-3.222900 8.996700
-3.207200 0.000000
-3.191500 0.000000
-3.175700 0.000000
-3.160000 0.000000
-3.144300 0.000000
-3.128500 0.000000
-3.112800 0.000000
-3.097100 0.000000
-3.081300 0.000000
-3.065600 0.000000
-3.049900 0.000000
-3.034100 0.000000
-3.018400 0.000000
-3.002700 0.000000
-2.986900 0.000000
-2.971200 0.000000
-2.955500 0.000000
-2.939700 22.563800
-2.924000 27.495300
-2.908300 18.709200
-2.892500 13.382000
-2.876800 12.994200
-2.861100 13.605400
-2.845300 14.502800
-2.829600 29.098100
-2.813900 19.180300
-2.798100 19.807000
-2.782400 35.912300
-2.766700 36.043500
-2.750900 30.433400
-2.735200 25.175700
-2.719500 18.456700
-2.703700 15.459400
-2.688000 4.876600
-2.672300 2.950900
-2.656500 2.049600
-2.640800 4.304400
-2.625100 10.418700
-2.609300 23.183900
-2.593600 34.593400
-2.577900 49.434300
-2.562200 27.489000
-2.546400 21.094100
-2.530700 21.360500
-2.515000 40.842700
-2.499200 37.619800
-2.483500 15.159400
-2.467800 40.114200
-2.452000 23.598100
-2.436300 17.366500
-2.420600 16.361400
-2.404800 16.406300
-2.389100 18.305800
-2.373400 19.919200
-2.357600 36.530800
-2.341900 25.688200
-2.326200 14.271200
-2.310400 0.000000
-2.294700 0.000000
-2.279000 0.000000
-2.263200 0.000000
-2.247500 0.000000
-2.231800 0.000000
-2.216000 0.000000
-2.200300 0.000000
-2.184600 0.000000
-2.168800 0.000000
-2.153100 0.000000
-2.137400 0.000000
-2.121600 0.000000
-2.105900 0.000000
-2.090200 0.000000
-2.074400 0.000000
-2.058700 0.000000
-2.043000 0.000000
-2.027200 0.000000
-2.011500 0.000000
-1.995800 0.000000
-1.980000 0.000000
-1.964300 0.000000
-1.948600 0.000000
-1.932800 0.000000
-1.917100 0.000000
-1.901400 0.000000
-1.885600 0.000000
-1.869900 0.000000
-1.854200 0.000000
-1.838500 0.000000
-1.822700 0.000000
-1.807000 0.000000
-1.791300 0.000000
-1.775500 0.000000
-1.759800 0.000000
-1.744100 0.000000
-1.728300 0.000000
-1.712600 0.000000
-1.696900 0.000000
-1.681100 0.000000
-1.665400 0.742100
-1.649700 16.858000
-1.633900 12.390700
-1.618200 14.167500
-1.602500 15.090200
-1.586700 16.065700
-1.571000 22.067500
-1.555300 20.614000
-1.539500 17.228400
-1.523800 14.866400
-1.508100 12.611500
-1.492300 12.945100
-1.476600 13.270900
-1.460900 13.589100
-1.445100 13.899500
-1.429400 11.926500
-1.413700 15.880700
-1.397900 16.356900
-1.382200 18.729200
-1.366500 15.855800
-1.350700 16.460800
-1.335000 17.492600
-1.319300 24.856400
-1.303500 24.611800
-1.287800 32.165800
-1.272100 15.122300
-1.256300 10.966500
-1.240600 12.084100
-1.224900 12.326500
-1.209100 12.326500
-1.193400 12.084400
-1.177700 16.373100
-1.161900 7.716100
-1.146200 3.545700
-1.130500 3.008400
-1.114800 14.162200
-1.099000 20.597600
-1.083300 22.918800
-1.067600 26.562400
-1.051800 24.398900
-1.036100 25.274300
-1.020400 25.488700
-1.004600 19.317200
-0.988900 30.634100
-0.973200 11.352500
-0.957400 10.927400
-0.941700 11.326600
-0.926000 12.409800
-0.910200 24.858200
-0.894500 30.064100
-0.878800 36.730100
-0.863000 24.040700
-0.847300 11.680400
-0.831600 9.340300
-0.815800 12.331400
-0.800100 17.887600
-0.784400 21.131700
-0.768600 18.522100
-0.752900 14.524600
-0.737200 11.842900
-0.721400 9.120000
-0.705700 6.018400
-0.690000 3.034000
-0.674200 1.690200
-0.658500 0.856300
-0.642800 0.264800
-0.627000 0.000000
-0.611300 8.799800
-0.595600 12.839300
-0.579800 15.299700
-0.564100 14.599000
-0.548400 15.163300
-0.532600 15.900700
-0.516900 17.184800
-0.501200 15.001800
-0.485400 12.774700
-0.469700 13.461000
-0.454000 15.601500
-0.438300 16.420800
-0.422500 16.503000
-0.406800 16.078700
-0.391100 16.103500
-0.375300 37.214500
-0.359600 3.371000
-0.343900 24.279200
-0.328100 31.076900
-0.312400 24.070500
-0.296700 13.575100
-0.280900 10.420000
-0.265200 7.330800
-0.249500 3.025600
-0.233700 12.941600
-0.218000 16.258600
-0.202300 27.744500
-0.186500 22.271200
-0.170800 14.335600
-0.155100 12.404400
-0.139300 9.960100
-0.123600 4.784300
-0.107900 2.476300
-0.092100 0.715100
-0.076400 0.000000
-0.060700 4.799500
-0.044900 13.777200
-0.029200 17.452900
-0.013500 21.828800
0.002300 30.443700
0.018000 30.103300
0.033700 27.012100
0.049500 27.046300
0.065200 23.604400
0.080900 15.418900
0.096700 13.397600
0.112400 13.364000
0.128100 13.723800
0.143900 6.353900
0.159600 0.000000
0.175300 7.313100
0.191100 24.093900
0.206800 39.219500
0.222500 39.410300
0.238300 26.362600
0.254000 42.745700
0.269700 21.867900
0.285400 24.007400
0.301200 33.444900
0.316900 31.809300
0.332600 41.987200
0.348400 47.409900
0.364100 45.871000
0.379800 41.591400
0.395600 50.664500
0.411300 5.645500
0.427000 14.279500
0.442800 16.440900
0.458500 18.149400
0.474200 20.040600
0.490000 30.655600
0.505700 33.377000
0.521400 33.929400
0.537200 29.992000
0.552900 27.635700
0.568600 18.271700
0.584400 5.462400
0.600100 0.862600
0.615800 0.000000
0.631600 0.000000
0.647300 0.000000
0.663000 0.000000
0.678800 0.000000
0.694500 0.000000
0.710200 0.000000
0.726000 0.000000
0.741700 0.000000
0.757400 0.000000
0.773200 0.000000
0.788900 0.000000
0.804600 0.000000
0.820400 0.000000
0.836100 0.000000
0.851800 0.000000
0.867600 0.000000
0.883300 0.000000
0.899000 0.000000
0.914800 0.000000
0.930500 0.000000
0.946200 0.000000
0.961900 0.000000
0.977700 0.000000
0.993400 0.000000
1.009100 0.000000
1.024900 0.000000
1.040600 0.000000
1.056300 0.000000
1.072100 0.000000
1.087800 0.000000
1.103500 0.000000
1.119300 0.000000
1.135000 0.000000
1.150700 0.000000
1.166500 0.000000
1.182200 0.000000
1.197900 0.000000
1.213700 0.000000
1.229400 0.000000
1.245100 0.000000
1.260900 0.000000
1.276600 0.000000
1.292300 0.000000
1.308100 0.000000
1.323800 0.000000
1.339500 0.000000
1.355300 0.000000
1.371000 0.000000
1.386700 0.000000
1.402500 0.000000
1.418200 0.000000
1.433900 0.000000
1.449700 0.000000
1.465400 0.000000
1.481100 0.000000
1.496900 0.000000
1.512600 0.000000
1.528300 0.000000
1.544100 0.000000
1.559800 0.000000
1.575500 0.000000
1.591300 0.000000
1.607000 0.000000
1.622700 0.000000
1.638500 0.000000
1.654200 0.000000
1.669900 0.000000
1.685600 0.000000
1.701400 0.000000
1.717100 0.000000
1.732800 0.000000
1.748600 0.000000
1.764300 0.000000
1.780000 0.000000
1.795800 0.000000
1.811500 0.000000
1.827200 0.000000
1.843000 0.000000
1.858700 0.000000
1.874400 0.000000
1.890200 0.000000
1.905900 0.000000
1.921600 0.000000
1.937400 0.000000
1.953100 0.000000
1.968800 0.000000
1.984600 0.000000
2.000300 0.000000
2.016000 0.000000
2.031800 0.000000
2.047500 0.000000
2.063200 0.000000
2.079000 0.000000
2.094700 0.000000
2.110400 0.000000
2.126200 0.000000
2.141900 0.000000
2.157600 0.000000
2.173400 0.000000
2.189100 0.000000
2.204800 0.000000
2.220600 0.000000
2.236300 0.000000
2.252000 0.000000
2.267800 0.000000
2.283500 0.000000
2.299200 0.000000
2.315000 0.000000
2.330700 0.000000
2.346400 0.000000
2.362100 0.000000
2.377900 0.000000
2.393600 0.000000
2.409300 0.000000
2.425100 0.000000
2.440800 0.000000
2.456500 0.000000
2.472300 0.000000
2.488000 0.000000
2.503700 0.000000
2.519500 0.000000
2.535200 0.000000
2.550900 0.000000
2.566700 0.000000
2.582400 0.000000
2.598100 0.000000
2.613900 0.000600
2.629600 0.019100
2.645300 0.063500
2.661100 0.133700
2.676800 0.229900
2.692500 0.351900
2.708300 0.557500
2.724000 0.774300
2.739700 0.992900
2.755500 1.213500
2.771200 1.435900
2.786900 1.660300
2.802700 1.926800
2.818400 2.344600
2.834100 2.941800
2.849900 3.455900
2.865600 3.670900
2.881300 3.680300
2.897100 3.683700
2.912800 3.687800
2.928500 3.692700
2.944300 3.698200
2.960000 3.704400
2.975700 4.395000
2.991500 5.113300
3.007200 5.866400
3.022900 6.721500
3.038700 7.641800
3.054400 8.328100
3.070100 10.192400
3.085800 12.080700
3.101600 15.369800
3.117300 15.686100
3.133000 15.982500
3.148800 46.693100
3.164500 15.310400
3.180200 23.232300
3.196000 19.650700
3.211700 14.261200
3.227400 12.919900
3.243200 11.630500
3.258900 10.759300
3.274600 10.882800
3.290400 11.212900
3.306100 11.117600
3.321800 12.442600
3.337600 22.470600
3.353300 13.439600
3.369000 13.863000
3.384800 14.240900
3.400500 14.514200
3.416200 14.590000
3.432000 13.571500
3.447700 12.531800
3.463400 10.414700
3.479200 10.401900
3.494900 10.404300
3.510600 9.840900
3.526400 9.320500
3.542100 7.716600
3.557800 7.397400
3.573600 9.516900
3.589300 9.797300
3.605000 10.391300
3.620800 11.530600
3.636500 12.710500
3.652200 15.611700
3.668000 15.879100
3.683700 15.570700
3.699400 25.791100
3.715200 16.117700
3.730900 16.454700
3.746600 20.191900
3.762400 18.550100
3.778100 15.510000
3.793800 11.349500
3.809500 8.222000
3.825300 5.958800
3.841000 5.696400
3.856700 6.252700
3.872500 11.879900
3.888200 14.214800
3.903900 19.003000
3.919700 24.872600
3.935400 29.343400
3.951100 21.340900
3.966900 17.207500
3.982600 16.208400
3.998300 13.366900
4.014100 12.702200
4.029800 12.290700
4.045500 10.289900
4.061300 9.485600
4.077000 8.645400
4.092700 7.725100
4.108500 6.383900
4.124200 4.745300
4.139900 3.418100
4.155700 2.090700
4.171400 1.361400
4.187100 1.724400
4.202900 3.577600
4.218600 6.004400
4.234300 11.911500
4.250100 20.398100
4.265800 19.524600
4.281500 14.150800
4.297300 10.692800
4.313000 13.709700
4.328700 15.329000
4.344500 16.877300
4.360200 17.080900
4.375900 16.939900
4.391700 16.072100
4.407400 17.063600
4.423100 20.665900
4.438900 19.861200
4.454600 7.854200
4.470300 1.483800
4.486000 5.694400
4.501800 9.767200
4.517500 12.837400
4.533200 16.321700
4.549000 16.762500
4.564700 16.622900
4.580400 23.321800
4.596200 22.192000
4.611900 11.856100
4.627600 9.540900
4.643400 11.633500
4.659100 17.993200
4.674800 20.927800
4.690600 20.448500
4.706300 21.002600
4.722000 19.929900
4.737800 18.114900
4.753500 15.536300
4.769200 10.702200
4.785000 19.238100
4.800700 19.181100
4.816400 19.052700
4.832200 18.896700
4.847900 19.062300
4.863600 22.451000
4.879400 19.887800
4.895100 21.846700
4.910800 21.059900
4.926600 19.324500
4.942300 21.558600
4.958000 12.261900
4.973800 14.114500
4.989500 14.781200
5.005200 26.678700
5.021000 25.705800
5.036700 13.037100
5.052400 9.435000
5.068200 10.532700
5.083900 14.017400
5.099600 16.969500
5.115400 20.566300
5.131100 28.237300
5.146800 16.236400
5.162600 0.000000
5.178300 0.000000
5.194000 0.000000
5.209700 0.000000
5.225500 0.000000
5.241200 0.000000
5.256900 0.000000
5.272700 0.000000
5.288400 0.000000
5.304100 0.000000
5.319900 0.000000
5.335600 0.000000
5.351300 0.000000
5.367100 0.000000
5.382800 0.000000
5.398500 0.000000
5.414300 0.000000
5.430000 0.000000
5.445700 0.000000
5.461500 0.000000
5.477200 0.000000
5.492900 0.000000
5.508700 0.000000
5.524400 0.000000
5.540100 0.000000
5.555900 0.000000
5.571600 21.939800
5.587300 19.192400
5.603100 23.260000
5.618800 24.491300
5.634500 27.353300
5.650300 17.151400
5.666000 10.761200
5.681700 12.434300
5.697500 14.216000
5.713200 15.082300
5.728900 10.526700
5.744700 10.290600
5.760400 10.329500
5.776100 10.087400
5.791900 10.177600
5.807600 10.600200
5.823300 11.355100
5.839100 17.668300
5.854800 23.272300
5.870500 29.628800
5.886200 24.773600
5.902000 18.582900
5.917700 17.720900
5.933400 20.738500
5.949200 21.101000
5.964900 20.342700
5.980600 16.290500
5.996400 13.230400
6.012100 9.411800
6.027800 5.260000
6.043600 0.321400
6.059300 0.053300
6.075000 2.054100
6.090800 6.945800
6.106500 15.385800
6.122200 18.318300
6.138000 21.604600
6.153700 18.774800
6.169400 15.059800
6.185200 10.129300
6.200900 3.919400
6.216600 3.073200
6.232400 6.453000
6.248100 9.052600
6.263800 10.975600
6.279600 12.677100
6.295300 15.371200
6.311000 18.577200
6.326800 13.464700
6.342500 9.093700
6.358200 8.053700
6.374000 6.816200
6.389700 5.725700
6.405400 4.783700
6.421200 3.992200
6.436900 2.887000
6.452600 2.118600
6.468400 1.757700
6.484100 1.428400
6.499800 1.130900
6.515600 0.865000
6.531300 0.630800
6.547000 0.428200
6.562800 0.257400
6.578500 0.259300
6.594200 0.304400
6.609900 0.353100
6.625700 0.405400
6.641400 0.461300
6.657100 0.520900
6.672900 0.599100
6.688600 0.681100
6.704300 0.761900
6.720100 0.841700
6.735800 0.920400
6.751500 0.998100
6.767300 1.074600
6.783000 1.150100
6.798700 1.224500
6.814500 1.351400
6.830200 1.530000
6.845900 1.717800
6.861700 1.899100
6.877400 2.073800
6.893100 2.242000
6.908900 2.403700
6.924600 2.558900
6.940300 2.732500
6.956100 2.939400
6.971800 3.142900
6.987500 3.342800
7.003300 3.539200
7.019000 3.732200
7.034700 3.921600
7.050500 4.107600
7.066200 4.290000
7.081900 4.481200
7.097700 4.708200
7.113400 5.425400
7.129100 5.574900
7.144900 5.707800
7.160600 5.824100
7.176300 5.923900
7.192100 7.063700
7.207800 7.109300
7.223500 7.344200
7.239300 7.605400
7.255000 7.931900
7.270700 8.304700
7.286400 9.593600
7.302200 8.709500
7.317900 7.672800
7.333600 7.805000
7.349400 7.991500
7.365100 7.110600
7.380800 6.896700
7.396600 6.778500
7.412300 6.672800
7.428000 6.579400
7.443800 6.498400
7.459500 6.902200
7.475200 6.924900
7.491000 9.812400
7.506700 8.887400
7.522400 8.038600
7.538200 7.342200
7.553900 4.932500
7.569600 5.356800
7.585400 5.733400
7.601100 6.067700
7.616800 6.407900
7.632600 6.765500
7.648300 7.108500
7.664000 7.442900
7.679800 7.768800
7.695500 8.086100
7.711200 8.394900
7.727000 8.695200
7.742700 8.986900
7.758400 9.270000
7.774200 14.350400
7.789900 9.363500
7.805600 10.030600
7.821400 8.769000
7.837100 8.089800
7.852800 9.965400
7.868600 9.833100
7.884300 9.085800
7.900000 6.345500
7.915800 5.254400
7.931500 4.787900
7.947200 4.465800
7.963000 4.289500
7.978700 4.259200
7.994400 4.374700
8.010100 4.792600
8.025900 7.428300
8.041600 12.590200
8.057300 19.123900
8.073100 22.519600
8.088800 13.298400
8.104500 11.691000
8.120300 10.438700
8.136000 9.225600
8.151700 8.488200
8.167500 8.507300
8.183200 8.529700
8.198900 9.175200
8.214700 11.113100
8.230400 13.637800
8.246100 15.165500
8.261900 17.210300
8.277600 16.753200
8.293300 18.608800
8.309100 17.807700
8.324800 14.939300
8.340500 12.680200
8.356300 8.653700
8.372000 7.965400
8.387700 10.293800
8.403500 12.920000
8.419200 26.628300
8.434900 26.408400
8.450700 21.984800
8.466400 1.224900
8.482100 0.304400
8.497900 1.029300
8.513600 1.861400
8.529300 2.800600
8.545100 5.778200
8.560800 7.172100
8.576500 8.441200
8.592300 9.585500
8.608000 12.385700
8.623700 14.709200
8.639500 10.779000
8.655200 12.169000
8.670900 16.334700
8.686700 15.441500
8.702400 14.218100
8.718100 13.162800
8.733800 12.835200
8.749600 12.471700
8.765300 16.458300
8.781000 15.623900
8.796800 17.418400
8.812500 19.473800
8.828200 18.865200
8.844000 18.110500
8.859700 15.357100
8.875400 10.605300
8.891200 10.059700
8.906900 10.525500
8.922600 11.084900
8.938400 18.226000
8.954100 18.299900
8.969800 17.930700
8.985600 10.968700
9.001300 10.088500
9.017000 14.545300
9.032800 14.387100
9.048500 14.237300
9.064200 13.152500
9.080000 14.794800
9.095700 14.997200
9.111400 15.259700
9.127200 16.995200
9.142900 15.093900
9.158600 12.667400
9.174400 15.914700
9.190100 15.719300
9.205800 15.516600
9.221600 14.447100
9.237300 14.289300
9.253000 21.919200
9.268800 14.475800
9.284500 15.233700
9.300200 16.021100
9.316000 21.003500
9.331700 21.369200
9.347400 22.020800
9.363200 20.556000
9.378900 18.158100
9.394600 17.192900
9.410300 18.060500
9.426100 19.220500
9.441800 20.597900
9.457500 18.569500
9.473300 11.656800
9.489000 10.599900
9.504700 10.011100
9.520500 9.890300
9.536200 10.196100
9.551900 10.603300
9.567700 17.147800
9.583400 17.965100
9.599100 21.886800
9.614900 18.526200
9.630600 18.874500
9.646300 8.702400
9.662100 6.934300
9.677800 6.494400
9.693500 6.516400
9.709300 13.979900
9.725000 15.859500
9.740700 23.047100
9.756500 30.322600
9.772200 13.179800
9.787900 14.057700
9.803700 15.981800
9.819400 15.335700
9.835100 14.534900
9.850900 17.881400
9.866600 17.778200
9.882300 17.348300
9.898100 16.337600
9.913800 19.334200
9.929500 19.332900
9.945300 19.502500
9.961000 21.582000
9.976700 19.484400
9.992500 18.594700
10.008200 17.675200
10.023900 16.609000
10.039700 16.016200
10.055400 16.165800
10.071100 16.560000
10.086900 13.531900
10.102600 11.096900
10.118300 14.995800
10.134000 18.339700
10.149800 19.775600
10.165500 46.616400
10.181200 22.247400
10.197000 22.831100
10.212700 20.012500
10.228400 22.018300
10.244200 26.602000
10.259900 21.321200
10.275600 19.371400
10.291400 18.697000
10.307100 17.444000
10.322800 21.445600
10.338600 24.879400
10.354300 19.435600
10.370000 12.471200
10.385800 12.321400
10.401500 13.922900
10.417200 15.246600
10.433000 18.631900
10.448700 17.422300
10.464400 18.514700
10.480200 18.585700
10.495900 19.781400
10.511600 15.971300
10.527400 10.422700
10.543100 9.767000
10.558800 10.155400
10.574600 15.346600
10.590300 13.749000
10.606000 14.021500
10.621800 14.497200
10.637500 15.144300
10.653200 15.059200
10.669000 13.669800
10.684700 10.093300
10.700400 14.492700
10.716200 14.703400
10.731900 15.087100
10.747600 15.631300
10.763400 16.958200
10.779100 13.324600
10.794800 11.756200
10.810500 10.518800
10.826300 9.301000
10.842000 10.486800
10.857700 10.955700
10.873500 12.109800
10.889200 13.699000
10.904900 15.049200
10.920700 17.361800
10.936400 18.909500
10.952100 19.723400
10.967900 20.229800
10.983600 19.796500
10.999300 19.622600
11.015100 18.828500
11.030800 20.935200
11.046500 18.440000
11.062300 18.561500
11.078000 19.531500
11.093700 20.729200
11.109500 17.862100
11.125200 16.110200
11.140900 15.362500
11.156700 13.217100
11.172400 25.908700
11.188100 17.322400
11.203900 17.163400
11.219600 16.838400
11.235300 16.319700
11.251100 15.607300
11.266800 14.168300
11.282500 13.487300
11.298300 12.624300
11.314000 17.726900
11.329700 17.241700
11.345500 23.783800
11.361200 20.234400
11.376900 19.704100
11.392700 12.123300
11.408400 11.585400
11.424100 11.117600
11.439900 10.974000
11.455600 16.318300
11.471300 19.386300
11.487100 17.966800
11.502800 9.678900
11.518500 9.582300
11.534200 10.229600
11.550000 10.349000
11.565700 10.501800
11.581400 10.687800
11.597200 10.918000
11.612900 11.200100
11.628600 11.428000
11.644400 12.399700
11.660100 12.143800
11.675800 12.056000
11.691600 15.628000
11.707300 16.257300
11.723000 17.243500
11.738800 22.550500
11.754500 23.450700
11.770200 20.655800
11.786000 22.054000
11.801700 15.500200
11.817400 12.756200
11.833200 10.908200
11.848900 9.956100
11.864600 14.317700
11.880400 15.501300
11.896100 15.931800
11.911800 13.408300
11.927600 13.239200
11.943300 13.270100
11.959000 13.050900
11.974800 12.550200
11.990500 11.832300
12.006200 10.251600
12.022000 9.089500
12.037700 7.818700
12.053400 13.389700
12.069200 18.438000
12.084900 24.325300
12.100600 29.290500
12.116400 18.930000
12.132100 14.876800
12.147800 12.332000
12.163600 27.380200
12.179300 19.050700
12.195000 17.931100
12.210700 16.590100
12.226500 15.312700
12.242200 14.298100
12.257900 12.522600
12.273700 13.029900
12.289400 17.801000
12.305100 9.575000
12.320900 8.680600
12.336600 8.892000
12.352300 9.264300
12.368100 9.899800
12.383800 9.252400
12.399500 10.440700
12.415300 12.159800
12.431000 14.050100
12.446700 20.112400
12.462500 21.518700
12.478200 21.444800
12.493900 26.069300
12.509700 15.069100
12.525400 13.721200
12.541100 12.772800
12.556900 16.039300
12.572600 15.853300
12.588300 20.536400
12.604100 14.803300
12.619800 11.427400
12.635500 10.469100
12.651300 14.218400
12.667000 15.065900
12.682700 15.412400
12.698500 15.278400
12.714200 15.079900
12.729900 14.729900
12.745700 14.323200
12.761400 13.357800
12.777100 13.577300
12.792900 13.134400
12.808600 13.172600
12.824300 11.197200
12.840100 9.332800
12.855800 8.323500
12.871500 8.103300
12.887300 13.924700
12.903000 15.314400
12.918700 17.114500
12.934400 18.493400
12.950200 19.496700
12.965900 22.251900
12.981600 12.243700
12.997400 18.419300
13.013100 26.808400
13.028800 23.530000
13.044600 20.079500
13.060300 26.997600
13.076000 28.855300
13.091800 17.284300
13.107500 17.326200
13.123200 15.459400
13.139000 15.066700
13.154700 14.658600
13.170400 14.489500
13.186200 14.993100
13.201900 15.334800
13.217600 16.059200
13.233400 17.178100
13.249100 12.676800
13.264800 10.103800
13.280600 8.844500
13.296300 7.681600
13.312000 9.946900
13.327800 12.619600
13.343500 13.022300
13.359200 13.672600
13.375000 14.307000
13.390700 14.660000
13.406400 15.570000
13.422200 17.945800
13.437900 19.675900
13.453600 18.296300
13.469400 13.112500
13.485100 11.055700
13.500800 10.657300
13.516600 17.449800
13.532300 17.396800
13.548000 12.895500
13.563800 12.242200
13.579500 17.852100
13.595200 18.587800
13.611000 18.816800
13.626700 11.626600
13.642400 10.830200
13.658100 11.779800
13.673900 12.674600
13.689600 13.849700
13.705300 15.687200
13.721100 20.676200
13.736800 19.822700
13.752500 19.336100
13.768300 18.446600
13.784000 18.614800
13.799700 19.254300
13.815500 17.146800
13.831200 17.694400
13.846900 19.614500
13.862700 18.837100
13.878400 23.593600
13.894100 16.569100
13.909900 16.675900
13.925600 16.601000
13.941300 16.266100
13.957100 13.458600
13.972800 12.902900
13.988500 12.285300
14.004300 12.127400
14.020000 30.585000
14.035700 14.904800
14.051500 15.695700
14.067200 12.640700
14.082900 12.161500
14.098700 13.600600
14.114400 12.028700
14.130100 12.510300
14.145900 12.961200
14.161600 13.563500
14.177300 35.334200
14.193100 18.515400
14.208800 18.893900
14.224500 19.157300
14.240300 16.032400
14.256000 15.081500
14.271700 12.516800
14.287500 11.985400
14.303200 12.385900
14.318900 13.793200
14.334600 13.143900
14.350400 12.760000
14.366100 10.100700
14.381800 10.528500
14.397600 11.070900
14.413300 11.566400
14.429000 11.726100
14.444800 11.755200
14.460500 11.867900
14.476200 12.059400
14.492000 21.282400
14.507700 15.440200
14.523400 16.016800
14.539200 15.482200
14.554900 16.788600
14.570600 17.494400
14.586400 14.576500
14.602100 8.872600
14.617800 9.183600
14.633600 10.896600
14.649300 18.814100
14.665000 27.505700
14.680800 13.389700
14.696500 9.430900
14.712200 4.729900
14.728000 4.819700
14.743700 4.946000
14.759400 5.566000
14.775200 7.554700
14.790900 13.121100
14.806600 13.840400
14.822400 7.123500
14.838100 5.720400
14.853800 4.512200
14.869600 3.468100
14.885300 2.009800
14.901000 0.919700
14.916800 0.250300
14.932500 0.001700
14.948200 0.000000
14.964000 0.000000
14.979700 0.000000
14.995400 0.000000
15.011200 0.000000
15.026900 0.000000
15.042600 0.000000
15.058300 0.000000
15.074100 0.000000
15.089800 0.000000
15.105500 0.000000
15.121300 0.000000
15.137000 0.000000
15.152700 0.000000
15.168500 0.000000
15.184200 0.000000
15.199900 0.000000
15.215700 0.000000
15.231400 0.000000
15.247100 0.000000
15.262900 0.000000
15.278600 0.000000
15.294300 0.000000
15.310100 0.000000
15.325800 0.000000
15.341500 0.000000
15.357300 0.000000
15.373000 0.000000
15.388700 0.000000
15.404500 0.000000
15.420200 0.000000
15.435900 0.000000
15.451700 0.000000
15.467400 0.000000
15.483100 0.000000
15.498900 0.000000
15.514600 0.000000
15.530300 0.000000
15.546100 0.000000
15.561800 0.000000
15.577500 0.000000
15.593300 0.000000
15.609000 0.000000
15.624700 0.000000
15.640500 0.000000
15.656200 0.000000
15.671900 0.000000
15.687700 0.000000
15.703400 0.000000
15.719100 0.000000
15.734800 0.000000
15.750600 0.000000
15.766300 0.000000
15.782000 0.000000
15.797800 0.000000
15.813500 0.000000
15.829200 0.000000
15.845000 0.000000
15.860700 0.000000
15.876400 0.000000
15.892200 0.000000
15.907900 0.000000
15.923600 0.000000
15.939400 0.000000
15.955100 0.000000
15.970800 0.000000
15.986600 0.000000
16.002300 0.000000
16.018000 0.000000
16.033800 0.000000
16.049500 0.000000
16.065200 0.000000
16.081000 0.000000
16.096700 0.000000
16.112400 0.000000
16.128200 0.000000
16.143900 0.000000
16.159600 0.000000
16.175400 0.000000
16.191100 0.000000
16.206800 0.000000
16.222600 0.000000
16.238300 0.000000
16.254000 0.000000
16.269800 0.000000
16.285500 0.000000
16.301200 0.000000
16.317000 0.000000
16.332700 0.000000
16.348400 0.000000
16.364200 0.000000
e
