set title 'mp-1224967 - Density of States'
set xlabel 'Energy (eV)'
set ylabel 'DOS (states/eV)'
set grid
set xrange [-10:10]
set yrange [0:2.806]
set xzeroaxis lt -1
set terminal png size 800,600
set output 'mp-1224967_dos_gnuplot.png'
plot '-' using 1:2 with lines title 'DOS'
-51.803800 0.000000
-51.741600 0.000000
-51.679300 0.000000
-51.617100 0.000000
-51.554900 0.000000
-51.492600 0.000000
-51.430400 0.000000
-51.368200 0.000000
-51.306000 0.000000
-51.243700 0.000000
-51.181500 0.000000
-51.119300 0.000000
-51.057100 0.000000
-50.994800 0.000000
-50.932600 0.000000
-50.870400 0.000000
-50.808200 0.000000
-50.745900 0.000000
-50.683700 0.000000
-50.621500 0.000000
-50.559300 0.000000
-50.497000 0.000000
-50.434800 0.000000
-50.372600 0.000000
-50.310300 0.000000
-50.248100 0.000000
-50.185900 0.000000
-50.123700 0.000000
-50.061400 0.000000
-49.999200 0.000000
-49.937000 0.000000
-49.874800 0.000000
-49.812500 0.000000
-49.750300 0.000000
-49.688100 0.000000
-49.625900 0.000000
-49.563600 0.000000
-49.501400 0.000000
-49.439200 0.000000
-49.377000 0.000000
-49.314700 0.000000
-49.252500 0.000000
-49.190300 0.000000
-49.128100 0.000000
-49.065800 0.000000
-49.003600 0.000000
-48.941400 0.000000
-48.879100 0.000000
-48.816900 0.000000
-48.754700 0.000000
-48.692500 0.000000
-48.630200 0.000000
-48.568000 0.000000
-48.505800 0.000000
-48.443600 0.000000
-48.381300 0.000000
-48.319100 0.000000
-48.256900 0.000000
-48.194700 0.000000
-48.132400 0.000000
-48.070200 0.000000
-48.008000 0.000000
-47.945800 0.000000
-47.883500 0.000000
-47.821300 0.000000
-47.759100 0.000000
-47.696800 0.000000
-47.634600 0.000000
-47.572400 0.000000
-47.510200 0.000000
-47.447900 0.000000
-47.385700 0.000000
-47.323500 0.000000
-47.261300 0.000000
-47.199000 0.000000
-47.136800 0.000000
-47.074600 0.000000
-47.012400 0.000000
-46.950100 0.000000
-46.887900 0.000000
-46.825700 0.000000
-46.763500 0.000000
-46.701200 0.000000
-46.639000 0.000000
-46.576800 0.000000
-46.514500 0.000000
-46.452300 0.000000
-46.390100 0.000000
-46.327900 0.000000
-46.265600 0.000000
-46.203400 0.000000
-46.141200 15.209400
-46.079000 10.593300
-46.016700 4.292800
-45.954500 10.377700
-45.892300 9.132500
-45.830100 0.000000
-45.767800 0.000000
-45.705600 0.000000
-45.643400 0.000000
-45.581200 0.000000
-45.518900 0.000000
-45.456700 0.000000
-45.394500 0.000000
-45.332300 0.000000
-45.270000 0.000000
-45.207800 0.000000
-45.145600 0.000000
-45.083300 0.000000
-45.021100 0.000000
-44.958900 0.000000
-44.896700 0.000000
-44.834400 0.000000
-44.772200 0.000000
-44.710000 0.000000
-44.647800 0.000000
-44.585500 0.000000
-44.523300 0.000000
-44.461100 0.000000
-44.398900 0.000000
-44.336600 0.000000
-44.274400 0.000000
-44.212200 0.000000
-44.150000 0.000000
-44.087700 0.000000
-44.025500 0.000000
-43.963300 0.000000
-43.901000 0.000000
-43.838800 0.000000
-43.776600 0.000000
-43.714400 0.000000
-43.652100 0.000000
-43.589900 0.000000
-43.527700 0.000000
-43.465500 0.000000
-43.403200 0.000000
-43.341000 0.000000
-43.278800 0.000000
-43.216600 0.000000
-43.154300 0.000000
-43.092100 0.000000
-43.029900 0.000000
-42.967700 0.000000
-42.905400 0.000000
-42.843200 0.000000
-42.781000 0.000000
-42.718700 0.000000
-42.656500 0.000000
-42.594300 0.000000
-42.532100 0.000000
-42.469800 0.000000
-42.407600 0.000000
-42.345400 0.000000
-42.283200 0.000000
-42.220900 0.000000
-42.158700 0.000000
-42.096500 0.000000
-42.034300 0.000000
-41.972000 0.000000
-41.909800 0.000000
-41.847600 0.000000
-41.785400 0.000000
-41.723100 0.000000
-41.660900 0.000000
-41.598700 0.000000
-41.536500 0.000000
-41.474200 0.000000
-41.412000 0.000000
-41.349800 0.000000
-41.287500 0.000000
-41.225300 0.000000
-41.163100 0.000000
-41.100900 0.000000
-41.038600 0.000000
-40.976400 0.000000
-40.914200 0.000000
-40.852000 0.000000
-40.789700 0.000000
-40.727500 0.000000
-40.665300 0.000000
-40.603100 0.000000
-40.540800 0.000000
-40.478600 0.000000
-40.416400 0.000000
-40.354200 0.000000
-40.291900 0.000000
-40.229700 0.000000
-40.167500 0.000000
-40.105200 0.000000
-40.043000 0.000000
-39.980800 0.000000
-39.918600 0.000000
-39.856300 0.000000
-39.794100 0.000000
-39.731900 0.000000
-39.669700 0.000000
-39.607400 0.000000
-39.545200 0.000000
-39.483000 0.000000
-39.420800 0.000000
-39.358500 0.000000
-39.296300 0.000000
-39.234100 0.000000
-39.171900 0.000000
-39.109600 0.000000
-39.047400 0.000000
-38.985200 0.000000
-38.922900 0.000000
-38.860700 0.000000
-38.798500 0.000000
-38.736300 0.000000
-38.674000 0.000000
-38.611800 0.000000
-38.549600 0.000000
-38.487400 0.000000
-38.425100 0.000000
-38.362900 0.000000
-38.300700 0.000000
-38.238500 0.000000
-38.176200 0.000000
-38.114000 0.000000
-38.051800 0.000000
-37.989600 0.000000
-37.927300 0.000000
-37.865100 0.000000
-37.802900 0.000000
-37.740700 0.000000
-37.678400 0.000000
-37.616200 0.000000
-37.554000 0.000000
-37.491700 0.000000
-37.429500 0.000000
-37.367300 0.000000
-37.305100 0.000000
-37.242800 0.000000
-37.180600 0.000000
-37.118400 0.000000
-37.056200 0.000000
-36.993900 0.000000
-36.931700 0.000000
-36.869500 0.000000
-36.807300 0.000000
-36.745000 0.000000
-36.682800 0.000000
-36.620600 0.000000
-36.558400 0.000000
-36.496100 0.000000
-36.433900 0.000000
-36.371700 0.000000
-36.309400 0.000000
-36.247200 0.000000
-36.185000 0.000000
-36.122800 0.000000
-36.060500 0.000000
-35.998300 0.000000
-35.936100 0.000000
-35.873900 0.000000
-35.811600 0.000000
-35.749400 0.000000
-35.687200 0.000000
-35.625000 0.000000
-35.562700 0.000000
-35.500500 0.000000
-35.438300 0.000000
-35.376100 0.000000
-35.313800 0.000000
-35.251600 0.000000
-35.189400 0.000000
-35.127100 0.000000
-35.064900 0.000000
-35.002700 0.000000
-34.940500 0.000000
-34.878200 0.000000
-34.816000 0.000000
-34.753800 0.000000
-34.691600 0.000000
-34.629300 0.000000
-34.567100 0.000000
-34.504900 0.000000
-34.442700 0.000000
-34.380400 0.000000
-34.318200 0.000000
-34.256000 0.000000
-34.193800 0.000000
-34.131500 0.000000
-34.069300 0.000000
-34.007100 0.000000
-33.944900 0.000000
-33.882600 0.000000
-33.820400 0.000000
-33.758200 0.000000
-33.695900 0.000000
-33.633700 0.000000
-33.571500 0.000000
-33.509300 0.000000
-33.447000 0.000000
-33.384800 0.000000
-33.322600 0.000000
-33.260400 0.000000
-33.198100 0.000000
-33.135900 0.000000
-33.073700 0.000000
-33.011500 0.000000
-32.949200 0.000000
-32.887000 0.000000
-32.824800 0.000000
-32.762600 0.000000
-32.700300 0.000000
-32.638100 0.000000
-32.575900 0.000000
-32.513600 0.000000
-32.451400 0.000000
-32.389200 0.000000
-32.327000 0.000000
-32.264700 0.000000
-32.202500 0.000000
-32.140300 0.000000
-32.078100 0.000000
-32.015800 0.000000
-31.953600 0.000000
-31.891400 0.000000
-31.829200 0.000000
-31.766900 0.000000
-31.704700 0.000000
-31.642500 0.000000
-31.580300 0.000000
-31.518000 0.000000
-31.455800 0.000000
-31.393600 0.000000
-31.331300 0.000000
-31.269100 0.000000
-31.206900 0.000000
-31.144700 0.000000
-31.082400 0.000000
-31.020200 0.000000
-30.958000 0.000000
-30.895800 0.000000
-30.833500 0.000000
-30.771300 0.000000
-30.709100 0.000000
-30.646900 0.000000
-30.584600 0.000000
-30.522400 0.000000
-30.460200 0.000000
-30.398000 0.000000
-30.335700 0.000000
-30.273500 0.000000
-30.211300 0.000000
-30.149100 0.000000
-30.086800 0.000000
-30.024600 0.000000
-29.962400 0.000000
-29.900100 0.000000
-29.837900 0.000000
-29.775700 0.000000
-29.713500 0.000000
-29.651200 0.000000
-29.589000 0.000000
-29.526800 0.000000
-29.464600 0.000000
-29.402300 0.000000
-29.340100 0.000000
-29.277900 0.000000
-29.215700 0.000000
-29.153400 0.000000
-29.091200 0.000000
-29.029000 0.000000
-28.966800 0.000000
-28.904500 0.000000
-28.842300 0.000000
-28.780100 0.000000
-28.717800 0.000000
-28.655600 0.000000
-28.593400 0.000000
-28.531200 0.000000
-28.468900 0.000000
-28.406700 0.000000
-28.344500 0.000000
-28.282300 0.000000
-28.220000 0.000000
-28.157800 0.000000
-28.095600 0.000000
-28.033400 0.000000
-27.971100 0.000000
-27.908900 0.000000
-27.846700 0.000000
-27.784500 0.000000
-27.722200 0.000000
-27.660000 0.000000
-27.597800 0.000000
-27.535600 0.000000
-27.473300 0.000000
-27.411100 0.000000
-27.348900 0.000000
-27.286600 0.000000
-27.224400 0.000000
-27.162200 0.000000
-27.100000 0.000000
-27.037700 0.000000
-26.975500 0.000000
-26.913300 0.000000
-26.851100 0.000000
-26.788800 0.000000
-26.726600 0.000000
-26.664400 0.000000
-26.602200 0.000000
-26.539900 0.000000
-26.477700 0.000000
-26.415500 0.000000
-26.353300 0.000000
-26.291000 0.000000
-26.228800 0.000000
-26.166600 0.000000
-26.104300 0.000000
-26.042100 0.000000
-25.979900 0.000000
-25.917700 0.000000
-25.855400 0.000000
-25.793200 0.000000
-25.731000 0.000000
-25.668800 0.000000
-25.606500 0.000000
-25.544300 0.000000
-25.482100 0.000000
-25.419900 0.000000
-25.357600 0.000000
-25.295400 0.000000
-25.233200 0.000000
-25.171000 0.000000
-25.108700 0.000000
-25.046500 0.000000
-24.984300 0.000000
-24.922000 0.000000
-24.859800 0.000000
-24.797600 0.000000
-24.735400 0.000000
-24.673100 0.000000
-24.610900 0.000000
-24.548700 0.000000
-24.486500 0.000000
-24.424200 0.000000
-24.362000 0.000000
-24.299800 0.000000
-24.237600 0.000000
-24.175300 0.000000
-24.113100 0.000000
-24.050900 0.000000
-23.988700 0.000000
-23.926400 0.000000
-23.864200 0.000000
-23.802000 0.000000
-23.739800 0.000000
-23.677500 0.000000
-23.615300 0.000000
-23.553100 0.000000
-23.490800 0.000000
-23.428600 0.000000
-23.366400 0.000000
-23.304200 0.000000
-23.241900 0.000000
-23.179700 0.000000
-23.117500 0.000000
-23.055300 0.000000
-22.993000 0.000000
-22.930800 0.000000
-22.868600 0.000000
-22.806400 0.000000
-22.744100 0.000000
-22.681900 0.000000
-22.619700 0.000000
-22.557500 0.000000
-22.495200 0.000000
-22.433000 0.000000
-22.370800 0.000000
-22.308500 0.000000
-22.246300 0.000000
-22.184100 0.000000
-22.121900 0.000000
-22.059600 0.000000
-21.997400 0.000000
-21.935200 0.000000
-21.873000 0.000000
-21.810700 0.000000
-21.748500 0.000000
-21.686300 0.000000
-21.624100 0.000000
-21.561800 0.000000
-21.499600 0.000000
-21.437400 0.000000
-21.375200 0.000000
-21.312900 0.000000
-21.250700 0.000000
-21.188500 0.000000
-21.126200 0.000000
-21.064000 0.000000
-21.001800 0.000000
-20.939600 0.000000
-20.877300 0.000000
-20.815100 0.000000
-20.752900 0.000000
-20.690700 0.000000
-20.628400 0.000000
-20.566200 0.000000
-20.504000 0.000000
-20.441800 0.000000
-20.379500 0.000000
-20.317300 0.000000
-20.255100 0.000000
-20.192900 0.000000
-20.130600 0.000000
-20.068400 0.000000
-20.006200 0.000000
-19.944000 0.000000
-19.881700 0.000000
-19.819500 0.000000
-19.757300 0.000000
-19.695000 0.000000
-19.632800 0.000000
-19.570600 0.000000
-19.508400 0.000000
-19.446100 0.000000
-19.383900 0.000000
-19.321700 0.000000
-19.259500 0.000000
-19.197200 0.000000
-19.135000 0.000000
-19.072800 0.000000
-19.010600 0.000000
-18.948300 0.000000
-18.886100 0.000000
-18.823900 0.000000
-18.761700 0.000000
-18.699400 0.000000
-18.637200 0.000000
-18.575000 0.000000
-18.512700 0.000000
-18.450500 0.000000
-18.388300 0.000000
-18.326100 0.000000
-18.263800 0.000000
-18.201600 0.000000
-18.139400 0.000000
-18.077200 0.000000
-18.014900 0.000000
-17.952700 0.000000
-17.890500 0.000000
-17.828300 0.000000
-17.766000 0.000000
-17.703800 0.000000
-17.641600 0.000000
-17.579400 0.000000
-17.517100 0.000000
-17.454900 0.000000
-17.392700 0.000000
-17.330400 0.000000
-17.268200 0.000000
-17.206000 0.000000
-17.143800 0.000000
-17.081500 0.000000
-17.019300 0.000000
-16.957100 0.000000
-16.894900 0.000000
-16.832600 0.000000
-16.770400 0.000000
-16.708200 0.000000
-16.646000 0.000000
-16.583700 0.000000
-16.521500 0.000000
-16.459300 0.000000
-16.397100 0.000000
-16.334800 0.000000
-16.272600 0.000000
-16.210400 0.000000
-16.148200 0.000000
-16.085900 0.000000
-16.023700 0.000000
-15.961500 0.000000
-15.899200 0.000000
-15.837000 0.000000
-15.774800 0.000000
-15.712600 0.000000
-15.650300 0.000000
-15.588100 0.000000
-15.525900 0.000000
-15.463700 0.000000
-15.401400 0.000000
-15.339200 0.000000
-15.277000 0.000000
-15.214800 0.000000
-15.152500 0.000000
-15.090300 0.000000
-15.028100 0.000000
-14.965900 0.000000
-14.903600 0.000000
-14.841400 0.000000
-14.779200 0.000000
-14.716900 0.000000
-14.654700 0.000000
-14.592500 0.000000
-14.530300 0.000000
-14.468000 0.000000
-14.405800 0.000000
-14.343600 0.000000
-14.281400 0.000000
-14.219100 0.000000
-14.156900 0.000000
-14.094700 0.000000
-14.032500 0.000000
-13.970200 0.000000
-13.908000 0.000000
-13.845800 0.000000
-13.783600 0.000000
-13.721300 0.000000
-13.659100 0.000000
-13.596900 0.000000
-13.534600 0.000000
-13.472400 0.000000
-13.410200 0.000000
-13.348000 0.000000
-13.285700 0.000000
-13.223500 0.000000
-13.161300 0.000000
-13.099100 0.000000
-13.036800 0.000000
-12.974600 0.000000
-12.912400 0.000000
-12.850200 0.000000
-12.787900 0.000000
-12.725700 0.000000
-12.663500 0.000000
-12.601300 0.000000
-12.539000 0.000000
-12.476800 0.000000
-12.414600 0.000000
-12.352400 0.000000
-12.290100 0.000000
-12.227900 0.000000
-12.165700 0.000000
-12.103400 0.000000
-12.041200 0.000000
-11.979000 0.000000
-11.916800 0.000000
-11.854500 0.000000
-11.792300 0.000000
-11.730100 0.000000
-11.667900 0.000000
-11.605600 0.000000
-11.543400 0.000000
-11.481200 0.000000
-11.419000 0.000000
-11.356700 0.000000
-11.294500 0.000000
-11.232300 0.000000
-11.170100 0.000000
-11.107800 0.000000
-11.045600 0.000000
-10.983400 0.000000
-10.921100 0.000000
-10.858900 0.000000
-10.796700 0.000000
-10.734500 0.000000
-10.672200 0.000000
-10.610000 0.000000
-10.547800 0.000000
-10.485600 0.000000
-10.423300 0.000000
-10.361100 0.000000
-10.298900 0.000000
-10.236700 0.000000
-10.174400 0.000000
-10.112200 0.000000
-10.050000 0.000000
-9.987800 0.000000
-9.925500 0.000000
-9.863300 0.000000
-9.801100 0.000000
-9.738900 0.000000
-9.676600 0.000000
-9.614400 0.000000
-9.552200 0.000000
-9.489900 0.000000
-9.427700 0.000000
-9.365500 0.000000
-9.303300 0.000000
-9.241000 0.000000
-9.178800 0.000000
-9.116600 0.000000
-9.054400 0.000000
-8.992100 0.000000
-8.929900 0.000000
-8.867700 0.000000
-8.805500 0.000000
-8.743200 0.000000
-8.681000 0.000000
-8.618800 0.000000
-8.556600 0.000000
-8.494300 0.000000
-8.432100 0.000000
-8.369900 0.000000
-8.307600 0.000000
-8.245400 0.000000
-8.183200 0.000000
-8.121000 0.000000
-8.058700 0.000000
-7.996500 0.000000
-7.934300 0.000000
-7.872100 0.000000
-7.809800 0.000000
-7.747600 0.000000
-7.685400 0.000000
-7.623200 0.000000
-7.560900 0.000000
-7.498700 0.000000
-7.436500 0.000000
-7.374300 0.000000
-7.312000 0.000000
-7.249800 0.000000
-7.187600 0.000000
-7.125300 0.000000
-7.063100 0.000000
-7.000900 0.000000
-6.938700 0.000000
-6.876400 0.000000
-6.814200 0.000000
-6.752000 0.000000
-6.689800 0.000000
-6.627500 0.000000
-6.565300 0.000000
-6.503100 0.000000
-6.440900 0.000000
-6.378600 0.000000
-6.316400 0.000000
-6.254200 0.000000
-6.192000 0.000000
-6.129700 0.000000
-6.067500 0.000000
-6.005300 0.000000
-5.943100 0.000000
-5.880800 0.000000
-5.818600 0.000000
-5.756400 0.000000
-5.694100 0.000000
-5.631900 0.000000
-5.569700 0.000000
-5.507500 0.000000
-5.445200 0.000000
-5.383000 0.000000
-5.320800 0.000000
-5.258600 0.000000
-5.196300 0.000000
-5.134100 0.000000
-5.071900 0.000000
-5.009700 0.000000
-4.947400 0.000000
-4.885200 0.000000
-4.823000 0.000000
-4.760800 0.000000
-4.698500 0.000000
-4.636300 0.000000
-4.574100 0.000000
-4.511800 0.000000
-4.449600 0.000000
-4.387400 0.000000
-4.325200 0.000000
-4.262900 0.000000
-4.200700 0.000000
-4.138500 0.000000
-4.076300 0.000000
-4.014000 0.000000
-3.951800 0.000000
-3.889600 0.000000
-3.827400 0.000000
-3.765100 0.000000
-3.702900 0.000000
-3.640700 0.000000
-3.578500 0.000000
-3.516200 0.000000
-3.454000 0.000000
-3.391800 0.000000
-3.329500 0.000000
-3.267300 0.000000
-3.205100 0.000000
-3.142900 0.000000
-3.080600 0.000000
-3.018400 0.000000
-2.956200 0.000000
-2.894000 0.000000
-2.831700 0.000000
-2.769500 0.000000
-2.707300 0.000000
-2.645100 0.000000
-2.582800 0.000000
-2.520600 0.000000
-2.458400 0.000000
-2.396200 0.000000
-2.333900 0.000000
-2.271700 0.000000
-2.209500 0.000000
-2.147300 0.000000
-2.085000 0.000000
-2.022800 0.000000
-1.960600 0.000000
-1.898300 0.002200
-1.836100 0.011600
-1.773900 0.024100
-1.711700 0.024900
-1.649400 0.028700
-1.587200 0.032800
-1.525000 0.037400
-1.462800 0.041600
-1.400500 0.045300
-1.338300 0.048300
-1.276100 0.051000
-1.213900 0.054000
-1.151600 0.057500
-1.089400 0.061100
-1.027200 0.064900
-0.965000 0.069000
-0.902700 0.073300
-0.840500 0.077500
-0.778300 0.082900
-0.716000 0.090100
-0.653800 0.096600
-0.591600 0.098300
-0.529400 0.096800
-0.467100 0.099000
-0.404900 0.101100
-0.342700 0.103200
-0.280500 0.105000
-0.218200 0.106500
-0.156000 0.107700
-0.093800 0.109000
-0.031600 0.111300
0.030700 0.113800
0.092900 0.116600
0.155100 0.119500
0.217300 0.122500
0.279600 0.126000
0.341800 0.129700
0.404000 0.133500
0.466300 0.138100
0.528500 0.143100
0.590700 0.148600
0.652900 0.154900
0.715200 0.166000
0.777400 0.253700
0.839600 0.375600
0.901800 0.476300
0.964100 0.519800
1.026300 0.518200
1.088500 0.560600
1.150700 0.619900
1.213000 0.637400
1.275200 0.615700
1.337400 0.552400
1.399600 0.472000
1.461900 0.403100
1.524100 0.473900
1.586300 0.544700
1.648500 0.597000
1.710800 0.640900
1.773000 0.681800
1.835200 0.727100
1.897500 0.804000
1.959700 0.864500
2.021900 0.936100
2.084100 1.024300
2.146400 0.979600
2.208600 1.044400
2.270800 1.217800
2.333000 1.228800
2.395300 1.121200
2.457500 1.059300
2.519700 1.054100
2.581900 1.028600
2.644200 1.042600
2.706400 1.053800
2.768600 0.927200
2.830800 0.890100
2.893100 0.877900
2.955300 1.039500
3.017500 0.694800
3.079800 0.793700
3.142000 1.072100
3.204200 1.337100
3.266400 1.433200
3.328700 1.274700
3.390900 1.167200
3.453100 1.150000
3.515300 0.983300
3.577600 1.000600
3.639800 0.888600
3.702000 0.806900
3.764200 1.041700
3.826500 1.130400
3.888700 1.120400
3.950900 1.454700
4.013100 1.330500
4.075400 1.329200
4.137600 1.318300
4.199800 1.319500
4.262100 1.214300
4.324300 1.186800
4.386500 1.158300
4.448700 1.100100
4.511000 1.063800
4.573200 1.023200
4.635400 1.091200
4.697600 0.996700
4.759900 1.067100
4.822100 1.297600
4.884300 1.308600
4.946500 1.522600
5.008800 1.617800
5.071000 1.625200
5.133200 1.913800
5.195400 1.930600
5.257700 1.687000
5.319900 2.153500
5.382100 2.135400
5.444300 2.019900
5.506600 2.000700
5.568800 1.945900
5.631000 2.289100
5.693300 1.998700
5.755500 1.561900
5.817700 1.700900
5.879900 2.551200
5.942200 1.695000
6.004400 1.614200
6.066600 1.529700
6.128800 1.558400
6.191100 1.582100
6.253300 1.609300
6.315500 1.706900
6.377700 1.748000
6.440000 1.708000
6.502200 1.769400
6.564400 1.738000
6.626600 1.671900
6.688900 1.229400
6.751100 1.453800
6.813300 1.858500
6.875600 1.987700
6.937800 1.830600
7.000000 1.753400
7.062200 1.608100
7.124500 1.458300
7.186700 1.337400
7.248900 1.288300
7.311100 1.267100
7.373400 1.266400
7.435600 1.254200
7.497800 1.252500
7.560000 1.404400
7.622300 1.410500
7.684500 1.306300
7.746700 1.591100
7.808900 1.701500
7.871200 1.975200
7.933400 1.361900
7.995600 1.301500
8.057900 1.318300
8.120100 1.253000
8.182300 1.263500
8.244500 1.289700
8.306800 1.281400
8.369000 1.278900
8.431200 1.266600
8.493400 1.312600
8.555700 1.175200
8.617900 1.054300
8.680100 1.026900
8.742300 0.958900
8.804600 0.853700
8.866800 0.701100
8.929000 0.676500
8.991200 0.631500
9.053500 0.666200
9.115700 0.392000
9.177900 0.354900
9.240100 0.325400
9.302400 0.315800
9.364600 0.316700
9.426800 0.316700
9.489100 0.317700
9.551300 0.319400
9.613500 0.324300
9.675700 0.331000
9.738000 0.338900
9.800200 0.344600
9.862400 0.346200
9.924600 0.346000
9.986900 0.344100
10.049100 0.332200
10.111300 0.326100
10.173500 0.324000
10.235800 0.321800
10.298000 0.319400
10.360200 0.316900
10.422400 0.314400
10.484700 0.312300
10.546900 0.311000
10.609100 0.310300
10.671400 0.308400
10.733600 0.306700
10.795800 0.305000
10.858000 0.302500
10.920300 0.297900
10.982500 0.290800
11.044700 0.290200
11.106900 0.289700
11.169200 0.288600
11.231400 0.286400
11.293600 0.284600
11.355800 0.282000
11.418100 0.278400
11.480300 0.274900
11.542500 0.271600
11.604700 0.268700
11.667000 0.266000
11.729200 0.263600
11.791400 0.261500
11.853600 0.259300
11.915900 0.257100
11.978100 0.255800
12.040300 0.257200
12.102600 0.258300
12.164800 0.257900
12.227000 0.254400
12.289200 0.244700
12.351500 0.242000
12.413700 0.239700
12.475900 0.236800
12.538100 0.233800
12.600400 0.230900
12.662600 0.227500
12.724800 0.223900
12.787000 0.221400
12.849300 0.220200
12.911500 0.232900
12.973700 0.253800
13.035900 0.238000
13.098200 0.214900
13.160400 0.204400
13.222600 0.195600
13.284900 0.193100
13.347100 0.192100
13.409300 0.189500
13.471500 0.195800
13.533800 0.201400
13.596000 0.198800
13.658200 0.191000
13.720400 0.188100
13.782700 0.188100
13.844900 0.191100
13.907100 0.225100
13.969300 0.254300
14.031600 0.249500
14.093800 0.233700
14.156000 0.219800
14.218200 0.210200
14.280500 0.198500
14.342700 0.188400
14.404900 0.178200
14.467200 0.168400
14.529400 0.156600
14.591600 0.148700
14.653800 0.142000
14.716100 0.135000
14.778300 0.128300
14.840500 0.122400
14.902700 0.124700
14.965000 0.129000
15.027200 0.133200
15.089400 0.134800
15.151600 0.134600
15.213900 0.141600
15.276100 0.179900
15.338300 0.239900
15.400500 0.295900
15.462800 0.309600
15.525000 0.306700
15.587200 0.313800
15.649400 0.303500
15.711700 0.308400
15.773900 0.299900
15.836100 0.285600
15.898400 0.274700
15.960600 0.259100
16.022800 0.323500
16.085000 0.379300
16.147300 0.342400
16.209500 0.322400
16.271700 0.317900
16.333900 0.310700
16.396200 0.302200
16.458400 0.293900
16.520600 0.289500
16.582800 0.288200
16.645100 0.283400
16.707300 0.283000
16.769500 0.285300
16.831700 0.287400
16.894000 0.285300
16.956200 0.284000
17.018400 0.290200
17.080700 0.285600
17.142900 0.281800
17.205100 0.274300
17.267300 0.265900
17.329600 0.257500
17.391800 0.247600
17.454000 0.240200
17.516200 0.236400
17.578500 0.229600
17.640700 0.222500
17.702900 0.216700
17.765100 0.210800
17.827400 0.205900
17.889600 0.203400
17.951800 0.199400
18.014000 0.197000
18.076300 0.199600
18.138500 0.201600
18.200700 0.202000
18.263000 0.206700
18.325200 0.219900
18.387400 0.237800
18.449600 0.259600
18.511900 0.288800
18.574100 0.327100
18.636300 0.370100
18.698500 0.394200
18.760800 0.408100
18.823000 0.404300
18.885200 0.401200
18.947400 0.398800
19.009700 0.392500
19.071900 0.377600
19.134100 0.411600
19.196300 0.447200
19.258600 0.435800
19.320800 0.407700
19.383000 0.401500
19.445200 0.396600
19.507500 0.394000
19.569700 0.393000
19.631900 0.396100
19.694200 0.402800
19.756400 0.411800
19.818600 0.438100
19.880800 0.435700
19.943100 0.449200
20.005300 0.456300
20.067500 0.455400
20.129700 0.454300
20.192000 0.471200
20.254200 0.463800
20.316400 0.428100
20.378600 0.420100
20.440900 0.413900
20.503100 0.407200
20.565300 0.402800
20.627500 0.408100
20.689800 0.416500
20.752000 0.423800
20.814200 0.434400
20.876500 0.451100
20.938700 0.470200
21.000900 0.484300
21.063100 0.502000
21.125400 0.487200
21.187600 0.488800
21.249800 0.506300
21.312000 0.510800
21.374300 0.513800
21.436500 0.516200
21.498700 0.525100
21.560900 0.539500
21.623200 0.523800
21.685400 0.513800
21.747600 0.500200
21.809800 0.488600
21.872100 0.483400
21.934300 0.481000
21.996500 0.477700
22.058800 0.473200
22.121000 0.468200
22.183200 0.465900
22.245400 0.463800
22.307700 0.467500
22.369900 0.466600
22.432100 0.464800
22.494300 0.464400
22.556600 0.466300
22.618800 0.466100
22.681000 0.465300
22.743200 0.465300
22.805500 0.465700
22.867700 0.465400
22.929900 0.464000
22.992100 0.464200
23.054400 0.465200
23.116600 0.462500
23.178800 0.459600
23.241000 0.464600
23.303300 0.464400
23.365500 0.465900
23.427700 0.464100
23.490000 0.453300
23.552200 0.433700
23.614400 0.424900
23.676600 0.424200
23.738900 0.426700
23.801100 0.431600
23.863300 0.436900
23.925500 0.446500
23.987800 0.451200
24.050000 0.456800
24.112200 0.466700
24.174400 0.476200
24.236700 0.485400
24.298900 0.494700
24.361100 0.509500
24.423300 0.529900
24.485600 0.528500
24.547800 0.496000
24.610000 0.485500
24.672300 0.462900
24.734500 0.444300
24.796700 0.430500
24.858900 0.416200
24.921200 0.403000
24.983400 0.393900
25.045600 0.389400
25.107800 0.399000
25.170100 0.404200
25.232300 0.409100
25.294500 0.431500
25.356700 0.514600
25.419000 0.753900
25.481200 0.706900
25.543400 0.624600
25.605600 0.575200
25.667900 0.540900
25.730100 0.506100
25.792300 0.495500
25.854600 0.481600
25.916800 0.452200
25.979000 0.449500
26.041200 0.463100
26.103500 0.492200
26.165700 0.609300
26.227900 0.632400
26.290100 0.624500
26.352400 0.595100
26.414600 0.587500
26.476800 0.562200
26.539000 0.545400
26.601300 0.540800
26.663500 0.542400
26.725700 0.550900
26.787900 0.527400
26.850200 0.517700
26.912400 0.512600
26.974600 0.505800
27.036800 0.496500
27.099100 0.483400
27.161300 0.470100
27.223500 0.451600
27.285800 0.438500
27.348000 0.430400
27.410200 0.427500
27.472400 0.425900
27.534700 0.425900
27.596900 0.430300
27.659100 0.419500
27.721300 0.417200
27.783600 0.415300
27.845800 0.424000
27.908000 0.429700
27.970200 0.438100
28.032500 0.448300
28.094700 0.442000
28.156900 0.430100
28.219100 0.385600
28.281400 0.378700
28.343600 0.380700
28.405800 0.410700
28.468100 0.437900
28.530300 0.469100
28.592500 0.498700
28.654700 0.528700
28.717000 0.538200
28.779200 0.534300
28.841400 0.546600
28.903600 0.534800
28.965900 0.493500
29.028100 0.488100
29.090300 0.503200
29.152500 0.535400
29.214800 0.595300
29.277000 0.542600
29.339200 0.451000
29.401400 0.410700
29.463700 0.404700
29.525900 0.417500
29.588100 0.430300
29.650400 0.469100
29.712600 0.476900
29.774800 0.472300
29.837000 0.468800
29.899300 0.495500
29.961500 0.520500
30.023700 0.548400
30.085900 0.570600
30.148200 0.610800
30.210400 0.659800
30.272600 0.608800
30.334800 0.588300
30.397100 0.563700
30.459300 0.555300
30.521500 0.539500
30.583700 0.511900
30.646000 0.512200
30.708200 0.523100
30.770400 0.538800
30.832600 0.563600
30.894900 0.601400
30.957100 0.654600
31.019300 0.689300
31.081600 0.700600
31.143800 0.681400
31.206000 0.674500
31.268200 0.670000
31.330500 0.665400
31.392700 0.653100
31.454900 0.649900
31.517100 0.633200
31.579400 0.611900
31.641600 0.590300
31.703800 0.565900
31.766000 0.537900
31.828300 0.521400
31.890500 0.505400
31.952700 0.527600
32.014900 0.531300
32.077200 0.538700
32.139400 0.506900
32.201600 0.483700
32.263900 0.495900
32.326100 0.555600
32.388300 0.581400
32.450500 0.581800
32.512800 0.513500
32.575000 0.479100
32.637200 0.463900
32.699400 0.458500
32.761700 0.467200
32.823900 0.448300
32.886100 0.454400
32.948300 0.465800
33.010600 0.449600
33.072800 0.431400
33.135000 0.411400
33.197200 0.395000
33.259500 0.386300
33.321700 0.345200
33.383900 0.315300
33.446100 0.284400
33.508400 0.265700
33.570600 0.249800
33.632800 0.228200
33.695100 0.204700
33.757300 0.193900
33.819500 0.190400
33.881700 0.189900
33.944000 0.182500
34.006200 0.181700
34.068400 0.185500
34.130600 0.196300
34.192900 0.202400
34.255100 0.225800
34.317300 0.255900
34.379500 0.294800
34.441800 0.325200
34.504000 0.348500
34.566200 0.390600
34.628400 0.435700
34.690700 0.456600
34.752900 0.466600
34.815100 0.489300
34.877400 0.538300
34.939600 0.529700
35.001800 0.543400
35.064000 0.557100
35.126300 0.552900
35.188500 0.546200
35.250700 0.554500
35.312900 0.562700
35.375200 0.558800
35.437400 0.558700
35.499600 0.558300
35.561800 0.564900
35.624100 0.559900
35.686300 0.562000
35.748500 0.574700
35.810700 0.585600
35.873000 0.600000
35.935200 0.606400
35.997400 0.610500
36.059700 0.583700
36.121900 0.555600
36.184100 0.549000
36.246300 0.571400
36.308600 0.602600
36.370800 0.621700
36.433000 0.651400
36.495200 0.694900
36.557500 0.766300
36.619700 0.818000
36.681900 0.832500
36.744100 0.838800
36.806400 0.772600
36.868600 0.697500
36.930800 0.658300
36.993000 0.599500
37.055300 0.540600
37.117500 0.489300
37.179700 0.476500
37.241900 0.471900
37.304200 0.475000
37.366400 0.482200
37.428600 0.496500
37.490900 0.521800
37.553100 0.504300
37.615300 0.515100
37.677500 0.519900
37.739800 0.529500
37.802000 0.541800
37.864200 0.550600
37.926400 0.535900
37.988700 0.556400
38.050900 0.554900
38.113100 0.563600
38.175300 0.584700
38.237600 0.615000
38.299800 0.622200
38.362000 0.621200
38.424200 0.630200
38.486500 0.638400
38.548700 0.622600
38.610900 0.634400
38.673200 0.654200
38.735400 0.690100
38.797600 0.721500
38.859800 0.715700
38.922100 0.716400
38.984300 0.714000
39.046500 0.724600
39.108700 0.708300
39.171000 0.711700
39.233200 0.712800
39.295400 0.699900
39.357600 0.706100
39.419900 0.710600
39.482100 0.718300
39.544300 0.712000
39.606500 0.719000
39.668800 0.712600
39.731000 0.721100
39.793200 0.781500
39.855500 0.879500
39.917700 1.096700
39.979900 1.327200
40.042100 1.455100
40.104400 2.148200
40.166600 4.834500
40.228800 13.600100
40.291000 5.680200
40.353300 3.998600
40.415500 6.026300
40.477700 2.608600
40.539900 2.392300
40.602200 1.824600
40.664400 1.368800
40.726600 1.171700
40.788800 1.060400
40.851100 1.010000
40.913300 0.975700
40.975500 0.935500
41.037700 0.909400
41.100000 0.895000
41.162200 0.873900
41.224400 0.825300
41.286700 0.786400
41.348900 0.767400
41.411100 0.711700
41.473300 0.730000
41.535600 0.721200
41.597800 0.676400
41.660000 0.655900
41.722200 0.651800
41.784500 0.619900
41.846700 0.591800
41.908900 0.615200
41.971100 0.608000
42.033400 0.589100
42.095600 0.576800
42.157800 0.562100
42.220000 0.552000
42.282300 0.545000
42.344500 0.541300
42.406700 0.535600
42.469000 0.531100
42.531200 0.532500
42.593400 0.556000
42.655600 0.562800
42.717900 0.559600
42.780100 0.567700
42.842300 0.544000
42.904500 0.523700
42.966800 0.531300
43.029000 0.541000
43.091200 0.552400
43.153400 0.553200
43.215700 0.564000
43.277900 0.580300
43.340100 0.589900
43.402300 0.588900
43.464600 0.601700
43.526800 0.604200
43.589000 0.610800
43.651300 0.621000
43.713500 0.616200
43.775700 0.623000
43.837900 0.626300
43.900200 0.625800
43.962400 0.609000
44.024600 0.586600
44.086800 0.569800
44.149100 0.561600
44.211300 0.563600
44.273500 0.566900
44.335700 0.572800
44.398000 0.578800
44.460200 0.574600
44.522400 0.572100
44.584600 0.580100
44.646900 0.574400
44.709100 0.550200
44.771300 0.535800
44.833500 0.520000
44.895800 0.504200
44.958000 0.512500
45.020200 0.511700
45.082500 0.510500
45.144700 0.516500
45.206900 0.518900
45.269100 0.514900
45.331400 0.508500
45.393600 0.515800
45.455800 0.525200
45.518000 0.561600
45.580300 0.554900
45.642500 0.552500
45.704700 0.559800
45.766900 0.568900
45.829200 0.575000
45.891400 0.577300
45.953600 0.569500
46.015800 0.575100
46.078100 0.597900
46.140300 0.591300
46.202500 0.583200
46.264800 0.581600
46.327000 0.581200
46.389200 0.579200
46.451400 0.579800
46.513700 0.596500
46.575900 0.623700
46.638100 0.660500
46.700300 0.685400
46.762600 0.691000
46.824800 0.700800
46.887000 0.719500
46.949200 0.741800
47.011500 0.734300
47.073700 0.720600
47.135900 0.723900
47.198100 0.759200
47.260400 0.833600
47.322600 0.789900
47.384800 0.761000
47.447100 0.692600
47.509300 0.689300
47.571500 0.744100
47.633700 0.745600
47.696000 0.736300
47.758200 0.733600
47.820400 0.739700
47.882600 0.784300
47.944900 0.819300
48.007100 0.856100
48.069300 0.866600
48.131500 0.794900
48.193800 0.798900
48.256000 0.845700
48.318200 0.929300
48.380400 1.007000
48.442700 1.097000
48.504900 1.208700
48.567100 1.173700
48.629300 1.180800
48.691600 1.177600
48.753800 1.162100
48.816000 1.140200
48.878300 1.138100
48.940500 1.100600
49.002700 1.037300
49.064900 1.083400
49.127200 1.025000
49.189400 1.050300
49.251600 1.050300
49.313800 1.022400
49.376100 0.983100
49.438300 0.917700
49.500500 0.926900
49.562700 0.930600
49.625000 0.953700
49.687200 0.969100
49.749400 0.903500
49.811600 0.878400
49.873900 0.885800
49.936100 0.903800
49.998300 0.862100
50.060600 0.812900
50.122800 0.814700
50.185000 0.837200
50.247200 0.901000
50.309500 0.920400
50.371700 0.927000
50.433900 0.967900
50.496100 0.919300
50.558400 0.897400
50.620600 0.904600
50.682800 0.891100
50.745000 0.881800
50.807300 0.905100
50.869500 0.881300
50.931700 0.848700
50.993900 0.832100
51.056200 0.852600
51.118400 0.806100
51.180600 0.730100
51.242900 0.720800
51.305100 0.722600
51.367300 0.752900
51.429500 0.744500
51.491800 0.720500
51.554000 0.749800
51.616200 0.783700
51.678400 0.772700
51.740700 0.761800
51.802900 0.755100
51.865100 0.754000
51.927300 0.754900
51.989600 0.757500
52.051800 0.768700
52.114000 0.755700
52.176200 0.718400
52.238500 0.708700
52.300700 0.706900
52.362900 0.726400
52.425100 0.744200
52.487400 0.728500
52.549600 0.657500
52.611800 0.621000
52.674100 0.605000
52.736300 0.601200
52.798500 0.580900
52.860700 0.556000
52.923000 0.505900
52.985200 0.477600
53.047400 0.456600
53.109600 0.451700
53.171900 0.475700
53.234100 0.530500
53.296300 0.567600
53.358500 0.608800
53.420800 0.633900
53.483000 0.629400
53.545200 0.643600
53.607400 0.691900
53.669700 0.700100
53.731900 0.700100
53.794100 0.712400
53.856400 0.728200
53.918600 0.739600
53.980800 0.760700
54.043000 0.790400
54.105300 0.855600
54.167500 0.838000
54.229700 0.829300
54.291900 0.843900
54.354200 0.838700
54.416400 0.852700
54.478600 0.908600
54.540800 0.995100
54.603100 1.070100
54.665300 1.168700
54.727500 1.301100
54.789700 1.544300
54.852000 1.728600
54.914200 1.701200
54.976400 1.778600
55.038600 1.813600
55.100900 1.650100
55.163100 1.907600
55.225300 1.514000
55.287600 1.325700
55.349800 1.170200
55.412000 1.071600
55.474200 0.912900
55.536500 0.736900
55.598700 0.635700
55.660900 0.576400
55.723100 0.542600
55.785400 0.534800
55.847600 0.561200
55.909800 0.604800
55.972000 0.672800
56.034300 0.726000
56.096500 0.830600
56.158700 0.888900
56.220900 0.928100
56.283200 0.883300
56.345400 0.814000
56.407600 0.795500
56.469900 0.783500
56.532100 0.778800
56.594300 0.796000
56.656500 0.780800
56.718800 0.763900
56.781000 0.760700
56.843200 0.756400
56.905400 0.763800
56.967700 0.791000
57.029900 0.768500
57.092100 0.741300
57.154300 0.688200
57.216600 0.668300
57.278800 0.675400
57.341000 0.679900
57.403200 0.672000
57.465500 0.664500
57.527700 0.641600
57.589900 0.613100
57.652200 0.613500
57.714400 0.624000
57.776600 0.645900
57.838800 0.684600
57.901100 0.711800
57.963300 0.736000
58.025500 0.776800
58.087700 0.838800
58.150000 0.864400
58.212200 0.861100
58.274400 0.851700
58.336600 0.825300
58.398900 0.768900
58.461100 0.732900
58.523300 0.728800
58.585500 0.734500
58.647800 0.747500
58.710000 0.734300
58.772200 0.738300
58.834400 0.748400
58.896700 0.760400
58.958900 0.770500
59.021100 0.743000
59.083400 0.715600
59.145600 0.684900
59.207800 0.675700
59.270000 0.684200
59.332300 0.693200
59.394500 0.710700
59.456700 0.723500
59.518900 0.738500
59.581200 0.735400
59.643400 0.726600
59.705600 0.732300
59.767800 0.746000
59.830100 0.775400
59.892300 0.764900
59.954500 0.750400
60.016700 0.739600
60.079000 0.766400
60.141200 0.821800
60.203400 0.847400
60.265700 0.903500
60.327900 0.925900
60.390100 0.901300
60.452300 0.850800
60.514600 0.833200
60.576800 0.813100
60.639000 0.776900
60.701200 0.744800
60.763500 0.730000
60.825700 0.708200
60.887900 0.694500
60.950100 0.699800
61.012400 0.733600
61.074600 0.722700
61.136800 0.719600
61.199000 0.693700
61.261300 0.683500
61.323500 0.692600
61.385700 0.732000
61.448000 0.821300
61.510200 0.853800
61.572400 0.887800
61.634600 0.860100
61.696900 0.835100
61.759100 0.804400
61.821300 0.744500
61.883500 0.681600
61.945800 0.642300
62.008000 0.650200
62.070200 0.649600
62.132400 0.642900
62.194700 0.656600
62.256900 0.646500
62.319100 0.659600
62.381300 0.670800
62.443600 0.695300
62.505800 0.711600
62.568000 0.721100
62.630200 0.743900
62.692500 0.775200
62.754700 0.734200
62.816900 0.708500
62.879200 0.707000
62.941400 0.721600
63.003600 0.718700
63.065800 0.735000
63.128100 0.732700
63.190300 0.698000
63.252500 0.658200
63.314700 0.618800
63.377000 0.576800
63.439200 0.540300
63.501400 0.529400
63.563600 0.522400
63.625900 0.499800
63.688100 0.488700
63.750300 0.484000
63.812500 0.474800
63.874800 0.490300
63.937000 0.474100
63.999200 0.473900
64.061500 0.491800
64.123700 0.514900
64.185900 0.547500
64.248100 0.585000
64.310400 0.591500
64.372600 0.563400
64.434800 0.557100
64.497000 0.530200
64.559300 0.553200
64.621500 0.533300
64.683700 0.519300
64.745900 0.485900
64.808200 0.466900
64.870400 0.450500
64.932600 0.429700
64.994800 0.396100
65.057100 0.359400
65.119300 0.316300
65.181500 0.284500
65.243800 0.257000
65.306000 0.263800
65.368200 0.303300
65.430400 0.285500
65.492700 0.244300
65.554900 0.220300
65.617100 0.198300
65.679300 0.176500
65.741600 0.153400
65.803800 0.132900
65.866000 0.131000
65.928200 0.110900
65.990500 0.093500
66.052700 0.079900
66.114900 0.066700
66.177100 0.050100
66.239400 0.041300
66.301600 0.033100
66.363800 0.025700
66.426000 0.019000
66.488300 0.011200
66.550500 0.002700
66.612700 0.000200
66.675000 0.000000
66.737200 0.000000
66.799400 0.000000
66.861600 0.000000
66.923900 0.000000
66.986100 0.000000
67.048300 0.000000
67.110500 0.000000
67.172800 0.000000
67.235000 0.000000
67.297200 0.000000
67.359400 0.000000
67.421700 0.000000
67.483900 0.000000
67.546100 0.000000
67.608300 0.000000
67.670600 0.000000
67.732800 0.000000
67.795000 0.000000
67.857300 0.000000
67.919500 0.000000
67.981700 0.000000
68.043900 0.000000
68.106200 0.000000
68.168400 0.000000
68.230600 0.000000
68.292800 0.000000
68.355100 0.000000
68.417300 0.000000
68.479500 0.000000
68.541700 0.000000
68.604000 0.000000
68.666200 0.000000
68.728400 0.000000
68.790600 0.000000
68.852900 0.000000
68.915100 0.000000
68.977300 0.000000
69.039600 0.000000
69.101800 0.000000
69.164000 0.000000
69.226200 0.000000
69.288500 0.000000
69.350700 0.000000
69.412900 0.000000
69.475100 0.000000
69.537400 0.000000
69.599600 0.000000
69.661800 0.000000
69.724000 0.000000
69.786300 0.000000
69.848500 0.000000
69.910700 0.000000
69.972900 0.000000
70.035200 0.000000
70.097400 0.000000
70.159600 0.000000
70.221800 0.000000
70.284100 0.000000
70.346300 0.000000
70.408500 0.000000
70.470800 0.000000
70.533000 0.000000
70.595200 0.000000
70.657400 0.000000
70.719700 0.000000
70.781900 0.000000
70.844100 0.000000
70.906300 0.000000
70.968600 0.000000
71.030800 0.000000
71.093000 0.000000
71.155200 0.000000
71.217500 0.000000
71.279700 0.000000
71.341900 0.000000
71.404100 0.000000
71.466400 0.000000
71.528600 0.000000
71.590800 0.000000
71.653100 0.000000
71.715300 0.000000
71.777500 0.000000
71.839700 0.000000
71.902000 0.000000
71.964200 0.000000
72.026400 0.000000
72.088600 0.000000
72.150900 0.000000
72.213100 0.000000
72.275300 0.000000
72.337500 0.000000
72.399800 0.000000
72.462000 0.000000
72.524200 0.000000
72.586400 0.000000
72.648700 0.000000
e
