set title 'mp-1221425 - Density of States'
set xlabel 'Energy (eV)'
set ylabel 'DOS (states/eV)'
set grid
set xrange [-10:10]
set yrange [0:10.025]
set xzeroaxis lt -1
set terminal png size 800,600
set output 'mp-1221425_dos_gnuplot.png'
plot '-' using 1:2 with lines title 'DOS'
-31.257600 0.000000
-31.222800 0.000000
-31.188000 0.000000
-31.153200 0.000000
-31.118400 0.000000
-31.083600 0.000000
-31.048800 0.000000
-31.014000 0.000000
-30.979200 0.000000
-30.944400 0.000000
-30.909600 0.000000
-30.874800 0.000000
-30.840000 0.000000
-30.805200 0.000000
-30.770400 0.000000
-30.735600 0.000000
-30.700800 0.000000
-30.666000 0.000000
-30.631200 0.000000
-30.596400 0.000000
-30.561600 0.000000
-30.526800 0.000000
-30.492000 0.000000
-30.457200 0.000000
-30.422400 0.000000
-30.387600 0.000000
-30.352800 0.000000
-30.318000 0.000000
-30.283200 0.000000
-30.248400 0.000000
-30.213600 0.000000
-30.178800 0.000000
-30.144100 0.000000
-30.109300 0.000000
-30.074500 0.000000
-30.039700 0.000000
-30.004900 0.000000
-29.970100 0.000000
-29.935300 0.000000
-29.900500 0.000000
-29.865700 0.000000
-29.830900 0.000000
-29.796100 0.000000
-29.761300 0.000000
-29.726500 0.000000
-29.691700 0.000000
-29.656900 0.000000
-29.622100 0.000000
-29.587300 0.000000
-29.552500 0.000000
-29.517700 0.000000
-29.482900 0.000000
-29.448100 0.000000
-29.413300 0.000000
-29.378500 0.000000
-29.343700 0.000000
-29.308900 0.000000
-29.274100 0.000000
-29.239300 0.000000
-29.204500 0.000000
-29.169700 0.000000
-29.134900 0.000000
-29.100100 0.000000
-29.065300 0.000000
-29.030500 0.000000
-28.995700 0.000000
-28.960900 0.000000
-28.926100 0.000000
-28.891300 0.000000
-28.856500 0.000000
-28.821700 0.000000
-28.786900 0.000000
-28.752100 0.000000
-28.717300 0.000000
-28.682600 0.000000
-28.647800 0.000000
-28.613000 0.000000
-28.578200 0.000000
-28.543400 0.000000
-28.508600 0.000000
-28.473800 0.000000
-28.439000 0.000000
-28.404200 0.000000
-28.369400 0.000000
-28.334600 0.000000
-28.299800 0.000000
-28.265000 0.000000
-28.230200 0.000000
-28.195400 0.000000
-28.160600 0.000000
-28.125800 0.000000
-28.091000 0.377900
-28.056200 4.538000
-28.021400 3.564100
-27.986600 4.025500
-27.951800 4.768500
-27.917000 6.116000
-27.882200 4.239200
-27.847400 3.678400
-27.812600 2.500500
-27.777800 4.983300
-27.743000 7.734500
-27.708200 16.001900
-27.673400 0.547800
-27.638600 16.168600
-27.603800 26.109900
-27.569000 2.856400
-27.534200 2.876900
-27.499400 2.897500
-27.464600 3.029300
-27.429800 3.469400
-27.395000 3.893300
-27.360200 4.164200
-27.325400 4.706000
-27.290600 7.825900
-27.255800 6.325200
-27.221100 5.421600
-27.186300 4.769300
-27.151500 3.998100
-27.116700 4.094000
-27.081900 3.766300
-27.047100 3.068400
-27.012300 0.000000
-26.977500 0.000000
-26.942700 0.000000
-26.907900 0.000000
-26.873100 0.000000
-26.838300 0.000000
-26.803500 0.000000
-26.768700 0.000000
-26.733900 0.000000
-26.699100 0.000000
-26.664300 0.000000
-26.629500 0.000000
-26.594700 0.000000
-26.559900 0.000000
-26.525100 0.000000
-26.490300 0.000000
-26.455500 0.000000
-26.420700 0.000000
-26.385900 0.000000
-26.351100 0.000000
-26.316300 0.000000
-26.281500 0.000000
-26.246700 0.000000
-26.211900 0.000000
-26.177100 0.000000
-26.142300 0.000000
-26.107500 0.000000
-26.072700 0.000000
-26.037900 0.000000
-26.003100 0.000000
-25.968300 0.000000
-25.933500 0.000000
-25.898700 0.000000
-25.863900 0.000000
-25.829100 0.000000
-25.794300 0.000000
-25.759600 0.000000
-25.724800 0.000000
-25.690000 0.000000
-25.655200 0.000000
-25.620400 0.000000
-25.585600 0.000000
-25.550800 0.000000
-25.516000 0.000000
-25.481200 0.000000
-25.446400 0.000000
-25.411600 0.000000
-25.376800 0.000000
-25.342000 0.000000
-25.307200 0.000000
-25.272400 0.000000
-25.237600 0.000000
-25.202800 0.000000
-25.168000 0.000000
-25.133200 0.000000
-25.098400 0.000000
-25.063600 0.000000
-25.028800 0.000000
-24.994000 0.000000
-24.959200 0.000000
-24.924400 0.000000
-24.889600 0.000000
-24.854800 0.000000
-24.820000 0.000000
-24.785200 0.000000
-24.750400 0.000000
-24.715600 0.000000
-24.680800 0.000000
-24.646000 0.000000
-24.611200 0.000000
-24.576400 0.000000
-24.541600 0.000000
-24.506800 0.000000
-24.472000 0.000000
-24.437200 0.000000
-24.402400 0.000000
-24.367600 0.000000
-24.332800 0.000000
-24.298100 0.000000
-24.263300 0.000000
-24.228500 0.000000
-24.193700 0.000000
-24.158900 0.000000
-24.124100 0.000000
-24.089300 0.000000
-24.054500 0.000000
-24.019700 0.000000
-23.984900 0.000000
-23.950100 0.000000
-23.915300 0.000000
-23.880500 0.000000
-23.845700 0.000000
-23.810900 0.000000
-23.776100 0.000000
-23.741300 0.000000
-23.706500 0.000000
-23.671700 0.000000
-23.636900 0.000000
-23.602100 0.000000
-23.567300 0.000000
-23.532500 0.000000
-23.497700 0.000000
-23.462900 0.000000
-23.428100 0.000000
-23.393300 0.000000
-23.358500 0.000000
-23.323700 0.000000
-23.288900 0.000000
-23.254100 0.000000
-23.219300 0.000000
-23.184500 0.000000
-23.149700 0.000000
-23.114900 0.000000
-23.080100 0.000000
-23.045300 0.000000
-23.010500 0.000000
-22.975700 0.000000
-22.940900 0.000000
-22.906100 0.000000
-22.871300 0.000000
-22.836600 0.000000
-22.801800 0.000000
-22.767000 0.000000
-22.732200 0.000000
-22.697400 0.000000
-22.662600 0.000000
-22.627800 0.000000
-22.593000 0.000000
-22.558200 0.000000
-22.523400 0.000000
-22.488600 0.000000
-22.453800 0.000000
-22.419000 0.000000
-22.384200 0.000000
-22.349400 0.000000
-22.314600 0.000000
-22.279800 0.000000
-22.245000 0.000000
-22.210200 0.000000
-22.175400 0.000000
-22.140600 0.000000
-22.105800 0.000000
-22.071000 0.000000
-22.036200 0.000000
-22.001400 0.000000
-21.966600 0.000000
-21.931800 0.000000
-21.897000 0.000000
-21.862200 0.000000
-21.827400 0.000000
-21.792600 0.000000
-21.757800 0.000000
-21.723000 0.000000
-21.688200 0.000000
-21.653400 0.000000
-21.618600 0.000000
-21.583800 0.000000
-21.549000 0.000000
-21.514200 0.000000
-21.479400 0.000000
-21.444600 0.000000
-21.409800 0.000000
-21.375100 0.000000
-21.340300 0.000000
-21.305500 0.000000
-21.270700 0.000000
-21.235900 0.000000
-21.201100 0.000000
-21.166300 0.000000
-21.131500 0.000000
-21.096700 0.000000
-21.061900 0.000000
-21.027100 0.000000
-20.992300 0.000000
-20.957500 0.000000
-20.922700 0.000000
-20.887900 0.000000
-20.853100 0.000000
-20.818300 0.000000
-20.783500 0.000000
-20.748700 0.000000
-20.713900 0.000000
-20.679100 0.000000
-20.644300 0.000000
-20.609500 0.000000
-20.574700 0.000000
-20.539900 0.000000
-20.505100 0.000000
-20.470300 0.000000
-20.435500 0.000000
-20.400700 0.000000
-20.365900 0.000000
-20.331100 0.000000
-20.296300 0.000000
-20.261500 0.000000
-20.226700 0.000000
-20.191900 0.000000
-20.157100 0.000000
-20.122300 0.000000
-20.087500 0.000000
-20.052700 0.000000
-20.017900 0.000000
-19.983100 0.000000
-19.948300 0.000000
-19.913600 0.000000
-19.878800 0.000000
-19.844000 0.000000
-19.809200 0.000000
-19.774400 0.000000
-19.739600 0.000000
-19.704800 0.000000
-19.670000 0.000000
-19.635200 0.000000
-19.600400 0.000000
-19.565600 0.000000
-19.530800 0.000000
-19.496000 0.000000
-19.461200 0.000000
-19.426400 0.000000
-19.391600 0.000000
-19.356800 0.000000
-19.322000 0.000000
-19.287200 0.000000
-19.252400 0.000000
-19.217600 0.000000
-19.182800 0.000000
-19.148000 0.000000
-19.113200 0.000000
-19.078400 0.000000
-19.043600 0.000000
-19.008800 0.000000
-18.974000 0.000000
-18.939200 0.000000
-18.904400 0.000000
-18.869600 0.000000
-18.834800 0.000000
-18.800000 0.000000
-18.765200 0.000000
-18.730400 0.000000
-18.695600 0.000000
-18.660800 0.000000
-18.626000 0.000000
-18.591200 0.000000
-18.556400 0.000000
-18.521600 0.000000
-18.486800 0.000000
-18.452100 0.000000
-18.417300 0.000000
-18.382500 0.000000
-18.347700 0.000000
-18.312900 0.000000
-18.278100 0.000000
-18.243300 0.000000
-18.208500 0.000000
-18.173700 0.000000
-18.138900 0.000000
-18.104100 0.000000
-18.069300 0.000000
-18.034500 0.000000
-17.999700 0.000000
-17.964900 0.000000
-17.930100 0.000000
-17.895300 0.000000
-17.860500 0.000000
-17.825700 0.000000
-17.790900 0.000000
-17.756100 0.000000
-17.721300 0.000000
-17.686500 0.000000
-17.651700 0.000000
-17.616900 0.000000
-17.582100 0.000000
-17.547300 0.000000
-17.512500 0.000000
-17.477700 0.000000
-17.442900 0.000000
-17.408100 0.000000
-17.373300 0.000000
-17.338500 0.000000
-17.303700 0.000000
-17.268900 0.000000
-17.234100 0.000000
-17.199300 0.000000
-17.164500 0.000000
-17.129700 0.000000
-17.094900 0.000000
-17.060100 0.000000
-17.025400 0.000000
-16.990600 0.000000
-16.955800 0.000000
-16.921000 0.000000
-16.886200 0.000000
-16.851400 0.000000
-16.816600 0.000000
-16.781800 0.000000
-16.747000 0.000000
-16.712200 0.000000
-16.677400 0.000000
-16.642600 0.000000
-16.607800 0.000000
-16.573000 0.000000
-16.538200 0.000000
-16.503400 0.000000
-16.468600 0.000000
-16.433800 0.000000
-16.399000 0.000000
-16.364200 0.000000
-16.329400 0.000000
-16.294600 0.000000
-16.259800 0.000000
-16.225000 0.000000
-16.190200 0.000000
-16.155400 0.000000
-16.120600 0.000000
-16.085800 0.000000
-16.051000 0.000000
-16.016200 0.000000
-15.981400 0.000000
-15.946600 0.000000
-15.911800 0.000000
-15.877000 0.000000
-15.842200 0.000000
-15.807400 0.000000
-15.772600 0.000000
-15.737800 0.000000
-15.703000 0.000000
-15.668200 0.000000
-15.633400 0.000000
-15.598600 0.000000
-15.563900 0.000000
-15.529100 0.000000
-15.494300 0.000000
-15.459500 0.000000
-15.424700 0.000000
-15.389900 0.000000
-15.355100 0.000000
-15.320300 0.000000
-15.285500 0.000000
-15.250700 0.000000
-15.215900 0.000000
-15.181100 0.000000
-15.146300 0.000000
-15.111500 0.000000
-15.076700 0.000000
-15.041900 0.000000
-15.007100 0.000000
-14.972300 0.000000
-14.937500 0.000000
-14.902700 0.000000
-14.867900 0.000000
-14.833100 0.000000
-14.798300 0.000000
-14.763500 0.000000
-14.728700 0.000000
-14.693900 0.000000
-14.659100 0.000000
-14.624300 0.000000
-14.589500 0.000000
-14.554700 0.000000
-14.519900 0.000000
-14.485100 0.000000
-14.450300 0.000000
-14.415500 0.000000
-14.380700 0.000000
-14.345900 0.000000
-14.311100 0.000000
-14.276300 0.000000
-14.241500 0.000000
-14.206700 0.000000
-14.171900 0.000000
-14.137100 0.000000
-14.102400 0.000000
-14.067600 0.000000
-14.032800 0.000000
-13.998000 0.000000
-13.963200 0.000000
-13.928400 0.000000
-13.893600 0.000000
-13.858800 0.000000
-13.824000 0.000000
-13.789200 0.000000
-13.754400 0.000000
-13.719600 0.000000
-13.684800 0.000000
-13.650000 0.000000
-13.615200 0.000000
-13.580400 0.000000
-13.545600 0.000000
-13.510800 0.000000
-13.476000 0.000000
-13.441200 0.000000
-13.406400 0.000000
-13.371600 0.000000
-13.336800 0.000000
-13.302000 0.000000
-13.267200 0.000000
-13.232400 0.000000
-13.197600 0.000000
-13.162800 0.000000
-13.128000 0.000000
-13.093200 0.000000
-13.058400 0.000000
-13.023600 0.000000
-12.988800 0.000000
-12.954000 0.000000
-12.919200 0.000000
-12.884400 0.000000
-12.849600 0.000000
-12.814800 0.000000
-12.780000 0.000000
-12.745200 0.000000
-12.710400 0.000000
-12.675600 0.000000
-12.640900 0.000000
-12.606100 0.000000
-12.571300 0.000000
-12.536500 0.000000
-12.501700 0.000000
-12.466900 0.000000
-12.432100 0.000000
-12.397300 0.000000
-12.362500 0.000000
-12.327700 0.000000
-12.292900 0.000000
-12.258100 0.000000
-12.223300 0.000000
-12.188500 0.000000
-12.153700 0.000000
-12.118900 0.000000
-12.084100 0.000000
-12.049300 0.000000
-12.014500 0.000000
-11.979700 0.000000
-11.944900 0.000000
-11.910100 0.000000
-11.875300 0.000000
-11.840500 0.000000
-11.805700 0.000000
-11.770900 0.000000
-11.736100 0.000000
-11.701300 0.000000
-11.666500 0.000000
-11.631700 0.000000
-11.596900 0.000000
-11.562100 0.000000
-11.527300 0.000000
-11.492500 0.000000
-11.457700 0.000000
-11.422900 0.000000
-11.388100 0.000000
-11.353300 0.000000
-11.318500 0.000000
-11.283700 0.000000
-11.248900 0.000000
-11.214100 0.000000
-11.179400 0.000000
-11.144600 0.000000
-11.109800 0.000000
-11.075000 0.000000
-11.040200 0.000000
-11.005400 0.000000
-10.970600 0.000000
-10.935800 0.000000
-10.901000 0.000000
-10.866200 0.000000
-10.831400 0.000000
-10.796600 0.000000
-10.761800 0.000000
-10.727000 0.000000
-10.692200 0.000000
-10.657400 0.000000
-10.622600 0.000000
-10.587800 0.000000
-10.553000 0.000000
-10.518200 0.000000
-10.483400 0.000000
-10.448600 0.000000
-10.413800 0.000000
-10.379000 0.000000
-10.344200 0.000000
-10.309400 0.000000
-10.274600 0.000000
-10.239800 0.000000
-10.205000 0.000000
-10.170200 0.000000
-10.135400 0.000000
-10.100600 0.000000
-10.065800 0.000000
-10.031000 0.000000
-9.996200 0.000000
-9.961400 0.000000
-9.926600 0.000000
-9.891800 0.000000
-9.857000 0.000000
-9.822200 0.000000
-9.787400 0.000000
-9.752600 0.000000
-9.717900 0.000000
-9.683100 0.000000
-9.648300 0.000000
-9.613500 0.000000
-9.578700 0.000000
-9.543900 0.000000
-9.509100 0.000000
-9.474300 0.000000
-9.439500 0.000000
-9.404700 0.000000
-9.369900 0.000000
-9.335100 0.000000
-9.300300 0.000000
-9.265500 0.000000
-9.230700 0.000000
-9.195900 0.000000
-9.161100 0.000000
-9.126300 0.000000
-9.091500 0.000000
-9.056700 0.000000
-9.021900 0.000000
-8.987100 0.000000
-8.952300 0.000000
-8.917500 0.000000
-8.882700 0.000000
-8.847900 0.000000
-8.813100 0.000000
-8.778300 0.000000
-8.743500 0.000000
-8.708700 0.000000
-8.673900 0.000000
-8.639100 0.000000
-8.604300 0.000000
-8.569500 0.000000
-8.534700 0.000000
-8.499900 0.000000
-8.465100 0.000000
-8.430300 0.000000
-8.395500 0.000000
-8.360700 0.000000
-8.325900 0.000000
-8.291100 0.000000
-8.256400 0.000000
-8.221600 0.000000
-8.186800 0.000000
-8.152000 0.000000
-8.117200 0.000000
-8.082400 0.000000
-8.047600 0.000000
-8.012800 0.000000
-7.978000 0.000000
-7.943200 0.000000
-7.908400 0.000000
-7.873600 0.000000
-7.838800 0.000000
-7.804000 0.000000
-7.769200 0.000000
-7.734400 0.000000
-7.699600 0.000000
-7.664800 0.000000
-7.630000 0.000000
-7.595200 0.000000
-7.560400 0.000000
-7.525600 0.000000
-7.490800 0.000000
-7.456000 0.000000
-7.421200 0.000000
-7.386400 0.000000
-7.351600 0.000000
-7.316800 0.000000
-7.282000 0.000000
-7.247200 0.000000
-7.212400 0.000000
-7.177600 0.000000
-7.142800 0.000000
-7.108000 0.000000
-7.073200 0.000000
-7.038400 0.000000
-7.003600 0.000000
-6.968800 0.000000
-6.934000 0.000000
-6.899200 0.000000
-6.864400 0.000000
-6.829600 0.000000
-6.794900 0.000000
-6.760100 0.000000
-6.725300 0.000000
-6.690500 0.000000
-6.655700 0.000000
-6.620900 0.000000
-6.586100 0.000000
-6.551300 0.000000
-6.516500 0.000000
-6.481700 0.000000
-6.446900 0.000000
-6.412100 0.000000
-6.377300 0.000000
-6.342500 0.000000
-6.307700 0.000000
-6.272900 0.000000
-6.238100 0.000000
-6.203300 0.000000
-6.168500 0.000000
-6.133700 0.000000
-6.098900 0.000000
-6.064100 0.000000
-6.029300 0.000000
-5.994500 0.000000
-5.959700 0.000000
-5.924900 0.000000
-5.890100 0.000000
-5.855300 0.000000
-5.820500 0.000000
-5.785700 0.000000
-5.750900 0.000000
-5.716100 0.000000
-5.681300 0.000000
-5.646500 0.000000
-5.611700 0.000000
-5.576900 0.000000
-5.542100 0.000000
-5.507300 0.000000
-5.472500 0.000000
-5.437700 0.000000
-5.402900 0.000000
-5.368100 0.000000
-5.333400 0.000000
-5.298600 0.000000
-5.263800 0.000000
-5.229000 0.000000
-5.194200 0.000000
-5.159400 0.000000
-5.124600 0.000000
-5.089800 0.000000
-5.055000 0.000000
-5.020200 0.000000
-4.985400 0.000000
-4.950600 0.000000
-4.915800 0.000000
-4.881000 0.000000
-4.846200 0.000000
-4.811400 0.000000
-4.776600 0.000000
-4.741800 0.000000
-4.707000 0.000000
-4.672200 0.000000
-4.637400 0.000000
-4.602600 0.000000
-4.567800 0.000000
-4.533000 0.000000
-4.498200 0.000000
-4.463400 0.000000
-4.428600 0.000000
-4.393800 0.000000
-4.359000 0.000000
-4.324200 0.000000
-4.289400 0.000000
-4.254600 0.000000
-4.219800 0.000000
-4.185000 0.000000
-4.150200 0.000000
-4.115400 0.000000
-4.080600 0.000000
-4.045800 0.000000
-4.011000 0.000000
-3.976200 0.000000
-3.941400 0.000000
-3.906600 0.000000
-3.871900 0.000000
-3.837100 0.000000
-3.802300 0.000000
-3.767500 0.000000
-3.732700 0.000000
-3.697900 0.000000
-3.663100 0.000000
-3.628300 0.000000
-3.593500 0.000000
-3.558700 0.000000
-3.523900 0.000000
-3.489100 0.000000
-3.454300 0.000000
-3.419500 0.000000
-3.384700 0.000000
-3.349900 0.000000
-3.315100 0.000000
-3.280300 0.000000
-3.245500 0.000000
-3.210700 0.000000
-3.175900 0.000000
-3.141100 0.000000
-3.106300 0.000000
-3.071500 0.000000
-3.036700 0.000000
-3.001900 0.000000
-2.967100 0.000000
-2.932300 0.000000
-2.897500 0.000000
-2.862700 0.000000
-2.827900 0.000000
-2.793100 0.000000
-2.758300 0.000000
-2.723500 0.000000
-2.688700 0.000000
-2.653900 0.000000
-2.619100 0.000000
-2.584300 0.000000
-2.549500 0.000000
-2.514700 0.000000
-2.479900 0.000000
-2.445100 0.000000
-2.410400 0.000000
-2.375600 0.000000
-2.340800 0.000000
-2.306000 0.000000
-2.271200 0.000000
-2.236400 0.000000
-2.201600 0.000000
-2.166800 0.000000
-2.132000 0.000000
-2.097200 0.000000
-2.062400 0.000000
-2.027600 0.000000
-1.992800 0.000000
-1.958000 0.000000
-1.923200 0.000000
-1.888400 0.000000
-1.853600 0.000000
-1.818800 0.000000
-1.784000 0.000000
-1.749200 0.000000
-1.714400 0.000300
-1.679600 0.009800
-1.644800 0.025700
-1.610000 0.046300
-1.575200 0.070400
-1.540400 0.097900
-1.505600 0.128400
-1.470800 0.149100
-1.436000 0.146100
-1.401200 0.154700
-1.366400 0.166500
-1.331600 0.182600
-1.296800 0.197000
-1.262000 0.209200
-1.227200 0.218700
-1.192400 0.225300
-1.157600 0.226500
-1.122800 0.211200
-1.088000 0.216300
-1.053200 0.221500
-1.018400 0.226600
-0.983600 0.231000
-0.948900 0.233800
-0.914100 0.235800
-0.879300 0.240800
-0.844500 0.249100
-0.809700 0.259100
-0.774900 0.271200
-0.740100 0.285600
-0.705300 0.301400
-0.670500 0.313500
-0.635700 0.315200
-0.600900 0.321200
-0.566100 0.329600
-0.531300 0.338500
-0.496500 0.348300
-0.461700 0.359200
-0.426900 0.370600
-0.392100 0.382600
-0.357300 0.394900
-0.322500 0.407700
-0.287700 0.420800
-0.252900 0.434800
-0.218100 0.450100
-0.183300 0.466700
-0.148500 0.484800
-0.113700 0.500400
-0.078900 0.514200
-0.044100 0.525900
-0.009300 0.535600
0.025500 0.538800
0.060300 0.528800
0.095100 0.537000
0.129900 0.545900
0.164700 0.554900
0.199500 0.564300
0.234300 0.574100
0.269100 0.584100
0.303900 0.594400
0.338700 0.605100
0.373500 0.616400
0.408300 0.628100
0.443100 0.639700
0.477900 0.658400
0.512600 0.683700
0.547400 0.714300
0.582200 0.750600
0.617000 0.793200
0.651800 0.844100
0.686600 0.886800
0.721400 0.929900
0.756200 0.972200
0.791000 1.028900
0.825800 1.092100
0.860600 1.158900
0.895400 1.207500
0.930200 1.294900
0.965000 1.474300
0.999800 1.836800
1.034600 2.031300
1.069400 2.179900
1.104200 2.322600
1.139000 2.349900
1.173800 2.222000
1.208600 2.253200
1.243400 2.415100
1.278200 2.690700
1.313000 3.069800
1.347800 3.318500
1.382600 3.428500
1.417400 3.446600
1.452200 3.443100
1.487000 3.576200
1.521800 3.622800
1.556600 3.599100
1.591400 3.549000
1.626200 3.617800
1.661000 4.018800
1.695800 4.460500
1.730600 4.984800
1.765400 5.459800
1.800200 5.707600
1.835000 5.895800
1.869800 5.796100
1.904600 5.535800
1.939300 5.478500
1.974100 5.277100
2.008900 5.114900
2.043700 5.114400
2.078500 5.395700
2.113300 5.167300
2.148100 5.056500
2.182900 4.866100
2.217700 4.918700
2.252500 5.128100
2.287300 5.459100
2.322100 5.428000
2.356900 5.175500
2.391700 5.134700
2.426500 5.527300
2.461300 6.177200
2.496100 6.426300
2.530900 6.401100
2.565700 6.290700
2.600500 6.285800
2.635300 6.305100
2.670100 5.671400
2.704900 5.045700
2.739700 5.212100
2.774500 5.460400
2.809300 5.041100
2.844100 4.404000
2.878900 4.691800
2.913700 4.634500
2.948500 4.510200
2.983300 4.357100
3.018100 4.756100
3.052900 4.364600
3.087700 4.134200
3.122500 4.026200
3.157300 4.169100
3.192100 3.543900
3.226900 3.103200
3.261700 4.063600
3.296500 7.008100
3.331300 9.113200
3.366100 6.706100
3.400800 6.651900
3.435600 6.676300
3.470400 7.421400
3.505200 7.238200
3.540000 6.583200
3.574800 6.057600
3.609600 5.717700
3.644400 5.263300
3.679200 4.746600
3.714000 4.887400
3.748800 4.962800
3.783600 4.550300
3.818400 4.583800
3.853200 4.957200
3.888000 5.271100
3.922800 5.919700
3.957600 6.394600
3.992400 6.066300
4.027200 6.285000
4.062000 6.279400
4.096800 6.378700
4.131600 6.548200
4.166400 7.971700
4.201200 6.619700
4.236000 6.096000
4.270800 6.166700
4.305600 6.899800
4.340400 5.359800
4.375200 5.056600
4.410000 5.023500
4.444800 5.673500
4.479600 6.534500
4.514400 7.109700
4.549200 7.199800
4.584000 7.095200
4.618800 6.796800
4.653600 6.352100
4.688400 6.168600
4.723200 5.977100
4.758000 6.621400
4.792800 7.472100
4.827600 7.434400
4.862300 7.394400
4.897100 6.759700
4.931900 6.929700
4.966700 7.239400
5.001500 7.300400
5.036300 7.370800
5.071100 6.785500
5.105900 5.732300
5.140700 5.191500
5.175500 4.382600
5.210300 3.819600
5.245100 3.906900
5.279900 4.139900
5.314700 5.049900
5.349500 5.969200
5.384300 6.027100
5.419100 6.440400
5.453900 5.755300
5.488700 5.961100
5.523500 6.508600
5.558300 6.724800
5.593100 6.069600
5.627900 5.122000
5.662700 3.951800
5.697500 4.696900
5.732300 5.218400
5.767100 6.115900
5.801900 5.527900
5.836700 5.087600
5.871500 5.485300
5.906300 5.893700
5.941100 6.398900
5.975900 7.016900
6.010700 6.814000
6.045500 6.118000
6.080300 5.437000
6.115100 5.278000
6.149900 5.127100
6.184700 5.053800
6.219500 4.814200
6.254300 4.766000
6.289100 5.040800
6.323800 4.937600
6.358600 4.927100
6.393400 4.855000
6.428200 4.376700
6.463000 4.254000
6.497800 4.828800
6.532600 4.819400
6.567400 5.847700
6.602200 4.917600
6.637000 4.607200
6.671800 4.334900
6.706600 4.031400
6.741400 3.677400
6.776200 3.466200
6.811000 3.433700
6.845800 5.256100
6.880600 5.525300
6.915400 5.490100
6.950200 5.337700
6.985000 5.151300
7.019800 4.843800
7.054600 4.486100
7.089400 3.756900
7.124200 3.683700
7.159000 4.015600
7.193800 4.108000
7.228600 4.295300
7.263400 4.427800
7.298200 4.552900
7.333000 4.939800
7.367800 4.813400
7.402600 4.404800
7.437400 3.885500
7.472200 3.492000
7.507000 3.421100
7.541800 3.365400
7.576600 3.318100
7.611400 3.236700
7.646200 3.243000
7.681000 3.262000
7.715800 3.237300
7.750600 3.157000
7.785300 3.271900
7.820100 3.423500
7.854900 3.573700
7.889700 3.765300
7.924500 4.003300
7.959300 4.300800
7.994100 5.090400
8.028900 5.515400
8.063700 4.596700
8.098500 4.256900
8.133300 4.184800
8.168100 3.955200
8.202900 3.567600
8.237700 3.238500
8.272500 3.265500
8.307300 3.309500
8.342100 3.253800
8.376900 3.224000
8.411700 3.235300
8.446500 3.421400
8.481300 3.254400
8.516100 3.144600
8.550900 3.038200
8.585700 2.883800
8.620500 2.677200
8.655300 2.462900
8.690100 2.358400
8.724900 2.284800
8.759700 2.217200
8.794500 2.168200
8.829300 2.272400
8.864100 2.432800
8.898900 2.776000
8.933700 2.951300
8.968500 2.909300
9.003300 2.971100
9.038100 2.919900
9.072900 2.953800
9.107700 2.983600
9.142500 2.708700
9.177300 2.583000
9.212100 2.577000
9.246800 2.606000
9.281600 2.650900
9.316400 2.693800
9.351200 2.721800
9.386000 2.763800
9.420800 2.788500
9.455600 2.952500
9.490400 2.668800
9.525200 2.446100
9.560000 2.258900
9.594800 2.186100
9.629600 2.587800
9.664400 2.191700
9.699200 1.545200
9.734000 1.457600
9.768800 1.992800
9.803600 2.925200
9.838400 3.888700
9.873200 5.506500
9.908000 2.579500
9.942800 2.385000
9.977600 2.406200
10.012400 2.406100
10.047200 2.180700
10.082000 2.096200
10.116800 1.855400
10.151600 1.628500
10.186400 1.569100
10.221200 1.512800
10.256000 1.469800
10.290800 1.450100
10.325600 1.437200
10.360400 1.424800
10.395200 1.413500
10.430000 1.402600
10.464800 1.392800
10.499600 1.388700
10.534400 1.385000
10.569200 1.386500
10.604000 1.394900
10.638800 1.404700
10.673600 1.415700
10.708300 1.429100
10.743100 1.442900
10.777900 1.451800
10.812700 1.460400
10.847500 1.468600
10.882300 1.476900
10.917100 1.490800
10.951900 1.522600
10.986700 1.553200
11.021500 1.580400
11.056300 1.604300
11.091100 1.642200
11.125900 1.768200
11.160700 1.794800
11.195500 1.736200
11.230300 1.714000
11.265100 1.743600
11.299900 1.772000
11.334700 1.718200
11.369500 1.575000
11.404300 1.511600
11.439100 1.475000
11.473900 1.486300
11.508700 1.526100
11.543500 1.529700
11.578300 1.469500
11.613100 1.414400
11.647900 1.370700
11.682700 1.332700
11.717500 1.306800
11.752300 1.280200
11.787100 1.249800
11.821900 1.181000
11.856700 1.128700
11.891500 1.079200
11.926300 1.045500
11.961100 1.017700
11.995900 0.996700
12.030700 0.987600
12.065500 0.986000
12.100300 0.973700
12.135100 0.961600
12.169800 0.949700
12.204600 0.938000
12.239400 0.926500
12.274200 0.944300
12.309000 0.969100
12.343800 1.001200
12.378600 1.032600
12.413400 1.056200
12.448200 1.068300
12.483000 1.085800
12.517800 1.108700
12.552600 1.132400
12.587400 1.155800
12.622200 1.185200
12.657000 1.236300
12.691800 1.297100
12.726600 1.240900
12.761400 1.220700
12.796200 1.193500
12.831000 1.198400
12.865800 1.240500
12.900600 1.344500
12.935400 1.520300
12.970200 1.916100
13.005000 2.152800
13.039800 1.790400
13.074600 1.343700
13.109400 1.039400
13.144200 0.855700
13.179000 0.751600
13.213800 0.705700
13.248600 0.703300
13.283400 0.701800
13.318200 0.700700
13.353000 0.700000
13.387800 0.698900
13.422600 0.695900
13.457400 0.694000
13.492200 0.696300
13.527000 0.728300
13.561800 0.835500
13.596600 0.907600
13.631300 0.951100
13.666100 0.967700
13.700900 0.981900
13.735700 1.022400
13.770500 1.057000
13.805300 1.103700
13.840100 1.153500
13.874900 1.154100
13.909700 1.168800
13.944500 1.253100
13.979300 1.303500
14.014100 1.325000
14.048900 1.531700
14.083700 1.744600
14.118500 1.580000
14.153300 1.480600
14.188100 1.475800
14.222900 1.501000
14.257700 1.502300
14.292500 1.480000
14.327300 1.434500
14.362100 1.405200
14.396900 1.386300
14.431700 1.370700
14.466500 1.351400
14.501300 1.322700
14.536100 1.287200
14.570900 1.257300
14.605700 1.247200
14.640500 1.274300
14.675300 1.301500
14.710100 1.315500
14.744900 1.754500
14.779700 1.169800
14.814500 0.954300
14.849300 0.854300
14.884100 0.803400
14.918900 0.760700
14.953700 0.725300
14.988500 0.701800
15.023300 0.720300
15.058100 0.788300
15.092800 1.250300
15.127600 1.438000
15.162400 1.643200
15.197200 1.698100
15.232000 1.715900
15.266800 1.765900
15.301600 1.816700
15.336400 1.841200
15.371200 1.935300
15.406000 1.715500
15.440800 1.637600
15.475600 1.531900
15.510400 1.448900
15.545200 1.402300
15.580000 1.384900
15.614800 1.338700
15.649600 1.260500
15.684400 1.264500
15.719200 1.141300
15.754000 1.084600
15.788800 1.045000
15.823600 0.997400
15.858400 0.964600
15.893200 0.950400
15.928000 0.947800
15.962800 0.938000
15.997600 0.928900
16.032400 0.924100
16.067200 0.930500
16.102000 0.940300
16.136800 0.951200
16.171600 0.964900
16.206400 0.981900
16.241200 1.004500
16.276000 1.033800
16.310800 1.068100
16.345600 1.118000
16.380400 1.186200
16.415200 1.196600
16.450000 1.347800
16.484800 1.582000
16.519600 1.763100
16.554300 1.844900
16.589100 1.822600
16.623900 1.762500
16.658700 1.648400
16.693500 1.529500
16.728300 1.509600
16.763100 1.403500
16.797900 1.320500
16.832700 1.252900
16.867500 1.185600
16.902300 1.138200
16.937100 1.110200
16.971900 1.099900
17.006700 1.083200
17.041500 1.053800
17.076300 1.026800
17.111100 0.996400
17.145900 0.968800
17.180700 0.945600
17.215500 0.936100
17.250300 0.934000
17.285100 0.932300
17.319900 0.930200
17.354700 0.927800
17.389500 0.925200
17.424300 0.924300
17.459100 0.918500
17.493900 0.904500
17.528700 0.882900
17.563500 0.878900
17.598300 0.871700
17.633100 0.860000
17.667900 0.846800
17.702700 0.840900
17.737500 0.843700
17.772300 0.848500
17.807100 0.854600
17.841900 0.860500
17.876700 0.866200
17.911500 0.885500
17.946300 0.917000
17.981100 0.951800
18.015800 0.980500
18.050600 1.019900
18.085400 1.057900
18.120200 1.096900
18.155000 1.136200
18.189800 1.251800
18.224600 1.444300
18.259400 1.571000
18.294200 1.583600
18.329000 1.580000
18.363800 1.570600
18.398600 1.565700
18.433400 1.578000
18.468200 1.625300
18.503000 1.683700
18.537800 1.744900
18.572600 1.852300
18.607400 1.797700
18.642200 1.713300
18.677000 1.696300
18.711800 1.728000
18.746600 1.731500
18.781400 1.774000
18.816200 1.781200
18.851000 1.787600
18.885800 1.776900
18.920600 1.787600
18.955400 1.655300
18.990200 1.486200
19.025000 1.445400
19.059800 1.426200
19.094600 1.436200
19.129400 1.446900
19.164200 1.451600
19.199000 1.464200
19.233800 1.511900
19.268600 1.612500
19.303400 1.655600
19.338200 1.675900
19.373000 1.816400
19.407800 1.734100
19.442600 1.647200
19.477300 1.620600
19.512100 1.624000
19.546900 1.654900
19.581700 1.697800
19.616500 1.766700
19.651300 1.835700
19.686100 1.882200
19.720900 1.955700
19.755700 1.999600
19.790500 2.059500
19.825300 2.051800
19.860100 1.965900
19.894900 2.047200
19.929700 1.946600
19.964500 1.920400
19.999300 1.911700
20.034100 1.926200
20.068900 1.932700
20.103700 1.913100
20.138500 1.883000
20.173300 1.844300
20.208100 1.829600
20.242900 1.820100
20.277700 1.808800
20.312500 1.781100
20.347300 1.773700
20.382100 1.780500
20.416900 1.807600
20.451700 1.835400
20.486500 1.847700
20.521300 1.849600
20.556100 1.847500
20.590900 1.884800
20.625700 1.867900
20.660500 1.840100
20.695300 1.813400
20.730100 1.793600
20.764900 1.798000
20.799700 1.804600
20.834500 1.808000
20.869300 1.850000
20.904000 1.858000
20.938800 1.851500
20.973600 1.848800
21.008400 1.934700
21.043200 1.971200
21.078000 1.931500
21.112800 1.990900
21.147600 2.052100
21.182400 2.095000
21.217200 2.141500
21.252000 2.174500
21.286800 2.161400
21.321600 2.194100
21.356400 2.221400
21.391200 2.255600
21.426000 2.293600
21.460800 2.305700
21.495600 2.311700
21.530400 2.298600
21.565200 2.275600
21.600000 2.284800
21.634800 2.209900
21.669600 2.138700
21.704400 2.113600
21.739200 2.123200
21.774000 2.143300
21.808800 2.136900
21.843600 2.051500
21.878400 2.037400
21.913200 2.037300
21.948000 2.049100
21.982800 2.078300
22.017600 2.124800
22.052400 2.190600
22.087200 2.279800
22.122000 2.373100
22.156800 2.453000
22.191600 2.541600
22.226400 2.671000
22.261200 2.795100
22.296000 2.623700
22.330800 2.530700
22.365500 2.481900
22.400300 2.452200
22.435100 2.434100
22.469900 2.423500
22.504700 2.427300
22.539500 2.441900
22.574300 2.483900
22.609100 2.554500
22.643900 2.574800
22.678700 2.625700
22.713500 2.641500
22.748300 2.650400
22.783100 2.659900
22.817900 2.676000
22.852700 2.728600
22.887500 2.771100
22.922300 2.788900
22.957100 2.875100
22.991900 3.028900
23.026700 2.918400
23.061500 2.932100
23.096300 3.004200
23.131100 3.027200
23.165900 3.026000
23.200700 2.956900
23.235500 2.884500
23.270300 2.813000
23.305100 2.800300
23.339900 2.921100
23.374700 3.056200
23.409500 2.962800
23.444300 2.963200
23.479100 3.012600
23.513900 3.043500
23.548700 3.026400
23.583500 3.008700
23.618300 3.028700
23.653100 3.046300
23.687900 3.033700
23.722700 3.011400
23.757500 2.978300
23.792300 2.953100
23.827000 2.917500
23.861800 2.899200
23.896600 2.905200
23.931400 2.925200
23.966200 2.965600
24.001000 3.046800
24.035800 3.144800
24.070600 3.336700
24.105400 3.506400
24.140200 3.621400
24.175000 3.775100
24.209800 3.976000
24.244600 4.188900
24.279400 4.486800
24.314200 4.835800
24.349000 5.031900
24.383800 5.422000
24.418600 6.894300
24.453400 7.848000
24.488200 5.938800
24.523000 5.267100
24.557800 4.981700
24.592600 4.747400
24.627400 4.556300
24.662200 4.393900
24.697000 4.177700
24.731800 3.937400
24.766600 3.729200
24.801400 3.194900
24.836200 3.037500
24.871000 2.907800
24.905800 2.789400
24.940600 2.775200
24.975400 2.590100
25.010200 2.516300
25.045000 2.622000
25.079800 2.610800
25.114600 2.525200
25.149400 2.419600
25.184200 2.345400
25.219000 2.290500
25.253800 2.241700
25.288500 2.193500
25.323300 2.146600
25.358100 2.097800
25.392900 2.041300
25.427700 1.992000
25.462500 1.958900
25.497300 1.943300
25.532100 1.918200
25.566900 1.914800
25.601700 1.893900
25.636500 1.834800
25.671300 1.771000
25.706100 1.721200
25.740900 1.711100
25.775700 1.634000
25.810500 1.578000
25.845300 1.527300
25.880100 1.484400
25.914900 1.443000
25.949700 1.408300
25.984500 1.403600
26.019300 1.345700
26.054100 1.330200
26.088900 1.332300
26.123700 1.341600
26.158500 1.360100
26.193300 1.381600
26.228100 1.407100
26.262900 1.431700
26.297700 1.469600
26.332500 1.516800
26.367300 1.552200
26.402100 1.573700
26.436900 1.586800
26.471700 1.599300
26.506500 1.602800
26.541300 1.569700
26.576100 1.538100
26.610900 1.519600
26.645700 1.519600
26.680500 1.532900
26.715300 1.556800
26.750000 1.606100
26.784800 1.628000
26.819600 1.662300
26.854400 1.726200
26.889200 1.883600
26.924000 2.020700
26.958800 2.156000
26.993600 2.303700
27.028400 2.719600
27.063200 2.488100
27.098000 2.337300
27.132800 2.458500
27.167600 2.541000
27.202400 2.597700
27.237200 2.690000
27.272000 2.666500
27.306800 2.607800
27.341600 2.580100
27.376400 2.594300
27.411200 2.652800
27.446000 2.627000
27.480800 2.624700
27.515600 2.685400
27.550400 2.742300
27.585200 2.805900
27.620000 2.911400
27.654800 3.111500
27.689600 3.549000
27.724400 3.808500
27.759200 4.062700
27.794000 4.132500
27.828800 3.975200
27.863600 3.807500
27.898400 3.773400
27.933200 3.496200
27.968000 3.236800
28.002800 3.081700
28.037600 2.794000
28.072400 2.643000
28.107200 2.575700
28.142000 2.560000
28.176800 2.658700
28.211500 2.687900
28.246300 2.606100
28.281100 2.761900
28.315900 2.740800
28.350700 2.686800
28.385500 2.702800
28.420300 2.670700
28.455100 2.577400
28.489900 2.608100
28.524700 2.590300
28.559500 2.537600
28.594300 2.413600
28.629100 2.374200
28.663900 2.485900
28.698700 2.597400
28.733500 2.632600
28.768300 2.716200
28.803100 2.753600
28.837900 2.810200
28.872700 2.810000
28.907500 2.736200
28.942300 2.600800
28.977100 2.670700
29.011900 2.722400
29.046700 2.726400
29.081500 2.702500
29.116300 2.652200
29.151100 2.606600
29.185900 2.517000
29.220700 2.411300
29.255500 2.373200
29.290300 2.443100
29.325100 2.463600
29.359900 2.473800
29.394700 2.471100
29.429500 2.560000
29.464300 2.605100
29.499100 2.392800
29.533900 2.161000
29.568700 2.005100
29.603500 1.901100
29.638300 1.821900
29.673000 1.740600
29.707800 1.712100
29.742600 1.684100
29.777400 1.649500
29.812200 1.632900
29.847000 1.626400
29.881800 1.631200
29.916600 1.620600
29.951400 1.607000
29.986200 1.610100
30.021000 1.616300
30.055800 1.595400
30.090600 1.586700
30.125400 1.571500
30.160200 1.555800
30.195000 1.548600
30.229800 1.543600
30.264600 1.531300
30.299400 1.579400
30.334200 1.525900
30.369000 1.511400
30.403800 1.496500
30.438600 1.503700
30.473400 1.515700
30.508200 1.520300
30.543000 1.510600
30.577800 1.512000
30.612600 1.564700
30.647400 1.624300
30.682200 1.860000
30.717000 1.868700
30.751800 1.731100
30.786600 1.630700
30.821400 1.566500
30.856200 1.514500
30.891000 1.464300
30.925800 1.390400
30.960600 1.327800
30.995400 1.313000
31.030200 1.263300
31.065000 1.178200
31.099800 1.135300
31.134500 1.132000
31.169300 1.140600
31.204100 1.165400
31.238900 1.198800
31.273700 1.217900
31.308500 1.230300
31.343300 1.253900
31.378100 1.223200
31.412900 1.193100
31.447700 1.167800
31.482500 1.174300
31.517300 1.238200
31.552100 1.372000
31.586900 1.475400
31.621700 1.548400
31.656500 1.582800
31.691300 1.583400
31.726100 1.616300
31.760900 1.691700
31.795700 1.693500
31.830500 1.694900
31.865300 1.835100
31.900100 2.039500
31.934900 2.239800
31.969700 2.294000
32.004500 2.453600
32.039300 2.601400
32.074100 2.620300
32.108900 2.351700
32.143700 2.318200
32.178500 2.310800
32.213300 2.382700
32.248100 2.459500
32.282900 2.514600
32.317700 2.612200
32.352500 2.745000
32.387300 2.757500
32.422100 2.628200
32.456900 2.493300
32.491700 2.357700
32.526500 2.294200
32.561300 2.227300
32.596000 2.159700
32.630800 2.084100
32.665600 2.068500
32.700400 2.040000
32.735200 1.975500
32.770000 1.916500
32.804800 1.835200
32.839600 1.840800
32.874400 1.888900
32.909200 1.942800
32.944000 2.009100
32.978800 2.104500
33.013600 2.158200
33.048400 2.221700
33.083200 2.233700
33.118000 2.180300
33.152800 2.193200
33.187600 2.260800
33.222400 2.464700
33.257200 2.326100
33.292000 2.248600
33.326800 2.236100
33.361600 2.129700
33.396400 2.017600
33.431200 1.998600
33.466000 1.991100
33.500800 1.982300
33.535600 1.997500
33.570400 2.023400
33.605200 2.047700
33.640000 2.005700
33.674800 1.808600
33.709600 1.782300
33.744400 1.786700
33.779200 1.837000
33.814000 1.889300
33.848800 1.988400
33.883600 1.947000
33.918400 2.034000
33.953200 1.918900
33.988000 1.831100
34.022800 1.774600
34.057500 1.710900
34.092300 1.663200
34.127100 1.603300
34.161900 1.541700
34.196700 1.468200
34.231500 1.396900
34.266300 1.358900
34.301100 1.329200
34.335900 1.295100
34.370700 1.249900
34.405500 1.200400
34.440300 1.157100
34.475100 1.124600
34.509900 1.102800
34.544700 1.080200
34.579500 1.084800
34.614300 1.179700
34.649100 1.381200
34.683900 1.648100
34.718700 1.740100
34.753500 1.409200
34.788300 0.968100
34.823100 0.913800
34.857900 0.838600
34.892700 0.740600
34.927500 0.642700
34.962300 0.666700
34.997100 0.674000
35.031900 0.630500
35.066700 0.505200
35.101500 0.257700
35.136300 0.090300
35.171100 0.001100
35.205900 0.000000
35.240700 0.000000
35.275500 0.000000
35.310300 0.000000
35.345100 0.000000
35.379900 0.000000
35.414700 0.000000
35.449500 0.000000
35.484300 0.000000
35.519000 0.000000
35.553800 0.000000
35.588600 0.000000
35.623400 0.000000
35.658200 0.000000
35.693000 0.000000
35.727800 0.000000
35.762600 0.000000
35.797400 0.000000
35.832200 0.000000
35.867000 0.000000
35.901800 0.000000
35.936600 0.000000
35.971400 0.000000
36.006200 0.000000
36.041000 0.000000
36.075800 0.000000
36.110600 0.000000
36.145400 0.000000
36.180200 0.000000
36.215000 0.000000
36.249800 0.000000
36.284600 0.000000
36.319400 0.000000
36.354200 0.000000
36.389000 0.000000
36.423800 0.000000
36.458600 0.000000
36.493400 0.000000
36.528200 0.000000
36.563000 0.000000
36.597800 0.000000
36.632600 0.000000
36.667400 0.000000
36.702200 0.000000
36.737000 0.000000
36.771800 0.000000
36.806600 0.000000
36.841400 0.000000
36.876200 0.000000
36.911000 0.000000
36.945800 0.000000
36.980500 0.000000
37.015300 0.000000
37.050100 0.000000
37.084900 0.000000
37.119700 0.000000
37.154500 0.000000
37.189300 0.000000
37.224100 0.000000
37.258900 0.000000
37.293700 0.000000
37.328500 0.000000
37.363300 0.000000
37.398100 0.000000
37.432900 0.000000
37.467700 0.000000
37.502500 0.000000
37.537300 0.000000
37.572100 0.000000
37.606900 0.000000
37.641700 0.000000
37.676500 0.000000
37.711300 0.000000
37.746100 0.000000
37.780900 0.000000
37.815700 0.000000
37.850500 0.000000
37.885300 0.000000
37.920100 0.000000
37.954900 0.000000
37.989700 0.000000
38.024500 0.000000
38.059300 0.000000
38.094100 0.000000
38.128900 0.000000
38.163700 0.000000
38.198500 0.000000
38.233300 0.000000
38.268100 0.000000
38.302900 0.000000
38.337700 0.000000
e
