set title 'mp-1008754 - Density of States'
set xlabel 'Energy (eV)'
set ylabel 'DOS (states/eV)'
set grid
set xrange [-10:10]
set yrange [0:26.930]
set xzeroaxis lt -1
set terminal png size 800,600
set output 'mp-1008754_dos_gnuplot.png'
plot '-' using 1:2 with lines title 'DOS'
-22.254400 0.000000
-22.236700 0.000000
-22.219100 0.000000
-22.201500 0.000000
-22.183900 0.000000
-22.166300 0.000000
-22.148600 0.000000
-22.131000 0.000000
-22.113400 0.000000
-22.095800 0.000000
-22.078200 0.000000
-22.060600 0.000000
-22.042900 0.000000
-22.025300 0.000000
-22.007700 0.000000
-21.990100 0.000000
-21.972500 0.000000
-21.954900 0.000000
-21.937200 0.000000
-21.919600 0.000000
-21.902000 0.000000
-21.884400 0.000000
-21.866800 0.000000
-21.849200 0.000000
-21.831500 0.000000
-21.813900 0.000000
-21.796300 0.000000
-21.778700 0.000000
-21.761100 0.000000
-21.743500 0.000000
-21.725800 0.000000
-21.708200 0.000000
-21.690600 0.000000
-21.673000 0.000000
-21.655400 0.000000
-21.637700 0.000000
-21.620100 0.000000
-21.602500 0.000000
-21.584900 0.000000
-21.567300 0.000000
-21.549700 0.000000
-21.532000 0.000000
-21.514400 0.000000
-21.496800 0.000000
-21.479200 0.000000
-21.461600 0.000000
-21.444000 0.000000
-21.426300 0.000000
-21.408700 0.000000
-21.391100 0.000000
-21.373500 0.000000
-21.355900 0.000000
-21.338300 0.000000
-21.320600 0.000000
-21.303000 0.000000
-21.285400 0.000000
-21.267800 0.000000
-21.250200 0.000000
-21.232600 0.000000
-21.214900 0.000000
-21.197300 0.000000
-21.179700 0.000000
-21.162100 0.000000
-21.144500 0.000000
-21.126800 0.000000
-21.109200 0.000000
-21.091600 0.000000
-21.074000 0.000000
-21.056400 0.000000
-21.038800 0.000000
-21.021100 0.000000
-21.003500 0.000000
-20.985900 0.000000
-20.968300 0.000000
-20.950700 0.000000
-20.933100 0.000000
-20.915400 0.000000
-20.897800 0.000000
-20.880200 0.000000
-20.862600 0.000000
-20.845000 0.000000
-20.827400 0.000000
-20.809700 0.000000
-20.792100 0.000000
-20.774500 0.000000
-20.756900 0.000000
-20.739300 0.000000
-20.721700 0.000000
-20.704000 0.000000
-20.686400 0.000000
-20.668800 0.000000
-20.651200 7.225500
-20.633600 7.225500
-20.615900 3.789500
-20.598300 3.789500
-20.580700 3.789500
-20.563100 2.745800
-20.545500 2.745800
-20.527900 2.745800
-20.510200 2.745800
-20.492600 2.745800
-20.475000 2.344000
-20.457400 2.344000
-20.439800 2.344000
-20.422200 69.146600
-20.404500 50.468100
-20.386900 45.407600
-20.369300 67.635100
-20.351700 2.454700
-20.334100 2.454800
-20.316500 2.454800
-20.298800 2.384200
-20.281200 2.384200
-20.263600 2.384200
-20.246000 2.384200
-20.228400 2.384200
-20.210800 2.921100
-20.193100 2.921100
-20.175500 2.921100
-20.157900 2.921100
-20.140300 4.462300
-20.122700 4.462300
-20.105100 4.462300
-20.087400 12.821700
-20.069800 0.000000
-20.052200 0.000000
-20.034600 0.000000
-20.017000 0.000000
-19.999300 0.000000
-19.981700 0.000000
-19.964100 0.000000
-19.946500 0.000000
-19.928900 0.000000
-19.911300 0.000000
-19.893600 0.000000
-19.876000 0.000000
-19.858400 0.000000
-19.840800 0.000000
-19.823200 0.000000
-19.805600 0.000000
-19.787900 0.000000
-19.770300 0.000000
-19.752700 0.000000
-19.735100 0.000000
-19.717500 0.000000
-19.699900 0.000000
-19.682200 0.000000
-19.664600 0.000000
-19.647000 0.000000
-19.629400 0.000000
-19.611800 0.000000
-19.594200 0.000000
-19.576500 0.000000
-19.558900 0.000000
-19.541300 0.000000
-19.523700 0.000000
-19.506100 0.000000
-19.488400 0.000000
-19.470800 0.000000
-19.453200 0.000000
-19.435600 0.000000
-19.418000 0.000000
-19.400400 0.000000
-19.382700 0.000000
-19.365100 0.000000
-19.347500 0.000000
-19.329900 0.000000
-19.312300 0.000000
-19.294700 0.000000
-19.277000 0.000000
-19.259400 0.000000
-19.241800 0.000000
-19.224200 0.000000
-19.206600 0.000000
-19.189000 0.000000
-19.171300 0.000000
-19.153700 0.000000
-19.136100 0.000000
-19.118500 0.000000
-19.100900 0.000000
-19.083300 0.000000
-19.065600 0.000000
-19.048000 0.000000
-19.030400 0.000000
-19.012800 0.000000
-18.995200 0.000000
-18.977500 0.000000
-18.959900 0.000000
-18.942300 0.000000
-18.924700 0.000000
-18.907100 0.000000
-18.889500 0.000000
-18.871800 0.000000
-18.854200 0.000000
-18.836600 0.000000
-18.819000 0.000000
-18.801400 0.000000
-18.783800 0.000000
-18.766100 0.000000
-18.748500 0.000000
-18.730900 0.000000
-18.713300 0.000000
-18.695700 0.000000
-18.678100 0.000000
-18.660400 0.000000
-18.642800 0.000000
-18.625200 0.000000
-18.607600 0.000000
-18.590000 0.000000
-18.572400 0.000000
-18.554700 0.000000
-18.537100 0.000000
-18.519500 0.000000
-18.501900 0.000000
-18.484300 0.000000
-18.466600 0.000000
-18.449000 0.000000
-18.431400 0.000000
-18.413800 0.000000
-18.396200 0.000000
-18.378600 0.000000
-18.360900 0.000000
-18.343300 0.000000
-18.325700 0.000000
-18.308100 0.000000
-18.290500 0.000000
-18.272900 0.000000
-18.255200 0.000000
-18.237600 0.000000
-18.220000 0.000000
-18.202400 0.000000
-18.184800 0.000000
-18.167200 0.000000
-18.149500 0.000000
-18.131900 0.000000
-18.114300 0.000000
-18.096700 0.000000
-18.079100 0.000000
-18.061500 0.000000
-18.043800 0.000000
-18.026200 0.000000
-18.008600 0.000000
-17.991000 0.000000
-17.973400 0.000000
-17.955800 0.000000
-17.938100 0.000000
-17.920500 0.000000
-17.902900 0.000000
-17.885300 0.000000
-17.867700 0.000000
-17.850000 0.000000
-17.832400 0.000000
-17.814800 0.000000
-17.797200 0.000000
-17.779600 0.000000
-17.762000 0.000000
-17.744300 0.000000
-17.726700 0.000000
-17.709100 0.000000
-17.691500 0.000000
-17.673900 0.000000
-17.656300 0.000000
-17.638600 0.000000
-17.621000 0.000000
-17.603400 0.000000
-17.585800 0.000000
-17.568200 0.000000
-17.550600 0.000000
-17.532900 0.000000
-17.515300 0.000000
-17.497700 0.000000
-17.480100 0.000000
-17.462500 0.000000
-17.444900 0.000000
-17.427200 0.000000
-17.409600 0.000000
-17.392000 0.000000
-17.374400 0.000000
-17.356800 0.000000
-17.339100 0.000000
-17.321500 0.000000
-17.303900 0.000000
-17.286300 0.000000
-17.268700 0.000000
-17.251100 0.000000
-17.233400 0.000000
-17.215800 0.000000
-17.198200 0.000000
-17.180600 0.000000
-17.163000 0.000000
-17.145400 0.000000
-17.127700 0.000000
-17.110100 0.000000
-17.092500 0.000000
-17.074900 0.000000
-17.057300 0.000000
-17.039700 0.000000
-17.022000 0.000000
-17.004400 0.000000
-16.986800 0.000000
-16.969200 0.000000
-16.951600 0.000000
-16.934000 0.000000
-16.916300 0.000000
-16.898700 0.000000
-16.881100 0.000000
-16.863500 0.000000
-16.845900 0.000000
-16.828200 0.000000
-16.810600 0.000000
-16.793000 0.000000
-16.775400 0.000000
-16.757800 0.000000
-16.740200 0.000000
-16.722500 0.000000
-16.704900 0.000000
-16.687300 0.000000
-16.669700 0.000000
-16.652100 0.000000
-16.634500 0.000000
-16.616800 0.000000
-16.599200 0.000000
-16.581600 0.000000
-16.564000 0.000000
-16.546400 0.000000
-16.528800 0.000000
-16.511100 0.000000
-16.493500 0.000000
-16.475900 0.000000
-16.458300 0.000000
-16.440700 0.000000
-16.423100 0.000000
-16.405400 0.000000
-16.387800 0.000000
-16.370200 0.000000
-16.352600 0.000000
-16.335000 0.000000
-16.317400 0.000000
-16.299700 0.000000
-16.282100 0.000000
-16.264500 0.000000
-16.246900 0.000000
-16.229300 0.000000
-16.211600 0.000000
-16.194000 0.000000
-16.176400 0.000000
-16.158800 0.000000
-16.141200 0.000000
-16.123600 0.000000
-16.105900 0.000000
-16.088300 0.000000
-16.070700 0.000000
-16.053100 0.000000
-16.035500 0.000000
-16.017900 0.000000
-16.000200 0.000000
-15.982600 0.000000
-15.965000 0.000000
-15.947400 0.000000
-15.929800 0.000000
-15.912200 0.000000
-15.894500 0.000000
-15.876900 0.000000
-15.859300 0.000000
-15.841700 0.000000
-15.824100 0.000000
-15.806500 0.000000
-15.788800 0.000000
-15.771200 0.000000
-15.753600 0.000000
-15.736000 0.000000
-15.718400 0.000000
-15.700700 0.000000
-15.683100 0.000000
-15.665500 0.000000
-15.647900 0.000000
-15.630300 0.000000
-15.612700 0.000000
-15.595000 0.000000
-15.577400 0.000000
-15.559800 0.000000
-15.542200 0.000000
-15.524600 0.000000
-15.507000 0.000000
-15.489300 0.000000
-15.471700 0.000000
-15.454100 0.000000
-15.436500 0.000000
-15.418900 0.000000
-15.401300 0.000000
-15.383600 0.000000
-15.366000 0.000000
-15.348400 0.000000
-15.330800 0.000000
-15.313200 0.000000
-15.295600 0.000000
-15.277900 0.000000
-15.260300 0.000000
-15.242700 0.000000
-15.225100 0.000000
-15.207500 0.000000
-15.189800 0.000000
-15.172200 0.000000
-15.154600 0.000000
-15.137000 0.000000
-15.119400 0.000000
-15.101800 0.000000
-15.084100 0.000000
-15.066500 0.000000
-15.048900 0.000000
-15.031300 0.000000
-15.013700 0.000000
-14.996100 0.000000
-14.978400 0.000000
-14.960800 0.000000
-14.943200 0.000000
-14.925600 0.000000
-14.908000 0.000000
-14.890400 0.000000
-14.872700 0.000000
-14.855100 0.000000
-14.837500 0.000000
-14.819900 0.000000
-14.802300 0.000000
-14.784700 0.000000
-14.767000 0.000000
-14.749400 0.000000
-14.731800 0.000000
-14.714200 0.000000
-14.696600 0.000000
-14.678900 0.000000
-14.661300 0.000000
-14.643700 0.000000
-14.626100 0.000000
-14.608500 0.000000
-14.590900 0.000000
-14.573200 0.000000
-14.555600 0.000000
-14.538000 0.000000
-14.520400 0.000000
-14.502800 0.000000
-14.485200 0.000000
-14.467500 0.000000
-14.449900 0.000000
-14.432300 0.000000
-14.414700 0.000000
-14.397100 0.000000
-14.379500 0.000000
-14.361800 0.000000
-14.344200 0.000000
-14.326600 0.000000
-14.309000 0.000000
-14.291400 0.000000
-14.273800 0.000000
-14.256100 0.000000
-14.238500 0.000000
-14.220900 0.000000
-14.203300 0.000000
-14.185700 0.000000
-14.168100 0.000000
-14.150400 0.000000
-14.132800 0.000000
-14.115200 0.000000
-14.097600 0.000000
-14.080000 0.000000
-14.062300 0.000000
-14.044700 0.000000
-14.027100 0.000000
-14.009500 0.000000
-13.991900 0.000000
-13.974300 0.000000
-13.956600 0.000000
-13.939000 0.000000
-13.921400 0.000000
-13.903800 0.000000
-13.886200 0.000000
-13.868600 0.000000
-13.850900 0.000000
-13.833300 0.000000
-13.815700 0.000000
-13.798100 0.000000
-13.780500 0.000000
-13.762900 0.000000
-13.745200 0.000000
-13.727600 0.000000
-13.710000 0.000000
-13.692400 0.000000
-13.674800 0.000000
-13.657200 0.000000
-13.639500 0.000000
-13.621900 0.000000
-13.604300 0.000000
-13.586700 0.000000
-13.569100 0.000000
-13.551400 0.000000
-13.533800 0.000000
-13.516200 0.000000
-13.498600 0.000000
-13.481000 0.000000
-13.463400 0.000000
-13.445700 0.000000
-13.428100 0.000000
-13.410500 0.000000
-13.392900 0.000000
-13.375300 0.000000
-13.357700 0.000000
-13.340000 0.000000
-13.322400 0.000000
-13.304800 0.000000
-13.287200 0.000000
-13.269600 0.000000
-13.252000 0.000000
-13.234300 0.000000
-13.216700 0.000000
-13.199100 0.000000
-13.181500 0.000000
-13.163900 0.000000
-13.146300 0.000000
-13.128600 0.000000
-13.111000 0.000000
-13.093400 0.000000
-13.075800 0.000000
-13.058200 0.000000
-13.040500 0.000000
-13.022900 0.000000
-13.005300 0.000000
-12.987700 0.000000
-12.970100 0.000000
-12.952500 0.000000
-12.934800 0.000000
-12.917200 0.000000
-12.899600 0.000000
-12.882000 0.000000
-12.864400 0.000000
-12.846800 0.000000
-12.829100 0.000000
-12.811500 0.000000
-12.793900 0.000000
-12.776300 0.000000
-12.758700 0.000000
-12.741100 0.000000
-12.723400 0.000000
-12.705800 0.000000
-12.688200 0.000000
-12.670600 0.000000
-12.653000 0.000000
-12.635400 0.000000
-12.617700 0.000000
-12.600100 0.000000
-12.582500 0.000000
-12.564900 0.000000
-12.547300 0.000000
-12.529600 0.000000
-12.512000 0.000000
-12.494400 0.000000
-12.476800 0.000000
-12.459200 0.000000
-12.441600 0.000000
-12.423900 0.000000
-12.406300 0.000000
-12.388700 0.000000
-12.371100 0.000000
-12.353500 0.000000
-12.335900 0.000000
-12.318200 0.000000
-12.300600 0.000000
-12.283000 0.000000
-12.265400 0.000000
-12.247800 0.000000
-12.230200 0.000000
-12.212500 0.000000
-12.194900 0.000000
-12.177300 0.000000
-12.159700 0.000000
-12.142100 0.000000
-12.124500 0.000000
-12.106800 0.000000
-12.089200 0.000000
-12.071600 0.000000
-12.054000 0.000000
-12.036400 0.000000
-12.018800 0.000000
-12.001100 0.000000
-11.983500 0.000000
-11.965900 0.000000
-11.948300 0.000000
-11.930700 0.000000
-11.913000 0.000000
-11.895400 0.000000
-11.877800 0.000000
-11.860200 0.000000
-11.842600 0.000000
-11.825000 0.000000
-11.807300 0.000000
-11.789700 0.000000
-11.772100 0.000000
-11.754500 0.000000
-11.736900 0.000000
-11.719300 0.000000
-11.701600 0.000000
-11.684000 0.000000
-11.666400 0.000000
-11.648800 0.000000
-11.631200 0.000000
-11.613600 0.000000
-11.595900 0.000000
-11.578300 0.000000
-11.560700 0.000000
-11.543100 0.000000
-11.525500 0.000000
-11.507900 0.000000
-11.490200 0.000000
-11.472600 0.000000
-11.455000 0.000000
-11.437400 0.000000
-11.419800 0.000000
-11.402100 0.000000
-11.384500 0.000000
-11.366900 0.000000
-11.349300 0.000000
-11.331700 0.000000
-11.314100 0.000000
-11.296400 0.000000
-11.278800 0.000000
-11.261200 0.000000
-11.243600 0.000000
-11.226000 0.000000
-11.208400 0.000000
-11.190700 0.000000
-11.173100 0.000000
-11.155500 0.000000
-11.137900 0.000000
-11.120300 0.000000
-11.102700 0.000000
-11.085000 0.000000
-11.067400 0.000000
-11.049800 0.000000
-11.032200 0.000000
-11.014600 0.000000
-10.997000 0.000000
-10.979300 0.000000
-10.961700 0.000000
-10.944100 0.000000
-10.926500 0.000000
-10.908900 0.000000
-10.891200 0.000000
-10.873600 0.000000
-10.856000 0.000000
-10.838400 0.000000
-10.820800 0.000000
-10.803200 0.000000
-10.785500 0.000000
-10.767900 0.000000
-10.750300 0.000000
-10.732700 0.000000
-10.715100 0.000000
-10.697500 0.000000
-10.679800 0.000000
-10.662200 0.000000
-10.644600 0.000000
-10.627000 0.000000
-10.609400 0.000000
-10.591800 0.000000
-10.574100 0.000000
-10.556500 0.000000
-10.538900 0.000000
-10.521300 0.000000
-10.503700 0.000000
-10.486100 0.000000
-10.468400 0.000000
-10.450800 0.000000
-10.433200 0.000000
-10.415600 0.000000
-10.398000 0.000000
-10.380400 0.000000
-10.362700 0.000000
-10.345100 0.000000
-10.327500 0.000000
-10.309900 0.000000
-10.292300 0.000000
-10.274600 0.000000
-10.257000 0.000000
-10.239400 0.000000
-10.221800 0.000000
-10.204200 0.000000
-10.186600 0.000000
-10.168900 0.000000
-10.151300 0.000000
-10.133700 0.000000
-10.116100 0.000000
-10.098500 0.000000
-10.080900 0.000000
-10.063200 0.000000
-10.045600 0.000000
-10.028000 0.000000
-10.010400 0.000000
-9.992800 0.000000
-9.975200 0.000000
-9.957500 0.000000
-9.939900 0.000000
-9.922300 0.000000
-9.904700 0.000000
-9.887100 0.000000
-9.869500 0.000000
-9.851800 0.000000
-9.834200 0.000000
-9.816600 0.000000
-9.799000 0.000000
-9.781400 0.000000
-9.763700 0.000000
-9.746100 0.000000
-9.728500 0.000000
-9.710900 0.000000
-9.693300 0.000000
-9.675700 0.000000
-9.658000 0.000000
-9.640400 0.000000
-9.622800 0.000000
-9.605200 0.000000
-9.587600 0.000000
-9.570000 0.000000
-9.552300 0.000000
-9.534700 0.000000
-9.517100 0.000000
-9.499500 0.000000
-9.481900 0.000000
-9.464300 0.000000
-9.446600 0.000000
-9.429000 0.000000
-9.411400 0.000000
-9.393800 0.000000
-9.376200 0.000000
-9.358600 0.000000
-9.340900 0.000000
-9.323300 0.000000
-9.305700 0.000000
-9.288100 0.000000
-9.270500 0.000000
-9.252800 0.000000
-9.235200 0.000000
-9.217600 0.000000
-9.200000 0.000000
-9.182400 0.000000
-9.164800 0.000000
-9.147100 0.000000
-9.129500 0.000000
-9.111900 0.000000
-9.094300 0.000000
-9.076700 0.000000
-9.059100 0.000000
-9.041400 0.000000
-9.023800 0.000000
-9.006200 0.000000
-8.988600 0.000000
-8.971000 0.000000
-8.953400 0.000000
-8.935700 0.000000
-8.918100 0.000000
-8.900500 0.000000
-8.882900 0.000000
-8.865300 0.000000
-8.847700 0.000000
-8.830000 0.000000
-8.812400 0.000000
-8.794800 0.000000
-8.777200 0.000000
-8.759600 0.000000
-8.741900 0.000000
-8.724300 0.000000
-8.706700 0.000000
-8.689100 0.000000
-8.671500 0.000000
-8.653900 0.000000
-8.636200 0.000000
-8.618600 0.000000
-8.601000 0.000000
-8.583400 0.000000
-8.565800 0.000000
-8.548200 0.000000
-8.530500 0.000000
-8.512900 0.000000
-8.495300 0.000000
-8.477700 0.000000
-8.460100 0.000000
-8.442500 0.000000
-8.424800 0.000000
-8.407200 0.000000
-8.389600 0.000000
-8.372000 0.000000
-8.354400 0.000000
-8.336800 0.000000
-8.319100 0.000000
-8.301500 0.000000
-8.283900 0.000000
-8.266300 0.000000
-8.248700 0.000000
-8.231100 0.000000
-8.213400 0.000000
-8.195800 0.000000
-8.178200 0.000000
-8.160600 0.000000
-8.143000 0.000000
-8.125300 0.000000
-8.107700 0.000000
-8.090100 0.000000
-8.072500 0.000000
-8.054900 0.000000
-8.037300 0.000000
-8.019600 0.000000
-8.002000 0.000000
-7.984400 0.000000
-7.966800 0.000000
-7.949200 0.000000
-7.931600 0.000000
-7.913900 0.000000
-7.896300 0.000000
-7.878700 0.000000
-7.861100 0.000000
-7.843500 0.000000
-7.825900 0.000000
-7.808200 0.000000
-7.790600 0.000000
-7.773000 0.000000
-7.755400 0.000000
-7.737800 0.000000
-7.720200 0.000000
-7.702500 0.000000
-7.684900 0.000000
-7.667300 0.000000
-7.649700 0.000000
-7.632100 0.000000
-7.614400 0.000000
-7.596800 0.000000
-7.579200 0.000000
-7.561600 0.000000
-7.544000 0.000000
-7.526400 0.000000
-7.508700 0.000000
-7.491100 0.000000
-7.473500 0.000000
-7.455900 0.000000
-7.438300 0.000000
-7.420700 0.000000
-7.403000 0.000000
-7.385400 0.000000
-7.367800 0.000000
-7.350200 0.000000
-7.332600 0.000000
-7.315000 0.000000
-7.297300 0.000000
-7.279700 0.000000
-7.262100 0.000000
-7.244500 0.000000
-7.226900 0.000000
-7.209300 0.000000
-7.191600 0.000000
-7.174000 0.000000
-7.156400 0.000000
-7.138800 0.000000
-7.121200 0.000000
-7.103500 0.000000
-7.085900 0.000000
-7.068300 0.000000
-7.050700 0.000000
-7.033100 0.000000
-7.015500 0.000000
-6.997800 0.000000
-6.980200 0.000000
-6.962600 0.000000
-6.945000 0.000000
-6.927400 0.000000
-6.909800 0.000000
-6.892100 0.000000
-6.874500 0.000000
-6.856900 0.000000
-6.839300 0.000000
-6.821700 0.000000
-6.804100 0.000000
-6.786400 0.000000
-6.768800 0.000000
-6.751200 0.000000
-6.733600 0.000000
-6.716000 0.000000
-6.698400 0.000000
-6.680700 0.000000
-6.663100 0.000000
-6.645500 0.000000
-6.627900 0.000000
-6.610300 0.000000
-6.592700 0.000000
-6.575000 0.000000
-6.557400 0.000000
-6.539800 0.000000
-6.522200 0.000000
-6.504600 0.000000
-6.486900 0.000000
-6.469300 0.000000
-6.451700 0.000000
-6.434100 0.000000
-6.416500 0.000000
-6.398900 0.000000
-6.381200 0.000000
-6.363600 0.000000
-6.346000 0.000000
-6.328400 0.000000
-6.310800 0.000000
-6.293200 0.000000
-6.275500 0.000000
-6.257900 0.000000
-6.240300 0.000000
-6.222700 0.000000
-6.205100 0.000000
-6.187500 0.000000
-6.169800 0.000000
-6.152200 0.000000
-6.134600 0.000000
-6.117000 0.000000
-6.099400 0.000000
-6.081800 0.000000
-6.064100 0.000000
-6.046500 0.000000
-6.028900 0.000000
-6.011300 0.000000
-5.993700 0.000000
-5.976000 0.000000
-5.958400 0.000000
-5.940800 0.000000
-5.923200 0.000000
-5.905600 0.000000
-5.888000 0.000000
-5.870300 0.000000
-5.852700 0.000000
-5.835100 0.000000
-5.817500 0.000000
-5.799900 0.000000
-5.782300 0.000000
-5.764600 0.000000
-5.747000 0.000000
-5.729400 0.000000
-5.711800 0.000000
-5.694200 0.000000
-5.676600 0.000000
-5.658900 0.000000
-5.641300 0.000000
-5.623700 0.000000
-5.606100 0.000000
-5.588500 0.000000
-5.570900 0.000000
-5.553200 0.000000
-5.535600 0.000000
-5.518000 0.000000
-5.500400 0.000000
-5.482800 0.000000
-5.465100 0.000000
-5.447500 0.000000
-5.429900 0.000000
-5.412300 0.000000
-5.394700 0.000000
-5.377100 0.000000
-5.359400 0.030100
-5.341800 0.113400
-5.324200 0.233500
-5.306600 0.268500
-5.289000 0.320100
-5.271400 0.381600
-5.253700 0.443800
-5.236100 1.557500
-5.218500 6.011400
-5.200900 6.648500
-5.183300 6.963100
-5.165700 7.606900
-5.148000 8.899400
-5.130400 11.485400
-5.112800 8.375800
-5.095200 7.036500
-5.077600 6.902300
-5.060000 7.167800
-5.042300 6.935800
-5.024700 10.081600
-5.007100 10.025900
-4.989500 11.298600
-4.971900 16.131800
-4.954200 21.559000
-4.936600 20.535900
-4.919000 19.321100
-4.901400 20.118900
-4.883800 20.669200
-4.866200 15.261500
-4.848500 20.675100
-4.830900 17.606000
-4.813300 15.501500
-4.795700 12.746800
-4.778100 13.914100
-4.760500 11.119400
-4.742800 8.281800
-4.725200 7.089100
-4.707600 6.843900
-4.690000 5.003400
-4.672400 5.746600
-4.654800 6.943600
-4.637100 7.799000
-4.619500 8.248100
-4.601900 9.461300
-4.584300 12.915800
-4.566700 16.170700
-4.549100 14.727000
-4.531400 12.795900
-4.513800 14.422100
-4.496200 15.198900
-4.478600 15.618800
-4.461000 16.509500
-4.443400 14.481200
-4.425700 18.593700
-4.408100 13.119300
-4.390500 8.083200
-4.372900 8.974400
-4.355300 16.277900
-4.337600 24.481400
-4.320000 24.173000
-4.302400 19.080300
-4.284800 9.589000
-4.267200 9.299500
-4.249600 8.640600
-4.231900 12.251800
-4.214300 14.692000
-4.196700 15.750700
-4.179100 16.826900
-4.161500 18.190600
-4.143900 17.704700
-4.126200 21.572200
-4.108600 20.762100
-4.091000 24.014000
-4.073400 20.428300
-4.055800 19.931700
-4.038200 16.889200
-4.020500 14.355500
-4.002900 16.384900
-3.985300 19.944900
-3.967700 17.547600
-3.950100 16.609600
-3.932500 19.182400
-3.914800 19.155200
-3.897200 16.971600
-3.879600 18.676800
-3.862000 9.359700
-3.844400 7.887600
-3.826700 6.402600
-3.809100 4.649700
-3.791500 4.253200
-3.773900 3.953500
-3.756300 3.722300
-3.738700 4.428700
-3.721000 5.250700
-3.703400 4.306600
-3.685800 3.785900
-3.668200 3.337200
-3.650600 2.843700
-3.633000 2.337300
-3.615300 1.897400
-3.597700 1.438800
-3.580100 1.053100
-3.562500 0.565800
-3.544900 0.563800
-3.527300 0.562300
-3.509600 0.563300
-3.492000 0.564800
-3.474400 0.566500
-3.456800 0.568500
-3.439200 0.571000
-3.421600 0.574200
-3.403900 0.577700
-3.386300 0.581300
-3.368700 0.585100
-3.351100 0.589000
-3.333500 0.593100
-3.315800 0.597400
-3.298200 0.602000
-3.280600 0.606900
-3.263000 0.612000
-3.245400 0.617300
-3.227800 0.622700
-3.210100 0.628300
-3.192500 0.634200
-3.174900 0.640100
-3.157300 0.646400
-3.139700 0.653300
-3.122100 0.660500
-3.104400 0.668400
-3.086800 0.676700
-3.069200 0.684900
-3.051600 0.693100
-3.034000 0.701700
-3.016400 0.715600
-2.998700 0.764900
-2.981100 0.795500
-2.963500 0.805500
-2.945900 0.813200
-2.928300 0.818400
-2.910700 0.821200
-2.893000 0.820000
-2.875400 0.812800
-2.857800 0.803800
-2.840200 0.793000
-2.822600 0.780500
-2.804900 0.769400
-2.787300 0.761200
-2.769700 0.753700
-2.752100 0.746800
-2.734500 0.899800
-2.716900 0.837500
-2.699200 0.764000
-2.681600 0.754000
-2.664000 0.745800
-2.646400 0.739800
-2.628800 0.714100
-2.611200 0.710200
-2.593500 0.708200
-2.575900 0.706900
-2.558300 0.706100
-2.540700 0.705900
-2.523100 0.706000
-2.505500 0.704300
-2.487800 0.703000
-2.470200 0.694000
-2.452600 0.712400
-2.435000 0.756800
-2.417400 0.816800
-2.399800 0.846000
-2.382100 0.820400
-2.364500 0.814600
-2.346900 0.837100
-2.329300 0.861900
-2.311700 0.886900
-2.294100 0.910100
-2.276400 0.931200
-2.258800 0.955100
-2.241200 0.988000
-2.223600 1.022200
-2.206000 1.041700
-2.188300 1.014400
-2.170700 1.002700
-2.153100 1.006800
-2.135500 1.008700
-2.117900 1.007300
-2.100300 1.003600
-2.082600 1.005800
-2.065000 1.012200
-2.047400 1.019500
-2.029800 1.026900
-2.012200 1.032500
-1.994600 1.037200
-1.976900 1.040800
-1.959300 1.042400
-1.941700 1.044800
-1.924100 1.048900
-1.906500 1.053500
-1.888900 1.056600
-1.871200 1.057800
-1.853600 1.059300
-1.836000 1.062600
-1.818400 1.065600
-1.800800 1.068400
-1.783200 1.071000
-1.765500 1.073700
-1.747900 1.076400
-1.730300 1.079100
-1.712700 1.081900
-1.695100 1.126300
-1.677400 1.221300
-1.659800 1.158400
-1.642200 1.162000
-1.624600 1.164900
-1.607000 1.156600
-1.589400 1.138900
-1.571700 1.133400
-1.554100 1.128700
-1.536500 1.120700
-1.518900 1.114400
-1.501300 1.109600
-1.483700 1.093200
-1.466000 1.085200
-1.448400 1.077300
-1.430800 1.069700
-1.413200 1.065000
-1.395600 1.061600
-1.378000 1.058000
-1.360300 1.054200
-1.342700 1.050400
-1.325100 1.046600
-1.307500 1.039900
-1.289900 1.030900
-1.272300 1.025000
-1.254600 1.021100
-1.237000 1.017000
-1.219400 1.012000
-1.201800 1.006000
-1.184200 0.999500
-1.166500 0.993300
-1.148900 0.987100
-1.131300 0.980700
-1.113700 0.974000
-1.096100 0.967300
-1.078500 0.961200
-1.060800 0.955600
-1.043200 0.947300
-1.025600 0.941500
-1.008000 0.935800
-0.990400 0.930400
-0.972800 0.925200
-0.955100 0.921000
-0.937500 0.916900
-0.919900 0.913500
-0.902300 0.910400
-0.884700 0.907000
-0.867100 0.903200
-0.849400 0.899200
-0.831800 0.894900
-0.814200 0.890300
-0.796600 0.886000
-0.779000 0.881500
-0.761400 0.876800
-0.743700 0.871800
-0.726100 0.866700
-0.708500 0.861200
-0.690900 0.856800
-0.673300 0.851600
-0.655700 0.844000
-0.638000 0.835900
-0.620400 0.829900
-0.602800 0.823700
-0.585200 0.817500
-0.567600 0.850600
-0.549900 0.832000
-0.532300 0.814700
-0.514700 0.798300
-0.497100 0.782900
-0.479500 0.768400
-0.461900 0.754900
-0.444200 0.742500
-0.426600 0.731200
-0.409000 0.726900
-0.391400 0.725200
-0.373800 0.722100
-0.356200 0.718800
-0.338500 0.717600
-0.320900 0.699700
-0.303300 0.700800
-0.285700 0.701900
-0.268100 0.703300
-0.250500 0.704700
-0.232800 0.705800
-0.215200 0.705100
-0.197600 0.703700
-0.180000 0.702600
-0.162400 0.709100
-0.144800 0.747100
-0.127100 0.786400
-0.109500 0.731600
-0.091900 0.702900
-0.074300 0.704300
-0.056700 0.709100
-0.039000 0.721000
-0.021400 0.732400
-0.003800 0.743100
0.013800 0.753100
0.031400 0.762500
0.049000 0.771200
0.066700 0.773700
0.084300 0.702800
0.101900 0.696600
0.119500 0.690700
0.137100 0.687800
0.154700 0.684800
0.172400 0.681900
0.190000 0.678200
0.207600 0.673500
0.225200 0.668900
0.242800 0.664400
0.260400 0.660100
0.278100 0.655900
0.295700 0.652200
0.313300 0.649900
0.330900 0.647500
0.348500 0.645900
0.366100 0.644500
0.383800 0.643200
0.401400 0.642100
0.419000 0.641300
0.436600 0.640700
0.454200 0.640300
0.471900 0.640000
0.489500 0.639500
0.507100 0.636900
0.524700 0.633600
0.542300 0.630900
0.559900 0.631200
0.577600 0.632700
0.595200 0.634700
0.612800 0.636800
0.630400 0.638900
0.648000 0.640700
0.665600 0.642500
0.683300 0.645200
0.700900 0.648700
0.718500 0.653000
0.736100 0.657700
0.753700 0.662700
0.771300 0.669900
0.789000 0.677300
0.806600 0.684200
0.824200 0.692800
0.841800 0.703000
0.859400 0.717500
0.877000 0.770900
0.894700 0.838500
0.912300 0.880800
0.929900 0.860600
0.947500 0.839200
0.965100 0.756600
0.982800 0.643800
1.000400 0.637000
1.018000 0.633900
1.035600 0.631600
1.053200 0.629600
1.070800 0.627900
1.088500 0.626600
1.106100 0.637100
1.123700 0.682100
1.141300 0.760900
1.158900 0.866600
1.176500 0.989600
1.194200 1.129600
1.211800 1.299400
1.229400 1.374400
1.247000 1.302600
1.264600 1.215200
1.282200 1.230200
1.299900 1.246700
1.317500 1.263900
1.335100 1.280400
1.352700 1.294400
1.370300 1.304900
1.387900 1.315300
1.405600 1.331700
1.423200 1.348800
1.440800 1.427600
1.458400 1.631000
1.476000 1.750100
1.493600 1.793200
1.511300 1.753800
1.528900 1.741300
1.546500 1.715200
1.564100 1.663400
1.581700 1.610700
1.599400 1.583000
1.617000 1.559300
1.634600 1.518400
1.652200 1.486800
1.669800 1.459900
1.687400 1.435800
1.705100 1.415300
1.722700 1.397300
1.740300 1.381900
1.757900 1.389200
1.775500 1.424100
1.793100 1.471300
1.810800 1.542900
1.828400 1.645600
1.846000 1.770000
1.863600 1.822700
1.881200 1.857400
1.898800 1.853800
1.916500 1.816600
1.934100 1.797100
1.951700 1.735700
1.969300 1.659400
1.986900 1.671400
2.004500 1.696000
2.022200 1.739900
2.039800 1.795800
2.057400 1.833500
2.075000 1.858400
2.092600 1.863800
2.110300 1.870700
2.127900 1.877700
2.145500 1.881300
2.163100 1.912300
2.180700 1.940400
2.198300 1.999400
2.216000 2.067700
2.233600 2.175100
2.251200 2.310900
2.268800 2.359700
2.286400 2.360900
2.304000 2.410300
2.321700 2.399000
2.339300 2.433300
2.356900 2.441400
2.374500 2.450300
2.392100 2.454100
2.409700 2.246500
2.427400 2.067800
2.445000 1.880700
2.462600 1.769400
2.480200 1.737400
2.497800 1.707300
2.515400 1.689000
2.533100 1.677900
2.550700 1.674700
2.568300 1.678100
2.585900 1.687000
2.603500 1.690300
2.621200 1.712800
2.638800 1.737000
2.656400 1.801400
2.674000 1.847400
2.691600 1.859600
2.709200 1.859700
2.726900 1.878900
2.744500 1.894800
2.762100 1.913700
2.779700 1.938700
2.797300 1.969600
2.814900 1.997900
2.832600 2.003500
2.850200 2.026700
2.867800 2.070500
2.885400 2.241900
2.903000 2.332300
2.920600 2.404000
2.938300 2.464700
2.955900 2.523200
2.973500 2.586900
2.991100 2.787800
3.008700 2.781700
3.026300 2.683300
3.044000 2.563500
3.061600 2.474700
3.079200 2.368300
3.096800 2.313600
3.114400 2.227800
3.132100 2.144100
3.149700 2.060700
3.167300 1.990500
3.184900 1.942700
3.202500 1.881300
3.220100 1.807100
3.237800 1.730500
3.255400 1.650800
3.273000 1.566400
3.290600 1.496900
3.308200 1.437000
3.325800 1.391200
3.343500 1.342200
3.361100 1.298500
3.378700 1.497900
3.396300 2.058100
3.413900 2.217500
3.431500 1.845800
3.449200 1.755000
3.466800 1.706400
3.484400 1.649700
3.502000 1.657100
3.519600 1.693100
3.537200 1.741000
3.554900 1.802100
3.572500 1.880600
3.590100 1.970600
3.607700 2.069300
3.625300 2.238000
3.642900 2.400200
3.660600 2.586900
3.678200 2.810500
3.695800 3.099000
3.713400 3.403700
3.731000 3.115500
3.748700 3.088000
3.766300 3.035800
3.783900 3.077800
3.801500 3.173900
3.819100 3.504400
3.836700 2.959300
3.854400 2.649000
3.872000 2.476400
3.889600 2.425300
3.907200 2.377000
3.924800 2.339500
3.942400 2.335800
3.960100 2.430100
3.977700 2.555300
3.995300 2.680100
4.012900 2.790300
4.030500 2.919600
4.048100 3.163900
4.065800 3.619100
4.083400 3.418200
4.101000 3.580900
4.118600 3.813800
4.136200 3.801800
4.153800 3.773700
4.171500 3.771300
4.189100 3.792400
4.206700 3.387800
4.224300 3.764300
4.241900 3.715800
4.259600 4.007200
4.277200 3.636600
4.294800 3.801200
4.312400 3.629800
4.330000 3.548500
4.347600 3.486100
4.365300 3.331700
4.382900 3.201100
4.400500 3.110800
4.418100 2.950500
4.435700 2.783000
4.453300 2.707200
4.471000 2.647600
4.488600 2.647600
4.506200 2.688000
4.523800 2.812600
4.541400 2.728200
4.559000 2.800400
4.576700 2.932400
4.594300 3.038000
4.611900 3.218100
4.629500 3.425000
4.647100 3.364600
4.664700 3.327300
4.682400 3.309500
4.700000 3.260100
4.717600 3.128800
4.735200 3.042400
4.752800 2.982600
4.770500 2.936400
4.788100 2.973900
4.805700 3.001500
4.823300 3.059300
4.840900 2.853000
4.858500 2.735500
4.876200 2.684400
4.893800 2.641800
4.911400 2.604300
4.929000 2.522500
4.946600 2.411800
4.964200 2.296700
4.981900 2.184300
4.999500 2.098600
5.017100 2.050300
5.034700 2.016100
5.052300 1.988200
5.069900 1.966100
5.087600 1.954200
5.105200 1.956400
5.122800 1.987300
5.140400 2.019300
5.158000 2.188000
5.175600 2.412000
5.193300 2.699700
5.210900 2.272500
5.228500 2.231900
5.246100 2.149300
5.263700 2.089900
5.281300 2.120300
5.299000 2.142500
5.316600 2.242000
5.334200 2.147800
5.351800 2.055000
5.369400 2.055900
5.387100 2.046000
5.404700 2.055000
5.422300 2.302900
5.439900 2.299900
5.457500 2.187900
5.475100 2.163900
5.492800 2.144800
5.510400 2.080300
5.528000 2.015000
5.545600 1.956100
5.563200 1.918000
5.580800 1.893300
5.598500 1.921800
5.616100 1.970900
5.633700 1.960800
5.651300 1.947200
5.668900 1.887500
5.686500 1.809600
5.704200 1.694300
5.721800 1.704400
5.739400 1.750000
5.757000 1.813500
5.774600 1.933900
5.792200 2.430600
5.809900 2.594800
5.827500 2.520100
5.845100 2.656300
5.862700 2.796600
5.880300 2.873200
5.898000 2.907300
5.915600 2.962100
5.933200 3.061200
5.950800 3.264500
5.968400 3.419700
5.986000 3.557000
6.003700 3.550500
6.021300 3.520000
6.038900 3.356000
6.056500 3.168700
6.074100 2.938000
6.091700 2.760400
6.109400 2.645400
6.127000 2.597600
6.144600 2.556400
6.162200 2.611100
6.179800 2.622000
6.197400 2.647400
6.215100 2.578600
6.232700 2.282400
6.250300 2.194400
6.267900 2.201600
6.285500 2.214900
6.303100 2.193700
6.320800 2.157700
6.338400 2.154600
6.356000 2.195200
6.373600 2.262300
6.391200 2.490000
6.408900 2.571100
6.426500 2.684000
6.444100 2.753500
6.461700 2.778100
6.479300 2.801900
6.496900 2.842300
6.514600 2.867000
6.532200 2.944000
6.549800 3.006800
6.567400 3.730300
6.585000 3.652000
6.602600 3.666600
6.620300 4.422600
6.637900 3.045700
6.655500 2.854200
6.673100 2.667500
6.690700 2.462900
6.708300 2.284600
6.726000 2.189100
6.743600 2.110400
6.761200 2.027600
6.778800 1.961600
6.796400 1.930900
6.814000 1.889100
6.831700 1.920900
6.849300 1.949700
6.866900 1.969500
6.884500 1.995700
6.902100 2.033500
6.919800 2.092900
6.937400 2.126900
6.955000 2.147600
6.972600 2.152400
6.990200 2.114500
7.007800 2.083300
7.025500 2.047500
7.043100 1.980300
7.060700 1.912200
7.078300 1.856500
7.095900 1.814300
7.113500 1.784700
7.131200 1.766800
7.148800 1.756000
7.166400 1.750300
7.184000 1.768100
7.201600 1.840600
7.219200 1.854200
7.236900 1.824500
7.254500 1.796800
7.272100 1.772300
7.289700 1.752900
7.307300 1.734200
7.324900 1.726200
7.342600 1.749500
7.360200 1.766400
7.377800 1.759500
7.395400 1.740300
7.413000 1.679200
7.430600 1.622600
7.448300 1.588200
7.465900 1.997200
7.483500 1.798800
7.501100 1.433900
7.518700 1.376600
7.536400 1.353400
7.554000 1.328800
7.571600 1.300100
7.589200 1.293000
7.606800 1.286000
7.624400 1.276100
7.642100 1.265700
7.659700 1.258400
7.677300 1.254700
7.694900 1.251600
7.712500 1.247500
7.730100 1.242600
7.747800 1.238700
7.765400 1.230600
7.783000 1.220100
7.800600 1.208100
7.818200 1.195000
7.835800 1.183000
7.853500 1.172500
7.871100 1.162500
7.888700 1.153300
7.906300 1.148200
7.923900 1.146100
7.941500 1.146400
7.959200 1.155400
7.976800 1.169800
7.994400 1.184900
8.012000 1.200300
8.029600 1.206600
8.047300 1.207200
8.064900 1.206700
8.082500 1.198600
8.100100 1.183500
8.117700 1.167300
8.135300 1.155800
8.153000 1.146100
8.170600 1.137000
8.188200 1.130500
8.205800 1.125200
8.223400 1.118600
8.241000 1.106700
8.258700 1.114100
8.276300 1.120400
8.293900 1.127400
8.311500 1.135500
8.329100 1.146100
8.346700 1.156900
8.364400 1.162100
8.382000 1.166700
8.399600 1.173000
8.417200 1.174800
8.434800 1.176700
8.452400 1.178500
8.470100 1.126300
8.487700 1.100500
8.505300 1.083700
8.522900 1.065600
8.540500 1.042500
8.558200 1.000000
8.575800 0.986200
8.593400 0.980000
8.611000 0.975500
8.628600 0.973300
8.646200 0.974500
8.663900 0.976400
8.681500 0.978800
8.699100 0.980000
8.716700 0.978800
8.734300 0.975600
8.751900 0.972800
8.769600 0.970600
8.787200 0.968000
8.804800 0.966600
8.822400 0.965400
8.840000 0.963600
8.857600 0.952700
8.875300 0.952300
8.892900 0.951600
8.910500 0.951000
8.928100 0.950300
8.945700 0.949800
8.963300 0.949500
8.981000 0.950200
8.998600 0.979600
9.016200 0.991300
9.033800 1.002900
9.051400 1.016700
9.069100 1.053100
9.086700 1.105900
9.104300 1.174300
9.121900 1.306000
9.139500 1.675500
9.157100 2.978200
9.174800 3.068900
9.192400 3.123600
9.210000 2.514100
9.227600 2.271400
9.245200 2.156400
9.262800 2.076100
9.280500 2.005100
9.298100 1.978300
9.315700 1.976600
9.333300 2.024000
9.350900 2.116800
9.368500 2.385900
9.386200 2.304700
9.403800 2.303900
9.421400 2.319200
9.439000 2.189400
9.456600 1.834200
9.474200 1.536800
9.491900 1.408600
9.509500 1.289900
9.527100 1.198500
9.544700 1.120800
9.562300 1.058300
9.579900 1.000400
9.597600 0.987700
9.615200 0.922400
9.632800 0.851000
9.650400 0.778300
9.668000 0.704300
9.685700 0.642500
9.703300 0.606000
9.720900 0.581500
9.738500 0.565200
9.756100 0.548900
9.773700 0.529400
9.791400 0.506400
9.809000 0.487600
9.826600 0.473900
9.844200 0.461000
9.861800 0.449300
9.879400 0.438500
9.897100 0.428300
9.914700 0.419900
9.932300 0.413700
9.949900 0.408800
9.967500 0.405300
9.985100 0.402800
10.002800 0.401400
10.020400 0.401600
10.038000 0.403400
10.055600 0.406600
10.073200 0.411100
10.090800 0.416700
10.108500 0.423300
10.126100 0.430100
10.143700 0.435900
10.161300 0.441500
10.178900 0.432600
10.196600 0.424700
10.214200 0.418100
10.231800 0.412900
10.249400 0.409000
10.267000 0.407800
10.284600 0.408700
10.302300 0.409400
10.319900 0.409800
10.337500 0.410100
10.355100 0.410600
10.372700 0.411400
10.390300 0.412400
10.408000 0.413600
10.425600 0.415200
10.443200 0.417100
10.460800 0.419500
10.478400 0.422200
10.496000 0.425400
10.513700 0.429200
10.531300 0.432700
10.548900 0.431600
10.566500 0.431000
10.584100 0.431800
10.601700 0.428200
10.619400 0.419700
10.637000 0.413500
10.654600 0.409500
10.672200 0.406600
10.689800 0.406200
10.707500 0.403300
10.725100 0.400200
10.742700 0.396900
10.760300 0.392400
10.777900 0.386700
10.795500 0.381100
10.813200 0.376100
10.830800 0.377400
10.848400 0.386200
10.866000 0.402300
10.883600 0.423700
10.901200 0.449800
10.918900 0.470600
10.936500 0.481500
10.954100 0.482500
10.971700 0.461000
10.989300 0.428500
11.006900 0.397700
11.024600 0.350600
11.042200 0.228900
11.059800 0.197000
11.077400 0.171100
11.095000 0.150000
11.112600 0.135400
11.130300 0.122700
11.147900 0.110800
11.165500 0.099800
11.183100 0.089600
11.200700 0.080300
11.218300 0.071300
11.236000 0.062100
11.253600 0.052700
11.271200 0.043200
11.288800 0.033500
11.306400 0.023900
11.324100 0.015200
11.341700 0.007400
11.359300 0.002000
11.376900 0.000000
11.394500 0.000000
11.412100 0.000000
11.429800 0.000000
11.447400 0.000000
11.465000 0.000000
11.482600 0.000000
11.500200 0.000000
11.517800 0.000000
11.535500 0.000000
11.553100 0.000000
11.570700 0.000000
11.588300 0.000000
11.605900 0.000000
11.623500 0.000000
11.641200 0.000000
11.658800 0.000000
11.676400 0.000000
11.694000 0.000000
11.711600 0.000000
11.729200 0.000000
11.746900 0.000000
11.764500 0.000000
11.782100 0.000000
11.799700 0.000000
11.817300 0.000000
11.835000 0.000000
11.852600 0.000000
11.870200 0.000000
11.887800 0.000000
11.905400 0.000000
11.923000 0.000000
11.940700 0.000000
11.958300 0.000000
11.975900 0.000000
11.993500 0.000000
12.011100 0.000000
12.028700 0.000000
12.046400 0.000000
12.064000 0.000000
12.081600 0.000000
12.099200 0.000000
12.116800 0.000000
12.134400 0.000000
12.152100 0.000000
12.169700 0.000000
12.187300 0.000000
12.204900 0.000000
12.222500 0.000000
12.240100 0.000000
12.257800 0.000000
12.275400 0.000000
12.293000 0.000000
12.310600 0.000000
12.328200 0.000000
12.345900 0.000000
12.363500 0.000000
12.381100 0.000000
12.398700 0.000000
12.416300 0.000000
12.433900 0.000000
12.451600 0.000000
12.469200 0.000000
12.486800 0.000000
12.504400 0.000000
12.522000 0.000000
12.539600 0.000000
12.557300 0.000000
12.574900 0.000000
12.592500 0.000000
12.610100 0.000000
12.627700 0.000000
12.645300 0.000000
12.663000 0.000000
12.680600 0.000000
12.698200 0.000000
12.715800 0.000000
12.733400 0.000000
12.751000 0.000000
12.768700 0.000000
12.786300 0.000000
12.803900 0.000000
12.821500 0.000000
12.839100 0.000000
12.856800 0.000000
12.874400 0.000000
12.892000 0.000000
12.909600 0.000000
12.927200 0.000000
12.944800 0.000000
12.962500 0.000000
12.980100 0.000000
e
