set title 'mp-1223666 - Density of States'
set xlabel 'Energy (eV)'
set ylabel 'DOS (states/eV)'
set grid
set xrange [-10:10]
set yrange [0:10.756]
set xzeroaxis lt -1
set terminal png size 800,600
set output 'mp-1223666_dos_gnuplot.png'
plot '-' using 1:2 with lines title 'DOS'
-32.600300 0.000000
-32.567200 0.000000
-32.534100 0.000000
-32.501000 0.000000
-32.467900 0.000000
-32.434800 0.000000
-32.401700 0.000000
-32.368600 0.000000
-32.335600 0.000000
-32.302500 0.000000
-32.269400 0.000000
-32.236300 0.000000
-32.203200 0.000000
-32.170100 0.000000
-32.137000 0.000000
-32.103900 0.000000
-32.070800 0.000000
-32.037700 0.000000
-32.004600 0.000000
-31.971500 0.000000
-31.938400 0.000000
-31.905300 0.000000
-31.872200 0.000000
-31.839200 0.000000
-31.806100 0.000000
-31.773000 0.000000
-31.739900 0.000000
-31.706800 0.000000
-31.673700 0.000000
-31.640600 0.000000
-31.607500 0.000000
-31.574400 0.000000
-31.541300 0.000000
-31.508200 0.000000
-31.475100 0.000000
-31.442000 0.000000
-31.408900 0.000000
-31.375800 0.000000
-31.342700 0.000000
-31.309700 0.000000
-31.276600 0.000000
-31.243500 0.000000
-31.210400 0.000000
-31.177300 0.000000
-31.144200 0.000000
-31.111100 0.000000
-31.078000 0.000000
-31.044900 0.000000
-31.011800 0.000000
-30.978700 0.000000
-30.945600 0.000000
-30.912500 0.000000
-30.879400 0.000000
-30.846300 0.000000
-30.813200 0.000000
-30.780200 0.000000
-30.747100 0.000000
-30.714000 0.000000
-30.680900 0.000000
-30.647800 0.000000
-30.614700 0.000000
-30.581600 0.000000
-30.548500 0.000000
-30.515400 0.000000
-30.482300 0.000000
-30.449200 0.000000
-30.416100 0.000000
-30.383000 0.000000
-30.349900 0.000000
-30.316800 0.000000
-30.283800 0.000000
-30.250700 0.000000
-30.217600 0.000000
-30.184500 0.000000
-30.151400 0.000000
-30.118300 0.000000
-30.085200 0.000000
-30.052100 0.000000
-30.019000 0.000000
-29.985900 0.000000
-29.952800 0.000000
-29.919700 0.000000
-29.886600 0.000000
-29.853500 0.000000
-29.820400 0.000000
-29.787300 0.000000
-29.754300 0.000000
-29.721200 0.000000
-29.688100 0.000000
-29.655000 0.000000
-29.621900 0.000000
-29.588800 9.026400
-29.555700 2.876400
-29.522600 3.528500
-29.489500 3.864800
-29.456400 4.283400
-29.423300 4.999700
-29.390200 7.637200
-29.357100 2.176900
-29.324000 2.088800
-29.290900 2.000600
-29.257900 1.938600
-29.224800 1.895400
-29.191700 1.862700
-29.158600 7.271700
-29.125500 7.867900
-29.092400 7.120400
-29.059300 2.444100
-29.026200 17.096000
-28.993100 24.294700
-28.960000 4.344200
-28.926900 4.374100
-28.893800 3.246000
-28.860700 3.350600
-28.827600 3.455200
-28.794500 3.700400
-28.761400 3.894200
-28.728400 5.954500
-28.695300 7.086700
-28.662200 5.747500
-28.629100 4.713600
-28.596000 4.109700
-28.562900 3.606400
-28.529800 3.731800
-28.496700 3.551500
-28.463600 3.617700
-28.430500 2.522900
-28.397400 0.000000
-28.364300 0.000000
-28.331200 0.000000
-28.298100 0.000000
-28.265000 0.000000
-28.231900 0.000000
-28.198900 0.000000
-28.165800 0.000000
-28.132700 0.000000
-28.099600 0.000000
-28.066500 0.000000
-28.033400 0.000000
-28.000300 0.000000
-27.967200 0.000000
-27.934100 0.000000
-27.901000 0.000000
-27.867900 0.000000
-27.834800 0.000000
-27.801700 0.000000
-27.768600 0.000000
-27.735500 0.000000
-27.702500 0.000000
-27.669400 0.000000
-27.636300 0.000000
-27.603200 0.000000
-27.570100 0.000000
-27.537000 0.000000
-27.503900 0.000000
-27.470800 0.000000
-27.437700 0.000000
-27.404600 0.000000
-27.371500 0.000000
-27.338400 0.000000
-27.305300 0.000000
-27.272200 0.000000
-27.239100 0.000000
-27.206000 0.000000
-27.173000 0.000000
-27.139900 0.000000
-27.106800 0.000000
-27.073700 0.000000
-27.040600 0.000000
-27.007500 0.000000
-26.974400 0.000000
-26.941300 0.000000
-26.908200 0.000000
-26.875100 0.000000
-26.842000 0.000000
-26.808900 0.000000
-26.775800 0.000000
-26.742700 0.000000
-26.709600 0.000000
-26.676600 0.000000
-26.643500 0.000000
-26.610400 0.000000
-26.577300 0.000000
-26.544200 0.000000
-26.511100 0.000000
-26.478000 0.000000
-26.444900 0.000000
-26.411800 0.000000
-26.378700 0.000000
-26.345600 0.000000
-26.312500 0.000000
-26.279400 0.000000
-26.246300 0.000000
-26.213200 0.000000
-26.180100 0.000000
-26.147100 0.000000
-26.114000 0.000000
-26.080900 0.000000
-26.047800 0.000000
-26.014700 0.000000
-25.981600 0.000000
-25.948500 0.000000
-25.915400 0.000000
-25.882300 0.000000
-25.849200 0.000000
-25.816100 0.000000
-25.783000 0.000000
-25.749900 0.000000
-25.716800 0.000000
-25.683700 0.000000
-25.650700 0.000000
-25.617600 0.000000
-25.584500 0.000000
-25.551400 0.000000
-25.518300 0.000000
-25.485200 0.000000
-25.452100 0.000000
-25.419000 0.000000
-25.385900 0.000000
-25.352800 0.000000
-25.319700 0.000000
-25.286600 0.000000
-25.253500 0.000000
-25.220400 0.000000
-25.187300 0.000000
-25.154200 0.000000
-25.121200 0.000000
-25.088100 0.000000
-25.055000 0.000000
-25.021900 0.000000
-24.988800 0.000000
-24.955700 0.000000
-24.922600 0.000000
-24.889500 0.000000
-24.856400 0.000000
-24.823300 0.000000
-24.790200 0.000000
-24.757100 0.000000
-24.724000 0.000000
-24.690900 0.000000
-24.657800 0.000000
-24.624700 0.000000
-24.591700 0.000000
-24.558600 0.000000
-24.525500 0.000000
-24.492400 0.000000
-24.459300 0.000000
-24.426200 0.000000
-24.393100 0.000000
-24.360000 0.000000
-24.326900 0.000000
-24.293800 0.000000
-24.260700 0.000000
-24.227600 0.000000
-24.194500 0.000000
-24.161400 0.000000
-24.128300 0.000000
-24.095300 0.000000
-24.062200 0.000000
-24.029100 0.000000
-23.996000 0.000000
-23.962900 0.000000
-23.929800 0.000000
-23.896700 0.000000
-23.863600 0.000000
-23.830500 0.000000
-23.797400 0.000000
-23.764300 0.000000
-23.731200 0.000000
-23.698100 0.000000
-23.665000 0.000000
-23.631900 0.000000
-23.598800 0.000000
-23.565800 0.000000
-23.532700 0.000000
-23.499600 0.000000
-23.466500 0.000000
-23.433400 0.000000
-23.400300 0.000000
-23.367200 0.000000
-23.334100 0.000000
-23.301000 0.000000
-23.267900 0.000000
-23.234800 0.000000
-23.201700 0.000000
-23.168600 0.000000
-23.135500 0.000000
-23.102400 0.000000
-23.069400 0.000000
-23.036300 0.000000
-23.003200 0.000000
-22.970100 0.000000
-22.937000 0.000000
-22.903900 0.000000
-22.870800 0.000000
-22.837700 0.000000
-22.804600 0.000000
-22.771500 0.000000
-22.738400 0.000000
-22.705300 0.000000
-22.672200 0.000000
-22.639100 0.000000
-22.606000 0.000000
-22.572900 0.000000
-22.539900 0.000000
-22.506800 0.000000
-22.473700 0.000000
-22.440600 0.000000
-22.407500 0.000000
-22.374400 0.000000
-22.341300 0.000000
-22.308200 0.000000
-22.275100 0.000000
-22.242000 0.000000
-22.208900 0.000000
-22.175800 0.000000
-22.142700 0.000000
-22.109600 0.000000
-22.076500 0.000000
-22.043500 0.000000
-22.010400 0.000000
-21.977300 0.000000
-21.944200 0.000000
-21.911100 0.000000
-21.878000 0.000000
-21.844900 0.000000
-21.811800 0.000000
-21.778700 0.000000
-21.745600 0.000000
-21.712500 0.000000
-21.679400 0.000000
-21.646300 0.000000
-21.613200 0.000000
-21.580100 0.000000
-21.547000 0.000000
-21.514000 0.000000
-21.480900 0.000000
-21.447800 0.000000
-21.414700 0.000000
-21.381600 0.000000
-21.348500 0.000000
-21.315400 0.000000
-21.282300 0.000000
-21.249200 0.000000
-21.216100 0.000000
-21.183000 0.000000
-21.149900 0.000000
-21.116800 0.000000
-21.083700 0.000000
-21.050600 0.000000
-21.017500 0.000000
-20.984500 0.000000
-20.951400 0.000000
-20.918300 0.000000
-20.885200 0.000000
-20.852100 0.000000
-20.819000 0.000000
-20.785900 0.000000
-20.752800 0.000000
-20.719700 0.000000
-20.686600 0.000000
-20.653500 0.000000
-20.620400 0.000000
-20.587300 0.000000
-20.554200 0.000000
-20.521100 0.000000
-20.488100 0.000000
-20.455000 0.000000
-20.421900 0.000000
-20.388800 0.000000
-20.355700 0.000000
-20.322600 0.000000
-20.289500 0.000000
-20.256400 0.000000
-20.223300 0.000000
-20.190200 0.000000
-20.157100 0.000000
-20.124000 0.000000
-20.090900 0.000000
-20.057800 0.000000
-20.024700 0.000000
-19.991600 0.000000
-19.958600 0.000000
-19.925500 0.000000
-19.892400 0.000000
-19.859300 0.000000
-19.826200 0.000000
-19.793100 0.000000
-19.760000 0.000000
-19.726900 0.000000
-19.693800 0.000000
-19.660700 0.000000
-19.627600 0.000000
-19.594500 0.000000
-19.561400 0.000000
-19.528300 0.000000
-19.495200 0.000000
-19.462200 0.000000
-19.429100 0.000000
-19.396000 0.000000
-19.362900 0.000000
-19.329800 0.000000
-19.296700 0.000000
-19.263600 0.000000
-19.230500 0.000000
-19.197400 0.000000
-19.164300 0.000000
-19.131200 0.000000
-19.098100 0.000000
-19.065000 0.000000
-19.031900 0.000000
-18.998800 0.000000
-18.965700 0.000000
-18.932700 0.000000
-18.899600 0.000000
-18.866500 0.000000
-18.833400 0.000000
-18.800300 0.000000
-18.767200 0.000000
-18.734100 0.000000
-18.701000 0.000000
-18.667900 0.000000
-18.634800 0.000000
-18.601700 0.000000
-18.568600 0.000000
-18.535500 0.000000
-18.502400 0.000000
-18.469300 0.000000
-18.436200 0.000000
-18.403200 0.000000
-18.370100 0.000000
-18.337000 0.000000
-18.303900 0.000000
-18.270800 0.000000
-18.237700 0.000000
-18.204600 0.000000
-18.171500 0.000000
-18.138400 0.000000
-18.105300 0.000000
-18.072200 0.000000
-18.039100 0.000000
-18.006000 0.000000
-17.972900 0.000000
-17.939800 0.000000
-17.906800 0.000000
-17.873700 0.000000
-17.840600 0.000000
-17.807500 0.000000
-17.774400 0.000000
-17.741300 0.000000
-17.708200 0.000000
-17.675100 0.000000
-17.642000 0.000000
-17.608900 0.000000
-17.575800 0.000000
-17.542700 0.000000
-17.509600 0.000000
-17.476500 0.000000
-17.443400 0.000000
-17.410300 0.000000
-17.377300 0.000000
-17.344200 0.000000
-17.311100 0.000000
-17.278000 0.000000
-17.244900 0.000000
-17.211800 0.000000
-17.178700 0.000000
-17.145600 0.000000
-17.112500 0.000000
-17.079400 0.000000
-17.046300 0.000000
-17.013200 0.000000
-16.980100 0.000000
-16.947000 0.000000
-16.913900 0.000000
-16.880900 0.000000
-16.847800 0.000000
-16.814700 0.000000
-16.781600 0.000000
-16.748500 0.000000
-16.715400 0.000000
-16.682300 0.000000
-16.649200 0.000000
-16.616100 0.000000
-16.583000 0.000000
-16.549900 0.000000
-16.516800 0.000000
-16.483700 0.000000
-16.450600 0.000000
-16.417500 0.000000
-16.384400 0.000000
-16.351400 0.000000
-16.318300 0.000000
-16.285200 0.000000
-16.252100 0.000000
-16.219000 0.000000
-16.185900 0.000000
-16.152800 0.000000
-16.119700 0.000000
-16.086600 0.000000
-16.053500 0.000000
-16.020400 0.000000
-15.987300 0.000000
-15.954200 0.000000
-15.921100 0.000000
-15.888000 0.000000
-15.855000 0.000000
-15.821900 0.000000
-15.788800 0.000000
-15.755700 0.000000
-15.722600 0.000000
-15.689500 0.000000
-15.656400 0.000000
-15.623300 0.000000
-15.590200 0.000000
-15.557100 0.000000
-15.524000 0.000000
-15.490900 0.000000
-15.457800 0.000000
-15.424700 0.000000
-15.391600 0.000000
-15.358500 0.000000
-15.325500 0.000000
-15.292400 0.000000
-15.259300 0.000000
-15.226200 0.000000
-15.193100 0.000000
-15.160000 0.000000
-15.126900 0.000000
-15.093800 0.000000
-15.060700 0.000000
-15.027600 0.000000
-14.994500 0.000000
-14.961400 0.000000
-14.928300 0.000000
-14.895200 0.000000
-14.862100 0.000000
-14.829000 0.000000
-14.796000 0.000000
-14.762900 0.000000
-14.729800 0.000000
-14.696700 0.000000
-14.663600 0.000000
-14.630500 0.000000
-14.597400 0.000000
-14.564300 0.000000
-14.531200 0.000000
-14.498100 0.000000
-14.465000 0.000000
-14.431900 0.000000
-14.398800 0.000000
-14.365700 0.000000
-14.332600 0.000000
-14.299600 0.000000
-14.266500 0.000000
-14.233400 0.000000
-14.200300 0.000000
-14.167200 0.000000
-14.134100 0.000000
-14.101000 0.000000
-14.067900 0.000000
-14.034800 0.000000
-14.001700 0.000000
-13.968600 0.000000
-13.935500 0.000000
-13.902400 0.000000
-13.869300 0.000000
-13.836200 0.000000
-13.803100 0.000000
-13.770100 0.000000
-13.737000 0.000000
-13.703900 0.000000
-13.670800 0.000000
-13.637700 0.000000
-13.604600 0.000000
-13.571500 0.000000
-13.538400 0.000000
-13.505300 0.000000
-13.472200 0.000000
-13.439100 0.000000
-13.406000 0.000000
-13.372900 0.000000
-13.339800 0.000000
-13.306700 0.000000
-13.273700 0.000000
-13.240600 0.000000
-13.207500 0.000000
-13.174400 0.000000
-13.141300 0.000000
-13.108200 0.000000
-13.075100 0.000000
-13.042000 0.000000
-13.008900 0.000000
-12.975800 0.000000
-12.942700 0.000000
-12.909600 0.000000
-12.876500 0.000000
-12.843400 0.000000
-12.810300 0.000000
-12.777200 0.000000
-12.744200 0.000000
-12.711100 0.000000
-12.678000 0.000000
-12.644900 0.000000
-12.611800 0.000000
-12.578700 0.000000
-12.545600 0.000000
-12.512500 0.000000
-12.479400 0.000000
-12.446300 0.000000
-12.413200 0.000000
-12.380100 0.000000
-12.347000 0.000000
-12.313900 0.000000
-12.280800 0.000000
-12.247800 0.000000
-12.214700 0.000000
-12.181600 0.000000
-12.148500 0.000000
-12.115400 0.000000
-12.082300 0.000000
-12.049200 0.000000
-12.016100 0.000000
-11.983000 0.000000
-11.949900 0.000000
-11.916800 0.000000
-11.883700 0.000000
-11.850600 0.000000
-11.817500 0.000000
-11.784400 0.000000
-11.751300 0.000000
-11.718300 0.000000
-11.685200 0.000000
-11.652100 0.000000
-11.619000 0.000000
-11.585900 0.000000
-11.552800 0.000000
-11.519700 0.000000
-11.486600 0.000000
-11.453500 0.000000
-11.420400 0.000000
-11.387300 0.000000
-11.354200 0.000000
-11.321100 0.000000
-11.288000 0.000000
-11.254900 0.000000
-11.221800 0.000000
-11.188800 0.000000
-11.155700 0.000000
-11.122600 0.000000
-11.089500 0.000000
-11.056400 0.000000
-11.023300 0.000000
-10.990200 0.000000
-10.957100 0.000000
-10.924000 0.000000
-10.890900 0.000000
-10.857800 0.000000
-10.824700 0.000000
-10.791600 0.000000
-10.758500 0.000000
-10.725400 0.000000
-10.692400 0.000000
-10.659300 0.000000
-10.626200 0.000000
-10.593100 0.000000
-10.560000 0.000000
-10.526900 0.000000
-10.493800 0.000000
-10.460700 0.000000
-10.427600 0.000000
-10.394500 0.000000
-10.361400 0.000000
-10.328300 0.000000
-10.295200 0.000000
-10.262100 0.000000
-10.229000 0.000000
-10.195900 0.000000
-10.162900 0.000000
-10.129800 0.000000
-10.096700 0.000000
-10.063600 0.000000
-10.030500 0.000000
-9.997400 0.000000
-9.964300 0.000000
-9.931200 0.000000
-9.898100 0.000000
-9.865000 0.000000
-9.831900 0.000000
-9.798800 0.000000
-9.765700 0.000000
-9.732600 0.000000
-9.699500 0.000000
-9.666500 0.000000
-9.633400 0.000000
-9.600300 0.000000
-9.567200 0.000000
-9.534100 0.000000
-9.501000 0.000000
-9.467900 0.000000
-9.434800 0.000000
-9.401700 0.000000
-9.368600 0.000000
-9.335500 0.000000
-9.302400 0.000000
-9.269300 0.000000
-9.236200 0.000000
-9.203100 0.000000
-9.170000 0.000000
-9.137000 0.000000
-9.103900 0.000000
-9.070800 0.000000
-9.037700 0.000000
-9.004600 0.000000
-8.971500 0.000000
-8.938400 0.000000
-8.905300 0.000000
-8.872200 0.000000
-8.839100 0.000000
-8.806000 0.000000
-8.772900 0.000000
-8.739800 0.000000
-8.706700 0.000000
-8.673600 0.000000
-8.640500 0.000000
-8.607500 0.000000
-8.574400 0.000000
-8.541300 0.000000
-8.508200 0.000000
-8.475100 0.000000
-8.442000 0.000000
-8.408900 0.000000
-8.375800 0.000000
-8.342700 0.000000
-8.309600 0.000000
-8.276500 0.000000
-8.243400 0.000000
-8.210300 0.000000
-8.177200 0.000000
-8.144100 0.000000
-8.111100 0.000000
-8.078000 0.000000
-8.044900 0.000000
-8.011800 0.000000
-7.978700 0.000000
-7.945600 0.000000
-7.912500 0.000000
-7.879400 0.000000
-7.846300 0.000000
-7.813200 0.000000
-7.780100 0.000000
-7.747000 0.000000
-7.713900 0.000000
-7.680800 0.000000
-7.647700 0.000000
-7.614600 0.000000
-7.581600 0.000000
-7.548500 0.000000
-7.515400 0.000000
-7.482300 0.000000
-7.449200 0.000000
-7.416100 0.000000
-7.383000 0.000000
-7.349900 0.000000
-7.316800 0.000000
-7.283700 0.000000
-7.250600 0.000000
-7.217500 0.000000
-7.184400 0.000000
-7.151300 0.000000
-7.118200 0.000000
-7.085200 0.000000
-7.052100 0.000000
-7.019000 0.000000
-6.985900 0.000000
-6.952800 0.000000
-6.919700 0.000000
-6.886600 0.000000
-6.853500 0.000000
-6.820400 0.000000
-6.787300 0.000000
-6.754200 0.000000
-6.721100 0.000000
-6.688000 0.000000
-6.654900 0.000000
-6.621800 0.000000
-6.588700 0.000000
-6.555700 0.000000
-6.522600 0.000000
-6.489500 0.000000
-6.456400 0.000000
-6.423300 0.000000
-6.390200 0.000000
-6.357100 0.000000
-6.324000 0.000000
-6.290900 0.000000
-6.257800 0.000000
-6.224700 0.000000
-6.191600 0.000000
-6.158500 0.000000
-6.125400 0.000000
-6.092300 0.000000
-6.059300 0.000000
-6.026200 0.000000
-5.993100 0.000000
-5.960000 0.000000
-5.926900 0.000000
-5.893800 0.000000
-5.860700 0.000000
-5.827600 0.000000
-5.794500 0.000000
-5.761400 0.000000
-5.728300 0.000000
-5.695200 0.000000
-5.662100 0.000000
-5.629000 0.000000
-5.595900 0.000000
-5.562800 0.000000
-5.529800 0.000000
-5.496700 0.000000
-5.463600 0.000000
-5.430500 0.000000
-5.397400 0.000000
-5.364300 0.000000
-5.331200 0.000000
-5.298100 0.000000
-5.265000 0.000000
-5.231900 0.000000
-5.198800 0.000000
-5.165700 0.000000
-5.132600 0.000000
-5.099500 0.000000
-5.066400 0.000000
-5.033300 0.000000
-5.000300 0.000000
-4.967200 0.000000
-4.934100 0.000000
-4.901000 0.000000
-4.867900 0.000000
-4.834800 0.000000
-4.801700 0.000000
-4.768600 0.000000
-4.735500 0.000000
-4.702400 0.000000
-4.669300 0.000000
-4.636200 0.000000
-4.603100 0.000000
-4.570000 0.000000
-4.536900 0.000000
-4.503900 0.000000
-4.470800 0.000000
-4.437700 0.000000
-4.404600 0.000000
-4.371500 0.000000
-4.338400 0.000000
-4.305300 0.000000
-4.272200 0.000000
-4.239100 0.000000
-4.206000 0.000000
-4.172900 0.000000
-4.139800 0.000000
-4.106700 0.000000
-4.073600 0.000000
-4.040500 0.000000
-4.007400 0.000000
-3.974400 0.000000
-3.941300 0.000000
-3.908200 0.000000
-3.875100 0.000000
-3.842000 0.000000
-3.808900 0.000000
-3.775800 0.000000
-3.742700 0.000000
-3.709600 0.000000
-3.676500 0.000000
-3.643400 0.000000
-3.610300 0.000000
-3.577200 0.000000
-3.544100 0.000000
-3.511000 0.000000
-3.478000 0.000000
-3.444900 0.000000
-3.411800 0.000000
-3.378700 0.000000
-3.345600 0.000000
-3.312500 0.000000
-3.279400 0.000000
-3.246300 0.000000
-3.213200 0.000000
-3.180100 0.000000
-3.147000 0.000000
-3.113900 0.000000
-3.080800 0.000000
-3.047700 0.000000
-3.014600 0.000000
-2.981500 0.000000
-2.948500 0.000000
-2.915400 0.000000
-2.882300 0.000000
-2.849200 0.000000
-2.816100 0.000000
-2.783000 0.000000
-2.749900 0.000000
-2.716800 0.000000
-2.683700 0.000000
-2.650600 0.000000
-2.617500 0.000000
-2.584400 0.000000
-2.551300 0.000000
-2.518200 0.000000
-2.485100 0.000000
-2.452000 0.000000
-2.419000 0.000000
-2.385900 0.000000
-2.352800 0.000000
-2.319700 0.000000
-2.286600 0.000000
-2.253500 0.000000
-2.220400 0.000000
-2.187300 0.000000
-2.154200 0.000000
-2.121100 0.000000
-2.088000 0.000000
-2.054900 0.000000
-2.021800 0.000000
-1.988700 0.000000
-1.955600 0.000000
-1.922600 0.000000
-1.889500 0.000000
-1.856400 0.000000
-1.823300 0.000000
-1.790200 0.000000
-1.757100 0.000000
-1.724000 0.000000
-1.690900 0.000000
-1.657800 0.000000
-1.624700 0.000000
-1.591600 0.000000
-1.558500 0.000000
-1.525400 0.000000
-1.492300 0.000000
-1.459200 0.000000
-1.426100 0.000000
-1.393100 0.000000
-1.360000 0.000000
-1.326900 0.000000
-1.293800 0.000000
-1.260700 0.000000
-1.227600 0.000000
-1.194500 0.000000
-1.161400 0.000000
-1.128300 0.006200
-1.095200 0.017800
-1.062100 0.032700
-1.029000 0.050700
-0.995900 0.071000
-0.962800 0.093700
-0.929700 0.118700
-0.896700 0.146100
-0.863600 0.176400
-0.830500 0.180100
-0.797400 0.182700
-0.764300 0.188400
-0.731200 0.195100
-0.698100 0.200200
-0.665000 0.204000
-0.631900 0.206000
-0.598800 0.204700
-0.565700 0.194000
-0.532600 0.195100
-0.499500 0.204700
-0.466400 0.215800
-0.433300 0.228400
-0.400200 0.242100
-0.367200 0.256800
-0.334100 0.272500
-0.301000 0.289200
-0.267900 0.302200
-0.234800 0.307000
-0.201700 0.313000
-0.168600 0.320200
-0.135500 0.327200
-0.102400 0.333700
-0.069300 0.340000
-0.036200 0.346000
-0.003100 0.351800
0.030000 0.357000
0.063100 0.363100
0.096200 0.370000
0.129200 0.377400
0.162300 0.385400
0.195400 0.394100
0.228500 0.403400
0.261600 0.413500
0.294700 0.424300
0.327800 0.435300
0.360900 0.446000
0.394000 0.456200
0.427100 0.465800
0.460200 0.475400
0.493300 0.485600
0.526400 0.496300
0.559500 0.501100
0.592600 0.497900
0.625700 0.509700
0.658700 0.522500
0.691800 0.536100
0.724900 0.550500
0.758000 0.565700
0.791100 0.576500
0.824200 0.585500
0.857300 0.596900
0.890400 0.609300
0.923500 0.622500
0.956600 0.636100
0.989700 0.651100
1.022800 0.667100
1.055900 0.683200
1.089000 0.699600
1.122100 0.716400
1.155200 0.733700
1.188200 0.752000
1.221300 0.771100
1.254400 0.791400
1.287500 0.813400
1.320600 0.838300
1.353700 0.865100
1.386800 0.893200
1.419900 0.920400
1.453000 0.946600
1.486100 0.971800
1.519200 0.996400
1.552300 1.025500
1.585400 1.056800
1.618500 1.090100
1.651600 1.123000
1.684600 1.170800
1.717700 1.233800
1.750800 1.298400
1.783900 1.418800
1.817000 1.643900
1.850100 1.988800
1.883200 2.248700
1.916300 2.523900
1.949400 2.690300
1.982500 2.689000
2.015600 2.754100
2.048700 2.898700
2.081800 2.876700
2.114900 2.990100
2.148000 3.166600
2.181100 3.354200
2.214100 3.534100
2.247200 3.875500
2.280300 4.091200
2.313400 4.174700
2.346500 3.887100
2.379600 3.871000
2.412700 3.824700
2.445800 4.008300
2.478900 4.202600
2.512000 4.348500
2.545100 4.481700
2.578200 4.477400
2.611300 4.782100
2.644400 5.114500
2.677500 5.387600
2.710500 5.735900
2.743600 5.962200
2.776700 6.151500
2.809800 6.180300
2.842900 6.142000
2.876000 6.150800
2.909100 6.141200
2.942200 6.052800
2.975300 5.864200
3.008400 5.780100
3.041500 5.625000
3.074600 5.555700
3.107700 5.943400
3.140800 6.087300
3.173900 6.016600
3.207000 5.822500
3.240000 5.819600
3.273100 5.820600
3.306200 5.902700
3.339300 5.900500
3.372400 6.568300
3.405500 5.265900
3.438600 5.101400
3.471700 5.168500
3.504800 5.425100
3.537900 5.713300
3.571000 6.200100
3.604100 5.725400
3.637200 5.470300
3.670300 5.582300
3.703400 6.129300
3.736400 5.835400
3.769500 5.327200
3.802600 4.907200
3.835700 4.616300
3.868800 4.345700
3.901900 4.310000
3.935000 4.458800
3.968100 3.958600
4.001200 3.842400
4.034300 4.004500
4.067400 4.474000
4.100500 5.112400
4.133600 5.582900
4.166700 4.939600
4.199800 4.309500
4.232900 3.975500
4.265900 3.069500
4.299000 3.275800
4.332100 3.910900
4.365200 4.638000
4.398300 5.543300
4.431400 7.265100
4.464500 7.577200
4.497600 6.979300
4.530700 5.791200
4.563800 4.828100
4.596900 4.082100
4.630000 4.385100
4.663100 4.719300
4.696200 5.861100
4.729300 5.609500
4.762400 5.747900
4.795400 5.654600
4.828500 5.676800
4.861600 5.557200
4.894700 5.641500
4.927800 5.634400
4.960900 5.690000
4.994000 5.702400
5.027100 5.768500
5.060200 6.237300
5.093300 6.619700
5.126400 6.628800
5.159500 6.900800
5.192600 7.505300
5.225700 7.950600
5.258800 7.792000
5.291800 7.429500
5.324900 7.059500
5.358000 6.519400
5.391100 5.826600
5.424200 5.343300
5.457300 5.311900
5.490400 5.531600
5.523500 7.114600
5.556600 6.541700
5.589700 6.827300
5.622800 6.693300
5.655900 7.882000
5.689000 6.978100
5.722100 6.737300
5.755200 6.937500
5.788300 7.304800
5.821300 7.399700
5.854400 8.053500
5.887500 7.878300
5.920600 8.361300
5.953700 9.777800
5.986800 9.016800
6.019900 7.640400
6.053000 6.433500
6.086100 7.039100
6.119200 6.520500
6.152300 6.703200
6.185400 7.705100
6.218500 8.119800
6.251600 7.991400
6.284700 6.426900
6.317700 7.341600
6.350800 7.444900
6.383900 6.335300
6.417000 5.455300
6.450100 5.326500
6.483200 5.208800
6.516300 6.298200
6.549400 7.097400
6.582500 6.583700
6.615600 5.440300
6.648700 4.753600
6.681800 4.947300
6.714900 5.350300
6.748000 5.426200
6.781100 5.562000
6.814200 4.674300
6.847200 6.960900
6.880300 6.405700
6.913400 5.484300
6.946500 5.579500
6.979600 6.106800
7.012700 6.866100
7.045800 7.358000
7.078900 7.159100
7.112000 6.066800
7.145100 5.675500
7.178200 6.002500
7.211300 5.919700
7.244400 5.993000
7.277500 6.822300
7.310600 7.255800
7.343700 6.449500
7.376700 5.027800
7.409800 4.794200
7.442900 5.919100
7.476000 4.769500
7.509100 4.830600
7.542200 6.617800
7.575300 7.913400
7.608400 5.346300
7.641500 4.702300
7.674600 4.332800
7.707700 4.050900
7.740800 4.091000
7.773900 4.023000
7.807000 4.130300
7.840100 4.698900
7.873100 6.369200
7.906200 7.235700
7.939300 7.810900
7.972400 8.005500
8.005500 7.357700
8.038600 6.807500
8.071700 6.567800
8.104800 6.614800
8.137900 6.519600
8.171000 5.826300
8.204100 5.255700
8.237200 4.673500
8.270300 4.308700
8.303400 4.162900
8.336500 4.259400
8.369600 4.446800
8.402600 4.735600
8.435700 4.943500
8.468800 4.997800
8.501900 4.981700
8.535000 4.981100
8.568100 5.060500
8.601200 5.031000
8.634300 3.838300
8.667400 3.466800
8.700500 3.499200
8.733600 3.523700
8.766700 3.532200
8.799800 3.530600
8.832900 3.552400
8.866000 3.594600
8.899000 3.679500
8.932100 3.785800
8.965200 3.930600
8.998300 4.303500
9.031400 5.117100
9.064500 4.792500
9.097600 4.464300
9.130700 4.437800
9.163800 4.592300
9.196900 4.889500
9.230000 5.539700
9.263100 5.924400
9.296200 4.737500
9.329300 4.667500
9.362400 4.602400
9.395500 4.632700
9.428500 5.023200
9.461600 5.512300
9.494700 6.149300
9.527800 6.398900
9.560900 6.288900
9.594000 5.543800
9.627100 5.265800
9.660200 5.082200
9.693300 4.939300
9.726400 4.859000
9.759500 4.756400
9.792600 4.721400
9.825700 4.753600
9.858800 4.646200
9.891900 4.609900
9.924900 6.628500
9.958000 5.342800
9.991100 5.508500
10.024200 4.214500
10.057300 4.196000
10.090400 4.194000
10.123500 4.126500
10.156600 3.930600
10.189700 3.605500
10.222800 3.552400
10.255900 3.743700
10.289000 4.056400
10.322100 4.338700
10.355200 4.303200
10.388300 4.176000
10.421400 4.505400
10.454400 4.109800
10.487500 3.970500
10.520600 4.112900
10.553700 4.212300
10.586800 4.676100
10.619900 4.575100
10.653000 4.636700
10.686100 4.045400
10.719200 3.694700
10.752300 3.652700
10.785400 3.839900
10.818500 3.876100
10.851600 3.791600
10.884700 3.729400
10.917800 3.443400
10.950900 3.098600
10.983900 2.893100
11.017000 2.741100
11.050100 2.631300
11.083200 2.586800
11.116300 2.595600
11.149400 2.543900
11.182500 2.490900
11.215600 2.424000
11.248700 2.332900
11.281800 2.190500
11.314900 2.147200
11.348000 2.339400
11.381100 2.352700
11.414200 2.329200
11.447300 2.298200
11.480300 2.275500
11.513400 2.267700
11.546500 2.281500
11.579600 2.372000
11.612700 2.437100
11.645800 2.486600
11.678900 2.555100
11.712000 3.290200
11.745100 2.780600
11.778200 2.645100
11.811300 2.656800
11.844400 2.635000
11.877500 2.643700
11.910600 2.656600
11.943700 2.624600
11.976800 2.588400
12.009800 2.414500
12.042900 2.374900
12.076000 2.269500
12.109100 2.816600
12.142200 1.673700
12.175300 1.649700
12.208400 1.625500
12.241500 1.579600
12.274600 1.551600
12.307700 1.586800
12.340800 1.965000
12.373900 3.152100
12.407000 3.719400
12.440100 5.165100
12.473200 2.341900
12.506200 2.058400
12.539300 1.914900
12.572400 1.884900
12.605500 1.911600
12.638600 1.953300
12.671700 2.017700
12.704800 2.106200
12.737900 2.166400
12.771000 2.094100
12.804100 1.989600
12.837200 1.881400
12.870300 1.816400
12.903400 1.760100
12.936500 1.695300
12.969600 1.666300
13.002700 1.633900
13.035700 1.595300
13.068800 1.565600
13.101900 1.548100
13.135000 1.547400
13.168100 1.637700
13.201200 1.751500
13.234300 1.904300
13.267400 1.991200
13.300500 1.809400
13.333600 1.810900
13.366700 1.803100
13.399800 1.783900
13.432900 1.759600
13.466000 1.738300
13.499100 1.721300
13.532200 1.708300
13.565200 1.698000
13.598300 1.687800
13.631400 1.676900
13.664500 1.665400
13.697600 1.653200
13.730700 1.640800
13.763800 1.628100
13.796900 1.615100
13.830000 1.601900
13.863100 1.589200
13.896200 1.568200
13.929300 1.552300
13.962400 1.541500
13.995500 1.531400
14.028600 1.530600
14.061600 1.537600
14.094700 1.544300
14.127800 1.602300
14.160900 1.702600
14.194000 1.710200
14.227100 1.610200
14.260200 1.528500
14.293300 1.497300
14.326400 1.487000
14.359500 1.498000
14.392600 1.466100
14.425700 1.428400
14.458800 1.424700
14.491900 1.434600
14.525000 1.641300
14.558100 1.569300
14.591100 1.536200
14.624200 1.510800
14.657300 1.487600
14.690400 1.466200
14.723500 1.446000
14.756600 1.429600
14.789700 1.417400
14.822800 1.422000
14.855900 1.407300
14.889000 1.382900
14.922100 1.357800
14.955200 1.344100
14.988300 1.353700
15.021400 1.359300
15.054500 1.365200
15.087500 1.378000
15.120600 1.455300
15.153700 1.938200
15.186800 2.325500
15.219900 1.744900
15.253000 1.606700
15.286100 1.596700
15.319200 1.614500
15.352300 1.780600
15.385400 1.784400
15.418500 1.487000
15.451600 1.423800
15.484700 1.402200
15.517800 1.379100
15.550900 1.352000
15.584000 1.324700
15.617000 1.302600
15.650100 1.281500
15.683200 1.257800
15.716300 1.231900
15.749400 1.203600
15.782500 1.173400
15.815600 1.140200
15.848700 1.095000
15.881800 1.046600
15.914900 0.991700
15.948000 0.920700
15.981100 1.371600
16.014200 1.404300
16.047300 1.413700
16.080400 1.628800
16.113400 1.737700
16.146500 1.753100
16.179600 1.678600
16.212700 1.430400
16.245800 1.274700
16.278900 1.196300
16.312000 1.152100
16.345100 1.343700
16.378200 1.397600
16.411300 1.504300
16.444400 1.492800
16.477500 1.446700
16.510600 1.448900
16.543700 1.482000
16.576800 1.425900
16.609900 1.434300
16.642900 1.462800
16.676000 1.506700
16.709100 1.566300
16.742200 1.634800
16.775300 1.651200
16.808400 1.714400
16.841500 1.777300
16.874600 1.772400
16.907700 1.680100
16.940800 1.622600
16.973900 1.604300
17.007000 1.578100
17.040100 1.600400
17.073200 1.640500
17.106300 1.725700
17.139400 1.925500
17.172400 1.955500
17.205500 1.927400
17.238600 1.800300
17.271700 1.940800
17.304800 2.090200
17.337900 2.216000
17.371000 2.210900
17.404100 2.152300
17.437200 2.204700
17.470300 2.120300
17.503400 1.862900
17.536500 1.770000
17.569600 1.741700
17.602700 1.614300
17.635800 1.564400
17.668800 1.510500
17.701900 1.459900
17.735000 1.423500
17.768100 1.398900
17.801200 1.385900
17.834300 1.379500
17.867400 1.379300
17.900500 1.379400
17.933600 1.379600
17.966700 1.388400
17.999800 1.472800
18.032900 1.399900
18.066000 1.410300
18.099100 1.427200
18.132200 1.455300
18.165300 1.495100
18.198300 1.554800
18.231400 1.595400
18.264500 1.623000
18.297600 1.616400
18.330700 1.630100
18.363800 1.623400
18.396900 1.567100
18.430000 1.489900
18.463100 1.396500
18.496200 1.334700
18.529300 1.312700
18.562400 1.329200
18.595500 1.368400
18.628600 1.428800
18.661700 1.463700
18.694700 1.497300
18.727800 1.529400
18.760900 1.563100
18.794000 1.599300
18.827100 1.660800
18.860200 1.751200
18.893300 1.852800
18.926400 1.891300
18.959500 1.791800
18.992600 1.632100
19.025700 1.567700
19.058800 1.508200
19.091900 1.443700
19.125000 1.498000
19.158100 1.605600
19.191200 1.534100
19.224200 1.467800
19.257300 1.440600
19.290400 1.414400
19.323500 1.400400
19.356600 1.394700
19.389700 1.393200
19.422800 1.395300
19.455900 1.401800
19.489000 1.410500
19.522100 1.437600
19.555200 1.509500
19.588300 1.506100
19.621400 1.492500
19.654500 1.493500
19.687600 1.512800
19.720600 1.541600
19.753700 1.506500
19.786800 1.534100
19.819900 1.583700
19.853000 1.633500
19.886100 1.706900
19.919200 1.820000
19.952300 1.905700
19.985400 1.919500
20.018500 1.902200
20.051600 1.878600
20.084700 1.849700
20.117800 1.815600
20.150900 1.783000
20.184000 1.756200
20.217100 1.750700
20.250100 1.761500
20.283200 1.784900
20.316300 1.811100
20.349400 1.836300
20.382500 1.864000
20.415600 1.879800
20.448700 1.936100
20.481800 2.030700
20.514900 2.157800
20.548000 2.348100
20.581100 2.178300
20.614200 2.083200
20.647300 1.923400
20.680400 1.849400
20.713500 1.807600
20.746600 1.753500
20.779600 1.698600
20.812700 1.649700
20.845800 1.615200
20.878900 1.594300
20.912000 1.582300
20.945100 1.574700
20.978200 1.565300
21.011300 1.555600
21.044400 1.549300
21.077500 1.554100
21.110600 1.579200
21.143700 1.620500
21.176800 1.667000
21.209900 1.716000
21.243000 1.948500
21.276000 2.237600
21.309100 2.115400
21.342200 2.167900
21.375300 2.246500
21.408400 2.292400
21.441500 2.278200
21.474600 2.280500
21.507700 2.286600
21.540800 2.316100
21.573900 2.332800
21.607000 2.320900
21.640100 2.303100
21.673200 2.294400
21.706300 2.172900
21.739400 2.059900
21.772500 2.012100
21.805500 1.961600
21.838600 1.925100
21.871700 1.897700
21.904800 1.876400
21.937900 1.861400
21.971000 1.854000
22.004100 1.854100
22.037200 1.867900
22.070300 1.896800
22.103400 1.941700
22.136500 2.015300
22.169600 2.101800
22.202700 2.203500
22.235800 2.270600
22.268900 2.328900
22.301900 2.407500
22.335000 2.459700
22.368100 2.478300
22.401200 2.462900
22.434300 2.430000
22.467400 2.449000
22.500500 2.483400
22.533600 2.529200
22.566700 2.573100
22.599800 2.581100
22.632900 2.580000
22.666000 2.553000
22.699100 2.462000
22.732200 2.438700
22.765300 2.423500
22.798400 2.398400
22.831400 2.383800
22.864500 2.387000
22.897600 2.428900
22.930700 2.490500
22.963800 2.547800
22.996900 2.767000
23.030000 2.773500
23.063100 2.673300
23.096200 2.632100
23.129300 2.639100
23.162400 2.625600
23.195500 2.611500
23.228600 2.559300
23.261700 2.540000
23.294800 2.550200
23.327900 2.569300
23.360900 2.623200
23.394000 2.732700
23.427100 2.720700
23.460200 2.721800
23.493300 2.791700
23.526400 2.912300
23.559500 3.026100
23.592600 3.029700
23.625700 3.044300
23.658800 3.068100
23.691900 3.114500
23.725000 3.176700
23.758100 3.112800
23.791200 3.106500
23.824300 3.111600
23.857300 3.126300
23.890400 3.158600
23.923500 3.259600
23.956600 3.494700
23.989700 3.318800
24.022800 3.165700
24.055900 3.122700
24.089000 3.149300
24.122100 3.253300
24.155200 3.423000
24.188300 3.601700
24.221400 3.721600
24.254500 3.804600
24.287600 3.854100
24.320700 3.888100
24.353800 3.902000
24.386800 3.857100
24.419900 3.745900
24.453000 3.671300
24.486100 3.652500
24.519200 3.559200
24.552300 3.642700
24.585400 3.742900
24.618500 3.872000
24.651600 4.120700
24.684700 4.192800
24.717800 4.062500
24.750900 3.904500
24.784000 3.821600
24.817100 3.773700
24.850200 3.764500
24.883200 3.788000
24.916300 3.847000
24.949400 3.942700
24.982500 4.029100
25.015600 4.044900
25.048700 4.009500
25.081800 3.856400
25.114900 3.833200
25.148000 3.835200
25.181100 3.906400
25.214200 3.978600
25.247300 4.079700
25.280400 4.080400
25.313500 4.000500
25.346600 3.885400
25.379700 3.837200
25.412700 3.842900
25.445800 3.873900
25.478900 3.731100
25.512000 3.606800
25.545100 3.515700
25.578200 3.377700
25.611300 3.310600
25.644400 3.296600
25.677500 3.311100
25.710600 3.332400
25.743700 3.295600
25.776800 3.231400
25.809900 3.167100
25.843000 3.080500
25.876100 3.018000
25.909100 3.051500
25.942200 3.254900
25.975300 3.337500
26.008400 3.229600
26.041500 2.932900
26.074600 2.713300
26.107700 2.691400
26.140800 2.992100
26.173900 3.138300
26.207000 3.359300
26.240100 3.685800
26.273200 3.948300
26.306300 4.195300
26.339400 4.389000
26.372500 4.398200
26.405600 4.347500
26.438600 4.816900
26.471700 4.063000
26.504800 3.309300
26.537900 3.078000
26.571000 3.006000
26.604100 2.973600
26.637200 3.028600
26.670300 3.043800
26.703400 3.017300
26.736500 3.007000
26.769600 3.019100
26.802700 3.049200
26.835800 3.036700
26.868900 2.990300
26.902000 2.895200
26.935100 2.804700
26.968100 2.718500
27.001200 2.783700
27.034300 2.832600
27.067400 2.834600
27.100500 2.785200
27.133600 2.769500
27.166700 2.988600
27.199800 3.042000
27.232900 3.074800
27.266000 2.987600
27.299100 2.875600
27.332200 2.706700
27.365300 2.554200
27.398400 2.461300
27.431500 2.392300
27.464500 2.295600
27.497600 2.238500
27.530700 1.861500
27.563800 1.791400
27.596900 1.739100
27.630000 1.693300
27.663100 1.650900
27.696200 1.613700
27.729300 1.580700
27.762400 1.543100
27.795500 1.505300
27.828600 1.471700
27.861700 1.449400
27.894800 1.437700
27.927900 1.438700
27.961000 1.451900
27.994000 1.482300
28.027100 1.532100
28.060200 1.595400
28.093300 1.639800
28.126400 1.668800
28.159500 1.682500
28.192600 1.684000
28.225700 1.666000
28.258800 1.614700
28.291900 1.572800
28.325000 1.560500
28.358100 1.549700
28.391200 1.535800
28.424300 1.524000
28.457400 1.514100
28.490400 1.526600
28.523500 1.549500
28.556600 1.600700
28.589700 1.709600
28.622800 1.873500
28.655900 1.678400
28.689000 1.633000
28.722100 1.658300
28.755200 1.614400
28.788300 1.551100
28.821400 1.515800
28.854500 1.481400
28.887600 1.447200
28.920700 1.415500
28.953800 1.400200
28.986900 1.411400
29.019900 1.452600
29.053000 1.689500
29.086100 2.174100
29.119200 1.884900
29.152300 1.889700
29.185400 1.935500
29.218500 1.979500
29.251600 2.035700
29.284700 1.880300
29.317800 1.593700
29.350900 1.297300
29.384000 1.060700
29.417100 0.851600
29.450200 0.657500
29.483300 0.500300
29.516400 0.350700
29.549400 0.238300
29.582500 0.178000
29.615600 0.145600
29.648700 0.124700
29.681800 0.107500
29.714900 0.093000
29.748000 0.080400
29.781100 0.069700
29.814200 0.062000
29.847300 0.055700
29.880400 0.050100
29.913500 0.044700
29.946600 0.039700
29.979700 0.034900
30.012800 0.030500
30.045800 0.026400
30.078900 0.022600
30.112000 0.019200
30.145100 0.016100
30.178200 0.013200
30.211300 0.010800
30.244400 0.008600
30.277500 0.006800
30.310600 0.005300
30.343700 0.004000
30.376800 0.003000
30.409900 0.002100
30.443000 0.001300
30.476100 0.000800
30.509200 0.000300
30.542300 0.000100
30.575300 0.000000
30.608400 0.000000
30.641500 0.000000
30.674600 0.000000
30.707700 0.000000
30.740800 0.000000
30.773900 0.000000
30.807000 0.000000
30.840100 0.000000
30.873200 0.000000
30.906300 0.000000
30.939400 0.000000
30.972500 0.000000
31.005600 0.000000
31.038700 0.000000
31.071700 0.000000
31.104800 0.000000
31.137900 0.000000
31.171000 0.000000
31.204100 0.000000
31.237200 0.000000
31.270300 0.000000
31.303400 0.000000
31.336500 0.000000
31.369600 0.000000
31.402700 0.000000
31.435800 0.000000
31.468900 0.000000
31.502000 0.000000
31.535100 0.000000
31.568200 0.000000
31.601200 0.000000
31.634300 0.000000
31.667400 0.000000
31.700500 0.000000
31.733600 0.000000
31.766700 0.000000
31.799800 0.000000
31.832900 0.000000
31.866000 0.000000
31.899100 0.000000
31.932200 0.000000
31.965300 0.000000
31.998400 0.000000
32.031500 0.000000
32.064600 0.000000
32.097600 0.000000
32.130700 0.000000
32.163800 0.000000
32.196900 0.000000
32.230000 0.000000
32.263100 0.000000
32.296200 0.000000
32.329300 0.000000
32.362400 0.000000
32.395500 0.000000
32.428600 0.000000
32.461700 0.000000
32.494800 0.000000
32.527900 0.000000
32.561000 0.000000
32.594100 0.000000
32.627100 0.000000
32.660200 0.000000
32.693300 0.000000
32.726400 0.000000
32.759500 0.000000
32.792600 0.000000
32.825700 0.000000
32.858800 0.000000
32.891900 0.000000
32.925000 0.000000
32.958100 0.000000
32.991200 0.000000
33.024300 0.000000
33.057400 0.000000
33.090500 0.000000
33.123600 0.000000
33.156600 0.000000
33.189700 0.000000
33.222800 0.000000
33.255900 0.000000
33.289000 0.000000
33.322100 0.000000
33.355200 0.000000
33.388300 0.000000
33.421400 0.000000
33.454500 0.000000
33.487600 0.000000
33.520700 0.000000
33.553800 0.000000
33.586900 0.000000
e
