set title 'mp-1426806 - Density of States'
set xlabel 'Energy (eV)'
set ylabel 'DOS (states/eV)'
set grid
set xrange [-10:10]
set yrange [0:14.235]
set xzeroaxis lt -1
set terminal png size 800,600
set output 'mp-1426806_dos_gnuplot.png'
plot '-' using 1:2 with lines title 'DOS'
-38.657900 0.000000
-38.615700 0.000000
-38.573500 0.000000
-38.531300 0.000000
-38.489100 0.000000
-38.446900 0.000000
-38.404700 0.000000
-38.362500 0.000000
-38.320400 0.000000
-38.278200 0.000000
-38.236000 0.000000
-38.193800 0.000000
-38.151600 0.000000
-38.109400 0.000000
-38.067200 0.000000
-38.025000 0.000000
-37.982800 0.000000
-37.940600 0.000000
-37.898400 0.000000
-37.856200 0.000000
-37.814000 0.000000
-37.771800 0.000000
-37.729600 0.000000
-37.687400 0.000000
-37.645200 0.000000
-37.603000 0.000000
-37.560800 0.000000
-37.518600 0.000000
-37.476400 0.000000
-37.434200 0.000000
-37.392000 0.000000
-37.349800 0.000000
-37.307600 0.000000
-37.265400 0.000000
-37.223200 0.000000
-37.181000 0.000000
-37.138900 0.000000
-37.096700 0.000000
-37.054500 0.000000
-37.012300 0.000000
-36.970100 0.000000
-36.927900 0.000000
-36.885700 0.000000
-36.843500 0.000000
-36.801300 0.000000
-36.759100 0.000000
-36.716900 0.000000
-36.674700 0.000000
-36.632500 0.000000
-36.590300 0.000000
-36.548100 0.000000
-36.505900 0.000000
-36.463700 0.000000
-36.421500 0.000000
-36.379300 0.000000
-36.337100 0.000000
-36.294900 0.000000
-36.252700 0.000000
-36.210500 0.000000
-36.168300 0.000000
-36.126100 0.000000
-36.083900 0.000000
-36.041700 0.000000
-35.999500 0.000000
-35.957300 0.000000
-35.915200 0.000000
-35.873000 0.000000
-35.830800 0.000000
-35.788600 0.000000
-35.746400 0.000000
-35.704200 0.000000
-35.662000 0.000000
-35.619800 0.000000
-35.577600 0.000000
-35.535400 0.000000
-35.493200 0.000000
-35.451000 0.000000
-35.408800 0.000000
-35.366600 0.000000
-35.324400 0.000000
-35.282200 0.000000
-35.240000 0.000000
-35.197800 0.000000
-35.155600 0.000000
-35.113400 0.000000
-35.071200 0.000000
-35.029000 0.000000
-34.986800 0.000000
-34.944600 0.000000
-34.902400 0.000000
-34.860200 0.000000
-34.818000 15.820300
-34.775800 8.475400
-34.733700 69.362800
-34.691500 3.757000
-34.649300 3.463700
-34.607100 4.050600
-34.564900 8.154200
-34.522700 4.243800
-34.480500 25.156700
-34.438300 3.433000
-34.396100 19.547300
-34.353900 11.580700
-34.311700 5.845200
-34.269500 0.000000
-34.227300 0.000000
-34.185100 0.000000
-34.142900 0.000000
-34.100700 0.000000
-34.058500 0.000000
-34.016300 0.000000
-33.974100 0.000000
-33.931900 0.000000
-33.889700 0.000000
-33.847500 0.000000
-33.805300 0.000000
-33.763100 0.000000
-33.720900 0.000000
-33.678700 0.000000
-33.636500 0.000000
-33.594300 0.000000
-33.552100 0.000000
-33.510000 0.000000
-33.467800 0.000000
-33.425600 0.000000
-33.383400 0.000000
-33.341200 0.000000
-33.299000 0.000000
-33.256800 0.000000
-33.214600 0.000000
-33.172400 0.000000
-33.130200 0.000000
-33.088000 0.000000
-33.045800 0.000000
-33.003600 0.000000
-32.961400 0.000000
-32.919200 0.000000
-32.877000 0.000000
-32.834800 0.000000
-32.792600 0.000000
-32.750400 0.000000
-32.708200 0.000000
-32.666000 0.000000
-32.623800 0.000000
-32.581600 0.000000
-32.539400 0.000000
-32.497200 0.000000
-32.455000 0.000000
-32.412800 0.000000
-32.370600 0.000000
-32.328400 0.000000
-32.286300 0.000000
-32.244100 0.000000
-32.201900 0.000000
-32.159700 0.000000
-32.117500 0.000000
-32.075300 0.000000
-32.033100 0.000000
-31.990900 0.000000
-31.948700 0.000000
-31.906500 0.000000
-31.864300 0.000000
-31.822100 0.000000
-31.779900 0.000000
-31.737700 0.000000
-31.695500 0.000000
-31.653300 0.000000
-31.611100 0.000000
-31.568900 0.000000
-31.526700 0.000000
-31.484500 0.000000
-31.442300 0.000000
-31.400100 0.000000
-31.357900 0.000000
-31.315700 0.000000
-31.273500 0.000000
-31.231300 0.000000
-31.189100 0.000000
-31.146900 0.000000
-31.104800 0.000000
-31.062600 0.000000
-31.020400 0.000000
-30.978200 0.000000
-30.936000 0.000000
-30.893800 0.000000
-30.851600 0.000000
-30.809400 0.000000
-30.767200 0.000000
-30.725000 0.000000
-30.682800 0.000000
-30.640600 0.000000
-30.598400 0.000000
-30.556200 0.000000
-30.514000 0.000000
-30.471800 0.000000
-30.429600 0.000000
-30.387400 0.000000
-30.345200 0.000000
-30.303000 0.000000
-30.260800 0.000000
-30.218600 0.000000
-30.176400 0.000000
-30.134200 0.000000
-30.092000 0.000000
-30.049800 0.000000
-30.007600 0.000000
-29.965400 0.000000
-29.923200 0.000000
-29.881100 0.000000
-29.838900 0.000000
-29.796700 0.000000
-29.754500 0.000000
-29.712300 0.000000
-29.670100 0.000000
-29.627900 0.000000
-29.585700 0.000000
-29.543500 0.000000
-29.501300 0.000000
-29.459100 0.000000
-29.416900 0.000000
-29.374700 0.000000
-29.332500 0.000000
-29.290300 0.000000
-29.248100 0.000000
-29.205900 0.000000
-29.163700 0.000000
-29.121500 0.000000
-29.079300 0.000000
-29.037100 0.000000
-28.994900 0.000000
-28.952700 0.000000
-28.910500 0.000000
-28.868300 0.000000
-28.826100 0.000000
-28.783900 0.000000
-28.741700 0.000000
-28.699600 0.000000
-28.657400 0.000000
-28.615200 0.000000
-28.573000 0.000000
-28.530800 0.000000
-28.488600 0.000000
-28.446400 0.000000
-28.404200 0.000000
-28.362000 0.000000
-28.319800 0.000000
-28.277600 0.000000
-28.235400 0.000000
-28.193200 0.000000
-28.151000 0.000000
-28.108800 0.000000
-28.066600 0.000000
-28.024400 0.000000
-27.982200 0.000000
-27.940000 0.000000
-27.897800 0.000000
-27.855600 0.000000
-27.813400 0.000000
-27.771200 0.000000
-27.729000 0.000000
-27.686800 0.000000
-27.644600 0.000000
-27.602400 0.000000
-27.560200 0.000000
-27.518000 0.000000
-27.475900 0.000000
-27.433700 0.000000
-27.391500 0.000000
-27.349300 0.000000
-27.307100 0.000000
-27.264900 0.000000
-27.222700 0.000000
-27.180500 0.000000
-27.138300 0.000000
-27.096100 0.000000
-27.053900 0.000000
-27.011700 0.000000
-26.969500 0.000000
-26.927300 0.000000
-26.885100 0.000000
-26.842900 0.000000
-26.800700 0.000000
-26.758500 0.000000
-26.716300 0.000000
-26.674100 0.000000
-26.631900 0.000000
-26.589700 0.000000
-26.547500 0.000000
-26.505300 0.000000
-26.463100 0.000000
-26.420900 0.000000
-26.378700 0.000000
-26.336500 0.000000
-26.294400 0.000000
-26.252200 0.000000
-26.210000 0.000000
-26.167800 0.000000
-26.125600 0.000000
-26.083400 0.000000
-26.041200 0.000000
-25.999000 0.000000
-25.956800 0.000000
-25.914600 0.000000
-25.872400 0.000000
-25.830200 0.000000
-25.788000 0.000000
-25.745800 0.000000
-25.703600 0.000000
-25.661400 0.000000
-25.619200 0.000000
-25.577000 0.000000
-25.534800 0.000000
-25.492600 0.000000
-25.450400 0.000000
-25.408200 0.000000
-25.366000 0.000000
-25.323800 0.000000
-25.281600 0.000000
-25.239400 0.000000
-25.197200 0.000000
-25.155000 0.000000
-25.112800 0.000000
-25.070700 0.000000
-25.028500 0.000000
-24.986300 0.000000
-24.944100 0.000000
-24.901900 0.000000
-24.859700 0.000000
-24.817500 0.000000
-24.775300 0.000000
-24.733100 0.000000
-24.690900 0.000000
-24.648700 0.000000
-24.606500 0.000000
-24.564300 0.000000
-24.522100 0.000000
-24.479900 0.000000
-24.437700 0.000000
-24.395500 0.000000
-24.353300 0.000000
-24.311100 0.000000
-24.268900 0.000000
-24.226700 0.000000
-24.184500 0.000000
-24.142300 0.000000
-24.100100 0.000000
-24.057900 0.000000
-24.015700 0.000000
-23.973500 0.000000
-23.931300 0.000000
-23.889200 0.000000
-23.847000 0.000000
-23.804800 0.000000
-23.762600 0.000000
-23.720400 0.000000
-23.678200 0.000000
-23.636000 0.000000
-23.593800 0.000000
-23.551600 0.000000
-23.509400 0.000000
-23.467200 0.000000
-23.425000 0.000000
-23.382800 0.000000
-23.340600 0.000000
-23.298400 0.000000
-23.256200 0.000000
-23.214000 0.000000
-23.171800 0.000000
-23.129600 0.000000
-23.087400 0.000000
-23.045200 0.000000
-23.003000 0.000000
-22.960800 0.000000
-22.918600 0.000000
-22.876400 0.000000
-22.834200 0.000000
-22.792000 0.000000
-22.749800 0.000000
-22.707600 0.000000
-22.665500 0.000000
-22.623300 0.000000
-22.581100 0.000000
-22.538900 0.000000
-22.496700 0.000000
-22.454500 0.000000
-22.412300 0.000000
-22.370100 0.000000
-22.327900 0.000000
-22.285700 0.000000
-22.243500 0.000000
-22.201300 0.000000
-22.159100 0.000000
-22.116900 0.000000
-22.074700 0.000000
-22.032500 0.000000
-21.990300 0.000000
-21.948100 0.000000
-21.905900 0.000000
-21.863700 0.000000
-21.821500 0.000000
-21.779300 0.000000
-21.737100 0.000000
-21.694900 0.000000
-21.652700 0.000000
-21.610500 0.000000
-21.568300 0.000000
-21.526100 0.000000
-21.484000 0.000000
-21.441800 0.000000
-21.399600 0.000000
-21.357400 0.000000
-21.315200 0.000000
-21.273000 0.000000
-21.230800 0.000000
-21.188600 0.000000
-21.146400 0.000000
-21.104200 0.000000
-21.062000 0.000000
-21.019800 0.000000
-20.977600 0.000000
-20.935400 0.000000
-20.893200 0.000000
-20.851000 0.000000
-20.808800 0.000000
-20.766600 0.000000
-20.724400 0.000000
-20.682200 0.000000
-20.640000 0.000000
-20.597800 0.000000
-20.555600 0.000000
-20.513400 0.000000
-20.471200 0.000000
-20.429000 0.000000
-20.386800 0.000000
-20.344600 0.000000
-20.302400 0.000000
-20.260300 0.000000
-20.218100 0.000000
-20.175900 0.000000
-20.133700 0.000000
-20.091500 0.000000
-20.049300 0.000000
-20.007100 0.000000
-19.964900 0.000000
-19.922700 0.000000
-19.880500 0.000000
-19.838300 0.000000
-19.796100 0.000000
-19.753900 0.000000
-19.711700 0.000000
-19.669500 0.000000
-19.627300 0.000000
-19.585100 0.000000
-19.542900 0.000000
-19.500700 0.000000
-19.458500 0.000000
-19.416300 0.000000
-19.374100 0.000000
-19.331900 0.000000
-19.289700 0.082900
-19.247500 0.240600
-19.205300 0.398300
-19.163100 0.556100
-19.120900 0.713800
-19.078700 0.871500
-19.036600 0.607400
-18.994400 0.640700
-18.952200 0.673900
-18.910000 0.707200
-18.867800 0.740400
-18.825600 0.773700
-18.783400 0.807000
-18.741200 0.840200
-18.699000 0.873500
-18.656800 0.906800
-18.614600 1.039700
-18.572400 1.224500
-18.530200 1.409200
-18.488000 1.809400
-18.445800 2.257700
-18.403600 2.706000
-18.361400 5.109600
-18.319200 4.896800
-18.277000 4.205700
-18.234800 3.434100
-18.192600 2.857800
-18.150400 2.281600
-18.108200 1.705300
-18.066000 1.129100
-18.023800 0.000000
-17.981600 0.000000
-17.939400 27.329500
-17.897200 10.523800
-17.855100 8.039100
-17.812900 6.157800
-17.770700 4.967800
-17.728500 1.615900
-17.686300 1.410800
-17.644100 1.709500
-17.601900 1.078300
-17.559700 0.447100
-17.517500 0.000000
-17.475300 0.000000
-17.433100 0.000000
-17.390900 0.000000
-17.348700 0.000000
-17.306500 0.000000
-17.264300 0.000000
-17.222100 0.000000
-17.179900 0.000000
-17.137700 0.000000
-17.095500 0.000000
-17.053300 0.000000
-17.011100 0.000000
-16.968900 0.000000
-16.926700 0.000000
-16.884500 0.000000
-16.842300 0.000000
-16.800100 0.000000
-16.757900 0.000000
-16.715700 0.000000
-16.673500 0.000000
-16.631400 0.000000
-16.589200 0.000000
-16.547000 0.000000
-16.504800 0.000000
-16.462600 0.000000
-16.420400 0.000000
-16.378200 0.000000
-16.336000 0.000000
-16.293800 0.000000
-16.251600 0.000000
-16.209400 0.000000
-16.167200 0.000000
-16.125000 0.000000
-16.082800 0.000000
-16.040600 0.000000
-15.998400 0.000000
-15.956200 0.000000
-15.914000 0.000000
-15.871800 0.000000
-15.829600 0.000000
-15.787400 0.000000
-15.745200 0.000000
-15.703000 0.000000
-15.660800 0.000000
-15.618600 0.000000
-15.576400 0.000000
-15.534200 0.000000
-15.492000 0.000000
-15.449900 0.000000
-15.407700 0.000000
-15.365500 0.000000
-15.323300 0.000000
-15.281100 0.000000
-15.238900 0.000000
-15.196700 0.000000
-15.154500 0.000000
-15.112300 0.000000
-15.070100 0.000000
-15.027900 0.000000
-14.985700 0.000000
-14.943500 0.000000
-14.901300 0.000000
-14.859100 0.000000
-14.816900 0.000000
-14.774700 0.000000
-14.732500 0.000000
-14.690300 0.000000
-14.648100 0.000000
-14.605900 0.000000
-14.563700 0.000000
-14.521500 0.000000
-14.479300 0.000000
-14.437100 0.000000
-14.394900 0.000000
-14.352700 0.000000
-14.310500 0.000000
-14.268300 0.000000
-14.226200 0.000000
-14.184000 0.000000
-14.141800 0.000000
-14.099600 0.000000
-14.057400 0.000000
-14.015200 0.000000
-13.973000 0.000000
-13.930800 0.000000
-13.888600 0.000000
-13.846400 0.000000
-13.804200 0.000000
-13.762000 0.000000
-13.719800 0.000000
-13.677600 0.000000
-13.635400 0.000000
-13.593200 0.000000
-13.551000 0.000000
-13.508800 0.000000
-13.466600 0.000000
-13.424400 0.000000
-13.382200 0.000000
-13.340000 0.000000
-13.297800 0.000000
-13.255600 0.000000
-13.213400 0.000000
-13.171200 0.000000
-13.129000 0.000000
-13.086800 0.000000
-13.044700 0.000000
-13.002500 0.000000
-12.960300 0.000000
-12.918100 0.000000
-12.875900 0.000000
-12.833700 0.000000
-12.791500 0.000000
-12.749300 0.000000
-12.707100 0.000000
-12.664900 0.000000
-12.622700 0.000000
-12.580500 0.000000
-12.538300 0.000000
-12.496100 0.000000
-12.453900 0.000000
-12.411700 0.000000
-12.369500 0.000000
-12.327300 0.000000
-12.285100 0.000000
-12.242900 0.000000
-12.200700 0.000000
-12.158500 0.000000
-12.116300 0.000000
-12.074100 0.000000
-12.031900 0.000000
-11.989700 0.000000
-11.947500 0.000000
-11.905300 0.000000
-11.863100 0.000000
-11.821000 0.000000
-11.778800 0.000000
-11.736600 0.000000
-11.694400 0.000000
-11.652200 0.000000
-11.610000 0.000000
-11.567800 0.000000
-11.525600 0.000000
-11.483400 0.000000
-11.441200 0.000000
-11.399000 0.000000
-11.356800 0.000000
-11.314600 0.000000
-11.272400 0.000000
-11.230200 0.000000
-11.188000 0.000000
-11.145800 0.000000
-11.103600 0.000000
-11.061400 0.000000
-11.019200 0.000000
-10.977000 0.000000
-10.934800 0.000000
-10.892600 0.000000
-10.850400 0.000000
-10.808200 0.000000
-10.766000 0.000000
-10.723800 0.000000
-10.681600 0.000000
-10.639500 0.000000
-10.597300 0.000000
-10.555100 0.000000
-10.512900 0.000000
-10.470700 0.000000
-10.428500 0.000000
-10.386300 0.000000
-10.344100 0.000000
-10.301900 0.000000
-10.259700 0.000000
-10.217500 0.000000
-10.175300 0.000000
-10.133100 0.000000
-10.090900 0.000000
-10.048700 0.000000
-10.006500 0.000000
-9.964300 0.000000
-9.922100 0.000000
-9.879900 0.000000
-9.837700 0.000000
-9.795500 0.000000
-9.753300 0.000000
-9.711100 0.000000
-9.668900 0.000000
-9.626700 0.000000
-9.584500 0.000000
-9.542300 0.000000
-9.500100 0.000000
-9.457900 0.000000
-9.415800 0.000000
-9.373600 0.000000
-9.331400 0.000000
-9.289200 0.000000
-9.247000 0.000000
-9.204800 0.000000
-9.162600 0.000000
-9.120400 0.000000
-9.078200 0.000000
-9.036000 0.000000
-8.993800 0.000000
-8.951600 0.000000
-8.909400 0.000000
-8.867200 0.000000
-8.825000 0.000000
-8.782800 0.000000
-8.740600 0.000000
-8.698400 0.000000
-8.656200 0.000000
-8.614000 0.000000
-8.571800 0.000000
-8.529600 0.000000
-8.487400 0.000000
-8.445200 0.000000
-8.403000 0.000000
-8.360800 0.000000
-8.318600 0.000000
-8.276400 0.000000
-8.234300 0.000000
-8.192100 0.000000
-8.149900 0.000000
-8.107700 0.000000
-8.065500 0.000000
-8.023300 0.000000
-7.981100 0.000000
-7.938900 0.000000
-7.896700 0.000000
-7.854500 0.000000
-7.812300 0.000000
-7.770100 0.000000
-7.727900 0.000000
-7.685700 0.000000
-7.643500 0.000000
-7.601300 0.000000
-7.559100 0.000000
-7.516900 0.000000
-7.474700 0.000000
-7.432500 0.000000
-7.390300 0.000000
-7.348100 0.000000
-7.305900 0.000000
-7.263700 0.000000
-7.221500 0.000000
-7.179300 0.000000
-7.137100 0.000000
-7.094900 0.000000
-7.052700 0.000000
-7.010600 0.000000
-6.968400 0.000000
-6.926200 0.000000
-6.884000 0.000000
-6.841800 0.000000
-6.799600 0.000000
-6.757400 0.000000
-6.715200 0.000000
-6.673000 0.000000
-6.630800 0.000000
-6.588600 0.000000
-6.546400 0.000000
-6.504200 0.000000
-6.462000 0.000000
-6.419800 0.000000
-6.377600 0.000000
-6.335400 0.000000
-6.293200 0.000000
-6.251000 0.000000
-6.208800 0.000000
-6.166600 1.464800
-6.124400 1.376200
-6.082200 1.287700
-6.040000 1.234900
-5.997800 1.330300
-5.955600 1.425700
-5.913400 1.521100
-5.871200 1.616500
-5.829000 1.711900
-5.786900 1.807300
-5.744700 1.902700
-5.702500 1.998100
-5.660300 8.152100
-5.618100 7.682200
-5.575900 9.282500
-5.533700 1.920900
-5.491500 0.616100
-5.449300 0.424600
-5.407100 0.831400
-5.364900 1.238200
-5.322700 2.857500
-5.280500 3.661100
-5.238300 4.415800
-5.196100 4.834500
-5.153900 6.622800
-5.111700 5.833700
-5.069500 5.090500
-5.027300 4.615700
-4.985100 4.141000
-4.942900 3.666200
-4.900700 3.191500
-4.858500 2.883200
-4.816300 2.618300
-4.774100 2.512800
-4.731900 2.407300
-4.689700 2.301900
-4.647500 1.738500
-4.605400 1.877200
-4.563200 2.320100
-4.521000 2.113100
-4.478800 1.906000
-4.436600 5.420400
-4.394400 2.271000
-4.352200 2.070000
-4.310000 1.868900
-4.267800 1.667900
-4.225600 1.466900
-4.183400 1.265800
-4.141200 1.064800
-4.099000 0.863700
-4.056800 0.662700
-4.014600 0.461600
-3.972400 0.403600
-3.930200 0.673600
-3.888000 1.085100
-3.845800 1.556100
-3.803600 2.027200
-3.761400 2.498300
-3.719200 5.748900
-3.677000 8.598900
-3.634800 6.578900
-3.592600 4.558500
-3.550400 2.065400
-3.508200 0.448600
-3.466000 4.163800
-3.423800 5.199800
-3.381700 12.941300
-3.339500 2.840100
-3.297300 2.911000
-3.255100 2.981900
-3.212900 3.052800
-3.170700 3.123700
-3.128500 3.134000
-3.086300 2.118900
-3.044100 1.723700
-3.001900 1.328500
-2.959700 1.276800
-2.917500 1.193200
-2.875300 1.109600
-2.833100 1.026100
-2.790900 0.942500
-2.748700 0.859000
-2.706500 0.775500
-2.664300 2.530100
-2.622100 2.009400
-2.579900 1.717300
-2.537700 2.296300
-2.495500 2.898000
-2.453300 3.522500
-2.411100 2.561800
-2.368900 2.402300
-2.326700 2.242800
-2.284500 2.083300
-2.242300 1.923800
-2.200200 1.764200
-2.158000 2.667500
-2.115800 5.088700
-2.073600 3.809400
-2.031400 3.374200
-1.989200 3.627900
-1.947000 3.598100
-1.904800 1.539800
-1.862600 0.000000
-1.820400 0.000000
-1.778200 0.000000
-1.736000 0.000000
-1.693800 0.000000
-1.651600 0.000000
-1.609400 0.000000
-1.567200 0.000000
-1.525000 0.000000
-1.482800 0.000000
-1.440600 0.000000
-1.398400 0.000000
-1.356200 0.000000
-1.314000 0.000000
-1.271800 0.000000
-1.229600 0.000000
-1.187400 0.000000
-1.145200 0.000000
-1.103000 0.000000
-1.060800 0.000000
-1.018600 0.000000
-0.976500 0.000000
-0.934300 0.000000
-0.892100 0.000000
-0.849900 0.000000
-0.807700 0.000000
-0.765500 0.000000
-0.723300 0.000000
-0.681100 0.000000
-0.638900 0.000000
-0.596700 0.000000
-0.554500 0.000000
-0.512300 0.000000
-0.470100 0.000000
-0.427900 0.000000
-0.385700 0.000000
-0.343500 0.000000
-0.301300 0.000000
-0.259100 0.000000
-0.216900 0.000000
-0.174700 0.000000
-0.132500 0.000000
-0.090300 0.000000
-0.048100 0.000000
-0.005900 0.000000
0.036300 0.000000
0.078500 0.000000
0.120700 0.000000
0.162900 0.000000
0.205000 0.000000
0.247200 0.000000
0.289400 0.000000
0.331600 0.000000
0.373800 0.000000
0.416000 0.000000
0.458200 0.000000
0.500400 0.000000
0.542600 0.000000
0.584800 0.000000
0.627000 0.000000
0.669200 0.000000
0.711400 0.000000
0.753600 0.103200
0.795800 0.360300
0.838000 0.617400
0.880200 0.874500
0.922400 1.131600
0.964600 1.166800
1.006800 1.172100
1.049000 7.215900
1.091200 5.654400
1.133400 6.150500
1.175600 6.482500
1.217800 5.870700
1.260000 5.258900
1.302200 4.647200
1.344400 4.180200
1.386600 0.939300
1.428700 0.957300
1.470900 1.098700
1.513100 1.240500
1.555300 1.382300
1.597500 1.524100
1.639700 1.665900
1.681900 2.028900
1.724100 3.533900
1.766300 5.038800
1.808500 9.224700
1.850700 9.676600
1.892900 11.576200
1.935100 6.269100
1.977300 5.227000
2.019500 2.215100
2.061700 1.983200
2.103900 1.864800
2.146100 1.766500
2.188300 1.647600
2.230500 1.528700
2.272700 1.409800
2.314900 1.290900
2.357100 2.458100
2.399300 0.994500
2.441500 0.000000
2.483700 0.000000
2.525900 0.000000
2.568100 0.000000
2.610200 0.000000
2.652400 0.000000
2.694600 0.000000
2.736800 0.000000
2.779000 0.000000
2.821200 0.000000
2.863400 0.000000
2.905600 0.000000
2.947800 0.000000
2.990000 0.000000
3.032200 0.000000
3.074400 0.000000
3.116600 0.000000
3.158800 0.000000
3.201000 0.000000
3.243200 0.000000
3.285400 0.000000
3.327600 0.000000
3.369800 0.000000
3.412000 0.000000
3.454200 0.000000
3.496400 0.000000
3.538600 0.000000
3.580800 0.000000
3.623000 0.000000
3.665200 0.000000
3.707400 0.000000
3.749600 0.000000
3.791800 0.000000
3.833900 0.000000
3.876100 0.090000
3.918300 0.749900
3.960500 2.034200
4.002700 3.410400
4.044900 4.489600
4.087100 5.662300
4.129300 4.989300
4.171500 5.721500
4.213700 8.156100
4.255900 7.790200
4.298100 2.040100
4.340300 3.157300
4.382500 4.445400
4.424700 6.893300
4.466900 4.807600
4.509100 4.519700
4.551300 4.662500
4.593500 4.805200
4.635700 4.947800
4.677900 3.860900
4.720100 2.497700
4.762300 2.116300
4.804500 1.277000
4.846700 0.437700
4.888900 0.000000
4.931100 0.000000
4.973300 0.000000
5.015400 0.000000
5.057600 0.000000
5.099800 0.000000
5.142000 0.001800
5.184200 0.007600
5.226400 0.016500
5.268600 0.026800
5.310800 0.038400
5.353000 0.051400
5.395200 0.065800
5.437400 0.081500
5.479600 0.098500
5.521800 0.116500
5.564000 0.135700
5.606200 0.155900
5.648400 0.177100
5.690600 0.199500
5.732800 0.198500
5.775000 0.199500
5.817200 0.209700
5.859400 0.222600
5.901600 0.235000
5.943800 0.246900
5.986000 0.258200
6.028200 0.269000
6.070400 0.279100
6.112600 0.288400
6.154800 0.296800
6.197000 0.304200
6.239100 0.310600
6.281300 0.316000
6.323500 0.317400
6.365700 0.308000
6.407900 0.313300
6.450100 0.318700
6.492300 0.324000
6.534500 0.329400
6.576700 0.334700
6.618900 0.340100
6.661100 0.345400
6.703300 0.350800
6.745500 0.356100
6.787700 0.360800
6.829900 0.364200
6.872100 0.366800
6.914300 0.368800
6.956500 0.371400
6.998700 0.375900
7.040900 0.380100
7.083100 0.384100
7.125300 0.387600
7.167500 0.391200
7.209700 0.395900
7.251900 0.401500
7.294100 0.407900
7.336300 0.415200
7.378500 0.423400
7.420700 0.432600
7.462800 0.442600
7.505000 0.453700
7.547200 0.465600
7.589400 0.478000
7.631600 0.484200
7.673800 0.486500
7.716000 0.491700
7.758200 0.499000
7.800400 0.506600
7.842600 0.514300
7.884800 0.522200
7.927000 0.530300
7.969200 0.538600
8.011400 0.547000
8.053600 0.555500
8.095800 0.564300
8.138000 0.573400
8.180200 0.583000
8.222400 0.593100
8.264600 0.603700
8.306800 0.614700
8.349000 0.626100
8.391200 0.638100
8.433400 0.647900
8.475600 0.648600
8.517800 0.648000
8.560000 0.656200
8.602200 0.667100
8.644300 0.677800
8.686500 0.688000
8.728700 0.697900
8.770900 0.707400
8.813100 0.716500
8.855300 0.725100
8.897500 0.732400
8.939700 0.738300
8.981900 0.744300
9.024100 0.783300
9.066300 0.806100
9.108500 0.829000
9.150700 0.848500
9.192900 0.869400
9.235100 0.897500
9.277300 0.931800
9.319500 0.927200
9.361700 0.920900
9.403900 0.916300
9.446100 0.913500
9.488300 0.912400
9.530500 0.913000
9.572700 0.915200
9.614900 0.918500
9.657100 0.922800
9.699300 0.928000
9.741500 0.934200
9.783700 0.941300
9.825900 0.949500
9.868000 0.959200
9.910200 0.970600
9.952400 0.980500
9.994600 0.984300
10.036800 0.989100
10.079000 0.994900
10.121200 1.001600
10.163400 1.008500
10.205600 1.015100
10.247800 1.025700
10.290000 1.741600
10.332200 1.998400
10.374400 1.806900
10.416600 1.606800
10.458800 1.132000
10.501000 0.871100
10.543200 0.999000
10.585400 1.123800
10.627600 1.251100
10.669800 1.480100
10.712000 1.849900
10.754200 2.037500
10.796400 1.964400
10.838600 1.787000
10.880800 1.576300
10.923000 1.366900
10.965200 1.216000
11.007400 1.084200
11.049500 0.982000
11.091700 0.895400
11.133900 0.824000
11.176100 0.767700
11.218300 0.730600
11.260500 0.726500
11.302700 0.724300
11.344900 0.725900
11.387100 0.731600
11.429300 0.740700
11.471500 0.752500
11.513700 0.771400
11.555900 0.809500
11.598100 0.851000
11.640300 0.896000
11.682500 0.944500
11.724700 0.996500
11.766900 1.052200
11.809100 1.110900
11.851300 1.172800
11.893500 1.278600
11.935700 1.483100
11.977900 1.562000
12.020100 1.492800
12.062300 1.605300
12.104500 2.485300
12.146700 1.314900
12.188900 1.399600
12.231100 1.475500
12.273200 1.542600
12.315400 1.600300
12.357600 1.649500
12.399800 1.692600
12.442000 1.677300
12.484200 1.696700
12.526400 1.745200
12.568600 1.803300
12.610800 1.614600
12.653000 1.479400
12.695200 1.427400
12.737400 1.553600
12.779600 1.395900
12.821800 1.308800
12.864000 1.288400
12.906200 1.290500
12.948400 1.318800
12.990600 1.414900
13.032800 1.582300
13.075000 1.566400
13.117200 1.498700
13.159400 1.559500
13.201600 1.611700
13.243800 1.624000
13.286000 1.703500
13.328200 1.797900
13.370400 1.995500
13.412600 2.198900
13.454700 1.566800
13.496900 1.655800
13.539100 1.788800
13.581300 1.908700
13.623500 2.095100
13.665700 2.436500
13.707900 2.476400
13.750100 2.624700
13.792300 2.243800
13.834500 1.794200
13.876700 1.681800
13.918900 1.547900
13.961100 1.432700
14.003300 1.347100
14.045500 1.285800
14.087700 1.214600
14.129900 1.161400
14.172100 1.135400
14.214300 1.131000
14.256500 1.139400
14.298700 1.156300
14.340900 1.342700
14.383100 1.418500
14.425300 1.448000
14.467500 1.491000
14.509700 1.707500
14.551900 1.969000
14.594100 1.923100
14.636300 1.787900
14.678400 1.566200
14.720600 1.278200
14.762800 1.147200
14.805000 1.085100
14.847200 1.079000
14.889400 1.087000
14.931600 1.095400
14.973800 1.104200
15.016000 1.115500
15.058200 1.138500
15.100400 1.165800
15.142600 1.195800
15.184800 1.238700
15.227000 1.312300
15.269200 1.403600
15.311400 1.502100
15.353600 1.774200
15.395800 1.990300
15.438000 2.171800
15.480200 2.329000
15.522400 2.460200
15.564600 2.427300
15.606800 2.408700
15.649000 2.350800
15.691200 2.310500
15.733400 2.175000
15.775600 1.921200
15.817800 1.734700
15.859900 1.598000
15.902100 1.499200
15.944300 1.423000
15.986500 1.352000
16.028700 1.321700
16.070900 1.317800
16.113100 1.319000
16.155300 1.317600
16.197500 1.321400
16.239700 1.374800
16.281900 1.486500
16.324100 1.655600
16.366300 1.783300
16.408500 1.803000
16.450700 1.617100
16.492900 1.468700
16.535100 1.368900
16.577300 1.304000
16.619500 1.263000
16.661700 1.226000
16.703900 1.192900
16.746100 1.163200
16.788300 1.134700
16.830500 1.107200
16.872700 1.093900
16.914900 1.109400
16.957100 1.144600
16.999300 1.199500
17.041500 1.260900
17.083600 1.283200
17.125800 1.299100
17.168000 1.309500
17.210200 1.319900
17.252400 1.402100
17.294600 1.423300
17.336800 1.440200
17.379000 1.449500
17.421200 1.450200
17.463400 1.442200
17.505600 1.432800
17.547800 1.429000
17.590000 1.400500
17.632200 1.388600
17.674400 1.431700
17.716600 1.516700
17.758800 1.706200
17.801000 1.947600
17.843200 2.234000
17.885400 2.384800
17.927600 2.406500
17.969800 2.359700
18.012000 2.290300
18.054200 2.209200
18.096400 2.111400
18.138600 1.994500
18.180800 1.870700
18.223000 1.798700
18.265100 1.742100
18.307300 1.700700
18.349500 1.678400
18.391700 1.670400
18.433900 1.671800
18.476100 1.682700
18.518300 1.703600
18.560500 1.728500
18.602700 1.768700
18.644900 1.826400
18.687100 1.842200
18.729300 1.843800
18.771500 1.840600
18.813700 1.835000
18.855900 1.846500
18.898100 1.861100
18.940300 1.875900
18.982500 1.891200
19.024700 1.907200
19.066900 1.920800
19.109100 1.939000
19.151300 1.960300
19.193500 1.989000
19.235700 2.026700
19.277900 2.073200
19.320100 2.117200
19.362300 2.159600
19.404500 2.217300
19.446700 2.299400
19.488800 2.393600
19.531000 2.602500
19.573200 2.735700
19.615400 2.810300
19.657600 2.866800
19.699800 2.889200
19.742000 2.900200
19.784200 2.935100
19.826400 3.053400
19.868600 3.005100
19.910800 3.390400
19.953000 4.281700
19.995200 4.747700
20.037400 6.060700
20.079600 11.902600
20.121800 4.373600
20.164000 3.200200
20.206200 2.873500
20.248400 2.610100
20.290600 2.422400
20.332800 2.274900
20.375000 2.234100
20.417200 2.229200
20.459400 2.210300
20.501600 2.223100
20.543800 2.234600
20.586000 2.241700
20.628200 2.237500
20.670400 2.201700
20.712500 2.138600
20.754700 2.171400
20.796900 2.203100
20.839100 2.233800
20.881300 2.252400
20.923500 2.257200
20.965700 2.263800
21.007900 2.248100
21.050100 2.240900
21.092300 2.278900
21.134500 2.428600
21.176700 2.819400
21.218900 3.317500
21.261100 2.876800
21.303300 2.575100
21.345500 2.515000
21.387700 2.056400
21.429900 1.572800
21.472100 0.910500
21.514300 0.898300
21.556500 0.906300
21.598700 0.930500
21.640900 0.970500
21.683100 1.027000
21.725300 1.090700
21.767500 1.153000
21.809700 1.194200
21.851900 1.248200
21.894000 1.329000
21.936200 1.506700
21.978400 1.653300
22.020600 1.786000
22.062800 1.861700
22.105000 1.879200
22.147200 1.848400
22.189400 1.824200
22.231600 2.680300
22.273800 2.067200
22.316000 1.641400
22.358200 1.381900
22.400400 1.333800
22.442600 1.291900
22.484800 1.252900
22.527000 1.286100
22.569200 1.358300
22.611400 1.410700
22.653600 1.788000
22.695800 1.712200
22.738000 1.738700
22.780200 1.799800
22.822400 1.785700
22.864600 1.658700
22.906800 1.626100
22.949000 1.636300
22.991200 1.581400
23.033400 1.511600
23.075600 1.428500
23.117700 1.336900
23.159900 1.254400
23.202100 1.184500
23.244300 1.132900
23.286500 1.098900
23.328700 1.167400
23.370900 1.003600
23.413100 1.025400
23.455300 1.046700
23.497500 1.068100
23.539700 1.090700
23.581900 1.138400
23.624100 1.215000
23.666300 1.313200
23.708500 1.424400
23.750700 1.538300
23.792900 1.665600
23.835100 1.807700
23.877300 1.953600
23.919500 2.087900
23.961700 2.216100
24.003900 2.419700
24.046100 2.609000
24.088300 2.781400
24.130500 3.059800
24.172700 2.464000
24.214900 2.160500
24.257100 2.171200
24.299200 2.242200
24.341400 2.394300
24.383600 2.482700
24.425800 2.632400
24.468000 2.965900
24.510200 3.184100
24.552400 3.111700
24.594600 2.916200
24.636800 2.867100
24.679000 2.836000
24.721200 2.625800
24.763400 2.213100
24.805600 1.855400
24.847800 1.695000
24.890000 1.562100
24.932200 1.449400
24.974400 1.347500
25.016600 1.247000
25.058800 1.152400
25.101000 1.113000
25.143200 1.061000
25.185400 0.998900
25.227600 0.976000
25.269800 0.977300
25.312000 0.976000
25.354200 0.980400
25.396400 1.008700
25.438600 1.052800
25.480800 1.126500
25.522900 1.267900
25.565100 1.355800
25.607300 1.384900
25.649500 1.397100
25.691700 1.440600
25.733900 1.538300
25.776100 1.756100
25.818300 2.282000
25.860500 3.597800
25.902700 2.939700
25.944900 2.689300
25.987100 2.499800
26.029300 2.429400
26.071500 2.349400
26.113700 2.309700
26.155900 2.304600
26.198100 2.296900
26.240300 2.299900
26.282500 2.423300
26.324700 2.370900
26.366900 1.938800
26.409100 1.781800
26.451300 1.678500
26.493500 1.534000
26.535700 1.267000
26.577900 1.164400
26.620100 1.171700
26.662300 1.211400
26.704400 1.244300
26.746600 1.335800
26.788800 1.449400
26.831000 1.572000
26.873200 1.669500
26.915400 1.756800
26.957600 1.842300
26.999800 1.925400
27.042000 2.036700
27.084200 2.323900
27.126400 2.681900
27.168600 2.920100
27.210800 3.125800
27.253000 3.365500
27.295200 3.693100
27.337400 3.723700
27.379600 3.170200
27.421800 2.750400
27.464000 2.488600
27.506200 2.217600
27.548400 1.872800
27.590600 1.375800
27.632800 1.060200
27.675000 1.017800
27.717200 1.082500
27.759400 1.340200
27.801600 1.527300
27.843800 1.518600
27.886000 1.590700
27.928100 1.687700
27.970300 1.800300
28.012500 1.904300
28.054700 1.983800
28.096900 2.068900
28.139100 2.131400
28.181300 2.166600
28.223500 2.160000
28.265700 2.112400
28.307900 2.144200
28.350100 2.217800
28.392300 2.272000
28.434500 2.281600
28.476700 2.212000
28.518900 2.072300
28.561100 1.862600
28.603300 1.778000
28.645500 1.239600
28.687700 1.168200
28.729900 1.114800
28.772100 1.076300
28.814300 1.045300
28.856500 1.021500
28.898700 1.004200
28.940900 0.976500
28.983100 0.999800
29.025300 1.073700
29.067500 1.169500
29.109600 1.285700
29.151800 1.460800
29.194000 1.734300
29.236200 1.985700
29.278400 2.253400
29.320600 2.441800
29.362800 2.655600
29.405000 2.958700
29.447200 3.208800
29.489400 3.053200
29.531600 2.473900
29.573800 2.389300
29.616000 2.325400
29.658200 2.242700
29.700400 2.155500
29.742600 2.133100
29.784800 2.113000
29.827000 2.097800
29.869200 2.168800
29.911400 2.185400
29.953600 2.184300
29.995800 2.164800
30.038000 2.209000
30.080200 2.218200
30.122400 2.211700
30.164600 2.174800
30.206800 2.179600
30.249000 2.265100
30.291200 2.271400
30.333300 2.285300
30.375500 2.300500
30.417700 2.305600
30.459900 2.291900
30.502100 2.265100
30.544300 2.215700
30.586500 2.187000
30.628700 2.284700
30.670900 2.400000
30.713100 3.537200
30.755300 2.574300
30.797500 2.545200
30.839700 2.507900
30.881900 2.482200
30.924100 2.378800
30.966300 2.273600
31.008500 2.195000
31.050700 2.133600
31.092900 2.062500
31.135100 1.993500
31.177300 1.934600
31.219500 1.888900
31.261700 1.866000
31.303900 1.939100
31.346100 1.996100
31.388300 2.026100
31.430500 2.032800
31.472700 2.033600
31.514800 2.036200
31.557000 2.006700
31.599200 1.916900
31.641400 1.818200
31.683600 1.751300
31.725800 1.720800
31.768000 1.737300
31.810200 1.534600
31.852400 1.473100
31.894600 1.540900
31.936800 1.862300
31.979000 2.022100
32.021200 2.090200
32.063400 2.161700
32.105600 2.327900
32.147800 2.722300
32.190000 3.242700
32.232200 3.774600
32.274400 3.984400
32.316600 3.676100
32.358800 3.196200
32.401000 3.283900
32.443200 2.857100
32.485400 2.202800
32.527600 1.977500
32.569800 1.780000
32.612000 1.603200
32.654200 1.442600
32.696400 1.304700
32.738500 1.225000
32.780700 1.268100
32.822900 1.370800
32.865100 1.569400
32.907300 1.941800
32.949500 2.411200
32.991700 2.861500
33.033900 3.384000
33.076100 4.337200
33.118300 5.456900
33.160500 5.796000
33.202700 5.904500
33.244900 5.285900
33.287100 3.836000
33.329300 2.319700
33.371500 1.424000
33.413700 1.645700
33.455900 2.181400
33.498100 2.243900
33.540300 2.271800
33.582500 2.303600
33.624700 2.361400
33.666900 2.395200
33.709100 2.391400
33.751300 2.354500
33.793500 2.286400
33.835700 2.195400
33.877900 2.026700
33.920000 1.901700
33.962200 1.830900
34.004400 1.949100
34.046600 1.690100
34.088800 1.609200
34.131000 1.634200
34.173200 1.620600
34.215400 1.540500
34.257600 1.446600
34.299800 1.625900
34.342000 1.708500
34.384200 1.545400
34.426400 1.568600
34.468600 1.594200
34.510800 1.637600
34.553000 1.698900
34.595200 1.786500
34.637400 1.943400
34.679600 2.065300
34.721800 2.288000
34.764000 2.378600
34.806200 2.384700
34.848400 2.507300
34.890600 2.600400
34.932800 2.585200
34.975000 2.486400
35.017200 2.286900
35.059400 2.189500
35.101600 2.183200
35.143700 2.233300
35.185900 2.264800
35.228100 2.251700
35.270300 2.226900
35.312500 2.191300
35.354700 2.156200
35.396900 2.154000
35.439100 2.187800
35.481300 2.068700
35.523500 2.136700
35.565700 2.224400
35.607900 2.362700
35.650100 2.615300
35.692300 2.808900
35.734500 2.903800
35.776700 3.042000
35.818900 3.189200
35.861100 3.350100
35.903300 3.409600
35.945500 3.328200
35.987700 2.962500
36.029900 2.499300
36.072100 2.400700
36.114300 2.389000
36.156500 2.394700
36.198700 2.421700
36.240900 2.465000
36.283100 2.502700
36.325300 2.551000
36.367400 2.611800
36.409600 2.682700
36.451800 2.727900
36.494000 2.946600
36.536200 2.725800
36.578400 2.665300
36.620600 2.641400
36.662800 2.681000
36.705000 2.714600
36.747200 2.908200
36.789400 2.923600
36.831600 2.916900
36.873800 2.873300
36.916000 2.756900
36.958200 2.638300
37.000400 2.607500
37.042600 2.624100
37.084800 2.676900
37.127000 2.657800
37.169200 2.663300
37.211400 2.653500
37.253600 2.637100
37.295800 2.615600
37.338000 2.594100
37.380200 2.579500
37.422400 2.577500
37.464600 2.573700
37.506800 2.573900
37.548900 2.584100
37.591100 2.611100
37.633300 2.659900
37.675500 2.990700
37.717700 3.018800
37.759900 3.017400
37.802100 3.132700
37.844300 2.885900
37.886500 2.863900
37.928700 2.809600
37.970900 2.715700
38.013100 2.701900
38.055300 2.679200
38.097500 2.645500
38.139700 2.602800
38.181900 2.572700
38.224100 2.509600
38.266300 2.471700
38.308500 2.437700
38.350700 2.416600
38.392900 2.408100
38.435100 2.446200
38.477300 2.573700
38.519500 2.570600
38.561700 2.876700
38.603900 3.067400
38.646100 3.063600
38.688300 2.605400
38.730500 2.392200
38.772600 2.158700
38.814800 1.999600
38.857000 1.884100
38.899200 1.805400
38.941400 1.730600
38.983600 1.656000
39.025800 1.592300
39.068000 1.541300
39.110200 1.503100
39.152400 1.480600
39.194600 1.475900
39.236800 1.483200
39.279000 1.500000
39.321200 1.526100
39.363400 1.575700
39.405600 1.814400
39.447800 1.746700
39.490000 1.670900
39.532200 1.567300
39.574400 1.465500
39.616600 1.382000
39.658800 1.573000
39.701000 1.559500
39.743200 1.563000
39.785400 1.614700
39.827600 1.619200
39.869800 1.640000
39.912000 1.671500
39.954100 1.703600
39.996300 1.709900
40.038500 1.694900
40.080700 1.668300
40.122900 1.634400
40.165100 1.597600
40.207300 1.705900
40.249500 1.828200
40.291700 1.797100
40.333900 1.791800
40.376100 1.756200
40.418300 1.513800
40.460500 1.525000
40.502700 1.523100
40.544900 1.513500
40.587100 1.497500
40.629300 1.475000
40.671500 1.446200
40.713700 1.410800
40.755900 1.296900
40.798100 1.289500
40.840300 1.281000
40.882500 1.264300
40.924700 1.240900
40.966900 1.212800
41.009100 1.163000
41.051300 1.089200
41.093500 1.041100
41.135700 0.991100
41.177800 0.940000
41.220000 0.908300
41.262200 0.871400
41.304400 0.829400
41.346600 0.817000
41.388800 0.820200
41.431000 0.872500
41.473200 0.816600
41.515400 0.649000
41.557600 0.376400
41.599800 0.229100
41.642000 0.151900
41.684200 0.106100
41.726400 0.083800
41.768600 0.066600
41.810800 0.047300
41.853000 0.025800
41.895200 0.002300
41.937400 0.000000
41.979600 0.000000
42.021800 0.000000
42.064000 0.000000
42.106200 0.000000
42.148400 0.000000
42.190600 0.000000
42.232800 0.000000
42.275000 0.000000
42.317200 0.000000
42.359300 0.000000
42.401500 0.000000
42.443700 0.000000
42.485900 0.000000
42.528100 0.000000
42.570300 0.000000
42.612500 0.000000
42.654700 0.000000
42.696900 0.000000
42.739100 0.000000
42.781300 0.000000
42.823500 0.000000
42.865700 0.000000
42.907900 0.000000
42.950100 0.000000
42.992300 0.000000
43.034500 0.000000
43.076700 0.000000
43.118900 0.000000
43.161100 0.000000
43.203300 0.000000
43.245500 0.000000
43.287700 0.000000
43.329900 0.000000
43.372100 0.000000
43.414300 0.000000
43.456500 0.000000
43.498700 0.000000
43.540900 0.000000
43.583000 0.000000
43.625200 0.000000
43.667400 0.000000
43.709600 0.000000
43.751800 0.000000
43.794000 0.000000
43.836200 0.000000
43.878400 0.000000
43.920600 0.000000
43.962800 0.000000
44.005000 0.000000
44.047200 0.000000
44.089400 0.000000
44.131600 0.000000
44.173800 0.000000
44.216000 0.000000
44.258200 0.000000
44.300400 0.000000
44.342600 0.000000
44.384800 0.000000
44.427000 0.000000
44.469200 0.000000
44.511400 0.000000
44.553600 0.000000
44.595800 0.000000
44.638000 0.000000
44.680200 0.000000
44.722400 0.000000
44.764500 0.000000
44.806700 0.000000
44.848900 0.000000
44.891100 0.000000
44.933300 0.000000
44.975500 0.000000
45.017700 0.000000
45.059900 0.000000
45.102100 0.000000
45.144300 0.000000
45.186500 0.000000
45.228700 0.000000
45.270900 0.000000
45.313100 0.000000
45.355300 0.000000
45.397500 0.000000
45.439700 0.000000
45.481900 0.000000
45.524100 0.000000
45.566300 0.000000
45.608500 0.000000
45.650700 0.000000
45.692900 0.000000
45.735100 0.000000
e
