set title 'mp-762 - Density of States'
set xlabel 'Energy (eV)'
set ylabel 'DOS (states/eV)'
set grid
set xrange [-10:10]
set yrange [0:24.162]
set xzeroaxis lt -1
set terminal png size 800,600
set output 'mp-762_dos_gnuplot.png'
plot '-' using 1:2 with lines title 'DOS'
-12.747500 0.000000
-12.732500 0.000000
-12.717600 0.000000
-12.702700 0.000000
-12.687700 0.000000
-12.672800 0.000000
-12.657800 0.000000
-12.642900 0.000000
-12.628000 0.000000
-12.613000 0.000000
-12.598100 0.000000
-12.583200 0.000000
-12.568200 0.000000
-12.553300 0.000000
-12.538400 0.000000
-12.523400 0.000000
-12.508500 0.000000
-12.493600 0.000000
-12.478600 0.000000
-12.463700 0.000000
-12.448800 0.000000
-12.433800 0.000000
-12.418900 0.000000
-12.404000 0.000000
-12.389000 0.000000
-12.374100 0.000000
-12.359200 0.000000
-12.344200 0.000000
-12.329300 0.000000
-12.314400 0.000000
-12.299400 0.000000
-12.284500 0.000000
-12.269600 0.000000
-12.254600 0.000000
-12.239700 0.000000
-12.224800 0.000000
-12.209800 0.000000
-12.194900 0.000000
-12.180000 0.000000
-12.165000 0.000000
-12.150100 0.000000
-12.135200 0.000000
-12.120200 0.000000
-12.105300 0.000000
-12.090300 0.000000
-12.075400 0.000000
-12.060500 0.000000
-12.045500 0.000000
-12.030600 0.000000
-12.015700 0.000000
-12.000700 0.000000
-11.985800 0.000000
-11.970900 0.000000
-11.955900 0.000000
-11.941000 0.000000
-11.926100 0.000000
-11.911100 0.000000
-11.896200 0.000000
-11.881300 0.000000
-11.866300 0.000000
-11.851400 0.000000
-11.836500 0.000000
-11.821500 0.000000
-11.806600 0.000000
-11.791700 0.000000
-11.776700 0.000000
-11.761800 0.000000
-11.746900 0.000000
-11.731900 0.000000
-11.717000 0.000000
-11.702100 0.000000
-11.687100 0.000000
-11.672200 0.000000
-11.657300 0.000000
-11.642300 0.000000
-11.627400 0.000000
-11.612500 0.000000
-11.597500 0.000000
-11.582600 0.000000
-11.567600 0.000000
-11.552700 0.000000
-11.537800 0.000000
-11.522800 0.000000
-11.507900 0.000000
-11.493000 0.000000
-11.478000 0.000000
-11.463100 0.000000
-11.448200 0.000000
-11.433200 0.000000
-11.418300 0.000000
-11.403400 0.000000
-11.388400 0.001400
-11.373500 0.121700
-11.358600 0.354700
-11.343600 0.532500
-11.328700 0.625100
-11.313800 0.542300
-11.298800 0.576200
-11.283900 0.610000
-11.269000 0.636100
-11.254000 0.637700
-11.239100 0.617400
-11.224200 0.596600
-11.209200 0.590200
-11.194300 0.600800
-11.179400 0.613900
-11.164400 0.627000
-11.149500 0.640100
-11.134600 0.653200
-11.119600 0.646400
-11.104700 0.641000
-11.089800 0.629700
-11.074800 0.630100
-11.059900 0.630600
-11.045000 0.633500
-11.030000 0.638600
-11.015100 0.646200
-11.000100 0.654100
-10.985200 0.662000
-10.970300 0.669800
-10.955300 0.677300
-10.940400 0.679200
-10.925500 0.676300
-10.910500 0.671700
-10.895600 0.670800
-10.880700 0.674300
-10.865700 0.678700
-10.850800 0.683000
-10.835900 0.687400
-10.820900 0.691900
-10.806000 0.697100
-10.791100 0.702900
-10.776100 0.709200
-10.761200 0.715400
-10.746300 0.721700
-10.731300 0.728000
-10.716400 0.730400
-10.701500 0.732900
-10.686500 0.734900
-10.671600 0.738500
-10.656700 0.742700
-10.641700 0.747600
-10.626800 0.753400
-10.611900 0.759400
-10.596900 0.765300
-10.582000 0.771200
-10.567100 0.777200
-10.552100 0.783100
-10.537200 0.789300
-10.522300 0.795600
-10.507300 0.802200
-10.492400 0.808700
-10.477500 0.816200
-10.462500 0.824700
-10.447600 0.833800
-10.432600 0.842500
-10.417700 0.851100
-10.402800 0.859600
-10.387800 0.868200
-10.372900 0.876900
-10.358000 0.885800
-10.343000 0.894900
-10.328100 0.904000
-10.313200 0.913100
-10.298200 0.922200
-10.283300 0.931300
-10.268400 0.940400
-10.253400 0.949700
-10.238500 0.959300
-10.223600 0.975400
-10.208600 0.995400
-10.193700 1.019100
-10.178800 1.039100
-10.163800 1.058000
-10.148900 1.076400
-10.134000 1.094800
-10.119000 1.113200
-10.104100 1.132200
-10.089200 1.152300
-10.074200 1.172900
-10.059300 1.193500
-10.044400 1.214100
-10.029400 1.234700
-10.014500 1.255500
-9.999600 1.278100
-9.984600 1.313700
-9.969700 1.375000
-9.954800 1.448700
-9.939800 1.513300
-9.924900 1.580000
-9.909900 1.649200
-9.895000 1.722800
-9.880100 1.815400
-9.865100 1.920800
-9.850200 2.026200
-9.835300 2.154200
-9.820300 2.354100
-9.805400 2.569200
-9.790500 2.784300
-9.775500 4.506200
-9.760600 3.002000
-9.745700 2.604600
-9.730700 2.206700
-9.715800 1.966900
-9.700900 1.919800
-9.685900 1.872500
-9.671000 1.689300
-9.656100 1.581000
-9.641100 1.615800
-9.626200 1.679300
-9.611300 1.711300
-9.596300 1.536700
-9.581400 1.406800
-9.566500 1.329500
-9.551500 1.251900
-9.536600 1.514500
-9.521700 1.242400
-9.506700 0.327700
-9.491800 9.852900
-9.476900 11.299700
-9.461900 15.253800
-9.447000 18.253800
-9.432100 9.800500
-9.417100 7.371300
-9.402200 6.137900
-9.387300 5.313300
-9.372300 4.827400
-9.357400 4.420900
-9.342400 4.055500
-9.327500 3.813400
-9.312600 3.592600
-9.297600 3.403000
-9.282700 3.220100
-9.267800 3.098100
-9.252800 2.948400
-9.237900 2.867400
-9.223000 2.744500
-9.208000 1.977700
-9.193100 1.582700
-9.178200 1.247000
-9.163200 0.988000
-9.148300 0.623500
-9.133400 0.168800
-9.118400 0.000000
-9.103500 0.000000
-9.088600 0.000000
-9.073600 0.000000
-9.058700 0.000000
-9.043800 0.000000
-9.028800 0.000000
-9.013900 0.000000
-8.999000 0.000000
-8.984000 0.000000
-8.969100 0.000000
-8.954200 0.000000
-8.939200 0.000000
-8.924300 0.000000
-8.909400 0.000000
-8.894400 0.000000
-8.879500 0.000000
-8.864600 0.000000
-8.849600 0.000000
-8.834700 0.000000
-8.819800 0.000000
-8.804800 0.000000
-8.789900 0.000000
-8.774900 0.000000
-8.760000 0.000000
-8.745100 0.000000
-8.730100 0.000000
-8.715200 0.000000
-8.700300 0.000000
-8.685300 0.000000
-8.670400 0.000000
-8.655500 0.000000
-8.640500 0.000000
-8.625600 0.000000
-8.610700 0.000000
-8.595700 0.000000
-8.580800 0.000000
-8.565900 0.000000
-8.550900 0.000000
-8.536000 0.000000
-8.521100 0.000000
-8.506100 0.000000
-8.491200 0.000000
-8.476300 0.000000
-8.461300 0.000000
-8.446400 0.000000
-8.431500 0.000000
-8.416500 0.000000
-8.401600 0.000000
-8.386700 0.000000
-8.371700 0.000000
-8.356800 0.000000
-8.341900 0.000000
-8.326900 0.000000
-8.312000 0.000000
-8.297100 0.000000
-8.282100 0.000000
-8.267200 0.000000
-8.252200 0.000000
-8.237300 0.000000
-8.222400 0.000000
-8.207400 0.000000
-8.192500 0.000000
-8.177600 0.000000
-8.162600 0.000000
-8.147700 0.000000
-8.132800 0.000000
-8.117800 0.000000
-8.102900 0.000000
-8.088000 0.000000
-8.073000 0.000000
-8.058100 0.000000
-8.043200 0.000000
-8.028200 0.000000
-8.013300 0.000000
-7.998400 0.000000
-7.983400 0.000000
-7.968500 0.000000
-7.953600 0.000000
-7.938600 0.000000
-7.923700 0.000000
-7.908800 0.000000
-7.893800 0.000000
-7.878900 0.000000
-7.864000 0.000000
-7.849000 0.000000
-7.834100 0.000000
-7.819200 0.000000
-7.804200 0.000000
-7.789300 0.000000
-7.774400 0.000000
-7.759400 0.000000
-7.744500 0.000000
-7.729600 0.000000
-7.714600 0.000000
-7.699700 0.000000
-7.684700 0.000000
-7.669800 0.000000
-7.654900 0.000000
-7.639900 0.000000
-7.625000 0.000000
-7.610100 0.000000
-7.595100 0.000000
-7.580200 0.000000
-7.565300 0.000000
-7.550300 0.000000
-7.535400 0.000000
-7.520500 0.000000
-7.505500 0.000000
-7.490600 0.000000
-7.475700 0.000000
-7.460700 0.000000
-7.445800 0.000000
-7.430900 0.000000
-7.415900 0.000000
-7.401000 0.000000
-7.386100 0.000000
-7.371100 0.000000
-7.356200 0.000000
-7.341300 0.000000
-7.326300 0.000000
-7.311400 0.000000
-7.296500 0.000000
-7.281500 0.000000
-7.266600 0.000000
-7.251700 0.000000
-7.236700 0.000000
-7.221800 0.000000
-7.206900 0.000000
-7.191900 0.000000
-7.177000 0.000000
-7.162000 0.000000
-7.147100 0.000000
-7.132200 0.000000
-7.117200 0.000000
-7.102300 0.000000
-7.087400 0.000000
-7.072400 0.000000
-7.057500 0.000000
-7.042600 0.000000
-7.027600 0.000000
-7.012700 0.000000
-6.997800 0.000000
-6.982800 0.000000
-6.967900 0.000000
-6.953000 0.000000
-6.938000 0.000000
-6.923100 0.000000
-6.908200 0.000000
-6.893200 0.000000
-6.878300 0.000000
-6.863400 0.000000
-6.848400 0.000000
-6.833500 0.000000
-6.818600 0.000000
-6.803600 0.000000
-6.788700 0.000000
-6.773800 0.000000
-6.758800 0.000000
-6.743900 0.000000
-6.729000 0.000000
-6.714000 0.000000
-6.699100 0.000000
-6.684200 0.000000
-6.669200 0.000000
-6.654300 0.000000
-6.639400 0.000000
-6.624400 0.000000
-6.609500 0.000000
-6.594500 0.000000
-6.579600 0.000000
-6.564700 0.000000
-6.549700 0.000000
-6.534800 0.000000
-6.519900 0.000000
-6.504900 0.000000
-6.490000 0.000000
-6.475100 0.000000
-6.460100 0.000000
-6.445200 0.000000
-6.430300 0.000000
-6.415300 0.000000
-6.400400 0.000000
-6.385500 0.000000
-6.370500 0.000000
-6.355600 0.000000
-6.340700 0.000000
-6.325700 0.000000
-6.310800 0.000000
-6.295900 0.000000
-6.280900 0.000000
-6.266000 0.000000
-6.251100 0.000000
-6.236100 0.000000
-6.221200 0.000000
-6.206300 0.000000
-6.191300 0.000000
-6.176400 0.000000
-6.161500 0.000000
-6.146500 0.000000
-6.131600 0.000000
-6.116700 0.000000
-6.101700 0.000000
-6.086800 0.000000
-6.071900 0.000000
-6.056900 0.000000
-6.042000 0.000000
-6.027000 0.000000
-6.012100 0.000000
-5.997200 0.000000
-5.982200 0.000000
-5.967300 0.000000
-5.952400 0.000000
-5.937400 0.000000
-5.922500 0.000000
-5.907600 0.000000
-5.892600 0.000000
-5.877700 0.000000
-5.862800 0.000000
-5.847800 0.000000
-5.832900 0.000000
-5.818000 0.000000
-5.803000 0.000000
-5.788100 0.000000
-5.773200 0.000000
-5.758200 0.000000
-5.743300 0.000000
-5.728400 0.000000
-5.713400 0.000000
-5.698500 0.000000
-5.683600 0.000000
-5.668600 0.000000
-5.653700 0.000000
-5.638800 0.000000
-5.623800 0.000000
-5.608900 0.000000
-5.594000 0.000000
-5.579000 0.000000
-5.564100 0.000000
-5.549200 0.000000
-5.534200 0.000000
-5.519300 0.000000
-5.504300 0.000000
-5.489400 0.000000
-5.474500 0.000000
-5.459500 0.000000
-5.444600 0.000000
-5.429700 0.000000
-5.414700 0.000000
-5.399800 0.000000
-5.384900 0.000000
-5.369900 0.000000
-5.355000 0.000000
-5.340100 0.000000
-5.325100 0.000000
-5.310200 0.000000
-5.295300 0.000000
-5.280300 0.000000
-5.265400 0.000000
-5.250500 0.000000
-5.235500 0.000000
-5.220600 0.000000
-5.205700 0.000000
-5.190700 0.000000
-5.175800 0.000000
-5.160900 0.000000
-5.145900 0.000000
-5.131000 0.000000
-5.116100 0.000000
-5.101100 0.000000
-5.086200 0.000000
-5.071300 0.000000
-5.056300 0.000000
-5.041400 0.000000
-5.026500 0.000000
-5.011500 0.000000
-4.996600 0.000000
-4.981700 0.000000
-4.966700 0.000000
-4.951800 0.000000
-4.936800 0.000000
-4.921900 0.000000
-4.907000 0.000000
-4.892000 0.000000
-4.877100 0.000000
-4.862200 0.000000
-4.847200 0.000000
-4.832300 0.000000
-4.817400 0.000000
-4.802400 0.000000
-4.787500 0.000000
-4.772600 0.000000
-4.757600 0.000000
-4.742700 0.000000
-4.727800 0.000000
-4.712800 0.000000
-4.697900 0.000000
-4.683000 0.000000
-4.668000 0.000000
-4.653100 0.000000
-4.638200 0.000000
-4.623200 0.000000
-4.608300 0.000000
-4.593400 0.000000
-4.578400 0.000000
-4.563500 0.000000
-4.548600 0.000000
-4.533600 0.000000
-4.518700 0.000000
-4.503800 0.000000
-4.488800 0.000000
-4.473900 0.000000
-4.459000 0.000000
-4.444000 0.000000
-4.429100 0.000000
-4.414200 0.000000
-4.399200 0.000000
-4.384300 0.000000
-4.369300 0.000000
-4.354400 0.000000
-4.339500 0.000000
-4.324500 0.000000
-4.309600 0.000000
-4.294700 0.000000
-4.279700 0.000000
-4.264800 0.000000
-4.249900 0.000000
-4.234900 0.000000
-4.220000 0.000000
-4.205100 0.000000
-4.190100 0.000000
-4.175200 0.000000
-4.160300 0.000000
-4.145300 0.000000
-4.130400 0.000000
-4.115500 0.000000
-4.100500 0.000000
-4.085600 0.000000
-4.070700 0.000000
-4.055700 0.000000
-4.040800 0.000000
-4.025900 0.000000
-4.010900 0.000000
-3.996000 0.000000
-3.981100 0.000000
-3.966100 0.000000
-3.951200 0.000000
-3.936300 0.000000
-3.921300 0.000000
-3.906400 0.000000
-3.891500 0.000000
-3.876500 0.000000
-3.861600 0.000000
-3.846600 0.000000
-3.831700 0.000000
-3.816800 0.000000
-3.801800 0.000000
-3.786900 0.000000
-3.772000 0.000000
-3.757000 0.000000
-3.742100 0.000000
-3.727200 0.000000
-3.712200 0.007100
-3.697300 0.130600
-3.682400 0.364500
-3.667400 0.701600
-3.652500 1.004800
-3.637600 1.131200
-3.622600 1.110600
-3.607700 1.019100
-3.592800 0.968800
-3.577800 0.948800
-3.562900 0.964800
-3.548000 0.991400
-3.533000 1.024800
-3.518100 1.058300
-3.503200 1.091700
-3.488200 1.125200
-3.473300 1.142000
-3.458400 1.128400
-3.443400 1.106600
-3.428500 1.093700
-3.413600 1.098000
-3.398600 1.104600
-3.383700 1.107100
-3.368800 1.113000
-3.353800 1.129100
-3.338900 1.145500
-3.324000 1.163200
-3.309000 1.181800
-3.294100 1.201300
-3.279100 1.221500
-3.264200 1.241800
-3.249300 1.262100
-3.234300 1.282400
-3.219400 1.298600
-3.204500 1.317700
-3.189500 1.338200
-3.174600 1.364400
-3.159700 1.392300
-3.144700 1.420200
-3.129800 1.450800
-3.114900 1.500000
-3.099900 1.557100
-3.085000 1.615700
-3.070100 1.674900
-3.055100 1.734000
-3.040200 1.793100
-3.025300 1.852200
-3.010300 1.911700
-2.995400 1.973900
-2.980500 2.858200
-2.965500 1.926200
-2.950600 2.296400
-2.935700 2.089400
-2.920700 1.691100
-2.905800 1.666700
-2.890900 7.178100
-2.875900 6.422800
-2.861000 5.652900
-2.846100 5.753300
-2.831100 6.087400
-2.816200 5.724500
-2.801300 5.299400
-2.786300 5.028000
-2.771400 4.799400
-2.756500 4.567300
-2.741500 4.306700
-2.726600 3.694200
-2.711600 3.418300
-2.696700 3.155900
-2.681800 2.757300
-2.666800 2.465000
-2.651900 2.367000
-2.637000 2.033500
-2.622000 1.906400
-2.607100 1.815300
-2.592200 1.861100
-2.577200 1.930200
-2.562300 2.544900
-2.547400 4.566600
-2.532400 5.248200
-2.517500 5.824900
-2.502600 7.530400
-2.487600 9.744100
-2.472700 10.281500
-2.457800 10.027100
-2.442800 9.678400
-2.427900 7.593400
-2.413000 6.430800
-2.398000 6.128800
-2.383100 5.862800
-2.368200 5.810800
-2.353200 5.819000
-2.338300 5.418500
-2.323400 6.443600
-2.308400 5.830100
-2.293500 0.962600
-2.278600 0.994800
-2.263600 1.027100
-2.248700 1.060000
-2.233800 1.093300
-2.218800 1.199000
-2.203900 1.220900
-2.188900 1.245400
-2.174000 1.272500
-2.159100 1.302700
-2.144100 1.349200
-2.129200 1.414800
-2.114300 1.489200
-2.099300 1.577700
-2.084400 1.716900
-2.069500 2.052600
-2.054500 2.842000
-2.039600 3.712600
-2.024700 3.971300
-2.009700 4.739700
-1.994800 4.622000
-1.979900 4.211200
-1.964900 4.351900
-1.950000 4.146000
-1.935100 4.038900
-1.920100 3.819400
-1.905200 4.076600
-1.890300 3.949400
-1.875300 3.690700
-1.860400 2.890700
-1.845500 2.267100
-1.830500 2.101200
-1.815600 2.026100
-1.800700 1.949900
-1.785700 1.872000
-1.770800 1.791800
-1.755900 1.709600
-1.740900 1.625500
-1.726000 1.537500
-1.711100 1.448900
-1.696100 1.388000
-1.681200 1.352700
-1.666300 1.339800
-1.651300 1.329100
-1.636400 1.319700
-1.621400 1.310700
-1.606500 1.302100
-1.591600 1.292900
-1.576600 1.269700
-1.561700 1.283400
-1.546800 1.356900
-1.531800 1.341200
-1.516900 1.377900
-1.502000 1.443600
-1.487000 1.583500
-1.472100 1.821600
-1.457200 2.203600
-1.442200 2.299100
-1.427300 1.881500
-1.412400 1.389200
-1.397400 1.271200
-1.382500 1.433600
-1.367600 1.687800
-1.352600 1.944400
-1.337700 2.169600
-1.322800 2.389500
-1.307800 2.527100
-1.292900 2.601500
-1.278000 2.722900
-1.263000 2.793400
-1.248100 2.849700
-1.233200 2.950400
-1.218200 3.108400
-1.203300 3.395700
-1.188400 3.650700
-1.173400 3.555800
-1.158500 3.797600
-1.143600 4.252500
-1.128600 4.657500
-1.113700 4.488300
-1.098700 4.741100
-1.083800 5.183200
-1.068900 6.372200
-1.053900 7.392300
-1.039000 6.588500
-1.024100 5.620900
-1.009100 5.323700
-0.994200 5.196300
-0.979300 5.009400
-0.964300 4.822600
-0.949400 4.796800
-0.934500 4.781700
-0.919500 4.750100
-0.904600 4.875900
-0.889700 5.194600
-0.874700 5.518900
-0.859800 5.917100
-0.844900 5.313700
-0.829900 3.923700
-0.815000 2.928600
-0.800100 2.638400
-0.785100 2.601900
-0.770200 2.562500
-0.755300 2.497200
-0.740300 2.426100
-0.725400 2.370200
-0.710500 2.324800
-0.695500 2.347100
-0.680600 2.369300
-0.665700 2.392000
-0.650700 2.659300
-0.635800 3.109700
-0.620900 3.572200
-0.605900 3.796400
-0.591000 3.843400
-0.576100 3.880100
-0.561100 2.983600
-0.546200 2.855500
-0.531200 2.727400
-0.516300 2.733800
-0.501400 2.588400
-0.486400 2.486200
-0.471500 2.384500
-0.456600 2.188700
-0.441600 2.056700
-0.426700 1.978200
-0.411800 1.895600
-0.396800 2.085200
-0.381900 1.980300
-0.367000 1.875300
-0.352000 1.770400
-0.337100 1.895300
-0.322200 1.609900
-0.307200 1.615400
-0.292300 0.909300
-0.277400 0.645300
-0.262400 0.627900
-0.247500 0.610500
-0.232600 0.572000
-0.217600 0.506300
-0.202700 0.497900
-0.187800 0.489400
-0.172800 0.481000
-0.157900 0.472500
-0.143000 0.464100
-0.128000 0.455600
-0.113100 0.447200
-0.098200 0.438700
-0.083200 0.430300
-0.068300 0.421800
-0.053400 0.413400
-0.038400 0.404900
-0.023500 0.396500
-0.008600 0.388000
0.006400 0.379600
0.021300 0.371100
0.036300 0.362700
0.051200 0.354200
0.066100 0.347200
0.081100 0.369400
0.096000 0.547400
0.110900 0.819800
0.125900 1.092400
0.140800 1.365100
0.155700 1.117700
0.170700 1.108600
0.185600 1.099500
0.200500 1.090300
0.215500 1.090700
0.230400 1.166700
0.245300 1.242700
0.260300 1.318600
0.275200 1.394600
0.290100 1.451100
0.305100 1.457900
0.320000 1.542800
0.334900 2.830600
0.349900 2.608700
0.364800 2.718600
0.379700 3.758700
0.394700 5.349900
0.409600 4.844300
0.424500 5.560900
0.439500 8.605600
0.454400 14.166700
0.469300 17.435700
0.484300 21.965400
0.499200 13.284300
0.514100 7.324500
0.529100 5.482700
0.544000 3.487800
0.559000 3.043000
0.573900 2.734800
0.588800 2.658900
0.603800 2.571200
0.618700 2.479200
0.633600 2.386000
0.648600 2.289700
0.663500 2.190900
0.678400 2.084200
0.693400 1.960100
0.708300 1.836000
0.723200 1.739000
0.738200 1.661000
0.753100 1.632100
0.768000 1.613400
0.783000 1.591000
0.797900 1.565000
0.812800 1.532600
0.827800 1.496400
0.842700 1.478700
0.857600 1.478800
0.872600 1.502800
0.887500 1.609300
0.902400 1.682000
0.917400 1.679400
0.932300 1.646500
0.947200 1.624900
0.962200 1.606300
0.977100 1.591700
0.992000 1.587100
1.007000 1.586200
1.021900 1.592100
1.036800 1.605800
1.051800 1.630800
1.066700 1.664500
1.081600 1.706500
1.096600 1.751100
1.111500 1.786100
1.126500 1.829500
1.141400 1.883000
1.156300 1.943600
1.171300 2.013100
1.186200 2.110900
1.201100 2.214100
1.216100 2.315300
1.231000 2.425400
1.245900 2.555000
1.260900 2.708200
1.275800 2.896800
1.290700 3.205400
1.305700 3.414200
1.320600 3.614400
1.335500 3.835000
1.350500 4.102000
1.365400 4.298700
1.380300 4.189400
1.395300 4.009500
1.410200 3.859500
1.425100 3.703600
1.440100 3.514400
1.455000 3.384400
1.469900 3.295200
1.484900 3.236000
1.499800 3.164300
1.514700 3.087600
1.529700 3.065300
1.544600 2.856500
1.559500 2.729300
1.574500 2.644800
1.589400 2.624000
1.604300 2.909800
1.619300 2.504200
1.634200 2.407100
1.649100 2.333800
1.664100 2.335100
1.679000 2.337300
1.694000 2.336700
1.708900 2.334300
1.723800 2.334000
1.738800 2.337900
1.753700 2.337800
1.768600 2.346800
1.783600 2.407200
1.798500 2.490300
1.813400 2.558200
1.828400 2.612700
1.843300 2.702700
1.858200 2.850600
1.873200 3.035500
1.888100 3.170900
1.903000 3.205200
1.918000 3.290300
1.932900 3.333400
1.947800 3.373600
1.962800 3.425600
1.977700 3.480300
1.992600 3.567500
2.007600 3.626300
2.022500 3.612500
2.037400 3.530200
2.052400 3.637700
2.067300 3.804000
2.082200 3.992200
2.097200 4.346100
2.112100 4.357700
2.127000 4.104000
2.142000 3.916000
2.156900 3.722300
2.171800 3.643100
2.186800 3.605600
2.201700 3.596900
2.216700 3.683400
2.231600 3.695600
2.246500 3.743600
2.261500 3.751800
2.276400 3.863800
2.291300 3.965600
2.306300 4.542300
2.321200 5.817100
2.336100 6.033800
2.351100 7.513400
2.366000 7.579600
2.380900 1.843100
2.395900 1.776400
2.410800 1.756500
2.425700 1.746600
2.440700 1.746900
2.455600 1.770900
2.470500 1.778700
2.485500 1.762900
2.500400 1.818800
2.515300 1.809700
2.530300 1.808200
2.545200 1.821100
2.560100 1.846200
2.575100 1.881200
2.590000 1.927100
2.604900 2.019600
2.619900 2.169700
2.634800 2.424200
2.649700 3.004700
2.664700 3.167900
2.679600 3.398300
2.694500 3.571400
2.709500 3.352100
2.724400 1.964200
2.739300 0.862100
2.754300 0.000000
2.769200 0.000000
2.784200 0.000000
2.799100 0.000000
2.814000 0.000000
2.829000 0.000000
2.843900 0.000000
2.858800 0.000000
2.873800 0.000000
2.888700 0.000000
2.903600 0.000000
2.918600 0.000000
2.933500 0.000000
2.948400 0.000000
2.963400 0.000000
2.978300 0.000000
2.993200 0.000000
3.008200 0.000000
3.023100 0.000000
3.038000 0.000000
3.053000 0.000000
3.067900 0.000000
3.082800 0.000000
3.097800 0.000000
3.112700 0.000000
3.127600 0.000000
3.142600 0.000000
3.157500 0.000000
3.172400 0.000000
3.187400 0.000000
3.202300 0.000000
3.217200 0.000000
3.232200 0.000000
3.247100 0.000000
3.262000 0.000000
3.277000 0.000000
3.291900 0.000000
3.306800 0.000000
3.321800 0.000000
3.336700 0.000000
3.351700 0.000000
3.366600 0.000000
3.381500 0.000000
3.396500 0.000000
3.411400 0.000000
3.426300 0.000000
3.441300 0.000000
3.456200 0.000000
3.471100 0.000000
3.486100 0.000000
3.501000 0.000000
3.515900 0.000000
3.530900 0.000000
3.545800 0.000000
3.560700 0.000000
3.575700 0.000000
3.590600 0.000000
3.605500 0.000000
3.620500 0.000000
3.635400 0.000000
3.650300 0.000000
3.665300 0.000000
3.680200 0.000000
3.695100 0.000000
3.710100 0.000000
3.725000 0.000000
3.739900 0.000000
3.754900 0.000000
3.769800 0.000000
3.784700 0.000000
3.799700 0.000000
3.814600 0.000000
3.829500 0.000000
3.844500 0.000000
3.859400 0.000000
3.874400 0.000000
3.889300 0.000000
3.904200 0.000000
3.919200 0.000000
3.934100 0.000000
3.949000 0.000000
3.964000 0.000000
3.978900 0.000000
3.993800 0.000000
4.008800 0.000000
4.023700 0.000000
4.038600 0.000000
4.053600 0.000000
4.068500 0.000000
4.083400 0.000000
4.098400 0.000000
4.113300 0.000000
4.128200 0.000000
4.143200 0.000000
4.158100 0.000000
4.173000 0.000000
4.188000 0.000000
4.202900 0.000000
4.217800 0.006700
4.232800 0.184500
4.247700 0.309600
4.262600 0.271000
4.277600 0.327200
4.292500 0.349000
4.307400 0.396300
4.322400 0.447500
4.337300 0.500700
4.352200 0.555100
4.367200 0.613900
4.382100 0.677400
4.397000 0.757400
4.412000 1.288800
4.426900 1.467400
4.441900 1.710800
4.456800 2.025200
4.471700 2.417500
4.486700 2.635300
4.501600 2.852300
4.516500 2.989600
4.531500 3.048800
4.546400 3.104400
4.561300 3.164100
4.576300 3.251200
4.591200 3.365800
4.606100 3.481600
4.621100 3.565900
4.636000 3.598900
4.650900 3.664300
4.665900 3.706800
4.680800 3.675700
4.695700 3.520500
4.710700 3.282400
4.725600 3.029600
4.740500 2.881000
4.755500 2.787200
4.770400 2.779600
4.785300 2.749200
4.800300 2.584400
4.815200 2.388000
4.830100 2.371800
4.845100 2.365700
4.860000 2.354100
4.874900 2.333200
4.889900 2.336600
4.904800 2.411500
4.919700 2.540100
4.934700 2.734500
4.949600 2.965600
4.964600 3.091300
4.979500 3.123300
4.994400 3.199300
5.009400 3.291000
5.024300 3.381700
5.039200 3.481300
5.054200 3.612300
5.069100 3.801600
5.084000 4.049500
5.099000 4.293800
5.113900 4.569100
5.128800 5.124700
5.143800 5.875900
5.158700 5.902200
5.173600 5.494700
5.188600 4.846300
5.203500 4.629300
5.218400 4.518200
5.233400 4.538900
5.248300 4.600700
5.263200 4.679700
5.278200 4.728200
5.293100 4.651400
5.308000 4.653700
5.323000 4.577300
5.337900 4.415800
5.352800 4.286500
5.367800 4.151300
5.382700 3.977800
5.397600 3.880500
5.412600 3.261500
5.427500 2.821700
5.442400 2.632600
5.457400 2.466700
5.472300 2.316100
5.487200 2.144200
5.502200 1.795200
5.517100 1.532900
5.532100 1.310600
5.547000 1.126900
5.561900 0.977400
5.576900 0.870900
5.591800 0.786200
5.606700 0.680500
5.621700 0.658700
5.636600 0.611500
5.651500 0.564400
5.666500 0.517400
5.681400 0.470500
5.696300 0.510400
5.711300 0.486400
5.726200 0.413300
5.741100 0.340300
5.756100 0.200100
5.771000 0.091500
5.785900 0.019600
5.800900 0.000000
5.815800 0.000000
5.830700 0.000000
5.845700 0.000000
5.860600 0.000000
5.875500 0.000000
5.890500 0.000000
5.905400 0.000000
5.920300 0.000000
5.935300 0.000000
5.950200 0.000000
5.965100 0.000000
5.980100 0.000000
5.995000 0.000000
6.009900 0.000000
6.024900 0.000000
6.039800 0.000000
6.054700 0.000000
6.069700 0.000000
6.084600 0.000000
6.099600 0.000000
6.114500 0.000000
6.129400 0.000000
6.144400 0.000000
6.159300 0.000000
6.174200 0.000000
6.189200 0.000000
6.204100 0.000000
6.219000 0.000000
6.234000 0.000000
6.248900 0.000000
6.263800 0.000000
6.278800 0.000000
6.293700 0.000000
6.308600 0.000000
6.323600 0.000000
6.338500 0.000000
6.353400 0.000000
6.368400 0.000000
6.383300 0.000000
6.398200 0.000000
6.413200 0.000000
6.428100 0.000000
6.443000 0.000000
6.458000 0.000000
6.472900 0.000000
6.487800 0.000000
6.502800 0.000000
6.517700 0.000000
6.532600 0.000000
6.547600 0.000000
6.562500 0.000000
6.577400 0.000000
6.592400 0.000000
6.607300 0.000000
6.622300 0.000000
6.637200 0.000000
6.652100 0.000000
6.667100 0.000000
6.682000 0.000000
6.696900 0.000000
6.711900 0.000000
6.726800 0.000000
6.741700 0.000000
6.756700 0.000000
6.771600 0.000000
6.786500 0.000000
6.801500 0.000000
6.816400 0.000000
6.831300 0.000000
6.846300 0.000000
6.861200 0.000000
6.876100 0.000000
6.891100 0.000000
6.906000 0.000000
6.920900 0.000000
6.935900 0.000000
6.950800 0.000000
6.965700 0.000000
6.980700 0.000000
6.995600 0.000000
7.010500 0.000000
7.025500 0.000000
7.040400 0.000000
7.055300 0.000000
7.070300 0.000000
7.085200 0.000000
7.100100 0.000000
7.115100 0.000000
7.130000 0.000000
7.144900 0.000000
7.159900 0.000000
7.174800 0.000000
7.189800 0.000000
7.204700 0.000000
7.219600 0.000000
7.234600 0.000000
7.249500 0.000000
7.264400 0.000000
7.279400 0.000000
7.294300 0.000000
7.309200 0.000000
7.324200 0.000000
7.339100 0.000000
7.354000 0.000000
7.369000 0.000000
7.383900 0.000000
7.398800 0.000000
7.413800 0.000000
7.428700 0.000000
7.443600 0.000000
7.458600 0.000000
7.473500 0.000000
7.488400 0.000000
7.503400 0.000000
7.518300 0.000000
7.533200 0.000000
7.548200 0.000000
7.563100 0.000000
7.578000 0.000000
7.593000 0.000000
7.607900 0.000000
7.622800 0.000000
7.637800 0.000000
7.652700 0.000000
7.667600 0.000000
7.682600 0.000000
7.697500 0.000000
7.712400 0.000000
7.727400 0.000000
7.742300 0.000000
7.757300 0.000000
7.772200 0.000000
7.787100 0.000000
7.802100 0.000000
7.817000 0.000000
7.831900 0.000000
7.846900 0.000000
7.861800 0.000000
7.876700 0.000000
7.891700 0.000000
7.906600 0.000000
7.921500 0.000000
7.936500 0.000000
7.951400 0.000000
7.966300 0.014700
7.981300 0.064200
7.996200 0.138100
8.011100 0.227400
8.026100 0.326500
8.041000 0.450300
8.055900 0.533200
8.070900 0.603900
8.085800 0.647300
8.100700 0.665100
8.115700 0.686800
8.130600 0.701500
8.145500 0.710000
8.160500 0.740600
8.175400 0.776700
8.190300 0.818000
8.205300 0.866300
8.220200 0.918500
8.235100 0.971400
8.250100 1.030800
8.265000 1.107900
8.280000 1.137600
8.294900 1.151900
8.309800 1.149400
8.324800 1.125600
8.339700 1.097000
8.354600 1.085300
8.369600 1.082200
8.384500 1.084100
8.399400 1.085000
8.414400 1.085600
8.429300 1.086900
8.444200 1.088200
8.459200 1.085200
8.474100 1.077500
8.489000 1.075000
8.504000 1.080000
8.518900 1.083900
8.533800 1.087100
8.548800 1.091600
8.563700 1.097800
8.578600 1.104200
8.593600 1.110300
8.608500 1.116200
8.623400 1.122600
8.638400 1.129400
8.653300 1.138700
8.668200 1.150500
8.683200 1.163000
8.698100 1.174900
8.713000 1.184500
8.728000 1.192800
8.742900 1.204000
8.757800 1.221100
8.772800 1.243000
8.787700 1.269900
8.802600 1.292100
8.817600 1.310800
8.832500 1.324300
8.847500 1.340200
8.862400 1.355600
8.877300 1.367900
8.892300 1.385200
8.907200 1.402500
8.922100 1.419800
8.937100 1.437000
8.952000 1.454200
8.966900 1.473300
8.981900 1.513000
8.996800 1.584500
9.011700 1.651000
9.026700 1.721100
9.041600 1.796600
9.056500 1.876400
9.071500 2.135000
9.086400 2.193200
9.101300 2.118400
9.116300 1.935100
9.131200 1.885900
9.146100 1.887300
9.161100 1.888500
9.176000 1.887700
9.190900 1.894400
9.205900 1.927500
9.220800 2.029600
9.235700 1.956800
9.250700 1.935600
9.265600 1.940600
9.280500 1.954400
9.295500 1.967300
9.310400 2.003800
9.325300 2.057000
9.340300 1.980000
9.355200 1.914200
9.370100 1.874500
9.385100 1.861900
9.400000 1.741700
9.415000 1.647500
9.429900 1.598400
9.444800 1.579100
9.459800 1.601400
9.474700 1.662200
9.489600 1.788200
9.504600 1.968300
9.519500 1.854300
9.534400 1.712000
9.549400 1.647000
9.564300 1.623500
9.579200 1.493300
9.594200 1.365000
9.609100 1.340200
9.624000 1.294900
9.639000 1.241800
9.653900 1.199000
9.668800 1.162000
9.683800 1.130600
9.698700 1.101300
9.713600 1.077100
9.728600 1.058700
9.743500 1.043700
9.758400 1.030100
9.773400 1.030500
9.788300 1.042700
9.803200 1.055500
9.818200 1.068300
9.833100 1.083500
9.848000 1.103600
9.863000 1.116400
9.877900 1.114000
9.892800 1.118000
9.907800 1.128300
9.922700 1.141800
9.937700 1.158200
9.952600 1.180600
9.967500 1.215400
9.982500 1.260300
9.997400 1.315400
10.012300 1.377800
10.027300 1.450900
10.042200 1.551000
10.057100 1.668100
10.072100 1.783800
10.087000 1.955100
10.101900 2.153800
10.116900 2.280200
10.131800 2.364600
10.146700 2.458800
10.161700 2.567700
10.176600 2.628000
10.191500 2.732700
10.206500 2.737000
10.221400 2.569700
10.236300 2.373500
10.251300 2.183000
10.266200 2.061700
10.281100 1.980900
10.296100 1.932300
10.311000 1.908300
10.325900 1.891100
10.340900 1.874800
10.355800 1.864900
10.370700 1.854700
10.385700 1.836700
10.400600 1.816900
10.415500 1.809200
10.430500 1.800000
10.445400 1.711600
10.460300 1.667700
10.475300 1.628700
10.490200 1.591900
10.505200 1.557100
10.520100 1.523600
10.535000 1.490700
10.550000 1.455400
10.564900 1.436000
10.579800 1.425000
10.594800 1.417000
10.609700 1.435500
10.624600 1.415900
10.639600 1.399600
10.654500 1.384600
10.669400 1.371500
10.684400 1.359900
10.699300 1.348300
10.714200 1.359600
10.729200 1.380100
10.744100 1.387100
10.759000 1.394800
10.774000 1.395400
10.788900 1.386300
10.803800 1.386700
10.818800 1.388900
10.833700 1.388300
10.848600 1.386000
10.863600 1.383100
10.878500 1.396900
10.893400 1.454800
10.908400 1.551300
10.923300 1.624300
10.938200 1.710900
10.953200 1.772600
10.968100 1.870200
10.983000 1.962100
10.998000 2.076100
11.012900 2.254300
11.027800 2.475100
11.042800 2.343600
11.057700 2.305800
11.072700 2.306800
11.087600 2.331100
11.102500 2.354700
11.117500 2.372300
11.132400 2.394900
11.147300 2.423400
11.162300 2.451700
11.177200 2.441900
11.192100 2.514400
11.207100 2.644000
11.222000 2.785200
11.236900 2.888800
11.251900 2.995200
11.266800 3.095500
11.281700 3.384400
11.296700 3.500000
11.311600 3.269000
11.326500 3.067000
11.341500 2.966100
11.356400 2.928800
11.371300 2.885700
11.386300 2.796700
11.401200 2.718600
11.416100 2.648200
11.431100 2.501900
11.446000 2.360900
11.460900 2.252200
11.475900 2.173800
11.490800 2.087500
11.505700 2.006200
11.520700 1.929100
11.535600 1.809900
11.550500 1.732100
11.565500 1.670300
11.580400 1.605400
11.595400 1.551100
11.610300 1.502900
11.625200 1.455000
11.640200 1.421600
11.655100 1.405100
11.670000 1.415200
11.685000 1.440900
11.699900 1.479400
11.714800 1.423700
11.729800 1.385800
11.744700 1.346800
11.759600 1.302500
11.774600 1.254800
11.789500 1.292600
11.804400 1.163000
11.819400 0.973900
11.834300 0.864600
11.849200 0.799200
11.864200 0.762000
11.879100 0.765700
11.894000 0.822400
11.909000 0.899900
11.923900 0.992600
11.938800 1.096400
11.953800 1.200700
11.968700 1.310400
11.983600 1.420900
11.998600 1.525400
12.013500 1.639000
12.028400 1.764100
12.043400 1.886400
12.058300 2.007200
12.073200 2.129400
12.088200 2.259700
12.103100 2.416000
12.118000 2.556300
12.133000 2.624500
12.147900 2.737800
12.162900 2.821200
12.177800 2.874700
12.192700 2.900800
12.207700 2.914000
12.222600 2.921600
12.237500 2.990500
12.252500 3.062000
12.267400 3.090300
12.282300 3.107100
12.297300 3.075000
12.312200 2.911100
12.327100 2.872000
12.342100 2.968700
12.357000 3.114900
12.371900 3.381200
12.386900 3.897900
12.401800 3.882400
12.416700 3.918200
12.431700 3.966800
12.446600 3.678700
12.461500 3.395200
12.476500 3.390000
12.491400 3.448800
12.506300 3.541800
12.521300 3.705200
12.536200 3.682600
12.551100 3.559600
12.566100 3.468900
12.581000 3.432700
12.595900 3.414900
12.610900 3.422900
12.625800 3.461900
12.640700 3.547200
12.655700 3.636600
12.670600 3.686800
12.685600 3.706400
12.700500 3.806600
12.715400 3.941100
12.730400 3.984700
12.745300 3.998800
12.760200 4.087000
12.775200 4.256300
12.790100 4.302100
12.805000 4.264200
12.820000 4.217400
12.834900 4.166100
12.849800 4.174200
12.864800 4.172500
12.879700 4.172500
12.894600 3.943400
12.909600 3.619100
12.924500 3.342400
12.939400 3.160000
12.954400 3.034700
12.969300 2.987500
12.984200 2.984100
12.999200 3.027200
13.014100 2.963200
13.029000 2.721000
13.044000 2.455000
13.058900 2.354400
13.073800 2.310800
13.088800 2.262400
13.103700 2.215800
13.118600 2.173100
13.133600 2.137000
13.148500 2.096600
13.163400 2.093200
13.178400 2.080100
13.193300 2.073300
13.208200 2.140700
13.223200 2.189300
13.238100 2.184600
13.253100 2.179900
13.268000 2.195100
13.282900 2.207900
13.297900 2.207300
13.312800 2.183900
13.327700 2.161100
13.342700 2.130600
13.357600 2.107700
13.372500 2.097600
13.387500 2.099000
13.402400 2.115800
13.417300 2.160500
13.432300 2.252400
13.447200 2.393500
13.462100 2.462300
13.477100 2.503100
13.492000 2.512800
13.506900 2.491900
13.521900 2.422600
13.536800 2.401600
13.551700 2.425400
13.566700 2.479600
13.581600 2.540100
13.596500 2.602000
13.611500 2.752500
13.626400 3.018500
13.641300 3.286600
13.656300 3.640400
13.671200 3.738500
13.686100 3.714700
13.701100 3.590900
13.716000 3.363900
13.730900 3.130900
13.745900 2.913900
13.760800 2.726500
13.775700 2.676100
13.790700 2.671900
13.805600 2.678000
13.820600 2.726700
13.835500 2.801800
13.850400 2.967700
13.865400 3.063400
13.880300 3.305400
13.895200 3.487200
13.910200 3.598500
13.925100 3.557700
13.940000 3.626900
13.955000 3.646100
13.969900 3.682400
13.984800 3.694500
13.999800 3.695900
14.014700 3.678000
14.029600 3.579700
14.044600 3.437800
14.059500 3.329900
14.074400 3.250500
14.089400 3.196200
14.104300 3.156400
14.119200 3.100500
14.134200 2.952700
14.149100 2.738300
14.164000 2.538300
14.179000 2.364600
14.193900 2.262700
14.208800 2.197100
14.223800 2.109300
14.238700 2.035500
14.253600 1.960600
14.268600 1.881000
14.283500 1.797100
14.298400 1.712500
14.313400 1.632300
14.328300 1.557300
14.343300 1.504700
14.358200 1.459000
14.373100 1.412500
14.388100 1.365900
14.403000 1.322400
14.417900 1.275800
14.432900 1.230800
14.447800 1.186800
14.462700 1.143700
14.477700 1.103600
14.492600 1.069000
14.507500 1.039100
14.522500 1.012200
14.537400 0.986400
14.552300 0.961600
14.567300 0.937400
14.582200 0.914500
14.597100 0.892900
14.612100 0.871700
14.627000 0.851000
14.641900 0.830900
14.656900 0.811300
14.671800 0.792100
14.686700 0.772700
14.701700 0.754600
14.716600 0.738900
14.731500 0.725800
14.746500 0.713700
14.761400 0.702000
14.776300 0.690400
14.791300 0.679800
14.806200 0.672400
14.821100 0.669200
14.836100 0.670700
14.851000 0.672700
14.865900 0.674800
14.880900 0.672400
14.895800 0.666600
14.910800 0.671800
14.925700 0.676800
14.940600 0.679700
14.955600 0.670500
14.970500 0.659700
14.985400 0.647200
15.000400 0.633100
15.015300 0.617800
15.030200 0.632100
15.045200 0.772600
15.060100 0.710100
15.075000 0.682200
15.090000 0.702400
15.104900 0.647300
15.119800 0.594400
15.134800 0.528300
15.149700 0.484800
15.164600 0.456500
15.179600 0.435700
15.194500 0.419300
15.209400 0.403000
15.224400 0.386600
15.239300 0.370200
15.254200 0.353400
15.269200 0.336600
15.284100 0.316200
15.299000 0.302100
15.314000 0.288100
15.328900 0.275500
15.343800 0.264900
15.358800 0.256800
15.373700 0.251400
15.388600 0.248000
15.403600 0.243600
15.418500 0.236700
15.433400 0.226300
15.448400 0.212500
15.463300 0.191100
15.478300 0.169000
15.493200 0.146300
15.508100 0.078400
15.523100 0.060900
15.538000 0.045900
15.552900 0.033500
15.567900 0.023600
15.582800 0.016100
15.597700 0.011000
15.612700 0.008200
15.627600 0.006500
15.642500 0.005200
15.657500 0.004000
15.672400 0.002900
15.687300 0.002100
15.702300 0.001300
15.717200 0.000800
15.732100 0.000300
15.747100 0.000100
15.762000 0.000000
15.776900 0.000000
15.791900 0.000000
15.806800 0.000000
15.821700 0.000000
15.836700 0.000000
15.851600 0.000000
15.866500 0.000000
15.881500 0.000000
15.896400 0.000000
15.911300 0.000000
15.926300 0.000000
15.941200 0.000000
15.956100 0.000000
15.971100 0.000000
15.986000 0.000000
16.001000 0.000000
16.015900 0.000000
16.030800 0.000000
16.045800 0.000000
16.060700 0.000000
16.075600 0.000000
16.090600 0.000000
16.105500 0.000000
16.120400 0.000000
16.135400 0.000000
16.150300 0.000000
16.165200 0.000000
16.180200 0.000000
16.195100 0.000000
16.210000 0.000000
16.225000 0.000000
16.239900 0.000000
16.254800 0.000000
16.269800 0.000000
16.284700 0.000000
16.299600 0.000000
16.314600 0.000000
16.329500 0.000000
16.344400 0.000000
16.359400 0.000000
16.374300 0.000000
16.389200 0.000000
16.404200 0.000000
16.419100 0.000000
16.434000 0.000000
16.449000 0.000000
16.463900 0.000000
16.478800 0.000000
16.493800 0.000000
16.508700 0.000000
16.523600 0.000000
16.538600 0.000000
16.553500 0.000000
16.568500 0.000000
16.583400 0.000000
16.598300 0.000000
16.613300 0.000000
16.628200 0.000000
16.643100 0.000000
16.658100 0.000000
16.673000 0.000000
16.687900 0.000000
16.702900 0.000000
16.717800 0.000000
16.732700 0.000000
16.747700 0.000000
16.762600 0.000000
16.777500 0.000000
16.792500 0.000000
16.807400 0.000000
16.822300 0.000000
16.837300 0.000000
16.852200 0.000000
16.867100 0.000000
16.882100 0.000000
16.897000 0.000000
16.911900 0.000000
16.926900 0.000000
16.941800 0.000000
16.956700 0.000000
16.971700 0.000000
16.986600 0.000000
17.001500 0.000000
17.016500 0.000000
17.031400 0.000000
17.046300 0.000000
17.061300 0.000000
17.076200 0.000000
17.091100 0.000000
17.106100 0.000000
17.121000 0.000000
e
