set title 'mp-570747 - Density of States'
set xlabel 'Energy (eV)'
set ylabel 'DOS (states/eV)'
set grid
set xrange [-10:10]
set yrange [0:32.774]
set xzeroaxis lt -1
set terminal png size 800,600
set output 'mp-570747_dos_gnuplot.png'
plot '-' using 1:2 with lines title 'DOS'
-28.199600 0.000000
-28.160600 0.000000
-28.121500 0.000000
-28.082400 0.000000
-28.043300 0.000000
-28.004300 0.000000
-27.965200 0.000000
-27.926100 0.000000
-27.887100 0.000000
-27.848000 0.000000
-27.808900 0.000000
-27.769900 0.000000
-27.730800 0.000000
-27.691700 0.000000
-27.652700 0.000000
-27.613600 0.000000
-27.574500 0.000000
-27.535500 0.000000
-27.496400 0.000000
-27.457300 0.000000
-27.418200 0.000000
-27.379200 0.000000
-27.340100 0.000000
-27.301000 0.000000
-27.262000 0.000000
-27.222900 0.000000
-27.183800 0.000000
-27.144800 0.000000
-27.105700 0.000000
-27.066600 0.000000
-27.027600 0.000000
-26.988500 0.000000
-26.949400 0.000000
-26.910400 0.000000
-26.871300 0.000000
-26.832200 0.000000
-26.793100 0.000000
-26.754100 0.000000
-26.715000 0.000000
-26.675900 0.000000
-26.636900 0.000000
-26.597800 0.000000
-26.558700 0.000000
-26.519700 0.000000
-26.480600 0.000000
-26.441500 0.000000
-26.402500 0.000000
-26.363400 0.000000
-26.324300 0.000000
-26.285300 0.000000
-26.246200 0.000000
-26.207100 0.000000
-26.168100 0.000000
-26.129000 0.000000
-26.089900 0.000000
-26.050800 0.000000
-26.011800 0.000000
-25.972700 0.000000
-25.933600 0.000000
-25.894600 0.000000
-25.855500 0.000000
-25.816400 0.000000
-25.777400 0.000000
-25.738300 0.000000
-25.699200 0.000000
-25.660200 0.000000
-25.621100 0.000000
-25.582000 0.000000
-25.543000 0.000000
-25.503900 0.000000
-25.464800 0.000000
-25.425700 0.000000
-25.386700 0.000000
-25.347600 0.000000
-25.308500 0.000000
-25.269500 0.000000
-25.230400 0.000000
-25.191300 0.000000
-25.152300 0.000000
-25.113200 0.000000
-25.074100 0.000000
-25.035100 0.000000
-24.996000 0.000000
-24.956900 0.000000
-24.917900 0.000000
-24.878800 0.000000
-24.839700 0.000000
-24.800600 0.000000
-24.761600 0.000000
-24.722500 0.000000
-24.683400 0.000000
-24.644400 1.960400
-24.605300 78.546900
-24.566200 0.000000
-24.527200 0.000000
-24.488100 0.000000
-24.449000 0.000000
-24.410000 0.000000
-24.370900 0.000000
-24.331800 0.000000
-24.292800 0.000000
-24.253700 0.000000
-24.214600 0.000000
-24.175500 0.000000
-24.136500 0.000000
-24.097400 0.000000
-24.058300 0.000000
-24.019300 0.000000
-23.980200 0.000000
-23.941100 0.000000
-23.902100 0.000000
-23.863000 0.000000
-23.823900 0.000000
-23.784900 0.000000
-23.745800 0.000000
-23.706700 0.000000
-23.667700 0.000000
-23.628600 0.000000
-23.589500 0.000000
-23.550400 0.000000
-23.511400 0.000000
-23.472300 0.000000
-23.433200 0.000000
-23.394200 0.000000
-23.355100 0.000000
-23.316000 0.000000
-23.277000 0.000000
-23.237900 0.000000
-23.198800 0.000000
-23.159800 0.000000
-23.120700 0.000000
-23.081600 0.000000
-23.042600 0.000000
-23.003500 0.000000
-22.964400 0.000000
-22.925300 0.000000
-22.886300 0.000000
-22.847200 0.000000
-22.808100 0.000000
-22.769100 0.000000
-22.730000 0.000000
-22.690900 0.000000
-22.651900 0.000000
-22.612800 0.000000
-22.573700 0.000000
-22.534700 0.000000
-22.495600 0.000000
-22.456500 0.000000
-22.417500 0.000000
-22.378400 0.000000
-22.339300 0.000000
-22.300300 0.000000
-22.261200 0.000000
-22.222100 0.000000
-22.183000 0.000000
-22.144000 0.000000
-22.104900 0.000000
-22.065800 0.000000
-22.026800 0.000000
-21.987700 0.000000
-21.948600 0.000000
-21.909600 0.000000
-21.870500 0.000000
-21.831400 0.000000
-21.792400 0.000000
-21.753300 0.000000
-21.714200 0.000000
-21.675200 0.000000
-21.636100 0.000000
-21.597000 0.000000
-21.557900 0.000000
-21.518900 0.000000
-21.479800 0.000000
-21.440700 0.000000
-21.401700 0.000000
-21.362600 0.000000
-21.323500 0.000000
-21.284500 0.000000
-21.245400 0.000000
-21.206300 0.000000
-21.167300 0.000000
-21.128200 0.000000
-21.089100 0.000000
-21.050100 0.000000
-21.011000 0.000000
-20.971900 0.000000
-20.932800 0.000000
-20.893800 0.000000
-20.854700 0.000000
-20.815600 0.000000
-20.776600 0.000000
-20.737500 0.000000
-20.698400 0.000000
-20.659400 0.000000
-20.620300 0.000000
-20.581200 0.000000
-20.542200 0.000000
-20.503100 0.000000
-20.464000 0.000000
-20.425000 0.000000
-20.385900 0.000000
-20.346800 0.000000
-20.307700 0.000000
-20.268700 0.000000
-20.229600 0.000000
-20.190500 0.000000
-20.151500 0.000000
-20.112400 0.000000
-20.073300 0.000000
-20.034300 0.000000
-19.995200 0.000000
-19.956100 0.000000
-19.917100 0.000000
-19.878000 0.000000
-19.838900 0.000000
-19.799900 0.000000
-19.760800 0.000000
-19.721700 0.000000
-19.682600 0.000000
-19.643600 0.000000
-19.604500 0.000000
-19.565400 0.000000
-19.526400 0.000000
-19.487300 0.000000
-19.448200 0.000000
-19.409200 0.000000
-19.370100 0.000000
-19.331000 0.000000
-19.292000 0.000000
-19.252900 0.000000
-19.213800 0.000000
-19.174800 0.000000
-19.135700 0.000000
-19.096600 0.000000
-19.057600 0.000000
-19.018500 0.000000
-18.979400 0.000000
-18.940300 0.000000
-18.901300 0.000000
-18.862200 0.000000
-18.823100 0.000000
-18.784100 0.000000
-18.745000 0.000000
-18.705900 0.000000
-18.666900 0.000000
-18.627800 0.000000
-18.588700 0.000000
-18.549700 0.000000
-18.510600 0.000000
-18.471500 0.000000
-18.432500 0.000000
-18.393400 0.000000
-18.354300 0.000000
-18.315200 0.000000
-18.276200 0.000000
-18.237100 0.000000
-18.198000 0.000000
-18.159000 0.000000
-18.119900 0.000000
-18.080800 0.000000
-18.041800 0.000000
-18.002700 0.000000
-17.963600 0.000000
-17.924600 0.000000
-17.885500 0.000000
-17.846400 0.000000
-17.807400 0.000000
-17.768300 0.000000
-17.729200 0.000000
-17.690100 0.000000
-17.651100 0.000000
-17.612000 0.000000
-17.572900 0.000000
-17.533900 0.000000
-17.494800 0.000000
-17.455700 0.000000
-17.416700 0.000000
-17.377600 0.000000
-17.338500 0.000000
-17.299500 0.000000
-17.260400 0.000000
-17.221300 0.000000
-17.182300 0.000000
-17.143200 0.000000
-17.104100 0.000000
-17.065000 0.000000
-17.026000 0.000000
-16.986900 0.000000
-16.947800 0.000000
-16.908800 0.000000
-16.869700 0.000000
-16.830600 0.000000
-16.791600 0.000000
-16.752500 0.000000
-16.713400 0.000000
-16.674400 0.000000
-16.635300 0.000000
-16.596200 0.000000
-16.557200 0.000000
-16.518100 0.000000
-16.479000 0.000000
-16.439900 0.000000
-16.400900 0.000000
-16.361800 0.000000
-16.322700 0.000000
-16.283700 0.000000
-16.244600 0.000000
-16.205500 0.000000
-16.166500 0.000000
-16.127400 0.000000
-16.088300 0.000000
-16.049300 0.000000
-16.010200 0.000000
-15.971100 0.000000
-15.932100 0.000000
-15.893000 0.000000
-15.853900 0.000000
-15.814900 0.000000
-15.775800 0.000000
-15.736700 0.000000
-15.697600 0.000000
-15.658600 0.000000
-15.619500 0.000000
-15.580400 0.000000
-15.541400 0.000000
-15.502300 0.000000
-15.463200 0.000000
-15.424200 0.000000
-15.385100 0.000000
-15.346000 0.000000
-15.307000 0.000000
-15.267900 0.000000
-15.228800 0.000000
-15.189800 0.000000
-15.150700 0.000000
-15.111600 0.000000
-15.072500 0.000000
-15.033500 0.000000
-14.994400 0.000000
-14.955300 0.000000
-14.916300 0.000000
-14.877200 0.000000
-14.838100 0.000000
-14.799100 0.000000
-14.760000 0.000000
-14.720900 0.000000
-14.681900 0.000000
-14.642800 0.000000
-14.603700 0.000000
-14.564700 0.000000
-14.525600 0.000000
-14.486500 0.000000
-14.447400 0.000000
-14.408400 0.000000
-14.369300 0.000000
-14.330200 0.000000
-14.291200 0.000000
-14.252100 0.000000
-14.213000 0.000000
-14.174000 0.000000
-14.134900 0.000000
-14.095800 0.000000
-14.056800 0.000000
-14.017700 0.000000
-13.978600 0.000000
-13.939600 0.000000
-13.900500 0.000000
-13.861400 0.000000
-13.822300 0.000000
-13.783300 0.000000
-13.744200 0.000000
-13.705100 0.000000
-13.666100 0.000000
-13.627000 0.000000
-13.587900 0.000000
-13.548900 0.000000
-13.509800 0.000000
-13.470700 0.000000
-13.431700 0.000000
-13.392600 0.000000
-13.353500 0.000000
-13.314500 0.000000
-13.275400 0.000000
-13.236300 0.000000
-13.197200 0.000000
-13.158200 0.000000
-13.119100 0.000000
-13.080000 0.000000
-13.041000 0.000000
-13.001900 0.000000
-12.962800 0.000000
-12.923800 0.000000
-12.884700 0.000000
-12.845600 0.000000
-12.806600 0.000000
-12.767500 0.000000
-12.728400 0.000000
-12.689400 0.000000
-12.650300 0.000000
-12.611200 0.000000
-12.572100 0.000000
-12.533100 0.000000
-12.494000 0.000000
-12.454900 0.000000
-12.415900 0.000000
-12.376800 0.000000
-12.337700 0.000000
-12.298700 0.000000
-12.259600 0.000000
-12.220500 0.000000
-12.181500 0.000000
-12.142400 0.000000
-12.103300 0.000000
-12.064300 0.000000
-12.025200 0.000000
-11.986100 0.000000
-11.947100 0.000000
-11.908000 0.000000
-11.868900 0.000000
-11.829800 0.000000
-11.790800 0.000000
-11.751700 0.000000
-11.712600 0.000000
-11.673600 0.000000
-11.634500 0.000000
-11.595400 0.000000
-11.556400 0.000000
-11.517300 0.000000
-11.478200 0.000000
-11.439200 0.000000
-11.400100 0.000000
-11.361000 0.000000
-11.322000 0.000000
-11.282900 0.000000
-11.243800 0.000000
-11.204700 0.000000
-11.165700 0.000000
-11.126600 0.000000
-11.087500 0.000000
-11.048500 0.000000
-11.009400 0.000000
-10.970300 0.000000
-10.931300 0.000000
-10.892200 0.000000
-10.853100 0.000000
-10.814100 0.000000
-10.775000 0.000000
-10.735900 0.000000
-10.696900 0.000000
-10.657800 0.000000
-10.618700 0.000000
-10.579600 0.000000
-10.540600 0.000000
-10.501500 0.000000
-10.462400 0.000000
-10.423400 0.000000
-10.384300 0.000000
-10.345200 0.000000
-10.306200 0.000000
-10.267100 0.000000
-10.228000 0.000000
-10.189000 6.159300
-10.149900 10.992400
-10.110800 12.649000
-10.071800 18.056300
-10.032700 13.698500
-9.993600 11.024900
-9.954500 8.219500
-9.915500 6.799600
-9.876400 5.994800
-9.837300 5.330200
-9.798300 0.375700
-9.759200 0.000000
-9.720100 0.000000
-9.681100 0.000000
-9.642000 0.000000
-9.602900 0.000000
-9.563900 0.000000
-9.524800 0.000000
-9.485700 0.000000
-9.446700 0.000000
-9.407600 0.000000
-9.368500 0.000000
-9.329400 0.000000
-9.290400 0.000000
-9.251300 0.000000
-9.212200 0.000000
-9.173200 0.000000
-9.134100 0.000000
-9.095000 0.000000
-9.056000 0.000000
-9.016900 0.000000
-8.977800 0.000000
-8.938800 0.000000
-8.899700 0.000000
-8.860600 0.000000
-8.821600 0.000000
-8.782500 0.000000
-8.743400 0.000000
-8.704400 0.000000
-8.665300 0.000000
-8.626200 0.000000
-8.587100 0.000000
-8.548100 0.000000
-8.509000 0.000000
-8.469900 0.000000
-8.430900 0.000000
-8.391800 0.000000
-8.352700 0.000000
-8.313700 0.606100
-8.274600 2.471300
-8.235500 11.058700
-8.196500 13.318300
-8.157400 11.109100
-8.118300 14.287400
-8.079300 16.608300
-8.040200 18.349300
-8.001100 9.584400
-7.962000 7.320100
-7.923000 29.794500
-7.883900 16.227300
-7.844800 18.153100
-7.805800 17.373200
-7.766700 15.742200
-7.727600 15.967000
-7.688600 2.094000
-7.649500 0.032900
-7.610400 0.000000
-7.571400 0.000000
-7.532300 0.000000
-7.493200 0.000000
-7.454200 0.000000
-7.415100 0.000000
-7.376000 0.000000
-7.336900 0.008300
-7.297900 0.033500
-7.258800 0.075600
-7.219700 0.134400
-7.180700 0.210100
-7.141600 0.376400
-7.102500 0.543800
-7.063500 0.686300
-7.024400 0.807900
-6.985300 0.973800
-6.946300 1.197600
-6.907200 1.459200
-6.868100 2.108200
-6.829100 2.538400
-6.790000 2.862900
-6.750900 3.222700
-6.711800 3.689500
-6.672800 5.544100
-6.633700 8.357400
-6.594600 10.092000
-6.555600 13.170100
-6.516500 14.803500
-6.477400 10.299800
-6.438400 9.449700
-6.399300 6.572200
-6.360200 0.000000
-6.321200 0.000000
-6.282100 0.000000
-6.243000 0.000000
-6.204000 0.000000
-6.164900 0.000000
-6.125800 0.000000
-6.086700 0.000000
-6.047700 0.000000
-6.008600 0.000000
-5.969500 0.000000
-5.930500 0.000000
-5.891400 0.000000
-5.852300 0.000000
-5.813300 0.000000
-5.774200 0.000000
-5.735100 0.000000
-5.696100 0.000000
-5.657000 0.000000
-5.617900 0.000000
-5.578900 0.000000
-5.539800 0.000000
-5.500700 0.000000
-5.461700 0.000000
-5.422600 0.000000
-5.383500 0.000000
-5.344400 0.000000
-5.305400 0.000000
-5.266300 0.000000
-5.227200 0.000000
-5.188200 0.000000
-5.149100 0.000000
-5.110000 0.000000
-5.071000 0.000000
-5.031900 0.000000
-4.992800 0.000000
-4.953800 0.000000
-4.914700 0.000000
-4.875600 0.000000
-4.836600 0.000000
-4.797500 0.000000
-4.758400 0.000000
-4.719300 0.000000
-4.680300 0.000000
-4.641200 0.000000
-4.602100 0.000000
-4.563100 0.000000
-4.524000 0.000000
-4.484900 0.000000
-4.445900 0.000000
-4.406800 0.000000
-4.367700 0.000000
-4.328700 0.000000
-4.289600 0.000000
-4.250500 0.000000
-4.211500 0.000000
-4.172400 0.000000
-4.133300 0.000000
-4.094200 0.000000
-4.055200 0.000000
-4.016100 0.000000
-3.977000 0.000000
-3.938000 0.000000
-3.898900 0.000000
-3.859800 0.000000
-3.820800 0.000000
-3.781700 0.000000
-3.742600 0.000000
-3.703600 0.000000
-3.664500 0.000000
-3.625400 0.000000
-3.586400 0.000000
-3.547300 0.000000
-3.508200 0.000000
-3.469100 0.000000
-3.430100 0.000000
-3.391000 0.000000
-3.351900 0.000000
-3.312900 0.000000
-3.273800 0.000000
-3.234700 0.000000
-3.195700 0.000000
-3.156600 0.000000
-3.117500 0.000000
-3.078500 0.000000
-3.039400 0.000000
-3.000300 0.000000
-2.961300 0.000000
-2.922200 0.000000
-2.883100 0.000000
-2.844000 0.000000
-2.805000 0.000000
-2.765900 0.000000
-2.726800 0.000000
-2.687800 0.000000
-2.648700 0.000000
-2.609600 0.000000
-2.570600 0.000000
-2.531500 0.000000
-2.492400 0.000000
-2.453400 0.000000
-2.414300 0.000000
-2.375200 0.000000
-2.336200 0.000000
-2.297100 0.000000
-2.258000 0.000000
-2.218900 0.000000
-2.179900 0.000000
-2.140800 0.000000
-2.101700 0.000000
-2.062700 0.000000
-2.023600 0.000000
-1.984500 0.000000
-1.945500 0.000000
-1.906400 0.000000
-1.867300 0.000000
-1.828300 0.000000
-1.789200 0.000000
-1.750100 0.000000
-1.711100 0.000000
-1.672000 0.000000
-1.632900 0.000000
-1.593900 0.000000
-1.554800 0.000000
-1.515700 0.000000
-1.476600 0.000000
-1.437600 0.000000
-1.398500 0.000000
-1.359400 0.000000
-1.320400 0.000000
-1.281300 0.000000
-1.242200 0.000000
-1.203200 0.000000
-1.164100 0.000000
-1.125000 0.000000
-1.086000 0.000000
-1.046900 0.000000
-1.007800 0.000000
-0.968800 0.000000
-0.929700 0.000000
-0.890600 0.000000
-0.851500 0.000000
-0.812500 0.000000
-0.773400 0.000000
-0.734300 0.000000
-0.695300 0.000000
-0.656200 0.000000
-0.617100 0.000000
-0.578100 0.000000
-0.539000 0.000000
-0.499900 0.000000
-0.460900 0.000000
-0.421800 0.000000
-0.382700 0.000000
-0.343700 0.000000
-0.304600 0.000000
-0.265500 0.000000
-0.226400 0.000000
-0.187400 0.000000
-0.148300 0.000000
-0.109200 0.000000
-0.070200 0.000000
-0.031100 0.000000
0.008000 0.000000
0.047000 0.000000
0.086100 0.000000
0.125200 0.000000
0.164200 0.000000
0.203300 0.000000
0.242400 0.000000
0.281400 0.000000
0.320500 0.000000
0.359600 0.000000
0.398700 0.000000
0.437700 0.003200
0.476800 0.055200
0.515900 0.168000
0.554900 0.317900
0.594000 0.486900
0.633100 0.605400
0.672100 0.688700
0.711200 0.798900
0.750300 0.979700
0.789300 1.147700
0.828400 1.247400
0.867500 1.285900
0.906500 1.351200
0.945600 1.465400
0.984700 1.697300
1.023800 2.171800
1.062800 2.897100
1.101900 3.793800
1.141000 5.919300
1.180000 7.337000
1.219100 8.447300
1.258200 19.434700
1.297200 15.227500
1.336300 10.170600
1.375400 7.041100
1.414400 4.556100
1.453500 2.776700
1.492600 2.400100
1.531600 8.958500
1.570700 10.173100
1.609800 10.504300
1.648800 19.913400
1.687900 9.938700
1.727000 9.154700
1.766100 6.832800
1.805100 5.176400
1.844200 4.007400
1.883300 3.608000
1.922300 3.261200
1.961400 3.004500
2.000500 2.509000
2.039500 2.254100
2.078600 1.998900
2.117700 1.743300
2.156700 0.908800
2.195800 0.000000
2.234900 0.000000
2.273900 0.000000
2.313000 0.000000
2.352100 0.000000
2.391200 0.000000
2.430200 0.000000
2.469300 0.000000
2.508400 0.000000
2.547400 0.000000
2.586500 0.000000
2.625600 0.000000
2.664600 0.000000
2.703700 0.000000
2.742800 0.000000
2.781800 0.000000
2.820900 0.000000
2.860000 0.000000
2.899000 0.000000
2.938100 0.000000
2.977200 0.000000
3.016300 0.000000
3.055300 0.000000
3.094400 0.000000
3.133500 0.000000
3.172500 0.000000
3.211600 0.000000
3.250700 0.000000
3.289700 0.000000
3.328800 0.000000
3.367900 0.000000
3.406900 0.000000
3.446000 0.000000
3.485100 0.000000
3.524100 0.000000
3.563200 0.000000
3.602300 0.000000
3.641400 0.000000
3.680400 0.000000
3.719500 0.000000
3.758600 0.000000
3.797600 0.000000
3.836700 0.000000
3.875800 0.000000
3.914800 0.000000
3.953900 0.000000
3.993000 0.000000
4.032000 0.000000
4.071100 0.000000
4.110200 0.000000
4.149200 0.000000
4.188300 0.000000
4.227400 0.000000
4.266500 0.000000
4.305500 0.000000
4.344600 0.000000
4.383700 0.000000
4.422700 0.000000
4.461800 0.000000
4.500900 0.000000
4.539900 0.000000
4.579000 0.000000
4.618100 0.000000
4.657100 0.000000
4.696200 0.000000
4.735300 0.000000
4.774300 0.000000
4.813400 0.013200
4.852500 0.267400
4.891500 0.523300
4.930600 0.704200
4.969700 0.895900
5.008800 1.006400
5.047800 1.054600
5.086900 1.124600
5.126000 1.177500
5.165000 1.211000
5.204100 1.226300
5.243200 1.251800
5.282200 1.306100
5.321300 1.373300
5.360400 1.452800
5.399400 1.671700
5.438500 1.967000
5.477600 2.257600
5.516600 2.401500
5.555700 2.506100
5.594800 2.535200
5.633900 2.649200
5.672900 2.031100
5.712000 1.812000
5.751100 1.742600
5.790100 1.701000
5.829200 1.652900
5.868300 1.671200
5.907300 1.557600
5.946400 1.445300
5.985500 1.334200
6.024500 2.827600
6.063600 1.457400
6.102700 1.250200
6.141700 1.795000
6.180800 2.488400
6.219900 2.654900
6.259000 2.825600
6.298000 2.944400
6.337100 2.814900
6.376200 3.130400
6.415200 3.504400
6.454300 3.479100
6.493400 3.395300
6.532400 3.217800
6.571500 3.108900
6.610600 2.945300
6.649600 2.826500
6.688700 3.132800
6.727800 2.279100
6.766800 1.449900
6.805900 0.899500
6.845000 0.565100
6.884100 0.395700
6.923100 0.252400
6.962200 0.095400
7.001300 0.018700
7.040300 0.000000
7.079400 0.000000
7.118500 0.000000
7.157500 0.000000
7.196600 0.000000
7.235700 0.000000
7.274700 0.000000
7.313800 0.000000
7.352900 0.000000
7.391900 0.000000
7.431000 0.000000
7.470100 0.000000
7.509200 0.000000
7.548200 0.000000
7.587300 0.000000
7.626400 0.000000
7.665400 0.000000
7.704500 0.000000
7.743600 0.000000
7.782600 0.001700
7.821700 0.019900
7.860800 0.057900
7.899800 0.115000
7.938900 0.182600
7.978000 0.435000
8.017000 0.695800
8.056100 0.874400
8.095200 0.974700
8.134300 1.180400
8.173300 1.315900
8.212400 1.834700
8.251500 3.210700
8.290500 3.075700
8.329600 3.431500
8.368700 3.891300
8.407700 5.514900
8.446800 4.689100
8.485900 4.480700
8.524900 4.141300
8.564000 4.015900
8.603100 2.352900
8.642100 2.418500
8.681200 2.323300
8.720300 2.433800
8.759300 2.424000
8.798400 2.346800
8.837500 2.263900
8.876600 1.819100
8.915600 1.882800
8.954700 1.833200
8.993800 1.826300
9.032800 1.902600
9.071900 2.030600
9.111000 2.209700
9.150000 2.358200
9.189100 2.762300
9.228200 2.849100
9.267200 2.832900
9.306300 2.822200
9.345400 2.809100
9.384400 2.720300
9.423500 2.657300
9.462600 2.438500
9.501700 2.340700
9.540700 2.305000
9.579800 2.275000
9.618900 2.270700
9.657900 2.296500
9.697000 2.217300
9.736100 2.221200
9.775100 2.231500
9.814200 2.582800
9.853300 2.662500
9.892300 2.678800
9.931400 2.753800
9.970500 2.799700
10.009500 2.773800
10.048600 2.739100
10.087700 2.689600
10.126800 2.637900
10.165800 2.577500
10.204900 2.528600
10.244000 2.474700
10.283000 2.386700
10.322100 2.301300
10.361200 2.270200
10.400200 2.240900
10.439300 2.214700
10.478400 2.195000
10.517400 2.179300
10.556500 2.105700
10.595600 2.071200
10.634600 2.015200
10.673700 1.959400
10.712800 1.909100
10.751900 1.915700
10.790900 1.825500
10.830000 1.788000
10.869100 1.765400
10.908100 1.744300
10.947200 1.711000
10.986300 1.616100
11.025300 1.555100
11.064400 1.540600
11.103500 1.526700
11.142500 1.517200
11.181600 1.510600
11.220700 1.514400
11.259700 1.478200
11.298800 1.492200
11.337900 1.498500
11.377000 1.498700
11.416000 1.507900
11.455100 1.519300
11.494200 1.547500
11.533200 1.762700
11.572300 1.646300
11.611400 1.573200
11.650400 1.549400
11.689500 1.572300
11.728600 1.686000
11.767600 1.859300
11.806700 2.027600
11.845800 1.859500
11.884800 2.107100
11.923900 2.400500
11.963000 2.262500
12.002000 2.409700
12.041100 2.560500
12.080200 3.656000
12.119300 2.612200
12.158300 2.626800
12.197400 3.164200
12.236500 3.549500
12.275500 3.872500
12.314600 4.673700
12.353700 5.205600
12.392700 4.838100
12.431800 5.108300
12.470900 4.201200
12.509900 3.805000
12.549000 3.459800
12.588100 3.156700
12.627100 2.221000
12.666200 2.111800
12.705300 1.838400
12.744400 1.539300
12.783400 1.378200
12.822500 1.281200
12.861600 1.237500
12.900600 1.208800
12.939700 1.251100
12.978800 1.278600
13.017800 1.383200
13.056900 1.587700
13.096000 1.995000
13.135000 1.973700
13.174100 1.734800
13.213200 1.517900
13.252200 1.526300
13.291300 1.651700
13.330400 1.809700
13.369500 1.991200
13.408500 2.146100
13.447600 2.454000
13.486700 2.806900
13.525700 3.133300
13.564800 3.104800
13.603900 3.199000
13.642900 3.260000
13.682000 3.280100
13.721100 3.314900
13.760100 3.311300
13.799200 3.265600
13.838300 3.131700
13.877300 3.111100
13.916400 2.624700
13.955500 2.601800
13.994600 2.584900
14.033600 2.570700
14.072700 2.558100
14.111800 2.546900
14.150800 2.537200
14.189900 2.528900
14.229000 2.518800
14.268000 2.509200
14.307100 2.512400
14.346200 2.630900
14.385200 2.446500
14.424300 2.337600
14.463400 2.446300
14.502400 2.301900
14.541500 1.706600
14.580600 2.043700
14.619700 2.092100
14.658700 1.347500
14.697800 1.329400
14.736900 1.313500
14.775900 1.299700
14.815000 1.309600
14.854100 1.345900
14.893100 1.176200
14.932200 1.171100
14.971300 1.271600
15.010300 1.390600
15.049400 1.395700
15.088500 1.624200
15.127500 1.910300
15.166600 2.362300
15.205700 2.745900
15.244700 3.013700
15.283800 3.198600
15.322900 3.253500
15.362000 3.193900
15.401000 3.017800
15.440100 3.252100
15.479200 4.052700
15.518200 2.306100
15.557300 2.478500
15.596400 2.862700
15.635400 3.507300
15.674500 5.775100
15.713600 6.239900
15.752600 5.162200
15.791700 4.614500
15.830800 3.992900
15.869800 3.263700
15.908900 3.990900
15.948000 4.699500
15.987100 3.843600
16.026100 3.474100
16.065200 3.114000
16.104300 3.102700
16.143300 3.018700
16.182400 2.954600
16.221500 3.021200
16.260500 3.061900
16.299600 3.131700
16.338700 3.147700
16.377700 3.083500
16.416800 3.021700
16.455900 2.900600
16.494900 2.788000
16.534000 2.685400
16.573100 2.673700
16.612200 2.661000
16.651200 2.641900
16.690300 2.609700
16.729400 2.563900
16.768400 2.531000
16.807500 2.502100
16.846600 2.366700
16.885600 2.266600
16.924700 2.235600
16.963800 2.172100
17.002800 2.132000
17.041900 1.983200
17.081000 1.945800
17.120000 1.912500
17.159100 1.883700
17.198200 1.859100
17.237300 1.844700
17.276300 1.857600
17.315400 1.866400
17.354500 2.567800
17.393500 1.880300
17.432600 1.976900
17.471700 1.924400
17.510700 1.883600
17.549800 1.699600
17.588900 1.551000
17.627900 1.133700
17.667000 1.189300
17.706100 1.242000
17.745100 1.290300
17.784200 1.533900
17.823300 1.630600
17.862400 1.755700
17.901400 1.925100
17.940500 2.101600
17.979600 3.880300
18.018600 2.810200
18.057700 2.183600
18.096800 1.570100
18.135800 1.665000
18.174900 1.894600
18.214000 2.009200
18.253000 3.082000
18.292100 2.931400
18.331200 2.534600
18.370200 2.770100
18.409300 3.019300
18.448400 3.507300
18.487500 3.756300
18.526500 5.237200
18.565600 4.341700
18.604700 3.269500
18.643700 3.037600
18.682800 2.864800
18.721900 2.782800
18.760900 2.883400
18.800000 2.889200
18.839100 2.871900
18.878100 2.865000
18.917200 4.658400
18.956300 5.097600
18.995300 5.151300
19.034400 3.599800
19.073500 3.263500
19.112500 2.923100
19.151600 3.158000
19.190700 3.600200
19.229800 3.766000
19.268800 3.707300
19.307900 3.599900
19.347000 3.631700
19.386000 3.052500
19.425100 2.915500
19.464200 2.783000
19.503200 2.725800
19.542300 2.733800
19.581400 2.776400
19.620400 3.717600
19.659500 3.229000
19.698600 3.201500
19.737600 4.165200
19.776700 4.307200
19.815800 4.210300
19.854900 4.032500
19.893900 3.775000
19.933000 3.692200
19.972100 3.603400
20.011100 8.043500
20.050200 4.668800
20.089300 2.308600
20.128300 2.315200
20.167400 2.176100
20.206500 2.316000
20.245500 2.573500
20.284600 2.885500
20.323700 3.225400
20.362700 4.196800
20.401800 4.464700
20.440900 4.268000
20.480000 4.323500
20.519000 4.039200
20.558100 3.518800
20.597200 3.175700
20.636200 2.853800
20.675300 2.668800
20.714400 2.556100
20.753400 2.391800
20.792500 2.447000
20.831600 2.578900
20.870600 2.618300
20.909700 2.952500
20.948800 3.190200
20.987800 3.282000
21.026900 3.092100
21.066000 2.975500
21.105100 2.795400
21.144100 2.606200
21.183200 2.332600
21.222300 2.041800
21.261300 2.016000
21.300400 2.069300
21.339500 2.197000
21.378500 3.000600
21.417600 3.014200
21.456700 1.953600
21.495700 1.989700
21.534800 2.032100
21.573900 2.268200
21.612900 2.346400
21.652000 2.582200
21.691100 2.183900
21.730200 2.286600
21.769200 2.434400
21.808300 2.627200
21.847400 3.466000
21.886400 3.195300
21.925500 3.554200
21.964600 3.881800
22.003600 3.912800
22.042700 4.039100
22.081800 4.535800
22.120800 4.678400
22.159900 4.036800
22.199000 3.217600
22.238000 2.650700
22.277100 2.128300
22.316200 1.988800
22.355200 3.374300
22.394300 3.555200
22.433400 3.705000
22.472500 3.866400
22.511500 4.089400
22.550600 4.379300
22.589700 4.541800
22.628700 4.342000
22.667800 4.598700
22.706900 4.187000
22.745900 3.488900
22.785000 3.265400
22.824100 3.351900
22.863100 3.346900
22.902200 3.411200
22.941300 3.464700
22.980300 3.954100
23.019400 5.028000
23.058500 5.598900
23.097600 4.695800
23.136600 4.223700
23.175700 4.072200
23.214800 4.187600
23.253800 4.053700
23.292900 3.685100
23.332000 4.091000
23.371000 4.365700
23.410100 4.256600
23.449200 4.052400
23.488200 3.843300
23.527300 3.716100
23.566400 3.515000
23.605400 3.339500
23.644500 3.288700
23.683600 3.325100
23.722700 3.524200
23.761700 2.935500
23.800800 2.712600
23.839900 2.712000
23.878900 2.828600
23.918000 2.883800
23.957100 2.941000
23.996100 2.962900
24.035200 2.942900
24.074300 2.884800
24.113300 2.963800
24.152400 3.115900
24.191500 3.282100
24.230500 3.368300
24.269600 3.493500
24.308700 3.807400
24.347800 4.187000
24.386800 4.835100
24.425900 4.466700
24.465000 4.524500
24.504000 4.728400
24.543100 4.722800
24.582200 4.496400
24.621200 4.186400
24.660300 4.090700
24.699400 3.635300
24.738400 3.598600
24.777500 3.665300
24.816600 3.930800
24.855600 3.884000
24.894700 4.110900
24.933800 5.175300
24.972900 4.632000
25.011900 3.868300
25.051000 4.373000
25.090100 4.515200
25.129100 4.439900
25.168200 4.053200
25.207300 3.858900
25.246300 3.625500
25.285400 3.800200
25.324500 3.007700
25.363500 2.588300
25.402600 2.687200
25.441700 2.891000
25.480700 3.019200
25.519800 3.198600
25.558900 3.406100
25.597900 3.792300
25.637000 4.063300
25.676100 4.241700
25.715200 4.616900
25.754200 4.174300
25.793300 4.179200
25.832400 4.553500
25.871400 4.537000
25.910500 4.150500
25.949600 3.860200
25.988600 3.327900
26.027700 3.364100
26.066800 3.652300
26.105800 3.866500
26.144900 6.017100
26.184000 5.966200
26.223000 6.072800
26.262100 4.565400
26.301200 4.039700
26.340300 3.204900
26.379300 2.878200
26.418400 2.967000
26.457500 2.506800
26.496500 2.087200
26.535600 1.522900
26.574700 1.533500
26.613700 2.016000
26.652800 2.414100
26.691900 2.828400
26.730900 2.612700
26.770000 2.758500
26.809100 2.971200
26.848100 3.507500
26.887200 3.412600
26.926300 3.390500
26.965400 3.387500
27.004400 3.428500
27.043500 3.385400
27.082600 3.281700
27.121600 3.390400
27.160700 2.669300
27.199800 2.603200
27.238800 2.308400
27.277900 2.385900
27.317000 2.364600
27.356000 2.350100
27.395100 2.399500
27.434200 2.402700
27.473200 2.408400
27.512300 2.400300
27.551400 2.512500
27.590500 2.623500
27.629500 2.738300
27.668600 2.931500
27.707700 3.062800
27.746700 3.098200
27.785800 3.184000
27.824900 3.727800
27.863900 3.540300
27.903000 2.975800
27.942100 2.753200
27.981100 2.633200
28.020200 2.857800
28.059300 3.005000
28.098300 3.141600
28.137400 3.296700
28.176500 2.856600
28.215600 2.706200
28.254600 2.704200
28.293700 2.762400
28.332800 2.849200
28.371800 2.920800
28.410900 3.078600
28.450000 3.238900
28.489000 3.400600
28.528100 3.563900
28.567200 3.583400
28.606200 3.540500
28.645300 3.815300
28.684400 4.137600
28.723400 2.813900
28.762500 2.695600
28.801600 2.777800
28.840600 3.020700
28.879700 3.464900
28.918800 3.700000
28.957900 3.886900
28.996900 4.142000
29.036000 4.289700
29.075100 4.407300
29.114100 4.556100
29.153200 4.614500
29.192300 4.437600
29.231300 3.984700
29.270400 4.007100
29.309500 3.583600
29.348500 3.517900
29.387600 3.862300
29.426700 4.242400
29.465700 4.632400
29.504800 7.031000
29.543900 5.249900
29.583000 5.207600
29.622000 3.730400
29.661100 3.186500
29.700200 3.388900
29.739200 2.900900
29.778300 3.076500
29.817400 3.969400
29.856400 4.802500
29.895500 9.607500
29.934600 6.572700
29.973600 7.106300
30.012700 6.498100
30.051800 5.217600
30.090800 3.856200
30.129900 3.040400
30.169000 2.781700
30.208100 3.120700
30.247100 3.568000
30.286200 4.024200
30.325300 4.542700
30.364300 5.027600
30.403400 6.368900
30.442500 6.007900
30.481500 5.039000
30.520600 4.249000
30.559700 3.252200
30.598700 2.795000
30.637800 2.442300
30.676900 2.265500
30.715900 2.411300
30.755000 2.535800
30.794100 2.703200
30.833200 2.925000
30.872200 3.148700
30.911300 3.223000
30.950400 3.519800
30.989400 4.003700
31.028500 4.150200
31.067600 3.875400
31.106600 3.635300
31.145700 3.480800
31.184800 3.446900
31.223800 3.403900
31.262900 3.334600
31.302000 3.321100
31.341000 3.220300
31.380100 3.255000
31.419200 3.096500
31.458300 3.087400
31.497300 3.080600
31.536400 3.066600
31.575500 3.035600
31.614500 2.978800
31.653600 2.912700
31.692700 2.887100
31.731700 3.106100
31.770800 3.874500
31.809900 3.879400
31.848900 3.793700
31.888000 3.024600
31.927100 2.928800
31.966100 2.864600
32.005200 2.845900
32.044300 3.092200
32.083400 3.201100
32.122400 3.832400
32.161500 4.109900
32.200600 4.657300
32.239600 4.234600
32.278700 3.792300
32.317800 2.850000
32.356800 2.933800
32.395900 2.843700
32.435000 2.884600
32.474000 2.980100
32.513100 3.106000
32.552200 3.197900
32.591200 3.255800
32.630300 3.728200
32.669400 4.378200
32.708400 4.336400
32.747500 3.570600
32.786600 3.213200
32.825700 3.006300
32.864700 2.925800
32.903800 3.228900
32.942900 3.391500
32.981900 3.574600
33.021000 3.690300
33.060100 4.563100
33.099100 3.467000
33.138200 2.774100
33.177300 3.262100
33.216300 3.014300
33.255400 2.775600
33.294500 2.703100
33.333500 2.623200
33.372600 2.564200
33.411700 2.521700
33.450800 2.503700
33.489800 2.511000
33.528900 2.708900
33.568000 2.755600
33.607000 2.813200
33.646100 2.870000
33.685200 3.732400
33.724200 3.950600
33.763300 3.095900
33.802400 2.737100
33.841400 3.038500
33.880500 3.142000
33.919600 3.298200
33.958600 5.481500
33.997700 3.179400
34.036800 2.989300
34.075900 3.007400
34.114900 3.000300
34.154000 2.954900
34.193100 2.933400
34.232100 2.934700
34.271200 2.921400
34.310300 2.942700
34.349300 3.016700
34.388400 2.963800
34.427500 2.933900
34.466500 2.898800
34.505600 2.854100
34.544700 2.972000
34.583700 2.900400
34.622800 2.663900
34.661900 2.632100
34.701000 2.601700
34.740000 3.022100
34.779100 3.181600
34.818200 3.317800
34.857200 3.608200
34.896300 3.681300
34.935400 3.756700
34.974400 3.835600
35.013500 4.432300
35.052600 4.843200
35.091600 3.583500
35.130700 3.640100
35.169800 3.695800
35.208800 4.110900
35.247900 5.012800
35.287000 5.137900
35.326100 3.353200
35.365100 3.231100
35.404200 3.141200
35.443300 3.297400
35.482300 3.275400
35.521400 3.297300
35.560500 3.374200
35.599500 3.810900
35.638600 3.891000
35.677700 3.590000
35.716700 3.592000
35.755800 3.588700
35.794900 3.586500
35.833900 3.574500
35.873000 3.543100
35.912100 3.314100
35.951100 3.335700
35.990200 3.445600
36.029300 3.359500
36.068400 3.274000
36.107400 3.214000
36.146500 3.186400
36.185600 3.169700
36.224600 3.691600
36.263700 3.835700
36.302800 3.650300
36.341800 3.592400
36.380900 3.518400
36.420000 3.451700
36.459000 3.269700
36.498100 3.238000
36.537200 3.240900
36.576200 3.254000
36.615300 3.294100
36.654400 3.449700
36.693500 3.582800
36.732500 3.643100
36.771600 3.590700
36.810700 4.103600
36.849700 4.126700
36.888800 4.140400
36.927900 3.716500
36.966900 3.823000
37.006000 3.720600
37.045100 3.539800
37.084100 3.786900
37.123200 3.424300
37.162300 3.203700
37.201300 3.195800
37.240400 3.202700
37.279500 3.190900
37.318600 3.011900
37.357600 3.122500
37.396700 3.367300
37.435800 3.506200
37.474800 3.733000
37.513900 3.942600
37.553000 3.989600
37.592000 4.048200
37.631100 4.121200
37.670200 4.377300
37.709200 4.544100
37.748300 4.722600
37.787400 4.785300
37.826400 4.821000
37.865500 4.723100
37.904600 4.613300
37.943700 4.404300
37.982700 4.361200
38.021800 4.010000
38.060900 3.843300
38.099900 3.785200
38.139000 3.808200
38.178100 3.826600
38.217100 3.811300
38.256200 3.787200
38.295300 3.756600
38.334300 3.824600
38.373400 3.563600
38.412500 3.464200
38.451500 3.568700
38.490600 3.723700
38.529700 4.370000
38.568800 4.680600
38.607800 4.828400
38.646900 4.802900
38.686000 4.945800
38.725000 5.051600
38.764100 5.050300
38.803200 4.890900
38.842200 4.667100
38.881300 4.458500
38.920400 4.254200
38.959400 4.047000
38.998500 3.834900
39.037600 3.741400
39.076600 3.666800
39.115700 3.576200
39.154800 3.046000
39.193800 3.099000
39.232900 3.212800
39.272000 3.297500
39.311100 3.443100
39.350100 3.594800
39.389200 3.688500
39.428300 3.763400
39.467300 3.784900
39.506400 3.832200
39.545500 3.967600
39.584500 4.109200
39.623600 4.287900
39.662700 4.432100
39.701700 4.537500
39.740800 4.883700
39.779900 4.880800
39.818900 4.928300
39.858000 5.648600
39.897100 5.249600
39.936200 4.687200
39.975200 4.691000
40.014300 4.415600
40.053400 4.257700
40.092400 4.084200
40.131500 4.033200
40.170600 3.853300
40.209600 3.485200
40.248700 3.273000
40.287800 3.098400
40.326800 3.057800
40.365900 3.122600
40.405000 5.792600
40.444000 3.335100
40.483100 3.313500
40.522200 3.149400
40.561300 3.036500
40.600300 3.028900
40.639400 3.079200
40.678500 3.153000
40.717500 3.209700
40.756600 3.402600
40.795700 3.590800
40.834700 3.816700
40.873800 3.992500
40.912900 4.114900
40.951900 4.105000
40.991000 4.174500
41.030100 3.982100
41.069100 3.780500
41.108200 3.597800
41.147300 3.349900
41.186400 3.438600
41.225400 3.683600
41.264500 3.977400
41.303600 4.207200
41.342600 4.456700
41.381700 4.624300
41.420800 4.786900
41.459800 5.004400
41.498900 5.168100
41.538000 5.343200
41.577000 5.549900
41.616100 5.874000
41.655200 8.205900
41.694200 6.022200
41.733300 5.228300
41.772400 4.795500
41.811500 4.885300
41.850500 5.006900
41.889600 5.115700
41.928700 4.982000
41.967700 4.280600
42.006800 3.834600
42.045900 3.367000
42.084900 3.063200
42.124000 3.086300
42.163100 3.320700
42.202100 5.966700
42.241200 5.644800
42.280300 4.351900
42.319300 4.430500
42.358400 4.413500
42.397500 4.371300
42.436600 4.298600
42.475600 4.043500
42.514700 3.682800
42.553800 3.315300
42.592800 2.995300
42.631900 4.053300
42.671000 4.774100
42.710000 5.373000
42.749100 5.263400
42.788200 5.445700
42.827200 5.641200
42.866300 4.674100
42.905400 4.427600
42.944400 4.079600
42.983500 3.932000
43.022600 4.545200
43.061600 6.111800
43.100700 6.185400
43.139800 6.323100
43.178900 5.781700
43.217900 4.477700
43.257000 4.352900
43.296100 4.160800
43.335100 3.995800
43.374200 3.856100
43.413300 3.869500
43.452300 4.060600
43.491400 4.060900
43.530500 4.326700
43.569500 4.651900
43.608600 5.324700
43.647700 5.569800
43.686700 6.555200
43.725800 5.340700
43.764900 3.636700
43.804000 3.528200
43.843000 3.776000
43.882100 3.934100
43.921200 4.627200
43.960200 4.665000
43.999300 4.568300
44.038400 4.465600
44.077400 4.759800
44.116500 4.513700
44.155600 4.357100
44.194600 4.023400
44.233700 4.163600
44.272800 4.204100
44.311800 4.047300
44.350900 4.831500
44.390000 5.698800
44.429100 5.459300
44.468100 5.268400
44.507200 4.656200
44.546300 4.425700
44.585300 4.221600
44.624400 4.090200
44.663500 4.051800
44.702500 4.027700
44.741600 3.964900
44.780700 3.840400
44.819700 3.776600
44.858800 3.520000
44.897900 3.752700
44.936900 3.660800
44.976000 3.396500
45.015100 3.219700
45.054200 3.217000
45.093200 3.340000
45.132300 3.350200
45.171400 3.377700
45.210400 3.571900
45.249500 3.829900
45.288600 4.139500
45.327600 4.265600
45.366700 4.162300
45.405800 3.922600
45.444800 3.534900
45.483900 3.344600
45.523000 3.332800
45.562000 3.417000
45.601100 3.530000
45.640200 3.732200
45.679300 3.622300
45.718300 3.416400
45.757400 3.127500
45.796500 2.723500
45.835500 2.523400
45.874600 2.238700
45.913700 1.948100
45.952700 1.739100
45.991800 1.712900
46.030900 1.558200
46.069900 1.447400
46.109000 1.412600
46.148100 1.413100
46.187100 0.959000
46.226200 0.400900
46.265300 0.229400
46.304300 0.128700
46.343400 0.055500
46.382500 0.000500
46.421600 0.000000
46.460600 0.000000
46.499700 0.000000
46.538800 0.000000
46.577800 0.000000
46.616900 0.000000
46.656000 0.000000
46.695000 0.000000
46.734100 0.000000
46.773200 0.000000
46.812200 0.000000
46.851300 0.000000
46.890400 0.000000
46.929400 0.000000
46.968500 0.000000
47.007600 0.000000
47.046700 0.000000
47.085700 0.000000
47.124800 0.000000
47.163900 0.000000
47.202900 0.000000
47.242000 0.000000
47.281100 0.000000
47.320100 0.000000
47.359200 0.000000
47.398300 0.000000
47.437300 0.000000
47.476400 0.000000
47.515500 0.000000
47.554500 0.000000
47.593600 0.000000
47.632700 0.000000
47.671800 0.000000
47.710800 0.000000
47.749900 0.000000
47.789000 0.000000
47.828000 0.000000
47.867100 0.000000
47.906200 0.000000
47.945200 0.000000
47.984300 0.000000
48.023400 0.000000
48.062400 0.000000
48.101500 0.000000
48.140600 0.000000
48.179600 0.000000
48.218700 0.000000
48.257800 0.000000
48.296900 0.000000
48.335900 0.000000
48.375000 0.000000
48.414100 0.000000
48.453100 0.000000
48.492200 0.000000
48.531300 0.000000
48.570300 0.000000
48.609400 0.000000
48.648500 0.000000
48.687500 0.000000
48.726600 0.000000
48.765700 0.000000
48.804700 0.000000
48.843800 0.000000
48.882900 0.000000
48.922000 0.000000
48.961000 0.000000
49.000100 0.000000
49.039200 0.000000
49.078200 0.000000
49.117300 0.000000
49.156400 0.000000
49.195400 0.000000
49.234500 0.000000
49.273600 0.000000
49.312600 0.000000
49.351700 0.000000
49.390800 0.000000
49.429800 0.000000
49.468900 0.000000
49.508000 0.000000
49.547000 0.000000
49.586100 0.000000
49.625200 0.000000
49.664300 0.000000
49.703300 0.000000
49.742400 0.000000
49.781500 0.000000
49.820500 0.000000
49.859600 0.000000
49.898700 0.000000
49.937700 0.000000
e
