set title 'mp-458 - Density of States'
set xlabel 'Energy (eV)'
set ylabel 'DOS (states/eV)'
set grid
set xrange [-10:10]
set yrange [0:32.408]
set xzeroaxis lt -1
set terminal png size 800,600
set output 'mp-458_dos_gnuplot.png'
plot '-' using 1:2 with lines title 'DOS'
-31.747100 0.000000
-31.706100 0.000000
-31.665000 0.000000
-31.624000 0.000000
-31.582900 0.000000
-31.541900 0.000000
-31.500800 0.000000
-31.459800 0.000000
-31.418700 0.000000
-31.377700 0.000000
-31.336600 0.000000
-31.295600 0.000000
-31.254500 0.000000
-31.213500 0.000000
-31.172400 0.000000
-31.131400 0.000000
-31.090300 0.000000
-31.049300 0.000000
-31.008200 0.000000
-30.967200 0.000000
-30.926100 0.000000
-30.885100 0.000000
-30.844000 0.000000
-30.803000 0.000000
-30.761900 0.000000
-30.720900 0.000000
-30.679800 0.000000
-30.638700 0.000000
-30.597700 0.000000
-30.556600 0.000000
-30.515600 0.000000
-30.474500 0.000000
-30.433500 0.000000
-30.392400 0.000000
-30.351400 0.000000
-30.310300 0.000000
-30.269300 0.000000
-30.228200 0.000000
-30.187200 0.000000
-30.146100 0.000000
-30.105100 0.000000
-30.064000 0.000000
-30.023000 0.000000
-29.981900 0.000000
-29.940900 0.000000
-29.899800 0.000000
-29.858800 0.000000
-29.817700 0.000000
-29.776700 0.000000
-29.735600 0.000000
-29.694600 0.000000
-29.653500 0.000000
-29.612500 0.000000
-29.571400 0.000000
-29.530400 0.000000
-29.489300 0.000000
-29.448300 0.000000
-29.407200 0.000000
-29.366100 0.000000
-29.325100 0.000000
-29.284000 0.000000
-29.243000 0.000000
-29.201900 0.000000
-29.160900 0.000000
-29.119800 0.000000
-29.078800 0.000000
-29.037700 0.000000
-28.996700 0.000000
-28.955600 0.000000
-28.914600 0.000000
-28.873500 0.000000
-28.832500 0.000000
-28.791400 0.000000
-28.750400 0.000000
-28.709300 0.000000
-28.668300 0.000000
-28.627200 0.000000
-28.586200 0.000000
-28.545100 0.000000
-28.504100 0.000000
-28.463000 0.000000
-28.422000 0.000000
-28.380900 0.000000
-28.339900 0.000000
-28.298800 0.000000
-28.257800 0.000000
-28.216700 0.000000
-28.175700 0.000000
-28.134600 0.000000
-28.093500 0.000000
-28.052500 0.000000
-28.011400 4.986300
-27.970400 37.504900
-27.929300 40.084400
-27.888300 40.761300
-27.847200 37.823900
-27.806200 48.823500
-27.765100 53.162700
-27.724100 25.688800
-27.683000 57.254800
-27.642000 38.431800
-27.600900 78.641800
-27.559900 0.000000
-27.518800 0.000000
-27.477800 0.000000
-27.436700 0.000000
-27.395700 0.000000
-27.354600 25.708900
-27.313600 27.313500
-27.272500 0.000000
-27.231500 0.000000
-27.190400 0.000000
-27.149400 0.000000
-27.108300 0.000000
-27.067300 0.000000
-27.026200 0.000000
-26.985200 0.000000
-26.944100 0.000000
-26.903100 0.000000
-26.862000 0.000000
-26.820900 0.000000
-26.779900 0.000000
-26.738800 0.000000
-26.697800 0.000000
-26.656700 0.000000
-26.615700 0.000000
-26.574600 0.000000
-26.533600 0.000000
-26.492500 0.000000
-26.451500 0.000000
-26.410400 0.000000
-26.369400 0.000000
-26.328300 0.000000
-26.287300 0.000000
-26.246200 0.000000
-26.205200 0.000000
-26.164100 0.000000
-26.123100 0.000000
-26.082000 0.000000
-26.041000 0.000000
-25.999900 0.000000
-25.958900 0.000000
-25.917800 0.000000
-25.876800 0.000000
-25.835700 0.000000
-25.794700 0.000000
-25.753600 0.000000
-25.712600 0.000000
-25.671500 0.000000
-25.630500 0.000000
-25.589400 0.000000
-25.548300 0.000000
-25.507300 0.000000
-25.466200 0.000000
-25.425200 0.000000
-25.384100 0.000000
-25.343100 0.000000
-25.302000 0.000000
-25.261000 0.000000
-25.219900 0.000000
-25.178900 0.000000
-25.137800 0.000000
-25.096800 0.000000
-25.055700 0.000000
-25.014700 0.000000
-24.973600 0.000000
-24.932600 0.000000
-24.891500 0.000000
-24.850500 0.000000
-24.809400 0.000000
-24.768400 0.000000
-24.727300 0.000000
-24.686300 0.000000
-24.645200 0.000000
-24.604200 0.000000
-24.563100 0.000000
-24.522100 0.000000
-24.481000 0.000000
-24.440000 0.000000
-24.398900 0.000000
-24.357900 0.000000
-24.316800 0.000000
-24.275700 0.000000
-24.234700 0.000000
-24.193600 0.000000
-24.152600 0.000000
-24.111500 0.000000
-24.070500 0.000000
-24.029400 0.000000
-23.988400 0.000000
-23.947300 0.000000
-23.906300 0.000000
-23.865200 0.000000
-23.824200 0.000000
-23.783100 0.000000
-23.742100 0.000000
-23.701000 0.000000
-23.660000 0.000000
-23.618900 0.000000
-23.577900 0.000000
-23.536800 0.000000
-23.495800 0.000000
-23.454700 0.000000
-23.413700 0.000000
-23.372600 0.000000
-23.331600 0.000000
-23.290500 0.000000
-23.249500 0.000000
-23.208400 0.000000
-23.167400 0.000000
-23.126300 0.000000
-23.085300 0.000000
-23.044200 0.000000
-23.003100 0.000000
-22.962100 0.000000
-22.921000 0.000000
-22.880000 0.000000
-22.838900 0.000000
-22.797900 0.000000
-22.756800 0.000000
-22.715800 0.000000
-22.674700 0.000000
-22.633700 0.000000
-22.592600 0.000000
-22.551600 0.000000
-22.510500 0.000000
-22.469500 0.000000
-22.428400 0.000000
-22.387400 0.000000
-22.346300 0.000000
-22.305300 0.000000
-22.264200 0.000000
-22.223200 0.000000
-22.182100 0.000000
-22.141100 0.000000
-22.100000 0.000000
-22.059000 0.000000
-22.017900 0.000000
-21.976900 0.000000
-21.935800 0.000000
-21.894800 0.000000
-21.853700 0.000000
-21.812700 0.000000
-21.771600 0.000000
-21.730500 0.000000
-21.689500 0.000000
-21.648400 0.000000
-21.607400 0.000000
-21.566300 0.000000
-21.525300 0.000000
-21.484200 0.000000
-21.443200 0.000000
-21.402100 0.000000
-21.361100 0.000000
-21.320000 0.000000
-21.279000 0.000000
-21.237900 0.000000
-21.196900 0.000000
-21.155800 0.000000
-21.114800 0.000000
-21.073700 0.000000
-21.032700 0.000000
-20.991600 0.000000
-20.950600 0.000000
-20.909500 0.000000
-20.868500 0.000000
-20.827400 0.000000
-20.786400 0.000000
-20.745300 0.000000
-20.704300 0.000000
-20.663200 0.000000
-20.622200 0.000000
-20.581100 0.000000
-20.540100 0.000000
-20.499000 0.000000
-20.457900 0.000000
-20.416900 0.000000
-20.375800 0.000000
-20.334800 0.000000
-20.293700 0.000000
-20.252700 0.000000
-20.211600 0.000000
-20.170600 0.000000
-20.129500 0.000000
-20.088500 0.000000
-20.047400 0.000000
-20.006400 0.000000
-19.965300 0.000000
-19.924300 0.000000
-19.883200 0.000000
-19.842200 0.000000
-19.801100 0.000000
-19.760100 0.000000
-19.719000 0.000000
-19.678000 0.000000
-19.636900 0.000000
-19.595900 0.000000
-19.554800 0.000000
-19.513800 0.000000
-19.472700 0.000000
-19.431700 0.000000
-19.390600 0.000000
-19.349600 0.000000
-19.308500 0.000000
-19.267500 0.000000
-19.226400 0.000000
-19.185300 0.000000
-19.144300 0.000000
-19.103200 0.000000
-19.062200 0.000000
-19.021100 0.000000
-18.980100 0.000000
-18.939000 0.000000
-18.898000 0.000000
-18.856900 0.000000
-18.815900 0.000000
-18.774800 0.000000
-18.733800 0.000000
-18.692700 0.000000
-18.651700 0.000000
-18.610600 0.000000
-18.569600 0.000000
-18.528500 0.000000
-18.487500 0.000000
-18.446400 0.000000
-18.405400 0.000000
-18.364300 0.000000
-18.323300 0.000000
-18.282200 0.000000
-18.241200 0.000000
-18.200100 0.000000
-18.159100 0.000000
-18.118000 0.000000
-18.077000 0.000000
-18.035900 0.000000
-17.994900 0.000000
-17.953800 0.000000
-17.912700 0.000000
-17.871700 0.000000
-17.830600 0.000000
-17.789600 0.000000
-17.748500 0.000000
-17.707500 0.000000
-17.666400 0.000000
-17.625400 0.000000
-17.584300 0.000000
-17.543300 0.000000
-17.502200 0.000000
-17.461200 0.000000
-17.420100 0.000000
-17.379100 0.000000
-17.338000 0.000000
-17.297000 0.000000
-17.255900 0.000000
-17.214900 0.000000
-17.173800 0.000000
-17.132800 0.000000
-17.091700 0.000000
-17.050700 0.000000
-17.009600 0.000000
-16.968600 0.000000
-16.927500 0.000000
-16.886500 0.000000
-16.845400 0.000000
-16.804400 0.000000
-16.763300 0.000000
-16.722300 0.000000
-16.681200 0.000000
-16.640100 0.000000
-16.599100 0.000000
-16.558000 0.000000
-16.517000 0.000000
-16.475900 0.000000
-16.434900 0.000000
-16.393800 0.000000
-16.352800 0.000000
-16.311700 0.000000
-16.270700 0.000000
-16.229600 0.000000
-16.188600 0.000000
-16.147500 0.000000
-16.106500 0.000000
-16.065400 0.000000
-16.024400 0.000000
-15.983300 0.000000
-15.942300 0.000000
-15.901200 0.000000
-15.860200 0.000000
-15.819100 0.000000
-15.778100 0.000000
-15.737000 0.000000
-15.696000 0.000000
-15.654900 0.000000
-15.613900 0.000000
-15.572800 0.000000
-15.531800 0.000000
-15.490700 0.000000
-15.449700 0.000000
-15.408600 0.000000
-15.367500 0.000000
-15.326500 0.000000
-15.285400 0.000000
-15.244400 0.000000
-15.203300 0.000000
-15.162300 0.000000
-15.121200 0.000000
-15.080200 0.000000
-15.039100 0.000000
-14.998100 0.000000
-14.957000 0.000000
-14.916000 0.000000
-14.874900 0.000000
-14.833900 0.000000
-14.792800 0.000000
-14.751800 0.000000
-14.710700 0.000000
-14.669700 0.000000
-14.628600 0.000000
-14.587600 0.000000
-14.546500 0.000000
-14.505500 0.000000
-14.464400 0.000000
-14.423400 0.000000
-14.382300 0.000000
-14.341300 0.000000
-14.300200 0.000000
-14.259200 0.000000
-14.218100 0.000000
-14.177100 0.000000
-14.136000 0.000000
-14.094900 0.000000
-14.053900 0.000000
-14.012800 0.213600
-13.971800 0.485700
-13.930700 0.651500
-13.889700 0.816100
-13.848600 0.952000
-13.807600 1.102800
-13.766500 1.256400
-13.725500 1.409700
-13.684400 1.573800
-13.643400 1.747000
-13.602300 1.932300
-13.561300 2.163900
-13.520200 2.423800
-13.479200 2.707800
-13.438100 3.029000
-13.397100 3.603400
-13.356000 4.793300
-13.315000 5.471400
-13.273900 5.946000
-13.232900 5.991300
-13.191800 1.663400
-13.150800 6.078100
-13.109700 10.708500
-13.068700 8.269800
-13.027600 6.880100
-12.986600 17.662100
-12.945500 17.291600
-12.904500 12.798000
-12.863400 18.719500
-12.822400 22.699900
-12.781300 13.728300
-12.740200 5.427100
-12.699200 28.450800
-12.658100 16.759000
-12.617100 20.190200
-12.576000 16.071500
-12.535000 13.399200
-12.493900 3.284500
-12.452900 0.000000
-12.411800 0.000000
-12.370800 0.000000
-12.329700 0.000000
-12.288700 0.000000
-12.247600 0.000000
-12.206600 0.000000
-12.165500 0.000000
-12.124500 0.000000
-12.083400 0.000000
-12.042400 0.000000
-12.001300 0.000000
-11.960300 0.000000
-11.919200 0.000000
-11.878200 0.000000
-11.837100 0.000000
-11.796100 0.000000
-11.755000 0.000000
-11.714000 0.000000
-11.672900 0.000000
-11.631900 0.000000
-11.590800 0.000000
-11.549800 0.000000
-11.508700 0.000000
-11.467600 0.000000
-11.426600 0.000000
-11.385500 0.000000
-11.344500 0.000000
-11.303400 0.000000
-11.262400 0.000000
-11.221300 0.000000
-11.180300 0.000000
-11.139200 0.000000
-11.098200 0.000000
-11.057100 0.000000
-11.016100 0.000000
-10.975000 0.000000
-10.934000 0.000000
-10.892900 0.000000
-10.851900 0.000000
-10.810800 0.000000
-10.769800 0.000000
-10.728700 0.000000
-10.687700 0.000000
-10.646600 0.000000
-10.605600 0.000000
-10.564500 0.000000
-10.523500 0.000000
-10.482400 0.000000
-10.441400 0.000000
-10.400300 0.000000
-10.359300 0.000000
-10.318200 0.000000
-10.277200 0.000000
-10.236100 0.000000
-10.195000 0.000000
-10.154000 0.000000
-10.112900 0.000000
-10.071900 0.000000
-10.030800 0.000000
-9.989800 0.000000
-9.948700 0.000000
-9.907700 0.000000
-9.866600 0.000000
-9.825600 0.000000
-9.784500 0.000000
-9.743500 0.000000
-9.702400 0.000000
-9.661400 0.000000
-9.620300 0.000000
-9.579300 0.000000
-9.538200 0.000000
-9.497200 0.000000
-9.456100 0.000000
-9.415100 0.000000
-9.374000 0.000000
-9.333000 0.000000
-9.291900 0.000000
-9.250900 0.000000
-9.209800 0.000000
-9.168800 0.000000
-9.127700 0.000000
-9.086700 0.000000
-9.045600 0.000000
-9.004600 0.000000
-8.963500 0.000000
-8.922400 0.000000
-8.881400 0.000000
-8.840300 0.000000
-8.799300 0.000000
-8.758200 0.000000
-8.717200 0.000000
-8.676100 0.000000
-8.635100 0.000000
-8.594000 0.000000
-8.553000 0.000000
-8.511900 0.000000
-8.470900 0.000000
-8.429800 0.000000
-8.388800 0.000000
-8.347700 0.000000
-8.306700 0.000000
-8.265600 0.000000
-8.224600 0.000000
-8.183500 0.000000
-8.142500 0.000000
-8.101400 0.000000
-8.060400 0.000000
-8.019300 0.000000
-7.978300 0.000000
-7.937200 0.000000
-7.896200 0.000000
-7.855100 0.000000
-7.814100 0.000000
-7.773000 0.000000
-7.732000 0.000000
-7.690900 0.000000
-7.649800 0.000000
-7.608800 0.000000
-7.567700 0.000000
-7.526700 0.000000
-7.485600 0.000000
-7.444600 0.000000
-7.403500 0.000000
-7.362500 0.000000
-7.321400 0.000000
-7.280400 0.000000
-7.239300 0.000000
-7.198300 0.000000
-7.157200 0.000000
-7.116200 0.000000
-7.075100 0.000000
-7.034100 0.000000
-6.993000 0.000000
-6.952000 0.000000
-6.910900 0.000000
-6.869900 0.000000
-6.828800 0.000000
-6.787800 0.000000
-6.746700 0.000000
-6.705700 0.000000
-6.664600 0.000000
-6.623600 0.000000
-6.582500 0.000000
-6.541500 0.000000
-6.500400 0.000000
-6.459400 0.000000
-6.418300 0.000000
-6.377200 0.000000
-6.336200 0.000000
-6.295100 0.000000
-6.254100 0.000000
-6.213000 0.000000
-6.172000 0.000000
-6.130900 0.000000
-6.089900 0.000000
-6.048800 0.000000
-6.007800 0.000000
-5.966700 0.000000
-5.925700 0.000000
-5.884600 0.000000
-5.843600 0.000000
-5.802500 0.000000
-5.761500 0.000000
-5.720400 0.000000
-5.679400 0.000000
-5.638300 0.000000
-5.597300 0.000000
-5.556200 0.000000
-5.515200 0.000000
-5.474100 0.000000
-5.433100 0.000000
-5.392000 0.000000
-5.351000 0.000000
-5.309900 0.000000
-5.268900 0.000000
-5.227800 0.000000
-5.186800 0.000000
-5.145700 0.000000
-5.104600 0.000000
-5.063600 0.000000
-5.022500 0.000000
-4.981500 0.000000
-4.940400 0.000000
-4.899400 0.000000
-4.858300 0.000000
-4.817300 0.000000
-4.776200 0.000000
-4.735200 0.000000
-4.694100 0.000000
-4.653100 0.000000
-4.612000 0.000000
-4.571000 0.000000
-4.529900 0.000000
-4.488900 0.000000
-4.447800 0.000000
-4.406800 0.000000
-4.365700 0.000000
-4.324700 0.000000
-4.283600 0.000000
-4.242600 0.000000
-4.201500 0.000000
-4.160500 0.000000
-4.119400 0.000000
-4.078400 0.000000
-4.037300 0.000000
-3.996300 0.000000
-3.955200 0.000000
-3.914200 0.000000
-3.873100 0.000000
-3.832000 0.000000
-3.791000 0.000000
-3.749900 0.000000
-3.708900 0.000000
-3.667800 0.000000
-3.626800 0.000000
-3.585700 0.000000
-3.544700 0.000000
-3.503600 0.000000
-3.462600 0.000000
-3.421500 0.000000
-3.380500 0.000000
-3.339400 0.000000
-3.298400 0.000000
-3.257300 0.000000
-3.216300 0.000000
-3.175200 0.000000
-3.134200 0.000000
-3.093100 0.000000
-3.052100 0.000000
-3.011000 0.000000
-2.970000 0.000000
-2.928900 0.000000
-2.887900 0.000000
-2.846800 0.000000
-2.805800 0.000000
-2.764700 0.000000
-2.723700 0.000000
-2.682600 0.000000
-2.641600 0.000000
-2.600500 0.000000
-2.559400 0.000000
-2.518400 0.000000
-2.477300 0.000000
-2.436300 0.000000
-2.395200 0.000000
-2.354200 0.000000
-2.313100 0.000000
-2.272100 0.000000
-2.231000 0.000000
-2.190000 0.000000
-2.148900 0.000000
-2.107900 0.000000
-2.066800 0.000000
-2.025800 0.000000
-1.984700 0.000000
-1.943700 0.000000
-1.902600 0.000000
-1.861600 0.000000
-1.820500 0.000000
-1.779500 0.000000
-1.738400 0.000000
-1.697400 0.000000
-1.656300 0.000000
-1.615300 0.000000
-1.574200 0.000000
-1.533200 0.000000
-1.492100 0.000000
-1.451100 0.000000
-1.410000 0.000000
-1.369000 0.000000
-1.327900 0.000000
-1.286800 0.000000
-1.245800 0.000000
-1.204700 0.000000
-1.163700 0.000000
-1.122600 0.221700
-1.081600 0.365300
-1.040500 0.549000
-0.999500 1.457200
-0.958400 2.686400
-0.917400 3.493900
-0.876300 5.040600
-0.835300 5.155100
-0.794200 5.805000
-0.753200 8.433700
-0.712100 15.483300
-0.671100 12.712000
-0.630000 14.858100
-0.589000 10.702000
-0.547900 8.134100
-0.506900 8.111100
-0.465800 10.213000
-0.424800 9.879000
-0.383700 11.685000
-0.342700 5.353500
-0.301600 3.988400
-0.260600 6.615900
-0.219500 7.184800
-0.178500 10.563500
-0.137400 14.744900
-0.096400 13.619900
-0.055300 13.650000
-0.014200 7.221600
0.026800 6.202900
0.067900 7.698800
0.108900 10.194100
0.150000 12.938200
0.191000 9.358400
0.232100 9.129700
0.273100 10.303000
0.314200 7.647000
0.355200 7.151700
0.396300 6.104000
0.437300 10.658300
0.478400 13.474800
0.519400 9.164400
0.560500 9.972400
0.601500 17.613400
0.642600 12.084400
0.683600 11.752600
0.724700 14.389800
0.765700 15.829600
0.806800 14.243000
0.847800 14.075800
0.888900 8.247900
0.929900 6.113500
0.971000 9.117200
1.012000 12.553600
1.053100 10.571800
1.094100 6.261400
1.135200 5.312500
1.176200 6.042900
1.217300 7.125600
1.258400 9.163200
1.299400 8.913700
1.340500 6.825400
1.381500 4.424700
1.422600 6.732300
1.463600 8.115700
1.504700 7.242600
1.545700 7.482000
1.586800 5.787000
1.627800 2.893500
1.668900 5.084300
1.709900 6.277000
1.751000 8.249400
1.792000 9.640600
1.833100 10.441400
1.874100 9.041100
1.915200 9.339500
1.956200 11.038500
1.997300 9.941400
2.038300 9.237800
2.079400 9.805700
2.120400 11.923000
2.161500 15.602000
2.202500 13.175400
2.243600 6.569100
2.284600 8.167800
2.325700 8.697600
2.366700 10.473600
2.407800 10.613600
2.448800 12.100500
2.489900 10.055200
2.531000 6.455300
2.572000 5.432300
2.613100 5.554100
2.654100 9.521800
2.695200 11.846000
2.736200 11.269400
2.777300 10.811400
2.818300 16.121800
2.859400 11.325500
2.900400 3.012900
2.941500 2.075800
2.982500 1.122900
3.023600 0.387700
3.064600 0.000000
3.105700 0.000000
3.146700 0.000000
3.187800 0.000000
3.228800 0.000000
3.269900 0.000000
3.310900 0.000000
3.352000 0.000000
3.393000 0.000000
3.434100 0.000000
3.475100 0.000000
3.516200 0.000000
3.557200 0.000000
3.598300 0.000000
3.639300 0.000000
3.680400 0.000000
3.721400 0.000000
3.762500 0.000000
3.803600 0.000000
3.844600 0.000000
3.885700 0.000000
3.926700 0.000000
3.967800 0.000000
4.008800 0.000000
4.049900 0.000000
4.090900 0.000000
4.132000 0.000000
4.173000 0.000000
4.214100 0.000000
4.255100 0.000000
4.296200 0.000000
4.337200 0.000000
4.378300 0.000000
4.419300 0.000000
4.460400 0.000000
4.501400 0.000000
4.542500 0.000000
4.583500 0.000000
4.624600 0.000000
4.665600 0.000000
4.706700 0.000000
4.747700 0.000000
4.788800 0.000000
4.829800 0.000000
4.870900 0.000000
4.911900 0.000000
4.953000 0.000000
4.994000 0.000000
5.035100 0.000000
5.076200 0.000000
5.117200 0.000000
5.158300 0.000000
5.199300 0.000000
5.240400 0.000000
5.281400 0.000000
5.322500 0.000000
5.363500 0.000000
5.404600 0.000000
5.445600 0.000000
5.486700 0.000000
5.527700 0.000000
5.568800 0.000000
5.609800 0.000000
5.650900 0.000000
5.691900 0.000000
5.733000 0.000000
5.774000 0.000000
5.815100 0.000000
5.856100 0.000000
5.897200 0.000000
5.938200 0.000000
5.979300 0.000000
6.020300 0.000000
6.061400 0.000000
6.102400 1.096700
6.143500 3.190900
6.184500 4.782700
6.225600 8.868700
6.266600 9.761400
6.307700 8.664600
6.348700 8.646400
6.389800 8.265600
6.430900 6.274500
6.471900 4.976400
6.513000 4.292000
6.554000 3.767500
6.595100 3.324600
6.636100 2.923500
6.677200 2.665600
6.718200 2.402200
6.759300 2.144300
6.800300 1.905400
6.841400 1.729800
6.882400 1.462300
6.923500 1.398500
6.964500 1.623500
7.005600 1.933400
7.046600 6.600600
7.087700 10.459200
7.128700 13.405700
7.169800 14.398900
7.210800 10.853800
7.251900 8.106500
7.292900 6.363400
7.334000 12.432900
7.375000 7.810000
7.416100 4.715800
7.457100 7.531400
7.498200 11.489300
7.539200 14.481000
7.580300 22.240600
7.621300 16.273900
7.662400 14.935300
7.703500 11.098000
7.744500 12.399800
7.785600 3.799200
7.826600 4.859900
7.867700 7.303700
7.908700 10.992400
7.949800 19.561800
7.990800 11.268200
8.031900 18.655400
8.072900 24.358000
8.114000 22.399000
8.155000 29.462000
8.196100 14.221500
8.237100 11.111800
8.278200 1.219400
8.319200 2.842500
8.360300 4.501700
8.401300 5.140900
8.442400 6.009400
8.483400 6.958600
8.524500 7.951300
8.565500 9.355300
8.606600 12.083700
8.647600 8.636000
8.688700 7.167100
8.729700 6.047500
8.770800 5.293400
8.811800 3.985400
8.852900 3.051100
8.893900 2.560500
8.935000 2.120300
8.976100 1.573400
9.017100 0.861100
9.058200 0.000000
9.099200 0.000000
9.140300 0.000000
9.181300 0.000000
9.222400 0.000000
9.263400 0.000000
9.304500 0.000000
9.345500 0.000000
9.386600 5.476400
9.427600 7.042900
9.468700 10.628400
9.509700 9.789700
9.550800 13.390200
9.591800 10.484400
9.632900 11.725500
9.673900 18.921300
9.715000 13.161000
9.756000 11.964500
9.797100 12.158200
9.838100 9.923600
9.879200 8.856600
9.920200 10.011300
9.961300 8.966000
10.002300 10.501400
10.043400 10.790700
10.084400 7.982300
10.125500 4.909300
10.166500 5.879800
10.207600 10.571000
10.248700 10.464100
10.289700 7.942400
10.330800 7.966000
10.371800 6.531200
10.412900 7.322200
10.453900 10.009800
10.495000 8.541100
10.536000 8.484800
10.577100 7.254900
10.618100 9.031400
10.659200 9.749400
10.700200 9.869000
10.741300 11.390900
10.782300 10.546600
10.823400 12.114100
10.864400 7.887900
10.905500 6.712900
10.946500 5.785000
10.987600 5.848900
11.028600 6.087700
11.069700 4.280400
11.110700 4.100400
11.151800 0.492800
11.192800 0.356500
11.233900 0.305900
11.274900 0.289200
11.316000 0.286000
11.357000 0.290000
11.398100 0.295400
11.439100 0.302100
11.480200 0.310100
11.521300 0.317300
11.562300 0.324100
11.603400 0.331400
11.644400 0.340000
11.685500 0.349800
11.726500 0.359700
11.767600 0.370100
11.808600 0.380500
11.849700 0.391300
11.890700 0.402200
11.931800 0.413100
11.972800 0.424200
12.013900 0.435400
12.054900 0.446900
12.096000 0.458600
12.137000 0.471800
12.178100 0.485300
12.219100 0.499300
12.260200 0.514100
12.301200 0.529000
12.342300 0.544000
12.383300 0.559000
12.424400 0.574100
12.465400 0.591800
12.506500 0.612100
12.547500 0.630900
12.588600 0.648200
12.629600 0.663800
12.670700 0.677800
12.711700 0.690200
12.752800 0.701600
12.793900 0.715100
12.834900 0.753500
12.876000 0.774000
12.917000 0.772000
12.958100 0.783400
12.999100 0.838300
13.040200 0.854600
13.081200 0.879000
13.122300 0.907400
13.163300 0.940900
13.204400 0.979000
13.245400 1.043700
13.286500 1.101000
13.327500 1.153900
13.368600 1.211700
13.409600 1.264000
13.450700 1.286400
13.491700 1.375300
13.532800 1.390600
13.573800 1.322300
13.614900 1.307000
13.655900 1.315100
13.697000 1.337700
13.738000 1.451600
13.779100 1.508500
13.820100 1.699100
13.861200 1.670900
13.902200 1.797400
13.943300 1.720600
13.984300 1.448600
14.025400 1.401500
14.066500 1.511200
14.107500 1.647000
14.148600 1.891100
14.189600 2.238100
14.230700 2.560400
14.271700 2.461500
14.312800 2.145400
14.353800 1.995000
14.394900 1.830500
14.435900 1.759800
14.477000 1.755400
14.518000 1.740600
14.559100 1.732700
14.600100 1.683000
14.641200 1.611700
14.682200 1.470800
14.723300 1.327000
14.764300 1.359300
14.805400 1.496500
14.846400 1.785800
14.887500 3.416100
14.928500 2.976200
14.969600 2.899700
15.010600 2.846600
15.051700 2.762900
15.092700 2.719500
15.133800 2.865000
15.174800 2.966000
15.215900 2.807400
15.256900 2.610200
15.298000 2.518600
15.339100 2.583600
15.380100 2.561300
15.421200 2.530700
15.462200 2.583400
15.503300 2.723600
15.544300 3.582500
15.585400 3.282800
15.626400 3.041600
15.667500 2.622900
15.708500 2.212800
15.749600 1.987100
15.790600 1.854400
15.831700 1.896900
15.872700 1.969300
15.913800 1.967200
15.954800 2.035200
15.995900 2.201400
16.036900 2.657500
16.078000 2.860400
16.119000 2.648900
16.160100 2.009000
16.201100 1.848800
16.242200 1.689700
16.283200 1.539200
16.324300 1.452500
16.365300 1.535500
16.406400 1.718600
16.447400 1.836000
16.488500 1.812900
16.529500 1.852800
16.570600 1.936100
16.611700 2.064700
16.652700 2.234700
16.693800 2.357800
16.734800 2.552300
16.775900 2.800600
16.816900 3.088600
16.858000 3.068800
16.899000 2.834000
16.940100 2.707600
16.981100 2.448800
17.022200 2.337700
17.063200 2.292600
17.104300 2.361300
17.145300 2.479200
17.186400 2.442500
17.227400 2.366800
17.268500 2.361700
17.309500 2.575900
17.350600 2.353100
17.391600 2.253600
17.432700 2.238900
17.473700 2.125900
17.514800 2.290800
17.555800 2.708600
17.596900 2.898000
17.637900 2.773100
17.679000 2.900100
17.720000 2.238600
17.761100 2.027800
17.802100 2.156600
17.843200 2.274600
17.884300 2.695500
17.925300 4.103500
17.966400 4.795800
18.007400 5.310100
18.048500 5.524400
18.089500 5.483400
18.130600 5.472600
18.171600 5.176700
18.212700 4.606500
18.253700 4.569600
18.294800 4.869900
18.335800 5.867300
18.376900 6.005800
18.417900 6.226000
18.459000 5.481600
18.500000 4.225200
18.541100 3.483500
18.582100 3.262800
18.623200 3.285300
18.664200 3.511000
18.705300 3.528700
18.746300 3.939900
18.787400 4.173100
18.828400 3.226300
18.869500 2.865900
18.910500 2.705800
18.951600 2.485200
18.992600 2.518300
19.033700 2.710100
19.074700 2.303100
19.115800 1.034900
19.156900 1.313300
19.197900 1.970100
19.239000 3.460300
19.280000 4.716500
19.321100 6.488900
19.362100 6.613900
19.403200 5.987200
19.444200 5.993000
19.485300 5.185300
19.526300 3.850500
19.567400 3.951600
19.608400 5.354500
19.649500 3.239900
19.690500 2.804600
19.731600 2.608500
19.772600 2.496700
19.813700 2.572800
19.854700 3.703300
19.895800 4.049700
19.936800 3.464400
19.977900 4.266100
20.018900 4.383100
20.060000 4.169300
20.101000 3.693400
20.142100 3.259800
20.183100 3.567200
20.224200 4.313600
20.265200 6.168900
20.306300 6.234000
20.347300 6.785400
20.388400 7.495500
20.429500 7.205300
20.470500 6.986000
20.511600 4.869900
20.552600 4.159700
20.593700 5.217800
20.634700 5.680000
20.675800 5.948800
20.716800 5.778200
20.757900 5.215600
20.798900 4.559700
20.840000 3.213600
20.881000 2.936800
20.922100 4.306800
20.963100 6.080100
21.004200 6.391700
21.045200 5.617700
21.086300 5.823700
21.127300 5.035000
21.168400 4.855100
21.209400 4.493700
21.250500 3.990800
21.291500 3.053600
21.332600 2.397200
21.373600 2.712400
21.414700 3.445500
21.455700 3.293000
21.496800 3.779300
21.537800 5.037200
21.578900 5.454600
21.619900 5.309200
21.661000 5.048500
21.702100 4.553100
21.743100 4.072000
21.784200 3.497600
21.825200 3.413200
21.866300 2.986800
21.907300 2.906300
21.948400 3.098200
21.989400 2.792400
22.030500 2.367400
22.071500 2.161700
22.112600 2.097800
22.153600 2.129200
22.194700 2.224500
22.235700 2.469600
22.276800 2.892800
22.317800 3.227000
22.358900 3.459300
22.399900 3.736100
22.441000 4.218800
22.482000 4.713600
22.523100 5.322600
22.564100 5.233500
22.605200 5.006600
22.646200 4.921700
22.687300 3.415000
22.728300 2.923500
22.769400 3.034600
22.810400 3.170500
22.851500 3.154600
22.892500 3.847800
22.933600 3.194700
22.974700 2.984600
23.015700 2.859000
23.056800 3.113200
23.097800 3.162200
23.138900 3.070400
23.179900 2.829300
23.221000 2.856100
23.262000 3.046500
23.303100 3.113500
23.344100 3.163600
23.385200 3.527600
23.426200 3.528800
23.467300 3.730300
23.508300 3.244600
23.549400 3.199500
23.590400 2.838300
23.631500 2.837000
23.672500 2.780200
23.713600 2.979000
23.754600 3.204600
23.795700 3.368100
23.836700 3.843700
23.877800 3.489400
23.918800 3.513600
23.959900 3.548900
24.000900 3.501600
24.042000 3.453900
24.083000 3.484400
24.124100 3.531600
24.165100 3.856200
24.206200 4.030200
24.247300 4.165100
24.288300 4.448100
24.329400 3.815100
24.370400 3.460200
24.411500 3.437900
24.452500 3.535200
24.493600 3.714600
24.534600 3.914700
24.575700 3.739200
24.616700 3.568500
24.657800 3.636800
24.698800 3.814700
24.739900 3.093200
24.780900 2.550500
24.822000 2.512100
24.863000 2.701100
24.904100 3.016300
24.945100 3.309200
24.986200 3.232900
25.027200 2.819800
25.068300 2.355300
25.109300 2.147600
25.150400 1.585100
25.191400 1.448500
25.232500 1.417300
25.273500 1.352000
25.314600 1.138200
25.355600 1.250200
25.396700 1.806800
25.437700 2.680400
25.478800 3.109300
25.519800 4.058900
25.560900 5.242800
25.602000 4.937600
25.643000 5.014000
25.684100 4.940800
25.725100 4.687200
25.766200 4.394600
25.807200 4.201200
25.848300 4.412400
25.889300 4.079300
25.930400 3.448200
25.971400 3.196700
26.012500 4.084600
26.053500 4.327500
26.094600 3.866900
26.135600 3.293500
26.176700 2.862100
26.217700 2.751200
26.258800 2.767800
26.299800 3.840800
26.340900 3.837700
26.381900 4.260600
26.423000 4.677500
26.464000 5.577200
26.505100 4.478600
26.546100 3.532000
26.587200 3.272900
26.628200 3.357000
26.669300 4.013700
26.710300 4.390000
26.751400 3.867300
26.792400 3.698800
26.833500 3.725000
26.874600 3.616700
26.915600 3.634000
26.956700 3.491500
26.997700 3.446700
27.038800 3.473000
27.079800 3.458600
27.120900 3.302900
27.161900 3.259300
27.203000 3.191700
27.244000 3.337900
27.285100 3.545700
27.326100 3.941000
27.367200 5.515400
27.408200 10.462100
27.449300 5.053900
27.490300 3.887800
27.531400 3.382700
27.572400 2.865600
27.613500 3.661500
27.654500 3.614700
27.695600 3.262400
27.736600 3.414900
27.777700 3.412300
27.818700 3.606400
27.859800 3.447500
27.900800 3.454800
27.941900 3.525200
27.982900 3.613100
28.024000 3.829100
28.065000 4.158800
28.106100 4.390200
28.147200 4.823500
28.188200 5.248800
28.229300 4.974400
28.270300 4.740900
28.311400 4.696600
28.352400 4.987800
28.393500 5.189500
28.434500 3.676500
28.475600 3.094400
28.516600 2.488400
28.557700 1.962900
28.598700 1.805300
28.639800 2.065200
28.680800 2.113100
28.721900 2.255800
28.762900 2.621200
28.804000 2.739000
28.845000 2.808400
28.886100 3.125200
28.927100 3.231900
28.968200 3.636800
29.009200 3.935200
29.050300 4.145200
29.091300 4.301900
29.132400 3.738300
29.173400 3.755300
29.214500 3.923600
29.255500 4.114200
29.296600 4.280200
29.337600 4.055300
29.378700 3.884800
29.419800 3.868500
29.460800 3.673300
29.501900 3.773300
29.542900 4.158400
29.584000 4.315900
29.625000 4.513800
29.666100 4.588800
29.707100 4.633600
29.748200 4.011200
29.789200 3.972700
29.830300 3.582600
29.871300 3.615800
29.912400 3.873300
29.953400 4.145800
29.994500 3.716400
30.035500 3.743200
30.076600 3.744700
30.117600 3.760100
30.158700 3.857000
30.199700 4.124100
30.240800 4.144800
30.281800 4.015100
30.322900 3.926100
30.363900 4.087000
30.405000 3.842600
30.446000 3.945500
30.487100 3.970000
30.528100 4.468400
30.569200 3.482000
30.610200 2.790700
30.651300 2.689500
30.692400 2.641000
30.733400 2.615200
30.774500 2.572300
30.815500 2.601000
30.856600 2.678500
30.897600 2.798200
30.938700 2.985300
30.979700 3.179400
31.020800 3.080900
31.061800 3.154900
31.102900 3.406000
31.143900 3.517800
31.185000 3.618200
31.226000 3.883500
31.267100 3.706500
31.308100 3.914600
31.349200 4.630800
31.390200 4.766200
31.431300 4.414700
31.472300 4.502300
31.513400 4.198600
31.554400 4.571300
31.595500 4.513700
31.636500 4.901000
31.677600 5.183400
31.718600 5.265400
31.759700 4.793500
31.800700 4.407200
31.841800 4.285800
31.882800 4.014100
31.923900 3.891400
31.965000 4.025400
32.006000 4.653600
32.047100 4.384900
32.088100 4.117800
32.129200 3.826900
32.170200 3.719500
32.211300 3.849000
32.252300 4.048600
32.293400 4.351500
32.334400 4.842400
32.375500 5.061200
32.416500 4.863000
32.457600 4.924200
32.498600 5.484500
32.539700 4.817700
32.580700 4.250600
32.621800 3.968300
32.662800 3.910700
32.703900 3.939900
32.744900 4.098800
32.786000 4.373800
32.827000 4.578800
32.868100 4.274900
32.909100 4.304400
32.950200 4.192700
32.991200 4.038500
33.032300 3.738200
33.073300 3.357100
33.114400 3.278500
33.155400 3.209100
33.196500 3.154300
33.237600 2.951900
33.278600 3.397400
33.319700 4.214000
33.360700 4.112800
33.401800 4.209700
33.442800 4.405200
33.483900 4.148300
33.524900 4.145900
33.566000 3.765200
33.607000 3.421500
33.648100 3.377200
33.689100 3.339300
33.730200 3.465300
33.771200 3.998500
33.812300 4.076100
33.853300 3.965900
33.894400 3.996300
33.935400 4.324600
33.976500 4.775300
34.017500 5.159900
34.058600 5.368200
34.099600 5.268000
34.140700 4.466900
34.181700 3.996700
34.222800 3.638600
34.263800 3.401400
34.304900 3.030600
34.345900 2.954500
34.387000 3.113300
34.428000 3.070100
34.469100 3.202400
34.510200 4.010900
34.551200 4.176600
34.592300 4.182900
34.633300 4.320500
34.674400 4.852900
34.715400 4.617100
34.756500 3.885700
34.797500 3.794600
34.838600 4.100100
34.879600 4.202600
34.920700 4.524700
34.961700 4.892200
35.002800 4.116900
35.043800 3.555700
35.084900 3.408000
35.125900 3.358500
35.167000 3.593200
35.208000 3.437200
35.249100 3.410500
35.290100 3.644700
35.331200 4.357900
35.372200 4.969700
35.413300 6.040400
35.454300 5.924800
35.495400 5.734000
35.536400 5.557100
35.577500 5.053500
35.618500 4.961900
35.659600 4.953300
35.700600 5.539900
35.741700 6.204000
35.782800 5.514500
35.823800 5.568900
35.864900 5.303500
35.905900 5.098900
35.947000 5.166700
35.988000 5.194700
36.029100 5.698900
36.070100 5.070900
36.111200 4.596700
36.152200 4.315100
36.193300 4.021800
36.234300 3.671900
36.275400 3.593200
36.316400 4.329900
36.357500 4.379500
36.398500 4.449300
36.439600 4.417300
36.480600 4.120700
36.521700 4.111300
36.562700 5.343200
36.603800 5.238500
36.644800 4.766600
36.685900 4.357500
36.726900 3.248500
36.768000 3.034700
36.809000 3.244500
36.850100 3.910200
36.891100 4.682600
36.932200 5.636900
36.973200 5.309600
37.014300 4.628700
37.055400 4.216100
37.096400 3.968800
37.137500 3.535900
37.178500 3.359900
37.219600 3.783800
37.260600 4.100700
37.301700 4.415100
37.342700 4.667300
37.383800 5.365500
37.424800 5.535200
37.465900 7.285000
37.506900 7.754700
37.548000 7.846800
37.589000 7.030500
37.630100 6.308500
37.671100 6.313800
37.712200 8.062200
37.753200 9.063700
37.794300 9.015900
37.835300 7.430000
37.876400 8.541000
37.917400 9.495600
37.958500 7.213000
37.999500 5.627400
38.040600 5.372000
38.081600 6.338600
38.122700 7.190700
38.163700 6.226800
38.204800 5.963700
38.245800 6.719800
38.286900 6.686200
38.328000 6.655600
38.369000 6.381600
38.410100 6.670500
38.451100 6.897400
38.492200 6.261400
38.533200 5.697700
38.574300 6.150100
38.615300 4.988800
38.656400 4.508100
38.697400 4.689100
38.738500 4.921900
38.779500 5.810200
38.820600 5.782400
38.861600 5.107300
38.902700 4.784800
38.943700 4.489600
38.984800 4.292800
39.025800 4.980600
39.066900 6.046600
39.107900 6.053500
39.149000 6.561700
39.190000 6.736900
39.231100 6.951400
39.272100 5.842400
39.313200 6.245200
39.354200 6.452400
39.395300 6.578100
39.436300 6.593700
39.477400 6.317200
39.518400 6.140200
39.559500 5.854900
39.600600 5.945900
39.641600 6.071300
39.682700 7.035300
39.723700 5.857200
39.764800 5.491900
39.805800 5.064000
39.846900 5.255500
39.887900 4.755800
39.929000 4.718200
39.970000 5.596100
40.011100 6.156800
40.052100 5.892400
40.093200 5.314500
40.134200 4.702900
40.175300 4.382100
40.216300 4.444700
40.257400 4.902800
40.298400 6.239900
40.339500 6.465300
40.380500 5.699400
40.421600 6.189400
40.462600 6.410100
40.503700 6.405600
40.544700 4.835300
40.585800 4.390600
40.626800 4.930000
40.667900 5.778000
40.708900 5.054200
40.750000 4.836700
40.791000 4.834600
40.832100 4.803300
40.873200 5.724200
40.914200 5.883000
40.955300 5.277300
40.996300 5.613100
41.037400 6.184400
41.078400 7.895200
41.119500 8.158400
41.160500 8.435900
41.201600 7.748300
41.242600 6.393500
41.283700 6.890100
41.324700 7.204900
41.365800 7.803300
41.406800 8.653500
41.447900 6.598800
41.488900 4.219700
41.530000 4.739600
41.571000 6.136100
41.612100 6.659500
41.653100 6.405700
41.694200 5.807500
41.735200 6.071200
41.776300 5.887700
41.817300 6.175400
41.858400 6.948600
41.899400 7.230400
41.940500 6.640400
41.981500 5.874500
42.022600 5.987500
42.063600 6.092300
42.104700 5.744400
42.145800 5.511900
42.186800 5.018000
42.227900 4.465000
42.268900 4.250800
42.310000 4.538900
42.351000 5.964700
42.392100 7.451000
42.433100 7.030000
42.474200 6.837500
42.515200 5.420500
42.556300 4.340400
42.597300 4.216100
42.638400 4.684200
42.679400 5.902600
42.720500 7.416900
42.761500 6.676500
42.802600 5.750500
42.843600 5.226400
42.884700 4.753700
42.925700 4.203000
42.966800 4.350500
43.007800 4.115300
43.048900 4.928100
43.089900 5.283200
43.131000 5.329100
43.172000 5.186500
43.213100 4.927100
43.254100 4.837500
43.295200 4.638900
43.336200 4.930400
43.377300 5.335700
43.418400 5.759800
43.459400 5.802000
43.500500 6.016900
43.541500 6.476400
43.582600 6.949500
43.623600 6.963200
43.664700 7.531900
43.705700 6.662600
43.746800 5.892400
43.787800 5.169000
43.828900 4.906600
43.869900 4.735200
43.911000 4.720000
43.952000 6.367000
43.993100 6.150400
44.034100 5.615900
44.075200 5.211700
44.116200 4.915900
44.157300 4.357300
44.198300 4.160400
44.239400 4.705000
44.280400 5.378900
44.321500 6.288700
44.362500 6.388100
44.403600 5.361000
44.444600 4.682100
44.485700 4.635500
44.526700 4.374200
44.567800 5.011500
44.608800 3.214200
44.649900 3.459400
44.690900 4.427200
44.732000 4.465500
44.773100 4.536000
44.814100 4.718700
44.855200 4.800200
44.896200 5.273200
44.937300 4.629800
44.978300 4.555300
45.019400 5.602900
45.060400 4.511000
45.101500 4.766100
45.142500 5.605800
45.183600 4.952700
45.224600 4.543300
45.265700 4.608700
45.306700 4.679100
45.347800 4.804800
45.388800 4.212200
45.429900 3.912400
45.470900 3.934200
45.512000 3.979100
45.553000 4.000800
45.594100 4.072700
45.635100 3.918000
45.676200 4.135200
45.717200 3.735200
45.758300 3.111300
45.799300 2.822500
45.840400 2.655100
45.881400 2.332300
45.922500 2.218400
45.963500 2.202300
46.004600 2.105200
46.045700 2.073000
46.086700 1.747100
46.127800 1.489100
46.168800 1.309100
46.209900 1.157200
46.250900 1.146300
46.292000 1.077700
46.333000 0.921300
46.374100 0.855400
46.415100 0.920300
46.456200 0.739700
46.497200 0.486700
46.538300 0.267200
46.579300 0.090500
46.620400 0.000100
46.661400 0.000000
46.702500 0.000000
46.743500 0.000000
46.784600 0.000000
46.825600 0.000000
46.866700 0.000000
46.907700 0.000000
46.948800 0.000000
46.989800 0.000000
47.030900 0.000000
47.071900 0.000000
47.113000 0.000000
47.154000 0.000000
47.195100 0.000000
47.236100 0.000000
47.277200 0.000000
47.318300 0.000000
47.359300 0.000000
47.400400 0.000000
47.441400 0.000000
47.482500 0.000000
47.523500 0.000000
47.564600 0.000000
47.605600 0.000000
47.646700 0.000000
47.687700 0.000000
47.728800 0.000000
47.769800 0.000000
47.810900 0.000000
47.851900 0.000000
47.893000 0.000000
47.934000 0.000000
47.975100 0.000000
48.016100 0.000000
48.057200 0.000000
48.098200 0.000000
48.139300 0.000000
48.180300 0.000000
48.221400 0.000000
48.262400 0.000000
48.303500 0.000000
48.344500 0.000000
48.385600 0.000000
48.426600 0.000000
48.467700 0.000000
48.508700 0.000000
48.549800 0.000000
48.590900 0.000000
48.631900 0.000000
48.673000 0.000000
48.714000 0.000000
48.755100 0.000000
48.796100 0.000000
48.837200 0.000000
48.878200 0.000000
48.919300 0.000000
48.960300 0.000000
49.001400 0.000000
49.042400 0.000000
49.083500 0.000000
49.124500 0.000000
49.165600 0.000000
49.206600 0.000000
49.247700 0.000000
49.288700 0.000000
49.329800 0.000000
49.370800 0.000000
49.411900 0.000000
49.452900 0.000000
49.494000 0.000000
49.535000 0.000000
49.576100 0.000000
49.617100 0.000000
49.658200 0.000000
49.699200 0.000000
49.740300 0.000000
49.781300 0.000000
49.822400 0.000000
49.863500 0.000000
49.904500 0.000000
49.945600 0.000000
49.986600 0.000000
50.027700 0.000000
50.068700 0.000000
50.109800 0.000000
50.150800 0.000000
50.191900 0.000000
50.232900 0.000000
50.274000 0.000000
50.315000 0.000000
50.356100 0.000000
e
