set title 'mp-1120788 - Density of States'
set xlabel 'Energy (eV)'
set ylabel 'DOS (states/eV)'
set grid
set xrange [-10:10]
set yrange [0:16.450]
set xzeroaxis lt -1
set terminal png size 800,600
set output 'mp-1120788_dos_gnuplot.png'
plot '-' using 1:2 with lines title 'DOS'
-21.081600 0.000000
-21.060400 0.000000
-21.039200 0.000000
-21.018000 0.000000
-20.996800 0.000000
-20.975500 0.000000
-20.954300 0.000000
-20.933100 0.000000
-20.911900 0.000000
-20.890700 0.000000
-20.869400 0.000000
-20.848200 0.000000
-20.827000 0.000000
-20.805800 0.000000
-20.784600 0.000000
-20.763300 0.000000
-20.742100 0.000000
-20.720900 0.000000
-20.699700 0.000000
-20.678400 0.000000
-20.657200 0.000000
-20.636000 0.000000
-20.614800 0.000000
-20.593600 0.000000
-20.572300 0.000000
-20.551100 0.000000
-20.529900 0.000000
-20.508700 0.000000
-20.487500 0.000000
-20.466200 0.000000
-20.445000 0.000000
-20.423800 0.000000
-20.402600 0.000000
-20.381400 0.000000
-20.360100 0.000000
-20.338900 0.000000
-20.317700 0.000000
-20.296500 0.000000
-20.275300 0.000000
-20.254000 0.000000
-20.232800 0.000000
-20.211600 0.000000
-20.190400 0.000000
-20.169200 0.000000
-20.147900 0.000000
-20.126700 0.000000
-20.105500 0.000000
-20.084300 0.000000
-20.063100 0.000000
-20.041800 0.000000
-20.020600 0.000000
-19.999400 0.000000
-19.978200 0.000000
-19.957000 0.000000
-19.935700 0.000000
-19.914500 0.000000
-19.893300 0.000000
-19.872100 0.000000
-19.850800 0.000000
-19.829600 0.000000
-19.808400 0.000000
-19.787200 0.000000
-19.766000 0.000000
-19.744700 0.000000
-19.723500 0.000000
-19.702300 0.000000
-19.681100 0.000000
-19.659900 0.000000
-19.638600 0.000000
-19.617400 0.000000
-19.596200 0.000000
-19.575000 0.000000
-19.553800 0.000000
-19.532500 0.000000
-19.511300 0.000000
-19.490100 0.000000
-19.468900 0.000000
-19.447700 0.000000
-19.426400 0.000000
-19.405200 0.000000
-19.384000 0.000000
-19.362800 0.000000
-19.341600 0.000000
-19.320300 0.000000
-19.299100 0.000000
-19.277900 0.000000
-19.256700 0.000000
-19.235500 0.000000
-19.214200 0.000000
-19.193000 0.000000
-19.171800 0.000000
-19.150600 0.052800
-19.129400 0.634700
-19.108100 0.499700
-19.086900 0.553300
-19.065700 0.606900
-19.044500 0.614600
-19.023300 0.568400
-19.002000 0.590300
-18.980800 0.613700
-18.959600 0.637100
-18.938400 0.660500
-18.917100 0.644500
-18.895900 0.653300
-18.874700 0.662300
-18.853500 0.679500
-18.832300 0.696700
-18.811000 0.713800
-18.789800 0.729900
-18.768600 0.742500
-18.747400 0.760300
-18.726200 0.778100
-18.704900 0.795900
-18.683700 0.814100
-18.662500 0.832500
-18.641300 0.850900
-18.620100 0.892400
-18.598800 0.928400
-18.577600 0.961200
-18.556400 0.991300
-18.535200 1.021400
-18.514000 1.051400
-18.492700 1.081500
-18.471500 1.138800
-18.450300 1.246900
-18.429100 1.325100
-18.407900 1.406900
-18.386600 1.491400
-18.365400 1.575900
-18.344200 1.711400
-18.323000 2.967300
-18.301800 4.271000
-18.280500 3.860800
-18.259300 3.484400
-18.238100 4.563500
-18.216900 3.670700
-18.195700 3.838500
-18.174400 3.695200
-18.153200 14.939800
-18.132000 14.577700
-18.110800 0.000000
-18.089500 0.000000
-18.068300 0.000000
-18.047100 0.000000
-18.025900 0.000000
-18.004700 0.000000
-17.983400 0.000000
-17.962200 0.000000
-17.941000 0.000000
-17.919800 0.000000
-17.898600 0.000000
-17.877300 0.000000
-17.856100 0.000000
-17.834900 0.000000
-17.813700 0.000000
-17.792500 0.000000
-17.771200 0.000000
-17.750000 0.000000
-17.728800 0.000000
-17.707600 0.000000
-17.686400 0.000000
-17.665100 0.000000
-17.643900 0.000000
-17.622700 0.000000
-17.601500 0.000000
-17.580300 0.000000
-17.559000 0.000000
-17.537800 0.000000
-17.516600 0.000000
-17.495400 0.000000
-17.474200 0.000000
-17.452900 0.000000
-17.431700 0.000000
-17.410500 0.000000
-17.389300 0.000000
-17.368100 0.000000
-17.346800 0.000000
-17.325600 0.000000
-17.304400 0.000000
-17.283200 0.000000
-17.262000 0.000000
-17.240700 0.000000
-17.219500 0.000000
-17.198300 0.000000
-17.177100 0.000000
-17.155800 0.000000
-17.134600 0.000000
-17.113400 0.000000
-17.092200 0.000000
-17.071000 0.000000
-17.049700 0.000000
-17.028500 0.000000
-17.007300 0.000000
-16.986100 0.000000
-16.964900 0.000000
-16.943600 0.000000
-16.922400 0.000000
-16.901200 0.000000
-16.880000 0.000000
-16.858800 0.000000
-16.837500 0.000000
-16.816300 0.000000
-16.795100 0.000000
-16.773900 0.000000
-16.752700 0.000000
-16.731400 0.000000
-16.710200 0.000000
-16.689000 0.000000
-16.667800 0.000000
-16.646600 0.000000
-16.625300 0.000000
-16.604100 0.000000
-16.582900 0.000000
-16.561700 0.000000
-16.540500 0.000000
-16.519200 0.000000
-16.498000 0.000000
-16.476800 0.000000
-16.455600 0.000000
-16.434400 0.000000
-16.413100 0.000000
-16.391900 0.000000
-16.370700 0.000000
-16.349500 0.000000
-16.328200 0.000000
-16.307000 0.000000
-16.285800 0.000000
-16.264600 0.000000
-16.243400 0.000000
-16.222100 0.000000
-16.200900 0.000000
-16.179700 0.000000
-16.158500 0.000000
-16.137300 0.000000
-16.116000 0.000000
-16.094800 0.000000
-16.073600 0.000000
-16.052400 0.000000
-16.031200 0.000000
-16.009900 0.000000
-15.988700 0.000000
-15.967500 0.000000
-15.946300 0.000000
-15.925100 0.000000
-15.903800 0.000000
-15.882600 0.000000
-15.861400 0.000000
-15.840200 0.000000
-15.819000 0.000000
-15.797700 0.000000
-15.776500 0.000000
-15.755300 0.000000
-15.734100 0.000000
-15.712900 0.000000
-15.691600 0.000000
-15.670400 0.000000
-15.649200 0.000000
-15.628000 0.000000
-15.606800 0.000000
-15.585500 0.000000
-15.564300 0.000000
-15.543100 0.000000
-15.521900 0.000000
-15.500700 0.000000
-15.479400 0.000000
-15.458200 0.000000
-15.437000 0.000000
-15.415800 0.000000
-15.394500 0.000000
-15.373300 0.000000
-15.352100 0.000000
-15.330900 0.000000
-15.309700 0.000000
-15.288400 0.000000
-15.267200 0.000000
-15.246000 0.000000
-15.224800 0.000000
-15.203600 0.000000
-15.182300 0.000000
-15.161100 0.000000
-15.139900 0.000000
-15.118700 0.000000
-15.097500 0.000000
-15.076200 0.000000
-15.055000 0.000000
-15.033800 0.000000
-15.012600 0.000000
-14.991400 0.000000
-14.970100 0.000000
-14.948900 0.000000
-14.927700 0.000000
-14.906500 0.000000
-14.885300 0.000000
-14.864000 0.000000
-14.842800 0.000000
-14.821600 0.000000
-14.800400 0.000000
-14.779200 0.000000
-14.757900 0.000000
-14.736700 0.000000
-14.715500 0.000000
-14.694300 0.000000
-14.673100 0.000000
-14.651800 0.000000
-14.630600 0.000000
-14.609400 0.000000
-14.588200 0.000000
-14.566900 0.000000
-14.545700 0.000000
-14.524500 0.000000
-14.503300 0.000000
-14.482100 0.000000
-14.460800 0.000000
-14.439600 0.000000
-14.418400 0.000000
-14.397200 0.000000
-14.376000 0.000000
-14.354700 0.000000
-14.333500 0.000000
-14.312300 0.000000
-14.291100 0.000000
-14.269900 0.000000
-14.248600 0.000000
-14.227400 0.000000
-14.206200 0.000000
-14.185000 0.000000
-14.163800 0.000000
-14.142500 0.000000
-14.121300 0.000000
-14.100100 0.000000
-14.078900 0.000000
-14.057700 0.000000
-14.036400 0.000000
-14.015200 0.000000
-13.994000 0.000000
-13.972800 0.000000
-13.951600 0.000000
-13.930300 0.000000
-13.909100 0.000000
-13.887900 0.000000
-13.866700 0.000000
-13.845500 0.000000
-13.824200 0.000000
-13.803000 0.000000
-13.781800 0.000000
-13.760600 0.000000
-13.739400 0.000000
-13.718100 0.000000
-13.696900 0.000000
-13.675700 0.000000
-13.654500 0.000000
-13.633200 0.000000
-13.612000 0.000000
-13.590800 0.000000
-13.569600 0.000000
-13.548400 0.000000
-13.527100 0.000000
-13.505900 0.000000
-13.484700 0.000000
-13.463500 0.000000
-13.442300 0.000000
-13.421000 0.000000
-13.399800 0.000000
-13.378600 0.000000
-13.357400 0.000000
-13.336200 0.000000
-13.314900 0.000000
-13.293700 0.000000
-13.272500 0.000000
-13.251300 0.000000
-13.230100 0.000000
-13.208800 0.000000
-13.187600 0.000000
-13.166400 0.000000
-13.145200 0.000000
-13.124000 0.000000
-13.102700 0.000000
-13.081500 0.000000
-13.060300 0.000000
-13.039100 0.000000
-13.017900 0.000000
-12.996600 0.000000
-12.975400 0.000000
-12.954200 0.000000
-12.933000 0.000000
-12.911800 0.000000
-12.890500 0.000000
-12.869300 0.000000
-12.848100 0.000000
-12.826900 0.000000
-12.805600 0.000000
-12.784400 0.000000
-12.763200 0.000000
-12.742000 0.000000
-12.720800 0.000000
-12.699500 0.000000
-12.678300 0.000000
-12.657100 0.000000
-12.635900 0.000000
-12.614700 0.000000
-12.593400 0.000000
-12.572200 0.000000
-12.551000 0.000000
-12.529800 0.000000
-12.508600 0.000000
-12.487300 0.000000
-12.466100 0.000000
-12.444900 0.000000
-12.423700 0.000000
-12.402500 0.000000
-12.381200 0.000000
-12.360000 0.000000
-12.338800 0.000000
-12.317600 0.000000
-12.296400 0.000000
-12.275100 0.000000
-12.253900 0.000000
-12.232700 0.000000
-12.211500 0.000000
-12.190300 0.000000
-12.169000 0.000000
-12.147800 0.000000
-12.126600 0.000000
-12.105400 0.000000
-12.084200 0.000000
-12.062900 0.000000
-12.041700 0.000000
-12.020500 0.000000
-11.999300 0.000000
-11.978100 0.000000
-11.956800 0.000000
-11.935600 0.000000
-11.914400 0.000000
-11.893200 0.000000
-11.871900 0.000000
-11.850700 0.000000
-11.829500 0.000000
-11.808300 0.000000
-11.787100 0.000000
-11.765800 0.000000
-11.744600 0.000000
-11.723400 0.000000
-11.702200 0.000000
-11.681000 0.000000
-11.659700 0.000000
-11.638500 0.000000
-11.617300 0.000000
-11.596100 0.000000
-11.574900 0.000000
-11.553600 0.000000
-11.532400 0.000000
-11.511200 0.000000
-11.490000 0.000000
-11.468800 0.000000
-11.447500 0.000000
-11.426300 0.000000
-11.405100 0.000000
-11.383900 0.000000
-11.362700 0.000000
-11.341400 0.000000
-11.320200 0.000000
-11.299000 0.000000
-11.277800 0.000000
-11.256600 0.000000
-11.235300 0.000000
-11.214100 0.000000
-11.192900 0.000000
-11.171700 0.000000
-11.150500 0.000000
-11.129200 0.000000
-11.108000 0.000000
-11.086800 0.000000
-11.065600 0.000000
-11.044300 0.000000
-11.023100 0.000000
-11.001900 0.000000
-10.980700 0.000000
-10.959500 0.000000
-10.938200 0.000000
-10.917000 0.000000
-10.895800 0.000000
-10.874600 0.000000
-10.853400 0.000000
-10.832100 0.000000
-10.810900 0.000000
-10.789700 0.000000
-10.768500 0.000000
-10.747300 0.000000
-10.726000 0.000000
-10.704800 0.000000
-10.683600 0.000000
-10.662400 0.000000
-10.641200 0.000000
-10.619900 0.000000
-10.598700 0.000000
-10.577500 0.000000
-10.556300 0.000000
-10.535100 0.000000
-10.513800 0.000000
-10.492600 0.000000
-10.471400 0.000000
-10.450200 0.000000
-10.429000 0.000000
-10.407700 0.000000
-10.386500 0.000000
-10.365300 0.000000
-10.344100 0.000000
-10.322900 0.000000
-10.301600 0.000000
-10.280400 0.000000
-10.259200 0.000000
-10.238000 0.000000
-10.216800 0.000000
-10.195500 0.000000
-10.174300 0.000000
-10.153100 0.000000
-10.131900 0.000000
-10.110600 0.000000
-10.089400 0.000000
-10.068200 0.000000
-10.047000 0.000000
-10.025800 0.000000
-10.004500 0.000000
-9.983300 0.000000
-9.962100 0.000000
-9.940900 0.000000
-9.919700 0.000000
-9.898400 0.000000
-9.877200 0.000000
-9.856000 0.000000
-9.834800 0.000000
-9.813600 0.000000
-9.792300 0.000000
-9.771100 0.000000
-9.749900 0.000000
-9.728700 0.000000
-9.707500 0.000000
-9.686200 0.000000
-9.665000 0.000000
-9.643800 0.000000
-9.622600 0.000000
-9.601400 0.000000
-9.580100 0.000000
-9.558900 0.000000
-9.537700 0.000000
-9.516500 0.000000
-9.495300 0.000000
-9.474000 0.000000
-9.452800 0.000000
-9.431600 0.000000
-9.410400 0.000000
-9.389200 0.000000
-9.367900 0.000000
-9.346700 0.000000
-9.325500 0.000000
-9.304300 0.000000
-9.283000 0.000000
-9.261800 0.000000
-9.240600 0.000000
-9.219400 0.000000
-9.198200 0.000000
-9.176900 0.000000
-9.155700 0.000000
-9.134500 0.000000
-9.113300 0.000000
-9.092100 0.000000
-9.070800 0.000000
-9.049600 0.131200
-9.028400 0.445200
-9.007200 0.759200
-8.986000 0.868900
-8.964700 0.781300
-8.943500 0.706500
-8.922300 0.726200
-8.901100 0.746700
-8.879900 0.780900
-8.858600 0.815100
-8.837400 0.849300
-8.816200 0.883500
-8.795000 0.890900
-8.773800 0.896100
-8.752500 0.926000
-8.731300 0.955800
-8.710100 0.985700
-8.688900 1.043500
-8.667700 1.112900
-8.646400 1.182200
-8.625200 1.254500
-8.604000 1.327400
-8.582800 1.817300
-8.561600 1.684800
-8.540300 1.658200
-8.519100 1.727600
-8.497900 1.236800
-8.476700 1.234200
-8.455500 1.201100
-8.434200 1.169100
-8.413000 1.222500
-8.391800 1.278700
-8.370600 1.334900
-8.349300 1.391100
-8.328100 1.563200
-8.306900 1.756900
-8.285700 2.990200
-8.264500 2.423200
-8.243200 1.856200
-8.222000 0.000000
-8.200800 0.000000
-8.179600 0.000000
-8.158400 0.000000
-8.137100 0.000000
-8.115900 6.856300
-8.094700 14.917800
-8.073500 4.545000
-8.052300 3.060300
-8.031000 1.773400
-8.009800 1.501100
-7.988600 1.474900
-7.967400 1.168700
-7.946200 1.098200
-7.924900 1.035900
-7.903700 0.970500
-7.882500 0.910500
-7.861300 0.801900
-7.840100 0.800500
-7.818800 0.799200
-7.797600 0.797800
-7.776400 0.796400
-7.755200 0.786100
-7.734000 0.772600
-7.712700 0.763000
-7.691500 0.755800
-7.670300 0.748600
-7.649100 0.741400
-7.627900 0.908900
-7.606600 1.355400
-7.585400 1.258900
-7.564200 7.630500
-7.543000 14.069100
-7.521700 5.753700
-7.500500 14.954500
-7.479300 1.626900
-7.458100 1.540900
-7.436900 2.341400
-7.415600 1.436500
-7.394400 1.831600
-7.373200 2.226800
-7.352000 6.466100
-7.330800 2.636900
-7.309500 2.801100
-7.288300 5.309400
-7.267100 7.824100
-7.245900 0.995800
-7.224700 0.912300
-7.203400 1.666500
-7.182200 1.665200
-7.161000 1.678900
-7.139800 1.480500
-7.118600 2.586800
-7.097300 2.765500
-7.076100 2.563900
-7.054900 1.529000
-7.033700 0.920200
-7.012500 0.884200
-6.991200 0.848200
-6.970000 0.838000
-6.948800 0.833800
-6.927600 0.829700
-6.906400 0.825500
-6.885100 0.821400
-6.863900 0.856800
-6.842700 1.061800
-6.821500 1.043100
-6.800300 1.067800
-6.779000 1.092500
-6.757800 1.117200
-6.736600 1.141900
-6.715400 1.166600
-6.694200 1.191300
-6.672900 1.210300
-6.651700 1.284400
-6.630500 1.446500
-6.609300 1.642000
-6.588000 1.738500
-6.566800 1.813500
-6.545600 1.888400
-6.524400 1.963400
-6.503200 2.037400
-6.481900 2.108200
-6.460700 2.402700
-6.439500 2.697100
-6.418300 2.776700
-6.397100 3.380500
-6.375800 3.080300
-6.354600 1.978200
-6.333400 1.849700
-6.312200 1.667100
-6.291000 1.507200
-6.269700 1.425600
-6.248500 1.344100
-6.227300 1.272000
-6.206100 1.204700
-6.184900 1.183300
-6.163600 1.406500
-6.142400 2.627000
-6.121200 3.351400
-6.100000 7.504200
-6.078800 3.347800
-6.057500 3.176600
-6.036300 3.001400
-6.015100 2.876900
-5.993900 2.742100
-5.972700 2.623800
-5.951400 2.588100
-5.930200 2.620200
-5.909000 2.685600
-5.887800 3.040000
-5.866600 3.319900
-5.845300 3.686000
-5.824100 4.507400
-5.802900 5.924100
-5.781700 1.752400
-5.760400 0.794700
-5.739200 0.773500
-5.718000 0.752300
-5.696800 0.747200
-5.675600 0.876000
-5.654300 1.003200
-5.633100 1.044400
-5.611900 1.104200
-5.590700 1.163900
-5.569500 1.223600
-5.548200 2.325500
-5.527000 3.021200
-5.505800 0.000000
-5.484600 0.000000
-5.463400 0.000000
-5.442100 0.000000
-5.420900 1.176500
-5.399700 7.042300
-5.378500 8.275800
-5.357300 6.573200
-5.336000 5.172400
-5.314800 4.695400
-5.293600 4.848700
-5.272400 5.293800
-5.251200 6.213100
-5.229900 2.926000
-5.208700 2.988300
-5.187500 2.662200
-5.166300 2.936400
-5.145100 4.566800
-5.123800 4.725900
-5.102600 5.576900
-5.081400 7.189500
-5.060200 3.996200
-5.039000 0.000000
-5.017700 0.000000
-4.996500 0.000000
-4.975300 0.000000
-4.954100 0.000000
-4.932900 0.000000
-4.911600 0.000000
-4.890400 0.000000
-4.869200 0.000000
-4.848000 0.000000
-4.826700 0.000000
-4.805500 0.000000
-4.784300 0.000000
-4.763100 0.000000
-4.741900 0.000000
-4.720600 0.000000
-4.699400 0.000000
-4.678200 0.000000
-4.657000 0.000000
-4.635800 0.000000
-4.614500 0.000000
-4.593300 0.000000
-4.572100 0.000000
-4.550900 0.000000
-4.529700 0.000000
-4.508400 0.000000
-4.487200 0.000000
-4.466000 0.000000
-4.444800 0.000000
-4.423600 0.000000
-4.402300 0.000000
-4.381100 0.000000
-4.359900 0.000000
-4.338700 0.000000
-4.317500 0.000000
-4.296200 0.000000
-4.275000 0.000000
-4.253800 0.000000
-4.232600 0.000000
-4.211400 0.000000
-4.190100 0.000000
-4.168900 11.316300
-4.147700 3.823400
-4.126500 4.913900
-4.105300 4.315300
-4.084000 5.115900
-4.062800 3.041300
-4.041600 2.245200
-4.020400 2.163700
-3.999100 2.567900
-3.977900 2.523200
-3.956700 4.106500
-3.935500 4.443700
-3.914300 5.619200
-3.893000 6.735100
-3.871800 5.044900
-3.850600 5.325400
-3.829400 3.614900
-3.808200 3.976600
-3.786900 4.103100
-3.765700 4.229500
-3.744500 1.428200
-3.723300 1.277500
-3.702100 1.050100
-3.680800 0.946600
-3.659600 0.843200
-3.638400 0.788400
-3.617200 0.903000
-3.596000 0.758300
-3.574700 0.613500
-3.553500 0.468700
-3.532300 0.393800
-3.511100 0.000000
-3.489900 0.000000
-3.468600 0.000000
-3.447400 0.000000
-3.426200 0.000000
-3.405000 0.000000
-3.383800 0.000000
-3.362500 0.000000
-3.341300 0.000000
-3.320100 0.000000
-3.298900 0.000000
-3.277700 0.000000
-3.256400 0.000000
-3.235200 0.000000
-3.214000 0.000000
-3.192800 0.000000
-3.171600 0.000000
-3.150300 0.000000
-3.129100 0.000000
-3.107900 0.000000
-3.086700 0.000000
-3.065400 0.000000
-3.044200 0.000000
-3.023000 0.000000
-3.001800 0.000000
-2.980600 0.000000
-2.959300 0.000000
-2.938100 0.000000
-2.916900 0.000000
-2.895700 0.000000
-2.874500 0.000000
-2.853200 0.000000
-2.832000 0.000000
-2.810800 0.000000
-2.789600 0.000000
-2.768400 0.000000
-2.747100 0.000000
-2.725900 0.000000
-2.704700 0.000000
-2.683500 0.000000
-2.662300 0.000000
-2.641000 0.000000
-2.619800 0.000000
-2.598600 0.000000
-2.577400 0.000000
-2.556200 0.000000
-2.534900 0.000000
-2.513700 0.000000
-2.492500 0.000000
-2.471300 0.000000
-2.450100 0.000000
-2.428800 0.000000
-2.407600 0.000000
-2.386400 0.000000
-2.365200 0.000000
-2.344000 0.000000
-2.322700 0.000000
-2.301500 0.000000
-2.280300 0.000000
-2.259100 0.000000
-2.237800 0.000000
-2.216600 0.000000
-2.195400 0.000000
-2.174200 0.000000
-2.153000 0.000000
-2.131700 0.000000
-2.110500 0.000000
-2.089300 0.000000
-2.068100 0.000000
-2.046900 0.000000
-2.025600 0.000000
-2.004400 0.000000
-1.983200 0.000000
-1.962000 0.000000
-1.940800 0.000000
-1.919500 0.000000
-1.898300 0.000000
-1.877100 0.000000
-1.855900 0.000000
-1.834700 0.000000
-1.813400 0.000000
-1.792200 0.000000
-1.771000 0.000000
-1.749800 0.000000
-1.728600 0.000000
-1.707300 0.000000
-1.686100 0.000000
-1.664900 0.000000
-1.643700 0.000000
-1.622500 0.000000
-1.601200 0.000000
-1.580000 0.000000
-1.558800 0.000000
-1.537600 0.000000
-1.516400 0.000000
-1.495100 0.000000
-1.473900 0.000000
-1.452700 0.000000
-1.431500 0.000000
-1.410300 0.000000
-1.389000 0.000000
-1.367800 0.000000
-1.346600 0.000000
-1.325400 0.000000
-1.304100 0.000000
-1.282900 0.000000
-1.261700 0.000000
-1.240500 0.000000
-1.219300 0.000000
-1.198000 0.000000
-1.176800 0.000000
-1.155600 0.000000
-1.134400 0.000000
-1.113200 0.000000
-1.091900 0.000000
-1.070700 0.000000
-1.049500 0.000000
-1.028300 0.000000
-1.007100 0.000000
-0.985800 0.000000
-0.964600 0.000000
-0.943400 0.000000
-0.922200 0.000000
-0.901000 0.000000
-0.879700 0.000000
-0.858500 0.000000
-0.837300 0.000000
-0.816100 0.000000
-0.794900 0.000000
-0.773600 0.000000
-0.752400 0.000000
-0.731200 0.000000
-0.710000 0.000000
-0.688800 0.000000
-0.667500 0.000000
-0.646300 0.000000
-0.625100 0.000000
-0.603900 0.000000
-0.582700 0.000000
-0.561400 0.000000
-0.540200 0.000000
-0.519000 0.000000
-0.497800 0.000000
-0.476500 0.000000
-0.455300 0.000000
-0.434100 0.000000
-0.412900 0.000000
-0.391700 0.000000
-0.370400 0.000000
-0.349200 0.000000
-0.328000 0.000000
-0.306800 0.000000
-0.285600 0.000000
-0.264300 0.000000
-0.243100 0.000000
-0.221900 0.000000
-0.200700 0.000000
-0.179500 0.000000
-0.158200 0.000000
-0.137000 0.000000
-0.115800 0.000000
-0.094600 0.000000
-0.073400 0.000000
-0.052100 0.000000
-0.030900 0.000000
-0.009700 0.000000
0.011500 0.000000
0.032700 0.000000
0.054000 0.000000
0.075200 0.000000
0.096400 0.000000
0.117600 0.000000
0.138800 0.000000
0.160100 0.000000
0.181300 0.000000
0.202500 0.000000
0.223700 0.000000
0.244900 0.000000
0.266200 0.000000
0.287400 0.000000
0.308600 0.000000
0.329800 0.000000
0.351000 0.000000
0.372300 0.000000
0.393500 0.000000
0.414700 0.000000
0.435900 0.000000
0.457200 0.000000
0.478400 0.000000
0.499600 0.000000
0.520800 0.000000
0.542000 0.000000
0.563300 0.000000
0.584500 0.000000
0.605700 0.000000
0.626900 0.000000
0.648100 0.000000
0.669400 0.000000
0.690600 0.000000
0.711800 0.000000
0.733000 0.000000
0.754200 0.000000
0.775500 0.000000
0.796700 0.000000
0.817900 0.000000
0.839100 0.000000
0.860300 0.000000
0.881600 0.000000
0.902800 0.000000
0.924000 0.000000
0.945200 0.000000
0.966400 0.000000
0.987700 0.000000
1.008900 0.000000
1.030100 0.016100
1.051300 0.034500
1.072500 0.052800
1.093800 0.071200
1.115000 0.089500
1.136200 0.107900
1.157400 0.126200
1.178600 0.144500
1.199900 0.124900
1.221100 0.094600
1.242300 0.097000
1.263500 0.099300
1.284800 0.101700
1.306000 0.104000
1.327200 0.106400
1.348400 0.108700
1.369600 0.111100
1.390900 0.113400
1.412100 0.115800
1.433300 0.118100
1.454500 0.120500
1.475700 0.122800
1.497000 0.125200
1.518200 0.127500
1.539400 0.129300
1.560600 0.130000
1.581800 0.130700
1.603100 0.131400
1.624300 0.132100
1.645500 0.132800
1.666700 0.133400
1.687900 0.135100
1.709200 0.229400
1.730400 0.367700
1.751600 0.506000
1.772800 0.644300
1.794000 0.692700
1.815300 0.696500
1.836500 0.700300
1.857700 0.611600
1.878900 0.628900
1.900100 0.646200
1.921400 0.663400
1.942600 0.680700
1.963800 0.698000
1.985000 0.715300
2.006200 0.729100
2.027500 0.707200
2.048700 0.722100
2.069900 0.751200
2.091100 0.772500
2.112300 0.793800
2.133600 0.816800
2.154800 0.842400
2.176000 0.868000
2.197200 0.893600
2.218500 0.922900
2.239700 0.977100
2.260900 1.031300
2.282100 1.093400
2.303300 1.215800
2.324600 1.404000
2.345800 1.432000
2.367000 1.378300
2.388200 1.324600
2.409400 1.271000
2.430700 1.227800
2.451900 1.158400
2.473100 1.289500
2.494300 1.471800
2.515500 1.593600
2.536800 1.651300
2.558000 2.349100
2.579200 1.977400
2.600400 1.605800
2.621600 1.234100
2.642900 1.079700
2.664100 0.177000
2.685300 0.182500
2.706500 0.191300
2.727700 0.203200
2.749000 0.221500
2.770200 0.255500
2.791400 0.297200
2.812600 0.345500
2.833800 0.400100
2.855100 0.459700
2.876300 0.478300
2.897500 0.518100
2.918700 0.553700
2.939900 0.609300
2.961200 0.773300
2.982400 0.956100
3.003600 1.087700
3.024800 1.163700
3.046100 1.003400
3.067300 0.841400
3.088500 0.838400
3.109700 0.865100
3.130900 0.896300
3.152200 0.963200
3.173400 1.082700
3.194600 1.422100
3.215800 1.844300
3.237000 1.881100
3.258300 1.914000
3.279500 1.942800
3.300700 1.995200
3.321900 1.964900
3.343100 1.925700
3.364400 1.887300
3.385600 1.565300
3.406800 1.298100
3.428000 1.259400
3.449200 1.232800
3.470500 1.208500
3.491700 1.161900
3.512900 1.066700
3.534100 1.040800
3.555300 1.020600
3.576600 1.006200
3.597800 0.999700
3.619000 0.994500
3.640200 0.989300
3.661400 0.984100
3.682700 0.978900
3.703900 0.973700
3.725100 0.968600
3.746300 0.961100
3.767500 0.948900
3.788800 0.937100
3.810000 0.928700
3.831200 0.924600
3.852400 0.901600
3.873600 0.897000
3.894900 0.892100
3.916100 0.887500
3.937300 0.885200
3.958500 0.903000
3.979800 0.972600
4.001000 1.059200
4.022200 1.047600
4.043400 1.086100
4.064600 1.129800
4.085900 1.178900
4.107100 1.232400
4.128300 1.287500
4.149500 1.355000
4.170700 1.409500
4.192000 1.403300
4.213200 1.309900
4.234400 1.292200
4.255600 1.294900
4.276800 1.292500
4.298100 1.285300
4.319300 1.281200
4.340500 1.267700
4.361700 1.278600
4.382900 1.286000
4.404200 1.302100
4.425400 1.297800
4.446600 1.294600
4.467800 1.291500
4.489000 1.288100
4.510300 1.287800
4.531500 1.291600
4.552700 1.298700
4.573900 1.311100
4.595100 1.325500
4.616400 1.350400
4.637600 1.382000
4.658800 1.413900
4.680000 1.446200
4.701200 1.478400
4.722500 1.538100
4.743700 1.604200
4.764900 1.709600
4.786100 1.846800
4.807300 1.945800
4.828600 2.039700
4.849800 2.142900
4.871000 1.671300
4.892200 1.721200
4.913500 2.092200
4.934700 2.256300
4.955900 2.502900
4.977100 2.819300
4.998300 3.133900
5.019600 2.226300
5.040800 2.014000
5.062000 1.748400
5.083200 1.882200
5.104400 1.952000
5.125700 1.482200
5.146900 1.506300
5.168100 1.526100
5.189300 1.546100
5.210500 1.566400
5.231800 1.588200
5.253000 1.600700
5.274200 1.543600
5.295400 1.543900
5.316600 1.604900
5.337900 1.587200
5.359100 1.352700
5.380300 1.283300
5.401500 1.230100
5.422700 1.218600
5.444000 1.212500
5.465200 1.210400
5.486400 1.255500
5.507600 1.302400
5.528800 1.352500
5.550100 1.275200
5.571300 1.344400
5.592500 1.418200
5.613700 1.501600
5.634900 1.595900
5.656200 1.715200
5.677400 1.868400
5.698600 2.018700
5.719800 2.165500
5.741100 2.306300
5.762300 2.431000
5.783500 2.424000
5.804700 2.528300
5.825900 2.621200
5.847200 2.709100
5.868400 3.534400
5.889600 3.264400
5.910800 2.683200
5.932000 2.637200
5.953300 2.624900
5.974500 2.689500
5.995700 2.713700
6.016900 2.845200
6.038100 3.311200
6.059400 2.964600
6.080600 2.839100
6.101800 2.608600
6.123000 2.560500
6.144200 2.217800
6.165500 2.324500
6.186700 2.456700
6.207900 2.712600
6.229100 2.848500
6.250300 2.857500
6.271600 2.756400
6.292800 2.698700
6.314000 2.766200
6.335200 3.672400
6.356400 3.588400
6.377700 3.398100
6.398900 3.155100
6.420100 3.638500
6.441300 4.302000
6.462500 2.713000
6.483800 2.344700
6.505000 2.174100
6.526200 2.015000
6.547400 2.722900
6.568600 2.183400
6.589900 2.478100
6.611100 2.600300
6.632300 2.857300
6.653500 2.534700
6.674800 1.944100
6.696000 1.812500
6.717200 1.822500
6.738400 1.843600
6.759600 1.913500
6.780900 1.987700
6.802100 2.139800
6.823300 2.344000
6.844500 2.387400
6.865700 2.296200
6.887000 2.078600
6.908200 1.974100
6.929400 1.869200
6.950600 1.771500
6.971800 1.713500
6.993100 1.705000
7.014300 1.905300
7.035500 1.962600
7.056700 1.617300
7.077900 1.606000
7.099200 1.562300
7.120400 1.933000
7.141600 2.283600
7.162800 2.645300
7.184000 2.676800
7.205300 2.533100
7.226500 2.409400
7.247700 2.253000
7.268900 2.523300
7.290100 1.725800
7.311400 2.041500
7.332600 2.061600
7.353800 2.164900
7.375000 2.275500
7.396200 2.321200
7.417500 2.345100
7.438700 2.344700
7.459900 2.172900
7.481100 2.145600
7.502400 2.092800
7.523600 1.995800
7.544800 1.997400
7.566000 2.007200
7.587200 1.960000
7.608500 1.852500
7.629700 1.709500
7.650900 1.547000
7.672100 1.380700
7.693300 1.284700
7.714600 1.312600
7.735800 1.449300
7.757000 1.571200
7.778200 1.659800
7.799400 1.682800
7.820700 1.631400
7.841900 1.596000
7.863100 1.622200
7.884300 1.703800
7.905500 1.852400
7.926800 1.995500
7.948000 2.265300
7.969200 2.337600
7.990400 2.304400
8.011600 2.177700
8.032900 2.191400
8.054100 2.167700
8.075300 2.149200
8.096500 2.170700
8.117700 2.191000
8.139000 2.043900
8.160200 1.919600
8.181400 1.721000
8.202600 1.556600
8.223800 1.697600
8.245100 1.840500
8.266300 2.079700
8.287500 2.350000
8.308700 2.296300
8.329900 1.873000
8.351200 0.996000
8.372400 0.678200
8.393600 0.567300
8.414800 0.504200
8.436100 0.488900
8.457300 0.524300
8.478500 0.747300
8.499700 1.020100
8.520900 1.333900
8.542200 1.505700
8.563400 1.461300
8.584600 1.407000
8.605800 1.289700
8.627000 1.370300
8.648300 1.381400
8.669500 1.485500
8.690700 1.779800
8.711900 2.017000
8.733100 2.093000
8.754400 2.018900
8.775600 1.961800
8.796800 1.857000
8.818000 1.743500
8.839200 1.577600
8.860500 1.411000
8.881700 1.297600
8.902900 1.287400
8.924100 1.380400
8.945300 1.502100
8.966600 1.626600
8.987800 1.794200
9.009000 1.932900
9.030200 2.080000
9.051400 2.303200
9.072700 2.472500
9.093900 2.591500
9.115100 2.717600
9.136300 2.727300
9.157500 2.512200
9.178800 2.277700
9.200000 2.097100
9.221200 1.986200
9.242400 1.742300
9.263700 1.752100
9.284900 1.737000
9.306100 1.748500
9.327300 1.775800
9.348500 1.832800
9.369800 1.951600
9.391000 1.652500
9.412200 1.591300
9.433400 1.612900
9.454600 1.648300
9.475900 1.620300
9.497100 1.788200
9.518300 1.900100
9.539500 1.791900
9.560700 1.700700
9.582000 1.651100
9.603200 1.588600
9.624400 1.494800
9.645600 1.468500
9.666800 1.480700
9.688100 1.500800
9.709300 1.155400
9.730500 1.091500
9.751700 0.957000
9.772900 0.860000
9.794200 0.869900
9.815400 0.931500
9.836600 0.995800
9.857800 1.104500
9.879000 1.222600
9.900300 1.329900
9.921500 1.532500
9.942700 1.554400
9.963900 1.656800
9.985100 1.768800
10.006400 1.889300
10.027600 2.056600
10.048800 2.373600
10.070000 2.469200
10.091200 2.357500
10.112500 2.278000
10.133700 2.151800
10.154900 2.021000
10.176100 1.923300
10.197400 2.031700
10.218600 2.397600
10.239800 3.468500
10.261000 3.171300
10.282200 3.187100
10.303500 2.982700
10.324700 2.816500
10.345900 2.829800
10.367100 2.826700
10.388300 2.780500
10.409600 2.688100
10.430800 2.570300
10.452000 2.497500
10.473200 2.540100
10.494400 2.464900
10.515700 2.416500
10.536900 2.342500
10.558100 2.255500
10.579300 2.217600
10.600500 2.211500
10.621800 2.688300
10.643000 3.182200
10.664200 2.629300
10.685400 2.170400
10.706600 2.024000
10.727900 1.877300
10.749100 2.184800
10.770300 1.704700
10.791500 1.548100
10.812700 1.511000
10.834000 1.503600
10.855200 1.547900
10.876400 1.582700
10.897600 1.599700
10.918800 1.606500
10.940100 1.604600
10.961300 1.588300
10.982500 1.674700
11.003700 1.778600
11.025000 1.819400
11.046200 1.830000
11.067400 2.100600
11.088600 2.129400
11.109800 2.111400
11.131100 1.979500
11.152300 1.741600
11.173500 1.484000
11.194700 1.458400
11.215900 1.621100
11.237200 1.812900
11.258400 1.964400
11.279600 2.079600
11.300800 2.170500
11.322000 2.208700
11.343300 2.203200
11.364500 2.326100
11.385700 2.513300
11.406900 2.529100
11.428100 2.553600
11.449400 2.491200
11.470600 2.331000
11.491800 2.135200
11.513000 2.166100
11.534200 2.255500
11.555500 2.297700
11.576700 2.405000
11.597900 2.336600
11.619100 2.334500
11.640300 2.323600
11.661600 2.445400
11.682800 2.179400
11.704000 2.054900
11.725200 1.992800
11.746400 1.942000
11.767700 1.910500
11.788900 1.906700
11.810100 1.898800
11.831300 1.951200
11.852500 2.088400
11.873800 2.028700
11.895000 2.030300
11.916200 2.062900
11.937400 2.144700
11.958700 2.311400
11.979900 2.553300
12.001100 2.960900
12.022300 3.281100
12.043500 3.341400
12.064800 3.365100
12.086000 3.396000
12.107200 3.353700
12.128400 3.332800
12.149600 3.328500
12.170900 3.314400
12.192100 2.955300
12.213300 2.550100
12.234500 2.248800
12.255700 2.207900
12.277000 2.181700
12.298200 2.159500
12.319400 2.164100
12.340600 2.180800
12.361800 2.207800
12.383100 2.204000
12.404300 2.219200
12.425500 2.213600
12.446700 2.212100
12.467900 2.248000
12.489200 2.281800
12.510400 2.306600
12.531600 2.285600
12.552800 2.233200
12.574000 2.181100
12.595300 2.181900
12.616500 2.198700
12.637700 2.170800
12.658900 2.096600
12.680100 2.054300
12.701400 2.099300
12.722600 2.350000
12.743800 2.162900
12.765000 2.119500
12.786300 2.354300
12.807500 2.383800
12.828700 2.458100
12.849900 2.368700
12.871100 2.383700
12.892400 2.375900
12.913600 2.365300
12.934800 2.941400
12.956000 3.147100
12.977200 2.879500
12.998500 2.576600
13.019700 2.404100
13.040900 2.293000
13.062100 2.199300
13.083300 2.115500
13.104600 2.049300
13.125800 2.021500
13.147000 2.036500
13.168200 2.048800
13.189400 2.106500
13.210700 2.141300
13.231900 2.192900
13.253100 2.232100
13.274300 2.286200
13.295500 2.337700
13.316800 2.404400
13.338000 2.460500
13.359200 2.493500
13.380400 2.477700
13.401600 2.414900
13.422900 2.277400
13.444100 2.249000
13.465300 2.241700
13.486500 2.375100
13.507700 2.713000
13.529000 2.472900
13.550200 2.256900
13.571400 2.196000
13.592600 2.185200
13.613800 2.233700
13.635100 2.292000
13.656300 2.356300
13.677500 2.418500
13.698700 2.324400
13.720000 2.359400
13.741200 2.468300
13.762400 2.660700
13.783600 2.759000
13.804800 2.645300
13.826100 2.571300
13.847300 2.542100
13.868500 2.521400
13.889700 2.517400
13.910900 2.632100
13.932200 2.655800
13.953400 2.656900
13.974600 2.586800
13.995800 2.537300
14.017000 2.475300
14.038300 2.357600
14.059500 2.294100
14.080700 2.240900
14.101900 2.230500
14.123100 2.090000
14.144400 1.950500
14.165600 1.826800
14.186800 1.996400
14.208000 2.050000
14.229200 1.976900
14.250500 2.001600
14.271700 2.078400
14.292900 2.161000
14.314100 2.250300
14.335300 2.383800
14.356600 2.483000
14.377800 2.683100
14.399000 2.814800
14.420200 2.789700
14.441400 2.716600
14.462700 2.620900
14.483900 2.465500
14.505100 2.398100
14.526300 2.349200
14.547600 2.319200
14.568800 2.315300
14.590000 2.337800
14.611200 2.404200
14.632400 2.567000
14.653700 2.690400
14.674900 2.775100
14.696100 2.812400
14.717300 2.816900
14.738500 2.809000
14.759800 2.561600
14.781000 2.589600
14.802200 2.598300
14.823400 2.571100
14.844600 2.522700
14.865900 2.457500
14.887100 2.382000
14.908300 2.304300
14.929500 2.213300
14.950700 2.246500
14.972000 2.252700
14.993200 2.244100
15.014400 2.244700
15.035600 2.252500
15.056800 2.230000
15.078100 2.215000
15.099300 2.214800
15.120500 2.232500
15.141700 2.290800
15.162900 2.355800
15.184200 2.398300
15.205400 2.471300
15.226600 2.638500
15.247800 2.671400
15.269000 2.723100
15.290300 2.745400
15.311500 2.806600
15.332700 2.934200
15.353900 2.873600
15.375100 2.790300
15.396400 2.771300
15.417600 2.748100
15.438800 2.891500
15.460000 3.110900
15.481300 2.941400
15.502500 2.891800
15.523700 2.887300
15.544900 2.916500
15.566100 2.938200
15.587400 2.940500
15.608600 2.941100
15.629800 2.945800
15.651000 2.950800
15.672200 2.929300
15.693500 2.904500
15.714700 2.997100
15.735900 2.987600
15.757100 2.983600
15.778300 2.936200
15.799600 2.830800
15.820800 2.757900
15.842000 2.708900
15.863200 2.675200
15.884400 2.644700
15.905700 2.601800
15.926900 2.532200
15.948100 2.518400
15.969300 2.528000
15.990500 2.492500
16.011800 2.467000
16.033000 2.447000
16.054200 2.421300
16.075400 2.419900
16.096600 2.423500
16.117900 2.619400
16.139100 2.424400
16.160300 2.405800
16.181500 2.395600
16.202700 2.398800
16.224000 2.395600
16.245200 2.402700
16.266400 2.359200
16.287600 2.340900
16.308900 2.310800
16.330100 2.268800
16.351300 2.218200
16.372500 2.164400
16.393700 2.097800
16.415000 2.031000
16.436200 1.961400
16.457400 1.902900
16.478600 1.903800
16.499800 1.960400
16.521100 2.066700
16.542300 2.226600
16.563500 2.420300
16.584700 2.621000
16.605900 2.825000
16.627200 3.043400
16.648400 3.135600
16.669600 2.846900
16.690800 2.602800
16.712000 2.442400
16.733300 2.404100
16.754500 2.401200
16.775700 2.444300
16.796900 2.470500
16.818100 2.488200
16.839400 2.509500
16.860600 2.600100
16.881800 2.724500
16.903000 2.862500
16.924200 2.983000
16.945500 3.153200
16.966700 3.047600
16.987900 2.935200
17.009100 2.810700
17.030300 2.700700
17.051600 2.608800
17.072800 2.578100
17.094000 2.645700
17.115200 2.790300
17.136400 2.954800
17.157700 3.159000
17.178900 3.492400
17.200100 3.454000
17.221300 3.479000
17.242600 3.404500
17.263800 3.268200
17.285000 2.878400
17.306200 2.619800
17.327400 2.717800
17.348700 2.572000
17.369900 2.519000
17.391100 2.522100
17.412300 2.541200
17.433500 2.583100
17.454800 2.682400
17.476000 2.805600
17.497200 2.884700
17.518400 2.870000
17.539600 2.919700
17.560900 3.016300
17.582100 3.059100
17.603300 3.077900
17.624500 3.085600
17.645700 3.080900
17.667000 3.145500
17.688200 3.043600
17.709400 2.767600
17.730600 2.491300
17.751800 2.295100
17.773100 2.152700
17.794300 2.053800
17.815500 2.045600
17.836700 2.021000
17.857900 2.013500
17.879200 2.033700
17.900400 2.050700
17.921600 2.072700
17.942800 2.101600
17.964000 2.218300
17.985300 2.236600
18.006500 2.273300
18.027700 2.357700
18.048900 2.501800
18.070200 2.650900
18.091400 2.739000
18.112600 2.863900
18.133800 2.858500
18.155000 2.824800
18.176300 2.836700
18.197500 2.847500
18.218700 2.829900
18.239900 2.867800
18.261100 2.876500
18.282400 2.847200
18.303600 2.925500
18.324800 2.728700
18.346000 2.563200
18.367200 2.364700
18.388500 2.143800
18.409700 1.943400
18.430900 1.900500
18.452100 1.934100
18.473300 2.002700
18.494600 2.081000
18.515800 1.992400
18.537000 1.970400
18.558200 1.995900
18.579400 2.008500
18.600700 1.772700
18.621900 1.690000
18.643100 1.615300
18.664300 1.532900
18.685500 1.437800
18.706800 1.344300
18.728000 1.138900
18.749200 1.061600
18.770400 0.990400
18.791600 0.823200
18.812900 0.694200
18.834100 0.635500
18.855300 0.608300
18.876500 0.402600
18.897700 0.298200
18.919000 0.122000
18.940200 0.117400
18.961400 0.116900
18.982600 0.116500
19.003900 0.116300
19.025100 0.116200
19.046300 0.116200
19.067500 0.116400
19.088700 0.116700
19.110000 0.141900
19.131200 0.160200
19.152400 0.161500
19.173600 0.151700
19.194800 0.141000
19.216100 0.130500
19.237300 0.120100
19.258500 0.110000
19.279700 0.110000
19.300900 0.201200
19.322200 0.000000
19.343400 0.000000
19.364600 0.000000
19.385800 0.000000
19.407000 0.000000
19.428300 0.000000
19.449500 0.000000
19.470700 0.000000
19.491900 0.000000
19.513100 0.000000
19.534400 0.000000
19.555600 0.000000
19.576800 0.000000
19.598000 0.000000
19.619200 0.000000
19.640500 0.000000
19.661700 0.000000
19.682900 0.000000
19.704100 0.000000
19.725300 0.000000
19.746600 0.000000
19.767800 0.000000
19.789000 0.000000
19.810200 0.000000
19.831500 0.000000
19.852700 0.000000
19.873900 0.000000
19.895100 0.000000
19.916300 0.000000
19.937600 0.000000
19.958800 0.000000
19.980000 0.000000
20.001200 0.000000
20.022400 0.000000
20.043700 0.000000
20.064900 0.000000
20.086100 0.000000
20.107300 0.000000
20.128500 0.000000
20.149800 0.000000
20.171000 0.000000
20.192200 0.000000
20.213400 0.000000
20.234600 0.000000
20.255900 0.000000
20.277100 0.000000
20.298300 0.000000
20.319500 0.000000
20.340700 0.000000
20.362000 0.000000
20.383200 0.000000
20.404400 0.000000
20.425600 0.000000
20.446800 0.000000
20.468100 0.000000
20.489300 0.000000
20.510500 0.000000
20.531700 0.000000
20.552900 0.000000
20.574200 0.000000
20.595400 0.000000
20.616600 0.000000
20.637800 0.000000
20.659000 0.000000
20.680300 0.000000
20.701500 0.000000
20.722700 0.000000
20.743900 0.000000
20.765200 0.000000
20.786400 0.000000
20.807600 0.000000
20.828800 0.000000
20.850000 0.000000
20.871300 0.000000
20.892500 0.000000
20.913700 0.000000
20.934900 0.000000
20.956100 0.000000
20.977400 0.000000
20.998600 0.000000
21.019800 0.000000
21.041000 0.000000
21.062200 0.000000
21.083500 0.000000
21.104700 0.000000
21.125900 0.000000
21.147100 0.000000
21.168300 0.000000
21.189600 0.000000
21.210800 0.000000
21.232000 0.000000
21.253200 0.000000
21.274400 0.000000
21.295700 0.000000
21.316900 0.000000
21.338100 0.000000
21.359300 0.000000
e
