set title 'mp-1216313 - Density of States'
set xlabel 'Energy (eV)'
set ylabel 'DOS (states/eV)'
set grid
set xrange [-10:10]
set yrange [0:6.830]
set xzeroaxis lt -1
set terminal png size 800,600
set output 'mp-1216313_dos_gnuplot.png'
plot '-' using 1:2 with lines title 'DOS'
-62.936900 0.000000
-62.867700 0.000000
-62.798600 0.000000
-62.729500 0.000000
-62.660300 0.000000
-62.591200 0.000000
-62.522000 0.000000
-62.452900 0.000000
-62.383700 0.000000
-62.314600 0.000000
-62.245400 0.000000
-62.176300 0.000000
-62.107100 0.000000
-62.038000 0.000000
-61.968800 0.000000
-61.899700 0.000000
-61.830500 0.000000
-61.761400 0.000000
-61.692200 0.000000
-61.623100 0.000000
-61.553900 0.000000
-61.484800 0.000000
-61.415700 0.000000
-61.346500 0.000000
-61.277400 0.000000
-61.208200 0.000000
-61.139100 0.000000
-61.069900 0.000000
-61.000800 0.000000
-60.931600 0.000000
-60.862500 0.000000
-60.793300 0.000000
-60.724200 0.000000
-60.655000 0.000000
-60.585900 0.000000
-60.516700 0.000000
-60.447600 0.000000
-60.378400 0.000000
-60.309300 0.000000
-60.240200 0.000000
-60.171000 0.000000
-60.101900 0.000000
-60.032700 0.000000
-59.963600 0.000000
-59.894400 0.000000
-59.825300 0.000000
-59.756100 0.000000
-59.687000 0.000000
-59.617800 0.000000
-59.548700 0.000000
-59.479500 0.000000
-59.410400 0.000000
-59.341200 0.000000
-59.272100 0.000000
-59.202900 0.000000
-59.133800 0.000000
-59.064600 0.000000
-58.995500 0.000000
-58.926400 0.000000
-58.857200 0.000000
-58.788100 0.000000
-58.718900 0.000000
-58.649800 0.000000
-58.580600 0.000000
-58.511500 0.000000
-58.442300 0.000000
-58.373200 0.000000
-58.304000 0.000000
-58.234900 0.000000
-58.165700 0.000000
-58.096600 0.000000
-58.027400 0.000000
-57.958300 0.000000
-57.889100 0.000000
-57.820000 0.000000
-57.750900 0.000000
-57.681700 0.000000
-57.612600 0.000000
-57.543400 0.000000
-57.474300 0.000000
-57.405100 0.000000
-57.336000 0.000000
-57.266800 0.000000
-57.197700 0.000000
-57.128500 0.000000
-57.059400 0.000000
-56.990200 0.000000
-56.921100 0.000000
-56.851900 0.000000
-56.782800 0.000000
-56.713600 0.000000
-56.644500 59.856800
-56.575400 0.000000
-56.506200 0.000000
-56.437100 15.897100
-56.367900 39.763200
-56.298800 0.000000
-56.229600 0.000000
-56.160500 0.000000
-56.091300 0.000000
-56.022200 0.000000
-55.953000 0.000000
-55.883900 0.000000
-55.814700 0.000000
-55.745600 0.000000
-55.676400 0.000000
-55.607300 0.000000
-55.538100 0.000000
-55.469000 0.000000
-55.399800 0.000000
-55.330700 0.000000
-55.261600 0.000000
-55.192400 0.000000
-55.123300 0.000000
-55.054100 0.000000
-54.985000 0.000000
-54.915800 0.000000
-54.846700 0.000000
-54.777500 0.000000
-54.708400 0.000000
-54.639200 0.000000
-54.570100 0.000000
-54.500900 0.000000
-54.431800 0.000000
-54.362600 0.000000
-54.293500 0.000000
-54.224300 0.000000
-54.155200 0.000000
-54.086100 0.000000
-54.016900 0.000000
-53.947800 0.000000
-53.878600 0.000000
-53.809500 0.000000
-53.740300 0.000000
-53.671200 0.000000
-53.602000 0.000000
-53.532900 0.000000
-53.463700 0.000000
-53.394600 0.000000
-53.325400 0.000000
-53.256300 0.000000
-53.187100 0.000000
-53.118000 0.000000
-53.048800 0.000000
-52.979700 0.000000
-52.910600 0.000000
-52.841400 0.000000
-52.772300 0.000000
-52.703100 0.000000
-52.634000 0.000000
-52.564800 0.000000
-52.495700 0.000000
-52.426500 0.000000
-52.357400 0.000000
-52.288200 0.000000
-52.219100 0.000000
-52.149900 0.000000
-52.080800 0.000000
-52.011600 0.000000
-51.942500 0.000000
-51.873300 0.000000
-51.804200 0.000000
-51.735000 0.000000
-51.665900 0.000000
-51.596800 0.000000
-51.527600 0.000000
-51.458500 0.000000
-51.389300 0.000000
-51.320200 0.000000
-51.251000 0.000000
-51.181900 0.000000
-51.112700 0.000000
-51.043600 0.000000
-50.974400 0.000000
-50.905300 0.000000
-50.836100 0.000000
-50.767000 0.000000
-50.697800 0.000000
-50.628700 0.000000
-50.559500 0.000000
-50.490400 0.000000
-50.421300 0.000000
-50.352100 0.000000
-50.283000 0.000000
-50.213800 0.000000
-50.144700 0.000000
-50.075500 0.000000
-50.006400 0.000000
-49.937200 0.000000
-49.868100 0.000000
-49.798900 0.000000
-49.729800 0.000000
-49.660600 0.000000
-49.591500 0.000000
-49.522300 0.000000
-49.453200 0.000000
-49.384000 0.000000
-49.314900 0.000000
-49.245700 0.000000
-49.176600 0.000000
-49.107500 0.000000
-49.038300 0.000000
-48.969200 0.000000
-48.900000 0.000000
-48.830900 0.000000
-48.761700 0.000000
-48.692600 0.000000
-48.623400 0.000000
-48.554300 0.000000
-48.485100 0.000000
-48.416000 0.000000
-48.346800 0.000000
-48.277700 0.000000
-48.208500 0.000000
-48.139400 0.000000
-48.070200 0.000000
-48.001100 0.000000
-47.932000 0.000000
-47.862800 0.000000
-47.793700 0.000000
-47.724500 0.000000
-47.655400 0.000000
-47.586200 0.000000
-47.517100 0.000000
-47.447900 0.000000
-47.378800 0.000000
-47.309600 0.000000
-47.240500 0.000000
-47.171300 0.000000
-47.102200 0.000000
-47.033000 0.000000
-46.963900 0.000000
-46.894700 0.000000
-46.825600 0.000000
-46.756500 0.000000
-46.687300 0.000000
-46.618200 0.000000
-46.549000 0.000000
-46.479900 0.000000
-46.410700 0.000000
-46.341600 0.000000
-46.272400 0.000000
-46.203300 0.000000
-46.134100 0.000000
-46.065000 0.000000
-45.995800 0.000000
-45.926700 0.000000
-45.857500 0.000000
-45.788400 0.000000
-45.719200 0.000000
-45.650100 0.000000
-45.580900 0.000000
-45.511800 0.000000
-45.442700 0.000000
-45.373500 0.000000
-45.304400 0.000000
-45.235200 0.000000
-45.166100 0.000000
-45.096900 0.000000
-45.027800 0.000000
-44.958600 0.000000
-44.889500 0.000000
-44.820300 0.000000
-44.751200 0.000000
-44.682000 0.000000
-44.612900 0.000000
-44.543700 0.000000
-44.474600 0.000000
-44.405400 0.000000
-44.336300 0.000000
-44.267200 0.000000
-44.198000 0.000000
-44.128900 0.000000
-44.059700 0.000000
-43.990600 0.000000
-43.921400 0.000000
-43.852300 0.000000
-43.783100 0.000000
-43.714000 0.000000
-43.644800 0.000000
-43.575700 0.000000
-43.506500 0.000000
-43.437400 0.000000
-43.368200 0.000000
-43.299100 0.000000
-43.229900 0.000000
-43.160800 0.000000
-43.091600 0.000000
-43.022500 0.000000
-42.953400 0.000000
-42.884200 0.000000
-42.815100 0.000000
-42.745900 0.000000
-42.676800 0.000000
-42.607600 0.000000
-42.538500 0.000000
-42.469300 0.000000
-42.400200 0.000000
-42.331000 0.000000
-42.261900 0.000000
-42.192700 0.000000
-42.123600 0.000000
-42.054400 0.000000
-41.985300 0.000000
-41.916100 0.000000
-41.847000 0.000000
-41.777900 0.000000
-41.708700 0.000000
-41.639600 0.000000
-41.570400 0.000000
-41.501300 0.000000
-41.432100 0.000000
-41.363000 0.000000
-41.293800 0.000000
-41.224700 0.000000
-41.155500 0.000000
-41.086400 0.000000
-41.017200 0.000000
-40.948100 0.000000
-40.878900 0.000000
-40.809800 0.000000
-40.740600 0.000000
-40.671500 0.000000
-40.602400 0.000000
-40.533200 0.000000
-40.464100 0.000000
-40.394900 0.000000
-40.325800 0.000000
-40.256600 0.000000
-40.187500 0.000000
-40.118300 0.000000
-40.049200 0.000000
-39.980000 0.000000
-39.910900 0.000000
-39.841700 0.000000
-39.772600 0.000000
-39.703400 0.000000
-39.634300 0.000000
-39.565100 0.000000
-39.496000 0.000000
-39.426800 0.000000
-39.357700 0.000000
-39.288600 0.000000
-39.219400 0.000000
-39.150300 0.000000
-39.081100 0.000000
-39.012000 0.000000
-38.942800 0.000000
-38.873700 0.000000
-38.804500 0.000000
-38.735400 0.000000
-38.666200 0.000000
-38.597100 0.000000
-38.527900 0.000000
-38.458800 0.000000
-38.389600 0.000000
-38.320500 0.000000
-38.251300 0.000000
-38.182200 0.000000
-38.113100 0.000000
-38.043900 0.000000
-37.974800 0.000000
-37.905600 0.000000
-37.836500 0.000000
-37.767300 0.000000
-37.698200 0.000000
-37.629000 0.000000
-37.559900 0.000000
-37.490700 0.000000
-37.421600 0.000000
-37.352400 0.000000
-37.283300 0.000000
-37.214100 0.000000
-37.145000 0.000000
-37.075800 0.000000
-37.006700 0.000000
-36.937500 0.000000
-36.868400 0.000000
-36.799300 0.000000
-36.730100 0.000000
-36.661000 0.000000
-36.591800 0.000000
-36.522700 0.000000
-36.453500 0.000000
-36.384400 0.000000
-36.315200 0.000000
-36.246100 0.000000
-36.176900 0.000000
-36.107800 0.000000
-36.038600 0.000000
-35.969500 0.000000
-35.900300 0.000000
-35.831200 0.000000
-35.762000 0.000000
-35.692900 0.000000
-35.623800 0.000000
-35.554600 0.000000
-35.485500 0.000000
-35.416300 0.000000
-35.347200 0.000000
-35.278000 0.000000
-35.208900 0.000000
-35.139700 0.000000
-35.070600 0.000000
-35.001400 0.000000
-34.932300 0.000000
-34.863100 0.000000
-34.794000 0.000000
-34.724800 0.000000
-34.655700 0.000000
-34.586500 0.000000
-34.517400 0.000000
-34.448300 0.000000
-34.379100 0.000000
-34.310000 0.000000
-34.240800 0.000000
-34.171700 0.000000
-34.102500 0.000000
-34.033400 0.000000
-33.964200 0.000000
-33.895100 0.000000
-33.825900 0.000000
-33.756800 0.000000
-33.687600 0.000000
-33.618500 0.000000
-33.549300 0.000000
-33.480200 0.000000
-33.411000 0.000000
-33.341900 0.000000
-33.272700 0.000000
-33.203600 0.000000
-33.134500 0.000000
-33.065300 0.000000
-32.996200 0.000000
-32.927000 0.000000
-32.857900 0.000000
-32.788700 0.000000
-32.719600 0.000000
-32.650400 0.000000
-32.581300 0.000000
-32.512100 0.000000
-32.443000 0.000000
-32.373800 0.000000
-32.304700 0.000000
-32.235500 0.000000
-32.166400 0.000000
-32.097200 0.000000
-32.028100 0.000000
-31.959000 0.000000
-31.889800 0.000000
-31.820700 0.000000
-31.751500 0.000000
-31.682400 0.000000
-31.613200 0.000000
-31.544100 0.000000
-31.474900 0.000000
-31.405800 0.000000
-31.336600 0.000000
-31.267500 0.000000
-31.198300 0.000000
-31.129200 3.705600
-31.060000 4.374100
-30.990900 7.706200
-30.921700 2.512700
-30.852600 6.468200
-30.783400 11.134700
-30.714300 19.301400
-30.645200 3.350400
-30.576000 3.151300
-30.506900 3.928700
-30.437700 5.553800
-30.368600 6.686800
-30.299400 5.064000
-30.230300 4.061400
-30.161100 1.134300
-30.092000 0.000000
-30.022800 0.000000
-29.953700 0.000000
-29.884500 0.000000
-29.815400 0.000000
-29.746200 0.000000
-29.677100 0.000000
-29.607900 0.000000
-29.538800 0.000000
-29.469700 0.000000
-29.400500 0.000000
-29.331400 0.000000
-29.262200 0.000000
-29.193100 0.000000
-29.123900 0.000000
-29.054800 0.000000
-28.985600 0.000000
-28.916500 0.000000
-28.847300 0.000000
-28.778200 0.000000
-28.709000 0.000000
-28.639900 0.000000
-28.570700 0.000000
-28.501600 0.000000
-28.432400 0.000000
-28.363300 0.000000
-28.294200 0.000000
-28.225000 0.000000
-28.155900 0.000000
-28.086700 0.000000
-28.017600 0.000000
-27.948400 0.000000
-27.879300 0.000000
-27.810100 0.000000
-27.741000 0.000000
-27.671800 0.000000
-27.602700 0.000000
-27.533500 0.000000
-27.464400 0.000000
-27.395200 0.000000
-27.326100 0.000000
-27.256900 0.000000
-27.187800 0.000000
-27.118600 0.000000
-27.049500 0.000000
-26.980400 0.000000
-26.911200 0.000000
-26.842100 0.000000
-26.772900 0.000000
-26.703800 0.000000
-26.634600 0.000000
-26.565500 0.000000
-26.496300 0.000000
-26.427200 0.000000
-26.358000 0.000000
-26.288900 0.000000
-26.219700 0.000000
-26.150600 0.000000
-26.081400 0.000000
-26.012300 0.000000
-25.943100 0.000000
-25.874000 0.000000
-25.804900 0.000000
-25.735700 0.000000
-25.666600 0.000000
-25.597400 0.000000
-25.528300 0.000000
-25.459100 0.000000
-25.390000 0.000000
-25.320800 0.000000
-25.251700 0.000000
-25.182500 0.000000
-25.113400 0.000000
-25.044200 0.000000
-24.975100 0.000000
-24.905900 0.000000
-24.836800 0.000000
-24.767600 0.000000
-24.698500 0.000000
-24.629300 0.000000
-24.560200 0.000000
-24.491100 0.000000
-24.421900 0.000000
-24.352800 0.000000
-24.283600 0.000000
-24.214500 0.000000
-24.145300 0.000000
-24.076200 0.000000
-24.007000 0.000000
-23.937900 0.000000
-23.868700 0.000000
-23.799600 0.000000
-23.730400 0.000000
-23.661300 0.000000
-23.592100 0.000000
-23.523000 0.000000
-23.453800 0.000000
-23.384700 0.000000
-23.315600 0.000000
-23.246400 0.000000
-23.177300 0.000000
-23.108100 0.000000
-23.039000 0.000000
-22.969800 0.000000
-22.900700 0.000000
-22.831500 0.000000
-22.762400 0.000000
-22.693200 0.000000
-22.624100 0.000000
-22.554900 0.000000
-22.485800 0.000000
-22.416600 0.000000
-22.347500 0.000000
-22.278300 0.000000
-22.209200 0.000000
-22.140100 0.000000
-22.070900 0.000000
-22.001800 0.000000
-21.932600 0.000000
-21.863500 0.000000
-21.794300 0.000000
-21.725200 0.000000
-21.656000 0.000000
-21.586900 0.000000
-21.517700 0.000000
-21.448600 0.000000
-21.379400 0.000000
-21.310300 0.000000
-21.241100 0.000000
-21.172000 0.000000
-21.102800 0.000000
-21.033700 0.000000
-20.964500 0.000000
-20.895400 0.000000
-20.826300 0.000000
-20.757100 0.000000
-20.688000 0.000000
-20.618800 0.000000
-20.549700 0.000000
-20.480500 0.000000
-20.411400 0.000000
-20.342200 0.000000
-20.273100 0.000000
-20.203900 0.000000
-20.134800 0.000000
-20.065600 0.000000
-19.996500 0.000000
-19.927300 0.000000
-19.858200 0.000000
-19.789000 0.000000
-19.719900 0.000000
-19.650800 0.000000
-19.581600 0.000000
-19.512500 0.000000
-19.443300 0.000000
-19.374200 0.000000
-19.305000 0.000000
-19.235900 0.000000
-19.166700 0.000000
-19.097600 0.000000
-19.028400 0.000000
-18.959300 0.000000
-18.890100 0.000000
-18.821000 0.000000
-18.751800 0.000000
-18.682700 0.000000
-18.613500 0.000000
-18.544400 0.000000
-18.475300 0.000000
-18.406100 0.000000
-18.337000 0.000000
-18.267800 0.000000
-18.198700 0.000000
-18.129500 0.000000
-18.060400 0.000000
-17.991200 0.000000
-17.922100 0.000000
-17.852900 0.000000
-17.783800 0.000000
-17.714600 0.000000
-17.645500 0.000000
-17.576300 0.000000
-17.507200 0.000000
-17.438000 0.000000
-17.368900 0.000000
-17.299700 0.000000
-17.230600 0.000000
-17.161500 0.000000
-17.092300 0.000000
-17.023200 0.000000
-16.954000 0.000000
-16.884900 0.000000
-16.815700 0.000000
-16.746600 0.000000
-16.677400 0.000000
-16.608300 0.000000
-16.539100 0.000000
-16.470000 0.000000
-16.400800 0.000000
-16.331700 0.000000
-16.262500 0.000000
-16.193400 0.000000
-16.124200 0.000000
-16.055100 0.000000
-15.986000 0.000000
-15.916800 0.000000
-15.847700 0.000000
-15.778500 0.000000
-15.709400 0.000000
-15.640200 0.000000
-15.571100 0.000000
-15.501900 0.000000
-15.432800 0.000000
-15.363600 0.000000
-15.294500 0.000000
-15.225300 0.000000
-15.156200 0.000000
-15.087000 0.000000
-15.017900 0.000000
-14.948700 0.000000
-14.879600 0.000000
-14.810400 0.000000
-14.741300 0.000000
-14.672200 0.000000
-14.603000 0.000000
-14.533900 0.000000
-14.464700 0.000000
-14.395600 0.000000
-14.326400 0.000000
-14.257300 0.000000
-14.188100 0.000000
-14.119000 0.000000
-14.049800 0.000000
-13.980700 0.000000
-13.911500 0.000000
-13.842400 0.000000
-13.773200 0.000000
-13.704100 0.000000
-13.634900 0.000000
-13.565800 0.000000
-13.496700 0.000000
-13.427500 0.000000
-13.358400 0.000000
-13.289200 0.000000
-13.220100 0.000000
-13.150900 0.000000
-13.081800 0.000000
-13.012600 0.000000
-12.943500 0.000000
-12.874300 0.000000
-12.805200 0.000000
-12.736000 0.000000
-12.666900 0.000000
-12.597700 0.000000
-12.528600 0.000000
-12.459400 0.000000
-12.390300 0.000000
-12.321200 0.000000
-12.252000 0.000000
-12.182900 0.000000
-12.113700 0.000000
-12.044600 0.000000
-11.975400 0.000000
-11.906300 0.000000
-11.837100 0.000000
-11.768000 0.000000
-11.698800 0.000000
-11.629700 0.000000
-11.560500 0.000000
-11.491400 0.000000
-11.422200 0.000000
-11.353100 0.000000
-11.283900 0.000000
-11.214800 0.000000
-11.145600 0.000000
-11.076500 0.000000
-11.007400 0.000000
-10.938200 0.000000
-10.869100 0.000000
-10.799900 0.000000
-10.730800 0.000000
-10.661600 0.000000
-10.592500 0.000000
-10.523300 0.000000
-10.454200 0.000000
-10.385000 0.000000
-10.315900 0.000000
-10.246700 0.000000
-10.177600 0.000000
-10.108400 0.000000
-10.039300 0.000000
-9.970100 0.000000
-9.901000 0.000000
-9.831900 0.000000
-9.762700 0.000000
-9.693600 0.000000
-9.624400 0.000000
-9.555300 0.000000
-9.486100 0.000000
-9.417000 0.000000
-9.347800 0.000000
-9.278700 0.000000
-9.209500 0.000000
-9.140400 0.000000
-9.071200 0.000000
-9.002100 0.000000
-8.932900 0.000000
-8.863800 0.000000
-8.794600 0.000000
-8.725500 0.000000
-8.656300 0.000000
-8.587200 0.000000
-8.518100 0.000000
-8.448900 0.000000
-8.379800 0.000000
-8.310600 0.000000
-8.241500 0.000000
-8.172300 0.000000
-8.103200 0.000000
-8.034000 0.000000
-7.964900 0.000000
-7.895700 0.000000
-7.826600 0.000000
-7.757400 0.000000
-7.688300 0.000000
-7.619100 0.000000
-7.550000 0.000000
-7.480800 0.000000
-7.411700 0.000000
-7.342600 0.000000
-7.273400 0.000000
-7.204300 0.000000
-7.135100 0.000000
-7.066000 0.000000
-6.996800 0.000000
-6.927700 0.000000
-6.858500 0.000000
-6.789400 0.000000
-6.720200 0.000000
-6.651100 0.000000
-6.581900 0.000000
-6.512800 0.000000
-6.443600 0.000000
-6.374500 0.000000
-6.305300 0.000000
-6.236200 0.000000
-6.167100 0.000000
-6.097900 0.000000
-6.028800 0.000000
-5.959600 0.000000
-5.890500 0.000000
-5.821300 0.000000
-5.752200 0.000000
-5.683000 0.000000
-5.613900 0.000000
-5.544700 0.000000
-5.475600 0.000000
-5.406400 0.000000
-5.337300 0.000000
-5.268100 0.000000
-5.199000 0.000000
-5.129800 0.000000
-5.060700 0.000000
-4.991500 0.000000
-4.922400 0.000000
-4.853300 0.000000
-4.784100 0.000000
-4.715000 0.000000
-4.645800 0.000000
-4.576700 0.000000
-4.507500 0.000000
-4.438400 0.000000
-4.369200 0.000000
-4.300100 0.000000
-4.230900 0.000000
-4.161800 0.000000
-4.092600 0.000000
-4.023500 0.000000
-3.954300 0.000000
-3.885200 0.000000
-3.816000 0.000000
-3.746900 0.000000
-3.677800 0.000000
-3.608600 0.000000
-3.539500 0.000000
-3.470300 0.000000
-3.401200 0.000000
-3.332000 0.000000
-3.262900 0.000000
-3.193700 0.000000
-3.124600 0.000000
-3.055400 0.000000
-2.986300 0.000000
-2.917100 0.000000
-2.848000 0.000000
-2.778800 0.000000
-2.709700 0.000000
-2.640500 0.000000
-2.571400 0.000000
-2.502200 0.000000
-2.433100 0.000000
-2.364000 0.000000
-2.294800 0.000000
-2.225700 0.000000
-2.156500 0.000000
-2.087400 0.000000
-2.018200 0.000000
-1.949100 0.000000
-1.879900 0.000000
-1.810800 0.000000
-1.741600 0.000000
-1.672500 0.000000
-1.603300 0.000000
-1.534200 0.000000
-1.465000 0.000000
-1.395900 0.000000
-1.326700 0.000000
-1.257600 0.000000
-1.188500 0.000000
-1.119300 0.000000
-1.050200 0.000000
-0.981000 0.000000
-0.911900 0.009300
-0.842700 0.042700
-0.773600 0.051500
-0.704400 0.062700
-0.635300 0.074900
-0.566100 0.086200
-0.497000 0.093800
-0.427800 0.100100
-0.358700 0.107900
-0.289500 0.116100
-0.220400 0.124800
-0.151200 0.133300
-0.082100 0.139700
-0.013000 0.146500
0.056200 0.153400
0.125300 0.160600
0.194500 0.168200
0.263600 0.176300
0.332800 0.184500
0.401900 0.193700
0.471100 0.203100
0.540200 0.212000
0.609400 0.221800
0.678500 0.240500
0.747700 0.255900
0.816800 0.254500
0.886000 0.260100
0.955100 0.264100
1.024300 0.265000
1.093400 0.269500
1.162600 0.274300
1.231700 0.278700
1.300800 0.282100
1.370000 0.285800
1.439100 0.290800
1.508300 0.296600
1.577400 0.302800
1.646600 0.309100
1.715700 0.315700
1.784900 0.322200
1.854000 0.330200
1.923200 0.355700
1.992300 0.375200
2.061500 0.396100
2.130600 0.417000
2.199800 0.441100
2.268900 0.467200
2.338100 0.496300
2.407200 0.529400
2.476300 0.567200
2.545500 0.611300
2.614600 0.668700
2.683800 0.756400
2.752900 1.123100
2.822100 1.209200
2.891200 1.221000
2.960400 1.290600
3.029500 1.329500
3.098700 1.650200
3.167800 1.880500
3.237000 2.191300
3.306100 2.242300
3.375300 2.313600
3.444400 2.414300
3.513600 2.463600
3.582700 2.636600
3.651900 2.949700
3.721000 3.173300
3.790100 3.380700
3.859300 3.706300
3.928400 3.957100
3.997600 3.936000
4.066700 3.841400
4.135900 3.947800
4.205000 3.460300
4.274200 4.048200
4.343300 3.417500
4.412500 2.772800
4.481600 2.495600
4.550800 2.822900
4.619900 3.392900
4.689100 3.866200
4.758200 4.471600
4.827400 4.526200
4.896500 3.871600
4.965600 3.251200
5.034800 3.142900
5.103900 3.423500
5.173100 3.195800
5.242200 3.175200
5.311400 3.885200
5.380500 4.313600
5.449700 5.564300
5.518800 5.301600
5.588000 6.209500
5.657100 4.935200
5.726300 4.650000
5.795400 4.238900
5.864600 4.434700
5.933700 3.071900
6.002900 2.863400
6.072000 2.805500
6.141100 2.498800
6.210300 2.119800
6.279400 1.990600
6.348600 2.336400
6.417700 2.821600
6.486900 3.328500
6.556000 3.296000
6.625200 3.453100
6.694300 3.658600
6.763500 4.069600
6.832600 3.980900
6.901800 3.445800
6.970900 2.371500
7.040100 2.120900
7.109200 1.515300
7.178400 1.854600
7.247500 2.089900
7.316700 2.189900
7.385800 2.298300
7.454900 2.629400
7.524100 2.980200
7.593200 2.539400
7.662400 2.565700
7.731500 2.505400
7.800700 2.470100
7.869800 2.379600
7.939000 2.188500
8.008100 2.167000
8.077300 1.910100
8.146400 1.723600
8.215600 1.499100
8.284700 1.496700
8.353900 1.804800
8.423000 1.939300
8.492200 1.968200
8.561300 2.062300
8.630400 2.318600
8.699600 2.344400
8.768700 2.220300
8.837900 2.374500
8.907000 2.639700
8.976200 2.968800
9.045300 2.823800
9.114500 2.310500
9.183600 2.299000
9.252800 3.961300
9.321900 3.222000
9.391100 3.211000
9.460200 2.383400
9.529400 1.806600
9.598500 1.472100
9.667700 1.049700
9.736800 1.021200
9.806000 1.000600
9.875100 0.947700
9.944200 0.954000
10.013400 0.963100
10.082500 0.997500
10.151700 1.011400
10.220800 1.002700
10.290000 1.002100
10.359100 1.004400
10.428300 1.019000
10.497400 1.052300
10.566600 1.078400
10.635700 1.075800
10.704900 1.085400
10.774000 1.089100
10.843200 1.117600
10.912300 1.039700
10.981500 0.979500
11.050600 0.929100
11.119700 0.880900
11.188900 0.853400
11.258000 0.824300
11.327200 0.790300
11.396300 0.750200
11.465500 0.683000
11.534600 0.661200
11.603800 0.648700
11.672900 0.635800
11.742100 0.622700
11.811200 0.607600
11.880400 0.594400
11.949500 0.588800
12.018700 0.577100
12.087800 0.657400
12.157000 0.526000
12.226100 0.534600
12.295200 0.544400
12.364400 0.537400
12.433500 0.517200
12.502700 0.517200
12.571800 0.519700
12.641000 0.471900
12.710100 0.455600
12.779300 0.438100
12.848400 0.419500
12.917600 0.402000
12.986700 0.391000
13.055900 0.388600
13.125000 0.400800
13.194200 0.414500
13.263300 0.441400
13.332500 0.400900
13.401600 0.387500
13.470800 0.381500
13.539900 0.372100
13.609000 0.363000
13.678200 0.356900
13.747300 0.350100
13.816500 0.343300
13.885600 0.335500
13.954800 0.317900
14.023900 0.302700
14.093100 0.287900
14.162200 0.281800
14.231400 0.282100
14.300500 0.243400
14.369700 0.169400
14.438800 0.139900
14.508000 0.122900
14.577100 0.111400
14.646300 0.103800
14.715400 0.097000
14.784500 0.136600
14.853700 0.289600
14.922800 0.528400
14.992000 0.755300
15.061100 0.855400
15.130300 0.922400
15.199400 0.892200
15.268600 0.872100
15.337700 0.896700
15.406900 0.917000
15.476000 0.890600
15.545200 0.855500
15.614300 0.786500
15.683500 0.736500
15.752600 0.717200
15.821800 0.732900
15.890900 0.729800
15.960000 0.717500
16.029200 0.694700
16.098300 0.680000
16.167500 0.665800
16.236600 0.652800
16.305800 0.656700
16.374900 0.660500
16.444100 0.630300
16.513200 0.598200
16.582400 0.578000
16.651500 0.547000
16.720700 0.511900
16.789800 0.493800
16.859000 0.481500
16.928100 0.463800
16.997300 0.447400
17.066400 0.427300
17.135600 0.413600
17.204700 0.406400
17.273800 0.400800
17.343000 0.403900
17.412100 0.403500
17.481300 0.418000
17.550400 0.438700
17.619600 0.467100
17.688700 0.479600
17.757900 0.507800
17.827000 0.541700
17.896200 0.569700
17.965300 0.590300
18.034500 0.627600
18.103600 0.657900
18.172800 0.695800
18.241900 0.701100
18.311100 0.685900
18.380200 0.676000
18.449300 0.657600
18.518500 0.685900
18.587600 0.797800
18.656800 0.710600
18.725900 0.668200
18.795100 0.677600
18.864200 0.812000
18.933400 0.859100
19.002500 0.943700
19.071700 0.952600
19.140800 0.919200
19.210000 0.876600
19.279100 0.921400
19.348300 0.932600
19.417400 0.920500
19.486600 0.903200
19.555700 0.900400
19.624900 0.897200
19.694000 0.878700
19.763100 0.887700
19.832300 0.890500
19.901400 0.901700
19.970600 0.905600
20.039700 0.900000
20.108900 0.908000
20.178000 0.928600
20.247200 0.954400
20.316300 0.949700
20.385500 0.932400
20.454600 0.928800
20.523800 0.922900
20.592900 0.924400
20.662100 0.942000
20.731200 0.959500
20.800400 0.980700
20.869500 0.968900
20.938600 0.943700
21.007800 0.941700
21.076900 0.951000
21.146100 0.952800
21.215200 0.954800
21.284400 0.933700
21.353500 0.970400
21.422700 0.949700
21.491800 0.964000
21.561000 0.982900
21.630100 1.000100
21.699300 1.000400
21.768400 0.993000
21.837600 0.979200
21.906700 0.958800
21.975900 0.967800
22.045000 0.968400
22.114100 0.964200
22.183300 1.002500
22.252400 0.974900
22.321600 0.958700
22.390700 0.953800
22.459900 0.938500
22.529000 0.933000
22.598200 0.921300
22.667300 0.908100
22.736500 0.893700
22.805600 0.887500
22.874800 0.907500
22.943900 0.910800
23.013100 0.942600
23.082200 0.867000
23.151400 0.858500
23.220500 0.857800
23.289700 0.876000
23.358800 0.869500
23.427900 0.861400
23.497100 0.844100
23.566200 0.841000
23.635400 0.835100
23.704500 0.828600
23.773700 0.827000
23.842800 0.856600
23.912000 0.875100
23.981100 0.916000
24.050300 0.899800
24.119400 0.915900
24.188600 0.981400
24.257700 0.956400
24.326900 0.952700
24.396000 0.910000
24.465200 0.892300
24.534300 0.878700
24.603400 0.867000
24.672600 0.855600
24.741700 0.850500
24.810900 0.848100
24.880000 0.842600
24.949200 0.841400
25.018300 0.843200
25.087500 0.847600
25.156600 0.850500
25.225800 0.853900
25.294900 0.856300
25.364100 0.858000
25.433200 0.860400
25.502400 0.874200
25.571500 0.891700
25.640700 0.904200
25.709800 0.911800
25.779000 0.916600
25.848100 0.918700
25.917200 0.918700
25.986400 0.925700
26.055500 0.931300
26.124700 0.936100
26.193800 0.921600
26.263000 0.920200
26.332100 0.916300
26.401300 0.945100
26.470400 0.925400
26.539600 0.924800
26.608700 0.874700
26.677900 0.816800
26.747000 0.798000
26.816200 0.798600
26.885300 0.803900
26.954500 0.798500
27.023600 0.805400
27.092700 0.780400
27.161900 0.762100
27.231000 0.792700
27.300200 0.788400
27.369300 0.818800
27.438500 0.845000
27.507600 0.877500
27.576800 0.897000
27.645900 0.920300
27.715100 0.921500
27.784200 0.878000
27.853400 0.865900
27.922500 0.854800
27.991700 0.852600
28.060800 0.812100
28.130000 0.817100
28.199100 0.872200
28.268200 0.960200
28.337400 1.042800
28.406500 1.101400
28.475700 1.128300
28.544800 1.087700
28.614000 1.077900
28.683100 1.069200
28.752300 1.064100
28.821400 1.056300
28.890600 1.050700
28.959700 1.050000
29.028900 1.054600
29.098000 1.045300
29.167200 1.045600
29.236300 1.049800
29.305500 1.024100
29.374600 0.995600
29.443800 0.976400
29.512900 0.965200
29.582000 0.962400
29.651200 0.964500
29.720300 0.960900
29.789500 0.960000
29.858600 0.974900
29.927800 0.994500
29.996900 1.013100
30.066100 1.034700
30.135200 1.052700
30.204400 1.062700
30.273500 1.079000
30.342700 1.089400
30.411800 1.104200
30.481000 1.113700
30.550100 1.099800
30.619300 1.117300
30.688400 1.201500
30.757500 1.145900
30.826700 1.152000
30.895800 1.140700
30.965000 1.148100
31.034100 1.126300
31.103300 1.089600
31.172400 1.065300
31.241600 1.031800
31.310700 1.017700
31.379900 1.001600
31.449000 0.982200
31.518200 0.996100
31.587300 0.927900
31.656500 0.913100
31.725600 0.910500
31.794800 0.909400
31.863900 0.898600
31.933100 0.895800
32.002200 0.897900
32.071300 0.901100
32.140500 0.910200
32.209600 0.929300
32.278800 0.900000
32.347900 0.861900
32.417100 0.840300
32.486200 0.827300
32.555400 0.818800
32.624500 0.821200
32.693700 0.826500
32.762800 0.832200
32.832000 0.846400
32.901100 0.877000
32.970300 0.901800
33.039400 0.926200
33.108600 0.940000
33.177700 0.943000
33.246800 0.953300
33.316000 0.984900
33.385100 0.919300
33.454300 0.822400
33.523400 0.725000
33.592600 0.627200
33.661700 0.528800
33.730900 0.482000
33.800000 0.416500
33.869200 0.377100
33.938300 0.390000
34.007500 0.413300
34.076600 0.448900
34.145800 0.476300
34.214900 0.514100
34.284100 0.573700
34.353200 0.647300
34.422300 0.743600
34.491500 0.846800
34.560600 0.898500
34.629800 0.934400
34.698900 0.967800
34.768100 1.006400
34.837200 1.057800
34.906400 1.131100
34.975500 1.195400
35.044700 1.259300
35.113800 1.268100
35.183000 1.241500
35.252100 1.257400
35.321300 1.259300
35.390400 1.295300
35.459600 1.321300
35.528700 1.292000
35.597900 1.280900
35.667000 1.250500
35.736100 1.233400
35.805300 1.201700
35.874400 1.243300
35.943600 1.277800
36.012700 1.302900
36.081900 1.369400
36.151000 1.466200
36.220200 1.566900
36.289300 1.649100
36.358500 1.797200
36.427600 1.940900
36.496800 2.150100
36.565900 2.534800
36.635100 3.638100
36.704200 5.907600
36.773400 3.459400
36.842500 2.628400
36.911600 2.163000
36.980800 1.818000
37.049900 1.576200
37.119100 1.392700
37.188200 1.278000
37.257400 1.214000
37.326500 1.172400
37.395700 1.193000
37.464800 1.170900
37.534000 1.145000
37.603100 1.151300
37.672300 1.148300
37.741400 1.139900
37.810600 1.101500
37.879700 1.041800
37.948900 0.996500
38.018000 0.954300
38.087200 0.914800
38.156300 0.880800
38.225400 0.863000
38.294600 0.803100
38.363700 0.780400
38.432900 0.777000
38.502000 0.779700
38.571200 0.805200
38.640300 0.839900
38.709500 0.904200
38.778600 0.978300
38.847800 1.044200
38.916900 1.079300
38.986100 1.136800
39.055200 1.180800
39.124400 1.167500
39.193500 1.217800
39.262700 1.249000
39.331800 1.292400
39.400900 1.330200
39.470100 1.413600
39.539200 1.442600
39.608400 1.433200
39.677500 1.359300
39.746700 1.272500
39.815800 1.190800
39.885000 1.143100
39.954100 1.132500
40.023300 1.150300
40.092400 1.127500
40.161600 1.108200
40.230700 1.088300
40.299900 1.067200
40.369000 1.058100
40.438200 1.049000
40.507300 1.046200
40.576400 1.048700
40.645600 1.060200
40.714700 1.099300
40.783900 1.198000
40.853000 1.211100
40.922200 1.201400
40.991300 1.146100
41.060500 1.119600
41.129600 1.104400
41.198800 1.106200
41.267900 1.127900
41.337100 1.123900
41.406200 1.139600
41.475400 1.140300
41.544500 1.139500
41.613700 1.170100
41.682800 1.166800
41.752000 1.142600
41.821100 1.110400
41.890200 1.072500
41.959400 1.055300
42.028500 1.045900
42.097700 1.034300
42.166800 1.009100
42.236000 0.990300
42.305100 0.973000
42.374300 0.964600
42.443400 0.959000
42.512600 0.971800
42.581700 0.966000
42.650900 0.969500
42.720000 1.018000
42.789200 1.017800
42.858300 1.035200
42.927500 1.069300
42.996600 1.094800
43.065700 1.118800
43.134900 1.141000
43.204000 1.201000
43.273200 1.295200
43.342300 1.378800
43.411500 1.388000
43.480600 1.372300
43.549800 1.371600
43.618900 1.402000
43.688100 1.460700
43.757200 1.552700
43.826400 1.622600
43.895500 1.744200
43.964700 1.929100
44.033800 2.226600
44.103000 2.814400
44.172100 3.546100
44.241300 4.314400
44.310400 5.134600
44.379500 2.767100
44.448700 2.220700
44.517800 1.935000
44.587000 1.775300
44.656100 1.644200
44.725300 1.544300
44.794400 1.479100
44.863600 1.460200
44.932700 1.453000
45.001900 1.384800
45.071000 1.332000
45.140200 1.303600
45.209300 1.306200
45.278500 1.287000
45.347600 1.262200
45.416800 1.243200
45.485900 1.230600
45.555000 1.218900
45.624200 1.217500
45.693300 1.216100
45.762500 1.235600
45.831600 1.232200
45.900800 1.249500
45.969900 1.287100
46.039100 1.309300
46.108200 1.309300
46.177400 1.357600
46.246500 1.342600
46.315700 1.349700
46.384800 1.359800
46.454000 1.389000
46.523100 1.351900
46.592300 1.302800
46.661400 1.245800
46.730500 1.210800
46.799700 1.186300
46.868800 1.182500
46.938000 1.187600
47.007100 1.188200
47.076300 1.186800
47.145400 1.157700
47.214600 1.149000
47.283700 1.126600
47.352900 1.113200
47.422000 1.108900
47.491200 1.111100
47.560300 1.119900
47.629500 1.150600
47.698600 1.176800
47.767800 1.215400
47.836900 1.210000
47.906100 1.215600
47.975200 1.206800
48.044300 1.193300
48.113500 1.194400
48.182600 1.200100
48.251800 1.202400
48.320900 1.204000
48.390100 1.206200
48.459200 1.210800
48.528400 1.223200
48.597500 1.234500
48.666700 1.248600
48.735800 1.254400
48.805000 1.260200
48.874100 1.248300
48.943300 1.255200
49.012400 1.274400
49.081600 1.272600
49.150700 1.265100
49.219800 1.250600
49.289000 1.239500
49.358100 1.240200
49.427300 1.249300
49.496400 1.307000
49.565600 1.291000
49.634700 1.297700
49.703900 1.292900
49.773000 1.291400
49.842200 1.294100
49.911300 1.281400
49.980500 1.277900
50.049600 1.260400
50.118800 1.242900
50.187900 1.227100
50.257100 1.193100
50.326200 1.178000
50.395300 1.172400
50.464500 1.177100
50.533600 1.184400
50.602800 1.217200
50.671900 1.260800
50.741100 1.307100
50.810200 1.310600
50.879400 1.307300
50.948500 1.280400
51.017700 1.274200
51.086800 1.276800
51.156000 1.303500
51.225100 1.339000
51.294300 1.346700
51.363400 1.332600
51.432600 1.347200
51.501700 1.382700
51.570900 1.380300
51.640000 1.389600
51.709100 1.328300
51.778300 1.303100
51.847400 1.280600
51.916600 1.288600
51.985700 1.306200
52.054900 1.306200
52.124000 1.321500
52.193200 1.357900
52.262300 1.381200
52.331500 1.372400
52.400600 1.368800
52.469800 1.407700
52.538900 1.432200
52.608100 1.435300
52.677200 1.404800
52.746400 1.370300
52.815500 1.357200
52.884600 1.336500
52.953800 1.314600
53.022900 1.320300
53.092100 1.304700
53.161200 1.281000
53.230400 1.266000
53.299500 1.266600
53.368700 1.296100
53.437800 1.297400
53.507000 1.289000
53.576100 1.289900
53.645300 1.292700
53.714400 1.312200
53.783600 1.345400
53.852700 1.361700
53.921900 1.341000
53.991000 1.263000
54.060200 1.214300
54.129300 1.198300
54.198400 1.155900
54.267600 1.108200
54.336700 1.129600
54.405900 1.086300
54.475000 1.096700
54.544200 1.100200
54.613300 1.147600
54.682500 1.194000
54.751600 1.197700
54.820800 1.216300
54.889900 1.222900
54.959100 1.246900
55.028200 1.241600
55.097400 1.228900
55.166500 1.218500
55.235700 1.234800
55.304800 1.194300
55.373900 1.191700
55.443100 1.220500
55.512200 1.212900
55.581400 1.210300
55.650500 1.255500
55.719700 1.283200
55.788800 1.333500
55.858000 1.381300
55.927100 1.412300
55.996300 1.447100
56.065400 1.479000
56.134600 1.484100
56.203700 1.496700
56.272900 1.532600
56.342000 1.507400
56.411200 1.459600
56.480300 1.455600
56.549400 1.441000
56.618600 1.417200
56.687700 1.401900
56.756900 1.343600
56.826000 1.319600
56.895200 1.267500
56.964300 1.252200
57.033500 1.260300
57.102600 1.239400
57.171800 1.205100
57.240900 1.214700
57.310100 1.270800
57.379200 1.298900
57.448400 1.257800
57.517500 1.222900
57.586700 1.216700
57.655800 1.204400
57.725000 1.197400
57.794100 1.206400
57.863200 1.212300
57.932400 1.239000
58.001500 1.284000
58.070700 1.284300
58.139800 1.267100
58.209000 1.263500
58.278100 1.325200
58.347300 1.368300
58.416400 1.352800
58.485600 1.324800
58.554700 1.290800
58.623900 1.257200
58.693000 1.232900
58.762200 1.357200
58.831300 1.293000
58.900500 1.218100
58.969600 1.181200
59.038700 1.192600
59.107900 1.233400
59.177000 1.231200
59.246200 1.217800
59.315300 1.239600
59.384500 1.261800
59.453600 1.260100
59.522800 1.267100
59.591900 1.298800
59.661100 1.334200
59.730200 1.325200
59.799400 1.290700
59.868500 1.306400
59.937700 1.349400
60.006800 1.400600
60.076000 1.477900
60.145100 1.420700
60.214300 1.380900
60.283400 1.377100
60.352500 1.399300
60.421700 1.448800
60.490800 1.440200
60.560000 1.458800
60.629100 1.463900
60.698300 1.500500
60.767400 1.550900
60.836600 1.524500
60.905700 1.547300
60.974900 1.565900
61.044000 1.582400
61.113200 1.602800
61.182300 1.545800
61.251500 1.517800
61.320600 1.539200
61.389800 1.556000
61.458900 1.560800
61.528000 1.571400
61.597200 1.580600
61.666300 1.587600
61.735500 1.553300
61.804600 1.530400
61.873800 1.416100
61.942900 1.381800
62.012100 1.372700
62.081200 1.397400
62.150400 1.401000
62.219500 1.430800
62.288700 1.444300
62.357800 1.522700
62.427000 1.626500
62.496100 1.709700
62.565300 1.788900
62.634400 1.760100
62.703500 1.667200
62.772700 1.639700
62.841800 1.618700
62.911000 1.575100
62.980100 1.508400
63.049300 1.507900
63.118400 1.604800
63.187600 1.663000
63.256700 1.733100
63.325900 1.801700
63.395000 1.678500
63.464200 1.641500
63.533300 1.524800
63.602500 1.438100
63.671600 1.350200
63.740800 1.350700
63.809900 1.362000
63.879100 1.357700
63.948200 1.412900
64.017300 1.447200
64.086500 1.444400
64.155600 1.360100
64.224800 1.289500
64.293900 1.256900
64.363100 1.215100
64.432200 1.212200
64.501400 1.191800
64.570500 1.145700
64.639700 1.101600
64.708800 1.086400
64.778000 1.076700
64.847100 1.050400
64.916300 1.040600
64.985400 1.035800
65.054600 1.012700
65.123700 0.998700
65.192800 0.999800
65.262000 1.014700
65.331100 0.980900
65.400300 0.933000
65.469400 0.905900
65.538600 0.889400
65.607700 0.877400
65.676900 0.862300
65.746000 0.848700
65.815200 0.814800
65.884300 0.735100
65.953500 0.680000
66.022600 0.616400
66.091800 0.555500
66.160900 0.512700
66.230100 0.484200
66.299200 0.475300
66.368400 0.453600
66.437500 0.430300
66.506600 0.413900
66.575800 0.403000
66.644900 0.391700
66.714100 0.380200
66.783200 0.364200
66.852400 0.347900
66.921500 0.331100
66.990700 0.315100
67.059800 0.300100
67.129000 0.286000
67.198100 0.272100
67.267300 0.257800
67.336400 0.243500
67.405600 0.227600
67.474700 0.209700
67.543900 0.195300
67.613000 0.188500
67.682100 0.184400
67.751300 0.190200
67.820400 0.182100
67.889600 0.175900
67.958700 0.155300
68.027900 0.125000
68.097000 0.107600
68.166200 0.083100
68.235300 0.062800
68.304500 0.045800
68.373600 0.032400
68.442800 0.023000
68.511900 0.014900
68.581100 0.009100
68.650200 0.005800
68.719400 0.003500
68.788500 0.002200
68.857600 0.001200
68.926800 0.000600
68.995900 0.000100
69.065100 0.000000
69.134200 0.000000
69.203400 0.000000
69.272500 0.000000
69.341700 0.000000
69.410800 0.000000
69.480000 0.000000
69.549100 0.000000
69.618300 0.000000
69.687400 0.000000
69.756600 0.000000
69.825700 0.000000
69.894900 0.000000
69.964000 0.000000
70.033200 0.000000
70.102300 0.000000
70.171400 0.000000
70.240600 0.000000
70.309700 0.000000
70.378900 0.000000
70.448000 0.000000
70.517200 0.000000
70.586300 0.000000
70.655500 0.000000
70.724600 0.000000
70.793800 0.000000
70.862900 0.000000
70.932100 0.000000
71.001200 0.000000
71.070400 0.000000
71.139500 0.000000
71.208700 0.000000
71.277800 0.000000
71.346900 0.000000
71.416100 0.000000
71.485200 0.000000
71.554400 0.000000
71.623500 0.000000
71.692700 0.000000
71.761800 0.000000
71.831000 0.000000
71.900100 0.000000
71.969300 0.000000
72.038400 0.000000
72.107600 0.000000
72.176700 0.000000
72.245900 0.000000
72.315000 0.000000
72.384200 0.000000
72.453300 0.000000
72.522500 0.000000
72.591600 0.000000
72.660700 0.000000
72.729900 0.000000
72.799000 0.000000
72.868200 0.000000
72.937300 0.000000
73.006500 0.000000
73.075600 0.000000
73.144800 0.000000
73.213900 0.000000
73.283100 0.000000
73.352200 0.000000
73.421400 0.000000
73.490500 0.000000
73.559700 0.000000
73.628800 0.000000
73.698000 0.000000
73.767100 0.000000
73.836200 0.000000
73.905400 0.000000
73.974500 0.000000
74.043700 0.000000
74.112800 0.000000
74.182000 0.000000
74.251100 0.000000
74.320300 0.000000
74.389400 0.000000
74.458600 0.000000
74.527700 0.000000
74.596900 0.000000
74.666000 0.000000
74.735200 0.000000
74.804300 0.000000
74.873500 0.000000
74.942600 0.000000
75.011700 0.000000
75.080900 0.000000
75.150000 0.000000
75.219200 0.000000
75.288300 0.000000
75.357500 0.000000
e
