set title 'mp-571225 - Density of States'
set xlabel 'Energy (eV)'
set ylabel 'DOS (states/eV)'
set grid
set xrange [-10:10]
set yrange [0:851.630]
set xzeroaxis lt -1
set terminal png size 800,600
set output 'mp-571225_dos_gnuplot.png'
plot '-' using 1:2 with lines title 'DOS'
-12.228200 0.000000
-12.215300 0.000000
-12.202400 0.000000
-12.189500 0.000000
-12.176600 0.000000
-12.163700 0.000000
-12.150900 0.000000
-12.138000 0.000000
-12.125100 0.000000
-12.112200 0.000000
-12.099300 0.000000
-12.086400 0.000000
-12.073500 0.000000
-12.060600 0.000000
-12.047700 0.000000
-12.034800 0.000000
-12.021900 0.000000
-12.009000 0.000000
-11.996200 0.000000
-11.983300 0.000000
-11.970400 0.000000
-11.957500 0.000000
-11.944600 0.000000
-11.931700 0.000000
-11.918800 0.000000
-11.905900 0.000000
-11.893000 0.000000
-11.880100 0.000000
-11.867200 0.000000
-11.854300 0.000000
-11.841500 0.000000
-11.828600 0.000000
-11.815700 0.000000
-11.802800 0.000000
-11.789900 0.000000
-11.777000 0.000000
-11.764100 0.000000
-11.751200 0.000000
-11.738300 0.000000
-11.725400 0.000000
-11.712500 0.000000
-11.699600 0.000000
-11.686700 0.000000
-11.673900 0.000000
-11.661000 0.000000
-11.648100 0.000000
-11.635200 0.000000
-11.622300 0.000000
-11.609400 0.000000
-11.596500 0.000000
-11.583600 0.000000
-11.570700 0.000000
-11.557800 0.000000
-11.544900 0.000000
-11.532000 0.000000
-11.519200 0.000000
-11.506300 0.000000
-11.493400 0.000000
-11.480500 0.000000
-11.467600 0.000000
-11.454700 0.000000
-11.441800 0.000000
-11.428900 0.000000
-11.416000 0.000000
-11.403100 0.000000
-11.390200 0.000000
-11.377300 0.000000
-11.364500 0.000000
-11.351600 0.000000
-11.338700 0.000000
-11.325800 0.000000
-11.312900 0.000000
-11.300000 0.000000
-11.287100 0.000000
-11.274200 0.000000
-11.261300 0.000000
-11.248400 0.000000
-11.235500 0.000000
-11.222600 0.000000
-11.209700 0.000000
-11.196900 0.000000
-11.184000 0.000000
-11.171100 0.000000
-11.158200 0.000000
-11.145300 0.000000
-11.132400 0.000000
-11.119500 0.000000
-11.106600 0.000000
-11.093700 0.000000
-11.080800 0.000000
-11.067900 0.000000
-11.055000 0.041700
-11.042200 1.034200
-11.029300 2.758500
-11.016400 5.376600
-11.003500 8.676500
-10.990600 11.976400
-10.977700 15.276300
-10.964800 14.443800
-10.951900 15.265800
-10.939000 14.026900
-10.926100 13.238500
-10.913200 13.704000
-10.900300 14.169600
-10.887500 14.635100
-10.874600 15.100600
-10.861700 15.566200
-10.848800 16.031700
-10.835900 16.497300
-10.823000 16.986400
-10.810100 17.549300
-10.797200 18.194800
-10.784300 18.900300
-10.771400 19.605900
-10.758500 20.308100
-10.745600 21.002700
-10.732700 21.682500
-10.719900 22.360500
-10.707000 23.038500
-10.694100 23.716500
-10.681200 24.394400
-10.668300 25.072400
-10.655400 25.750400
-10.642500 26.428400
-10.629600 28.019700
-10.616700 34.362400
-10.603800 41.486700
-10.590900 58.722600
-10.578000 83.519900
-10.565200 117.418600
-10.552300 127.490700
-10.539400 137.989200
-10.526500 142.984400
-10.513600 214.633300
-10.500700 415.440400
-10.487800 245.720300
-10.474900 0.000000
-10.462000 0.000000
-10.449100 0.000000
-10.436200 0.000000
-10.423300 0.000000
-10.410500 0.000000
-10.397600 0.000000
-10.384700 0.000000
-10.371800 0.000000
-10.358900 0.000000
-10.346000 0.000000
-10.333100 0.000000
-10.320200 0.000000
-10.307300 0.000000
-10.294400 0.000000
-10.281500 0.000000
-10.268600 0.000000
-10.255700 0.000000
-10.242900 0.000000
-10.230000 0.000000
-10.217100 0.000000
-10.204200 0.000000
-10.191300 0.000000
-10.178400 0.000000
-10.165500 0.000000
-10.152600 0.000000
-10.139700 0.000000
-10.126800 0.000000
-10.113900 0.000000
-10.101000 0.000000
-10.088200 0.000000
-10.075300 0.000000
-10.062400 0.000000
-10.049500 0.000000
-10.036600 0.000000
-10.023700 0.000000
-10.010800 0.000000
-9.997900 0.000000
-9.985000 0.000000
-9.972100 0.000000
-9.959200 0.000000
-9.946300 0.000000
-9.933500 0.000000
-9.920600 0.000000
-9.907700 0.000000
-9.894800 0.000000
-9.881900 0.000000
-9.869000 0.000000
-9.856100 0.000000
-9.843200 0.000000
-9.830300 0.000000
-9.817400 0.000000
-9.804500 0.000000
-9.791600 0.000000
-9.778700 0.000000
-9.765900 0.000000
-9.753000 0.000000
-9.740100 0.000000
-9.727200 0.000000
-9.714300 0.000000
-9.701400 0.000000
-9.688500 0.000000
-9.675600 0.000000
-9.662700 0.000000
-9.649800 0.000000
-9.636900 0.000000
-9.624000 0.000000
-9.611200 0.000000
-9.598300 0.000000
-9.585400 0.000000
-9.572500 0.000000
-9.559600 0.000000
-9.546700 0.000000
-9.533800 0.000000
-9.520900 0.000000
-9.508000 0.000000
-9.495100 0.000000
-9.482200 0.000000
-9.469300 0.000000
-9.456500 0.000000
-9.443600 0.000000
-9.430700 0.000000
-9.417800 0.000000
-9.404900 0.000000
-9.392000 0.000000
-9.379100 0.000000
-9.366200 0.000000
-9.353300 0.000000
-9.340400 0.000000
-9.327500 0.000000
-9.314600 0.000000
-9.301700 0.000000
-9.288900 0.000000
-9.276000 0.000000
-9.263100 0.000000
-9.250200 0.000000
-9.237300 0.000000
-9.224400 0.000000
-9.211500 0.000000
-9.198600 0.000000
-9.185700 0.000000
-9.172800 0.000000
-9.159900 0.000000
-9.147000 0.000000
-9.134200 0.000000
-9.121300 0.000000
-9.108400 0.000000
-9.095500 0.000000
-9.082600 0.000000
-9.069700 0.000000
-9.056800 0.000000
-9.043900 0.000000
-9.031000 0.000000
-9.018100 0.000000
-9.005200 0.000000
-8.992300 0.000000
-8.979500 0.000000
-8.966600 0.000000
-8.953700 0.000000
-8.940800 0.000000
-8.927900 0.000000
-8.915000 0.000000
-8.902100 0.000000
-8.889200 0.000000
-8.876300 0.000000
-8.863400 0.000000
-8.850500 0.000000
-8.837600 0.000000
-8.824700 0.000000
-8.811900 0.000000
-8.799000 0.000000
-8.786100 0.000000
-8.773200 0.000000
-8.760300 0.000000
-8.747400 0.000000
-8.734500 0.000000
-8.721600 0.000000
-8.708700 0.000000
-8.695800 0.000000
-8.682900 0.000000
-8.670000 0.000000
-8.657200 0.000000
-8.644300 0.000000
-8.631400 0.000000
-8.618500 0.000000
-8.605600 0.000000
-8.592700 0.000000
-8.579800 0.000000
-8.566900 0.000000
-8.554000 0.000000
-8.541100 0.000000
-8.528200 0.000000
-8.515300 0.000000
-8.502500 0.000000
-8.489600 0.000000
-8.476700 0.000000
-8.463800 0.000000
-8.450900 0.000000
-8.438000 0.000000
-8.425100 0.000000
-8.412200 0.000000
-8.399300 0.000000
-8.386400 0.000000
-8.373500 0.000000
-8.360600 0.000000
-8.347700 0.000000
-8.334900 0.000000
-8.322000 0.000000
-8.309100 0.000000
-8.296200 0.000000
-8.283300 0.000000
-8.270400 0.000000
-8.257500 0.000000
-8.244600 0.000000
-8.231700 0.000000
-8.218800 0.000000
-8.205900 0.000000
-8.193000 0.000000
-8.180200 0.000000
-8.167300 0.000000
-8.154400 0.000000
-8.141500 0.000000
-8.128600 0.000000
-8.115700 0.000000
-8.102800 0.000000
-8.089900 0.000000
-8.077000 0.000000
-8.064100 0.000000
-8.051200 0.000000
-8.038300 0.000000
-8.025500 0.000000
-8.012600 0.000000
-7.999700 0.000000
-7.986800 0.000000
-7.973900 0.000000
-7.961000 0.000000
-7.948100 0.000000
-7.935200 0.000000
-7.922300 0.000000
-7.909400 0.000000
-7.896500 0.000000
-7.883600 0.000000
-7.870700 0.000000
-7.857900 0.000000
-7.845000 0.000000
-7.832100 0.000000
-7.819200 0.000000
-7.806300 0.000000
-7.793400 0.000000
-7.780500 0.000000
-7.767600 0.000000
-7.754700 0.000000
-7.741800 0.000000
-7.728900 0.000000
-7.716000 0.000000
-7.703200 0.000000
-7.690300 0.000000
-7.677400 0.000000
-7.664500 0.000000
-7.651600 0.000000
-7.638700 0.000000
-7.625800 0.000000
-7.612900 0.000000
-7.600000 0.000000
-7.587100 0.000000
-7.574200 0.000000
-7.561300 0.000000
-7.548500 0.000000
-7.535600 0.000000
-7.522700 0.000000
-7.509800 0.000000
-7.496900 0.000000
-7.484000 0.000000
-7.471100 0.000000
-7.458200 0.000000
-7.445300 0.000000
-7.432400 0.000000
-7.419500 0.000000
-7.406600 0.000000
-7.393700 0.000000
-7.380900 0.000000
-7.368000 0.000000
-7.355100 0.000000
-7.342200 0.000000
-7.329300 0.000000
-7.316400 0.000000
-7.303500 0.000000
-7.290600 0.000000
-7.277700 0.000000
-7.264800 0.000000
-7.251900 0.000000
-7.239000 0.000000
-7.226200 0.000000
-7.213300 0.000000
-7.200400 0.000000
-7.187500 0.000000
-7.174600 0.000000
-7.161700 0.000000
-7.148800 0.000000
-7.135900 0.000000
-7.123000 0.000000
-7.110100 0.000000
-7.097200 0.000000
-7.084300 0.000000
-7.071500 0.000000
-7.058600 0.000000
-7.045700 0.000000
-7.032800 0.000000
-7.019900 0.000000
-7.007000 0.000000
-6.994100 0.000000
-6.981200 0.000000
-6.968300 0.000000
-6.955400 0.000000
-6.942500 0.000000
-6.929600 0.000000
-6.916700 0.000000
-6.903900 0.000000
-6.891000 0.000000
-6.878100 0.000000
-6.865200 0.000000
-6.852300 0.000000
-6.839400 0.000000
-6.826500 0.000000
-6.813600 0.000000
-6.800700 0.000000
-6.787800 0.000000
-6.774900 45.251800
-6.762000 136.959300
-6.749200 220.002200
-6.736300 302.812800
-6.723400 181.114000
-6.710500 112.608900
-6.697600 106.941100
-6.684700 101.273400
-6.671800 396.692600
-6.658900 334.859500
-6.646000 256.206400
-6.633100 165.841800
-6.620200 110.330300
-6.607300 296.731800
-6.594500 774.208800
-6.581600 222.216300
-6.568700 280.483000
-6.555800 328.697300
-6.542900 99.199900
-6.530000 117.178800
-6.517100 101.784800
-6.504200 86.390800
-6.491300 70.996800
-6.478400 33.031700
-6.465500 0.000000
-6.452600 0.000000
-6.439700 0.000000
-6.426900 0.000000
-6.414000 0.000000
-6.401100 0.000000
-6.388200 0.000000
-6.375300 0.000000
-6.362400 0.000000
-6.349500 0.000000
-6.336600 0.000000
-6.323700 0.000000
-6.310800 0.000000
-6.297900 0.000000
-6.285000 0.000000
-6.272200 0.000000
-6.259300 0.000000
-6.246400 0.000000
-6.233500 0.000000
-6.220600 0.000000
-6.207700 0.000000
-6.194800 0.000000
-6.181900 0.000000
-6.169000 0.000000
-6.156100 0.000000
-6.143200 0.000000
-6.130300 0.000000
-6.117500 0.000000
-6.104600 0.000000
-6.091700 0.000000
-6.078800 0.000000
-6.065900 0.000000
-6.053000 0.000000
-6.040100 0.000000
-6.027200 0.000000
-6.014300 0.000000
-6.001400 0.000000
-5.988500 0.000000
-5.975600 0.000000
-5.962700 0.000000
-5.949900 0.000000
-5.937000 0.000000
-5.924100 0.000000
-5.911200 0.000000
-5.898300 0.000000
-5.885400 0.000000
-5.872500 0.000000
-5.859600 0.000000
-5.846700 0.000000
-5.833800 0.000000
-5.820900 0.000000
-5.808000 0.000000
-5.795200 0.000000
-5.782300 0.000000
-5.769400 0.000000
-5.756500 0.000000
-5.743600 0.000000
-5.730700 0.000000
-5.717800 0.000000
-5.704900 0.000000
-5.692000 0.000000
-5.679100 0.000000
-5.666200 0.000000
-5.653300 0.000000
-5.640500 0.000000
-5.627600 0.000000
-5.614700 0.000000
-5.601800 0.000000
-5.588900 0.000000
-5.576000 0.000000
-5.563100 0.000000
-5.550200 0.000000
-5.537300 0.000000
-5.524400 0.000000
-5.511500 0.000000
-5.498600 0.000000
-5.485700 0.000000
-5.472900 0.000000
-5.460000 0.000000
-5.447100 0.000000
-5.434200 0.000000
-5.421300 0.000000
-5.408400 0.000000
-5.395500 0.000000
-5.382600 0.000000
-5.369700 0.000000
-5.356800 0.000000
-5.343900 0.000000
-5.331000 0.000000
-5.318200 0.000000
-5.305300 0.000000
-5.292400 0.000000
-5.279500 0.000000
-5.266600 0.000000
-5.253700 0.000000
-5.240800 0.000000
-5.227900 0.000000
-5.215000 0.000000
-5.202100 0.000000
-5.189200 0.000000
-5.176300 0.000000
-5.163500 0.000000
-5.150600 0.000000
-5.137700 0.000000
-5.124800 0.000000
-5.111900 0.000000
-5.099000 0.000000
-5.086100 0.000000
-5.073200 0.000000
-5.060300 0.000000
-5.047400 0.000000
-5.034500 0.000000
-5.021600 0.000000
-5.008700 0.000000
-4.995900 0.000000
-4.983000 0.000000
-4.970100 0.000000
-4.957200 0.000000
-4.944300 0.000000
-4.931400 0.000000
-4.918500 0.000000
-4.905600 0.000000
-4.892700 0.000000
-4.879800 0.000000
-4.866900 0.000000
-4.854000 0.000000
-4.841200 0.000000
-4.828300 0.000000
-4.815400 0.000000
-4.802500 0.000000
-4.789600 0.000000
-4.776700 0.000000
-4.763800 0.000000
-4.750900 0.000000
-4.738000 0.000000
-4.725100 0.000000
-4.712200 0.000000
-4.699300 0.000000
-4.686500 0.000000
-4.673600 0.000000
-4.660700 0.000000
-4.647800 0.000000
-4.634900 0.000000
-4.622000 0.000000
-4.609100 0.000000
-4.596200 0.000000
-4.583300 0.000000
-4.570400 0.000000
-4.557500 0.000000
-4.544600 0.000000
-4.531700 0.000000
-4.518900 0.000000
-4.506000 0.000000
-4.493100 0.000000
-4.480200 0.000000
-4.467300 0.000000
-4.454400 0.000000
-4.441500 0.000000
-4.428600 0.000000
-4.415700 0.000000
-4.402800 0.000000
-4.389900 0.000000
-4.377000 0.000000
-4.364200 0.000000
-4.351300 0.000000
-4.338400 0.000000
-4.325500 0.000000
-4.312600 0.000000
-4.299700 0.000000
-4.286800 0.000000
-4.273900 0.000000
-4.261000 0.000000
-4.248100 0.000000
-4.235200 0.000000
-4.222300 0.000000
-4.209500 0.000000
-4.196600 0.000000
-4.183700 0.000000
-4.170800 0.000000
-4.157900 0.000000
-4.145000 0.000000
-4.132100 0.000000
-4.119200 0.000000
-4.106300 0.000000
-4.093400 0.000000
-4.080500 0.000000
-4.067600 0.000000
-4.054700 0.000000
-4.041900 0.000000
-4.029000 0.000000
-4.016100 0.000000
-4.003200 0.000000
-3.990300 0.000000
-3.977400 0.000000
-3.964500 0.000000
-3.951600 0.000000
-3.938700 0.000000
-3.925800 0.000000
-3.912900 0.000000
-3.900000 0.000000
-3.887200 0.000000
-3.874300 0.000000
-3.861400 0.000000
-3.848500 0.000000
-3.835600 0.000000
-3.822700 0.000000
-3.809800 0.000000
-3.796900 0.000000
-3.784000 0.000000
-3.771100 0.000000
-3.758200 0.000000
-3.745300 0.000000
-3.732500 0.000000
-3.719600 0.000000
-3.706700 0.000000
-3.693800 0.000000
-3.680900 0.000000
-3.668000 0.000000
-3.655100 0.000000
-3.642200 0.000000
-3.629300 0.000000
-3.616400 0.000000
-3.603500 0.000000
-3.590600 0.000000
-3.577700 0.000000
-3.564900 0.000000
-3.552000 0.000000
-3.539100 0.000000
-3.526200 0.000000
-3.513300 0.000000
-3.500400 0.000000
-3.487500 0.000000
-3.474600 0.000000
-3.461700 0.000000
-3.448800 0.000000
-3.435900 0.000000
-3.423000 0.000000
-3.410200 0.000000
-3.397300 0.000000
-3.384400 0.000000
-3.371500 0.000000
-3.358600 0.000000
-3.345700 0.000000
-3.332800 0.000000
-3.319900 0.000000
-3.307000 0.000000
-3.294100 0.000000
-3.281200 0.000000
-3.268300 0.000000
-3.255500 0.000000
-3.242600 0.000000
-3.229700 0.000000
-3.216800 0.000000
-3.203900 0.000000
-3.191000 0.000000
-3.178100 0.000000
-3.165200 0.000000
-3.152300 0.000000
-3.139400 0.000000
-3.126500 0.000000
-3.113600 0.000000
-3.100700 0.000000
-3.087900 0.000000
-3.075000 0.000000
-3.062100 0.000000
-3.049200 0.000000
-3.036300 0.000000
-3.023400 0.000000
-3.010500 0.000000
-2.997600 0.000000
-2.984700 0.000000
-2.971800 0.000000
-2.958900 0.000000
-2.946000 0.000000
-2.933200 0.000000
-2.920300 0.000000
-2.907400 0.000000
-2.894500 0.000000
-2.881600 0.000000
-2.868700 0.000000
-2.855800 0.000000
-2.842900 0.000000
-2.830000 12.461400
-2.817100 30.324900
-2.804200 41.142300
-2.791300 38.780500
-2.778500 44.878300
-2.765600 50.976100
-2.752700 47.079400
-2.739800 39.903900
-2.726900 35.960900
-2.714000 35.058000
-2.701100 34.155100
-2.688200 33.252300
-2.675300 28.244300
-2.662400 23.851100
-2.649500 20.110600
-2.636600 18.393300
-2.623700 18.295200
-2.610900 18.197200
-2.598000 18.099100
-2.585100 18.001100
-2.572200 17.903000
-2.559300 17.805000
-2.546400 17.706900
-2.533500 17.608900
-2.520600 18.593800
-2.507700 22.832700
-2.494800 27.783600
-2.481900 32.875900
-2.469000 29.886800
-2.456200 32.893300
-2.443300 38.943200
-2.430400 11.640500
-2.417500 11.805400
-2.404600 11.913900
-2.391700 11.943700
-2.378800 11.973400
-2.365900 12.003200
-2.353000 4.564700
-2.340100 4.492500
-2.327200 4.420300
-2.314300 4.348100
-2.301500 4.275900
-2.288600 16.445000
-2.275700 8.933200
-2.262800 1.421300
-2.249900 0.000000
-2.237000 0.000000
-2.224100 0.000000
-2.211200 0.000000
-2.198300 0.000000
-2.185400 0.000000
-2.172500 0.000000
-2.159600 0.000000
-2.146700 0.000000
-2.133900 0.000000
-2.121000 0.000000
-2.108100 0.000000
-2.095200 0.000000
-2.082300 0.000000
-2.069400 0.000000
-2.056500 0.000000
-2.043600 0.000000
-2.030700 0.000000
-2.017800 0.000000
-2.004900 0.000000
-1.992000 0.000000
-1.979200 0.000000
-1.966300 0.000000
-1.953400 0.000000
-1.940500 0.000000
-1.927600 0.000000
-1.914700 0.000000
-1.901800 0.000000
-1.888900 5.156800
-1.876000 8.959600
-1.863100 11.740500
-1.850200 13.423100
-1.837300 16.420100
-1.824500 18.226000
-1.811600 20.817800
-1.798700 16.080600
-1.785800 14.772600
-1.772900 14.700900
-1.760000 15.317800
-1.747100 15.934600
-1.734200 16.551500
-1.721300 17.168300
-1.708400 17.785200
-1.695500 18.402000
-1.682600 19.018900
-1.669700 19.635700
-1.656900 20.252500
-1.644000 20.869400
-1.631100 21.486200
-1.618200 22.103100
-1.605300 51.220100
-1.592400 17.967300
-1.579500 18.343400
-1.566600 19.127900
-1.553700 13.892800
-1.540800 14.052600
-1.527900 19.066200
-1.515000 18.014300
-1.502200 15.363600
-1.489300 11.487100
-1.476400 7.668700
-1.463500 7.575800
-1.450600 7.482800
-1.437700 7.389900
-1.424800 7.296900
-1.411900 7.204000
-1.399000 7.111000
-1.386100 7.593300
-1.373200 8.117200
-1.360300 8.689800
-1.347500 9.317300
-1.334600 10.609300
-1.321700 11.346500
-1.308800 11.489300
-1.295900 11.635500
-1.283000 11.782300
-1.270100 11.929600
-1.257200 12.077500
-1.244300 12.225200
-1.231400 12.371900
-1.218500 12.518100
-1.205600 12.660800
-1.192700 12.799800
-1.179900 12.938800
-1.167000 13.077700
-1.154100 13.216700
-1.141200 13.355700
-1.128300 13.494700
-1.115400 13.633600
-1.102500 13.772600
-1.089600 13.911600
-1.076700 14.050600
-1.063800 14.189500
-1.050900 14.328500
-1.038000 14.467500
-1.025200 14.606500
-1.012300 14.745400
-0.999400 14.884400
-0.986500 15.023400
-0.973600 16.357300
-0.960700 17.128200
-0.947800 19.052000
-0.934900 22.281200
-0.922000 23.968700
-0.909100 24.570300
-0.896200 28.134300
-0.883300 28.555000
-0.870500 32.105500
-0.857600 33.632800
-0.844700 34.850300
-0.831800 35.031900
-0.818900 35.224000
-0.806000 35.417700
-0.793100 35.599300
-0.780200 35.763700
-0.767300 34.539700
-0.754400 34.584100
-0.741500 34.559000
-0.728600 33.375000
-0.715700 32.124400
-0.702900 32.173300
-0.690000 32.631500
-0.677100 33.397000
-0.664200 34.155900
-0.651300 35.018400
-0.638400 34.076800
-0.625500 34.665900
-0.612600 35.254900
-0.599700 35.895600
-0.586800 36.544700
-0.573900 36.676100
-0.561000 36.836400
-0.548200 37.579200
-0.535300 36.971700
-0.522400 34.136200
-0.509500 32.459500
-0.496600 30.574200
-0.483700 27.215900
-0.470800 26.263600
-0.457900 25.439500
-0.445000 24.609100
-0.432100 23.834100
-0.419200 23.074200
-0.406300 22.409300
-0.393500 21.893200
-0.380600 25.090200
-0.367700 23.938400
-0.354800 22.786700
-0.341900 21.994100
-0.329000 21.283200
-0.316100 20.045600
-0.303200 18.807900
-0.290300 17.629700
-0.277400 17.038700
-0.264500 16.464200
-0.251600 16.034500
-0.238700 15.581100
-0.225900 15.182200
-0.213000 14.867300
-0.200100 14.619800
-0.187200 14.372400
-0.174300 14.124900
-0.161400 13.877500
-0.148500 13.630100
-0.135600 13.382600
-0.122700 13.226700
-0.109800 12.981000
-0.096900 12.838100
-0.084000 12.593200
-0.071200 12.368000
-0.058300 13.522700
-0.045400 13.689900
-0.032500 13.857000
-0.019600 16.798500
-0.006700 17.774100
0.006200 18.777500
0.019100 20.103500
0.032000 21.417100
0.044900 22.417300
0.057800 23.437100
0.070700 32.169400
0.083500 41.092500
0.096400 43.130600
0.109300 44.863000
0.122200 47.255200
0.135100 47.960700
0.148000 50.045000
0.160900 55.280100
0.173800 63.059600
0.186700 68.175900
0.199600 76.170800
0.212500 73.707200
0.225400 61.637200
0.238300 60.523300
0.251100 72.464300
0.264000 47.424800
0.276900 43.292400
0.289800 36.428900
0.302700 53.024900
0.315600 64.508200
0.328500 68.908800
0.341400 61.237100
0.354300 60.838400
0.367200 73.072300
0.380100 53.349500
0.393000 48.999700
0.405800 45.002300
0.418700 42.757700
0.431600 52.359400
0.444500 45.386800
0.457400 46.133900
0.470300 53.088800
0.483200 57.331800
0.496100 50.695300
0.509000 45.923400
0.521900 43.507200
0.534800 42.013300
0.547700 36.567400
0.560500 31.627000
0.573400 28.155800
0.586300 24.790600
0.599200 21.879500
0.612100 19.012200
0.625000 16.436100
0.637900 14.039000
0.650800 43.632600
0.663700 7.300600
0.676600 24.059500
0.689500 11.673600
0.702400 0.000000
0.715300 0.000000
0.728100 0.000000
0.741000 0.000000
0.753900 0.000000
0.766800 0.000000
0.779700 0.000000
0.792600 0.000000
0.805500 0.000000
0.818400 0.000000
0.831300 0.000000
0.844200 0.000000
0.857100 0.000000
0.870000 0.000000
0.882800 0.000000
0.895700 0.000000
0.908600 0.000000
0.921500 0.000000
0.934400 0.000000
0.947300 0.000000
0.960200 0.000000
0.973100 0.000000
0.986000 0.000000
0.998900 0.000000
1.011800 0.000000
1.024700 0.000000
1.037500 0.000000
1.050400 0.000000
1.063300 0.000000
1.076200 0.000000
1.089100 0.000000
1.102000 0.000000
1.114900 0.000000
1.127800 0.000000
1.140700 0.000000
1.153600 0.000000
1.166500 0.000000
1.179400 0.000000
1.192300 0.000000
1.205100 0.000000
1.218000 0.000000
1.230900 0.000000
1.243800 0.000000
1.256700 0.000000
1.269600 0.000000
1.282500 0.000000
1.295400 0.000000
1.308300 0.000000
1.321200 0.000000
1.334100 0.000000
1.347000 0.000000
1.359800 0.000000
1.372700 0.000000
1.385600 0.000000
1.398500 0.000000
1.411400 0.000000
1.424300 0.000000
1.437200 0.000000
1.450100 0.000000
1.463000 0.000000
1.475900 0.000000
1.488800 0.000000
1.501700 0.000000
1.514500 0.000000
1.527400 0.000000
1.540300 0.000000
1.553200 0.000000
1.566100 0.000000
1.579000 0.000000
1.591900 0.000000
1.604800 0.000000
1.617700 0.000000
1.630600 0.000000
1.643500 0.000000
1.656400 0.000000
1.669300 0.000000
1.682100 0.000000
1.695000 0.000000
1.707900 0.000000
1.720800 0.000000
1.733700 0.000000
1.746600 0.000000
1.759500 0.000000
1.772400 0.000000
1.785300 0.000000
1.798200 0.000000
1.811100 0.000000
1.824000 0.000000
1.836800 0.000000
1.849700 0.000000
1.862600 0.000000
1.875500 0.000000
1.888400 0.000000
1.901300 0.000000
1.914200 0.000000
1.927100 0.000000
1.940000 0.000000
1.952900 0.000000
1.965800 0.000000
1.978700 0.000000
1.991500 0.000000
2.004400 0.000000
2.017300 0.000000
2.030200 0.000000
2.043100 0.000000
2.056000 0.000000
2.068900 0.000000
2.081800 0.000000
2.094700 0.000000
2.107600 0.000000
2.120500 0.000000
2.133400 0.000000
2.146300 0.000000
2.159100 0.000000
2.172000 0.000000
2.184900 0.000000
2.197800 0.000000
2.210700 0.000000
2.223600 0.000000
2.236500 0.000000
2.249400 0.000000
2.262300 0.000000
2.275200 0.000000
2.288100 0.000000
2.301000 0.000000
2.313800 0.000000
2.326700 0.000000
2.339600 0.000000
2.352500 0.000000
2.365400 0.000000
2.378300 0.000000
2.391200 0.000000
2.404100 0.000000
2.417000 0.000000
2.429900 0.000000
2.442800 0.000000
2.455700 0.000000
2.468500 0.000000
2.481400 0.000000
2.494300 0.000000
2.507200 0.000000
2.520100 0.000000
2.533000 0.000000
2.545900 0.000000
2.558800 0.000000
2.571700 0.000000
2.584600 0.000000
2.597500 0.000000
2.610400 0.000000
2.623300 0.000000
2.636100 0.000000
2.649000 0.000000
2.661900 0.000000
2.674800 0.000000
2.687700 0.000000
2.700600 0.000000
2.713500 0.000000
2.726400 0.000000
2.739300 0.000000
2.752200 0.000000
2.765100 0.000000
2.778000 0.000000
2.790800 0.000000
2.803700 0.000000
2.816600 0.000000
2.829500 0.000000
2.842400 0.000000
2.855300 0.000000
2.868200 0.000000
2.881100 0.000000
2.894000 0.000000
2.906900 0.000000
2.919800 0.000000
2.932700 0.000000
2.945500 0.000000
2.958400 0.000000
2.971300 0.000000
2.984200 0.000000
2.997100 0.000000
3.010000 0.000000
3.022900 0.000000
3.035800 0.000000
3.048700 0.000000
3.061600 0.000000
3.074500 0.000000
3.087400 0.000000
3.100300 0.000000
3.113100 0.000000
3.126000 0.000000
3.138900 0.000000
3.151800 0.000000
3.164700 0.000000
3.177600 0.930700
3.190500 1.892100
3.203400 1.969200
3.216300 2.046200
3.229200 3.117000
3.242100 4.208100
3.255000 4.350400
3.267800 4.492700
3.280700 4.634900
3.293600 5.888100
3.306500 7.162200
3.319400 8.521200
3.332300 8.778300
3.345200 9.035400
3.358100 9.292600
3.371000 9.549700
3.383900 9.806800
3.396800 10.063900
3.409700 10.321100
3.422500 10.578200
3.435400 10.835300
3.448300 11.129900
3.461200 11.498300
3.474100 11.904600
3.487000 12.384400
3.499900 12.922900
3.512800 13.498000
3.525700 14.139000
3.538600 14.873600
3.551500 15.669900
3.564400 16.466300
3.577300 17.262700
3.590100 18.085200
3.603000 18.937800
3.615900 19.790500
3.628800 20.643100
3.641700 21.495700
3.654600 26.670800
3.667500 30.106500
3.680400 29.605200
3.693300 32.890600
3.706200 31.687000
3.719100 34.774000
3.732000 31.972500
3.744800 34.902900
3.757700 36.418800
3.770600 35.325900
3.783500 29.780800
3.796400 26.197100
3.809300 24.531500
3.822200 22.925700
3.835100 20.771000
3.848000 20.143500
3.860900 19.515900
3.873800 18.888300
3.886700 18.260800
3.899500 17.633200
3.912400 17.005700
3.925300 20.325300
3.938200 17.701300
3.951100 15.077300
3.964000 12.453200
3.976900 9.829200
3.989800 7.354200
4.002700 6.296900
4.015600 20.866300
4.028500 0.000000
4.041400 0.000000
4.054300 0.000000
4.067100 0.000000
4.080000 0.000000
4.092900 0.000000
4.105800 0.000000
4.118700 0.000000
4.131600 0.000000
4.144500 0.000000
4.157400 0.000000
4.170300 0.000000
4.183200 0.000000
4.196100 0.000000
4.209000 0.000000
4.221800 0.000000
4.234700 0.000000
4.247600 0.000000
4.260500 0.000000
4.273400 0.000000
4.286300 0.000000
4.299200 0.000000
4.312100 0.000000
4.325000 0.000000
4.337900 0.000000
4.350800 0.000000
4.363700 0.000000
4.376500 0.000000
4.389400 0.000000
4.402300 0.000000
4.415200 0.000000
4.428100 0.000000
4.441000 0.000000
4.453900 0.000000
4.466800 0.000000
4.479700 0.000000
4.492600 0.000000
4.505500 0.000000
4.518400 0.000000
4.531300 0.000000
4.544100 0.000000
4.557000 0.000000
4.569900 0.000000
4.582800 0.000000
4.595700 0.000000
4.608600 0.000000
4.621500 0.000000
4.634400 0.000000
4.647300 0.000000
4.660200 0.000000
4.673100 0.000000
4.686000 0.000000
4.698800 0.000000
4.711700 0.000000
4.724600 0.000000
4.737500 0.000000
4.750400 0.000000
4.763300 0.000000
4.776200 0.000000
4.789100 0.000000
4.802000 0.000000
4.814900 0.000000
4.827800 0.000000
4.840700 0.000000
4.853500 0.000000
4.866400 0.000000
4.879300 0.000000
4.892200 0.000000
4.905100 0.000000
4.918000 0.000000
4.930900 0.000000
4.943800 0.000000
4.956700 0.000000
4.969600 0.000000
4.982500 0.000000
4.995400 0.000000
5.008300 0.000000
5.021100 0.000000
5.034000 0.000000
5.046900 0.000000
5.059800 0.000000
5.072700 0.000000
5.085600 0.000000
5.098500 0.000000
5.111400 0.000000
5.124300 0.000000
5.137200 0.000000
5.150100 0.000000
5.163000 0.000000
5.175800 0.000000
5.188700 0.000000
5.201600 0.000200
5.214500 0.019000
5.227400 0.069600
5.240300 0.135100
5.253200 0.200600
5.266100 0.266100
5.279000 0.331700
5.291900 0.397200
5.304800 0.462700
5.317700 0.528300
5.330500 0.593800
5.343400 0.659300
5.356300 0.724900
5.369200 0.790400
5.382100 0.855900
5.395000 0.921500
5.407900 0.987000
5.420800 1.052500
5.433700 1.118000
5.446600 1.183600
5.459500 1.249100
5.472400 1.314600
5.485300 1.380200
5.498100 1.445700
5.511000 1.511200
5.523900 1.576800
5.536800 1.642300
5.549700 1.707800
5.562600 1.773400
5.575500 1.838900
5.588400 1.904400
5.601300 1.970000
5.614200 2.035500
5.627100 2.101000
5.640000 2.166500
5.652800 2.232100
5.665700 2.297600
5.678600 2.363100
5.691500 2.720100
5.704400 3.444700
5.717300 4.169300
5.730200 4.943200
5.743100 5.236200
5.756000 7.957000
5.768900 8.073000
5.781800 8.484900
5.794700 10.206000
5.807500 10.713200
5.820400 10.796800
5.833300 10.847300
5.846200 10.947100
5.859100 11.718200
5.872000 11.960700
5.884900 12.203100
5.897800 12.979800
5.910700 13.326700
5.923600 13.673600
5.936500 14.020400
5.949400 14.233100
5.962300 14.863900
5.975100 15.026000
5.988000 15.740700
6.000900 15.957100
6.013800 16.173400
6.026700 16.215300
6.039600 16.254200
6.052500 16.293100
6.065400 16.332100
6.078300 16.371000
6.091200 16.409900
6.104100 16.448800
6.117000 16.487700
6.129800 16.526600
6.142700 16.565500
6.155600 16.539600
6.168500 24.477100
6.181400 19.688000
6.194300 22.428300
6.207200 20.365900
6.220100 18.303500
6.233000 18.335000
6.245900 22.057400
6.258800 17.107100
6.271700 16.915700
6.284500 16.724300
6.297400 16.532800
6.310300 16.341400
6.323200 16.261800
6.336100 16.077800
6.349000 15.772700
6.361900 15.467500
6.374800 15.162400
6.387700 13.237200
6.400600 11.468700
6.413500 11.572000
6.426400 13.638400
6.439300 12.159500
6.452100 11.968000
6.465000 16.042400
6.477900 15.748500
6.490800 15.454600
6.503700 15.160700
6.516600 14.866900
6.529500 14.573000
6.542400 13.138500
6.555300 12.686700
6.568200 11.276400
6.581100 10.891300
6.594000 9.761700
6.606800 12.431500
6.619700 15.102100
6.632600 14.759900
6.645500 14.273500
6.658400 13.787100
6.671300 13.300600
6.684200 12.814200
6.697100 12.327700
6.710000 11.945700
6.722900 11.845200
6.735800 11.767300
6.748700 11.689400
6.761500 11.611500
6.774400 11.533600
6.787300 14.618100
6.800200 18.360000
6.813100 17.611100
6.826000 21.333400
6.838900 24.793300
6.851800 26.111900
6.864700 27.402200
6.877600 30.314500
6.890500 28.154200
6.903400 26.324200
6.916300 29.111200
6.929100 28.427400
6.942000 25.465700
6.954900 42.069300
6.967800 22.371700
6.980700 22.306400
6.993600 62.329100
7.006500 16.234900
7.019400 16.342100
7.032300 19.016400
7.045200 26.800500
7.058100 36.072800
7.071000 19.250100
7.083800 21.663200
7.096700 17.678600
7.109600 20.001100
7.122500 23.442300
7.135400 26.979500
7.148300 30.516700
7.161200 21.257400
7.174100 29.296200
7.187000 38.331100
7.199900 41.312800
7.212800 28.247700
7.225700 26.251600
7.238500 24.542400
7.251400 21.974600
7.264300 24.749600
7.277200 32.228200
7.290100 18.291900
7.303000 21.058100
7.315900 27.393500
7.328800 20.326800
7.341700 21.569200
7.354600 22.937400
7.367500 24.580500
7.380400 27.961500
7.393300 27.380300
7.406100 28.402200
7.419000 29.816100
7.431900 33.823200
7.444800 33.807600
7.457700 38.462600
7.470600 35.368400
7.483500 35.679400
7.496400 35.990300
7.509300 34.976800
7.522200 41.702600
7.535100 35.972600
7.548000 32.674900
7.560800 30.702000
7.573700 31.856000
7.586600 31.420800
7.599500 28.599700
7.612400 26.361600
7.625300 25.020700
7.638200 30.787900
7.651100 27.964600
7.664000 25.358300
7.676900 25.009300
7.689800 24.660400
7.702700 24.311400
7.715500 24.906600
7.728400 25.589700
7.741300 27.144300
7.754200 39.310800
7.767100 36.561000
7.780000 34.506400
7.792900 32.772300
7.805800 31.746800
7.818700 30.961300
7.831600 29.998500
7.844500 30.447900
7.857400 29.579400
7.870300 28.710800
7.883100 27.842300
7.896000 28.787200
7.908900 28.479900
7.921800 27.383200
7.934700 26.286600
7.947600 25.257100
7.960500 27.004500
7.973400 26.630300
7.986300 25.948200
7.999200 23.604000
8.012100 21.535000
8.025000 19.075800
8.037800 17.748600
8.050700 167.421000
8.063600 15.356700
8.076500 18.639800
8.089400 22.786400
8.102300 8.357600
8.115200 8.208500
8.128100 8.102400
8.141000 7.588600
8.153900 7.510000
8.166800 7.431400
8.179700 7.352800
8.192500 7.380000
8.205400 7.415500
8.218300 7.451000
8.231200 7.486500
8.244100 7.531500
8.257000 7.672800
8.269900 7.814100
8.282800 7.955300
8.295700 8.096600
8.308600 7.916700
8.321500 7.717500
8.334400 7.896200
8.347300 8.074900
8.360100 7.881100
8.373000 8.083500
8.385900 8.285800
8.398800 8.488200
8.411700 8.690500
8.424600 7.614500
8.437500 6.585000
8.450400 6.967600
8.463300 7.350100
8.476200 7.407300
8.489100 7.477000
8.502000 7.900600
8.514800 8.324200
8.527700 8.747800
8.540600 14.803100
8.553500 9.309200
8.566400 8.510400
8.579300 8.782500
8.592200 9.054700
8.605100 9.397200
8.618000 16.254700
8.630900 12.432000
8.643800 14.334900
8.656700 15.286800
8.669500 15.253500
8.682400 15.756100
8.695300 15.763900
8.708200 16.123100
8.721100 18.702300
8.734000 17.567100
8.746900 17.142300
8.759800 17.707000
8.772700 18.793500
8.785600 19.880000
8.798500 20.278600
8.811400 21.325800
8.824300 22.372900
8.837100 21.630500
8.850000 23.711000
8.862900 25.013900
8.875800 31.645400
8.888700 31.220500
8.901600 31.220300
8.914500 24.514000
8.927400 22.994800
8.940300 21.564700
8.953200 20.804800
8.966100 21.317500
8.979000 23.037500
8.991800 23.801900
9.004700 24.647800
9.017600 27.029400
9.030500 26.780500
9.043400 28.689200
9.056300 29.278700
9.069200 30.570900
9.082100 25.583900
9.095000 25.527000
9.107900 25.470100
9.120800 25.413100
9.133700 25.397200
9.146500 24.287700
9.159400 24.497600
9.172300 24.383500
9.185200 21.737800
9.198100 21.811200
9.211000 21.894300
9.223900 22.081800
9.236800 33.012500
9.249700 21.796500
9.262600 22.384200
9.275500 22.971900
9.288400 23.559500
9.301300 24.597400
9.314100 25.587100
9.327000 25.065600
9.339900 26.131900
9.352800 27.805900
9.365700 29.215500
9.378600 24.387500
9.391500 23.085900
9.404400 23.587700
9.417300 23.930400
9.430200 23.845700
9.443100 23.810800
9.456000 21.640900
9.468800 22.070500
9.481700 22.500100
9.494600 22.374900
9.507500 19.071600
9.520400 18.325100
9.533300 25.071100
9.546200 19.738200
9.559100 15.373200
9.572000 13.613700
9.584900 14.017800
9.597800 14.969100
9.610700 16.114000
9.623500 17.588800
9.636400 19.202700
9.649300 19.024200
9.662200 17.338800
9.675100 18.799100
9.688000 20.382400
9.700900 22.255700
9.713800 24.471900
9.726700 27.352700
9.739600 30.086300
9.752500 28.070400
9.765400 20.589100
9.778300 21.913100
9.791100 23.237200
9.804000 17.593400
9.816900 15.065400
9.829800 15.021600
9.842700 15.231900
9.855600 15.442300
9.868500 15.652700
9.881400 16.276300
9.894300 18.847600
9.907200 18.659300
9.920100 20.161700
9.933000 17.478700
9.945800 16.756300
9.958700 18.740900
9.971600 18.645500
9.984500 18.895400
9.997400 18.884700
10.010300 19.156400
10.023200 18.298000
10.036100 18.594500
10.049000 16.710400
10.061900 17.757200
10.074800 15.870000
10.087700 15.852400
10.100500 15.834700
10.113400 15.817000
10.126300 15.823100
10.139200 15.840900
10.152100 15.909100
10.165000 15.977300
10.177900 16.440400
10.190800 16.652500
10.203700 16.864500
10.216600 15.407700
10.229500 15.454700
10.242400 14.257700
10.255300 14.568800
10.268100 14.677900
10.281000 14.787100
10.293900 14.905200
10.306800 15.039200
10.319700 15.175500
10.332600 15.312100
10.345500 14.399100
10.358400 12.520700
10.371300 12.369900
10.384200 13.529300
10.397100 13.435800
10.410000 13.401300
10.422800 13.403900
10.435700 14.643400
10.448600 14.906200
10.461500 15.179100
10.474400 15.452100
10.487300 15.395900
10.500200 13.893800
10.513100 14.054900
10.526000 14.216100
10.538900 14.378400
10.551800 14.555000
10.564700 14.249000
10.577500 14.614800
10.590400 14.581000
10.603300 14.437400
10.616200 14.293700
10.629100 14.150100
10.642000 14.006500
10.654900 13.861200
10.667800 13.691400
10.680700 13.464600
10.693600 13.210100
10.706500 12.955500
10.719400 12.700900
10.732300 16.567400
10.745100 19.120300
10.758000 19.049600
10.770900 20.024100
10.783800 19.781900
10.796700 20.122800
10.809600 19.676300
10.822500 19.784500
10.835400 19.379800
10.848300 18.986300
10.861200 20.033200
10.874100 19.626000
10.887000 20.415900
10.899800 19.998800
10.912700 19.585900
10.925600 19.180800
10.938500 20.857400
10.951400 20.066300
10.964300 19.275300
10.977200 18.484200
10.990100 18.252400
11.003000 17.452000
11.015900 17.556000
11.028800 17.260200
11.041700 17.051300
11.054500 18.126000
11.067400 17.788000
11.080300 17.450000
11.093200 17.111900
11.106100 16.772000
11.119000 16.414000
11.131900 15.776300
11.144800 18.291200
11.157700 18.228400
11.170600 20.867600
11.183500 20.382300
11.196400 19.897300
11.209300 20.003100
11.222100 21.364600
11.235000 22.727700
11.247900 24.092400
11.260800 18.350600
11.273700 17.883900
11.286600 17.458500
11.299500 17.026800
11.312400 16.415400
11.325300 23.481200
11.338200 19.829000
11.351100 16.935500
11.364000 17.495600
11.376800 17.849000
11.389700 18.205300
11.402600 18.586200
11.415500 18.967500
11.428400 19.302700
11.441300 16.290600
11.454200 16.265800
11.467100 15.622600
11.480000 15.685700
11.492900 15.766600
11.505800 15.933600
11.518700 15.397100
11.531500 16.356900
11.544400 16.844100
11.557300 14.653800
11.570200 14.920200
11.583100 15.186500
11.596000 14.685900
11.608900 14.951000
11.621800 14.100600
11.634700 14.528500
11.647600 13.634000
11.660500 12.673400
11.673400 13.336900
11.686300 14.000400
11.699100 10.656300
11.712000 10.791600
11.724900 10.926900
11.737800 9.955100
11.750700 16.736900
11.763600 12.825300
11.776500 9.393900
11.789400 9.606500
11.802300 9.819200
11.815200 10.031800
11.828100 10.244500
11.841000 10.457100
11.853800 15.703400
11.866700 14.326000
11.879600 12.371000
11.892500 10.477800
11.905400 10.762100
11.918300 11.572800
11.931200 10.290600
11.944100 75.934700
11.957000 8.593500
11.969900 8.886700
11.982800 9.180000
11.995700 9.473300
12.008500 10.827800
12.021400 10.721800
12.034300 10.615700
12.047200 11.959300
12.060100 11.421200
12.073000 10.883100
12.085900 10.345000
12.098800 9.806900
12.111700 9.268800
12.124600 10.348800
12.137500 9.993100
12.150400 9.637500
12.163300 9.281800
12.176100 10.101200
12.189000 9.836900
12.201900 9.819200
12.214800 9.801600
12.227700 8.160400
12.240600 7.077900
12.253500 5.995400
12.266400 4.912900
12.279300 4.105400
12.292200 4.198300
12.305100 4.291200
12.318000 4.384100
12.330800 4.477000
12.343700 3.225100
12.356600 2.181700
12.369500 1.138300
12.382400 0.094900
12.395300 0.000000
12.408200 0.000000
12.421100 0.000000
12.434000 0.000000
12.446900 0.000000
12.459800 0.000000
12.472700 0.000000
12.485500 0.000000
12.498400 0.000000
12.511300 0.000000
12.524200 0.000000
12.537100 0.000000
12.550000 0.000000
12.562900 0.000000
12.575800 0.000000
12.588700 0.000000
12.601600 0.000000
12.614500 0.000000
12.627400 0.000000
12.640300 0.000000
12.653100 0.000000
12.666000 0.000000
12.678900 0.000000
12.691800 0.000000
12.704700 0.000000
12.717600 0.000000
12.730500 0.000000
12.743400 0.000000
12.756300 0.000000
12.769200 0.000000
12.782100 0.000000
12.795000 0.000000
12.807800 0.000000
12.820700 0.000000
12.833600 0.000000
12.846500 0.000000
12.859400 0.000000
12.872300 0.000000
12.885200 0.000000
12.898100 0.000000
12.911000 0.000000
12.923900 0.000000
12.936800 0.000000
12.949700 0.000000
12.962500 0.000000
12.975400 0.000000
12.988300 0.000000
13.001200 0.000000
13.014100 0.000000
13.027000 0.000000
13.039900 0.000000
13.052800 0.000000
13.065700 0.000000
13.078600 0.000000
13.091500 0.000000
13.104400 0.000000
13.117300 0.000000
13.130100 0.000000
13.143000 0.000000
13.155900 0.000000
13.168800 0.000000
13.181700 0.000000
13.194600 0.000000
13.207500 0.000000
13.220400 0.000000
13.233300 0.000000
13.246200 0.000000
13.259100 0.000000
13.272000 0.000000
13.284800 0.000000
13.297700 0.000000
13.310600 0.000000
13.323500 0.000000
13.336400 0.000000
13.349300 0.000000
13.362200 0.000000
13.375100 0.000000
13.388000 0.000000
13.400900 0.000000
13.413800 0.000000
13.426700 0.000000
13.439500 0.000000
13.452400 0.000000
13.465300 0.000000
13.478200 0.000000
13.491100 0.000000
13.504000 0.000000
13.516900 0.000000
13.529800 0.000000
13.542700 0.000000
13.555600 0.000000
e
