set title 'mp-542339 - Density of States'
set xlabel 'Energy (eV)'
set ylabel 'DOS (states/eV)'
set grid
set xrange [-10:10]
set yrange [0:316.954]
set xzeroaxis lt -1
set terminal png size 800,600
set output 'mp-542339_dos_gnuplot.png'
plot '-' using 1:2 with lines title 'DOS'
-20.151800 0.000000
-20.135000 0.000000
-20.118200 0.000000
-20.101400 0.000000
-20.084600 0.000000
-20.067800 0.000000
-20.051000 0.000000
-20.034200 0.000000
-20.017300 0.000000
-20.000500 0.000000
-19.983700 0.000000
-19.966900 0.000000
-19.950100 0.000000
-19.933300 0.000000
-19.916500 0.000000
-19.899700 0.000000
-19.882900 0.000000
-19.866100 0.000000
-19.849300 0.000000
-19.832500 0.000000
-19.815600 0.000000
-19.798800 0.000000
-19.782000 0.000000
-19.765200 0.000000
-19.748400 0.000000
-19.731600 0.000000
-19.714800 0.000000
-19.698000 0.000000
-19.681200 0.000000
-19.664400 0.000000
-19.647600 0.000000
-19.630800 0.000000
-19.613900 0.000000
-19.597100 0.000000
-19.580300 0.000000
-19.563500 0.000000
-19.546700 0.000000
-19.529900 0.000000
-19.513100 0.000000
-19.496300 0.000000
-19.479500 0.000000
-19.462700 0.000000
-19.445900 0.000000
-19.429100 0.000000
-19.412300 0.000000
-19.395400 0.000000
-19.378600 0.000000
-19.361800 0.000000
-19.345000 0.000000
-19.328200 0.000000
-19.311400 0.000000
-19.294600 0.000000
-19.277800 0.000000
-19.261000 0.000000
-19.244200 0.000000
-19.227400 0.000000
-19.210600 0.000000
-19.193700 0.000000
-19.176900 0.000000
-19.160100 0.000000
-19.143300 0.000000
-19.126500 0.000000
-19.109700 0.000000
-19.092900 0.000000
-19.076100 0.000000
-19.059300 0.000000
-19.042500 0.000000
-19.025700 0.000000
-19.008900 0.000000
-18.992100 0.000000
-18.975200 0.000000
-18.958400 0.000000
-18.941600 0.000000
-18.924800 0.000000
-18.908000 0.000000
-18.891200 0.000000
-18.874400 0.000000
-18.857600 0.000000
-18.840800 0.000000
-18.824000 0.000000
-18.807200 0.000000
-18.790400 0.000000
-18.773500 0.000000
-18.756700 0.000000
-18.739900 0.000000
-18.723100 0.000000
-18.706300 0.000000
-18.689500 0.000000
-18.672700 0.000000
-18.655900 0.000000
-18.639100 0.000000
-18.622300 17.882000
-18.605500 119.688300
-18.588700 52.052200
-18.571900 56.732500
-18.555000 89.407400
-18.538200 21.231300
-18.521400 0.000000
-18.504600 0.000000
-18.487800 0.000000
-18.471000 0.000000
-18.454200 0.000000
-18.437400 0.000000
-18.420600 0.000000
-18.403800 0.000000
-18.387000 0.000000
-18.370200 0.000000
-18.353300 0.000000
-18.336500 0.000000
-18.319700 0.000000
-18.302900 0.000000
-18.286100 0.000000
-18.269300 0.000000
-18.252500 0.000000
-18.235700 0.000000
-18.218900 0.000000
-18.202100 0.000000
-18.185300 0.000000
-18.168500 0.000000
-18.151700 0.000000
-18.134800 0.000000
-18.118000 0.000000
-18.101200 0.000000
-18.084400 0.000000
-18.067600 0.000000
-18.050800 0.000000
-18.034000 0.000000
-18.017200 0.000000
-18.000400 0.000000
-17.983600 0.000000
-17.966800 0.000000
-17.950000 0.000000
-17.933100 0.000000
-17.916300 0.000000
-17.899500 0.000000
-17.882700 0.000000
-17.865900 0.000000
-17.849100 0.000000
-17.832300 0.000000
-17.815500 0.000000
-17.798700 0.000000
-17.781900 0.000000
-17.765100 0.000000
-17.748300 0.000000
-17.731500 0.000000
-17.714600 0.000000
-17.697800 0.000000
-17.681000 0.000000
-17.664200 0.000000
-17.647400 0.000000
-17.630600 0.000000
-17.613800 0.000000
-17.597000 0.000000
-17.580200 0.000000
-17.563400 0.000000
-17.546600 0.000000
-17.529800 0.000000
-17.512900 0.000000
-17.496100 0.000000
-17.479300 0.000000
-17.462500 0.000000
-17.445700 0.000000
-17.428900 0.000000
-17.412100 0.000000
-17.395300 0.000000
-17.378500 0.000000
-17.361700 0.000000
-17.344900 0.000000
-17.328100 0.000000
-17.311300 0.000000
-17.294400 0.000000
-17.277600 0.000000
-17.260800 0.000000
-17.244000 0.000000
-17.227200 0.000000
-17.210400 0.000000
-17.193600 0.000000
-17.176800 0.000000
-17.160000 0.000000
-17.143200 0.000000
-17.126400 0.000000
-17.109600 0.000000
-17.092700 0.000000
-17.075900 0.000000
-17.059100 0.000000
-17.042300 0.000000
-17.025500 0.000000
-17.008700 0.000000
-16.991900 0.000000
-16.975100 0.000000
-16.958300 0.000000
-16.941500 0.000000
-16.924700 0.000000
-16.907900 0.000000
-16.891100 0.000000
-16.874200 0.000000
-16.857400 0.000000
-16.840600 0.000000
-16.823800 0.000000
-16.807000 0.000000
-16.790200 0.000000
-16.773400 0.000000
-16.756600 0.000000
-16.739800 0.000000
-16.723000 0.000000
-16.706200 0.000000
-16.689400 0.000000
-16.672500 0.000000
-16.655700 0.000000
-16.638900 0.000000
-16.622100 0.000000
-16.605300 0.000000
-16.588500 0.000000
-16.571700 0.000000
-16.554900 0.000000
-16.538100 0.000000
-16.521300 0.000000
-16.504500 0.000000
-16.487700 0.000000
-16.470800 0.000000
-16.454000 0.000000
-16.437200 0.000000
-16.420400 0.000000
-16.403600 0.000000
-16.386800 0.000000
-16.370000 0.000000
-16.353200 0.000000
-16.336400 0.000000
-16.319600 0.000000
-16.302800 0.000000
-16.286000 0.000000
-16.269200 0.000000
-16.252300 0.000000
-16.235500 0.000000
-16.218700 0.000000
-16.201900 0.000000
-16.185100 0.000000
-16.168300 0.000000
-16.151500 0.000000
-16.134700 0.000000
-16.117900 0.000000
-16.101100 0.000000
-16.084300 0.000000
-16.067500 0.000000
-16.050600 0.000000
-16.033800 0.000000
-16.017000 0.000000
-16.000200 0.000000
-15.983400 0.000000
-15.966600 0.000000
-15.949800 0.000000
-15.933000 0.000000
-15.916200 0.000000
-15.899400 0.000000
-15.882600 0.000000
-15.865800 0.000000
-15.849000 0.000000
-15.832100 0.000000
-15.815300 0.000000
-15.798500 0.000000
-15.781700 0.000000
-15.764900 0.000000
-15.748100 0.000000
-15.731300 0.000000
-15.714500 0.000000
-15.697700 0.000000
-15.680900 0.000000
-15.664100 0.000000
-15.647300 0.000000
-15.630400 0.000000
-15.613600 0.000000
-15.596800 0.000000
-15.580000 0.000000
-15.563200 0.000000
-15.546400 0.000000
-15.529600 0.000000
-15.512800 0.000000
-15.496000 0.000000
-15.479200 0.000000
-15.462400 0.000000
-15.445600 0.000000
-15.428800 0.000000
-15.411900 0.000000
-15.395100 0.000000
-15.378300 0.000000
-15.361500 0.000000
-15.344700 0.000000
-15.327900 0.000000
-15.311100 0.000000
-15.294300 0.000000
-15.277500 0.000000
-15.260700 0.000000
-15.243900 0.000000
-15.227100 0.000000
-15.210200 0.000000
-15.193400 0.000000
-15.176600 0.000000
-15.159800 0.000000
-15.143000 0.000000
-15.126200 0.000000
-15.109400 0.000000
-15.092600 0.000000
-15.075800 0.000000
-15.059000 0.000000
-15.042200 0.000000
-15.025400 0.000000
-15.008600 0.000000
-14.991700 0.000000
-14.974900 0.000000
-14.958100 0.000000
-14.941300 0.000000
-14.924500 0.000000
-14.907700 0.000000
-14.890900 0.000000
-14.874100 0.000000
-14.857300 0.000000
-14.840500 0.000000
-14.823700 0.000000
-14.806900 0.000000
-14.790000 0.000000
-14.773200 0.000000
-14.756400 0.000000
-14.739600 0.000000
-14.722800 0.000000
-14.706000 0.000000
-14.689200 0.000000
-14.672400 0.000000
-14.655600 0.000000
-14.638800 0.000000
-14.622000 0.000000
-14.605200 0.000000
-14.588400 0.000000
-14.571500 0.000000
-14.554700 0.000000
-14.537900 0.000000
-14.521100 0.000000
-14.504300 0.000000
-14.487500 0.000000
-14.470700 0.000000
-14.453900 0.000000
-14.437100 0.000000
-14.420300 0.000000
-14.403500 0.000000
-14.386700 0.000000
-14.369800 0.000000
-14.353000 0.000000
-14.336200 0.000000
-14.319400 0.000000
-14.302600 0.000000
-14.285800 0.000000
-14.269000 0.000000
-14.252200 0.000000
-14.235400 0.000000
-14.218600 0.000000
-14.201800 0.000000
-14.185000 0.000000
-14.168200 0.000000
-14.151300 0.000000
-14.134500 0.000000
-14.117700 0.000000
-14.100900 0.000000
-14.084100 0.000000
-14.067300 0.000000
-14.050500 0.000000
-14.033700 0.000000
-14.016900 0.000000
-14.000100 0.000000
-13.983300 0.000000
-13.966500 0.000000
-13.949600 0.000000
-13.932800 0.000000
-13.916000 0.000000
-13.899200 0.000000
-13.882400 0.000000
-13.865600 0.000000
-13.848800 0.000000
-13.832000 0.000000
-13.815200 0.000000
-13.798400 0.000000
-13.781600 0.000000
-13.764800 0.000000
-13.748000 0.000000
-13.731100 0.000000
-13.714300 0.000000
-13.697500 0.000000
-13.680700 0.000000
-13.663900 0.000000
-13.647100 0.000000
-13.630300 0.000000
-13.613500 0.000000
-13.596700 0.000000
-13.579900 0.000000
-13.563100 0.000000
-13.546300 0.000000
-13.529400 0.000000
-13.512600 0.000000
-13.495800 0.000000
-13.479000 0.000000
-13.462200 0.000000
-13.445400 0.000000
-13.428600 0.000000
-13.411800 0.000000
-13.395000 0.000000
-13.378200 0.000000
-13.361400 0.000000
-13.344600 0.000000
-13.327700 0.000000
-13.310900 0.000000
-13.294100 0.000000
-13.277300 0.000000
-13.260500 0.000000
-13.243700 0.000000
-13.226900 0.000000
-13.210100 0.000000
-13.193300 0.000000
-13.176500 0.000000
-13.159700 0.000000
-13.142900 0.000000
-13.126100 0.000000
-13.109200 0.000000
-13.092400 0.000000
-13.075600 0.000000
-13.058800 0.000000
-13.042000 0.000000
-13.025200 0.000000
-13.008400 0.000000
-12.991600 0.000000
-12.974800 0.000000
-12.958000 0.000000
-12.941200 0.000000
-12.924400 0.000000
-12.907500 0.000000
-12.890700 0.000000
-12.873900 0.000000
-12.857100 0.000000
-12.840300 0.000000
-12.823500 0.000000
-12.806700 0.000000
-12.789900 0.000000
-12.773100 0.000000
-12.756300 0.000000
-12.739500 0.000000
-12.722700 0.000000
-12.705900 0.000000
-12.689000 0.000000
-12.672200 0.000000
-12.655400 0.000000
-12.638600 0.000000
-12.621800 0.000000
-12.605000 0.000000
-12.588200 0.000000
-12.571400 0.000000
-12.554600 0.000000
-12.537800 0.000000
-12.521000 0.000000
-12.504200 0.000000
-12.487300 0.000000
-12.470500 0.000000
-12.453700 0.000000
-12.436900 0.000000
-12.420100 0.000000
-12.403300 0.000000
-12.386500 0.000000
-12.369700 0.000000
-12.352900 0.000000
-12.336100 0.000000
-12.319300 0.000000
-12.302500 0.000000
-12.285700 0.000000
-12.268800 0.000000
-12.252000 0.000000
-12.235200 0.000000
-12.218400 0.000000
-12.201600 0.000000
-12.184800 0.000000
-12.168000 0.000000
-12.151200 0.000000
-12.134400 0.000000
-12.117600 0.000000
-12.100800 0.000000
-12.084000 0.000000
-12.067100 0.000000
-12.050300 0.000000
-12.033500 0.000000
-12.016700 0.000000
-11.999900 0.000000
-11.983100 0.000000
-11.966300 0.000000
-11.949500 0.000000
-11.932700 0.000000
-11.915900 0.000000
-11.899100 0.000000
-11.882300 0.000000
-11.865500 0.000000
-11.848600 0.000000
-11.831800 0.000000
-11.815000 0.000000
-11.798200 0.000000
-11.781400 0.000000
-11.764600 0.000000
-11.747800 0.000000
-11.731000 0.000000
-11.714200 0.000000
-11.697400 0.000000
-11.680600 0.000000
-11.663800 0.000000
-11.646900 0.000000
-11.630100 0.000000
-11.613300 0.000000
-11.596500 0.000000
-11.579700 0.000000
-11.562900 0.000000
-11.546100 0.000000
-11.529300 0.000000
-11.512500 0.000000
-11.495700 0.000000
-11.478900 0.000000
-11.462100 0.000000
-11.445300 0.000000
-11.428400 0.000000
-11.411600 0.000000
-11.394800 0.000000
-11.378000 0.000000
-11.361200 0.000000
-11.344400 0.000000
-11.327600 0.000000
-11.310800 0.000000
-11.294000 0.000000
-11.277200 0.000000
-11.260400 0.000000
-11.243600 0.000000
-11.226700 0.000000
-11.209900 0.000000
-11.193100 0.000000
-11.176300 0.000000
-11.159500 0.000000
-11.142700 0.000000
-11.125900 0.000000
-11.109100 0.000000
-11.092300 0.000000
-11.075500 0.000000
-11.058700 0.000000
-11.041900 0.000000
-11.025100 0.000000
-11.008200 0.000000
-10.991400 0.000000
-10.974600 0.000000
-10.957800 0.000000
-10.941000 0.000000
-10.924200 0.000000
-10.907400 0.000000
-10.890600 0.000000
-10.873800 0.000000
-10.857000 0.000000
-10.840200 0.000000
-10.823400 0.000000
-10.806500 0.000000
-10.789700 0.000000
-10.772900 0.000000
-10.756100 0.000000
-10.739300 0.000000
-10.722500 0.000000
-10.705700 0.000000
-10.688900 0.000000
-10.672100 0.000000
-10.655300 0.000000
-10.638500 0.000000
-10.621700 0.000000
-10.604900 0.000000
-10.588000 0.000000
-10.571200 0.000000
-10.554400 0.000000
-10.537600 0.000000
-10.520800 0.000000
-10.504000 0.000000
-10.487200 0.000000
-10.470400 77.633100
-10.453600 60.054800
-10.436800 35.117300
-10.420000 64.006500
-10.403200 0.000000
-10.386300 0.000000
-10.369500 71.351300
-10.352700 58.494100
-10.335900 99.864600
-10.319100 49.306000
-10.302300 138.357900
-10.285500 184.562800
-10.268700 205.603100
-10.251900 195.876700
-10.235100 130.632000
-10.218300 215.369300
-10.201500 75.870400
-10.184600 234.272600
-10.167800 139.846700
-10.151000 121.872800
-10.134200 129.337200
-10.117400 216.725900
-10.100600 126.051100
-10.083800 103.005400
-10.067000 7.549200
-10.050200 109.906300
-10.033400 276.407500
-10.016600 150.213100
-9.999800 90.882700
-9.983000 111.435500
-9.966100 86.956200
-9.949300 106.765100
-9.932500 91.754500
-9.915700 124.566500
-9.898900 288.140300
-9.882100 195.499900
-9.865300 198.927700
-9.848500 128.663800
-9.831700 69.453000
-9.814900 131.517500
-9.798100 48.044500
-9.781300 198.420500
-9.764400 105.716300
-9.747600 26.701000
-9.730800 27.733100
-9.714000 56.828700
-9.697200 146.223000
-9.680400 0.000000
-9.663600 0.000000
-9.646800 0.000000
-9.630000 0.000000
-9.613200 0.000000
-9.596400 0.000000
-9.579600 0.000000
-9.562800 0.000000
-9.545900 0.000000
-9.529100 0.000000
-9.512300 0.000000
-9.495500 0.000000
-9.478700 0.000000
-9.461900 0.000000
-9.445100 0.000000
-9.428300 0.000000
-9.411500 0.000000
-9.394700 0.000000
-9.377900 0.000000
-9.361100 0.000000
-9.344200 0.000000
-9.327400 0.000000
-9.310600 0.000000
-9.293800 0.000000
-9.277000 0.000000
-9.260200 0.000000
-9.243400 0.000000
-9.226600 0.000000
-9.209800 0.000000
-9.193000 0.000000
-9.176200 0.000000
-9.159400 0.000000
-9.142600 0.000000
-9.125700 0.000000
-9.108900 0.000000
-9.092100 0.000000
-9.075300 0.000000
-9.058500 0.000000
-9.041700 0.000000
-9.024900 0.000000
-9.008100 0.000000
-8.991300 0.000000
-8.974500 0.000000
-8.957700 0.000000
-8.940900 0.000000
-8.924000 0.000000
-8.907200 0.000000
-8.890400 0.000000
-8.873600 0.000000
-8.856800 0.000000
-8.840000 0.000000
-8.823200 0.000000
-8.806400 0.000000
-8.789600 0.000000
-8.772800 0.000000
-8.756000 0.000000
-8.739200 0.000000
-8.722400 0.000000
-8.705500 0.000000
-8.688700 0.000000
-8.671900 0.000000
-8.655100 0.000000
-8.638300 0.000000
-8.621500 0.000000
-8.604700 0.000000
-8.587900 0.000000
-8.571100 0.000000
-8.554300 0.000000
-8.537500 0.000000
-8.520700 0.000000
-8.503800 0.000000
-8.487000 0.000000
-8.470200 0.000000
-8.453400 0.000000
-8.436600 0.000000
-8.419800 0.000000
-8.403000 0.000000
-8.386200 0.000000
-8.369400 0.000000
-8.352600 0.000000
-8.335800 0.000000
-8.319000 0.000000
-8.302200 0.000000
-8.285300 0.000000
-8.268500 0.000000
-8.251700 0.000000
-8.234900 0.000000
-8.218100 0.000000
-8.201300 0.000000
-8.184500 0.000000
-8.167700 0.000000
-8.150900 0.000000
-8.134100 0.000000
-8.117300 0.000000
-8.100500 0.000000
-8.083600 0.000000
-8.066800 0.000000
-8.050000 0.000000
-8.033200 0.000000
-8.016400 0.000000
-7.999600 0.000000
-7.982800 0.000000
-7.966000 0.000000
-7.949200 0.000000
-7.932400 0.000000
-7.915600 0.000000
-7.898800 0.000000
-7.882000 0.000000
-7.865100 0.000000
-7.848300 0.000000
-7.831500 0.000000
-7.814700 0.000000
-7.797900 0.000000
-7.781100 0.000000
-7.764300 0.000000
-7.747500 0.000000
-7.730700 0.000000
-7.713900 0.000000
-7.697100 0.000000
-7.680300 0.000000
-7.663400 0.000000
-7.646600 0.000000
-7.629800 0.000000
-7.613000 0.000000
-7.596200 0.000000
-7.579400 0.000000
-7.562600 0.000000
-7.545800 0.000000
-7.529000 0.000000
-7.512200 0.000000
-7.495400 0.000000
-7.478600 0.000000
-7.461800 0.000000
-7.444900 0.000000
-7.428100 0.000000
-7.411300 0.000000
-7.394500 0.000000
-7.377700 0.000000
-7.360900 0.000000
-7.344100 0.000000
-7.327300 0.000000
-7.310500 0.000000
-7.293700 0.000000
-7.276900 0.000000
-7.260100 0.000000
-7.243200 0.000000
-7.226400 0.000000
-7.209600 0.000000
-7.192800 0.000000
-7.176000 0.000000
-7.159200 0.000000
-7.142400 0.000000
-7.125600 0.000000
-7.108800 0.000000
-7.092000 0.000000
-7.075200 0.000000
-7.058400 0.000000
-7.041500 0.000000
-7.024700 0.000000
-7.007900 0.000000
-6.991100 0.000000
-6.974300 0.000000
-6.957500 0.000000
-6.940700 0.000000
-6.923900 0.000000
-6.907100 0.000000
-6.890300 0.000000
-6.873500 0.000000
-6.856700 0.000000
-6.839900 0.000000
-6.823000 0.000000
-6.806200 0.000000
-6.789400 0.000000
-6.772600 0.000000
-6.755800 0.000000
-6.739000 0.000000
-6.722200 0.000000
-6.705400 0.000000
-6.688600 0.000000
-6.671800 0.000000
-6.655000 0.000000
-6.638200 0.000000
-6.621300 0.000000
-6.604500 0.000000
-6.587700 0.000000
-6.570900 0.000000
-6.554100 0.000000
-6.537300 0.000000
-6.520500 0.000000
-6.503700 0.000000
-6.486900 0.000000
-6.470100 0.000000
-6.453300 0.000000
-6.436500 0.000000
-6.419700 0.000000
-6.402800 0.000000
-6.386000 0.000000
-6.369200 0.000000
-6.352400 0.000000
-6.335600 0.000000
-6.318800 0.000000
-6.302000 0.000000
-6.285200 0.000000
-6.268400 0.000000
-6.251600 0.000000
-6.234800 0.000000
-6.218000 0.000000
-6.201100 0.000000
-6.184300 0.000000
-6.167500 0.000000
-6.150700 0.000000
-6.133900 0.000000
-6.117100 0.000000
-6.100300 0.000000
-6.083500 0.000000
-6.066700 0.000000
-6.049900 0.000000
-6.033100 0.000000
-6.016300 0.000000
-5.999500 0.000000
-5.982600 0.000000
-5.965800 0.000000
-5.949000 0.000000
-5.932200 0.000000
-5.915400 0.000000
-5.898600 0.000000
-5.881800 0.000000
-5.865000 0.000000
-5.848200 0.000000
-5.831400 0.000000
-5.814600 0.000000
-5.797800 0.000000
-5.780900 0.000000
-5.764100 0.026100
-5.747300 52.550800
-5.730500 19.252200
-5.713700 65.795100
-5.696900 109.819700
-5.680100 0.282000
-5.663300 17.408100
-5.646500 32.077200
-5.629700 24.565400
-5.612900 17.570600
-5.596100 16.204400
-5.579300 3.310300
-5.562400 0.252900
-5.545600 0.000000
-5.528800 1.916700
-5.512000 54.490700
-5.495200 31.207400
-5.478400 22.293100
-5.461600 14.724600
-5.444800 10.040600
-5.428000 0.475700
-5.411200 39.569500
-5.394400 49.567000
-5.377600 110.431100
-5.360700 15.720100
-5.343900 15.984300
-5.327100 22.948000
-5.310300 21.199600
-5.293500 21.965800
-5.276700 18.164000
-5.259900 0.624200
-5.243100 0.776300
-5.226300 117.263500
-5.209500 124.004000
-5.192700 48.728600
-5.175900 0.000000
-5.159100 0.000000
-5.142200 0.000000
-5.125400 0.000000
-5.108600 0.000000
-5.091800 0.000000
-5.075000 0.000000
-5.058200 0.000000
-5.041400 0.000000
-5.024600 0.000000
-5.007800 0.000000
-4.991000 0.000000
-4.974200 0.000000
-4.957400 0.000000
-4.940500 0.000000
-4.923700 0.000000
-4.906900 0.000000
-4.890100 0.000000
-4.873300 0.000000
-4.856500 0.000000
-4.839700 0.000000
-4.822900 0.000000
-4.806100 0.000000
-4.789300 0.000000
-4.772500 0.000000
-4.755700 0.000000
-4.738900 0.000000
-4.722000 0.000000
-4.705200 0.000000
-4.688400 0.000000
-4.671600 0.000000
-4.654800 0.000000
-4.638000 0.000000
-4.621200 0.000000
-4.604400 0.000000
-4.587600 0.000000
-4.570800 0.000000
-4.554000 0.000000
-4.537200 0.000000
-4.520300 0.000000
-4.503500 0.000000
-4.486700 0.000000
-4.469900 0.000000
-4.453100 0.000000
-4.436300 0.000000
-4.419500 0.000000
-4.402700 0.000000
-4.385900 0.000000
-4.369100 0.000000
-4.352300 0.000000
-4.335500 0.000000
-4.318700 0.000000
-4.301800 0.000000
-4.285000 0.000000
-4.268200 0.000000
-4.251400 0.000000
-4.234600 0.000000
-4.217800 0.000000
-4.201000 0.000000
-4.184200 0.000000
-4.167400 0.000000
-4.150600 0.000000
-4.133800 0.000000
-4.117000 0.000000
-4.100100 0.000000
-4.083300 0.000000
-4.066500 0.000000
-4.049700 0.000000
-4.032900 0.000000
-4.016100 0.000000
-3.999300 0.000000
-3.982500 0.000000
-3.965700 0.000000
-3.948900 0.000000
-3.932100 0.000000
-3.915300 0.000000
-3.898400 0.000000
-3.881600 0.000000
-3.864800 0.013500
-3.848000 0.203500
-3.831200 0.632800
-3.814400 0.851700
-3.797600 0.972900
-3.780800 1.160300
-3.764000 1.376900
-3.747200 1.605500
-3.730400 1.816800
-3.713600 2.045600
-3.696800 2.320000
-3.679900 2.615300
-3.663100 2.963200
-3.646300 3.778000
-3.629500 3.765700
-3.612700 3.982900
-3.595900 4.321700
-3.579100 4.604600
-3.562300 4.892000
-3.545500 5.300200
-3.528700 5.868100
-3.511900 7.019400
-3.495100 10.378500
-3.478200 8.647000
-3.461400 6.363400
-3.444600 5.812200
-3.427800 4.832700
-3.411000 4.389000
-3.394200 4.030900
-3.377400 3.935400
-3.360600 3.531000
-3.343800 2.803400
-3.327000 1.575300
-3.310200 0.000000
-3.293400 0.000000
-3.276600 0.000000
-3.259700 0.000000
-3.242900 0.000000
-3.226100 0.000000
-3.209300 0.000000
-3.192500 0.000000
-3.175700 0.000000
-3.158900 0.000000
-3.142100 0.000000
-3.125300 0.000000
-3.108500 0.000000
-3.091700 0.000000
-3.074900 0.000000
-3.058000 0.000000
-3.041200 0.000000
-3.024400 0.000000
-3.007600 0.000000
-2.990800 0.000000
-2.974000 0.000000
-2.957200 0.000000
-2.940400 0.000000
-2.923600 0.000000
-2.906800 0.000000
-2.890000 0.000000
-2.873200 0.000000
-2.856400 0.000000
-2.839500 0.000000
-2.822700 0.000000
-2.805900 0.000000
-2.789100 0.000000
-2.772300 0.000000
-2.755500 0.000000
-2.738700 0.000000
-2.721900 0.000000
-2.705100 0.029600
-2.688300 0.132300
-2.671500 0.377000
-2.654700 0.550900
-2.637800 0.654800
-2.621000 0.750100
-2.604200 0.842500
-2.587400 0.944800
-2.570600 1.074700
-2.553800 1.205500
-2.537000 1.305600
-2.520200 1.410300
-2.503400 1.520800
-2.486600 1.643200
-2.469800 1.788300
-2.453000 1.951100
-2.436200 2.121300
-2.419300 2.311900
-2.402500 2.533700
-2.385700 2.806700
-2.368900 3.093800
-2.352100 3.381200
-2.335300 3.736300
-2.318500 4.382300
-2.301700 4.904100
-2.284900 5.145900
-2.268100 5.405500
-2.251300 5.326300
-2.234500 5.260100
-2.217600 5.334500
-2.200800 5.360700
-2.184000 6.002100
-2.167200 6.840200
-2.150400 4.661300
-2.133600 3.389100
-2.116800 2.514300
-2.100000 2.292100
-2.083200 2.095000
-2.066400 1.925900
-2.049600 1.794300
-2.032800 1.705800
-2.016000 1.658500
-1.999100 1.576800
-1.982300 1.346700
-1.965500 1.217700
-1.948700 1.070700
-1.931900 0.787400
-1.915100 0.507600
-1.898300 0.285000
-1.881500 0.131900
-1.864700 0.046400
-1.847900 0.016500
-1.831100 0.005800
-1.814300 0.000600
-1.797400 0.933300
-1.780600 2.866400
-1.763800 5.327000
-1.747000 15.365800
-1.730200 13.131100
-1.713400 7.742400
-1.696600 6.739200
-1.679800 5.895700
-1.663000 5.222000
-1.646200 5.868400
-1.629400 5.709300
-1.612600 4.417100
-1.595800 4.314500
-1.578900 4.382000
-1.562100 4.397000
-1.545300 4.313000
-1.528500 3.939600
-1.511700 3.603600
-1.494900 3.360200
-1.478100 3.213600
-1.461300 3.125000
-1.444500 3.093500
-1.427700 3.068400
-1.410900 3.090500
-1.394100 3.123800
-1.377200 3.165000
-1.360400 2.869500
-1.343600 3.035300
-1.326800 3.135400
-1.310000 3.213400
-1.293200 3.266600
-1.276400 3.327700
-1.259600 3.722200
-1.242800 3.895700
-1.226000 4.035600
-1.209200 4.576600
-1.192400 5.506300
-1.175600 6.939200
-1.158700 6.405900
-1.141900 6.423100
-1.125100 6.369900
-1.108300 5.970300
-1.091500 5.710400
-1.074700 5.491000
-1.057900 5.330600
-1.041100 5.099800
-1.024300 4.906000
-1.007500 4.635000
-0.990700 4.293800
-0.973900 4.125200
-0.957000 3.981000
-0.940200 3.885200
-0.923400 3.845300
-0.906600 3.816400
-0.889800 3.800000
-0.873000 3.823600
-0.856200 3.866700
-0.839400 3.934700
-0.822600 3.807100
-0.805800 3.770400
-0.789000 3.739000
-0.772200 3.936400
-0.755400 3.921600
-0.738500 3.822000
-0.721700 3.734000
-0.704900 3.708600
-0.688100 3.711500
-0.671300 3.728000
-0.654500 3.749000
-0.637700 3.774400
-0.620900 3.808100
-0.604100 3.853700
-0.587300 3.906600
-0.570500 3.966200
-0.553700 4.032800
-0.536800 4.159700
-0.520000 2.607100
-0.503200 1.225200
-0.486400 1.092700
-0.469600 0.971600
-0.452800 0.862300
-0.436000 0.765200
-0.419200 0.683100
-0.402400 0.616600
-0.385600 0.565100
-0.368800 0.504100
-0.352000 0.409400
-0.335100 0.320600
-0.318300 0.250500
-0.301500 0.202600
-0.284700 0.167700
-0.267900 0.145800
-0.251100 0.137000
-0.234300 0.140900
-0.217500 0.156900
-0.200700 0.179500
-0.183900 0.207000
-0.167100 0.239500
-0.150300 0.277100
-0.133500 0.319500
-0.116600 0.365500
-0.099800 0.409100
-0.083000 0.501100
-0.066200 0.862500
-0.049400 1.377700
-0.032600 2.106000
-0.015800 2.763100
0.001000 3.050600
0.017800 3.311600
0.034600 3.291100
0.051400 3.239200
0.068200 3.182800
0.085100 3.121800
0.101900 3.054400
0.118700 3.009300
0.135500 3.022700
0.152300 3.105500
0.169100 3.169200
0.185900 3.228500
0.202700 3.288800
0.219500 3.321100
0.236300 3.344400
0.253100 3.393000
0.269900 3.497600
0.286700 3.498500
0.303600 3.546600
0.320400 3.742700
0.337200 4.079100
0.354000 4.366700
0.370800 4.898700
0.387600 5.184200
0.404400 5.417200
0.421200 5.849200
0.438000 6.552900
0.454800 6.438300
0.471600 4.237700
0.488400 2.245300
0.505300 1.111200
0.522100 1.036700
0.538900 2.463000
0.555700 2.727200
0.572500 3.080000
0.589300 3.495300
0.606100 3.406000
0.622900 3.332900
0.639700 3.464200
0.656500 3.640600
0.673300 3.848600
0.690100 4.164200
0.706900 4.939600
0.723800 5.580800
0.740600 6.521600
0.757400 7.837600
0.774200 9.047200
0.791000 9.565300
0.807800 9.776700
0.824600 9.077200
0.841400 9.147300
0.858200 3.856300
0.875000 1.803700
0.891800 0.768700
0.908600 0.237200
0.925500 0.000000
0.942300 0.000000
0.959100 0.000000
0.975900 0.032400
0.992700 0.297900
1.009500 0.860300
1.026300 3.778600
1.043100 7.580700
1.059900 9.180300
1.076700 9.040400
1.093500 8.304600
1.110300 7.719800
1.127100 7.837300
1.144000 6.777900
1.160800 5.487100
1.177600 4.567600
1.194400 4.006500
1.211200 3.602800
1.228000 3.274900
1.244800 2.975500
1.261600 2.699200
1.278400 2.415000
1.295200 2.208200
1.312000 1.854500
1.328800 1.834100
1.345700 1.820700
1.362500 1.806000
1.379300 1.739800
1.396100 1.709100
1.412900 1.696400
1.429700 1.696300
1.446500 1.697100
1.463300 1.699200
1.480100 1.722300
1.496900 1.733300
1.513700 1.742800
1.530500 1.754100
1.547300 1.766200
1.564200 1.776000
1.581000 1.783600
1.597800 1.800500
1.614600 1.818000
1.631400 1.837300
1.648200 1.858600
1.665000 1.882500
1.681800 1.940200
1.698600 2.022300
1.715400 2.099700
1.732200 2.170800
1.749000 2.255900
1.765900 2.378500
1.782700 2.504600
1.799500 2.623100
1.816300 2.733900
1.833100 2.837400
1.849900 2.918300
1.866700 2.977600
1.883500 3.010800
1.900300 3.009500
1.917100 3.046600
1.933900 2.860300
1.950700 2.786300
1.967500 2.695200
1.984400 2.620300
2.001200 2.552800
2.018000 2.503900
2.034800 2.557200
2.051600 2.434000
2.068400 2.378700
2.085200 2.406900
2.102000 2.403000
2.118800 2.386600
2.135600 2.400400
2.152400 2.530700
2.169200 2.150300
2.186100 1.922100
2.202900 1.936000
2.219700 1.951600
2.236500 1.968900
2.253300 1.993300
2.270100 2.127800
2.286900 2.250200
2.303700 2.232100
2.320500 2.218300
2.337300 2.212400
2.354100 2.227500
2.370900 2.343800
2.387700 3.818500
2.404600 4.081800
2.421400 3.927900
2.438200 3.271700
2.455000 2.109300
2.471800 1.296000
2.488600 0.976600
2.505400 1.049400
2.522200 1.220000
2.539000 1.509700
2.555800 1.955800
2.572600 3.236900
2.589400 4.441500
2.606300 4.917000
2.623100 4.991000
2.639900 4.939300
2.656700 4.915400
2.673500 4.934900
2.690300 5.088500
2.707100 5.087900
2.723900 5.105400
2.740700 4.364600
2.757500 4.018900
2.774300 3.875100
2.791100 3.767000
2.808000 3.641000
2.824800 3.519200
2.841600 3.511100
2.858400 3.553700
2.875200 3.661800
2.892000 3.985900
2.908800 4.104700
2.925600 3.465000
2.942400 2.823900
2.959200 2.806200
2.976000 3.821200
2.992800 3.609900
3.009600 4.028100
3.026500 4.923000
3.043300 6.431000
3.060100 7.936400
3.076900 9.120200
3.093700 9.649500
3.110500 9.895000
3.127300 10.410900
3.144100 12.056900
3.160900 11.442700
3.177700 8.967100
3.194500 6.870400
3.211300 5.824800
3.228200 5.159700
3.245000 4.140300
3.261800 5.573100
3.278600 9.592600
3.295400 14.515600
3.312200 12.494200
3.329000 11.272600
3.345800 10.597500
3.362600 10.458100
3.379400 10.718100
3.396200 10.697600
3.413000 11.238700
3.429800 9.858700
3.446700 7.607400
3.463500 5.613000
3.480300 5.804500
3.497100 6.957100
3.513900 9.075000
3.530700 8.395500
3.547500 9.882200
3.564300 12.036600
3.581100 15.309700
3.597900 15.937700
3.614700 12.829900
3.631500 10.682000
3.648400 8.855200
3.665200 10.424500
3.682000 10.030100
3.698800 10.095200
3.715600 9.883800
3.732400 10.191900
3.749200 9.842100
3.766000 8.811800
3.782800 8.023800
3.799600 7.089800
3.816400 5.949600
3.833200 5.214300
3.850000 4.355500
3.866900 3.628800
3.883700 3.402800
3.900500 3.385400
3.917300 3.492800
3.934100 3.698900
3.950900 4.697800
3.967700 5.598000
3.984500 5.741900
4.001300 4.513800
4.018100 2.842300
4.034900 2.227200
4.051700 2.027600
4.068600 1.854700
4.085400 1.737600
4.102200 1.785700
4.119000 2.160800
4.135800 2.630700
4.152600 3.090400
4.169400 3.744200
4.186200 4.661500
4.203000 6.013000
4.219800 6.803100
4.236600 7.427400
4.253400 9.217500
4.270200 10.575000
4.287100 6.680300
4.303900 3.983000
4.320700 2.488000
4.337500 1.775100
4.354300 1.304800
4.371100 0.892300
4.387900 0.537000
4.404700 0.000000
4.421500 0.000000
4.438300 0.000000
4.455100 0.000000
4.471900 0.000000
4.488800 0.000000
4.505600 0.000000
4.522400 0.000000
4.539200 0.000000
4.556000 0.008200
4.572800 0.035300
4.589600 0.081400
4.606400 0.146600
4.623200 0.230700
4.640000 0.336800
4.656800 0.503600
4.673600 1.540900
4.690400 2.283400
4.707300 2.988500
4.724100 3.478100
4.740900 3.637600
4.757700 3.601800
4.774500 3.678900
4.791300 3.983900
4.808100 4.781900
4.824900 5.677800
4.841700 6.644900
4.858500 7.398100
4.875300 7.728600
4.892100 7.863200
4.909000 8.138900
4.925800 8.325900
4.942600 8.021600
4.959400 8.016100
4.976200 7.970500
4.993000 8.517300
5.009800 8.172300
5.026600 7.314800
5.043400 5.872500
5.060200 4.760000
5.077000 4.385700
5.093800 4.550100
5.110600 4.888700
5.127500 5.562100
5.144300 6.790600
5.161100 9.347300
5.177900 11.257800
5.194700 11.865300
5.211500 9.835600
5.228300 8.505800
5.245100 6.581500
5.261900 5.587600
5.278700 5.712300
5.295500 7.880800
5.312300 10.668600
5.329200 11.456500
5.346000 10.912600
5.362800 9.815800
5.379600 9.552600
5.396400 8.214900
5.413200 6.846400
5.430000 6.177500
5.446800 6.549100
5.463600 7.488100
5.480400 7.405500
5.497200 6.139700
5.514000 5.534700
5.530800 4.464700
5.547700 3.305700
5.564500 2.788000
5.581300 2.757000
5.598100 2.951000
5.614900 3.389100
5.631700 3.879500
5.648500 5.263400
5.665300 6.900300
5.682100 8.365700
5.698900 9.414200
5.715700 9.896200
5.732500 10.090000
5.749400 9.672600
5.766200 10.085600
5.783000 8.640200
5.799800 7.844600
5.816600 7.558400
5.833400 7.162500
5.850200 7.137000
5.867000 7.703700
5.883800 8.522500
5.900600 8.831600
5.917400 9.425400
5.934200 9.494100
5.951100 9.538400
5.967900 9.424500
5.984700 7.767600
6.001500 6.980600
6.018300 6.573000
6.035100 7.582000
6.051900 8.330700
6.068700 9.542800
6.085500 9.852600
6.102300 10.959800
6.119100 10.690700
6.135900 10.544200
6.152700 10.320300
6.169600 9.608100
6.186400 8.533300
6.203200 7.962000
6.220000 7.284700
6.236800 6.609400
6.253600 6.250500
6.270400 6.202600
6.287200 6.457900
6.304000 8.303200
6.320800 10.216900
6.337600 10.722300
6.354400 9.596100
6.371300 7.771700
6.388100 7.006700
6.404900 6.726800
6.421700 7.038500
6.438500 7.532500
6.455300 7.099200
6.472100 7.133500
6.488900 7.654100
6.505700 9.405800
6.522500 9.968800
6.539300 9.804600
6.556100 8.665500
6.572900 7.088100
6.589800 6.264100
6.606600 6.253100
6.623400 6.684700
6.640200 7.495100
6.657000 7.822900
6.673800 7.964600
6.690600 8.199000
6.707400 8.415700
6.724200 8.589500
6.741000 8.916400
6.757800 9.491800
6.774600 10.138500
6.791500 10.684700
6.808300 10.602100
6.825100 10.245600
6.841900 8.869200
6.858700 8.967300
6.875500 8.870700
6.892300 9.346900
6.909100 9.267200
6.925900 8.780100
6.942700 8.426900
6.959500 8.235800
6.976300 7.749700
6.993100 7.077200
7.010000 7.286500
7.026800 7.681000
7.043600 7.584100
7.060400 8.709600
7.077200 10.550300
7.094000 12.174500
7.110800 12.011600
7.127600 12.041300
7.144400 11.796200
7.161200 10.971100
7.178000 9.019300
7.194800 9.124700
7.211700 10.220700
7.228500 10.017300
7.245300 11.939400
7.262100 12.598000
7.278900 12.889400
7.295700 12.413000
7.312500 13.156200
7.329300 14.620900
7.346100 12.945900
7.362900 11.023000
7.379700 11.553900
7.396500 11.673100
7.413300 13.044500
7.430200 14.311700
7.447000 16.963000
7.463800 18.836700
7.480600 17.374500
7.497400 13.310900
7.514200 9.795700
7.531000 8.055300
7.547800 7.167700
7.564600 8.045700
7.581400 11.057400
7.598200 13.317300
7.615000 14.006300
7.631900 13.847700
7.648700 14.759500
7.665500 14.373300
7.682300 10.867300
7.699100 11.001700
7.715900 9.822800
7.732700 9.666200
7.749500 9.856900
7.766300 9.746600
7.783100 10.096100
7.799900 11.951200
7.816700 13.653900
7.833500 13.358000
7.850400 12.197300
7.867200 11.733900
7.884000 12.128600
7.900800 11.371400
7.917600 10.747900
7.934400 11.334900
7.951200 10.964000
7.968000 11.361600
7.984800 12.768900
8.001600 13.982400
8.018400 13.327400
8.035200 10.402500
8.052100 9.157100
8.068900 7.964700
8.085700 7.553900
8.102500 7.354400
8.119300 8.325000
8.136100 10.125200
8.152900 12.858800
8.169700 12.314900
8.186500 9.664500
8.203300 8.824400
8.220100 8.156500
8.236900 7.799300
8.253700 8.062900
8.270600 8.443500
8.287400 9.507100
8.304200 10.659700
8.321000 11.637900
8.337800 11.976600
8.354600 12.462500
8.371400 13.533100
8.388200 12.959200
8.405000 12.481100
8.421800 12.134100
8.438600 10.563100
8.455400 10.076200
8.472300 9.907300
8.489100 10.689100
8.505900 9.953900
8.522700 9.472900
8.539500 10.087600
8.556300 11.168900
8.573100 12.206100
8.589900 12.035700
8.606700 12.640600
8.623500 11.905500
8.640300 11.773100
8.657100 11.548900
8.673900 10.008600
8.690800 9.715900
8.707600 10.028200
8.724400 10.887000
8.741200 11.137800
8.758000 13.841100
8.774800 16.306600
8.791600 14.966200
8.808400 13.519700
8.825200 12.586700
8.842000 11.196900
8.858800 8.872600
8.875600 7.507200
8.892500 8.526500
8.909300 11.439700
8.926100 12.857400
8.942900 14.310000
8.959700 14.680800
8.976500 13.988100
8.993300 12.622600
9.010100 11.056700
9.026900 8.284400
9.043700 7.471100
9.060500 8.012500
9.077300 10.223300
9.094200 13.744900
9.111000 16.625800
9.127800 18.883300
9.144600 15.965500
9.161400 13.638000
9.178200 12.811700
9.195000 12.100800
9.211800 13.244300
9.228600 14.445800
9.245400 15.033300
9.262200 14.861600
9.279000 14.267400
9.295800 13.197700
9.312700 11.505300
9.329500 10.547800
9.346300 8.772100
9.363100 7.731800
9.379900 8.465700
9.396700 9.742000
9.413500 11.868200
9.430300 15.028600
9.447100 16.916300
9.463900 17.328900
9.480700 16.474100
9.497500 14.582200
9.514400 12.800300
9.531200 11.267800
9.548000 10.271700
9.564800 10.519400
9.581600 10.958400
9.598400 11.068500
9.615200 10.906600
9.632000 11.220200
9.648800 11.085600
9.665600 11.572300
9.682400 11.825800
9.699200 11.120200
9.716000 9.758800
9.732900 8.915100
9.749700 8.905100
9.766500 9.270000
9.783300 9.643100
9.800100 10.252800
9.816900 11.550200
9.833700 13.172700
9.850500 16.378300
9.867300 14.946000
9.884100 13.303600
9.900900 12.125500
9.917700 11.418400
9.934600 10.997400
9.951400 10.425300
9.968200 10.738700
9.985000 12.958200
10.001800 14.030600
10.018600 14.137200
10.035400 13.512600
10.052200 13.428800
10.069000 12.456300
10.085800 11.422500
10.102600 10.648800
10.119400 10.425600
10.136200 10.798300
10.153100 10.929600
10.169900 11.102400
10.186700 11.655500
10.203500 12.930600
10.220300 14.563200
10.237100 14.548600
10.253900 13.140600
10.270700 13.302600
10.287500 14.468000
10.304300 16.073000
10.321100 16.319600
10.337900 15.138800
10.354800 13.487400
10.371600 12.240000
10.388400 11.934300
10.405200 11.903000
10.422000 11.651900
10.438800 11.765900
10.455600 11.528400
10.472400 11.614300
10.489200 11.938300
10.506000 11.773900
10.522800 11.359700
10.539600 10.789800
10.556400 11.045900
10.573300 10.676300
10.590100 10.112800
10.606900 9.608100
10.623700 9.426000
10.640500 8.971300
10.657300 8.810100
10.674100 9.382300
10.690900 10.062500
10.707700 11.276400
10.724500 12.486700
10.741300 13.207700
10.758100 13.059600
10.775000 12.269900
10.791800 11.473800
10.808600 10.339300
10.825400 9.269400
10.842200 8.434700
10.859000 7.376100
10.875800 6.548700
10.892600 6.264700
10.909400 7.280400
10.926200 10.467500
10.943000 14.902500
10.959800 18.893100
10.976600 15.938500
10.993500 13.609900
11.010300 11.715200
11.027100 10.585100
11.043900 9.772300
11.060700 8.877300
11.077500 8.677300
11.094300 8.487400
11.111100 8.813900
11.127900 9.676600
11.144700 14.646700
11.161500 19.082500
11.178300 14.672600
11.195200 11.716100
11.212000 12.050700
11.228800 11.655100
11.245600 13.429000
11.262400 12.953700
11.279200 14.804200
11.296000 14.581900
11.312800 12.054200
11.329600 12.034400
11.346400 10.373600
11.363200 10.401400
11.380000 10.768900
11.396800 11.946500
11.413700 11.422200
11.430500 10.621900
11.447300 9.519900
11.464100 7.670700
11.480900 7.191800
11.497700 6.363800
11.514500 5.964800
11.531300 6.761600
11.548100 7.907800
11.564900 9.707800
11.581700 10.630400
11.598500 11.193300
11.615400 11.018900
11.632200 10.327200
11.649000 8.687800
11.665800 6.661800
11.682600 5.298000
11.699400 4.086800
11.716200 3.113300
11.733000 2.722500
11.749800 2.244200
11.766600 1.355900
11.783400 1.022000
11.800200 0.772500
11.817000 0.559300
11.833900 0.382400
11.850700 0.241700
11.867500 0.137300
11.884300 0.069500
11.901100 0.031600
11.917900 0.008600
11.934700 0.000100
11.951500 0.000000
11.968300 0.000000
11.985100 0.000000
12.001900 0.000000
12.018700 0.000000
12.035600 0.000000
12.052400 0.000000
12.069200 0.000000
12.086000 0.000000
12.102800 0.000000
12.119600 0.000000
12.136400 0.000000
12.153200 0.000000
12.170000 0.000000
12.186800 0.000000
12.203600 0.000000
12.220400 0.000000
12.237300 0.000000
12.254100 0.000000
12.270900 0.000000
12.287700 0.000000
12.304500 0.000000
12.321300 0.000000
12.338100 0.000000
12.354900 0.000000
12.371700 0.000000
12.388500 0.000000
12.405300 0.000000
12.422100 0.000000
12.438900 0.000000
12.455800 0.000000
12.472600 0.000000
12.489400 0.000000
12.506200 0.000000
12.523000 0.000000
12.539800 0.000000
12.556600 0.000000
12.573400 0.000000
12.590200 0.000000
12.607000 0.000000
12.623800 0.000000
12.640600 0.000000
12.657500 0.000000
12.674300 0.000000
12.691100 0.000000
12.707900 0.000000
12.724700 0.000000
12.741500 0.000000
12.758300 0.000000
12.775100 0.000000
12.791900 0.000000
12.808700 0.000000
12.825500 0.000000
12.842300 0.000000
12.859100 0.000000
12.876000 0.000000
12.892800 0.000000
12.909600 0.000000
12.926400 0.000000
12.943200 0.000000
12.960000 0.000000
12.976800 0.000000
12.993600 0.000000
13.010400 0.000000
13.027200 0.000000
13.044000 0.000000
13.060800 0.000000
13.077700 0.000000
13.094500 0.000000
13.111300 0.000000
13.128100 0.000000
13.144900 0.000000
13.161700 0.000000
13.178500 0.000000
13.195300 0.000000
13.212100 0.000000
13.228900 0.000000
13.245700 0.000000
13.262500 0.000000
13.279300 0.000000
13.296200 0.000000
13.313000 0.000000
13.329800 0.000000
13.346600 0.000000
13.363400 0.000000
13.380200 0.000000
13.397000 0.000000
13.413800 0.000000
13.430600 0.000000
13.447400 0.000000
13.464200 0.000000
e
