set title 'mp-1178763 - Density of States'
set xlabel 'Energy (eV)'
set ylabel 'DOS (states/eV)'
set grid
set xrange [-10:10]
set yrange [0:12.016]
set xzeroaxis lt -1
set terminal png size 800,600
set output 'mp-1178763_dos_gnuplot.png'
plot '-' using 1:2 with lines title 'DOS'
-42.101900 0.000000
-42.065000 0.000000
-42.028100 0.000000
-41.991300 0.000000
-41.954400 0.000000
-41.917500 0.000000
-41.880700 0.000000
-41.843800 0.000000
-41.807000 0.000000
-41.770100 0.000000
-41.733200 0.000000
-41.696400 0.000000
-41.659500 0.000000
-41.622600 0.000000
-41.585800 0.000000
-41.548900 0.000000
-41.512100 0.000000
-41.475200 0.000000
-41.438300 0.000000
-41.401500 0.000000
-41.364600 0.000000
-41.327700 0.000000
-41.290900 0.000000
-41.254000 0.000000
-41.217100 0.000000
-41.180300 0.000000
-41.143400 0.000000
-41.106600 0.000000
-41.069700 0.000000
-41.032800 0.000000
-40.996000 0.000000
-40.959100 0.000000
-40.922200 0.000000
-40.885400 0.000000
-40.848500 0.000000
-40.811700 0.000000
-40.774800 0.000000
-40.737900 0.000000
-40.701100 0.000000
-40.664200 0.000000
-40.627300 0.000000
-40.590500 0.000000
-40.553600 0.000000
-40.516800 0.000000
-40.479900 0.000000
-40.443000 0.000000
-40.406200 0.000000
-40.369300 0.000000
-40.332400 0.000000
-40.295600 0.000000
-40.258700 0.000000
-40.221900 0.000000
-40.185000 0.000000
-40.148100 0.000000
-40.111300 0.000000
-40.074400 0.000000
-40.037500 0.000000
-40.000700 0.000000
-39.963800 0.000000
-39.926900 0.000000
-39.890100 0.000000
-39.853200 0.000000
-39.816400 0.000000
-39.779500 0.000000
-39.742600 0.000000
-39.705800 0.000000
-39.668900 0.000000
-39.632000 0.000000
-39.595200 0.000000
-39.558300 0.000000
-39.521500 0.000000
-39.484600 0.000000
-39.447700 0.000000
-39.410900 0.000000
-39.374000 0.000000
-39.337100 0.000000
-39.300300 0.000000
-39.263400 0.000000
-39.226600 0.000000
-39.189700 0.000000
-39.152800 0.000000
-39.116000 0.000000
-39.079100 0.000000
-39.042200 0.000000
-39.005400 0.000000
-38.968500 0.000000
-38.931700 0.000000
-38.894800 0.000000
-38.857900 0.000000
-38.821100 0.000000
-38.784200 0.000000
-38.747300 14.021000
-38.710500 7.362900
-38.673600 11.468700
-38.636700 19.436100
-38.599900 0.000000
-38.563000 13.926600
-38.526200 0.000000
-38.489300 0.000000
-38.452400 0.000000
-38.415600 0.000000
-38.378700 0.000000
-38.341800 0.000000
-38.305000 0.000000
-38.268100 0.000000
-38.231300 0.000000
-38.194400 0.000000
-38.157500 0.000000
-38.120700 0.000000
-38.083800 0.000000
-38.046900 0.000000
-38.010100 0.000000
-37.973200 0.000000
-37.936400 0.000000
-37.899500 0.000000
-37.862600 0.000000
-37.825800 0.000000
-37.788900 0.000000
-37.752000 0.000000
-37.715200 0.000000
-37.678300 0.000000
-37.641500 0.000000
-37.604600 0.000000
-37.567700 0.000000
-37.530900 0.000000
-37.494000 0.000000
-37.457100 0.000000
-37.420300 0.000000
-37.383400 0.000000
-37.346500 0.000000
-37.309700 0.000000
-37.272800 0.000000
-37.236000 0.000000
-37.199100 0.000000
-37.162200 0.000000
-37.125400 0.000000
-37.088500 0.000000
-37.051600 0.000000
-37.014800 0.000000
-36.977900 0.000000
-36.941100 0.000000
-36.904200 0.000000
-36.867300 0.000000
-36.830500 0.000000
-36.793600 0.000000
-36.756700 0.000000
-36.719900 0.000000
-36.683000 0.000000
-36.646200 0.000000
-36.609300 0.000000
-36.572400 0.000000
-36.535600 0.000000
-36.498700 0.000000
-36.461800 0.000000
-36.425000 0.000000
-36.388100 0.000000
-36.351300 0.000000
-36.314400 0.000000
-36.277500 0.000000
-36.240700 0.000000
-36.203800 0.000000
-36.166900 0.000000
-36.130100 0.000000
-36.093200 0.000000
-36.056300 0.000000
-36.019500 0.000000
-35.982600 0.000000
-35.945800 0.000000
-35.908900 0.000000
-35.872000 0.000000
-35.835200 0.000000
-35.798300 0.000000
-35.761400 0.000000
-35.724600 0.000000
-35.687700 0.000000
-35.650900 0.000000
-35.614000 0.000000
-35.577100 0.000000
-35.540300 0.000000
-35.503400 0.000000
-35.466500 0.000000
-35.429700 0.000000
-35.392800 0.000000
-35.356000 0.000000
-35.319100 0.000000
-35.282200 0.000000
-35.245400 0.000000
-35.208500 0.000000
-35.171600 0.000000
-35.134800 0.000000
-35.097900 0.000000
-35.061000 0.000000
-35.024200 0.000000
-34.987300 0.000000
-34.950500 0.000000
-34.913600 0.000000
-34.876700 0.000000
-34.839900 0.000000
-34.803000 0.000000
-34.766100 0.000000
-34.729300 0.000000
-34.692400 0.000000
-34.655600 0.000000
-34.618700 0.000000
-34.581800 0.000000
-34.545000 0.000000
-34.508100 0.000000
-34.471200 0.000000
-34.434400 0.000000
-34.397500 0.000000
-34.360700 0.000000
-34.323800 0.000000
-34.286900 0.000000
-34.250100 0.000000
-34.213200 0.000000
-34.176300 0.000000
-34.139500 0.000000
-34.102600 0.000000
-34.065800 0.000000
-34.028900 0.000000
-33.992000 0.000000
-33.955200 0.000000
-33.918300 0.000000
-33.881400 0.000000
-33.844600 0.000000
-33.807700 0.000000
-33.770800 0.000000
-33.734000 0.000000
-33.697100 0.000000
-33.660300 0.000000
-33.623400 0.000000
-33.586500 0.000000
-33.549700 0.000000
-33.512800 0.000000
-33.475900 0.000000
-33.439100 0.000000
-33.402200 0.000000
-33.365400 0.000000
-33.328500 0.000000
-33.291600 0.000000
-33.254800 0.000000
-33.217900 0.000000
-33.181000 0.000000
-33.144200 0.000000
-33.107300 0.000000
-33.070500 0.000000
-33.033600 0.000000
-32.996700 0.000000
-32.959900 0.000000
-32.923000 0.000000
-32.886100 0.000000
-32.849300 0.000000
-32.812400 0.000000
-32.775600 0.000000
-32.738700 0.000000
-32.701800 0.000000
-32.665000 0.000000
-32.628100 0.000000
-32.591200 0.000000
-32.554400 0.000000
-32.517500 0.000000
-32.480600 0.000000
-32.443800 0.000000
-32.406900 0.000000
-32.370100 0.000000
-32.333200 0.000000
-32.296300 0.000000
-32.259500 0.000000
-32.222600 0.000000
-32.185700 0.000000
-32.148900 0.000000
-32.112000 0.000000
-32.075200 0.000000
-32.038300 0.000000
-32.001400 0.000000
-31.964600 0.000000
-31.927700 0.000000
-31.890800 0.000000
-31.854000 0.000000
-31.817100 0.000000
-31.780300 0.000000
-31.743400 0.000000
-31.706500 0.000000
-31.669700 0.000000
-31.632800 0.000000
-31.595900 0.000000
-31.559100 0.000000
-31.522200 0.000000
-31.485400 0.000000
-31.448500 0.000000
-31.411600 0.000000
-31.374800 0.000000
-31.337900 0.000000
-31.301000 0.000000
-31.264200 0.000000
-31.227300 0.000000
-31.190400 0.000000
-31.153600 0.000000
-31.116700 0.000000
-31.079900 0.000000
-31.043000 0.000000
-31.006100 0.000000
-30.969300 0.000000
-30.932400 0.000000
-30.895500 0.000000
-30.858700 0.000000
-30.821800 0.000000
-30.785000 0.000000
-30.748100 0.000000
-30.711200 0.000000
-30.674400 0.000000
-30.637500 0.000000
-30.600600 0.000000
-30.563800 0.000000
-30.526900 0.000000
-30.490100 0.000000
-30.453200 0.000000
-30.416300 0.000000
-30.379500 0.000000
-30.342600 0.000000
-30.305700 0.000000
-30.268900 0.000000
-30.232000 0.000000
-30.195200 0.000000
-30.158300 0.000000
-30.121400 0.000000
-30.084600 0.000000
-30.047700 0.000000
-30.010800 0.000000
-29.974000 0.000000
-29.937100 0.000000
-29.900200 0.000000
-29.863400 0.000000
-29.826500 0.000000
-29.789700 0.000000
-29.752800 0.000000
-29.715900 0.000000
-29.679100 0.000000
-29.642200 0.000000
-29.605300 0.000000
-29.568500 0.000000
-29.531600 0.000000
-29.494800 0.000000
-29.457900 0.000000
-29.421000 0.000000
-29.384200 0.000000
-29.347300 0.000000
-29.310400 0.000000
-29.273600 0.000000
-29.236700 0.000000
-29.199900 0.000000
-29.163000 0.000000
-29.126100 0.000000
-29.089300 0.000000
-29.052400 0.000000
-29.015500 0.000000
-28.978700 0.000000
-28.941800 0.000000
-28.904900 0.000000
-28.868100 0.000000
-28.831200 0.000000
-28.794400 0.000000
-28.757500 0.000000
-28.720600 0.000000
-28.683800 0.000000
-28.646900 0.000000
-28.610000 0.000000
-28.573200 0.000000
-28.536300 0.000000
-28.499500 0.000000
-28.462600 0.000000
-28.425700 0.000000
-28.388900 0.000000
-28.352000 0.000000
-28.315100 0.000000
-28.278300 0.000000
-28.241400 0.000000
-28.204600 0.000000
-28.167700 0.000000
-28.130800 0.000000
-28.094000 0.000000
-28.057100 0.000000
-28.020200 0.000000
-27.983400 0.000000
-27.946500 0.000000
-27.909700 0.000000
-27.872800 0.000000
-27.835900 0.000000
-27.799100 0.000000
-27.762200 0.000000
-27.725300 0.000000
-27.688500 0.000000
-27.651600 0.000000
-27.614700 0.000000
-27.577900 0.000000
-27.541000 0.000000
-27.504200 0.000000
-27.467300 0.000000
-27.430400 0.000000
-27.393600 0.000000
-27.356700 0.000000
-27.319800 0.000000
-27.283000 0.000000
-27.246100 0.000000
-27.209300 0.000000
-27.172400 0.000000
-27.135500 0.000000
-27.098700 0.000000
-27.061800 0.000000
-27.024900 0.000000
-26.988100 0.000000
-26.951200 0.000000
-26.914400 0.000000
-26.877500 0.000000
-26.840600 0.000000
-26.803800 0.000000
-26.766900 0.000000
-26.730000 0.000000
-26.693200 0.000000
-26.656300 0.000000
-26.619500 0.000000
-26.582600 0.000000
-26.545700 0.000000
-26.508900 0.000000
-26.472000 0.000000
-26.435100 0.000000
-26.398300 0.000000
-26.361400 0.000000
-26.324500 0.000000
-26.287700 0.000000
-26.250800 0.000000
-26.214000 0.000000
-26.177100 0.000000
-26.140200 0.000000
-26.103400 0.000000
-26.066500 0.000000
-26.029600 0.000000
-25.992800 0.000000
-25.955900 0.000000
-25.919100 0.000000
-25.882200 0.000000
-25.845300 0.000000
-25.808500 0.000000
-25.771600 0.000000
-25.734700 0.000000
-25.697900 0.000000
-25.661000 0.000000
-25.624200 0.000000
-25.587300 0.000000
-25.550400 0.000000
-25.513600 0.000000
-25.476700 0.000000
-25.439800 0.000000
-25.403000 0.000000
-25.366100 0.000000
-25.329300 0.000000
-25.292400 0.000000
-25.255500 0.000000
-25.218700 0.000000
-25.181800 0.000000
-25.144900 0.000000
-25.108100 0.000000
-25.071200 0.000000
-25.034300 0.000000
-24.997500 0.000000
-24.960600 0.000000
-24.923800 0.000000
-24.886900 0.000000
-24.850000 0.000000
-24.813200 0.000000
-24.776300 0.000000
-24.739400 0.000000
-24.702600 0.000000
-24.665700 0.000000
-24.628900 0.000000
-24.592000 0.000000
-24.555100 0.000000
-24.518300 0.000000
-24.481400 0.000000
-24.444500 0.000000
-24.407700 0.000000
-24.370800 0.000000
-24.334000 0.000000
-24.297100 0.000000
-24.260200 0.000000
-24.223400 0.000000
-24.186500 0.000000
-24.149600 0.000000
-24.112800 0.000000
-24.075900 0.000000
-24.039100 0.000000
-24.002200 0.000000
-23.965300 0.000000
-23.928500 0.000000
-23.891600 0.000000
-23.854700 0.000000
-23.817900 0.000000
-23.781000 0.000000
-23.744100 0.000000
-23.707300 0.000000
-23.670400 0.000000
-23.633600 0.000000
-23.596700 0.000000
-23.559800 0.000000
-23.523000 0.000000
-23.486100 0.000000
-23.449200 0.000000
-23.412400 0.000000
-23.375500 0.000000
-23.338700 0.000000
-23.301800 0.000000
-23.264900 0.000000
-23.228100 0.000000
-23.191200 0.000000
-23.154300 0.000000
-23.117500 0.000000
-23.080600 0.000000
-23.043800 0.000000
-23.006900 0.000000
-22.970000 0.000000
-22.933200 0.000000
-22.896300 0.000000
-22.859400 0.000000
-22.822600 0.000000
-22.785700 0.000000
-22.748800 0.000000
-22.712000 0.000000
-22.675100 0.000000
-22.638300 0.000000
-22.601400 0.000000
-22.564500 0.000000
-22.527700 0.000000
-22.490800 0.000000
-22.453900 0.000000
-22.417100 0.000000
-22.380200 0.000000
-22.343400 0.000000
-22.306500 0.000000
-22.269600 0.000000
-22.232800 0.000000
-22.195900 0.000000
-22.159000 0.000000
-22.122200 0.000000
-22.085300 0.000000
-22.048500 0.000000
-22.011600 0.000000
-21.974700 0.000000
-21.937900 0.000000
-21.901000 0.000000
-21.864100 0.000000
-21.827300 0.000000
-21.790400 0.000000
-21.753600 0.000000
-21.716700 0.000000
-21.679800 0.000000
-21.643000 0.000000
-21.606100 0.000000
-21.569200 0.000000
-21.532400 0.000000
-21.495500 0.000000
-21.458600 0.000000
-21.421800 0.000000
-21.384900 0.000000
-21.348100 0.000000
-21.311200 0.000000
-21.274300 0.000000
-21.237500 0.000000
-21.200600 0.000000
-21.163700 0.000000
-21.126900 0.000000
-21.090000 0.000000
-21.053200 0.000000
-21.016300 0.000000
-20.979400 0.000000
-20.942600 0.000000
-20.905700 0.000000
-20.868800 0.000000
-20.832000 0.000000
-20.795100 0.000000
-20.758300 0.000000
-20.721400 0.000000
-20.684500 0.000000
-20.647700 0.000000
-20.610800 0.000000
-20.573900 0.000000
-20.537100 0.000000
-20.500200 0.000000
-20.463400 0.000000
-20.426500 0.000000
-20.389600 0.000000
-20.352800 0.000000
-20.315900 0.000000
-20.279000 0.000000
-20.242200 0.000000
-20.205300 0.000000
-20.168400 0.000000
-20.131600 0.000000
-20.094700 0.000000
-20.057900 0.000000
-20.021000 0.000000
-19.984100 0.000000
-19.947300 0.000000
-19.910400 0.000000
-19.873500 0.000000
-19.836700 0.000000
-19.799800 0.000000
-19.763000 0.000000
-19.726100 0.000000
-19.689200 0.000000
-19.652400 0.000000
-19.615500 0.000000
-19.578600 0.000000
-19.541800 0.000000
-19.504900 0.000000
-19.468100 0.000000
-19.431200 0.000000
-19.394300 0.000000
-19.357500 0.000000
-19.320600 0.000000
-19.283700 0.000000
-19.246900 0.000000
-19.210000 0.000000
-19.173200 0.000000
-19.136300 0.000000
-19.099400 0.000000
-19.062600 0.000000
-19.025700 0.000000
-18.988800 0.000000
-18.952000 0.000000
-18.915100 0.000000
-18.878200 0.000000
-18.841400 0.000000
-18.804500 0.000000
-18.767700 0.000000
-18.730800 0.000000
-18.693900 0.000000
-18.657100 0.000000
-18.620200 0.000000
-18.583300 0.000000
-18.546500 0.000000
-18.509600 0.000000
-18.472800 0.000000
-18.435900 0.000000
-18.399000 0.000000
-18.362200 0.000000
-18.325300 0.000000
-18.288400 0.000000
-18.251600 0.000000
-18.214700 0.000000
-18.177900 0.000000
-18.141000 0.000000
-18.104100 0.000000
-18.067300 0.000000
-18.030400 0.000000
-17.993500 0.000000
-17.956700 0.000000
-17.919800 0.000000
-17.882900 0.000000
-17.846100 0.000000
-17.809200 0.000000
-17.772400 0.000000
-17.735500 0.000000
-17.698600 0.000000
-17.661800 0.000000
-17.624900 0.000000
-17.588000 0.000000
-17.551200 0.000000
-17.514300 0.000000
-17.477500 0.000000
-17.440600 0.000000
-17.403700 0.000000
-17.366900 0.000000
-17.330000 0.000000
-17.293100 0.000000
-17.256300 0.000000
-17.219400 0.000000
-17.182600 0.000000
-17.145700 0.000000
-17.108800 0.000000
-17.072000 0.000000
-17.035100 0.000000
-16.998200 0.000000
-16.961400 0.000000
-16.924500 0.000000
-16.887700 0.000000
-16.850800 0.000000
-16.813900 0.000000
-16.777100 0.000000
-16.740200 0.000000
-16.703300 0.000000
-16.666500 0.000000
-16.629600 0.000000
-16.592700 0.000000
-16.555900 0.000000
-16.519000 0.000000
-16.482200 0.000000
-16.445300 0.000000
-16.408400 0.000000
-16.371600 0.000000
-16.334700 0.000000
-16.297800 0.000000
-16.261000 0.000000
-16.224100 0.000000
-16.187300 0.000000
-16.150400 0.000000
-16.113500 0.000000
-16.076700 0.000000
-16.039800 0.000000
-16.002900 0.000000
-15.966100 0.000000
-15.929200 0.000000
-15.892400 0.000000
-15.855500 0.000000
-15.818600 0.000000
-15.781800 0.000000
-15.744900 0.000000
-15.708000 0.000000
-15.671200 0.000000
-15.634300 0.000000
-15.597500 0.000000
-15.560600 0.000000
-15.523700 0.000000
-15.486900 0.000000
-15.450000 0.000000
-15.413100 0.000000
-15.376300 0.000000
-15.339400 0.000000
-15.302500 0.000000
-15.265700 0.000000
-15.228800 0.000000
-15.192000 0.000000
-15.155100 0.000000
-15.118200 0.000000
-15.081400 0.000000
-15.044500 0.000000
-15.007600 0.000000
-14.970800 0.000000
-14.933900 0.000000
-14.897100 0.000000
-14.860200 0.000000
-14.823300 0.000000
-14.786500 0.000000
-14.749600 0.000000
-14.712700 0.000000
-14.675900 0.000000
-14.639000 0.000000
-14.602200 0.000000
-14.565300 0.000000
-14.528400 0.000000
-14.491600 0.000000
-14.454700 0.000000
-14.417800 0.000000
-14.381000 0.000000
-14.344100 0.000000
-14.307300 0.000000
-14.270400 0.000000
-14.233500 0.000000
-14.196700 0.000000
-14.159800 0.000000
-14.122900 0.000000
-14.086100 0.270800
-14.049200 0.238200
-14.012300 0.265600
-13.975500 0.242700
-13.938600 0.255700
-13.901800 0.253100
-13.864900 0.263900
-13.828000 0.267200
-13.791200 0.260000
-13.754300 0.263600
-13.717400 0.268300
-13.680600 0.268200
-13.643700 0.273900
-13.606900 0.280200
-13.570000 0.276700
-13.533100 0.278500
-13.496300 0.282100
-13.459400 0.286600
-13.422500 0.288300
-13.385700 0.292100
-13.348800 0.295900
-13.312000 0.301000
-13.275100 0.302600
-13.238200 0.305900
-13.201400 0.310100
-13.164500 0.314400
-13.127600 0.319200
-13.090800 0.323600
-13.053900 0.328800
-13.017100 0.334100
-12.980200 0.339400
-12.943300 0.346300
-12.906500 0.353500
-12.869600 0.831300
-12.832700 0.839500
-12.795900 0.867000
-12.759000 0.901100
-12.722100 0.911200
-12.685300 0.933100
-12.648400 0.967600
-12.611600 0.981800
-12.574700 1.023400
-12.537800 1.058100
-12.501000 1.097200
-12.464100 1.136100
-12.427200 1.186200
-12.390400 1.244400
-12.353500 1.303700
-12.316700 1.379200
-12.279800 1.478900
-12.242900 1.638000
-12.206100 1.845900
-12.169200 2.385800
-12.132300 2.132800
-12.095500 1.969700
-12.058600 1.970600
-12.021800 2.057500
-11.984900 2.177400
-11.948000 2.485700
-11.911200 3.689100
-11.874300 2.299000
-11.837400 2.522900
-11.800600 0.000000
-11.763700 0.000000
-11.726800 0.000000
-11.690000 0.000000
-11.653100 0.000000
-11.616300 0.000000
-11.579400 0.000000
-11.542500 0.000000
-11.505700 0.000000
-11.468800 0.000000
-11.431900 0.000000
-11.395100 0.000000
-11.358200 0.000000
-11.321400 0.000000
-11.284500 0.000000
-11.247600 0.000000
-11.210800 0.000000
-11.173900 0.000000
-11.137000 0.000000
-11.100200 0.000000
-11.063300 0.000000
-11.026500 0.000000
-10.989600 0.000000
-10.952700 0.000000
-10.915900 0.000000
-10.879000 0.000000
-10.842100 0.000000
-10.805300 0.000000
-10.768400 0.000000
-10.731600 0.000000
-10.694700 0.000000
-10.657800 0.000000
-10.621000 0.000000
-10.584100 0.000000
-10.547200 0.000000
-10.510400 0.000000
-10.473500 0.000000
-10.436600 0.000000
-10.399800 0.000000
-10.362900 0.000000
-10.326100 0.000000
-10.289200 0.000000
-10.252300 0.000000
-10.215500 0.000000
-10.178600 0.000000
-10.141700 0.000000
-10.104900 0.000000
-10.068000 0.000000
-10.031200 0.000000
-9.994300 0.000000
-9.957400 0.000000
-9.920600 0.000000
-9.883700 0.000000
-9.846800 0.000000
-9.810000 0.000000
-9.773100 0.000000
-9.736300 0.000000
-9.699400 0.000000
-9.662500 0.000000
-9.625700 0.000000
-9.588800 0.000000
-9.551900 0.000000
-9.515100 0.000000
-9.478200 0.000000
-9.441400 0.000000
-9.404500 0.000000
-9.367600 0.000000
-9.330800 0.000000
-9.293900 0.000000
-9.257000 0.000000
-9.220200 0.000000
-9.183300 0.000000
-9.146400 0.000000
-9.109600 0.000000
-9.072700 0.000000
-9.035900 0.000000
-8.999000 0.000000
-8.962100 0.000000
-8.925300 0.000000
-8.888400 0.000000
-8.851500 0.000000
-8.814700 0.000000
-8.777800 0.000000
-8.741000 0.000000
-8.704100 0.000000
-8.667200 0.000000
-8.630400 0.000000
-8.593500 0.000000
-8.556600 0.000000
-8.519800 0.000000
-8.482900 0.000000
-8.446100 0.000000
-8.409200 0.000000
-8.372300 0.000000
-8.335500 0.000000
-8.298600 0.000000
-8.261700 0.000000
-8.224900 0.000000
-8.188000 0.000000
-8.151200 0.000000
-8.114300 0.000000
-8.077400 0.000000
-8.040600 0.000000
-8.003700 0.000000
-7.966800 0.000000
-7.930000 0.000000
-7.893100 0.000000
-7.856200 0.000000
-7.819400 0.000000
-7.782500 0.000000
-7.745700 0.000000
-7.708800 0.000000
-7.671900 0.000000
-7.635100 0.000000
-7.598200 0.000000
-7.561300 0.000000
-7.524500 0.000000
-7.487600 0.000000
-7.450800 0.000000
-7.413900 0.000000
-7.377000 0.000000
-7.340200 0.000000
-7.303300 0.000000
-7.266400 0.000000
-7.229600 0.000000
-7.192700 0.000000
-7.155900 0.000000
-7.119000 0.000000
-7.082100 0.000000
-7.045300 0.000000
-7.008400 0.000000
-6.971500 0.000000
-6.934700 0.000000
-6.897800 0.000000
-6.861000 0.000000
-6.824100 0.000000
-6.787200 0.000000
-6.750400 0.000000
-6.713500 0.000000
-6.676600 0.000000
-6.639800 0.000000
-6.602900 0.000000
-6.566000 0.000000
-6.529200 0.000000
-6.492300 0.000000
-6.455500 0.000000
-6.418600 0.000000
-6.381700 0.000000
-6.344900 0.000000
-6.308000 0.000000
-6.271100 0.000000
-6.234300 0.000000
-6.197400 0.000000
-6.160600 0.000000
-6.123700 0.000000
-6.086800 0.000000
-6.050000 0.000000
-6.013100 0.000000
-5.976200 0.000000
-5.939400 0.000000
-5.902500 0.000000
-5.865700 0.000000
-5.828800 0.000000
-5.791900 0.176000
-5.755100 0.329300
-5.718200 0.406500
-5.681300 0.360400
-5.644500 0.398200
-5.607600 0.434900
-5.570700 0.404300
-5.533900 0.401100
-5.497000 0.406800
-5.460200 0.421400
-5.423300 0.418900
-5.386400 0.429300
-5.349600 0.441500
-5.312700 0.453800
-5.275800 0.466100
-5.239000 0.469400
-5.202100 0.479500
-5.165300 0.714900
-5.128400 0.732700
-5.091500 0.774200
-5.054700 0.770600
-5.017800 0.832600
-4.980900 0.887100
-4.944100 0.954300
-4.907200 1.021700
-4.870400 0.820100
-4.833500 0.797500
-4.796600 0.760900
-4.759800 0.720300
-4.722900 0.679100
-4.686000 0.642100
-4.649200 0.658300
-4.612300 2.438100
-4.575500 6.527500
-4.538600 2.650200
-4.501700 1.878700
-4.464900 1.665200
-4.428000 1.600700
-4.391100 1.642000
-4.354300 1.535200
-4.317400 1.974500
-4.280500 0.735600
-4.243700 0.595100
-4.206800 0.559900
-4.170000 0.532100
-4.133100 0.665100
-4.096200 0.930400
-4.059400 1.617000
-4.022500 1.651300
-3.985600 1.227100
-3.948800 0.451400
-3.911900 0.418000
-3.875100 0.386200
-3.838200 0.380700
-3.801300 0.378700
-3.764500 0.373200
-3.727600 0.411200
-3.690700 0.826900
-3.653900 1.157800
-3.617000 1.380400
-3.580200 1.429100
-3.543300 1.447600
-3.506400 1.231600
-3.469600 1.287400
-3.432700 1.365300
-3.395800 1.475100
-3.359000 1.892500
-3.322100 2.443300
-3.285300 3.533700
-3.248400 0.288400
-3.211500 0.281000
-3.174700 0.273600
-3.137800 0.265200
-3.100900 3.109100
-3.064100 1.728300
-3.027200 1.693200
-2.990300 1.269600
-2.953500 1.277800
-2.916600 1.361700
-2.879800 1.770400
-2.842900 1.819200
-2.806000 2.068000
-2.769200 2.657800
-2.732300 2.937900
-2.695400 1.679400
-2.658600 1.512200
-2.621700 1.585000
-2.584900 1.723900
-2.548000 3.322800
-2.511100 2.668400
-2.474300 1.604400
-2.437400 1.161100
-2.400500 1.157700
-2.363700 1.136400
-2.326800 1.090300
-2.290000 1.123900
-2.253100 1.130100
-2.216200 1.148700
-2.179400 1.321500
-2.142500 10.923300
-2.105600 1.629800
-2.068800 1.367800
-2.031900 1.224800
-1.995100 1.154800
-1.958200 1.103900
-1.921300 1.083100
-1.884500 1.068100
-1.847600 1.068600
-1.810700 1.122600
-1.773900 1.157300
-1.737000 1.089400
-1.700100 1.093500
-1.663300 1.095200
-1.626400 1.105800
-1.589600 1.157300
-1.552700 1.195700
-1.515800 1.362200
-1.479000 1.401400
-1.442100 1.185000
-1.405200 1.001200
-1.368400 1.013000
-1.331500 1.069300
-1.294700 1.154600
-1.257800 1.318900
-1.220900 0.937600
-1.184100 1.639200
-1.147200 0.839500
-1.110300 0.878300
-1.073500 0.801300
-1.036600 0.762000
-0.999800 0.689700
-0.962900 0.502700
-0.926000 0.462700
-0.889200 0.378400
-0.852300 0.358300
-0.815400 0.338100
-0.778600 0.276200
-0.741700 0.249800
-0.704900 0.276500
-0.668000 0.291400
-0.631100 0.298700
-0.594300 0.308200
-0.557400 1.030700
-0.520500 0.765400
-0.483700 0.728700
-0.446800 0.736200
-0.409900 0.746400
-0.373100 0.768100
-0.336200 0.793500
-0.299400 0.829100
-0.262500 0.867500
-0.225600 0.930000
-0.188800 0.860000
-0.151900 0.937300
-0.115000 1.078200
-0.078200 1.259900
-0.041300 1.731800
-0.004500 2.524400
0.032400 1.698000
0.069300 1.153200
0.106100 0.958100
0.143000 0.652400
0.179900 0.643700
0.216700 0.638100
0.253600 0.585600
0.290400 0.561500
0.327300 0.537400
0.364200 0.531700
0.401000 0.496500
0.437900 0.474200
0.474800 0.463900
0.511600 0.463700
0.548500 0.411300
0.585400 0.370100
0.622200 0.374700
0.659100 0.304500
0.695900 0.302500
0.732800 0.259400
0.769700 0.427300
0.806500 0.346800
0.843400 0.407800
0.880300 3.335100
0.917100 6.929000
0.954000 5.962400
0.990800 5.571500
1.027700 3.504800
1.064600 2.299100
1.101400 1.364000
1.138300 1.475800
1.175200 1.952000
1.212000 2.753000
1.248900 2.949700
1.285700 3.830000
1.322600 9.879900
1.359500 2.098800
1.396300 1.784700
1.433200 0.000000
1.470100 0.000000
1.506900 0.000000
1.543800 0.000000
1.580600 0.000000
1.617500 0.000000
1.654400 0.000000
1.691200 0.000000
1.728100 0.000000
1.765000 0.000000
1.801800 0.000000
1.838700 0.000000
1.875600 0.000000
1.912400 0.000000
1.949300 0.000000
1.986100 0.000000
2.023000 0.000000
2.059900 0.000000
2.096700 0.000000
2.133600 0.000000
2.170500 0.000000
2.207300 0.000000
2.244200 0.000000
2.281000 0.212600
2.317900 0.779100
2.354800 0.839000
2.391600 0.929800
2.428500 0.952800
2.465400 1.019200
2.502200 1.153300
2.539100 1.668500
2.575900 2.132500
2.612800 2.279000
2.649700 1.945700
2.686500 1.544000
2.723400 1.275800
2.760300 1.058400
2.797100 0.852100
2.834000 0.744100
2.870800 0.682200
2.907700 0.658800
2.944600 0.689300
2.981400 1.062000
3.018300 1.167200
3.055200 1.250900
3.092000 1.343400
3.128900 1.514800
3.165800 1.792400
3.202600 2.969500
3.239500 2.258100
3.276300 2.476800
3.313200 1.654300
3.350100 1.478900
3.386900 1.524100
3.423800 1.843300
3.460700 1.858600
3.497500 2.555100
3.534400 1.974300
3.571200 1.488200
3.608100 1.175500
3.645000 1.078900
3.681800 0.374200
3.718700 0.000000
3.755600 0.000000
3.792400 0.000000
3.829300 0.000000
3.866100 0.000000
3.903000 0.000000
3.939900 0.000000
3.976700 0.000000
4.013600 0.000000
4.050500 0.000000
4.087300 0.000000
4.124200 0.000000
4.161000 0.000000
4.197900 0.000000
4.234800 0.000000
4.271600 0.000000
4.308500 0.000000
4.345400 0.000000
4.382200 0.000000
4.419100 0.000000
4.456000 0.000000
4.492800 0.000000
4.529700 0.000000
4.566500 0.000000
4.603400 0.000000
4.640300 0.000000
4.677100 0.000000
4.714000 0.000000
4.750900 0.000000
4.787700 0.000000
4.824600 0.000000
4.861400 0.000000
4.898300 0.000000
4.935200 0.058000
4.972000 0.081800
5.008900 0.108400
5.045800 0.149600
5.082600 0.173700
5.119500 0.180900
5.156300 0.183600
5.193200 0.182600
5.230100 0.185000
5.266900 0.189400
5.303800 0.189200
5.340700 0.191100
5.377500 0.192600
5.414400 0.193400
5.451300 0.193400
5.488100 0.194700
5.525000 0.197000
5.561800 0.199200
5.598700 0.201000
5.635600 0.201800
5.672400 0.202700
5.709300 0.203700
5.746200 0.204500
5.783000 0.205800
5.819900 0.207200
5.856700 0.209200
5.893600 0.211200
5.930500 0.212900
5.967300 0.215700
6.004200 0.218600
6.041100 0.219900
6.077900 0.221600
6.114800 0.224000
6.151600 0.256900
6.188500 0.280600
6.225400 0.292900
6.262200 0.307800
6.299100 0.324800
6.336000 0.422900
6.372800 1.110800
6.409700 0.843000
6.446500 0.899800
6.483400 1.014300
6.520300 1.020200
6.557100 1.009300
6.594000 1.056300
6.630900 1.194000
6.667700 1.138400
6.704600 1.119200
6.741500 1.109700
6.778300 1.064500
6.815200 1.040700
6.852000 1.026500
6.888900 1.023500
6.925800 1.019800
6.962600 1.011300
6.999500 1.025000
7.036400 1.053300
7.073200 1.090000
7.110100 1.127700
7.146900 1.234200
7.183800 1.209400
7.220700 1.239700
7.257500 1.255900
7.294400 1.331200
7.331300 1.446600
7.368100 1.487600
7.405000 2.518700
7.441800 1.433500
7.478700 1.068700
7.515600 0.983700
7.552400 0.977300
7.589300 1.066700
7.626200 1.173000
7.663000 1.286800
7.699900 1.291000
7.736700 1.304400
7.773600 1.089200
7.810500 1.038600
7.847300 1.143300
7.884200 1.122000
7.921100 1.016200
7.957900 0.918100
7.994800 0.809600
8.031700 0.776200
8.068500 0.746800
8.105400 0.728100
8.142200 0.716400
8.179100 0.781700
8.216000 0.950500
8.252800 1.167000
8.289700 1.459700
8.326600 1.696300
8.363400 1.682200
8.400300 1.818900
8.437100 1.991400
8.474000 1.932700
8.510900 1.801700
8.547700 1.742600
8.584600 1.542000
8.621500 1.529800
8.658300 1.275700
8.695200 1.207800
8.732000 1.136600
8.768900 1.053000
8.805800 0.973500
8.842600 0.904300
8.879500 0.856000
8.916400 0.840700
8.953200 0.847700
8.990100 0.870100
9.026900 0.958000
9.063800 1.132000
9.100700 1.352600
9.137500 1.539100
9.174400 1.514200
9.211300 1.544300
9.248100 1.644400
9.285000 1.744300
9.321900 1.772900
9.358700 1.652300
9.395600 1.577300
9.432400 1.534700
9.469300 1.535600
9.506200 1.539300
9.543000 1.537800
9.579900 1.571500
9.616800 1.520700
9.653600 1.474800
9.690500 1.541200
9.727300 1.631000
9.764200 1.761000
9.801100 2.017100
9.837900 2.214300
9.874800 2.302000
9.911700 2.422400
9.948500 2.297200
9.985400 2.087700
10.022200 1.994900
10.059100 1.923900
10.096000 1.866000
10.132800 1.770800
10.169700 1.601600
10.206600 1.544200
10.243400 1.441400
10.280300 1.371900
10.317100 1.351400
10.354000 1.412500
10.390900 1.384400
10.427700 1.378100
10.464600 1.393100
10.501500 1.541000
10.538300 1.715000
10.575200 2.004900
10.612100 2.245500
10.648900 2.188300
10.685800 2.128000
10.722600 1.838000
10.759500 1.641100
10.796400 1.559100
10.833200 1.604100
10.870100 1.590400
10.907000 1.624600
10.943800 1.520900
10.980700 1.659600
11.017500 1.642900
11.054400 1.610000
11.091300 1.477400
11.128100 1.437600
11.165000 1.416900
11.201900 1.387600
11.238700 1.392900
11.275600 1.441100
11.312400 1.580000
11.349300 1.614500
11.386200 1.783900
11.423000 2.003400
11.459900 1.942900
11.496800 1.851500
11.533600 1.811400
11.570500 1.757500
11.607400 1.680500
11.644200 1.587100
11.681100 1.503400
11.717900 1.544700
11.754800 1.519700
11.791700 1.431700
11.828500 1.290700
11.865400 1.246100
11.902300 1.277000
11.939100 1.266000
11.976000 1.308400
12.012800 1.368900
12.049700 1.390100
12.086600 1.395200
12.123400 1.468700
12.160300 1.618600
12.197200 1.853800
12.234000 1.673400
12.270900 1.416400
12.307700 1.186800
12.344600 1.016100
12.381500 0.941100
12.418300 0.923100
12.455200 0.996500
12.492100 0.966900
12.528900 1.118900
12.565800 1.464100
12.602600 1.612900
12.639500 1.693700
12.676400 1.825600
12.713200 1.755200
12.750100 1.777400
12.787000 1.690800
12.823800 1.652500
12.860700 1.501300
12.897600 1.369900
12.934400 1.224700
12.971300 1.180800
13.008100 0.993200
13.045000 1.090800
13.081900 1.175900
13.118700 1.208100
13.155600 1.280800
13.192500 1.378400
13.229300 1.336400
13.266200 1.354600
13.303000 1.376100
13.339900 1.334800
13.376800 1.300100
13.413600 1.270200
13.450500 1.245400
13.487400 1.214000
13.524200 1.222700
13.561100 1.234100
13.597900 1.267400
13.634800 1.316400
13.671700 1.358900
13.708500 1.346300
13.745400 1.309900
13.782300 1.254500
13.819100 1.254500
13.856000 1.297300
13.892800 1.352800
13.929700 1.312100
13.966600 1.327200
14.003400 1.341700
14.040300 1.346800
14.077200 1.363800
14.114000 1.397400
14.150900 1.447300
14.187800 1.453200
14.224600 1.466700
14.261500 1.515700
14.298300 1.522700
14.335200 1.531600
14.372100 1.540500
14.408900 1.574500
14.445800 1.598300
14.482700 1.606800
14.519500 1.623500
14.556400 1.605800
14.593200 1.610700
14.630100 1.583000
14.667000 1.556300
14.703800 1.525100
14.740700 1.578000
14.777600 1.531800
14.814400 1.501300
14.851300 1.554600
14.888100 1.613300
14.925000 1.616100
14.961900 1.617100
14.998700 1.615200
15.035600 1.649300
15.072500 1.674400
15.109300 1.756200
15.146200 1.692500
15.183000 1.455500
15.219900 1.424400
15.256800 1.297400
15.293600 1.198100
15.330500 1.155700
15.367400 1.125800
15.404200 1.130700
15.441100 1.179600
15.478000 1.182800
15.514800 1.207000
15.551700 1.348400
15.588500 1.517900
15.625400 1.656300
15.662300 1.678800
15.699100 1.773700
15.736000 1.821900
15.772900 1.769700
15.809700 1.604300
15.846600 1.547700
15.883400 1.420900
15.920300 1.336800
15.957200 1.271500
15.994000 1.232100
16.030900 1.177700
16.067800 1.151800
16.104600 1.123200
16.141500 1.193900
16.178300 1.242900
16.215200 1.291600
16.252100 1.302500
16.288900 1.371700
16.325800 1.432400
16.362700 1.506600
16.399500 1.425000
16.436400 1.376500
16.473200 1.361200
16.510100 1.373100
16.547000 1.393900
16.583800 1.358800
16.620700 1.362300
16.657600 1.388600
16.694400 1.342600
16.731300 1.322800
16.768200 1.305100
16.805000 1.359600
16.841900 1.430700
16.878700 1.490700
16.915600 1.562700
16.952500 1.620800
16.989300 1.657700
17.026200 1.630600
17.063100 1.598200
17.099900 1.584800
17.136800 1.491800
17.173600 1.422500
17.210500 1.389000
17.247400 1.364100
17.284200 1.306900
17.321100 1.222600
17.358000 1.202700
17.394800 1.205000
17.431700 1.227700
17.468500 1.289700
17.505400 1.289400
17.542300 1.339400
17.579100 1.376900
17.616000 1.385700
17.652900 1.453900
17.689700 1.433100
17.726600 1.436300
17.763500 1.439200
17.800300 1.411600
17.837200 1.472300
17.874000 1.503000
17.910900 1.419900
17.947800 1.373900
17.984600 1.369400
18.021500 1.389900
18.058400 1.438700
18.095200 1.380200
18.132100 1.328900
18.168900 1.324400
18.205800 1.307100
18.242700 1.283800
18.279500 1.265200
18.316400 1.289100
18.353300 1.456500
18.390100 1.420200
18.427000 1.431900
18.463800 1.433100
18.500700 1.468300
18.537600 1.415600
18.574400 1.283600
18.611300 1.218200
18.648200 1.187100
18.685000 1.168900
18.721900 1.158200
18.758700 1.159500
18.795600 1.159000
18.832500 1.187100
18.869300 1.218200
18.906200 1.258400
18.943100 1.309600
18.979900 1.375400
19.016800 1.462400
19.053700 1.540500
19.090500 1.677100
19.127400 1.622400
19.164200 1.584400
19.201100 1.461900
19.238000 1.338800
19.274800 1.281100
19.311700 1.222900
19.348600 1.391900
19.385400 1.440700
19.422300 1.544800
19.459100 1.652300
19.496000 1.808900
19.532900 1.878500
19.569700 1.858100
19.606600 1.873000
19.643500 1.715200
19.680300 1.708200
19.717200 1.675600
19.754000 1.582400
19.790900 1.570200
19.827800 1.588200
19.864600 1.643500
19.901500 1.719800
19.938400 1.815900
19.975200 1.863300
20.012100 1.836600
20.048900 1.793500
20.085800 1.657500
20.122700 1.445700
20.159500 1.347200
20.196400 1.299100
20.233300 1.180900
20.270100 1.140100
20.307000 1.194400
20.343900 1.259900
20.380700 1.328600
20.417600 1.398600
20.454400 1.410500
20.491300 1.484000
20.528200 1.548600
20.565000 1.621700
20.601900 1.666000
20.638800 1.668400
20.675600 1.698300
20.712500 1.745700
20.749300 1.809500
20.786200 1.851600
20.823100 1.839800
20.859900 1.835500
20.896800 1.796200
20.933700 1.710200
20.970500 1.647300
21.007400 1.579800
21.044200 1.603800
21.081100 1.673000
21.118000 1.657000
21.154800 1.653100
21.191700 1.675200
21.228600 1.703500
21.265400 1.707300
21.302300 1.731200
21.339100 1.766600
21.376000 1.796600
21.412900 1.850200
21.449700 1.765900
21.486600 1.687000
21.523500 1.646200
21.560300 1.648700
21.597200 1.541900
21.634100 1.602300
21.670900 1.704200
21.707800 1.821000
21.744600 1.937100
21.781500 1.961700
21.818400 1.966700
21.855200 1.826900
21.892100 1.699600
21.929000 1.523700
21.965800 1.464600
22.002700 1.430000
22.039500 1.460700
22.076400 1.512000
22.113300 1.501300
22.150100 1.504400
22.187000 1.563400
22.223900 1.650800
22.260700 1.705600
22.297600 1.797900
22.334400 1.902200
22.371300 1.930600
22.408200 1.926000
22.445000 1.835700
22.481900 1.797000
22.518800 1.774700
22.555600 1.734400
22.592500 1.714400
22.629300 1.711100
22.666200 1.747200
22.703100 1.823700
22.739900 1.840700
22.776800 1.827300
22.813700 1.890200
22.850500 2.007600
22.887400 2.034100
22.924300 2.036500
22.961100 2.067300
22.998000 2.004800
23.034800 1.898600
23.071700 1.757200
23.108600 1.701400
23.145400 1.615800
23.182300 1.592600
23.219200 1.746600
23.256000 1.673900
23.292900 1.697800
23.329700 1.757500
23.366600 1.786600
23.403500 1.862800
23.440300 1.812500
23.477200 1.832400
23.514100 1.828200
23.550900 1.833900
23.587800 1.897800
23.624600 1.964600
23.661500 2.010400
23.698400 1.881400
23.735200 1.837300
23.772100 1.767800
23.809000 1.706500
23.845800 1.671300
23.882700 1.667800
23.919600 1.667000
23.956400 1.633900
23.993300 1.700300
24.030100 1.793200
24.067000 1.877900
24.103900 1.954800
24.140700 1.967500
24.177600 1.889800
24.214500 1.857400
24.251300 1.797800
24.288200 1.732000
24.325000 1.661800
24.361900 1.602200
24.398800 1.570500
24.435600 1.609200
24.472500 1.659700
24.509400 1.633600
24.546200 1.673400
24.583100 1.691000
24.619900 1.828500
24.656800 2.004000
24.693700 2.248800
24.730500 2.276300
24.767400 2.315200
24.804300 2.188300
24.841100 2.099300
24.878000 2.050100
24.914800 1.992700
24.951700 1.971600
24.988600 1.976100
25.025400 1.949300
25.062300 1.966400
25.099200 1.951000
25.136000 1.977800
25.172900 2.023400
25.209800 2.091500
25.246600 2.103400
25.283500 2.038600
25.320300 1.995400
25.357200 2.011200
25.394100 1.994000
25.430900 1.922800
25.467800 1.892500
25.504700 1.917300
25.541500 1.909900
25.578400 1.913700
25.615200 1.910200
25.652100 1.937700
25.689000 1.927600
25.725800 1.901400
25.762700 1.863000
25.799600 1.848100
25.836400 1.839500
25.873300 1.694100
25.910100 1.526200
25.947000 1.447300
25.983900 1.438900
26.020700 1.533700
26.057600 1.715300
26.094500 1.875100
26.131300 1.844800
26.168200 1.778100
26.205000 1.798100
26.241900 1.842900
26.278800 1.856700
26.315600 1.806700
26.352500 1.777500
26.389400 1.797100
26.426200 1.879800
26.463100 1.883600
26.500000 1.865100
26.536800 1.805100
26.573700 1.791300
26.610500 1.646200
26.647400 1.502900
26.684300 1.361900
26.721100 1.199700
26.758000 1.059400
26.794900 0.946800
26.831700 0.854100
26.868600 0.842100
26.905400 0.742900
26.942300 0.672700
26.979200 0.604200
27.016000 0.555800
27.052900 0.506600
27.089800 0.459400
27.126600 0.418700
27.163500 0.393600
27.200300 0.385300
27.237200 0.373300
27.274100 0.363600
27.310900 0.358600
27.347800 0.360600
27.384700 0.360900
27.421500 0.358700
27.458400 0.355400
27.495200 0.372800
27.532100 0.373700
27.569000 0.327800
27.605800 0.238000
27.642700 0.200500
27.679600 0.158900
27.716400 0.126700
27.753300 0.099500
27.790200 0.076300
27.827000 0.055900
27.863900 0.038300
27.900700 0.024500
27.937600 0.015900
27.974500 0.010400
28.011300 0.006200
28.048200 0.003300
28.085100 0.001800
28.121900 0.000700
28.158800 0.000000
28.195600 0.000000
28.232500 0.000000
28.269400 0.000000
28.306200 0.000000
28.343100 0.000000
28.380000 0.000000
28.416800 0.000000
28.453700 0.000000
28.490500 0.000000
28.527400 0.000000
28.564300 0.000000
28.601100 0.000000
28.638000 0.000000
28.674900 0.000000
28.711700 0.000000
28.748600 0.000000
28.785500 0.000000
28.822300 0.000000
28.859200 0.000000
28.896000 0.000000
28.932900 0.000000
28.969800 0.000000
29.006600 0.000000
29.043500 0.000000
29.080400 0.000000
29.117200 0.000000
29.154100 0.000000
29.190900 0.000000
29.227800 0.000000
29.264700 0.000000
29.301500 0.000000
29.338400 0.000000
29.375300 0.000000
29.412100 0.000000
29.449000 0.000000
29.485800 0.000000
29.522700 0.000000
29.559600 0.000000
29.596400 0.000000
29.633300 0.000000
29.670200 0.000000
29.707000 0.000000
29.743900 0.000000
29.780700 0.000000
29.817600 0.000000
29.854500 0.000000
29.891300 0.000000
29.928200 0.000000
29.965100 0.000000
30.001900 0.000000
30.038800 0.000000
30.075700 0.000000
30.112500 0.000000
30.149400 0.000000
30.186200 0.000000
30.223100 0.000000
30.260000 0.000000
30.296800 0.000000
30.333700 0.000000
30.370600 0.000000
30.407400 0.000000
30.444300 0.000000
30.481100 0.000000
30.518000 0.000000
30.554900 0.000000
30.591700 0.000000
30.628600 0.000000
30.665500 0.000000
30.702300 0.000000
30.739200 0.000000
30.776000 0.000000
30.812900 0.000000
30.849800 0.000000
30.886600 0.000000
30.923500 0.000000
30.960400 0.000000
30.997200 0.000000
31.034100 0.000000
31.070900 0.000000
31.107800 0.000000
31.144700 0.000000
31.181500 0.000000
31.218400 0.000000
31.255300 0.000000
31.292100 0.000000
31.329000 0.000000
31.365900 0.000000
31.402700 0.000000
31.439600 0.000000
31.476400 0.000000
31.513300 0.000000
31.550200 0.000000
31.587000 0.000000
31.623900 0.000000
e
