set title 'mp-2731 - Density of States'
set xlabel 'Energy (eV)'
set ylabel 'DOS (states/eV)'
set grid
set xrange [-10:10]
set yrange [0:172.069]
set xzeroaxis lt -1
set terminal png size 800,600
set output 'mp-2731_dos_gnuplot.png'
plot '-' using 1:2 with lines title 'DOS'
-30.603000 0.000000
-30.575600 0.000000
-30.548100 0.000000
-30.520700 0.000000
-30.493300 0.000000
-30.465800 0.000000
-30.438400 0.000000
-30.411000 0.000000
-30.383500 0.000000
-30.356100 0.000000
-30.328700 0.000000
-30.301200 0.000000
-30.273800 0.000000
-30.246400 0.000000
-30.218900 0.000000
-30.191500 0.000000
-30.164100 0.000000
-30.136600 0.000000
-30.109200 0.000000
-30.081800 0.000000
-30.054300 0.000000
-30.026900 0.000000
-29.999500 0.000000
-29.972000 0.000000
-29.944600 0.000000
-29.917200 0.000000
-29.889700 0.000000
-29.862300 0.000000
-29.834900 0.000000
-29.807400 0.000000
-29.780000 0.000000
-29.752600 0.000000
-29.725100 0.000000
-29.697700 0.000000
-29.670300 0.000000
-29.642800 0.000000
-29.615400 0.000000
-29.588000 0.000000
-29.560500 0.000000
-29.533100 0.000000
-29.505700 0.000000
-29.478200 0.000000
-29.450800 0.000000
-29.423400 0.000000
-29.395900 0.000000
-29.368500 0.000000
-29.341100 0.000000
-29.313600 0.000000
-29.286200 0.000000
-29.258800 0.000000
-29.231300 0.000000
-29.203900 0.000000
-29.176500 0.000000
-29.149000 0.000000
-29.121600 0.000000
-29.094200 0.000000
-29.066700 0.000000
-29.039300 0.000000
-29.011900 0.000000
-28.984400 0.000000
-28.957000 0.000000
-28.929600 0.000000
-28.902100 0.000000
-28.874700 0.000000
-28.847300 0.000000
-28.819800 0.000000
-28.792400 0.000000
-28.765000 0.000000
-28.737500 0.000000
-28.710100 0.000000
-28.682700 0.000000
-28.655200 0.000000
-28.627800 0.000000
-28.600400 0.000000
-28.572900 0.000000
-28.545500 0.000000
-28.518100 0.000000
-28.490600 0.000000
-28.463200 0.000000
-28.435800 0.000000
-28.408300 0.000000
-28.380900 0.000000
-28.353500 0.000000
-28.326000 0.000000
-28.298600 0.000000
-28.271200 0.000000
-28.243700 0.000000
-28.216300 0.000000
-28.188900 0.000000
-28.161400 0.000000
-28.134000 0.000000
-28.106600 132.230800
-28.079100 44.615200
-28.051700 0.000000
-28.024300 0.000000
-27.996800 361.905400
-27.969400 0.000000
-27.942000 0.000000
-27.914500 0.000000
-27.887100 0.000000
-27.859700 0.000000
-27.832200 0.000000
-27.804800 0.000000
-27.777400 0.000000
-27.749900 0.000000
-27.722500 0.000000
-27.695100 0.000000
-27.667600 0.000000
-27.640200 0.000000
-27.612800 0.000000
-27.585300 0.000000
-27.557900 0.000000
-27.530500 0.000000
-27.503000 0.000000
-27.475600 0.000000
-27.448200 0.000000
-27.420700 0.000000
-27.393300 0.000000
-27.365900 0.000000
-27.338400 0.000000
-27.311000 0.000000
-27.283600 0.000000
-27.256100 0.000000
-27.228700 0.000000
-27.201300 0.000000
-27.173800 0.000000
-27.146400 0.000000
-27.119000 0.000000
-27.091500 0.000000
-27.064100 0.000000
-27.036700 0.000000
-27.009200 0.000000
-26.981800 0.000000
-26.954400 0.000000
-26.926900 0.000000
-26.899500 0.000000
-26.872100 0.000000
-26.844600 0.000000
-26.817200 0.000000
-26.789800 0.000000
-26.762300 0.000000
-26.734900 0.000000
-26.707500 0.000000
-26.680000 0.000000
-26.652600 0.000000
-26.625200 0.000000
-26.597700 0.000000
-26.570300 0.000000
-26.542900 0.000000
-26.515400 0.000000
-26.488000 0.000000
-26.460600 0.000000
-26.433100 0.000000
-26.405700 0.000000
-26.378300 0.000000
-26.350800 0.000000
-26.323400 0.000000
-26.296000 0.000000
-26.268500 0.000000
-26.241100 0.000000
-26.213700 0.000000
-26.186200 0.000000
-26.158800 0.000000
-26.131400 0.000000
-26.103900 0.000000
-26.076500 0.000000
-26.049100 0.000000
-26.021600 0.000000
-25.994200 0.000000
-25.966800 0.000000
-25.939300 0.000000
-25.911900 0.000000
-25.884500 0.000000
-25.857000 0.000000
-25.829600 0.000000
-25.802200 0.000000
-25.774700 0.000000
-25.747300 0.000000
-25.719900 0.000000
-25.692400 0.000000
-25.665000 0.000000
-25.637600 0.000000
-25.610100 0.000000
-25.582700 0.000000
-25.555300 0.000000
-25.527800 0.000000
-25.500400 0.000000
-25.473000 0.000000
-25.445500 0.000000
-25.418100 0.000000
-25.390700 0.000000
-25.363200 0.000000
-25.335800 0.000000
-25.308400 0.000000
-25.280900 0.000000
-25.253500 0.000000
-25.226100 0.000000
-25.198600 0.000000
-25.171200 0.000000
-25.143800 0.000000
-25.116300 0.000000
-25.088900 0.000000
-25.061500 0.000000
-25.034000 0.000000
-25.006600 0.000000
-24.979200 0.000000
-24.951700 0.000000
-24.924300 0.000000
-24.896900 0.000000
-24.869400 0.000000
-24.842000 0.000000
-24.814600 0.000000
-24.787100 0.000000
-24.759700 0.000000
-24.732300 0.000000
-24.704800 0.000000
-24.677400 0.000000
-24.650000 0.000000
-24.622500 0.000000
-24.595100 0.000000
-24.567700 0.000000
-24.540200 0.000000
-24.512800 0.000000
-24.485400 0.000000
-24.457900 0.000000
-24.430500 0.000000
-24.403100 0.000000
-24.375600 0.000000
-24.348200 0.000000
-24.320800 0.000000
-24.293300 0.000000
-24.265900 0.000000
-24.238500 0.000000
-24.211000 0.000000
-24.183600 0.000000
-24.156200 0.000000
-24.128700 0.000000
-24.101300 0.000000
-24.073900 0.000000
-24.046400 0.000000
-24.019000 0.000000
-23.991600 0.000000
-23.964100 0.000000
-23.936700 0.000000
-23.909300 0.000000
-23.881800 0.000000
-23.854400 0.000000
-23.827000 0.000000
-23.799500 0.000000
-23.772100 0.000000
-23.744700 0.000000
-23.717200 0.000000
-23.689800 0.000000
-23.662400 0.000000
-23.634900 0.000000
-23.607500 0.000000
-23.580100 0.000000
-23.552600 0.000000
-23.525200 0.000000
-23.497800 0.000000
-23.470300 0.000000
-23.442900 0.000000
-23.415500 0.000000
-23.388000 0.000000
-23.360600 0.000000
-23.333200 0.000000
-23.305700 0.000000
-23.278300 0.000000
-23.250900 0.000000
-23.223400 0.000000
-23.196000 0.000000
-23.168600 0.000000
-23.141100 0.000000
-23.113700 0.000000
-23.086300 0.000000
-23.058800 0.000000
-23.031400 0.000000
-23.004000 0.000000
-22.976500 0.000000
-22.949100 0.000000
-22.921700 0.000000
-22.894200 0.000000
-22.866800 0.000000
-22.839400 0.000000
-22.811900 0.000000
-22.784500 0.000000
-22.757100 0.000000
-22.729600 0.000000
-22.702200 0.000000
-22.674800 0.000000
-22.647300 0.000000
-22.619900 0.000000
-22.592500 0.000000
-22.565000 0.000000
-22.537600 0.000000
-22.510200 0.000000
-22.482700 0.000000
-22.455300 0.000000
-22.427900 0.000000
-22.400400 0.000000
-22.373000 0.000000
-22.345600 0.000000
-22.318100 0.000000
-22.290700 0.000000
-22.263300 0.000000
-22.235800 0.000000
-22.208400 0.000000
-22.181000 0.000000
-22.153500 0.000000
-22.126100 0.000000
-22.098700 0.000000
-22.071200 0.000000
-22.043800 0.000000
-22.016400 0.000000
-21.988900 0.000000
-21.961500 0.000000
-21.934100 0.000000
-21.906600 0.000000
-21.879200 0.000000
-21.851800 0.000000
-21.824300 0.000000
-21.796900 0.000000
-21.769500 0.000000
-21.742000 0.000000
-21.714600 0.000000
-21.687200 0.000000
-21.659700 0.000000
-21.632300 0.000000
-21.604900 0.000000
-21.577400 0.000000
-21.550000 0.000000
-21.522600 0.000000
-21.495100 0.000000
-21.467700 0.000000
-21.440300 0.000000
-21.412800 0.000000
-21.385400 0.000000
-21.358000 0.000000
-21.330500 0.000000
-21.303100 0.000000
-21.275700 0.000000
-21.248200 0.000000
-21.220800 0.000000
-21.193400 0.000000
-21.165900 0.000000
-21.138500 0.000000
-21.111100 0.000000
-21.083600 0.000000
-21.056200 0.000000
-21.028800 0.000000
-21.001300 0.000000
-20.973900 0.000000
-20.946500 0.000000
-20.919000 0.000000
-20.891600 0.000000
-20.864200 0.000000
-20.836700 0.000000
-20.809300 0.000000
-20.781900 0.000000
-20.754400 0.000000
-20.727000 0.000000
-20.699600 0.000000
-20.672100 0.000000
-20.644700 0.000000
-20.617300 0.000000
-20.589800 0.000000
-20.562400 0.000000
-20.535000 0.000000
-20.507500 0.000000
-20.480100 0.000000
-20.452700 0.000000
-20.425200 0.000000
-20.397800 0.000000
-20.370400 0.000000
-20.342900 0.000000
-20.315500 0.000000
-20.288100 0.000000
-20.260600 0.000000
-20.233200 0.000000
-20.205800 0.000000
-20.178300 0.000000
-20.150900 0.000000
-20.123500 0.000000
-20.096000 0.000000
-20.068600 0.000000
-20.041200 0.000000
-20.013700 0.000000
-19.986300 0.000000
-19.958900 0.000000
-19.931400 0.000000
-19.904000 0.000000
-19.876600 0.000000
-19.849100 0.000000
-19.821700 0.000000
-19.794300 0.000000
-19.766800 0.000000
-19.739400 0.000000
-19.712000 0.000000
-19.684500 0.000000
-19.657100 0.000000
-19.629700 0.000000
-19.602200 0.000000
-19.574800 0.000000
-19.547400 0.000000
-19.519900 0.000000
-19.492500 0.000000
-19.465100 0.000000
-19.437600 0.000000
-19.410200 0.000000
-19.382800 0.000000
-19.355300 0.000000
-19.327900 0.000000
-19.300500 0.000000
-19.273000 0.000000
-19.245600 0.000000
-19.218200 0.000000
-19.190700 0.000000
-19.163300 0.000000
-19.135900 0.000000
-19.108400 0.000000
-19.081000 0.000000
-19.053600 0.000000
-19.026100 0.000000
-18.998700 0.000000
-18.971300 0.000000
-18.943800 0.000000
-18.916400 0.000000
-18.889000 0.000000
-18.861500 0.000000
-18.834100 0.000000
-18.806700 0.000000
-18.779200 0.000000
-18.751800 0.000000
-18.724400 0.000000
-18.696900 0.000000
-18.669500 0.000000
-18.642100 0.000000
-18.614600 0.000000
-18.587200 0.000000
-18.559800 0.000000
-18.532300 0.000000
-18.504900 0.000000
-18.477500 0.000000
-18.450000 0.000000
-18.422600 0.000000
-18.395200 0.000000
-18.367700 0.000000
-18.340300 0.000000
-18.312900 0.000000
-18.285400 0.000000
-18.258000 0.000000
-18.230600 0.000000
-18.203100 0.000000
-18.175700 0.000000
-18.148300 0.000000
-18.120800 0.000000
-18.093400 0.000000
-18.066000 0.000000
-18.038500 0.000000
-18.011100 0.000000
-17.983700 0.000000
-17.956200 0.000000
-17.928800 0.000000
-17.901400 0.000000
-17.873900 0.000000
-17.846500 0.000000
-17.819100 0.000000
-17.791600 0.000000
-17.764200 0.000000
-17.736800 0.000000
-17.709300 0.000000
-17.681900 0.000000
-17.654500 0.000000
-17.627000 0.000000
-17.599600 0.000000
-17.572200 0.000000
-17.544700 0.000000
-17.517300 0.000000
-17.489900 0.000000
-17.462400 0.000000
-17.435000 0.000000
-17.407600 0.000000
-17.380100 0.000000
-17.352700 0.000000
-17.325300 0.000000
-17.297800 0.000000
-17.270400 0.000000
-17.243000 0.000000
-17.215500 0.000000
-17.188100 0.000000
-17.160700 0.000000
-17.133200 0.000000
-17.105800 0.000000
-17.078400 0.000000
-17.050900 0.000000
-17.023500 0.000000
-16.996100 0.000000
-16.968600 0.000000
-16.941200 0.000000
-16.913800 0.000000
-16.886300 0.000000
-16.858900 0.000000
-16.831500 0.000000
-16.804000 0.000000
-16.776600 0.000000
-16.749200 0.000000
-16.721700 0.000000
-16.694300 0.000000
-16.666900 0.000000
-16.639400 0.000000
-16.612000 0.000000
-16.584600 0.000000
-16.557100 0.000000
-16.529700 0.000000
-16.502300 0.000000
-16.474800 0.000000
-16.447400 0.000000
-16.420000 0.000000
-16.392500 0.000000
-16.365100 0.000000
-16.337700 0.000000
-16.310200 0.000000
-16.282800 0.000000
-16.255400 0.000000
-16.227900 0.000000
-16.200500 0.000000
-16.173100 0.000000
-16.145600 0.000000
-16.118200 0.000000
-16.090800 0.000000
-16.063300 0.000000
-16.035900 0.000000
-16.008500 0.000000
-15.981000 0.000000
-15.953600 0.000000
-15.926200 0.000000
-15.898700 0.000000
-15.871300 0.000000
-15.843900 0.000000
-15.816400 0.000000
-15.789000 0.000000
-15.761600 0.000000
-15.734100 0.000000
-15.706700 0.000000
-15.679300 0.000000
-15.651800 0.000000
-15.624400 0.000000
-15.597000 0.000000
-15.569500 0.000000
-15.542100 0.000000
-15.514700 0.000000
-15.487200 0.000000
-15.459800 0.000000
-15.432400 0.000000
-15.404900 0.000000
-15.377500 0.000000
-15.350100 0.000000
-15.322600 0.000000
-15.295200 0.000000
-15.267800 0.000000
-15.240300 0.000000
-15.212900 0.000000
-15.185500 0.000000
-15.158000 0.000000
-15.130600 0.000000
-15.103200 0.000000
-15.075700 0.000000
-15.048300 0.000000
-15.020900 0.000000
-14.993400 0.000000
-14.966000 0.000000
-14.938600 0.000000
-14.911100 0.000000
-14.883700 0.000000
-14.856300 0.000000
-14.828800 0.000000
-14.801400 0.000000
-14.774000 0.000000
-14.746500 0.000000
-14.719100 0.000000
-14.691700 0.000000
-14.664200 0.000000
-14.636800 0.000000
-14.609400 0.000000
-14.581900 0.000000
-14.554500 0.000000
-14.527100 0.000000
-14.499600 0.000000
-14.472200 0.000000
-14.444800 0.000000
-14.417300 0.000000
-14.389900 0.000000
-14.362500 0.000000
-14.335000 0.000000
-14.307600 0.000000
-14.280200 0.000000
-14.252700 0.000000
-14.225300 0.000000
-14.197900 0.000000
-14.170400 0.000000
-14.143000 0.000000
-14.115600 0.000000
-14.088100 0.000000
-14.060700 0.000000
-14.033300 0.000000
-14.005800 0.000000
-13.978400 0.000000
-13.951000 0.000000
-13.923500 0.000000
-13.896100 0.000000
-13.868700 0.000000
-13.841200 0.000000
-13.813800 0.000000
-13.786400 0.000000
-13.758900 0.000000
-13.731500 0.000000
-13.704100 0.000000
-13.676600 0.000000
-13.649200 0.000000
-13.621800 0.000000
-13.594300 0.000000
-13.566900 0.000000
-13.539500 0.000000
-13.512000 0.000000
-13.484600 0.000000
-13.457200 0.000000
-13.429700 0.000000
-13.402300 0.000000
-13.374900 0.000000
-13.347400 0.000000
-13.320000 0.000000
-13.292600 0.000000
-13.265100 0.000000
-13.237700 0.000000
-13.210300 0.000000
-13.182800 0.000000
-13.155400 0.000000
-13.128000 0.000000
-13.100500 0.000000
-13.073100 0.000000
-13.045700 0.000000
-13.018200 0.000000
-12.990800 0.000000
-12.963400 0.000000
-12.935900 0.000000
-12.908500 0.000000
-12.881100 0.000000
-12.853600 0.000000
-12.826200 0.000000
-12.798800 0.000000
-12.771300 0.000000
-12.743900 0.000000
-12.716500 0.000000
-12.689000 0.000000
-12.661600 0.000000
-12.634200 0.000000
-12.606700 0.000000
-12.579300 0.000000
-12.551900 0.000000
-12.524400 0.000000
-12.497000 0.000000
-12.469600 0.000000
-12.442100 0.000000
-12.414700 0.000000
-12.387300 0.000000
-12.359800 0.000000
-12.332400 0.000000
-12.305000 0.000000
-12.277500 0.000000
-12.250100 0.000000
-12.222700 0.000000
-12.195200 0.000000
-12.167800 0.000000
-12.140400 0.000000
-12.112900 0.000000
-12.085500 0.000000
-12.058100 0.000000
-12.030600 0.000000
-12.003200 0.000000
-11.975800 0.000000
-11.948300 0.000000
-11.920900 0.000000
-11.893500 0.000000
-11.866000 0.000000
-11.838600 0.000000
-11.811200 0.000000
-11.783700 0.000000
-11.756300 0.000000
-11.728900 0.000000
-11.701400 0.000000
-11.674000 0.000000
-11.646600 0.000000
-11.619100 0.000000
-11.591700 0.000000
-11.564300 0.000000
-11.536800 0.000000
-11.509400 0.000000
-11.482000 0.000000
-11.454500 0.000000
-11.427100 0.000000
-11.399700 0.000000
-11.372200 0.000000
-11.344800 0.000000
-11.317400 0.000000
-11.289900 0.000000
-11.262500 0.000000
-11.235100 0.000000
-11.207600 0.000000
-11.180200 0.000000
-11.152800 0.000000
-11.125300 0.000000
-11.097900 0.000000
-11.070500 0.000000
-11.043000 0.000000
-11.015600 0.000000
-10.988200 0.000000
-10.960700 0.000000
-10.933300 0.000000
-10.905900 0.000000
-10.878400 0.000000
-10.851000 0.000000
-10.823600 0.000000
-10.796100 0.000000
-10.768700 0.000000
-10.741300 0.000000
-10.713800 0.000000
-10.686400 0.000000
-10.659000 0.000000
-10.631500 0.000000
-10.604100 0.000000
-10.576700 0.000000
-10.549200 0.000000
-10.521800 0.000000
-10.494400 0.000000
-10.466900 0.000000
-10.439500 0.000000
-10.412100 0.000000
-10.384600 0.000000
-10.357200 0.000000
-10.329800 0.000000
-10.302300 0.000000
-10.274900 0.000000
-10.247500 0.000000
-10.220000 0.000000
-10.192600 0.000000
-10.165200 0.000000
-10.137700 0.000000
-10.110300 0.000000
-10.082900 0.000000
-10.055400 0.000000
-10.028000 3.663800
-10.000600 5.199900
-9.973100 6.532800
-9.945700 10.603700
-9.918300 15.360500
-9.890800 26.756900
-9.863400 42.658200
-9.836000 53.426200
-9.808500 57.908600
-9.781100 50.138900
-9.753700 32.260300
-9.726200 79.040100
-9.698800 78.914000
-9.671400 62.619900
-9.643900 156.426600
-9.616500 108.889700
-9.589100 75.782500
-9.561600 65.979500
-9.534200 62.792900
-9.506800 86.145900
-9.479300 31.844900
-9.451900 26.781900
-9.424500 10.749700
-9.397000 4.990300
-9.369600 3.600300
-9.342200 2.298600
-9.314700 0.000000
-9.287300 0.000000
-9.259900 0.000000
-9.232400 0.000000
-9.205000 0.000000
-9.177600 0.000000
-9.150100 0.000000
-9.122700 0.000000
-9.095300 0.000000
-9.067800 0.000000
-9.040400 0.000000
-9.013000 0.000000
-8.985500 0.000000
-8.958100 0.000000
-8.930700 0.000000
-8.903200 0.000000
-8.875800 0.000000
-8.848400 0.000000
-8.820900 0.000000
-8.793500 0.000000
-8.766100 0.000000
-8.738600 0.000000
-8.711200 0.000000
-8.683800 0.000000
-8.656300 0.000000
-8.628900 0.000000
-8.601500 0.000000
-8.574000 0.000000
-8.546600 0.000000
-8.519200 0.000000
-8.491700 0.000000
-8.464300 0.000000
-8.436900 0.000000
-8.409400 0.000000
-8.382000 0.000000
-8.354600 0.000000
-8.327100 0.000000
-8.299700 0.000000
-8.272300 0.000000
-8.244800 0.000000
-8.217400 0.000000
-8.190000 0.000000
-8.162500 0.000000
-8.135100 0.000000
-8.107700 0.000000
-8.080200 0.000000
-8.052800 0.000000
-8.025400 0.000000
-7.997900 0.000000
-7.970500 0.000000
-7.943100 0.000000
-7.915600 0.000000
-7.888200 0.000000
-7.860800 0.000000
-7.833300 0.000000
-7.805900 0.000000
-7.778500 0.000000
-7.751000 0.000000
-7.723600 0.000000
-7.696200 0.000000
-7.668700 0.000000
-7.641300 0.000000
-7.613900 0.000000
-7.586400 0.000000
-7.559000 0.000000
-7.531600 0.000000
-7.504100 0.000000
-7.476700 0.000000
-7.449300 0.000000
-7.421800 0.000000
-7.394400 0.000000
-7.367000 0.000000
-7.339500 0.000000
-7.312100 0.000000
-7.284700 0.000000
-7.257200 0.000000
-7.229800 0.000000
-7.202400 0.000000
-7.174900 0.000000
-7.147500 0.000000
-7.120100 0.000000
-7.092600 0.000000
-7.065200 0.000000
-7.037800 0.000000
-7.010300 0.000000
-6.982900 0.000000
-6.955500 0.000000
-6.928000 0.000000
-6.900600 0.000000
-6.873200 0.000000
-6.845700 0.000000
-6.818300 0.000000
-6.790900 0.000000
-6.763400 0.000000
-6.736000 0.000000
-6.708600 0.000000
-6.681100 0.000000
-6.653700 0.000000
-6.626300 0.000000
-6.598800 0.000000
-6.571400 0.000000
-6.544000 0.000000
-6.516500 0.000000
-6.489100 0.000000
-6.461700 0.000000
-6.434200 0.000000
-6.406800 0.000000
-6.379400 0.000000
-6.351900 0.000000
-6.324500 0.000000
-6.297100 0.000000
-6.269600 0.000000
-6.242200 0.000000
-6.214800 0.000000
-6.187300 0.000000
-6.159900 0.000000
-6.132500 0.000400
-6.105000 0.034000
-6.077600 0.096900
-6.050200 0.102500
-6.022700 0.124800
-5.995300 0.149600
-5.967900 0.168400
-5.940400 0.175700
-5.913000 0.186900
-5.885600 0.199900
-5.858100 0.214400
-5.830700 0.226200
-5.803300 0.238500
-5.775800 0.250000
-5.748400 0.257200
-5.721000 0.265400
-5.693500 0.274500
-5.666100 0.283900
-5.638700 0.293600
-5.611200 0.302400
-5.583800 0.311100
-5.556400 0.320700
-5.528900 0.330400
-5.501500 0.337300
-5.474100 0.344100
-5.446600 0.351000
-5.419200 0.358500
-5.391800 0.366500
-5.364300 0.374300
-5.336900 0.381500
-5.309500 0.388900
-5.282000 0.396300
-5.254600 0.403900
-5.227200 0.411800
-5.199700 0.420000
-5.172300 0.427000
-5.144900 0.433800
-5.117400 0.440700
-5.090000 0.447900
-5.062600 0.455100
-5.035100 0.462100
-5.007700 0.469000
-4.980300 0.476100
-4.952800 0.483600
-4.925400 0.491500
-4.898000 0.499800
-4.870500 0.508500
-4.843100 0.517500
-4.815700 0.527200
-4.788200 0.537200
-4.760800 0.546700
-4.733400 0.557400
-4.705900 0.571600
-4.678500 0.594700
-4.651100 0.626600
-4.623600 0.608300
-4.596200 0.609400
-4.568800 0.621900
-4.541300 0.622400
-4.513900 0.612300
-4.486500 0.614400
-4.459000 0.616100
-4.431600 0.617900
-4.404200 0.619300
-4.376700 0.618100
-4.349300 0.616800
-4.321900 0.621100
-4.294400 0.623300
-4.267000 0.624500
-4.239600 0.624800
-4.212100 0.625900
-4.184700 0.626000
-4.157300 0.624800
-4.129800 0.623900
-4.102400 0.624100
-4.075000 0.624700
-4.047500 0.625200
-4.020100 0.626300
-3.992700 0.628700
-3.965200 0.631300
-3.937800 0.633600
-3.910400 0.635600
-3.882900 0.637200
-3.855500 0.638000
-3.828100 0.637400
-3.800600 0.638700
-3.773200 0.640600
-3.745800 0.642500
-3.718300 0.645100
-3.690900 0.648300
-3.663500 0.651900
-3.636000 0.655900
-3.608600 0.660400
-3.581200 0.665700
-3.553700 0.671900
-3.526300 0.679400
-3.498900 0.689600
-3.471400 0.712100
-3.444000 0.732300
-3.416600 0.754700
-3.389100 0.774400
-3.361700 0.798100
-3.334300 0.809300
-3.306800 0.816200
-3.279400 0.819800
-3.252000 0.818000
-3.224500 0.856700
-3.197100 0.838900
-3.169700 0.813800
-3.142200 0.809100
-3.114800 0.757900
-3.087400 0.726800
-3.059900 0.703800
-3.032500 0.684300
-3.005100 0.666200
-2.977600 0.646200
-2.950200 0.627300
-2.922800 0.619100
-2.895300 0.610400
-2.867900 0.602000
-2.840500 0.591500
-2.813000 0.579900
-2.785600 0.569500
-2.758200 0.576000
-2.730700 0.604900
-2.703300 0.652400
-2.675900 0.738500
-2.648400 0.824200
-2.621000 0.900100
-2.593600 0.962300
-2.566100 0.998300
-2.538700 1.023300
-2.511300 1.035300
-2.483800 1.043500
-2.456400 1.042600
-2.429000 1.040200
-2.401500 1.035700
-2.374100 1.031400
-2.346700 1.029000
-2.319200 1.028800
-2.291800 1.018100
-2.264400 1.008400
-2.236900 1.001100
-2.209500 0.997800
-2.182100 0.996600
-2.154600 0.998300
-2.127200 0.999000
-2.099800 0.995700
-2.072300 0.991400
-2.044900 0.982500
-2.017500 0.973300
-1.990000 0.970000
-1.962600 0.963400
-1.935200 0.958000
-1.907700 0.953800
-1.880300 0.951100
-1.852900 0.948300
-1.825400 0.992000
-1.798000 0.984700
-1.770600 0.961400
-1.743100 0.935600
-1.715700 0.909000
-1.688300 0.897600
-1.660800 0.860000
-1.633400 0.788100
-1.606000 0.737800
-1.578500 0.733100
-1.551100 0.730000
-1.523700 0.726900
-1.496200 0.723800
-1.468800 0.721100
-1.441400 0.718400
-1.413900 0.715400
-1.386500 0.712400
-1.359100 0.707700
-1.331600 0.702200
-1.304200 0.696900
-1.276800 0.691700
-1.249300 0.687500
-1.221900 0.683400
-1.194500 0.679300
-1.167000 0.675000
-1.139600 0.669600
-1.112200 0.664100
-1.084700 0.660100
-1.057300 0.657100
-1.029900 0.769500
-1.002400 0.785900
-0.975000 0.797600
-0.947600 0.799600
-0.920100 0.808200
-0.892700 0.820300
-0.865300 0.847900
-0.837800 0.865600
-0.810400 0.878000
-0.783000 0.893600
-0.755500 0.904700
-0.728100 0.917700
-0.700700 0.943400
-0.673200 0.976500
-0.645800 1.000000
-0.618400 0.927400
-0.590900 0.964800
-0.563500 1.028700
-0.536100 1.115900
-0.508600 1.211600
-0.481200 1.283200
-0.453800 1.322100
-0.426300 1.323100
-0.398900 1.311800
-0.371500 1.303100
-0.344000 1.296900
-0.316600 1.292200
-0.289200 1.283700
-0.261700 1.275700
-0.234300 1.301000
-0.206900 1.295600
-0.179400 1.268100
-0.152000 1.225800
-0.124600 1.217500
-0.097100 1.214300
-0.069700 1.187700
-0.042300 1.178800
-0.014800 1.171800
0.012600 1.160400
0.040000 1.149300
0.067500 1.142400
0.094900 1.138400
0.122300 1.142000
0.149800 1.126600
0.177200 1.108700
0.204600 1.101100
0.232100 1.099100
0.259500 1.096800
0.286900 1.090100
0.314400 1.085100
0.341800 1.082500
0.369200 1.088400
0.396700 1.084800
0.424100 1.074800
0.451500 1.071800
0.479000 1.073000
0.506400 1.070700
0.533800 1.069900
0.561300 1.061900
0.588700 1.051300
0.616100 1.053300
0.643600 1.060800
0.671000 1.070000
0.698400 1.079300
0.725900 1.090600
0.753300 1.135700
0.780700 1.156500
0.808200 1.155900
0.835600 1.142400
0.863000 1.106700
0.890500 1.081000
0.917900 1.031700
0.945300 0.989100
0.972800 0.942300
1.000200 0.911000
1.027600 0.911300
1.055100 0.916600
1.082500 0.921300
1.109900 0.930900
1.137400 0.897200
1.164800 0.859400
1.192200 0.853100
1.219700 0.835400
1.247100 0.818600
1.274500 0.805300
1.302000 0.790500
1.329400 0.814800
1.356800 0.976200
1.384300 0.967600
1.411700 0.903200
1.439100 0.795000
1.466600 0.781200
1.494000 0.796300
1.521400 0.834600
1.548900 0.873500
1.576300 0.914500
1.603700 0.955400
1.631200 0.985400
1.658600 1.003800
1.686000 1.022200
1.713500 1.039500
1.740900 1.100300
1.768300 1.175200
1.795800 1.216600
1.823200 1.253500
1.850600 1.315700
1.878100 1.407100
1.905500 1.521200
1.932900 1.638500
1.960400 1.684100
1.987800 1.683000
2.015200 1.650000
2.042700 1.649600
2.070100 1.672600
2.097500 1.624600
2.125000 1.575700
2.152400 1.522300
2.179800 1.488100
2.207300 1.472300
2.234700 1.472800
2.262100 1.476000
2.289600 1.472700
2.317000 1.477000
2.344400 1.479600
2.371900 1.485900
2.399300 1.508700
2.426700 1.537200
2.454200 1.566600
2.481600 1.573300
2.509000 1.617400
2.536500 1.681500
2.563900 1.738700
2.591300 1.807700
2.618800 1.730500
2.646200 1.621100
2.673600 1.584100
2.701100 1.544700
2.728500 1.547900
2.755900 1.536200
2.783400 1.508500
2.810800 1.467200
2.838200 1.444200
2.865700 1.441700
2.893100 1.483700
2.920500 1.563800
2.948000 1.665600
2.975400 1.787100
3.002800 1.955500
3.030300 2.020000
3.057700 2.117800
3.085100 2.146500
3.112600 2.112000
3.140000 2.084300
3.167400 2.071500
3.194900 2.047400
3.222300 2.038100
3.249700 2.036300
3.277200 2.044800
3.304600 2.071900
3.332000 2.102900
3.359500 2.163200
3.386900 2.263500
3.414300 2.236600
3.441800 2.243800
3.469200 2.225100
3.496600 2.265200
3.524100 2.306000
3.551500 2.362200
3.578900 2.434500
3.606400 2.515500
3.633800 2.545800
3.661200 2.625200
3.688700 2.743000
3.716100 2.832100
3.743500 3.029900
3.771000 3.291900
3.798400 3.679200
3.825800 3.995300
3.853300 4.079400
3.880700 4.025000
3.908100 3.730900
3.935600 3.247700
3.963000 3.063100
3.990400 3.028900
4.017900 2.813500
4.045300 2.636200
4.072700 2.557300
4.100200 2.523400
4.127600 2.529300
4.155000 2.548700
4.182500 2.537400
4.209900 2.507300
4.237300 2.463400
4.264800 2.393400
4.292200 2.339000
4.319600 2.324400
4.347100 2.322700
4.374500 2.342200
4.401900 2.368900
4.429400 2.366400
4.456800 2.370000
4.484200 2.377800
4.511700 2.381100
4.539100 2.407300
4.566500 2.483300
4.594000 2.547500
4.621400 2.578700
4.648800 2.625900
4.676300 2.737100
4.703700 2.888600
4.731100 2.453700
4.758600 2.069000
4.786000 1.934900
4.813400 1.837000
4.840900 1.762100
4.868300 1.678100
4.895700 1.627200
4.923200 1.589000
4.950600 1.559900
4.978000 1.540400
5.005500 1.521800
5.032900 1.499000
5.060300 1.487900
5.087800 1.408900
5.115200 1.346500
5.142600 1.328100
5.170100 1.321300
5.197500 1.311600
5.224900 1.303300
5.252400 1.306800
5.279800 1.321900
5.307200 1.305600
5.334700 1.256400
5.362100 1.224400
5.389500 1.201700
5.417000 1.183500
5.444400 1.189100
5.471800 1.203700
5.499300 1.216700
5.526700 1.191900
5.554100 1.107100
5.581600 1.065500
5.609000 1.103200
5.636400 1.175700
5.663900 1.101800
5.691300 1.091700
5.718700 1.075700
5.746200 0.984000
5.773600 0.864600
5.801000 0.794500
5.828500 0.864400
5.855900 0.993700
5.883300 1.159800
5.910800 1.127000
5.938200 0.740800
5.965600 0.681500
5.993100 0.686300
6.020500 0.840400
6.047900 1.130300
6.075400 1.369600
6.102800 1.730100
6.130200 2.067800
6.157700 2.496000
6.185100 3.128800
6.212500 3.464500
6.240000 3.799300
6.267400 4.210500
6.294800 4.028300
6.322300 3.805800
6.349700 3.708200
6.377100 3.536100
6.404600 3.408400
6.432000 3.445200
6.459400 3.657400
6.486900 4.402700
6.514300 5.178800
6.541700 5.114700
6.569200 5.262500
6.596600 6.191700
6.624000 4.992100
6.651500 4.535000
6.678900 5.631500
6.706300 5.739900
6.733800 5.881800
6.761200 4.525400
6.788600 3.909100
6.816100 3.037600
6.843500 2.586400
6.870900 2.347500
6.898400 2.153500
6.925800 2.042900
6.953200 2.041300
6.980700 2.104800
7.008100 2.846100
7.035500 3.517900
7.063000 3.861500
7.090400 4.369400
7.117800 4.272600
7.145300 4.597600
7.172700 4.661000
7.200100 4.750400
7.227600 4.822600
7.255000 4.882000
7.282400 4.769100
7.309900 4.569600
7.337300 4.442800
7.364700 4.194600
7.392200 3.956700
7.419600 3.425700
7.447000 2.908000
7.474500 2.701900
7.501900 3.179300
7.529300 3.146700
7.556800 3.832300
7.584200 3.426500
7.611600 3.265800
7.639100 3.188600
7.666500 3.025100
7.693900 2.956300
7.721400 2.859900
7.748800 2.745700
7.776200 2.759400
7.803700 2.830100
7.831100 2.979800
7.858500 3.041800
7.886000 2.973200
7.913400 2.925300
7.940800 2.983900
7.968300 3.034400
7.995700 2.690100
8.023100 2.496000
8.050600 2.400900
8.078000 2.331200
8.105400 2.250300
8.132900 2.236500
8.160300 2.203800
8.187700 2.123700
8.215200 2.052100
8.242600 1.991900
8.270000 1.956500
8.297500 1.909100
8.324900 1.870600
8.352300 1.939600
8.379800 2.044100
8.407200 1.983800
8.434600 1.974400
8.462100 1.990500
8.489500 2.024300
8.516900 2.048300
8.544400 2.063600
8.571800 2.079900
8.599200 2.090100
8.626700 2.095800
8.654100 2.121100
8.681500 2.131500
8.709000 2.132600
8.736400 2.136100
8.763800 2.122200
8.791300 2.104600
8.818700 2.095800
8.846100 2.062400
8.873600 2.055500
8.901000 2.027700
8.928400 1.977900
8.955900 1.948900
8.983300 1.914100
9.010700 1.896300
9.038200 1.884000
9.065600 1.872200
9.093000 1.864800
9.120500 1.862000
9.147900 1.861200
9.175300 1.865400
9.202800 1.864600
9.230200 1.831700
9.257600 1.779500
9.285100 1.799300
9.312500 1.848900
9.339900 1.886000
9.367400 1.915600
9.394800 1.921500
9.422200 1.923300
9.449700 1.914000
9.477100 1.903700
9.504500 1.909600
9.532000 1.879800
9.559400 1.917400
9.586800 1.908900
9.614300 1.901800
9.641700 1.864000
9.669100 1.848200
9.696600 1.857300
9.724000 1.857100
9.751400 1.863600
9.778900 1.861300
9.806300 1.886000
9.833700 1.893500
9.861200 1.961600
9.888600 2.011900
9.916000 2.057400
9.943500 2.028000
9.970900 2.065700
9.998300 2.103500
10.025800 2.104000
10.053200 2.108400
10.080600 2.149100
10.108100 2.066300
10.135500 1.855700
10.162900 1.706700
10.190400 1.640000
10.217800 1.609400
10.245200 1.590900
10.272700 1.583700
10.300100 1.635700
10.327500 1.668800
10.355000 1.675100
10.382400 1.685600
10.409800 1.615500
10.437300 1.546000
10.464700 1.564200
10.492100 1.610600
10.519600 1.641400
10.547000 1.790200
10.574400 1.788300
10.601900 1.713700
10.629300 1.717300
10.656700 1.879900
10.684200 2.084300
10.711600 2.294200
10.739000 2.453200
10.766500 2.470700
10.793900 2.414000
10.821300 2.331500
10.848800 2.222900
10.876200 2.174800
10.903600 2.197200
10.931100 2.203000
10.958500 2.232000
10.985900 2.301500
11.013400 2.245400
11.040800 2.236700
11.068200 2.257100
11.095700 2.285400
11.123100 2.279100
11.150500 2.212400
11.178000 2.175400
11.205400 2.079500
11.232800 1.957500
11.260300 1.808100
11.287700 1.654900
11.315100 1.545200
11.342600 1.474500
11.370000 1.492800
11.397400 1.579200
11.424900 1.757500
11.452300 1.776000
11.479700 1.788500
11.507200 1.835000
11.534600 1.940200
11.562000 2.035900
11.589500 2.130600
11.616900 2.139100
11.644300 2.265000
11.671800 2.196900
11.699200 2.075200
11.726600 1.991000
11.754100 1.951000
11.781500 1.942400
11.808900 1.858700
11.836400 1.767500
11.863800 1.728400
11.891200 1.737200
11.918700 1.774100
11.946100 1.819700
11.973500 1.866800
12.001000 2.011500
12.028400 2.145900
12.055800 2.187000
12.083300 2.179300
12.110700 2.123000
12.138100 2.132700
12.165600 2.096400
12.193000 2.098900
12.220400 2.143100
12.247900 2.166800
12.275300 2.148900
12.302700 2.168800
12.330200 2.196300
12.357600 2.172000
12.385000 2.171700
12.412500 2.175800
12.439900 2.153400
12.467300 2.037900
12.494800 1.953900
12.522200 1.906800
12.549600 1.888600
12.577100 1.922000
12.604500 2.012200
12.631900 2.057000
12.659400 2.086100
12.686800 2.006900
12.714200 1.974900
12.741700 1.937300
12.769100 1.901700
12.796500 1.828900
12.824000 1.788100
12.851400 1.742300
12.878800 1.692500
12.906300 1.651500
12.933700 1.622100
12.961100 1.624200
12.988600 1.620000
13.016000 1.645500
13.043400 1.693800
13.070900 1.727300
13.098300 1.762600
13.125700 1.789400
13.153200 1.820500
13.180600 1.836100
13.208000 1.851900
13.235500 1.867000
13.262900 1.889400
13.290300 1.920600
13.317800 1.941800
13.345200 1.970600
13.372600 1.975000
13.400100 1.976200
13.427500 1.969300
13.454900 1.981300
13.482400 1.981500
13.509800 1.999400
13.537200 1.981100
13.564700 2.015200
13.592100 2.098400
13.619500 2.140800
13.647000 2.161400
13.674400 2.179300
13.701800 2.158500
13.729300 2.177600
13.756700 2.190700
13.784100 2.171800
13.811600 2.165600
13.839000 2.136800
13.866400 2.071400
13.893900 1.990700
13.921300 1.905700
13.948700 1.878600
13.976200 1.863700
14.003600 1.870900
14.031000 1.915500
14.058500 1.887700
14.085900 1.893200
14.113300 1.913100
14.140800 1.917700
14.168200 1.914500
14.195600 1.915800
14.223100 1.950500
14.250500 1.958200
14.277900 1.964000
14.305400 1.965200
14.332800 2.008600
14.360200 2.032100
14.387700 2.025300
14.415100 1.981700
14.442500 1.981000
14.470000 1.926500
14.497400 1.896200
14.524800 1.876200
14.552300 1.864900
14.579700 1.860400
14.607100 1.850900
14.634600 1.795500
14.662000 1.705700
14.689400 1.682600
14.716900 1.685400
14.744300 1.683000
14.771700 1.701300
14.799200 1.738100
14.826600 1.794000
14.854000 1.827400
14.881500 1.805200
14.908900 1.813400
14.936300 1.814400
14.963800 1.812000
14.991200 1.786200
15.018600 1.757900
15.046100 1.757000
15.073500 1.751900
15.100900 1.722300
15.128400 1.699500
15.155800 1.666300
15.183200 1.650400
15.210700 1.665000
15.238100 1.670400
15.265500 1.725600
15.293000 1.785800
15.320400 1.824500
15.347800 1.832800
15.375300 1.882200
15.402700 1.989500
15.430100 2.084500
15.457600 2.103100
15.485000 2.113700
15.512400 2.079300
15.539900 2.040000
15.567300 1.999500
15.594700 1.962300
15.622200 1.923900
15.649600 1.880600
15.677000 1.886300
15.704500 1.845300
15.731900 1.847200
15.759300 1.853600
15.786800 1.867000
15.814200 1.855300
15.841600 1.821000
15.869100 1.690000
15.896500 1.680600
15.923900 1.674600
15.951400 1.682100
15.978800 1.691300
16.006200 1.717100
16.033700 1.717400
16.061100 1.742200
16.088500 1.743900
16.116000 1.724500
16.143400 1.698400
16.170800 1.673500
16.198300 1.646600
16.225700 1.622100
16.253100 1.614700
16.280600 1.579000
16.308000 1.567800
16.335400 1.556800
16.362900 1.551500
16.390300 1.551700
16.417700 1.549600
16.445200 1.547100
16.472600 1.541200
16.500000 1.536300
16.527500 1.533900
16.554900 1.532100
16.582300 1.530900
16.609800 1.533000
16.637200 1.516000
16.664600 1.505300
16.692100 1.499300
16.719500 1.526900
16.746900 1.601300
16.774400 1.671800
16.801800 1.669600
16.829200 1.626100
16.856700 1.656300
16.884100 1.648900
16.911500 1.658900
16.939000 1.646500
16.966400 1.639600
16.993800 1.671200
17.021300 1.721200
17.048700 1.777700
17.076100 1.879900
17.103600 1.978200
17.131000 2.055200
17.158400 2.057400
17.185900 1.977200
17.213300 1.946100
17.240700 1.929100
17.268200 1.920800
17.295600 1.928800
17.323000 1.910700
17.350500 1.906700
17.377900 1.891400
17.405300 1.898700
17.432800 1.923300
17.460200 1.954700
17.487600 1.924700
17.515100 1.879700
17.542500 1.832500
17.569900 1.799300
17.597400 1.769300
17.624800 1.734400
17.652200 1.697400
17.679700 1.656700
17.707100 1.624900
17.734500 1.591300
17.762000 1.572200
17.789400 1.573000
17.816800 1.584800
17.844300 1.581900
17.871700 1.620800
17.899100 1.621200
17.926600 1.587800
17.954000 1.527700
17.981400 1.541700
18.008900 1.551400
18.036300 1.559500
18.063700 1.564400
18.091200 1.563500
18.118600 1.641900
18.146000 1.602400
18.173500 1.596500
18.200900 1.591500
18.228300 1.606400
18.255800 1.660200
18.283200 1.662000
18.310600 1.688100
18.338100 1.710600
18.365500 1.711700
18.392900 1.710900
18.420400 1.705200
18.447800 1.694600
18.475200 1.700100
18.502700 1.705300
18.530100 1.724000
18.557500 1.753800
18.585000 1.798900
18.612400 1.819400
18.639800 1.888500
18.667300 1.996300
18.694700 2.044700
18.722100 1.989100
18.749600 1.944900
18.777000 1.922600
18.804400 1.919700
18.831900 1.936900
18.859300 1.849500
18.886700 1.838600
18.914200 1.840500
18.941600 1.845100
18.969000 1.869500
18.996500 1.821400
19.023900 1.749200
19.051300 1.711900
19.078800 1.684500
19.106200 1.653400
19.133600 1.648300
19.161100 1.664500
19.188500 1.677600
19.215900 1.668200
19.243400 1.679200
19.270800 1.652900
19.298200 1.619200
19.325700 1.587800
19.353100 1.569400
19.380500 1.546400
19.408000 1.537900
19.435400 1.547500
19.462800 1.549000
19.490300 1.508000
19.517700 1.443700
19.545100 1.371200
19.572600 1.322700
19.600000 1.288000
19.627400 1.257200
19.654900 1.233200
19.682300 1.214100
19.709700 1.197300
19.737200 1.181600
19.764600 1.173100
19.792000 1.188600
19.819500 1.159600
19.846900 1.131200
19.874300 1.106400
19.901800 1.095400
19.929200 1.073800
19.956600 1.060600
19.984100 1.040900
20.011500 1.007100
20.038900 0.973900
20.066400 0.936800
20.093800 0.907400
20.121200 0.886500
20.148700 0.887400
20.176100 0.909500
20.203500 0.955300
20.231000 1.000400
20.258400 1.018300
20.285800 0.993400
20.313300 0.913900
20.340700 0.881900
20.368100 0.839600
20.395600 0.828000
20.423000 0.822400
20.450400 0.782700
20.477900 0.751400
20.505300 0.729100
20.532700 0.713500
20.560200 0.695300
20.587600 0.654500
20.615000 0.603700
20.642500 0.549600
20.669900 0.509500
20.697300 0.467400
20.724800 0.426200
20.752200 0.388800
20.779600 0.363900
20.807100 0.341800
20.834500 0.322400
20.861900 0.308300
20.889400 0.297300
20.916800 0.281400
20.944200 0.244100
20.971700 0.211600
20.999100 0.182400
21.026500 0.155500
21.054000 0.130800
21.081400 0.113600
21.108800 0.101400
21.136300 0.091400
21.163700 0.080900
21.191100 0.071900
21.218600 0.064600
21.246000 0.059200
21.273400 0.055800
21.300900 0.053100
21.328300 0.050500
21.355700 0.047900
21.383200 0.045400
21.410600 0.043000
21.438000 0.040600
21.465500 0.038500
21.492900 0.037400
21.520300 0.036300
21.547800 0.035200
21.575200 0.034300
21.602600 0.035700
21.630100 0.036500
21.657500 0.031300
21.684900 0.021800
21.712400 0.009600
21.739800 0.001100
21.767200 0.000000
21.794700 0.000000
21.822100 0.000000
21.849500 0.000000
21.877000 0.000000
21.904400 0.000000
21.931800 0.000000
21.959300 0.000000
21.986700 0.000000
22.014100 0.000000
22.041600 0.000000
22.069000 0.000000
22.096400 0.000000
22.123900 0.000000
22.151300 0.000000
22.178700 0.000000
22.206200 0.000000
22.233600 0.000000
22.261000 0.000000
22.288500 0.000000
22.315900 0.000000
22.343300 0.000000
22.370800 0.000000
22.398200 0.000000
22.425600 0.000000
22.453100 0.000000
22.480500 0.000000
22.507900 0.000000
22.535400 0.000000
22.562800 0.000000
22.590200 0.000000
22.617700 0.000000
22.645100 0.000000
22.672500 0.000000
22.700000 0.000000
22.727400 0.000000
22.754800 0.000000
22.782300 0.000000
22.809700 0.000000
22.837100 0.000000
22.864600 0.000000
22.892000 0.000000
22.919400 0.000000
22.946900 0.000000
22.974300 0.000000
23.001700 0.000000
23.029200 0.000000
23.056600 0.000000
23.084000 0.000000
23.111500 0.000000
23.138900 0.000000
23.166300 0.000000
23.193800 0.000000
23.221200 0.000000
23.248600 0.000000
23.276100 0.000000
23.303500 0.000000
23.330900 0.000000
23.358400 0.000000
23.385800 0.000000
23.413200 0.000000
23.440700 0.000000
23.468100 0.000000
23.495500 0.000000
23.523000 0.000000
23.550400 0.000000
23.577800 0.000000
23.605300 0.000000
23.632700 0.000000
23.660100 0.000000
23.687600 0.000000
23.715000 0.000000
23.742400 0.000000
23.769900 0.000000
23.797300 0.000000
23.824700 0.000000
23.852200 0.000000
23.879600 0.000000
23.907000 0.000000
23.934500 0.000000
23.961900 0.000000
23.989300 0.000000
24.016800 0.000000
24.044200 0.000000
24.071600 0.000000
24.099100 0.000000
24.126500 0.000000
24.153900 0.000000
24.181400 0.000000
24.208800 0.000000
24.236200 0.000000
24.263700 0.000000
e
