set title 'mp-1206731 - Density of States'
set xlabel 'Energy (eV)'
set ylabel 'DOS (states/eV)'
set grid
set xrange [-10:10]
set yrange [0:7.295]
set xzeroaxis lt -1
set terminal png size 800,600
set output 'mp-1206731_dos_gnuplot.png'
plot '-' using 1:2 with lines title 'DOS'
-22.774100 0.000000
-22.749200 0.000000
-22.724300 0.000000
-22.699400 0.000000
-22.674600 0.000000
-22.649700 0.000000
-22.624800 0.000000
-22.599900 0.000000
-22.575000 0.000000
-22.550200 0.000000
-22.525300 0.000000
-22.500400 0.000000
-22.475500 0.000000
-22.450600 0.000000
-22.425800 0.000000
-22.400900 0.000000
-22.376000 0.000000
-22.351100 0.000000
-22.326200 0.000000
-22.301400 0.000000
-22.276500 0.000000
-22.251600 0.000000
-22.226700 0.000000
-22.201800 0.000000
-22.177000 0.000000
-22.152100 0.000000
-22.127200 0.000000
-22.102300 0.000000
-22.077400 0.000000
-22.052600 0.000000
-22.027700 0.000000
-22.002800 0.000000
-21.977900 0.000000
-21.953000 0.000000
-21.928200 0.000000
-21.903300 0.000000
-21.878400 0.000000
-21.853500 0.000000
-21.828600 0.000000
-21.803800 0.000000
-21.778900 0.000000
-21.754000 0.000000
-21.729100 0.000000
-21.704300 0.000000
-21.679400 0.000000
-21.654500 0.000000
-21.629600 0.000000
-21.604700 0.000000
-21.579900 0.000000
-21.555000 0.000000
-21.530100 0.000000
-21.505200 0.000000
-21.480300 0.000000
-21.455500 0.000000
-21.430600 0.000000
-21.405700 0.000000
-21.380800 0.000000
-21.355900 0.000000
-21.331100 0.000000
-21.306200 0.000000
-21.281300 0.000000
-21.256400 0.000000
-21.231500 0.000000
-21.206700 0.000000
-21.181800 0.000000
-21.156900 0.000000
-21.132000 0.000000
-21.107100 0.000000
-21.082300 0.000000
-21.057400 0.000000
-21.032500 0.000000
-21.007600 0.000000
-20.982700 0.000000
-20.957900 0.000000
-20.933000 0.000000
-20.908100 0.000000
-20.883200 0.000000
-20.858300 0.000000
-20.833500 0.000000
-20.808600 0.000000
-20.783700 0.000000
-20.758800 0.000000
-20.733900 0.000000
-20.709100 0.000000
-20.684200 0.000000
-20.659300 0.000000
-20.634400 0.000000
-20.609500 0.000000
-20.584700 0.000000
-20.559800 0.000000
-20.534900 0.000000
-20.510000 0.011400
-20.485100 1.111500
-20.460300 1.257600
-20.435400 2.646000
-20.410500 3.644800
-20.385600 4.658400
-20.360800 5.416100
-20.335900 6.589900
-20.311000 7.120400
-20.286100 6.036100
-20.261200 5.952300
-20.236400 5.847900
-20.211500 4.635000
-20.186600 3.721500
-20.161700 2.537300
-20.136800 1.970900
-20.112000 1.671400
-20.087100 1.469200
-20.062200 1.435700
-20.037300 1.401600
-20.012400 1.465200
-19.987600 2.930100
-19.962700 2.803100
-19.937800 2.744200
-19.912900 2.755300
-19.888000 2.720100
-19.863200 2.972000
-19.838300 3.040800
-19.813400 3.039500
-19.788500 3.413600
-19.763600 3.640500
-19.738800 3.747300
-19.713900 3.344000
-19.689000 3.144500
-19.664100 3.417000
-19.639200 2.922900
-19.614400 3.140400
-19.589500 5.975800
-19.564600 6.255000
-19.539700 6.198800
-19.514800 8.432400
-19.490000 8.244800
-19.465100 11.068100
-19.440200 10.922000
-19.415300 12.577300
-19.390400 20.313500
-19.365600 17.457700
-19.340700 8.281300
-19.315800 4.093300
-19.290900 1.811000
-19.266000 0.000000
-19.241200 0.000000
-19.216300 0.000000
-19.191400 0.000000
-19.166500 0.000000
-19.141600 0.000000
-19.116800 0.000000
-19.091900 0.000000
-19.067000 0.000000
-19.042100 0.000000
-19.017300 0.000000
-18.992400 0.000000
-18.967500 0.000000
-18.942600 0.000000
-18.917700 0.000000
-18.892900 0.000000
-18.868000 0.000000
-18.843100 0.000000
-18.818200 0.000000
-18.793300 0.000000
-18.768500 0.000000
-18.743600 0.000000
-18.718700 0.000000
-18.693800 0.000000
-18.668900 0.000000
-18.644100 0.000000
-18.619200 0.000000
-18.594300 0.000000
-18.569400 0.000000
-18.544500 0.000000
-18.519700 0.000000
-18.494800 0.000000
-18.469900 0.000000
-18.445000 0.000000
-18.420100 0.000000
-18.395300 0.000000
-18.370400 0.000000
-18.345500 0.000000
-18.320600 0.000000
-18.295700 0.000000
-18.270900 0.000000
-18.246000 0.000000
-18.221100 0.000000
-18.196200 0.000000
-18.171300 0.000000
-18.146500 0.000000
-18.121600 0.000000
-18.096700 0.000000
-18.071800 0.000000
-18.046900 0.000000
-18.022100 0.000000
-17.997200 0.000000
-17.972300 0.000000
-17.947400 0.000000
-17.922500 0.000000
-17.897700 0.000000
-17.872800 0.000000
-17.847900 0.000000
-17.823000 0.000000
-17.798100 0.000000
-17.773300 0.000000
-17.748400 0.000000
-17.723500 0.000000
-17.698600 0.000000
-17.673800 0.000000
-17.648900 0.000000
-17.624000 0.000000
-17.599100 0.000000
-17.574200 0.000000
-17.549400 0.000000
-17.524500 0.000000
-17.499600 0.000000
-17.474700 0.000000
-17.449800 0.000000
-17.425000 0.000000
-17.400100 0.000000
-17.375200 0.000000
-17.350300 0.000000
-17.325400 0.000000
-17.300600 0.000000
-17.275700 0.000000
-17.250800 0.000000
-17.225900 0.000000
-17.201000 0.000000
-17.176200 0.000000
-17.151300 0.000000
-17.126400 0.000000
-17.101500 0.000000
-17.076600 0.000000
-17.051800 0.000000
-17.026900 0.000000
-17.002000 0.000000
-16.977100 0.000000
-16.952200 0.000000
-16.927400 0.000000
-16.902500 0.000000
-16.877600 0.000000
-16.852700 0.000000
-16.827800 0.000000
-16.803000 0.000000
-16.778100 0.000000
-16.753200 0.000000
-16.728300 0.000000
-16.703400 0.000100
-16.678600 0.020600
-16.653700 0.071400
-16.628800 0.125200
-16.603900 0.155700
-16.579000 0.180800
-16.554200 0.216600
-16.529300 0.255500
-16.504400 0.297200
-16.479500 0.344000
-16.454600 0.397100
-16.429800 0.456800
-16.404900 0.527400
-16.380000 0.610400
-16.355100 0.712000
-16.330300 0.876000
-16.305400 1.136300
-16.280500 1.344700
-16.255600 1.611400
-16.230700 1.870500
-16.205900 2.025900
-16.181000 1.742000
-16.156100 1.727300
-16.131200 1.790100
-16.106300 1.919500
-16.081500 2.673500
-16.056600 2.699700
-16.031700 2.492300
-16.006800 2.517800
-15.981900 2.609200
-15.957100 2.674900
-15.932200 2.453600
-15.907300 2.486700
-15.882400 2.487100
-15.857500 1.428200
-15.832700 1.653100
-15.807800 2.667400
-15.782900 1.749400
-15.758000 1.707400
-15.733100 1.667800
-15.708300 1.682100
-15.683400 1.707000
-15.658500 1.804400
-15.633600 2.023600
-15.608700 2.612900
-15.583900 5.209300
-15.559000 4.548200
-15.534100 3.119300
-15.509200 3.199200
-15.484300 0.019900
-15.459500 0.000000
-15.434600 0.000000
-15.409700 0.000000
-15.384800 0.000000
-15.359900 0.000000
-15.335100 0.000000
-15.310200 0.000000
-15.285300 0.000000
-15.260400 0.000000
-15.235500 0.000000
-15.210700 0.000000
-15.185800 0.000000
-15.160900 0.000000
-15.136000 0.000000
-15.111100 0.000000
-15.086300 0.000000
-15.061400 0.000000
-15.036500 0.000000
-15.011600 0.000000
-14.986700 0.000000
-14.961900 0.000000
-14.937000 0.000000
-14.912100 0.000000
-14.887200 0.000000
-14.862400 0.000000
-14.837500 0.228100
-14.812600 0.700100
-14.787700 0.853800
-14.762800 0.742800
-14.738000 0.720100
-14.713100 0.783700
-14.688200 0.824300
-14.663300 0.955100
-14.638400 1.142600
-14.613600 1.215800
-14.588700 1.334800
-14.563800 1.480800
-14.538900 1.697700
-14.514000 2.180100
-14.489200 2.830200
-14.464300 2.905700
-14.439400 2.918100
-14.414500 2.963700
-14.389600 2.998700
-14.364800 2.759500
-14.339900 2.545800
-14.315000 2.396800
-14.290100 2.358600
-14.265200 2.333100
-14.240400 2.365800
-14.215500 2.424300
-14.190600 2.481000
-14.165700 2.658600
-14.140800 2.976600
-14.116000 3.046500
-14.091100 3.006800
-14.066200 2.998000
-14.041300 3.241100
-14.016400 3.309100
-13.991600 2.627300
-13.966700 1.941000
-13.941800 1.846400
-13.916900 1.514700
-13.892000 0.961600
-13.867200 0.589300
-13.842300 0.198200
-13.817400 0.000000
-13.792500 0.000000
-13.767600 0.000000
-13.742800 0.000000
-13.717900 0.000000
-13.693000 0.000000
-13.668100 0.000000
-13.643200 0.000000
-13.618400 0.000000
-13.593500 0.000000
-13.568600 0.000000
-13.543700 0.000000
-13.518900 0.000000
-13.494000 0.000000
-13.469100 0.000000
-13.444200 0.000000
-13.419300 0.000000
-13.394500 0.000000
-13.369600 0.000000
-13.344700 0.000000
-13.319800 0.000000
-13.294900 0.000000
-13.270100 0.000000
-13.245200 0.000000
-13.220300 0.000000
-13.195400 0.000000
-13.170500 0.000000
-13.145700 0.000000
-13.120800 0.000000
-13.095900 0.000000
-13.071000 0.000000
-13.046100 0.000000
-13.021300 0.000000
-12.996400 0.000000
-12.971500 0.000000
-12.946600 0.000000
-12.921700 0.000000
-12.896900 0.000000
-12.872000 0.000000
-12.847100 0.000000
-12.822200 0.000000
-12.797300 0.000000
-12.772500 0.000000
-12.747600 0.000000
-12.722700 0.000000
-12.697800 0.000000
-12.672900 0.000000
-12.648100 0.000000
-12.623200 0.000000
-12.598300 0.000000
-12.573400 0.000000
-12.548500 0.000000
-12.523700 0.000000
-12.498800 0.000000
-12.473900 0.000000
-12.449000 0.000000
-12.424100 0.000000
-12.399300 0.000000
-12.374400 0.000000
-12.349500 0.000000
-12.324600 0.000000
-12.299700 0.000000
-12.274900 0.000000
-12.250000 0.000000
-12.225100 0.000000
-12.200200 0.000000
-12.175400 0.000000
-12.150500 0.000000
-12.125600 0.000000
-12.100700 0.000000
-12.075800 0.000000
-12.051000 0.000000
-12.026100 0.000000
-12.001200 0.000000
-11.976300 0.000000
-11.951400 0.000000
-11.926600 0.000000
-11.901700 0.000000
-11.876800 0.000000
-11.851900 0.000000
-11.827000 0.000000
-11.802200 0.000000
-11.777300 0.000000
-11.752400 0.000000
-11.727500 0.000000
-11.702600 0.000000
-11.677800 0.000000
-11.652900 0.000000
-11.628000 0.000000
-11.603100 0.000000
-11.578200 0.000000
-11.553400 0.000000
-11.528500 0.000000
-11.503600 0.000000
-11.478700 0.000000
-11.453800 0.000000
-11.429000 0.000000
-11.404100 0.000000
-11.379200 0.000000
-11.354300 0.000000
-11.329400 0.000000
-11.304600 0.000000
-11.279700 0.000000
-11.254800 0.000000
-11.229900 0.000000
-11.205000 0.000000
-11.180200 0.000000
-11.155300 0.000000
-11.130400 0.000000
-11.105500 0.000000
-11.080600 0.000000
-11.055800 0.000000
-11.030900 0.000000
-11.006000 0.000000
-10.981100 0.000000
-10.956200 0.000000
-10.931400 0.000000
-10.906500 0.000000
-10.881600 0.000000
-10.856700 0.000000
-10.831900 0.000000
-10.807000 0.000000
-10.782100 0.000000
-10.757200 0.000000
-10.732300 0.000000
-10.707500 0.000000
-10.682600 0.000000
-10.657700 0.000000
-10.632800 0.000000
-10.607900 0.000000
-10.583100 0.000000
-10.558200 0.000000
-10.533300 0.000000
-10.508400 0.000000
-10.483500 0.000000
-10.458700 0.000000
-10.433800 0.000000
-10.408900 0.000000
-10.384000 0.000000
-10.359100 0.000000
-10.334300 0.000000
-10.309400 0.000000
-10.284500 0.000000
-10.259600 0.000000
-10.234700 0.000000
-10.209900 0.000000
-10.185000 0.000000
-10.160100 0.000000
-10.135200 0.000000
-10.110300 0.000000
-10.085500 0.000000
-10.060600 0.000000
-10.035700 0.000000
-10.010800 0.000000
-9.985900 0.000000
-9.961100 0.000000
-9.936200 0.000000
-9.911300 0.000000
-9.886400 0.000000
-9.861500 0.000000
-9.836700 0.000000
-9.811800 0.000000
-9.786900 0.000000
-9.762000 0.000000
-9.737100 0.000000
-9.712300 0.000000
-9.687400 0.000000
-9.662500 0.000000
-9.637600 0.000000
-9.612700 0.000000
-9.587900 0.000000
-9.563000 0.000000
-9.538100 0.000000
-9.513200 0.000000
-9.488400 0.000000
-9.463500 0.000000
-9.438600 0.000000
-9.413700 0.000000
-9.388800 0.000000
-9.364000 0.000000
-9.339100 0.000000
-9.314200 0.000000
-9.289300 0.000000
-9.264400 0.000000
-9.239600 0.000000
-9.214700 0.000000
-9.189800 0.000000
-9.164900 0.000000
-9.140000 0.000000
-9.115200 0.000000
-9.090300 0.000000
-9.065400 0.000000
-9.040500 0.000000
-9.015600 0.000000
-8.990800 0.000000
-8.965900 0.000000
-8.941000 0.000000
-8.916100 0.000000
-8.891200 0.000000
-8.866400 0.000000
-8.841500 0.000000
-8.816600 0.000000
-8.791700 0.000000
-8.766800 0.000000
-8.742000 0.000000
-8.717100 0.000000
-8.692200 0.000000
-8.667300 0.000000
-8.642400 0.000000
-8.617600 0.000000
-8.592700 0.000000
-8.567800 0.000000
-8.542900 0.000000
-8.518000 0.000000
-8.493200 0.000000
-8.468300 0.000000
-8.443400 0.000000
-8.418500 0.000000
-8.393600 0.000000
-8.368800 0.000000
-8.343900 0.000000
-8.319000 0.000000
-8.294100 0.000000
-8.269200 0.000000
-8.244400 0.000000
-8.219500 0.000000
-8.194600 0.000000
-8.169700 0.000000
-8.144900 0.000000
-8.120000 0.000000
-8.095100 0.000000
-8.070200 0.000000
-8.045300 0.000000
-8.020500 0.000000
-7.995600 0.000000
-7.970700 0.000000
-7.945800 0.000000
-7.920900 0.000000
-7.896100 0.000000
-7.871200 0.000000
-7.846300 0.000000
-7.821400 0.000000
-7.796500 0.000000
-7.771700 0.000000
-7.746800 0.000000
-7.721900 0.000000
-7.697000 0.000000
-7.672100 0.000000
-7.647300 0.000000
-7.622400 0.000000
-7.597500 0.000000
-7.572600 0.000000
-7.547700 0.000000
-7.522900 0.000000
-7.498000 0.000000
-7.473100 0.000000
-7.448200 0.000000
-7.423300 0.000000
-7.398500 0.000000
-7.373600 0.000000
-7.348700 0.000000
-7.323800 0.000000
-7.298900 0.000000
-7.274100 0.000000
-7.249200 0.000000
-7.224300 0.000000
-7.199400 0.000000
-7.174500 0.000000
-7.149700 0.000000
-7.124800 0.000000
-7.099900 0.000000
-7.075000 0.000000
-7.050100 0.000000
-7.025300 0.000000
-7.000400 0.000000
-6.975500 0.000000
-6.950600 0.000000
-6.925700 0.000000
-6.900900 0.000000
-6.876000 0.000000
-6.851100 0.000000
-6.826200 0.000000
-6.801400 0.000000
-6.776500 0.000000
-6.751600 0.000000
-6.726700 0.000000
-6.701800 0.000000
-6.677000 0.000000
-6.652100 0.000000
-6.627200 0.000000
-6.602300 0.000000
-6.577400 0.000000
-6.552600 0.000000
-6.527700 0.000000
-6.502800 0.000000
-6.477900 0.000000
-6.453000 0.000000
-6.428200 0.000000
-6.403300 0.000000
-6.378400 0.000000
-6.353500 0.000000
-6.328600 0.000000
-6.303800 0.000000
-6.278900 0.000000
-6.254000 0.000000
-6.229100 0.000000
-6.204200 0.000000
-6.179400 0.000000
-6.154500 0.000000
-6.129600 0.000000
-6.104700 0.000000
-6.079800 0.000000
-6.055000 0.000000
-6.030100 0.000000
-6.005200 0.000000
-5.980300 0.000000
-5.955400 0.000000
-5.930600 0.000000
-5.905700 0.000000
-5.880800 0.000000
-5.855900 0.000000
-5.831000 0.000000
-5.806200 0.000000
-5.781300 0.000000
-5.756400 0.000000
-5.731500 0.000000
-5.706600 0.000000
-5.681800 0.000000
-5.656900 0.000000
-5.632000 0.000000
-5.607100 0.000000
-5.582200 0.000000
-5.557400 0.000000
-5.532500 0.000000
-5.507600 0.000000
-5.482700 0.000000
-5.457800 0.000000
-5.433000 0.000000
-5.408100 0.000000
-5.383200 0.000000
-5.358300 0.000000
-5.333500 0.000000
-5.308600 0.000000
-5.283700 0.000000
-5.258800 0.000000
-5.233900 0.000000
-5.209100 0.000000
-5.184200 0.000000
-5.159300 0.000000
-5.134400 0.000000
-5.109500 0.000000
-5.084700 0.000000
-5.059800 0.000000
-5.034900 0.000000
-5.010000 0.000000
-4.985100 0.000000
-4.960300 0.000000
-4.935400 0.000000
-4.910500 0.000000
-4.885600 0.000000
-4.860700 0.000000
-4.835900 0.000000
-4.811000 0.000000
-4.786100 0.000000
-4.761200 0.000000
-4.736300 0.000000
-4.711500 0.000000
-4.686600 0.000000
-4.661700 0.000000
-4.636800 0.000000
-4.611900 0.000000
-4.587100 0.000000
-4.562200 0.000000
-4.537300 0.000000
-4.512400 0.000000
-4.487500 0.000000
-4.462700 0.000000
-4.437800 0.000000
-4.412900 0.000000
-4.388000 0.000000
-4.363100 0.000000
-4.338300 0.000000
-4.313400 0.000000
-4.288500 0.000000
-4.263600 0.000000
-4.238700 0.000000
-4.213900 0.000000
-4.189000 0.000000
-4.164100 0.000000
-4.139200 0.000000
-4.114300 0.000000
-4.089500 0.000000
-4.064600 0.000000
-4.039700 0.000000
-4.014800 0.000000
-3.990000 0.000000
-3.965100 0.000000
-3.940200 0.000000
-3.915300 0.000000
-3.890400 0.000000
-3.865600 0.000000
-3.840700 0.000000
-3.815800 0.000000
-3.790900 0.000000
-3.766000 0.000000
-3.741200 0.000000
-3.716300 0.000000
-3.691400 0.000000
-3.666500 0.000000
-3.641600 0.000000
-3.616800 0.000000
-3.591900 0.000000
-3.567000 0.000000
-3.542100 0.000000
-3.517200 0.000000
-3.492400 0.006900
-3.467500 0.124200
-3.442600 0.211900
-3.417700 0.324800
-3.392800 0.437600
-3.368000 0.513700
-3.343100 0.607000
-3.318200 0.736600
-3.293300 0.900600
-3.268400 1.140700
-3.243600 1.817700
-3.218700 1.951700
-3.193800 2.110900
-3.168900 2.401900
-3.144000 3.129800
-3.119200 4.530500
-3.094300 5.299900
-3.069400 5.579700
-3.044500 5.597800
-3.019600 4.925500
-2.994800 2.018400
-2.969900 1.285700
-2.945000 1.087400
-2.920100 1.050600
-2.895200 0.885400
-2.870400 0.955200
-2.845500 1.147900
-2.820600 1.301500
-2.795700 1.269900
-2.770800 1.389600
-2.746000 1.468700
-2.721100 1.512600
-2.696200 1.636500
-2.671300 1.835100
-2.646500 2.158200
-2.621600 2.110200
-2.596700 1.825600
-2.571800 1.729900
-2.546900 1.693000
-2.522100 1.652300
-2.497200 1.561000
-2.472300 1.437600
-2.447400 1.328700
-2.422500 1.403900
-2.397700 1.652300
-2.372800 1.398800
-2.347900 1.506500
-2.323000 1.664100
-2.298100 1.777600
-2.273300 1.791000
-2.248400 2.090400
-2.223500 2.188600
-2.198600 2.478100
-2.173700 3.168700
-2.148900 3.384900
-2.124000 3.413200
-2.099100 2.474700
-2.074200 2.107400
-2.049300 2.110800
-2.024500 1.901800
-1.999600 1.840700
-1.974700 1.662300
-1.949800 1.674000
-1.924900 1.767900
-1.900100 1.876100
-1.875200 1.963900
-1.850300 2.190200
-1.825400 2.398000
-1.800500 2.526500
-1.775700 2.639300
-1.750800 2.771400
-1.725900 2.970400
-1.701000 2.999400
-1.676100 3.125500
-1.651300 3.167000
-1.626400 3.724300
-1.601500 4.018800
-1.576600 4.098400
-1.551700 4.891800
-1.526900 5.136200
-1.502000 4.219200
-1.477100 4.676000
-1.452200 4.835600
-1.427300 5.265100
-1.402500 5.048300
-1.377600 5.274600
-1.352700 4.978300
-1.327800 4.721300
-1.303000 4.030100
-1.278100 4.191000
-1.253200 3.654900
-1.228300 3.291600
-1.203400 3.048600
-1.178600 3.082800
-1.153700 3.390500
-1.128800 4.233200
-1.103900 2.952900
-1.079000 3.097200
-1.054200 3.049500
-1.029300 2.557000
-1.004400 2.177000
-0.979500 2.560400
-0.954600 3.104900
-0.929800 3.454200
-0.904900 3.846900
-0.880000 4.134500
-0.855100 4.147800
-0.830200 3.756400
-0.805400 3.624500
-0.780500 3.744500
-0.755600 3.618700
-0.730700 3.564400
-0.705800 3.462600
-0.681000 3.554300
-0.656100 3.864300
-0.631200 3.536100
-0.606300 3.520800
-0.581400 3.532000
-0.556600 3.777700
-0.531700 4.486300
-0.506800 5.148900
-0.481900 5.483500
-0.457000 5.242200
-0.432200 4.988400
-0.407300 4.715000
-0.382400 4.452000
-0.357500 4.363900
-0.332600 4.617900
-0.307800 5.478500
-0.282900 5.944800
-0.258000 5.807200
-0.233100 6.631800
-0.208200 6.464900
-0.183400 5.571500
-0.158500 4.710600
-0.133600 4.368300
-0.108700 3.797000
-0.083800 3.487700
-0.059000 3.555200
-0.034100 3.651400
-0.009200 4.396900
0.015700 4.526000
0.040500 4.037600
0.065400 3.824700
0.090300 4.010700
0.115200 3.421800
0.140100 3.090600
0.164900 2.942100
0.189800 2.882300
0.214700 2.911400
0.239600 2.816800
0.264500 2.307700
0.289300 2.053500
0.314200 2.125400
0.339100 2.221500
0.364000 2.321800
0.388900 2.459300
0.413700 2.286600
0.438600 1.797600
0.463500 1.727600
0.488400 1.339700
0.513300 1.047500
0.538100 0.789800
0.563000 0.568100
0.587900 0.563000
0.612800 0.484400
0.637700 0.402300
0.662500 0.254100
0.687400 0.079900
0.712300 0.000100
0.737200 0.000000
0.762100 0.000000
0.786900 0.000000
0.811800 0.000000
0.836700 0.000000
0.861600 0.000000
0.886500 0.000000
0.911300 0.000000
0.936200 0.000000
0.961100 0.000000
0.986000 0.000000
1.010900 0.000000
1.035700 0.000000
1.060600 0.000000
1.085500 0.000000
1.110400 0.000000
1.135300 0.000000
1.160100 0.000000
1.185000 0.000000
1.209900 0.000000
1.234800 0.000000
1.259700 0.000000
1.284500 0.000000
1.309400 0.000000
1.334300 0.000000
1.359200 0.000000
1.384000 0.000000
1.408900 0.000000
1.433800 0.000000
1.458700 0.000000
1.483600 0.000000
1.508400 0.000000
1.533300 0.000000
1.558200 0.000000
1.583100 0.000000
1.608000 0.000000
1.632800 0.000000
1.657700 0.000000
1.682600 0.000000
1.707500 0.000000
1.732400 0.000000
1.757200 0.000000
1.782100 0.000000
1.807000 0.000000
1.831900 0.000000
1.856800 0.000000
1.881600 0.000000
1.906500 0.000000
1.931400 0.000000
1.956300 0.000000
1.981200 0.000000
2.006000 0.000000
2.030900 0.000000
2.055800 0.000000
2.080700 0.000000
2.105600 0.000000
2.130400 0.000000
2.155300 0.000000
2.180200 0.000000
2.205100 0.000000
2.230000 0.000000
2.254800 0.000000
2.279700 0.000000
2.304600 0.000000
2.329500 0.000000
2.354400 0.000000
2.379200 0.000000
2.404100 0.000000
2.429000 0.000000
2.453900 0.000000
2.478800 0.000000
2.503600 0.000000
2.528500 0.000000
2.553400 0.000000
2.578300 0.000000
2.603200 0.000000
2.628000 0.000000
2.652900 0.000000
2.677800 0.000000
2.702700 0.000000
2.727500 0.000000
2.752400 0.000000
2.777300 0.000000
2.802200 0.000000
2.827100 0.000000
2.851900 0.000000
2.876800 0.000000
2.901700 0.000000
2.926600 0.000000
2.951500 0.000000
2.976300 0.000000
3.001200 0.000000
3.026100 0.000000
3.051000 0.000000
3.075900 0.000000
3.100700 0.000000
3.125600 0.000000
3.150500 0.000000
3.175400 0.000000
3.200300 0.000000
3.225100 0.000000
3.250000 0.000000
3.274900 0.000000
3.299800 0.000000
3.324700 0.000000
3.349500 0.000000
3.374400 0.000000
3.399300 0.000000
3.424200 0.000000
3.449100 0.000000
3.473900 0.000000
3.498800 0.000000
3.523700 0.000000
3.548600 0.000000
3.573500 0.000000
3.598300 0.000000
3.623200 0.000000
3.648100 0.000000
3.673000 0.000000
3.697900 0.000000
3.722700 0.000000
3.747600 0.000000
3.772500 0.000000
3.797400 0.000000
3.822300 0.000000
3.847100 0.000000
3.872000 0.000000
3.896900 0.000000
3.921800 0.000000
3.946700 0.000000
3.971500 0.000000
3.996400 0.000000
4.021300 0.000000
4.046200 0.000000
4.071100 0.000000
4.095900 0.000000
4.120800 0.000000
4.145700 0.000000
4.170600 0.000000
4.195400 0.000000
4.220300 0.000000
4.245200 0.000000
4.270100 0.000000
4.295000 0.000000
4.319800 0.000000
4.344700 0.000000
4.369600 0.000000
4.394500 0.000000
4.419400 0.000000
4.444200 0.000000
4.469100 0.000000
4.494000 0.000000
4.518900 0.000000
4.543800 0.000000
4.568600 0.000000
4.593500 0.000000
4.618400 0.000000
4.643300 0.000000
4.668200 0.000000
4.693000 0.000000
4.717900 0.000000
4.742800 0.000000
4.767700 0.000000
4.792600 0.000000
4.817400 0.000000
4.842300 0.000000
4.867200 0.000000
4.892100 0.000000
4.917000 0.000000
4.941800 0.000000
4.966700 0.000000
4.991600 0.000000
5.016500 0.000000
5.041400 0.000000
5.066200 0.000000
5.091100 0.000000
5.116000 0.000000
5.140900 0.000000
5.165800 0.000000
5.190600 0.000000
5.215500 0.000000
5.240400 0.000000
5.265300 0.000000
5.290200 0.000000
5.315000 0.000000
5.339900 0.000000
5.364800 0.000000
5.389700 0.000000
5.414600 0.000000
5.439400 0.000000
5.464300 0.000000
5.489200 0.000000
5.514100 0.000000
5.538900 0.000000
5.563800 0.000000
5.588700 0.000000
5.613600 0.000000
5.638500 0.000000
5.663300 0.000000
5.688200 0.000000
5.713100 0.000000
5.738000 0.000000
5.762900 0.000000
5.787700 0.000000
5.812600 0.000000
5.837500 0.000000
5.862400 0.000000
5.887300 0.000000
5.912100 0.000000
5.937000 0.000000
5.961900 0.000000
5.986800 0.000000
6.011700 0.000000
6.036500 0.000100
6.061400 0.002200
6.086300 0.006800
6.111200 0.014000
6.136100 0.023700
6.160900 0.034300
6.185800 0.044000
6.210700 0.051300
6.235600 0.056200
6.260500 0.059300
6.285300 0.061600
6.310200 0.068600
6.335100 0.204800
6.360000 0.378500
6.384900 0.496300
6.409700 0.592300
6.434600 0.680700
6.459500 0.802500
6.484400 0.923200
6.509300 1.053700
6.534100 1.217200
6.559000 1.628000
6.583900 1.799500
6.608800 2.345900
6.633700 3.185100
6.658500 4.247600
6.683400 3.307400
6.708300 2.974800
6.733200 2.734900
6.758100 2.646200
6.782900 2.882000
6.807800 3.028300
6.832700 2.688600
6.857600 2.790000
6.882400 2.604600
6.907300 2.146400
6.932200 2.145500
6.957100 2.595000
6.982000 3.326500
7.006800 3.194100
7.031700 2.853600
7.056600 2.812300
7.081500 2.625900
7.106400 2.252200
7.131200 2.045200
7.156100 1.901100
7.181000 1.799900
7.205900 1.762000
7.230800 1.725400
7.255600 1.813800
7.280500 1.921200
7.305400 1.900400
7.330300 1.868900
7.355200 1.807800
7.380000 1.757200
7.404900 1.731400
7.429800 1.657600
7.454700 1.562000
7.479600 1.481700
7.504400 1.415100
7.529300 1.346400
7.554200 1.283300
7.579100 1.237700
7.604000 1.235900
7.628800 1.297100
7.653700 1.399000
7.678600 1.650900
7.703500 1.807200
7.728400 1.794600
7.753200 1.754700
7.778100 1.776200
7.803000 1.852200
7.827900 1.888600
7.852800 1.950100
7.877600 2.027700
7.902500 2.105600
7.927400 2.194400
7.952300 2.296600
7.977200 2.345500
8.002000 2.523500
8.026900 2.558000
8.051800 2.553800
8.076700 2.472600
8.101600 2.204700
8.126400 2.083500
8.151300 1.955500
8.176200 1.853000
8.201100 1.702700
8.225900 1.765100
8.250800 1.785300
8.275700 1.787700
8.300600 1.601700
8.325500 1.556300
8.350300 1.520300
8.375200 1.497900
8.400100 1.636100
8.425000 1.824500
8.449900 2.227600
8.474700 2.802300
8.499600 3.103500
8.524500 3.029800
8.549400 3.149700
8.574300 2.671600
8.599100 2.134900
8.624000 2.320500
8.648900 2.797900
8.673800 2.900400
8.698700 2.937100
8.723500 2.554600
8.748400 2.252700
8.773300 2.131700
8.798200 2.191700
8.823100 2.488000
8.847900 2.573200
8.872800 2.923400
8.897700 2.762800
8.922600 2.502300
8.947500 2.425600
8.972300 2.412000
8.997200 2.387700
9.022100 2.302000
9.047000 2.146300
9.071900 2.047400
9.096700 1.998700
9.121600 2.005000
9.146500 2.107800
9.171400 2.077800
9.196300 2.046000
9.221100 2.140100
9.246000 2.460400
9.270900 2.241700
9.295800 2.039500
9.320700 2.077300
9.345500 2.080100
9.370400 2.100600
9.395300 1.706800
9.420200 1.803700
9.445100 1.936000
9.469900 2.038700
9.494800 1.990500
9.519700 2.083000
9.544600 2.421600
9.569400 2.031700
9.594300 1.683400
9.619200 1.614800
9.644100 1.630000
9.669000 1.782900
9.693800 1.763500
9.718700 1.835600
9.743600 2.117700
9.768500 2.565500
9.793400 2.940200
9.818200 3.421700
9.843100 3.626700
9.868000 3.339400
9.892900 2.726700
9.917800 2.283400
9.942600 2.014100
9.967500 1.850000
9.992400 1.758700
10.017300 1.862300
10.042200 1.941200
10.067000 1.754400
10.091900 1.760400
10.116800 1.698000
10.141700 1.835900
10.166600 2.061600
10.191400 2.313900
10.216300 2.479500
10.241200 2.757200
10.266100 3.088700
10.291000 3.464800
10.315800 3.318600
10.340700 3.328700
10.365600 3.409800
10.390500 2.894500
10.415400 2.225400
10.440200 1.623400
10.465100 1.439800
10.490000 1.341300
10.514900 1.303300
10.539800 1.170700
10.564600 1.172600
10.589500 1.260700
10.614400 1.486000
10.639300 1.512700
10.664200 1.640800
10.689000 1.776800
10.713900 1.961500
10.738800 2.129500
10.763700 2.296300
10.788600 2.495800
10.813400 2.567400
10.838300 2.623200
10.863200 2.508700
10.888100 2.277900
10.912900 2.262500
10.937800 2.036400
10.962700 2.074500
10.987600 1.752900
11.012500 1.624200
11.037300 1.663400
11.062200 1.568800
11.087100 1.477000
11.112000 1.593700
11.136900 1.691500
11.161700 1.835300
11.186600 2.015500
11.211500 2.173800
11.236400 2.289000
11.261300 2.328800
11.286100 2.353800
11.311000 3.061900
11.335900 3.268000
11.360800 3.988100
11.385700 3.856100
11.410500 2.641000
11.435400 1.714600
11.460300 1.095800
11.485200 1.019500
11.510100 0.991700
11.534900 0.973100
11.559800 1.072900
11.584700 1.014500
11.609600 0.953000
11.634500 0.905900
11.659300 0.874700
11.684200 0.872400
11.709100 0.924200
11.734000 1.025600
11.758900 1.031500
11.783700 1.042600
11.808600 0.816400
11.833500 0.756200
11.858400 0.721300
11.883300 0.700100
11.908100 0.699400
11.933000 0.699900
11.957900 0.704300
11.982800 0.718300
12.007700 0.724600
12.032500 0.722400
12.057400 0.709600
12.082300 0.718500
12.107200 0.746300
12.132100 0.747100
12.156900 0.732600
12.181800 0.721500
12.206700 0.737000
12.231600 0.737000
12.256400 0.734600
12.281300 0.736000
12.306200 0.743900
12.331100 0.756200
12.356000 0.774300
12.380800 0.797000
12.405700 0.817400
12.430600 0.806600
12.455500 0.802100
12.480400 0.793200
12.505200 0.780800
12.530100 0.766700
12.555000 0.767900
12.579900 0.783600
12.604800 0.704400
12.629600 0.662200
12.654500 0.636500
12.679400 0.614300
12.704300 0.594400
12.729200 0.592000
12.754000 0.542800
12.778900 0.531200
12.803800 0.521800
12.828700 0.514300
12.853600 0.508200
12.878400 0.503800
12.903300 0.500300
12.928200 0.709700
12.953100 0.850500
12.978000 0.878300
13.002800 0.916800
13.027700 0.906700
13.052600 0.922900
13.077500 0.970300
13.102400 0.987000
13.127200 0.971500
13.152100 1.011700
13.177000 0.979500
13.201900 0.978100
13.226800 0.982900
13.251600 0.993000
13.276500 0.994000
13.301400 0.983800
13.326300 0.980400
13.351200 0.976900
13.376000 0.972600
13.400900 0.972800
13.425800 0.979700
13.450700 0.991300
13.475600 1.004200
13.500400 1.023500
13.525300 1.052700
13.550200 1.076000
13.575100 1.111300
13.600000 1.141200
13.624800 1.178900
13.649700 1.203900
13.674600 1.209400
13.699500 1.207200
13.724300 1.211500
13.749200 1.213400
13.774100 1.206700
13.799000 1.190600
13.823900 1.165900
13.848700 1.148500
13.873600 1.143200
13.898500 1.159400
13.923400 1.186400
13.948300 1.181700
13.973100 1.148400
13.998000 1.124400
14.022900 1.105500
14.047800 1.092600
14.072700 1.074800
14.097500 1.057400
14.122400 1.055300
14.147300 1.086800
14.172200 1.125800
14.197100 1.146400
14.221900 1.145100
14.246800 1.149900
14.271700 1.152100
14.296600 1.149900
14.321500 1.161600
14.346300 1.212100
14.371200 1.239100
14.396100 1.272900
14.421000 1.268400
14.445900 1.258200
14.470700 1.230300
14.495600 1.170500
14.520500 1.130900
14.545400 1.096300
14.570300 1.040100
14.595100 0.965900
14.620000 0.891600
14.644900 0.879600
14.669800 0.885000
14.694700 0.859300
14.719500 0.852800
14.744400 0.841700
14.769300 0.864300
14.794200 0.874700
14.819100 0.925400
14.843900 0.990300
14.868800 1.042300
14.893700 1.062400
14.918600 1.086100
14.943500 1.106700
14.968300 1.082700
14.993200 1.068100
15.018100 1.051000
15.043000 1.045800
15.067800 1.008800
15.092700 0.977600
15.117600 0.949900
15.142500 0.912900
15.167400 0.883500
15.192200 0.869500
15.217100 0.866700
15.242000 0.898600
15.266900 0.880200
15.291800 0.887400
15.316600 0.914500
15.341500 0.971500
15.366400 0.998700
15.391300 1.022900
15.416200 1.032700
15.441000 1.051600
15.465900 1.075400
15.490800 1.093700
15.515700 1.096500
15.540600 1.089000
15.565400 1.081000
15.590300 1.057200
15.615200 1.052300
15.640100 1.047500
15.665000 1.047900
15.689800 1.102500
15.714700 1.135300
15.739600 1.174000
15.764500 1.212000
15.789400 1.255400
15.814200 1.316400
15.839100 1.350700
15.864000 1.362200
15.888900 1.382900
15.913800 1.393000
15.938600 1.420000
15.963500 1.466500
15.988400 1.435600
16.013300 1.383300
16.038200 1.360100
16.063000 1.346700
16.087900 1.342600
16.112800 1.335600
16.137700 1.302100
16.162600 1.279800
16.187400 1.252300
16.212300 1.246400
16.237200 1.253500
16.262100 1.256900
16.287000 1.260800
16.311800 1.262900
16.336700 1.263500
16.361600 1.261900
16.386500 1.260600
16.411300 1.260600
16.436200 1.257100
16.461100 1.255400
16.486000 1.258700
16.510900 1.259100
16.535700 1.261300
16.560600 1.292900
16.585500 1.315200
16.610400 1.275400
16.635300 1.234600
16.660100 1.221100
16.685000 1.216100
16.709900 1.205300
16.734800 1.179000
16.759700 1.142400
16.784500 1.117800
16.809400 1.101000
16.834300 1.084100
16.859200 1.081900
16.884100 1.087700
16.908900 1.101600
16.933800 1.126000
16.958700 1.160800
16.983600 1.184800
17.008500 1.202900
17.033300 1.244700
17.058200 1.254500
17.083100 1.240600
17.108000 1.204500
17.132900 1.181300
17.157700 1.173900
17.182600 1.170200
17.207500 1.166700
17.232400 1.207100
17.257300 1.227200
17.282100 1.232800
17.307000 1.229000
17.331900 1.198400
17.356800 1.213300
17.381700 1.172300
17.406500 1.162600
17.431400 1.165600
17.456300 1.170000
17.481200 1.143300
17.506100 1.117500
17.530900 1.106400
17.555800 1.111100
17.580700 1.125900
17.605600 1.147300
17.630500 1.180800
17.655300 1.187700
17.680200 1.200300
17.705100 1.233100
17.730000 1.217400
17.754800 1.217000
17.779700 1.223400
17.804600 1.230400
17.829500 1.246800
17.854400 1.278700
17.879200 1.320000
17.904100 1.372400
17.929000 1.394700
17.953900 1.415000
17.978800 1.462500
18.003600 1.554800
18.028500 1.610400
18.053400 1.710100
18.078300 1.691100
18.103200 1.718600
18.128000 1.618000
18.152900 1.451800
18.177800 1.347900
18.202700 1.306500
18.227600 1.291900
18.252400 1.288500
18.277300 1.287800
18.302200 1.302300
18.327100 1.328700
18.352000 1.336900
18.376800 1.357400
18.401700 1.373800
18.426600 1.398300
18.451500 1.439200
18.476400 1.522000
18.501200 1.599900
18.526100 1.783200
18.551000 1.786400
18.575900 1.602200
18.600800 1.599500
18.625600 1.667700
18.650500 1.636900
18.675400 1.626400
18.700300 1.721400
18.725200 1.740200
18.750000 1.846100
18.774900 1.898000
18.799800 1.850300
18.824700 1.730900
18.849600 1.691500
18.874400 1.682400
18.899300 1.618900
18.924200 1.437700
18.949100 1.329200
18.974000 1.282000
18.998800 1.235500
19.023700 1.174600
19.048600 1.177400
19.073500 1.176100
19.098300 1.197100
19.123200 1.214200
19.148100 1.242700
19.173000 1.270400
19.197900 1.261500
19.222700 1.245500
19.247600 1.225600
19.272500 1.187100
19.297400 1.145600
19.322300 1.152400
19.347100 1.210600
19.372000 1.271700
19.396900 1.287500
19.421800 1.262700
19.446700 1.240700
19.471500 1.268800
19.496400 1.282800
19.521300 1.270500
19.546200 1.254700
19.571100 1.251600
19.595900 1.230400
19.620800 1.169100
19.645700 1.107000
19.670600 1.048400
19.695500 1.002200
19.720300 0.960800
19.745200 0.946700
19.770100 0.967400
19.795000 1.068900
19.819900 1.191500
19.844700 1.293100
19.869600 1.396700
19.894500 1.493100
19.919400 1.599600
19.944300 1.585800
19.969100 1.572900
19.994000 1.651500
20.018900 1.657400
20.043800 1.660900
20.068700 1.708900
20.093500 1.781600
20.118400 1.933400
20.143300 2.059100
20.168200 1.976800
20.193100 1.775300
20.217900 1.655700
20.242800 1.554600
20.267700 1.488100
20.292600 1.395300
20.317500 1.321800
20.342300 1.288100
20.367200 1.273200
20.392100 1.257100
20.417000 1.225700
20.441800 1.210400
20.466700 1.215400
20.491600 1.252400
20.516500 1.263200
20.541400 1.211100
20.566200 1.159900
20.591100 1.106500
20.616000 1.028700
20.640900 0.949300
20.665800 0.882500
20.690600 0.830700
20.715500 0.756400
20.740400 0.738500
20.765300 0.767400
20.790200 0.812100
20.815000 0.877200
20.839900 0.933100
20.864800 0.976200
20.889700 1.080900
20.914600 1.190300
20.939400 1.288900
20.964300 1.341300
20.989200 1.391000
21.014100 1.448400
21.039000 1.490900
21.063800 1.571600
21.088700 1.650200
21.113600 1.723500
21.138500 1.771500
21.163400 1.847200
21.188200 1.788400
21.213100 1.762600
21.238000 1.753700
21.262900 1.770300
21.287800 1.692700
21.312600 1.659100
21.337500 1.657400
21.362400 1.668300
21.387300 1.648100
21.412200 1.616200
21.437000 1.593800
21.461900 1.556100
21.486800 1.489900
21.511700 1.448400
21.536600 1.466400
21.561400 1.478400
21.586300 1.463800
21.611200 1.442300
21.636100 1.465800
21.661000 1.442200
21.685800 1.405800
21.710700 1.370700
21.735600 1.313000
21.760500 1.302900
21.785400 1.339900
21.810200 1.348800
21.835100 1.335200
21.860000 1.325100
21.884900 1.321200
21.909700 1.317500
21.934600 1.330000
21.959500 1.361400
21.984400 1.385100
22.009300 1.393700
22.034100 1.395400
22.059000 1.361900
22.083900 1.338100
22.108800 1.316800
22.133700 1.295800
22.158500 1.287300
22.183400 1.302300
22.208300 1.332700
22.233200 1.319000
22.258100 1.335000
22.282900 1.333100
22.307800 1.367200
22.332700 1.459600
22.357600 1.474900
22.382500 1.487600
22.407300 1.550400
22.432200 1.568300
22.457100 1.593400
22.482000 1.637400
22.506900 1.669900
22.531700 1.683700
22.556600 1.651900
22.581500 1.653000
22.606400 1.716800
22.631300 1.753700
22.656100 1.759400
22.681000 1.759100
22.705900 1.756900
22.730800 1.822900
22.755700 1.694400
22.780500 1.637700
22.805400 1.592400
22.830300 1.547300
22.855200 1.506700
22.880100 1.454400
22.904900 1.444000
22.929800 1.438100
22.954700 1.438000
22.979600 1.440200
23.004500 1.460500
23.029300 1.455800
23.054200 1.494600
23.079100 1.477300
23.104000 1.426100
23.128900 1.390700
23.153700 1.385700
23.178600 1.380700
23.203500 1.425300
23.228400 1.381900
23.253200 1.357200
23.278100 1.361000
23.303000 1.355900
23.327900 1.352500
23.352800 1.311300
23.377600 1.251600
23.402500 1.187800
23.427400 1.108700
23.452300 1.050900
23.477200 1.000300
23.502000 0.960100
23.526900 0.947900
23.551800 0.895500
23.576700 0.862100
23.601600 0.836700
23.626400 0.812900
23.651300 0.767400
23.676200 0.725000
23.701100 0.688300
23.726000 0.637800
23.750800 0.594200
23.775700 0.560300
23.800600 0.548200
23.825500 0.560000
23.850400 0.578200
23.875200 0.629200
23.900100 0.680500
23.925000 0.642000
23.949900 0.548800
23.974800 0.499000
23.999600 0.456900
24.024500 0.417300
24.049400 0.382400
24.074300 0.362300
24.099200 0.338500
24.124000 0.301300
24.148900 0.269900
24.173800 0.241800
24.198700 0.211200
24.223600 0.180400
24.248400 0.147700
24.273300 0.114400
24.298200 0.096200
24.323100 0.080500
24.348000 0.067000
24.372800 0.056100
24.397700 0.046300
24.422600 0.037100
24.447500 0.028700
24.472400 0.021600
24.497200 0.015800
24.522100 0.011300
24.547000 0.008100
24.571900 0.005400
24.596700 0.003300
24.621600 0.001700
24.646500 0.000600
24.671400 0.000100
24.696300 0.000000
24.721100 0.000000
24.746000 0.000000
24.770900 0.000000
24.795800 0.000000
24.820700 0.000000
24.845500 0.000000
24.870400 0.000000
24.895300 0.000000
24.920200 0.000000
24.945100 0.000000
24.969900 0.000000
24.994800 0.000000
25.019700 0.000000
25.044600 0.000000
25.069500 0.000000
25.094300 0.000000
25.119200 0.000000
25.144100 0.000000
25.169000 0.000000
25.193900 0.000000
25.218700 0.000000
25.243600 0.000000
25.268500 0.000000
25.293400 0.000000
25.318300 0.000000
25.343100 0.000000
25.368000 0.000000
25.392900 0.000000
25.417800 0.000000
25.442700 0.000000
25.467500 0.000000
25.492400 0.000000
25.517300 0.000000
25.542200 0.000000
25.567100 0.000000
25.591900 0.000000
25.616800 0.000000
25.641700 0.000000
25.666600 0.000000
25.691500 0.000000
25.716300 0.000000
25.741200 0.000000
25.766100 0.000000
25.791000 0.000000
25.815900 0.000000
25.840700 0.000000
25.865600 0.000000
25.890500 0.000000
25.915400 0.000000
25.940200 0.000000
25.965100 0.000000
25.990000 0.000000
26.014900 0.000000
26.039800 0.000000
26.064600 0.000000
26.089500 0.000000
26.114400 0.000000
26.139300 0.000000
26.164200 0.000000
26.189000 0.000000
26.213900 0.000000
26.238800 0.000000
26.263700 0.000000
26.288600 0.000000
26.313400 0.000000
26.338300 0.000000
26.363200 0.000000
26.388100 0.000000
26.413000 0.000000
26.437800 0.000000
26.462700 0.000000
26.487600 0.000000
26.512500 0.000000
26.537400 0.000000
26.562200 0.000000
26.587100 0.000000
26.612000 0.000000
26.636900 0.000000
26.661800 0.000000
26.686600 0.000000
26.711500 0.000000
26.736400 0.000000
26.761300 0.000000
26.786200 0.000000
26.811000 0.000000
26.835900 0.000000
26.860800 0.000000
26.885700 0.000000
26.910600 0.000000
26.935400 0.000000
26.960300 0.000000
26.985200 0.000000
e
