set title 'mp-25571 - Density of States'
set xlabel 'Energy (eV)'
set ylabel 'DOS (states/eV)'
set grid
set xrange [-10:10]
set yrange [0:6.888]
set xzeroaxis lt -1
set terminal png size 800,600
set output 'mp-25571_dos_gnuplot.png'
plot '-' using 1:2 with lines title 'DOS'
-38.506900 0.000000
-38.459600 0.000000
-38.412400 0.000000
-38.365200 0.000000
-38.317900 0.000000
-38.270700 0.000000
-38.223400 0.000000
-38.176200 0.000000
-38.129000 0.000000
-38.081700 0.000000
-38.034500 0.000000
-37.987300 0.000000
-37.940000 0.000000
-37.892800 0.000000
-37.845500 0.000000
-37.798300 0.000000
-37.751100 0.000000
-37.703800 0.000000
-37.656600 0.000000
-37.609400 0.000000
-37.562100 0.000000
-37.514900 0.000000
-37.467600 0.000000
-37.420400 0.000000
-37.373200 0.000000
-37.325900 0.000000
-37.278700 0.000000
-37.231500 0.000000
-37.184200 0.000000
-37.137000 0.000000
-37.089700 0.000000
-37.042500 0.000000
-36.995300 0.000000
-36.948000 0.000000
-36.900800 0.000000
-36.853600 0.000000
-36.806300 0.000000
-36.759100 0.000000
-36.711900 0.000000
-36.664600 0.000000
-36.617400 0.000000
-36.570100 0.000000
-36.522900 0.000000
-36.475700 0.000000
-36.428400 0.000000
-36.381200 0.000000
-36.334000 0.000000
-36.286700 0.000000
-36.239500 0.000000
-36.192200 0.000000
-36.145000 0.000000
-36.097800 0.000000
-36.050500 0.000000
-36.003300 0.000000
-35.956100 0.000000
-35.908800 0.000000
-35.861600 0.000000
-35.814300 0.000000
-35.767100 0.000000
-35.719900 0.000000
-35.672600 0.000000
-35.625400 0.000000
-35.578200 0.000000
-35.530900 0.000000
-35.483700 0.000000
-35.436400 0.000000
-35.389200 0.000000
-35.342000 0.000000
-35.294700 0.000000
-35.247500 0.000000
-35.200300 0.000000
-35.153000 0.000000
-35.105800 0.000000
-35.058600 0.000000
-35.011300 0.000000
-34.964100 0.000000
-34.916800 0.000000
-34.869600 0.000000
-34.822400 0.000000
-34.775100 0.000000
-34.727900 0.000000
-34.680700 0.000000
-34.633400 0.000000
-34.586200 0.000000
-34.538900 0.000000
-34.491700 0.000000
-34.444500 0.000000
-34.397200 0.000000
-34.350000 0.000000
-34.302800 0.000000
-34.255500 0.000000
-34.208300 0.000000
-34.161000 0.000000
-34.113800 0.000000
-34.066600 0.000000
-34.019300 0.000000
-33.972100 0.000000
-33.924900 0.000000
-33.877600 0.000000
-33.830400 0.000000
-33.783100 0.000000
-33.735900 0.000000
-33.688700 0.000000
-33.641400 0.000000
-33.594200 0.000000
-33.547000 0.000000
-33.499700 0.000000
-33.452500 0.000000
-33.405300 0.000000
-33.358000 0.000000
-33.310800 0.000000
-33.263500 0.000000
-33.216300 0.000000
-33.169100 0.000000
-33.121800 0.000000
-33.074600 0.000000
-33.027400 0.000000
-32.980100 8.195400
-32.932900 0.000000
-32.885600 0.000000
-32.838400 0.000000
-32.791200 0.000000
-32.743900 0.000000
-32.696700 0.000000
-32.649500 0.000000
-32.602200 5.568000
-32.555000 3.744700
-32.507700 1.917300
-32.460500 1.746800
-32.413300 3.570400
-32.366000 4.300800
-32.318800 8.813300
-32.271600 5.859900
-32.224300 2.484300
-32.177100 0.000000
-32.129800 0.000000
-32.082600 0.000000
-32.035400 0.000000
-31.988100 0.000000
-31.940900 0.000000
-31.893700 0.000000
-31.846400 0.000000
-31.799200 0.000000
-31.752000 0.000000
-31.704700 0.000000
-31.657500 0.000000
-31.610200 0.000000
-31.563000 0.000000
-31.515800 0.000000
-31.468500 0.000000
-31.421300 0.000000
-31.374100 0.000000
-31.326800 0.000000
-31.279600 0.000000
-31.232300 0.000000
-31.185100 0.000000
-31.137900 0.000000
-31.090600 0.000000
-31.043400 0.000000
-30.996200 0.000000
-30.948900 0.000000
-30.901700 0.000000
-30.854400 0.000000
-30.807200 0.000000
-30.760000 0.000000
-30.712700 0.000000
-30.665500 0.000000
-30.618300 0.000000
-30.571000 0.000000
-30.523800 0.000000
-30.476500 0.000000
-30.429300 0.000000
-30.382100 0.000000
-30.334800 0.000000
-30.287600 0.000000
-30.240400 0.000000
-30.193100 0.000000
-30.145900 0.000000
-30.098700 0.000000
-30.051400 0.000000
-30.004200 0.000000
-29.956900 0.000000
-29.909700 0.000000
-29.862500 0.000000
-29.815200 0.000000
-29.768000 0.000000
-29.720800 0.000000
-29.673500 0.000000
-29.626300 0.000000
-29.579000 0.000000
-29.531800 0.000000
-29.484600 0.000000
-29.437300 0.000000
-29.390100 0.000000
-29.342900 0.000000
-29.295600 0.000000
-29.248400 0.000000
-29.201100 0.000000
-29.153900 0.000000
-29.106700 0.000000
-29.059400 0.000000
-29.012200 0.000000
-28.965000 0.000000
-28.917700 0.000000
-28.870500 0.000000
-28.823200 0.000000
-28.776000 0.000000
-28.728800 0.000000
-28.681500 0.000000
-28.634300 0.000000
-28.587100 0.000000
-28.539800 0.000000
-28.492600 0.000000
-28.445400 0.000000
-28.398100 0.000000
-28.350900 0.000000
-28.303600 0.000000
-28.256400 0.000000
-28.209200 0.000000
-28.161900 0.000000
-28.114700 0.000000
-28.067500 0.000000
-28.020200 0.000000
-27.973000 0.000000
-27.925700 0.000000
-27.878500 0.000000
-27.831300 0.000000
-27.784000 0.000000
-27.736800 0.000000
-27.689600 0.000000
-27.642300 0.000000
-27.595100 0.000000
-27.547800 0.000000
-27.500600 0.000000
-27.453400 0.000000
-27.406100 0.000000
-27.358900 0.000000
-27.311700 0.000000
-27.264400 0.000000
-27.217200 0.000000
-27.169900 0.000000
-27.122700 0.000000
-27.075500 0.000000
-27.028200 0.000000
-26.981000 0.000000
-26.933800 0.000000
-26.886500 0.000000
-26.839300 0.000000
-26.792100 0.000000
-26.744800 0.000000
-26.697600 0.000000
-26.650300 0.000000
-26.603100 0.000000
-26.555900 0.000000
-26.508600 0.000000
-26.461400 0.000000
-26.414200 0.000000
-26.366900 0.000000
-26.319700 0.000000
-26.272400 0.000000
-26.225200 0.000000
-26.178000 0.000000
-26.130700 0.000000
-26.083500 0.000000
-26.036300 0.000000
-25.989000 0.000000
-25.941800 0.000000
-25.894500 0.000000
-25.847300 0.000000
-25.800100 0.000000
-25.752800 0.000000
-25.705600 0.000000
-25.658400 0.000000
-25.611100 0.000000
-25.563900 0.000000
-25.516600 0.000000
-25.469400 0.000000
-25.422200 0.000000
-25.374900 0.000000
-25.327700 0.000000
-25.280500 0.000000
-25.233200 0.000000
-25.186000 0.000000
-25.138800 0.000000
-25.091500 0.000000
-25.044300 0.000000
-24.997000 0.000000
-24.949800 0.000000
-24.902600 0.000000
-24.855300 0.000000
-24.808100 0.000000
-24.760900 0.000000
-24.713600 0.000000
-24.666400 0.000000
-24.619100 0.000000
-24.571900 0.000000
-24.524700 0.000000
-24.477400 0.000000
-24.430200 0.000000
-24.383000 0.000000
-24.335700 0.000000
-24.288500 0.000000
-24.241200 0.000000
-24.194000 0.000000
-24.146800 0.000000
-24.099500 0.000000
-24.052300 0.000000
-24.005100 0.000000
-23.957800 0.000000
-23.910600 0.000000
-23.863300 0.000000
-23.816100 0.000000
-23.768900 0.000000
-23.721600 0.000000
-23.674400 0.000000
-23.627200 0.000000
-23.579900 0.000000
-23.532700 0.000000
-23.485500 0.000000
-23.438200 0.000000
-23.391000 0.000000
-23.343700 0.000000
-23.296500 0.000000
-23.249300 0.000000
-23.202000 0.000000
-23.154800 0.000000
-23.107600 0.000000
-23.060300 0.000000
-23.013100 0.000000
-22.965800 0.000000
-22.918600 0.000000
-22.871400 0.000000
-22.824100 0.000000
-22.776900 0.000000
-22.729700 0.000000
-22.682400 0.000000
-22.635200 0.000000
-22.587900 0.000000
-22.540700 0.000000
-22.493500 0.000000
-22.446200 0.000000
-22.399000 0.000000
-22.351800 0.000000
-22.304500 0.000000
-22.257300 0.000000
-22.210000 0.000000
-22.162800 0.000000
-22.115600 0.000000
-22.068300 0.000000
-22.021100 0.000000
-21.973900 0.000000
-21.926600 0.000000
-21.879400 0.000000
-21.832200 0.000000
-21.784900 0.000000
-21.737700 0.000000
-21.690400 0.000000
-21.643200 0.000000
-21.596000 0.000000
-21.548700 0.000000
-21.501500 0.000000
-21.454300 0.000000
-21.407000 0.000000
-21.359800 0.000000
-21.312500 0.000000
-21.265300 0.000000
-21.218100 0.000000
-21.170800 0.000000
-21.123600 0.000000
-21.076400 0.000000
-21.029100 0.000000
-20.981900 0.000000
-20.934600 0.000000
-20.887400 0.000000
-20.840200 0.000000
-20.792900 0.000000
-20.745700 0.000000
-20.698500 0.000000
-20.651200 0.000000
-20.604000 0.000000
-20.556700 0.000000
-20.509500 0.000000
-20.462300 0.000000
-20.415000 0.000000
-20.367800 0.000000
-20.320600 0.000000
-20.273300 0.000000
-20.226100 0.000000
-20.178900 0.000000
-20.131600 0.000000
-20.084400 0.000000
-20.037100 0.000000
-19.989900 0.000000
-19.942700 0.000000
-19.895400 0.000000
-19.848200 0.000000
-19.801000 0.000000
-19.753700 0.000000
-19.706500 0.000000
-19.659200 0.000000
-19.612000 0.000000
-19.564800 0.000000
-19.517500 0.000000
-19.470300 0.000000
-19.423100 0.000000
-19.375800 0.000000
-19.328600 0.000000
-19.281300 0.000000
-19.234100 0.000000
-19.186900 0.000000
-19.139600 0.000000
-19.092400 0.000000
-19.045200 0.000000
-18.997900 0.000000
-18.950700 0.000000
-18.903400 0.000000
-18.856200 0.000000
-18.809000 0.000000
-18.761700 0.000000
-18.714500 0.000000
-18.667300 0.000000
-18.620000 0.000000
-18.572800 0.000000
-18.525600 0.000000
-18.478300 0.000000
-18.431100 0.000000
-18.383800 0.000000
-18.336600 0.000000
-18.289400 0.000000
-18.242100 0.000000
-18.194900 0.000000
-18.147700 0.000000
-18.100400 0.000000
-18.053200 0.000000
-18.005900 0.000000
-17.958700 0.000000
-17.911500 0.000000
-17.864200 0.000000
-17.817000 0.000000
-17.769800 0.000000
-17.722500 0.000000
-17.675300 0.000000
-17.628000 0.000000
-17.580800 0.000000
-17.533600 0.000000
-17.486300 0.000000
-17.439100 0.000000
-17.391900 0.000000
-17.344600 0.000000
-17.297400 0.000000
-17.250100 0.000000
-17.202900 0.000000
-17.155700 0.000000
-17.108400 0.000000
-17.061200 0.000000
-17.014000 0.000000
-16.966700 0.000000
-16.919500 0.000000
-16.872300 0.000000
-16.825000 0.000000
-16.777800 0.000000
-16.730500 0.000000
-16.683300 0.000000
-16.636100 0.000000
-16.588800 0.000000
-16.541600 0.000000
-16.494400 0.000000
-16.447100 0.000000
-16.399900 0.000000
-16.352600 0.000000
-16.305400 0.000000
-16.258200 0.000000
-16.210900 0.000000
-16.163700 0.000000
-16.116500 0.000000
-16.069200 0.000000
-16.022000 0.000000
-15.974700 0.000000
-15.927500 0.000000
-15.880300 0.000000
-15.833000 0.024400
-15.785800 0.107200
-15.738600 0.245900
-15.691300 0.380700
-15.644100 0.398800
-15.596800 0.373700
-15.549600 0.381500
-15.502400 0.407700
-15.455100 0.433900
-15.407900 0.460100
-15.360700 0.494400
-15.313400 0.543600
-15.266200 0.618500
-15.219000 0.720500
-15.171700 0.852100
-15.124500 1.068100
-15.077200 3.037500
-15.030000 3.417000
-14.982800 1.922700
-14.935500 1.645000
-14.888300 1.380800
-14.841100 4.223800
-14.793800 0.000000
-14.746600 0.067500
-14.699300 2.702000
-14.652100 4.491400
-14.604900 4.310000
-14.557600 3.662500
-14.510400 2.665600
-14.463200 1.447000
-14.415900 0.692400
-14.368700 0.484300
-14.321400 0.309000
-14.274200 0.097700
-14.227000 0.000000
-14.179700 0.000000
-14.132500 0.000000
-14.085300 0.000000
-14.038000 0.000000
-13.990800 0.000000
-13.943500 0.000000
-13.896300 0.000000
-13.849100 0.000000
-13.801800 0.000000
-13.754600 0.000000
-13.707400 0.000000
-13.660100 0.000000
-13.612900 0.000000
-13.565700 0.000000
-13.518400 0.000000
-13.471200 0.000000
-13.423900 0.000000
-13.376700 0.000000
-13.329500 0.000000
-13.282200 0.000000
-13.235000 0.000000
-13.187800 0.000000
-13.140500 0.000000
-13.093300 0.000000
-13.046000 0.000000
-12.998800 0.000000
-12.951600 0.000000
-12.904300 0.000000
-12.857100 0.000000
-12.809900 0.000000
-12.762600 0.000000
-12.715400 0.000000
-12.668100 0.000000
-12.620900 0.000000
-12.573700 0.000000
-12.526400 0.000000
-12.479200 0.000000
-12.432000 0.000000
-12.384700 0.000000
-12.337500 0.000000
-12.290200 0.000000
-12.243000 0.000000
-12.195800 0.000000
-12.148500 0.000000
-12.101300 0.000000
-12.054100 0.000000
-12.006800 0.000000
-11.959600 0.000000
-11.912400 0.000000
-11.865100 0.000000
-11.817900 0.000000
-11.770600 0.000000
-11.723400 0.000000
-11.676200 0.000000
-11.628900 0.000000
-11.581700 0.000000
-11.534500 0.000000
-11.487200 0.000000
-11.440000 0.000000
-11.392700 0.000000
-11.345500 0.000000
-11.298300 0.000000
-11.251000 0.000000
-11.203800 0.000000
-11.156600 0.000000
-11.109300 0.000000
-11.062100 0.000000
-11.014800 0.000000
-10.967600 0.000000
-10.920400 0.000000
-10.873100 0.000000
-10.825900 0.000000
-10.778700 0.000000
-10.731400 0.000000
-10.684200 0.000000
-10.636900 0.000000
-10.589700 0.000000
-10.542500 0.000000
-10.495200 0.000000
-10.448000 0.000000
-10.400800 0.000000
-10.353500 0.000000
-10.306300 0.000000
-10.259100 0.000000
-10.211800 0.000000
-10.164600 0.000000
-10.117300 0.000000
-10.070100 0.000000
-10.022900 0.000000
-9.975600 0.000000
-9.928400 0.000000
-9.881200 0.000000
-9.833900 0.000000
-9.786700 0.000000
-9.739400 0.000000
-9.692200 0.000000
-9.645000 0.000000
-9.597700 0.000000
-9.550500 0.000000
-9.503300 0.000000
-9.456000 0.000000
-9.408800 0.000000
-9.361500 0.000000
-9.314300 0.000000
-9.267100 0.000000
-9.219800 0.000000
-9.172600 0.000000
-9.125400 0.000000
-9.078100 0.000000
-9.030900 0.000000
-8.983600 0.000000
-8.936400 0.000000
-8.889200 0.000000
-8.841900 0.000000
-8.794700 0.000000
-8.747500 0.000000
-8.700200 0.000000
-8.653000 0.000000
-8.605800 0.000000
-8.558500 0.000000
-8.511300 0.000000
-8.464000 0.000000
-8.416800 0.000000
-8.369600 0.000000
-8.322300 0.000000
-8.275100 0.000000
-8.227900 0.000000
-8.180600 0.000000
-8.133400 0.000000
-8.086100 0.000000
-8.038900 0.000000
-7.991700 0.000000
-7.944400 0.000000
-7.897200 0.000000
-7.850000 0.000000
-7.802700 0.000000
-7.755500 0.000000
-7.708200 0.000000
-7.661000 0.000000
-7.613800 0.000000
-7.566500 0.000000
-7.519300 0.000000
-7.472100 0.000000
-7.424800 0.000000
-7.377600 0.000000
-7.330300 0.000000
-7.283100 0.000000
-7.235900 0.000000
-7.188600 0.000000
-7.141400 0.000000
-7.094200 0.000000
-7.046900 0.000000
-6.999700 0.000000
-6.952500 0.000000
-6.905200 0.000000
-6.858000 0.000000
-6.810700 0.000000
-6.763500 0.000000
-6.716300 0.000000
-6.669000 0.000000
-6.621800 0.000000
-6.574600 0.000000
-6.527300 0.000000
-6.480100 0.000000
-6.432800 0.000000
-6.385600 0.000000
-6.338400 0.000000
-6.291100 0.000000
-6.243900 0.000000
-6.196700 0.000000
-6.149400 0.000000
-6.102200 0.000000
-6.054900 0.000000
-6.007700 0.000000
-5.960500 0.000000
-5.913200 0.000000
-5.866000 0.000000
-5.818800 0.000000
-5.771500 0.000000
-5.724300 0.000000
-5.677000 0.000000
-5.629800 0.000000
-5.582600 0.000000
-5.535300 0.000000
-5.488100 0.000000
-5.440900 0.000000
-5.393600 0.000000
-5.346400 0.000000
-5.299200 0.000000
-5.251900 0.000000
-5.204700 0.000000
-5.157400 0.000000
-5.110200 0.000000
-5.063000 0.000000
-5.015700 0.000000
-4.968500 0.000000
-4.921300 0.000000
-4.874000 0.000000
-4.826800 0.000000
-4.779500 0.000000
-4.732300 0.000000
-4.685100 0.000000
-4.637800 0.000000
-4.590600 0.000000
-4.543400 0.000000
-4.496100 0.000000
-4.448900 0.000000
-4.401600 0.000000
-4.354400 0.000000
-4.307200 0.000000
-4.259900 0.000000
-4.212700 0.000000
-4.165500 0.000000
-4.118200 0.000000
-4.071000 0.000000
-4.023700 0.000000
-3.976500 0.000000
-3.929300 0.000000
-3.882000 0.000000
-3.834800 0.000000
-3.787600 0.000000
-3.740300 0.000000
-3.693100 0.000000
-3.645900 0.000000
-3.598600 0.000000
-3.551400 0.000000
-3.504100 0.000000
-3.456900 0.000000
-3.409700 0.000000
-3.362400 0.000000
-3.315200 0.000000
-3.268000 0.000000
-3.220700 0.000000
-3.173500 0.000000
-3.126200 0.000000
-3.079000 0.000000
-3.031800 0.000000
-2.984500 0.000000
-2.937300 0.000000
-2.890100 0.008100
-2.842800 0.051700
-2.795600 0.120100
-2.748300 0.207600
-2.701100 0.315100
-2.653900 0.447400
-2.606600 0.556600
-2.559400 0.655500
-2.512200 0.767500
-2.464900 1.641100
-2.417700 2.347200
-2.370400 2.400700
-2.323200 2.524000
-2.276000 2.414400
-2.228700 2.421800
-2.181500 2.469500
-2.134300 2.842500
-2.087000 2.161300
-2.039800 1.593900
-1.992600 1.284200
-1.945300 1.399400
-1.898100 1.690800
-1.850800 2.104900
-1.803600 3.165100
-1.756400 3.076000
-1.709100 3.010900
-1.661900 2.092900
-1.614700 1.482300
-1.567400 1.099600
-1.520200 1.914300
-1.472900 2.167500
-1.425700 1.487900
-1.378500 1.050700
-1.331200 0.956400
-1.284000 1.024500
-1.236800 1.737600
-1.189500 1.236900
-1.142300 1.138700
-1.095000 1.048000
-1.047800 1.057500
-1.000600 0.688200
-0.953300 0.518700
-0.906100 0.410200
-0.858900 0.194800
-0.811600 0.080800
-0.764400 0.385100
-0.717100 0.523300
-0.669900 0.600600
-0.622700 0.733000
-0.575400 1.024400
-0.528200 1.581000
-0.481000 2.078200
-0.433700 2.344800
-0.386500 2.418100
-0.339300 1.940800
-0.292000 1.825500
-0.244800 1.714500
-0.197500 2.267700
-0.150300 2.162500
-0.103100 2.236700
-0.055800 2.466800
-0.008600 3.469500
0.038600 3.604400
0.085900 1.733100
0.133100 0.974800
0.180400 0.913100
0.227600 0.783000
0.274800 0.678100
0.322100 0.654700
0.369300 0.687300
0.416500 0.704200
0.463800 0.734700
0.511000 0.781600
0.558300 1.299100
0.605500 1.140500
0.652700 1.407800
0.700000 1.562100
0.747200 1.541600
0.794400 1.539600
0.841700 1.662300
0.888900 1.383700
0.936200 1.482500
0.983400 1.660500
1.030600 1.631300
1.077900 1.507200
1.125100 0.952900
1.172300 0.767000
1.219600 0.841600
1.266800 0.723000
1.314000 0.251000
1.361300 0.000000
1.408500 0.000000
1.455800 0.000000
1.503000 0.000000
1.550200 0.000000
1.597500 0.000000
1.644700 0.000000
1.691900 0.000000
1.739200 0.000000
1.786400 0.000000
1.833700 0.000000
1.880900 0.000000
1.928100 0.000000
1.975400 0.000000
2.022600 0.000000
2.069800 0.000000
2.117100 0.000000
2.164300 0.000000
2.211600 0.000000
2.258800 0.000000
2.306000 0.000000
2.353300 0.000000
2.400500 0.000000
2.447700 0.000000
2.495000 0.000000
2.542200 0.000000
2.589500 0.000000
2.636700 0.000000
2.683900 0.000000
2.731200 0.000000
2.778400 0.000000
2.825600 0.000000
2.872900 0.000000
2.920100 0.000000
2.967300 0.000000
3.014600 0.000000
3.061800 0.000000
3.109100 0.000000
3.156300 0.000000
3.203500 0.000000
3.250800 0.000000
3.298000 0.000000
3.345200 0.000000
3.392500 0.000000
3.439700 0.000000
3.487000 0.000000
3.534200 0.000000
3.581400 0.000000
3.628700 0.000000
3.675900 0.000000
3.723100 0.000000
3.770400 0.000000
3.817600 0.000000
3.864900 0.000000
3.912100 0.000000
3.959300 0.000000
4.006600 0.000000
4.053800 0.000000
4.101000 0.000000
4.148300 0.000000
4.195500 0.000000
4.242800 0.000000
4.290000 0.000000
4.337200 0.000000
4.384500 0.000000
4.431700 0.000000
4.478900 0.000000
4.526200 0.000000
4.573400 0.000000
4.620600 0.000000
4.667900 0.188000
4.715100 1.074000
4.762400 1.320900
4.809600 1.267100
4.856800 1.207100
4.904100 1.236300
4.951300 1.314200
4.998500 1.332500
5.045800 1.007800
5.093000 0.922600
5.140300 0.877300
5.187500 0.837200
5.234700 0.823000
5.282000 0.837000
5.329200 0.875500
5.376400 2.108200
5.423700 1.423800
5.470900 1.178100
5.518200 0.928000
5.565400 0.678300
5.612600 0.480400
5.659900 0.672900
5.707100 0.733600
5.754300 0.535000
5.801600 0.540500
5.848800 0.580300
5.896100 0.620300
5.943300 0.660500
5.990500 0.989600
6.037800 1.779400
6.085000 2.094800
6.132200 4.009100
6.179500 2.826300
6.226700 2.341100
6.273900 1.900300
6.321200 1.635700
6.368400 1.553100
6.415700 1.506400
6.462900 1.513900
6.510100 3.707100
6.557400 0.996500
6.604600 6.261800
6.651800 3.321700
6.699100 2.691900
6.746300 1.322500
6.793600 0.000000
6.840800 0.000000
6.888000 0.000000
6.935300 0.000000
6.982500 0.000000
7.029700 0.000000
7.077000 0.000000
7.124200 0.000000
7.171500 0.000000
7.218700 0.000000
7.265900 0.000000
7.313200 0.000000
7.360400 0.000000
7.407600 0.000000
7.454900 0.112900
7.502100 0.351600
7.549400 0.486100
7.596600 0.691900
7.643800 0.882900
7.691100 0.972100
7.738300 1.064400
7.785500 1.146800
7.832800 1.342800
7.880000 1.940000
7.927200 2.536200
7.974500 3.694700
8.021700 3.403800
8.069000 0.466700
8.116200 0.303500
8.163400 0.504000
8.210700 1.111300
8.257900 1.877700
8.305100 1.530900
8.352400 1.675700
8.399600 1.675400
8.446900 1.710900
8.494100 1.781300
8.541300 1.874300
8.588600 1.968300
8.635800 2.073200
8.683000 1.895300
8.730300 1.328100
8.777500 0.840600
8.824800 0.625400
8.872000 0.572900
8.919200 0.168300
8.966500 0.077100
9.013700 0.058600
9.060900 0.064000
9.108200 0.069200
9.155400 0.073500
9.202700 0.076700
9.249900 0.079100
9.297100 0.080400
9.344400 0.080800
9.391600 0.080300
9.438800 0.080800
9.486100 0.083200
9.533300 0.086400
9.580500 0.089600
9.627800 0.092900
9.675000 0.096200
9.722300 0.099500
9.769500 0.102900
9.816700 0.106300
9.864000 0.110100
9.911200 0.113900
9.958400 0.117700
10.005700 0.121700
10.052900 0.125900
10.100200 0.129900
10.147400 0.133500
10.194600 0.137000
10.241900 0.140300
10.289100 0.143600
10.336300 0.146800
10.383600 0.149800
10.430800 0.152800
10.478100 0.155700
10.525300 0.158500
10.572500 0.161200
10.619800 0.166400
10.667000 0.173600
10.714200 0.180100
10.761500 0.186800
10.808700 0.193300
10.856000 0.199100
10.903200 0.204300
10.950400 0.210100
10.997700 0.216500
11.044900 0.223200
11.092100 0.229900
11.139400 0.236800
11.186600 0.243800
11.233800 0.252200
11.281100 0.259800
11.328300 0.267600
11.375600 0.275900
11.422800 0.284500
11.470000 0.293700
11.517300 0.303700
11.564500 0.314300
11.611700 0.325500
11.659000 0.337400
11.706200 0.350100
11.753500 0.363900
11.800700 0.378700
11.847900 0.393300
11.895200 0.407600
11.942400 0.422500
11.989600 0.438900
12.036900 0.456700
12.084100 0.475400
12.131400 0.494700
12.178600 0.515700
12.225800 0.538600
12.273100 0.566400
12.320300 0.596100
12.367500 0.625300
12.414800 0.664700
12.462000 0.667000
12.509300 0.652800
12.556500 0.606500
12.603700 0.545900
12.651000 0.508300
12.698200 0.476800
12.745400 0.433200
12.792700 0.408100
12.839900 0.399100
12.887100 0.394600
12.934400 0.390200
12.981600 0.386200
13.028900 0.388900
13.076100 0.392500
13.123300 0.397100
13.170600 0.402600
13.217800 0.409000
13.265000 0.416400
13.312300 0.424800
13.359500 0.433000
13.406800 0.437700
13.454000 0.438600
13.501200 0.437700
13.548500 0.446700
13.595700 0.479000
13.642900 0.494600
13.690200 0.490600
13.737400 0.471900
13.784700 0.409600
13.831900 0.437300
13.879100 0.462800
13.926400 0.486300
13.973600 0.545600
14.020800 0.602500
14.068100 0.638500
14.115300 0.631300
14.162600 0.630800
14.209800 0.648100
14.257000 0.672500
14.304300 0.693100
14.351500 0.708600
14.398700 0.719400
14.446000 0.673500
14.493200 0.602200
14.540400 0.513900
14.587700 0.436200
14.634900 0.385300
14.682200 0.337800
14.729400 0.290400
14.776600 0.242900
14.823900 0.195200
14.871100 0.155700
14.918300 0.125400
14.965600 0.123500
15.012800 0.146400
15.060100 0.164400
15.107300 0.182900
15.154500 0.228200
15.201800 0.457200
15.249000 0.495300
15.296200 0.564900
15.343500 0.641200
15.390700 0.746400
15.438000 0.949600
15.485200 1.069800
15.532400 1.087400
15.579700 1.031000
15.626900 0.943300
15.674100 0.857400
15.721400 0.782000
15.768600 0.672600
15.815900 0.529100
15.863100 0.450100
15.910300 0.430300
15.957600 0.425300
16.004800 0.452500
16.052000 0.481400
16.099300 0.518200
16.146500 0.852600
16.193700 1.110900
16.241000 1.073700
16.288200 1.065100
16.335500 1.073800
16.382700 1.067100
16.429900 1.012000
16.477200 0.851300
16.524400 0.796300
16.571600 0.762500
16.618900 0.709700
16.666100 0.641900
16.713400 0.609900
16.760600 0.577400
16.807800 0.546500
16.855100 0.521600
16.902300 0.509900
16.949500 0.528400
16.996800 0.756600
17.044000 0.732000
17.091300 0.584100
17.138500 0.501100
17.185700 0.450400
17.233000 0.435000
17.280200 0.421300
17.327400 0.408500
17.374700 0.396600
17.421900 0.385300
17.469200 0.373500
17.516400 0.360600
17.563600 0.355400
17.610900 0.346500
17.658100 0.334600
17.705300 0.325900
17.752600 0.355100
17.799800 0.396300
17.847000 0.433800
17.894300 0.464100
17.941500 0.486600
17.988800 0.501200
18.036000 0.506200
18.083200 0.499700
18.130500 0.530600
18.177700 0.460500
18.224900 0.483900
18.272200 0.511500
18.319400 0.531000
18.366700 0.543400
18.413900 0.554700
18.461100 0.567800
18.508400 0.582600
18.555600 0.599800
18.602800 0.617200
18.650100 0.635000
18.697300 0.656700
18.744600 0.685700
18.791800 0.728200
18.839000 0.796800
18.886300 0.923800
18.933500 1.044100
18.980700 1.250600
19.028000 1.415400
19.075200 1.563600
19.122500 1.699800
19.169700 1.833300
19.216900 2.120000
19.264200 2.374000
19.311400 3.546000
19.358600 3.301500
19.405900 1.972900
19.453100 1.516500
19.500300 1.236400
19.547600 1.065100
19.594800 0.971800
19.642100 0.912300
19.689300 0.861500
19.736500 0.810400
19.783800 0.759400
19.831000 0.714800
19.878200 0.677200
19.925500 0.641600
19.972700 0.605200
20.020000 0.577900
20.067200 0.554200
20.114400 0.533700
20.161700 0.516200
20.208900 0.500400
20.256100 0.616100
20.303400 0.582500
20.350600 0.597900
20.397900 0.571300
20.445100 0.545700
20.492300 0.528700
20.539600 0.521500
20.586800 0.636900
20.634000 0.654800
20.681300 0.628000
20.728500 0.617100
20.775800 0.615400
20.823000 0.618700
20.870200 0.634500
20.917500 0.698500
20.964700 0.758200
21.011900 0.773400
21.059200 0.751200
21.106400 0.717800
21.153600 0.633100
21.200900 0.590800
21.248100 0.561000
21.295400 0.554100
21.342600 0.561900
21.389800 0.622500
21.437100 0.712800
21.484300 0.775300
21.531500 0.810700
21.578800 0.970200
21.626000 0.898500
21.673300 0.858900
21.720500 0.837700
21.767700 0.771300
21.815000 0.683000
21.862200 0.662300
21.909400 0.654300
21.956700 0.661400
22.003900 0.825500
22.051200 0.907000
22.098400 0.928700
22.145600 0.957000
22.192900 0.933400
22.240100 0.885000
22.287300 0.823100
22.334600 0.748600
22.381800 0.669500
22.429100 0.626900
22.476300 0.672300
22.523500 0.666700
22.570800 0.665500
22.618000 0.609500
22.665200 0.628200
22.712500 0.647100
22.759700 0.664100
22.806900 0.679100
22.854200 0.692100
22.901400 0.709600
22.948700 0.768400
22.995900 0.803700
23.043100 0.839200
23.090400 0.882100
23.137600 0.870300
23.184800 0.841800
23.232100 0.805200
23.279300 0.771700
23.326600 0.722300
23.373800 0.656700
23.421000 0.579800
23.468300 0.538800
23.515500 0.518400
23.562700 0.507800
23.610000 0.505600
23.657200 0.514600
23.704500 0.522300
23.751700 0.528300
23.798900 0.546300
23.846200 0.567100
23.893400 0.579500
23.940600 0.582800
23.987900 0.582600
24.035100 0.577600
24.082400 0.579700
24.129600 0.580500
24.176800 0.579600
24.224100 0.581200
24.271300 0.585200
24.318500 0.589600
24.365800 0.595300
24.413000 0.602100
24.460200 0.609200
24.507500 0.612000
24.554700 0.608300
24.602000 0.610600
24.649200 0.619300
24.696400 0.618800
24.743700 0.626400
24.790900 0.650400
24.838100 0.666600
24.885400 0.670100
24.932600 0.662900
24.979900 0.649700
25.027100 0.647500
25.074300 0.632200
25.121600 0.637100
25.168800 0.582900
25.216000 0.547500
25.263300 0.530200
25.310500 0.520800
25.357800 0.513000
25.405000 0.507200
25.452200 0.519000
25.499500 0.587200
25.546700 0.764800
25.593900 1.011200
25.641200 0.886600
25.688400 0.852500
25.735700 0.813500
25.782900 0.773800
25.830100 0.746500
25.877400 0.728000
25.924600 0.713000
25.971800 0.696900
26.019100 0.692800
26.066300 0.688600
26.113500 0.665300
26.160800 0.629700
26.208000 0.617600
26.255300 0.620100
26.302500 0.631400
26.349700 0.678300
26.397000 0.726500
26.444200 0.771700
26.491400 0.754000
26.538700 0.700600
26.585900 0.689000
26.633200 0.698400
26.680400 0.740500
26.727600 0.801500
26.774900 0.899200
26.822100 0.964700
26.869300 0.942000
26.916600 0.827600
26.963800 0.774900
27.011100 0.699600
27.058300 0.606800
27.105500 0.524700
27.152800 0.457200
27.200000 0.410600
27.247200 0.385400
27.294500 0.382300
27.341700 0.392700
27.389000 0.409200
27.436200 0.433400
27.483400 0.463200
27.530700 0.504100
27.577900 0.553700
27.625100 0.609800
27.672400 0.672400
27.719600 0.736900
27.766800 0.768500
27.814100 0.799800
27.861300 0.850500
27.908600 0.809600
27.955800 0.784700
28.003000 0.813400
28.050300 0.814000
28.097500 0.784500
28.144700 0.736100
28.192000 0.680400
28.239200 0.632800
28.286500 0.596400
28.333700 0.570300
28.380900 0.562300
28.428200 0.569600
28.475400 0.586200
28.522600 0.604000
28.569900 0.620500
28.617100 0.628000
28.664400 0.632700
28.711600 0.658700
28.758800 0.688200
28.806100 0.725900
28.853300 0.764800
28.900500 0.792600
28.947800 0.805100
28.995000 0.802100
29.042300 0.783200
29.089500 0.784400
29.136700 0.806500
29.184000 0.871100
29.231200 1.021500
29.278400 1.200900
29.325700 1.131200
29.372900 1.119800
29.420100 1.118200
29.467400 1.110100
29.514600 1.095800
29.561900 1.055800
29.609100 0.964500
29.656300 0.949900
29.703600 1.022800
29.750800 1.084000
29.798000 1.261200
29.845300 1.335500
29.892500 1.432800
29.939800 1.275700
29.987000 0.817300
30.034200 0.640000
30.081500 0.541200
30.128700 0.514300
30.175900 0.520800
30.223200 0.544200
30.270400 0.566700
30.317700 0.615300
30.364900 0.759300
30.412100 0.922400
30.459400 1.000100
30.506600 1.023000
30.553800 1.050900
30.601100 1.035800
30.648300 1.053000
30.695600 1.145500
30.742800 1.230200
30.790000 1.290700
30.837300 1.332900
30.884500 1.354900
30.931700 1.351700
30.979000 1.336100
31.026200 1.331500
31.073400 1.552800
31.120700 1.573100
31.167900 1.668300
31.215200 1.740000
31.262400 1.601700
31.309600 1.381700
31.356900 1.136600
31.404100 1.028000
31.451300 0.949100
31.498600 0.914500
31.545800 0.892600
31.593100 0.918900
31.640300 0.923600
31.687500 0.897800
31.734800 0.836000
31.782000 0.769600
31.829200 0.849800
31.876500 0.948700
31.923700 1.082100
31.971000 1.175900
32.018200 1.194200
32.065400 1.201100
32.112700 1.527000
32.159900 0.939700
32.207100 0.901100
32.254400 0.866800
32.301600 0.840300
32.348900 0.817400
32.396100 0.874100
32.443300 0.910200
32.490600 0.924000
32.537800 0.955200
32.585000 1.010100
32.632300 1.010000
32.679500 0.954300
32.726700 0.843900
32.774000 0.646300
32.821200 0.586400
32.868500 0.573300
32.915700 0.573200
32.962900 0.582500
33.010200 0.679600
33.057400 0.658100
33.104600 0.658100
33.151900 0.690800
33.199100 0.729100
33.246400 0.769100
33.293600 0.797300
33.340800 0.833200
33.388100 0.882000
33.435300 0.936400
33.482500 0.973700
33.529800 0.986200
33.577000 0.984200
33.624300 0.969400
33.671500 0.944300
33.718700 0.938600
33.766000 0.935600
33.813200 0.888100
33.860400 0.800700
33.907700 0.702000
33.954900 0.600100
34.002200 0.515700
34.049400 0.442600
34.096600 0.395000
34.143900 0.382400
34.191100 0.393600
34.238300 0.437400
34.285600 0.550600
34.332800 0.712100
34.380000 0.862000
34.427300 0.990200
34.474500 1.114800
34.521800 1.584200
34.569000 1.685600
34.616200 1.575400
34.663500 1.545500
34.710700 1.496300
34.757900 1.407800
34.805200 1.353700
34.852400 1.343700
34.899700 1.383900
34.946900 1.153600
34.994100 1.014800
35.041400 0.850700
35.088600 0.651000
35.135800 0.582100
35.183100 0.544700
35.230300 0.516800
35.277600 0.477600
35.324800 0.447600
35.372000 0.437200
35.419300 0.434300
35.466500 0.452500
35.513700 0.521800
35.561000 0.604100
35.608200 0.722600
35.655500 0.850800
35.702700 0.895000
35.749900 0.945800
35.797200 0.949000
35.844400 0.977700
35.891600 1.005500
35.938900 1.033800
35.986100 1.173000
36.033300 1.120600
36.080600 1.109700
36.127800 1.113900
36.175100 1.100100
36.222300 1.035000
36.269500 0.996600
36.316800 0.958700
36.364000 0.934200
36.411200 0.936000
36.458500 0.942700
36.505700 0.955000
36.553000 0.966100
36.600200 0.972300
36.647400 0.969900
36.694700 0.976500
36.741900 0.949700
36.789100 0.961500
36.836400 0.980000
36.883600 1.007900
36.930900 1.029400
36.978100 1.044100
37.025300 1.048200
37.072600 1.041200
37.119800 1.022500
37.167000 1.026700
37.214300 1.094400
37.261500 1.070300
37.308800 1.060300
37.356000 1.058600
37.403200 1.053800
37.450500 1.043900
37.497700 1.039400
37.544900 1.043600
37.592200 1.066000
37.639400 1.069600
37.686600 1.019600
37.733900 0.982700
37.781100 0.964200
37.828400 0.959000
37.875600 0.955200
37.922800 0.961400
37.970100 0.996300
38.017300 1.051100
38.064500 1.090000
38.111800 1.170200
38.159000 1.237900
38.206300 1.251800
38.253500 1.168000
38.300700 1.210300
38.348000 1.294900
38.395200 1.442500
38.442400 1.437500
38.489700 1.312100
38.536900 1.229200
38.584200 1.141200
38.631400 1.061400
38.678600 1.057600
38.725900 0.989200
38.773100 0.903800
38.820300 0.956700
38.867600 1.010500
38.914800 1.061200
38.962100 1.107800
39.009300 1.155400
39.056500 1.254500
39.103800 1.519300
39.151000 1.532400
39.198200 1.387600
39.245500 1.466200
39.292700 1.517500
39.339900 1.248000
39.387200 1.168500
39.434400 1.054900
39.481700 0.903000
39.528900 0.720900
39.576100 0.664700
39.623400 0.672600
39.670600 0.632300
39.717800 0.609800
39.765100 0.593600
39.812300 0.581000
39.859600 0.572600
39.906800 0.573700
39.954000 0.587800
40.001300 0.607100
40.048500 0.627300
40.095700 0.649100
40.143000 0.667500
40.190200 0.686800
40.237500 0.704200
40.284700 0.827500
40.331900 0.835700
40.379200 0.813000
40.426400 0.747400
40.473600 0.684900
40.520900 0.637800
40.568100 0.612500
40.615400 0.610400
40.662600 0.615900
40.709800 0.687300
40.757100 0.773300
40.804300 0.855400
40.851500 0.945100
40.898800 1.036300
40.946000 1.107200
40.993200 1.152400
41.040500 1.187700
41.087700 1.133600
41.135000 1.104200
41.182200 1.137500
41.229400 1.133800
41.276700 1.180900
41.323900 1.184200
41.371100 1.094200
41.418400 0.903500
41.465600 0.857000
41.512900 0.834600
41.560100 0.847500
41.607300 0.889200
41.654600 0.946700
41.701800 0.975600
41.749000 0.975300
41.796300 1.092900
41.843500 1.067300
41.890800 1.059100
41.938000 0.961900
41.985200 0.934800
42.032500 0.912900
42.079700 0.916600
42.126900 0.929600
42.174200 1.055600
42.221400 0.987800
42.268700 1.022300
42.315900 1.039000
42.363100 1.023600
42.410400 1.000200
42.457600 1.002600
42.504800 1.021200
42.552100 1.031500
42.599300 1.040200
42.646500 1.024900
42.693800 1.039300
42.741000 1.091700
42.788300 1.114800
42.835500 1.109900
42.882700 1.069800
42.930000 0.972600
42.977200 0.763000
43.024400 0.541300
43.071700 0.432900
43.118900 0.394800
43.166200 0.371500
43.213400 0.354500
43.260600 0.360200
43.307900 0.401000
43.355100 0.446600
43.402300 0.515500
43.449600 0.639300
43.496800 0.863300
43.544100 0.982100
43.591300 1.037400
43.638500 1.042100
43.685800 1.094700
43.733000 1.198100
43.780200 1.329900
43.827500 1.273200
43.874700 1.178400
43.922000 1.066200
43.969200 0.961400
44.016400 0.865500
44.063700 0.779900
44.110900 0.748600
44.158100 0.777100
44.205400 0.537300
44.252600 0.568700
44.299800 0.632000
44.347100 0.750300
44.394300 0.688200
44.441600 0.742400
44.488800 0.759700
44.536000 0.797400
44.583300 0.835900
44.630500 0.885000
44.677700 0.932900
44.725000 0.931900
44.772200 0.957000
44.819500 0.995500
44.866700 1.035100
44.913900 1.068300
44.961200 1.237200
45.008400 1.114000
45.055600 1.080500
45.102900 1.045000
45.150100 1.022000
45.197400 0.954900
45.244600 0.874100
45.291800 0.821000
45.339100 0.786900
45.386300 0.769600
45.433500 0.807600
45.480800 0.816500
45.528000 0.846100
45.575300 0.903800
45.622500 0.995900
45.669700 1.074800
45.717000 1.136000
45.764200 1.180200
45.811400 1.201300
45.858700 1.392300
45.905900 1.521900
45.953100 1.605600
46.000400 1.661200
46.047600 1.693100
46.094900 1.769400
46.142100 1.562500
46.189300 1.412000
46.236600 1.291800
46.283800 1.166800
46.331000 0.918500
46.378300 0.825100
46.425500 0.716000
46.472800 0.822700
46.520000 0.791800
46.567200 0.801500
46.614500 0.881900
46.661700 0.989100
46.708900 1.072300
46.756200 1.089500
46.803400 1.091300
46.850700 1.094100
46.897900 1.049000
46.945100 1.230000
46.992400 1.385100
47.039600 1.037700
47.086800 0.949800
47.134100 0.917400
47.181300 0.909700
47.228600 0.920100
47.275800 0.920100
47.323000 0.954200
47.370300 0.998800
47.417500 1.055700
47.464700 1.125500
47.512000 1.350700
47.559200 1.484100
47.606400 1.413300
47.653700 1.366100
47.700900 1.324000
47.748200 1.240000
47.795400 1.139500
47.842600 1.056900
47.889900 0.999300
47.937100 0.993000
47.984300 1.033800
48.031600 1.101800
48.078800 1.174600
48.126100 1.173100
48.173300 1.165200
48.220500 1.148700
48.267800 1.115500
48.315000 1.073600
48.362200 1.022600
48.409500 0.970400
48.456700 1.038700
48.504000 0.966400
48.551200 0.949800
48.598400 0.967600
48.645700 1.121700
48.692900 1.338500
48.740100 1.367900
48.787400 1.334300
48.834600 1.233200
48.881900 0.928500
48.929100 0.664000
48.976300 0.545800
49.023600 0.445500
49.070800 0.362100
49.118000 0.294900
49.165300 0.247500
49.212500 0.243900
49.259700 0.242600
49.307000 0.241500
49.354200 0.240400
49.401500 0.239300
49.448700 0.238200
49.495900 0.237200
49.543200 0.349300
49.590400 0.297700
49.637600 0.365100
49.684900 0.210800
49.732100 0.145200
49.779400 0.101000
49.826600 0.077100
49.873800 0.062400
49.921100 0.051500
49.968300 0.044500
50.015500 0.041100
50.062800 0.038700
50.110000 0.036300
50.157300 0.034000
50.204500 0.031700
50.251700 0.029500
50.299000 0.027400
50.346200 0.025300
50.393400 0.023200
50.440700 0.021200
50.487900 0.019300
50.535200 0.017900
50.582400 0.016700
50.629600 0.015600
50.676900 0.014500
50.724100 0.013500
50.771300 0.012400
50.818600 0.011500
50.865800 0.010500
50.913000 0.009600
50.960300 0.008700
51.007500 0.007900
51.054800 0.007100
51.102000 0.006300
51.149200 0.005600
51.196500 0.004800
51.243700 0.004200
51.290900 0.003500
51.338200 0.002900
51.385400 0.002400
51.432700 0.001900
51.479900 0.001400
51.527100 0.000900
51.574400 0.000500
51.621600 0.000100
51.668800 0.000000
51.716100 0.000000
51.763300 0.000000
51.810600 0.000000
51.857800 0.000000
51.905000 0.000000
51.952300 0.000000
51.999500 0.000000
52.046700 0.000000
52.094000 0.000000
52.141200 0.000000
52.188500 0.000000
52.235700 0.000000
52.282900 0.000000
52.330200 0.000000
52.377400 0.000000
52.424600 0.000000
52.471900 0.000000
52.519100 0.000000
52.566300 0.000000
52.613600 0.000000
52.660800 0.000000
52.708100 0.000000
52.755300 0.000000
52.802500 0.000000
52.849800 0.000000
52.897000 0.000000
52.944200 0.000000
52.991500 0.000000
53.038700 0.000000
53.086000 0.000000
53.133200 0.000000
53.180400 0.000000
53.227700 0.000000
53.274900 0.000000
53.322100 0.000000
53.369400 0.000000
53.416600 0.000000
53.463900 0.000000
53.511100 0.000000
53.558300 0.000000
53.605600 0.000000
53.652800 0.000000
53.700000 0.000000
53.747300 0.000000
53.794500 0.000000
53.841800 0.000000
53.889000 0.000000
53.936200 0.000000
53.983500 0.000000
54.030700 0.000000
54.077900 0.000000
54.125200 0.000000
54.172400 0.000000
54.219600 0.000000
54.266900 0.000000
54.314100 0.000000
54.361400 0.000000
54.408600 0.000000
54.455800 0.000000
54.503100 0.000000
54.550300 0.000000
54.597500 0.000000
54.644800 0.000000
54.692000 0.000000
54.739300 0.000000
54.786500 0.000000
54.833700 0.000000
54.881000 0.000000
54.928200 0.000000
54.975400 0.000000
55.022700 0.000000
55.069900 0.000000
55.117200 0.000000
55.164400 0.000000
55.211600 0.000000
55.258900 0.000000
55.306100 0.000000
55.353300 0.000000
55.400600 0.000000
55.447800 0.000000
55.495100 0.000000
55.542300 0.000000
55.589500 0.000000
55.636800 0.000000
55.684000 0.000000
55.731200 0.000000
55.778500 0.000000
55.825700 0.000000
55.872900 0.000000
55.920200 0.000000
55.967400 0.000000
e
