set title 'mp-867780 - Density of States'
set xlabel 'Energy (eV)'
set ylabel 'DOS (states/eV)'
set grid
set xrange [-10:10]
set yrange [0:4.946]
set xzeroaxis lt -1
set terminal png size 800,600
set output 'mp-867780_dos_gnuplot.png'
plot '-' using 1:2 with lines title 'DOS'
-38.712100 0.000000
-38.669800 0.000000
-38.627400 0.000000
-38.585100 0.000000
-38.542800 0.000000
-38.500500 0.000000
-38.458200 0.000000
-38.415900 0.000000
-38.373600 0.000000
-38.331300 0.000000
-38.289000 0.000000
-38.246700 0.000000
-38.204400 0.000000
-38.162100 0.000000
-38.119700 0.000000
-38.077400 0.000000
-38.035100 0.000000
-37.992800 0.000000
-37.950500 0.000000
-37.908200 0.000000
-37.865900 0.000000
-37.823600 0.000000
-37.781300 0.000000
-37.739000 0.000000
-37.696700 0.000000
-37.654400 0.000000
-37.612000 0.000000
-37.569700 0.000000
-37.527400 0.000000
-37.485100 0.000000
-37.442800 0.000000
-37.400500 0.000000
-37.358200 0.000000
-37.315900 0.000000
-37.273600 0.000000
-37.231300 0.000000
-37.189000 0.000000
-37.146700 0.000000
-37.104400 0.000000
-37.062000 0.000000
-37.019700 0.000000
-36.977400 0.000000
-36.935100 0.000000
-36.892800 0.000000
-36.850500 0.000000
-36.808200 0.000000
-36.765900 0.000000
-36.723600 0.000000
-36.681300 0.000000
-36.639000 0.000000
-36.596700 0.000000
-36.554300 0.000000
-36.512000 0.000000
-36.469700 0.000000
-36.427400 0.000000
-36.385100 0.000000
-36.342800 0.000000
-36.300500 0.000000
-36.258200 0.000000
-36.215900 0.000000
-36.173600 0.000000
-36.131300 0.000000
-36.089000 0.000000
-36.046600 0.000000
-36.004300 0.000000
-35.962000 0.000000
-35.919700 0.000000
-35.877400 0.000000
-35.835100 0.000000
-35.792800 0.000000
-35.750500 0.000000
-35.708200 0.000000
-35.665900 0.000000
-35.623600 0.000000
-35.581300 0.000000
-35.539000 0.000000
-35.496600 0.000000
-35.454300 0.000000
-35.412000 0.000000
-35.369700 0.000000
-35.327400 0.000000
-35.285100 0.000000
-35.242800 0.000000
-35.200500 0.000000
-35.158200 0.000000
-35.115900 0.000000
-35.073600 0.000000
-35.031300 0.000000
-34.988900 0.007800
-34.946600 0.384800
-34.904300 5.032000
-34.862000 18.157600
-34.819700 19.955800
-34.777400 13.068700
-34.735100 10.398500
-34.692800 3.549800
-34.650500 0.344300
-34.608200 0.008900
-34.565900 0.000100
-34.523600 0.000000
-34.481200 0.000000
-34.438900 0.000000
-34.396600 0.000000
-34.354300 0.000000
-34.312000 0.000000
-34.269700 0.000000
-34.227400 0.000000
-34.185100 0.000000
-34.142800 0.000000
-34.100500 0.000000
-34.058200 0.000000
-34.015900 0.000000
-33.973600 0.000000
-33.931200 0.000000
-33.888900 0.000000
-33.846600 0.000000
-33.804300 0.000000
-33.762000 0.000000
-33.719700 0.000000
-33.677400 0.000000
-33.635100 0.000000
-33.592800 0.000000
-33.550500 0.000000
-33.508200 0.000000
-33.465900 0.000000
-33.423500 0.000000
-33.381200 0.000000
-33.338900 0.000000
-33.296600 0.000000
-33.254300 0.000000
-33.212000 0.000000
-33.169700 0.000000
-33.127400 0.000000
-33.085100 0.000000
-33.042800 0.000000
-33.000500 0.000000
-32.958200 0.000000
-32.915800 0.000000
-32.873500 0.000000
-32.831200 0.000000
-32.788900 0.000000
-32.746600 0.000000
-32.704300 0.000000
-32.662000 0.000000
-32.619700 0.000000
-32.577400 0.000000
-32.535100 0.000000
-32.492800 0.000000
-32.450500 0.000000
-32.408200 0.000000
-32.365800 0.000000
-32.323500 0.000000
-32.281200 0.000000
-32.238900 0.000000
-32.196600 0.000000
-32.154300 0.000000
-32.112000 0.000000
-32.069700 0.000000
-32.027400 0.000000
-31.985100 0.000000
-31.942800 0.000000
-31.900500 0.000000
-31.858100 0.000000
-31.815800 0.000000
-31.773500 0.000000
-31.731200 0.000000
-31.688900 0.000000
-31.646600 0.000000
-31.604300 0.000000
-31.562000 0.000000
-31.519700 0.000000
-31.477400 0.000000
-31.435100 0.000000
-31.392800 0.000000
-31.350400 0.000000
-31.308100 0.000000
-31.265800 0.000000
-31.223500 0.000000
-31.181200 0.000000
-31.138900 0.000000
-31.096600 0.000000
-31.054300 0.000000
-31.012000 0.000000
-30.969700 0.000000
-30.927400 0.000000
-30.885100 0.000000
-30.842800 0.000000
-30.800400 0.000000
-30.758100 0.000000
-30.715800 0.000000
-30.673500 0.000000
-30.631200 0.000000
-30.588900 0.000000
-30.546600 0.000000
-30.504300 0.000000
-30.462000 0.000000
-30.419700 0.000000
-30.377400 0.000000
-30.335100 0.000000
-30.292700 0.000000
-30.250400 0.000000
-30.208100 0.000000
-30.165800 0.000000
-30.123500 0.000000
-30.081200 0.000000
-30.038900 0.000000
-29.996600 0.000000
-29.954300 0.000000
-29.912000 0.000000
-29.869700 0.000000
-29.827400 0.000000
-29.785000 0.000000
-29.742700 0.000000
-29.700400 0.000000
-29.658100 0.000000
-29.615800 0.000000
-29.573500 0.000000
-29.531200 0.000000
-29.488900 0.000000
-29.446600 0.000000
-29.404300 0.000000
-29.362000 0.000000
-29.319700 0.000000
-29.277300 0.000000
-29.235000 0.000000
-29.192700 0.000000
-29.150400 0.000000
-29.108100 0.000000
-29.065800 0.000000
-29.023500 0.000000
-28.981200 0.000000
-28.938900 0.000000
-28.896600 0.000000
-28.854300 0.000000
-28.812000 0.000000
-28.769700 0.000000
-28.727300 0.000000
-28.685000 0.000000
-28.642700 0.000000
-28.600400 0.000000
-28.558100 0.000000
-28.515800 0.000000
-28.473500 0.000000
-28.431200 0.000000
-28.388900 0.000000
-28.346600 0.000000
-28.304300 0.000000
-28.262000 0.000000
-28.219600 0.000000
-28.177300 0.000000
-28.135000 0.000000
-28.092700 0.000000
-28.050400 0.000000
-28.008100 0.000000
-27.965800 0.000000
-27.923500 0.000000
-27.881200 0.000000
-27.838900 0.000000
-27.796600 0.000000
-27.754300 0.000000
-27.711900 0.000000
-27.669600 0.000000
-27.627300 0.000000
-27.585000 0.000000
-27.542700 0.000000
-27.500400 0.000000
-27.458100 0.000000
-27.415800 0.000000
-27.373500 0.000000
-27.331200 0.000000
-27.288900 0.000000
-27.246600 0.000000
-27.204300 0.000000
-27.161900 0.000000
-27.119600 0.000000
-27.077300 0.000000
-27.035000 0.000000
-26.992700 0.000000
-26.950400 0.000000
-26.908100 0.000000
-26.865800 0.000000
-26.823500 0.000000
-26.781200 0.000000
-26.738900 0.000000
-26.696600 0.000000
-26.654200 0.000000
-26.611900 0.000000
-26.569600 0.000000
-26.527300 0.000000
-26.485000 0.000000
-26.442700 0.000000
-26.400400 0.000000
-26.358100 0.000000
-26.315800 0.000000
-26.273500 0.000000
-26.231200 0.000000
-26.188900 0.000000
-26.146500 0.000000
-26.104200 0.000000
-26.061900 0.000000
-26.019600 0.000000
-25.977300 0.000000
-25.935000 0.000000
-25.892700 0.000000
-25.850400 0.000000
-25.808100 0.000000
-25.765800 0.000000
-25.723500 0.000000
-25.681200 0.000000
-25.638900 0.000000
-25.596500 0.000000
-25.554200 0.000000
-25.511900 0.000000
-25.469600 0.000000
-25.427300 0.000000
-25.385000 0.000000
-25.342700 0.000000
-25.300400 0.000000
-25.258100 0.000000
-25.215800 0.000000
-25.173500 0.000000
-25.131200 0.000000
-25.088800 0.000000
-25.046500 0.000000
-25.004200 0.000000
-24.961900 0.000000
-24.919600 0.000000
-24.877300 0.000000
-24.835000 0.000000
-24.792700 0.000000
-24.750400 0.000000
-24.708100 0.000000
-24.665800 0.000000
-24.623500 0.000000
-24.581100 0.000000
-24.538800 0.000000
-24.496500 0.000000
-24.454200 0.000000
-24.411900 0.000000
-24.369600 0.000000
-24.327300 0.000000
-24.285000 0.000000
-24.242700 0.000000
-24.200400 0.000000
-24.158100 0.000000
-24.115800 0.000000
-24.073500 0.000000
-24.031100 0.000000
-23.988800 0.000000
-23.946500 0.000000
-23.904200 0.000000
-23.861900 0.000000
-23.819600 0.000000
-23.777300 0.000000
-23.735000 0.000000
-23.692700 0.000000
-23.650400 0.000000
-23.608100 0.000000
-23.565800 0.000000
-23.523400 0.000000
-23.481100 0.000000
-23.438800 0.000000
-23.396500 0.000000
-23.354200 0.000000
-23.311900 0.000000
-23.269600 0.000000
-23.227300 0.000000
-23.185000 0.000000
-23.142700 0.000000
-23.100400 0.000000
-23.058100 0.000000
-23.015700 0.000000
-22.973400 0.000000
-22.931100 0.000000
-22.888800 0.000000
-22.846500 0.000000
-22.804200 0.000000
-22.761900 0.000000
-22.719600 0.000000
-22.677300 0.000000
-22.635000 0.000000
-22.592700 0.000000
-22.550400 0.000000
-22.508100 0.000000
-22.465700 0.000000
-22.423400 0.000000
-22.381100 0.000000
-22.338800 0.000000
-22.296500 0.000000
-22.254200 0.000000
-22.211900 0.000000
-22.169600 0.000000
-22.127300 0.000000
-22.085000 0.000000
-22.042700 0.000000
-22.000400 0.000000
-21.958000 0.000000
-21.915700 0.000000
-21.873400 0.000000
-21.831100 0.000000
-21.788800 0.000000
-21.746500 0.000000
-21.704200 0.000000
-21.661900 0.000000
-21.619600 0.000000
-21.577300 0.000000
-21.535000 0.000000
-21.492700 0.000000
-21.450300 0.000000
-21.408000 0.000000
-21.365700 0.000000
-21.323400 0.000000
-21.281100 0.000000
-21.238800 0.000000
-21.196500 0.000000
-21.154200 0.000000
-21.111900 0.000000
-21.069600 0.000000
-21.027300 0.000000
-20.985000 0.000000
-20.942700 0.000000
-20.900300 0.000000
-20.858000 0.000000
-20.815700 0.000000
-20.773400 0.000000
-20.731100 0.000000
-20.688800 0.000000
-20.646500 0.000000
-20.604200 0.000000
-20.561900 0.000000
-20.519600 0.000000
-20.477300 0.000000
-20.435000 0.000000
-20.392600 0.000000
-20.350300 0.000000
-20.308000 0.000000
-20.265700 0.000000
-20.223400 0.000000
-20.181100 0.000000
-20.138800 0.000000
-20.096500 0.000000
-20.054200 0.000000
-20.011900 0.000000
-19.969600 0.000000
-19.927300 0.000000
-19.884900 0.000000
-19.842600 0.000000
-19.800300 0.000000
-19.758000 0.000000
-19.715700 0.000000
-19.673400 0.000000
-19.631100 0.000000
-19.588800 0.000000
-19.546500 0.000000
-19.504200 0.000000
-19.461900 0.000000
-19.419600 0.000000
-19.377300 0.000000
-19.334900 0.000000
-19.292600 0.000000
-19.250300 0.000000
-19.208000 0.000000
-19.165700 0.000000
-19.123400 0.000000
-19.081100 0.000000
-19.038800 0.000000
-18.996500 0.000000
-18.954200 0.000000
-18.911900 0.000000
-18.869600 0.000000
-18.827200 0.000000
-18.784900 0.000000
-18.742600 0.000000
-18.700300 0.000000
-18.658000 0.000000
-18.615700 0.000000
-18.573400 0.000000
-18.531100 0.000000
-18.488800 0.000000
-18.446500 0.000000
-18.404200 0.000000
-18.361900 0.000000
-18.319500 0.000000
-18.277200 0.000000
-18.234900 0.000000
-18.192600 0.000000
-18.150300 0.000000
-18.108000 0.000000
-18.065700 0.000000
-18.023400 0.000000
-17.981100 0.000000
-17.938800 0.000000
-17.896500 0.000000
-17.854200 0.000000
-17.811900 0.000000
-17.769500 0.000000
-17.727200 0.000000
-17.684900 0.000000
-17.642600 0.000000
-17.600300 0.000000
-17.558000 0.000000
-17.515700 0.000000
-17.473400 0.000000
-17.431100 0.000000
-17.388800 0.000000
-17.346500 0.000000
-17.304200 0.000000
-17.261800 0.000000
-17.219500 0.000000
-17.177200 0.000000
-17.134900 0.000000
-17.092600 0.000000
-17.050300 0.000000
-17.008000 0.000000
-16.965700 0.000000
-16.923400 0.000000
-16.881100 0.000000
-16.838800 0.000000
-16.796500 0.000000
-16.754100 0.000000
-16.711800 0.000000
-16.669500 0.000000
-16.627200 0.000000
-16.584900 0.000000
-16.542600 0.000000
-16.500300 0.000000
-16.458000 0.000000
-16.415700 0.000000
-16.373400 0.000000
-16.331100 0.000000
-16.288800 0.000000
-16.246500 0.000000
-16.204100 0.000000
-16.161800 0.000000
-16.119500 0.000000
-16.077200 0.000000
-16.034900 0.000000
-15.992600 0.000000
-15.950300 0.000000
-15.908000 0.000000
-15.865700 0.000000
-15.823400 0.000000
-15.781100 0.000000
-15.738800 0.000000
-15.696400 0.000000
-15.654100 0.000000
-15.611800 0.000000
-15.569500 0.000000
-15.527200 0.000000
-15.484900 0.000000
-15.442600 0.000000
-15.400300 0.000000
-15.358000 0.000000
-15.315700 0.000000
-15.273400 0.000000
-15.231100 0.000000
-15.188700 0.000000
-15.146400 0.000000
-15.104100 0.000000
-15.061800 0.000000
-15.019500 0.000000
-14.977200 0.000000
-14.934900 0.000000
-14.892600 0.000000
-14.850300 0.000000
-14.808000 0.000000
-14.765700 0.000000
-14.723400 0.000000
-14.681100 0.000000
-14.638700 0.000000
-14.596400 0.000000
-14.554100 0.000000
-14.511800 0.000000
-14.469500 0.000000
-14.427200 0.000000
-14.384900 0.000000
-14.342600 0.000000
-14.300300 0.000000
-14.258000 0.000000
-14.215700 0.000000
-14.173400 0.000000
-14.131000 0.000000
-14.088700 0.000000
-14.046400 0.000000
-14.004100 0.000000
-13.961800 0.000000
-13.919500 0.000000
-13.877200 0.000000
-13.834900 0.000000
-13.792600 0.000000
-13.750300 0.000000
-13.708000 0.000000
-13.665700 0.000000
-13.623300 0.000000
-13.581000 0.000000
-13.538700 0.000000
-13.496400 0.000000
-13.454100 0.000000
-13.411800 0.000000
-13.369500 0.000000
-13.327200 0.000000
-13.284900 0.000000
-13.242600 0.000000
-13.200300 0.000000
-13.158000 0.000000
-13.115700 0.000000
-13.073300 0.000000
-13.031000 0.000000
-12.988700 0.000000
-12.946400 0.000000
-12.904100 0.000000
-12.861800 0.000000
-12.819500 0.000000
-12.777200 0.000000
-12.734900 0.000000
-12.692600 0.000000
-12.650300 0.000000
-12.608000 0.000000
-12.565600 0.000000
-12.523300 0.000000
-12.481000 0.000000
-12.438700 0.000000
-12.396400 0.000000
-12.354100 0.000000
-12.311800 0.000000
-12.269500 0.000000
-12.227200 0.000000
-12.184900 0.000000
-12.142600 0.000000
-12.100300 0.000000
-12.057900 0.000000
-12.015600 0.000000
-11.973300 0.000000
-11.931000 0.000000
-11.888700 0.000000
-11.846400 0.000000
-11.804100 0.000000
-11.761800 0.000000
-11.719500 0.000000
-11.677200 0.000000
-11.634900 0.000000
-11.592600 0.000000
-11.550200 0.000000
-11.507900 0.000000
-11.465600 0.000000
-11.423300 0.000000
-11.381000 0.000000
-11.338700 0.000000
-11.296400 0.000000
-11.254100 0.000000
-11.211800 0.000000
-11.169500 0.000000
-11.127200 0.000000
-11.084900 0.000000
-11.042600 0.000000
-11.000200 0.000000
-10.957900 0.000000
-10.915600 0.000000
-10.873300 0.000000
-10.831000 0.000000
-10.788700 0.000000
-10.746400 0.000000
-10.704100 0.000000
-10.661800 0.000000
-10.619500 0.000000
-10.577200 0.000000
-10.534900 0.000000
-10.492500 0.000000
-10.450200 0.000000
-10.407900 0.000000
-10.365600 0.000000
-10.323300 0.000000
-10.281000 0.000000
-10.238700 0.000000
-10.196400 0.000000
-10.154100 0.000000
-10.111800 0.000000
-10.069500 0.000000
-10.027200 0.000000
-9.984800 0.000000
-9.942500 0.000000
-9.900200 0.000000
-9.857900 0.000000
-9.815600 0.000000
-9.773300 0.000000
-9.731000 0.000000
-9.688700 0.000000
-9.646400 0.000000
-9.604100 0.000000
-9.561800 0.000000
-9.519500 0.000000
-9.477200 0.000000
-9.434800 0.000000
-9.392500 0.000000
-9.350200 0.000000
-9.307900 0.000000
-9.265600 0.000000
-9.223300 0.000000
-9.181000 0.000000
-9.138700 0.000000
-9.096400 0.000000
-9.054100 0.000000
-9.011800 0.000000
-8.969500 0.000000
-8.927100 0.000000
-8.884800 0.000000
-8.842500 0.000000
-8.800200 0.000000
-8.757900 0.000000
-8.715600 0.000000
-8.673300 0.000000
-8.631000 0.000000
-8.588700 0.000000
-8.546400 0.000000
-8.504100 0.000000
-8.461800 0.000000
-8.419400 0.000000
-8.377100 0.000000
-8.334800 0.000000
-8.292500 0.000000
-8.250200 0.000000
-8.207900 0.000000
-8.165600 0.000000
-8.123300 0.000000
-8.081000 0.000000
-8.038700 0.000000
-7.996400 0.000000
-7.954100 0.000000
-7.911800 0.000000
-7.869400 0.000000
-7.827100 0.000000
-7.784800 0.000000
-7.742500 0.000000
-7.700200 0.000000
-7.657900 0.000000
-7.615600 0.000000
-7.573300 0.000000
-7.531000 0.000000
-7.488700 0.000000
-7.446400 0.000000
-7.404100 0.000000
-7.361700 0.000000
-7.319400 0.000000
-7.277100 0.000000
-7.234800 0.000000
-7.192500 0.000000
-7.150200 0.000000
-7.107900 0.000000
-7.065600 0.000000
-7.023300 0.000000
-6.981000 0.000000
-6.938700 0.000000
-6.896400 0.000000
-6.854000 0.000000
-6.811700 0.000000
-6.769400 0.000000
-6.727100 0.000000
-6.684800 0.000000
-6.642500 0.000000
-6.600200 0.000000
-6.557900 0.000000
-6.515600 0.000000
-6.473300 0.000000
-6.431000 0.000000
-6.388700 0.000000
-6.346400 0.000000
-6.304000 0.000000
-6.261700 0.000000
-6.219400 0.000000
-6.177100 0.000000
-6.134800 0.000000
-6.092500 0.000000
-6.050200 0.000000
-6.007900 0.000000
-5.965600 0.000000
-5.923300 0.000000
-5.881000 0.000000
-5.838700 0.000000
-5.796300 0.000000
-5.754000 0.000000
-5.711700 0.000000
-5.669400 0.000000
-5.627100 0.000000
-5.584800 0.000000
-5.542500 0.000000
-5.500200 0.000000
-5.457900 0.000000
-5.415600 0.000000
-5.373300 0.000000
-5.331000 0.000000
-5.288600 0.000000
-5.246300 0.000000
-5.204000 0.000000
-5.161700 0.000000
-5.119400 0.000000
-5.077100 0.000000
-5.034800 0.000000
-4.992500 0.000000
-4.950200 0.000000
-4.907900 0.000000
-4.865600 0.000000
-4.823300 0.000000
-4.781000 0.000000
-4.738600 0.000000
-4.696300 0.000000
-4.654000 0.000000
-4.611700 0.000000
-4.569400 0.000000
-4.527100 0.000000
-4.484800 0.000000
-4.442500 0.000000
-4.400200 0.000000
-4.357900 0.000000
-4.315600 0.000000
-4.273300 0.000000
-4.230900 0.000000
-4.188600 0.000000
-4.146300 0.000000
-4.104000 0.000000
-4.061700 0.000000
-4.019400 0.000000
-3.977100 0.000000
-3.934800 0.000000
-3.892500 0.000000
-3.850200 0.000000
-3.807900 0.000000
-3.765600 0.000000
-3.723200 0.000000
-3.680900 0.000000
-3.638600 0.000000
-3.596300 0.000000
-3.554000 0.000000
-3.511700 0.000000
-3.469400 0.000000
-3.427100 0.000000
-3.384800 0.000000
-3.342500 0.000000
-3.300200 0.000000
-3.257900 0.000000
-3.215600 0.000000
-3.173200 0.000000
-3.130900 0.000000
-3.088600 0.000000
-3.046300 0.000000
-3.004000 0.000000
-2.961700 0.000000
-2.919400 0.000000
-2.877100 0.000000
-2.834800 0.000000
-2.792500 0.000200
-2.750200 0.002700
-2.707900 0.012400
-2.665500 0.026800
-2.623200 0.047900
-2.580900 0.091800
-2.538600 0.101500
-2.496300 0.045200
-2.454000 0.049500
-2.411700 0.129500
-2.369400 0.155900
-2.327100 0.143300
-2.284800 0.171800
-2.242500 0.121600
-2.200200 0.058300
-2.157800 0.085700
-2.115500 0.167900
-2.073200 0.222000
-2.030900 0.200600
-1.988600 0.226200
-1.946300 0.178500
-1.904000 0.075100
-1.861700 0.116600
-1.819400 0.248300
-1.777100 0.293400
-1.734800 0.232700
-1.692500 0.193900
-1.650200 0.174500
-1.607800 0.162400
-1.565500 0.172100
-1.523200 0.229900
-1.480900 0.222500
-1.438600 0.231900
-1.396300 0.306500
-1.354000 0.256900
-1.311700 0.188300
-1.269400 0.328800
-1.227100 0.446100
-1.184800 0.325400
-1.142500 0.243800
-1.100100 0.172500
-1.057800 0.100800
-1.015500 0.074100
-0.973200 0.142100
-0.930900 0.327600
-0.888600 0.480800
-0.846300 0.552600
-0.804000 0.446400
-0.761700 0.287400
-0.719400 0.315500
-0.677100 0.346100
-0.634800 0.239100
-0.592400 0.268500
-0.550100 0.331600
-0.507800 0.286600
-0.465500 0.260900
-0.423200 0.364300
-0.380900 0.361500
-0.338600 0.327500
-0.296300 0.348900
-0.254000 0.230800
-0.211700 0.200200
-0.169400 0.352900
-0.127100 0.456800
-0.084800 0.462000
-0.042400 0.416800
-0.000100 0.335000
0.042200 0.310100
0.084500 0.360600
0.126800 0.312800
0.169100 0.298600
0.211400 0.508000
0.253700 0.515800
0.296000 0.321700
0.338300 0.415500
0.380600 0.516800
0.422900 0.385600
0.465300 0.255900
0.507600 0.137100
0.549900 0.150200
0.592200 0.378200
0.634500 0.551400
0.676800 0.385500
0.719100 0.299700
0.761400 0.447200
0.803700 0.530400
0.846000 0.545700
0.888300 0.457700
0.930600 0.468500
0.973000 0.521300
1.015300 0.481100
1.057600 0.498700
1.099900 0.431500
1.142200 0.254500
1.184500 0.239900
1.226800 0.453400
1.269100 0.619000
1.311400 0.611500
1.353700 0.600700
1.396000 0.530600
1.438300 0.559300
1.480600 0.545300
1.523000 0.433700
1.565300 0.350200
1.607600 0.340700
1.649900 0.256700
1.692200 0.251800
1.734500 0.502400
1.776800 0.692200
1.819100 0.614100
1.861400 0.465000
1.903700 0.281400
1.946000 0.332100
1.988300 0.490900
2.030700 0.348300
2.073000 0.184400
2.115300 0.293200
2.157600 0.484900
2.199900 0.647900
2.242200 0.746800
2.284500 0.574800
2.326800 0.448200
2.369100 0.484500
2.411400 0.394600
2.453700 0.321400
2.496000 0.386600
2.538400 0.485000
2.580700 0.508000
2.623000 0.550900
2.665300 0.680300
2.707600 0.700300
2.749900 0.608600
2.792200 0.476700
2.834500 0.326500
2.876800 0.348400
2.919100 0.554400
2.961400 0.744700
3.003700 0.774300
3.046000 0.687200
3.088400 0.531400
3.130700 0.607900
3.173000 0.628900
3.215300 0.680300
3.257600 0.829400
3.299900 0.627700
3.342200 0.370300
3.384500 0.496100
3.426800 0.713400
3.469100 0.776600
3.511400 0.668400
3.553700 0.545600
3.596100 0.506600
3.638400 0.508800
3.680700 0.407200
3.723000 0.337400
3.765300 0.431900
3.807600 0.545400
3.849900 0.686000
3.892200 0.821500
3.934500 0.928100
3.976800 0.984100
4.019100 0.918100
4.061400 0.634000
4.103800 0.582200
4.146100 0.712900
4.188400 0.578500
4.230700 0.487800
4.273000 0.801700
4.315300 0.820100
4.357600 0.586400
4.399900 0.449600
4.442200 0.550000
4.484500 0.813000
4.526800 0.850700
4.569100 0.843000
4.611500 0.952300
4.653800 0.780500
4.696100 0.473600
4.738400 0.437200
4.780700 0.829900
4.823000 0.917100
4.865300 0.661800
4.907600 0.672600
4.949900 0.760300
4.992200 0.712900
5.034500 0.808600
5.076800 1.061500
5.119100 0.987600
5.161500 0.738000
5.203800 0.716300
5.246100 0.703600
5.288400 0.833300
5.330700 0.838100
5.373000 0.931000
5.415300 1.132000
5.457600 1.000400
5.499900 0.839500
5.542200 1.004900
5.584500 1.404400
5.626800 1.508100
5.669200 1.272400
5.711500 1.100000
5.753800 1.130300
5.796100 1.310100
5.838400 1.420800
5.880700 1.301600
5.923000 1.099100
5.965300 1.092400
6.007600 1.327700
6.049900 1.558400
6.092200 1.689700
6.134500 1.793200
6.176900 1.903300
6.219200 1.858200
6.261500 1.876800
6.303800 2.018700
6.346100 1.928700
6.388400 1.645900
6.430700 1.381700
6.473000 1.453200
6.515300 1.880900
6.557600 2.363900
6.599900 2.324600
6.642200 1.710100
6.684500 1.568900
6.726900 1.858700
6.769200 2.005200
6.811500 2.089500
6.853800 2.460500
6.896100 2.711200
6.938400 2.400100
6.980700 1.970500
7.023000 1.676600
7.065300 1.453000
7.107600 1.334300
7.149900 1.594900
7.192200 1.737000
7.234600 1.373500
7.276900 1.153700
7.319200 1.330000
7.361500 1.358200
7.403800 1.117400
7.446100 1.157100
7.488400 1.183600
7.530700 0.722000
7.573000 0.247200
7.615300 0.203900
7.657600 0.305200
7.699900 0.301000
7.742300 0.389200
7.784600 0.452000
7.826900 0.596000
7.869200 1.082600
7.911500 1.978600
7.953800 3.693600
7.996100 4.496800
8.038400 3.207600
8.080700 2.240300
8.123000 2.128300
8.165300 1.746200
8.207600 1.237000
8.249900 1.422800
8.292300 1.841300
8.334600 1.757200
8.376900 1.264400
8.419200 1.080800
8.461500 1.110100
8.503800 1.108100
8.546100 0.893800
8.588400 0.815200
8.630700 0.878400
8.673000 0.925400
8.715300 0.929000
8.757600 0.793200
8.800000 0.812800
8.842300 0.759600
8.884600 0.692800
8.926900 0.829300
8.969200 1.038200
9.011500 1.178100
9.053800 1.065100
9.096100 0.802600
9.138400 0.513400
9.180700 0.382300
9.223000 0.444100
9.265300 0.606600
9.307700 0.886400
9.350000 1.015500
9.392300 1.035200
9.434600 1.206100
9.476900 1.358000
9.519200 1.590100
9.561500 2.130700
9.603800 2.206200
9.646100 1.706400
9.688400 1.633300
9.730700 1.706100
9.773000 1.428400
9.815300 1.244900
9.857700 1.016900
9.900000 0.594800
9.942300 0.587800
9.984600 1.063800
10.026900 1.244500
10.069200 0.971000
10.111500 0.786200
10.153800 0.695700
10.196100 0.686800
10.238400 0.844400
10.280700 1.042400
10.323000 1.173500
10.365400 0.982200
10.407700 0.683400
10.450000 0.890500
10.492300 1.165700
10.534600 0.896900
10.576900 0.803200
10.619200 1.047000
10.661500 1.123000
10.703800 1.153500
10.746100 1.009400
10.788400 0.839400
10.830700 1.020400
10.873100 1.431500
10.915400 1.631300
10.957700 1.380700
11.000000 1.018700
11.042300 0.940000
11.084600 1.027800
11.126900 1.187100
11.169200 1.260900
11.211500 0.994200
11.253800 0.645400
11.296100 0.624000
11.338400 0.753200
11.380700 0.882800
11.423100 1.024700
11.465400 1.279400
11.507700 1.144500
11.550000 1.037600
11.592300 1.174400
11.634600 1.228200
11.676900 1.008600
11.719200 0.856100
11.761500 0.885200
11.803800 0.788300
11.846100 0.668700
11.888400 0.582900
11.930800 0.588200
11.973100 0.780600
12.015400 1.094500
12.057700 1.272800
12.100000 1.243200
12.142300 1.489200
12.184600 1.548300
12.226900 0.979400
12.269200 0.755600
12.311500 0.853200
12.353800 0.737000
12.396100 0.606800
12.438500 0.647900
12.480800 0.646100
12.523100 0.689300
12.565400 0.760200
12.607700 0.697800
12.650000 0.714000
12.692300 0.956500
12.734600 1.086400
12.776900 1.024700
12.819200 0.916400
12.861500 0.832200
12.903800 0.651500
12.946100 0.397600
12.988500 0.357800
13.030800 0.606100
13.073100 0.818300
13.115400 0.855000
13.157700 0.812500
13.200000 0.534500
13.242300 0.541600
13.284600 0.866600
13.326900 1.060200
13.369200 1.057300
13.411500 1.040100
13.453800 1.289300
13.496200 1.508400
13.538500 1.472300
13.580800 1.262200
13.623100 0.941700
13.665400 0.861200
13.707700 1.000400
13.750000 1.069100
13.792300 0.974400
13.834600 0.907700
13.876900 0.816900
13.919200 0.608700
13.961500 0.720500
14.003900 1.149600
14.046200 1.133200
14.088500 0.756100
14.130800 0.712100
14.173100 1.173700
14.215400 1.296300
14.257700 1.046400
14.300000 1.015000
14.342300 1.163600
14.384600 1.356700
14.426900 1.623100
14.469200 1.223800
14.511500 0.769400
14.553900 0.747100
14.596200 0.695600
14.638500 0.778500
14.680800 1.010200
14.723100 1.006000
14.765400 0.916700
14.807700 0.979700
14.850000 0.946300
14.892300 0.913300
14.934600 1.084900
14.976900 1.031300
15.019200 1.021700
15.061600 1.049500
15.103900 0.948600
15.146200 0.929800
15.188500 0.956300
15.230800 0.919200
15.273100 0.748900
15.315400 0.783300
15.357700 1.022200
15.400000 1.039200
15.442300 0.965300
15.484600 0.913300
15.526900 0.934100
15.569300 0.915800
15.611600 0.797900
15.653900 0.981400
15.696200 1.143500
15.738500 1.035400
15.780800 0.888700
15.823100 1.022100
15.865400 0.907900
15.907700 0.701100
15.950000 0.806200
15.992300 1.233100
16.034600 1.417300
16.076900 0.988700
16.119300 0.673000
16.161600 0.818000
16.203900 1.119900
16.246200 1.300000
16.288500 1.385000
16.330800 1.351400
16.373100 1.057500
16.415400 0.818400
16.457700 0.826100
16.500000 0.885100
16.542300 0.808900
16.584600 0.976100
16.627000 1.137700
16.669300 1.087800
16.711600 1.040100
16.753900 1.053800
16.796200 1.274700
16.838500 1.325600
16.880800 1.290300
16.923100 0.963200
16.965400 0.592000
17.007700 0.670200
17.050000 0.730100
17.092300 0.765900
17.134700 1.014500
17.177000 1.287600
17.219300 1.343700
17.261600 1.392200
17.303900 1.490600
17.346200 1.330800
17.388500 1.109700
17.430800 0.864400
17.473100 0.692000
17.515400 0.669100
17.557700 0.716100
17.600000 0.823600
17.642300 0.953800
17.684700 0.795400
17.727000 0.874400
17.769300 1.098200
17.811600 1.180400
17.853900 1.202900
17.896200 1.487700
17.938500 1.511600
17.980800 1.295400
18.023100 1.022100
18.065400 0.907100
18.107700 0.951300
18.150000 0.836200
18.192400 0.689500
18.234700 0.746500
18.277000 0.712700
18.319300 0.670700
18.361600 0.799400
18.403900 0.874900
18.446200 0.917200
18.488500 0.925100
18.530800 0.963200
18.573100 0.911400
18.615400 0.794600
18.657700 0.805300
18.700100 0.895300
18.742400 1.166800
18.784700 1.237800
18.827000 1.136900
18.869300 1.251700
18.911600 1.179800
18.953900 0.909900
18.996200 0.646800
19.038500 0.681400
19.080800 0.769400
19.123100 0.772100
19.165400 0.788000
19.207700 0.778100
19.250100 0.839700
19.292400 1.154900
19.334700 1.339200
19.377000 1.218200
19.419300 0.925300
19.461600 0.819900
19.503900 0.908700
19.546200 0.987300
19.588500 1.190300
19.630800 1.471100
19.673100 1.651600
19.715400 1.430900
19.757800 1.197300
19.800100 1.135500
19.842400 1.035500
19.884700 0.994400
19.927000 0.837200
19.969300 0.673600
20.011600 0.578700
20.053900 0.653100
20.096200 0.700400
20.138500 0.830300
20.180800 0.865800
20.223100 1.000900
20.265500 1.247100
20.307800 1.208300
20.350100 0.919300
20.392400 0.799400
20.434700 0.907600
20.477000 1.139200
20.519300 1.150000
20.561600 0.861000
20.603900 0.755400
20.646200 0.960000
20.688500 1.154600
20.730800 1.177400
20.773100 1.198200
20.815500 1.128000
20.857800 1.007400
20.900100 1.164400
20.942400 1.463600
20.984700 1.405400
21.027000 1.195100
21.069300 1.220500
21.111600 1.301100
21.153900 1.138500
21.196200 0.839400
21.238500 0.809100
21.280800 0.743100
21.323200 0.757800
21.365500 1.101400
21.407800 1.301100
21.450100 1.023400
21.492400 0.849200
21.534700 0.807200
21.577000 1.038600
21.619300 1.360800
21.661600 1.087300
21.703900 0.702400
21.746200 0.865700
21.788500 1.167300
21.830900 1.362300
21.873200 1.294000
21.915500 0.979500
21.957800 0.886200
22.000100 1.180300
22.042400 1.116100
22.084700 0.836700
22.127000 0.817100
22.169300 0.953500
22.211600 0.817900
22.253900 0.573100
22.296200 0.687500
22.338600 0.962600
22.380900 1.106600
22.423200 1.090400
22.465500 1.324000
22.507800 1.377600
22.550100 1.354200
22.592400 1.414700
22.634700 1.160400
22.677000 1.002300
22.719300 0.894300
22.761600 1.129100
22.803900 1.478600
22.846200 1.332800
22.888600 0.924300
22.930900 0.740200
22.973200 0.755400
23.015500 0.816800
23.057800 0.830600
23.100100 0.857900
23.142400 0.868100
23.184700 1.057300
23.227000 1.322200
23.269300 1.371400
23.311600 1.249600
23.353900 0.997600
23.396300 0.818600
23.438600 0.892500
23.480900 1.120800
23.523200 1.443900
23.565500 1.775200
23.607800 1.856600
23.650100 1.562000
23.692400 1.223100
23.734700 1.060400
23.777000 1.138000
23.819300 0.849600
23.861600 0.699700
23.904000 1.109900
23.946300 1.446600
23.988600 1.433800
24.030900 1.251700
24.073200 1.047100
24.115500 1.154600
24.157800 1.293900
24.200100 1.173100
24.242400 1.058100
24.284700 1.055600
24.327000 1.073900
24.369300 1.357200
24.411600 1.591100
24.454000 1.687800
24.496300 1.265100
24.538600 0.875900
24.580900 0.956500
24.623200 1.008900
24.665500 1.097200
24.707800 1.354700
24.750100 1.205200
24.792400 1.010400
24.834700 0.918800
24.877000 0.912200
24.919300 0.817700
24.961700 0.859800
25.004000 1.005200
25.046300 0.993500
25.088600 1.098800
25.130900 0.935400
25.173200 0.743800
25.215500 0.926600
25.257800 0.954300
25.300100 0.948000
25.342400 0.968300
25.384700 1.009500
25.427000 1.299900
25.469400 1.650300
25.511700 1.525400
25.554000 1.192300
25.596300 1.242300
25.638600 1.424300
25.680900 1.470500
25.723200 1.462900
25.765500 1.357000
25.807800 1.301800
25.850100 1.495600
25.892400 1.359400
25.934700 1.084700
25.977000 0.918400
26.019400 1.124100
26.061700 1.388500
26.104000 1.584400
26.146300 1.540700
26.188600 1.517300
26.230900 1.586100
26.273200 1.564100
26.315500 1.448900
26.357800 1.118000
26.400100 0.938600
26.442400 1.087900
26.484700 1.150200
26.527100 1.024600
26.569400 1.227600
26.611700 1.219000
26.654000 1.016100
26.696300 1.169300
26.738600 1.359500
26.780900 1.470300
26.823200 1.300800
26.865500 1.197700
26.907800 1.447300
26.950100 1.477500
26.992400 1.247500
27.034800 1.044700
27.077100 0.785500
27.119400 0.888300
27.161700 1.337700
27.204000 1.277600
27.246300 1.070300
27.288600 1.275600
27.330900 1.463500
27.373200 1.309700
27.415500 1.133400
27.457800 1.177700
27.500100 1.207500
27.542400 1.127900
27.584800 1.112200
27.627100 1.397000
27.669400 1.571400
27.711700 1.320600
27.754000 1.191100
27.796300 1.183600
27.838600 1.240000
27.880900 1.514200
27.923200 1.730500
27.965500 1.511600
28.007800 1.248800
28.050100 1.327400
28.092500 1.195300
28.134800 0.924700
28.177100 0.855200
28.219400 0.955900
28.261700 1.007800
28.304000 0.970600
28.346300 0.841900
28.388600 0.880600
28.430900 1.055100
28.473200 1.013800
28.515500 1.007700
28.557800 1.037100
28.600200 1.131700
28.642500 1.179000
28.684800 1.217700
28.727100 1.201100
28.769400 1.260000
28.811700 1.286600
28.854000 1.509400
28.896300 1.577900
28.938600 1.290300
28.980900 1.079800
29.023200 1.164000
29.065500 1.427300
29.107800 1.395000
29.150200 1.197700
29.192500 1.203900
29.234800 1.357100
29.277100 1.374400
29.319400 1.339200
29.361700 1.359100
29.404000 1.545400
29.446300 1.561100
29.488600 1.170800
29.530900 0.920500
29.573200 0.912600
29.615500 1.095000
29.657900 1.278900
29.700200 1.296600
29.742500 1.061200
29.784800 1.047100
29.827100 1.117800
29.869400 1.254600
29.911700 1.576000
29.954000 1.718100
29.996300 1.579600
30.038600 1.697800
30.080900 1.707900
30.123200 1.465500
30.165600 1.251900
30.207900 0.996200
30.250200 0.828600
30.292500 1.143600
30.334800 1.556500
30.377100 1.500900
30.419400 1.343800
30.461700 1.472600
30.504000 1.550700
30.546300 1.685900
30.588600 1.756800
30.630900 1.544800
30.673200 1.283700
30.715600 1.288800
30.757900 1.340900
30.800200 1.234100
30.842500 1.048200
30.884800 1.160800
30.927100 1.276600
30.969400 1.143400
31.011700 0.876600
31.054000 0.917400
31.096300 1.121700
31.138600 1.323600
31.180900 1.470800
31.223300 1.323300
31.265600 1.347800
31.307900 1.155200
31.350200 1.166400
31.392500 1.557900
31.434800 1.604700
31.477100 1.498200
31.519400 1.434600
31.561700 1.447900
31.604000 1.497300
31.646300 1.606300
31.688600 1.814100
31.731000 1.677200
31.773300 1.231400
31.815600 1.274000
31.857900 1.446800
31.900200 1.340900
31.942500 1.475800
31.984800 1.555800
32.027100 1.447000
32.069400 1.166700
32.111700 1.043300
32.154000 1.132900
32.196300 1.083600
32.238600 1.113700
32.281000 1.390800
32.323300 1.437300
32.365600 1.506100
32.407900 1.622100
32.450200 1.275700
32.492500 1.126300
32.534800 1.309300
32.577100 1.259900
32.619400 1.172800
32.661700 1.200400
32.704000 1.256700
32.746300 1.427700
32.788700 1.540800
32.831000 1.432600
32.873300 1.543900
32.915600 1.355300
32.957900 0.992900
33.000200 0.823700
33.042500 0.885100
33.084800 1.220900
33.127100 1.592000
33.169400 1.534000
33.211700 1.354700
33.254000 1.224100
33.296400 1.279000
33.338700 1.711400
33.381000 1.870500
33.423300 1.492300
33.465600 1.339700
33.507900 1.442600
33.550200 1.502100
33.592500 1.503000
33.634800 1.446200
33.677100 1.305700
33.719400 1.270600
33.761700 1.467000
33.804000 1.385300
33.846400 1.323900
33.888700 1.378800
33.931000 1.290000
33.973300 1.340800
34.015600 1.480300
34.057900 1.330300
34.100200 1.390000
34.142500 1.688900
34.184800 1.627000
34.227100 1.605000
34.269400 1.429700
34.311700 1.018900
34.354100 1.035400
34.396400 1.305100
34.438700 1.317300
34.481000 1.155600
34.523300 1.247600
34.565600 1.441900
34.607900 1.238400
34.650200 1.064300
34.692500 0.987400
34.734800 0.983300
34.777100 1.136800
34.819400 1.313100
34.861800 1.493500
34.904100 1.518400
34.946400 1.255800
34.988700 1.253900
35.031000 1.300000
35.073300 1.208800
35.115600 1.107400
35.157900 0.938900
35.200200 1.008900
35.242500 1.211800
35.284800 1.342300
35.327100 1.527500
35.369400 1.602300
35.411800 1.335700
35.454100 0.972700
35.496400 0.987100
35.538700 1.115800
35.581000 1.250200
35.623300 1.271300
35.665600 1.354500
35.707900 1.355100
35.750200 1.242800
35.792500 1.278800
35.834800 1.254300
35.877100 1.136800
35.919500 1.122900
35.961800 1.081600
36.004100 1.081900
36.046400 1.120700
36.088700 1.231600
36.131000 1.207300
36.173300 1.045900
36.215600 1.103600
36.257900 1.268800
36.300200 1.176400
36.342500 1.109400
36.384800 1.172900
36.427200 1.397500
36.469500 1.443500
36.511800 1.271700
36.554100 1.172000
36.596400 1.164000
36.638700 1.059500
36.681000 0.964700
36.723300 0.996800
36.765600 1.080700
36.807900 1.039900
36.850200 1.091000
36.892500 1.213500
36.934800 1.190400
36.977200 1.246600
37.019500 1.544000
37.061800 1.564000
37.104100 1.200800
37.146400 1.420700
37.188700 1.707900
37.231000 1.456200
37.273300 1.262600
37.315600 1.222400
37.357900 1.300400
37.400200 1.224300
37.442500 1.049800
37.484900 1.013600
37.527200 1.406500
37.569500 1.718100
37.611800 1.429400
37.654100 1.180800
37.696400 1.177300
37.738700 1.172100
37.781000 0.978700
37.823300 0.967600
37.865600 0.990700
37.907900 0.782300
37.950200 0.698000
37.992600 0.880700
38.034900 1.213100
38.077200 1.294100
38.119500 1.239500
38.161800 1.260500
38.204100 1.161100
38.246400 0.977900
38.288700 1.057500
38.331000 1.345300
38.373300 1.309700
38.415600 1.166600
38.457900 1.308100
38.500300 1.243800
38.542600 1.066300
38.584900 0.992500
38.627200 1.257400
38.669500 1.547500
38.711800 1.383000
38.754100 1.342300
38.796400 1.387500
38.838700 1.251500
38.881000 0.991300
38.923300 0.975800
38.965600 0.966900
39.007900 0.710400
39.050300 0.704200
39.092600 0.885900
39.134900 1.100700
39.177200 1.291400
39.219500 1.267000
39.261800 1.162100
39.304100 0.951800
39.346400 0.875700
39.388700 0.950200
39.431000 1.092100
39.473300 1.057900
39.515600 1.028700
39.558000 1.161100
39.600300 1.339500
39.642600 1.348400
39.684900 1.335600
39.727200 1.389500
39.769500 1.336700
39.811800 1.207000
39.854100 1.377900
39.896400 1.346800
39.938700 0.931300
39.981000 0.887000
40.023300 1.197300
40.065700 1.127100
40.108000 0.909000
40.150300 1.146300
40.192600 1.370500
40.234900 1.043300
40.277200 0.840800
40.319500 1.036800
40.361800 1.252900
40.404100 1.286200
40.446400 1.010800
40.488700 0.686700
40.531000 0.507100
40.573300 0.537100
40.615700 0.592400
40.658000 0.687700
40.700300 0.787100
40.742600 0.646000
40.784900 0.550100
40.827200 0.647900
40.869500 0.588100
40.911800 0.578600
40.954100 0.670600
40.996400 0.586700
41.038700 0.416100
41.081000 0.540400
41.123400 0.648800
41.165700 0.626400
41.208000 0.620600
41.250300 0.428700
41.292600 0.227200
41.334900 0.182000
41.377200 0.207600
41.419500 0.156300
41.461800 0.132500
41.504100 0.208200
41.546400 0.181700
41.588700 0.055200
41.631100 0.021800
41.673400 0.054300
41.715700 0.049700
41.758000 0.013300
41.800300 0.001000
41.842600 0.000000
41.884900 0.000000
41.927200 0.000000
41.969500 0.000000
42.011800 0.000000
42.054100 0.000000
42.096400 0.000000
42.138700 0.000000
42.181100 0.000000
42.223400 0.000000
42.265700 0.000000
42.308000 0.000000
42.350300 0.000000
42.392600 0.000000
42.434900 0.000000
42.477200 0.000000
42.519500 0.000000
42.561800 0.000000
42.604100 0.000000
42.646400 0.000000
42.688800 0.000000
42.731100 0.000000
42.773400 0.000000
42.815700 0.000000
42.858000 0.000000
42.900300 0.000000
42.942600 0.000000
42.984900 0.000000
43.027200 0.000000
43.069500 0.000000
43.111800 0.000000
43.154100 0.000000
43.196500 0.000000
43.238800 0.000000
43.281100 0.000000
43.323400 0.000000
43.365700 0.000000
43.408000 0.000000
43.450300 0.000000
43.492600 0.000000
43.534900 0.000000
43.577200 0.000000
43.619500 0.000000
43.661800 0.000000
43.704100 0.000000
43.746500 0.000000
43.788800 0.000000
43.831100 0.000000
43.873400 0.000000
43.915700 0.000000
43.958000 0.000000
44.000300 0.000000
44.042600 0.000000
44.084900 0.000000
44.127200 0.000000
44.169500 0.000000
44.211800 0.000000
44.254200 0.000000
44.296500 0.000000
44.338800 0.000000
44.381100 0.000000
44.423400 0.000000
44.465700 0.000000
44.508000 0.000000
44.550300 0.000000
44.592600 0.000000
44.634900 0.000000
44.677200 0.000000
44.719500 0.000000
44.761900 0.000000
44.804200 0.000000
44.846500 0.000000
44.888800 0.000000
44.931100 0.000000
44.973400 0.000000
45.015700 0.000000
45.058000 0.000000
45.100300 0.000000
45.142600 0.000000
45.184900 0.000000
45.227200 0.000000
45.269500 0.000000
45.311900 0.000000
45.354200 0.000000
45.396500 0.000000
45.438800 0.000000
45.481100 0.000000
45.523400 0.000000
45.565700 0.000000
45.608000 0.000000
45.650300 0.000000
45.692600 0.000000
45.734900 0.000000
45.777200 0.000000
45.819600 0.000000
45.861900 0.000000
45.904200 0.000000
e
