set title 'mp-568233 - Density of States'
set xlabel 'Energy (eV)'
set ylabel 'DOS (states/eV)'
set grid
set xrange [-10:10]
set yrange [0:190.863]
set xzeroaxis lt -1
set terminal png size 800,600
set output 'mp-568233_dos_gnuplot.png'
plot '-' using 1:2 with lines title 'DOS'
-12.192100 0.000000
-12.176500 0.000000
-12.160800 0.000000
-12.145200 0.000000
-12.129600 0.000000
-12.114000 0.000000
-12.098400 0.000000
-12.082800 0.000000
-12.067200 0.000000
-12.051500 0.000000
-12.035900 0.000000
-12.020300 0.000000
-12.004700 0.000000
-11.989100 0.000000
-11.973500 0.000000
-11.957900 0.000000
-11.942200 0.000000
-11.926600 0.000000
-11.911000 0.000000
-11.895400 0.000000
-11.879800 0.000000
-11.864200 0.000000
-11.848600 0.000000
-11.832900 0.000000
-11.817300 0.000000
-11.801700 0.000000
-11.786100 0.000000
-11.770500 0.000000
-11.754900 0.000000
-11.739300 0.000000
-11.723600 0.000000
-11.708000 0.000000
-11.692400 0.000000
-11.676800 0.000000
-11.661200 0.000000
-11.645600 0.000000
-11.630000 0.000000
-11.614300 0.000000
-11.598700 0.000000
-11.583100 0.000000
-11.567500 0.000000
-11.551900 0.000000
-11.536300 0.000000
-11.520600 0.000000
-11.505000 0.000000
-11.489400 0.000000
-11.473800 0.000000
-11.458200 0.000000
-11.442600 0.000000
-11.427000 0.000000
-11.411300 0.000000
-11.395700 0.000000
-11.380100 0.000000
-11.364500 0.000000
-11.348900 0.000000
-11.333300 0.000000
-11.317700 0.000000
-11.302000 0.000000
-11.286400 0.000000
-11.270800 0.000000
-11.255200 0.000000
-11.239600 0.000000
-11.224000 0.000000
-11.208400 0.000000
-11.192700 0.000000
-11.177100 0.000000
-11.161500 0.000000
-11.145900 0.000000
-11.130300 0.000000
-11.114700 0.000000
-11.099100 0.000000
-11.083400 0.000000
-11.067800 0.000000
-11.052200 0.000000
-11.036600 0.000000
-11.021000 0.000000
-11.005400 0.000000
-10.989800 0.000000
-10.974100 0.000000
-10.958500 0.000000
-10.942900 0.000000
-10.927300 0.000000
-10.911700 0.000000
-10.896100 0.000000
-10.880500 0.000000
-10.864800 0.000000
-10.849200 0.000000
-10.833600 0.000000
-10.818000 0.000000
-10.802400 0.000000
-10.786800 0.000000
-10.771100 0.005500
-10.755500 0.136000
-10.739900 0.357400
-10.724300 0.592300
-10.708700 0.940200
-10.693100 1.396100
-10.677500 1.855300
-10.661800 2.314500
-10.646200 2.773700
-10.630600 3.233000
-10.615000 3.692300
-10.599400 4.151700
-10.583800 4.611000
-10.568200 5.070500
-10.552500 5.529900
-10.536900 5.790500
-10.521300 5.968800
-10.505700 6.313400
-10.490100 6.463400
-10.474500 6.682300
-10.458900 7.001700
-10.443200 7.321100
-10.427600 7.640600
-10.412000 7.960300
-10.396400 8.280000
-10.380800 8.599800
-10.365200 8.919700
-10.349600 9.239600
-10.333900 9.559700
-10.318300 10.574500
-10.302700 12.964100
-10.287100 16.755100
-10.271500 92.201100
-10.255900 23.740600
-10.240300 52.770400
-10.224600 39.288800
-10.209000 74.632300
-10.193400 50.721900
-10.177800 27.760500
-10.162200 0.000000
-10.146600 0.000000
-10.131000 0.000000
-10.115300 0.000000
-10.099700 0.000000
-10.084100 0.000000
-10.068500 0.000000
-10.052900 0.000000
-10.037300 0.000000
-10.021600 0.000000
-10.006000 0.000000
-9.990400 0.000000
-9.974800 0.000000
-9.959200 0.000000
-9.943600 0.000000
-9.928000 0.000000
-9.912300 0.000000
-9.896700 0.000000
-9.881100 0.000000
-9.865500 0.000000
-9.849900 0.000000
-9.834300 0.000000
-9.818700 0.000000
-9.803000 0.000000
-9.787400 0.000000
-9.771800 0.000000
-9.756200 0.000000
-9.740600 0.000000
-9.725000 0.000000
-9.709400 0.000000
-9.693700 0.000000
-9.678100 0.000000
-9.662500 0.000000
-9.646900 0.000000
-9.631300 0.000000
-9.615700 0.000000
-9.600100 0.000000
-9.584400 0.000000
-9.568800 0.000000
-9.553200 0.000000
-9.537600 0.000000
-9.522000 0.000000
-9.506400 0.000000
-9.490800 0.000000
-9.475100 0.000000
-9.459500 0.000000
-9.443900 0.000000
-9.428300 0.000000
-9.412700 0.000000
-9.397100 0.000000
-9.381500 0.000000
-9.365800 0.000000
-9.350200 0.000000
-9.334600 0.000000
-9.319000 0.000000
-9.303400 0.000000
-9.287800 0.000000
-9.272100 0.000000
-9.256500 0.000000
-9.240900 0.000000
-9.225300 0.000000
-9.209700 0.000000
-9.194100 0.000000
-9.178500 0.000000
-9.162800 0.000000
-9.147200 0.000000
-9.131600 0.000000
-9.116000 0.000000
-9.100400 0.000000
-9.084800 0.000000
-9.069200 0.000000
-9.053500 0.000000
-9.037900 0.000000
-9.022300 0.000000
-9.006700 0.000000
-8.991100 0.000000
-8.975500 0.000000
-8.959900 0.000000
-8.944200 0.000000
-8.928600 0.000000
-8.913000 0.000000
-8.897400 0.000000
-8.881800 0.000000
-8.866200 0.000000
-8.850600 0.000000
-8.834900 0.000000
-8.819300 0.000000
-8.803700 0.000000
-8.788100 0.000000
-8.772500 0.000000
-8.756900 0.000000
-8.741300 0.000000
-8.725600 0.000000
-8.710000 0.000000
-8.694400 0.000000
-8.678800 0.000000
-8.663200 0.000000
-8.647600 0.000000
-8.632000 0.000000
-8.616300 0.000000
-8.600700 0.000000
-8.585100 0.000000
-8.569500 0.000000
-8.553900 0.000000
-8.538300 0.000000
-8.522600 0.000000
-8.507000 0.000000
-8.491400 0.000000
-8.475800 0.000000
-8.460200 0.000000
-8.444600 0.000000
-8.429000 0.000000
-8.413300 0.000000
-8.397700 0.000000
-8.382100 0.000000
-8.366500 0.000000
-8.350900 0.000000
-8.335300 0.000000
-8.319700 0.000000
-8.304000 0.000000
-8.288400 0.000000
-8.272800 0.000000
-8.257200 0.000000
-8.241600 0.000000
-8.226000 0.000000
-8.210400 0.000000
-8.194700 0.000000
-8.179100 0.000000
-8.163500 0.000000
-8.147900 0.000000
-8.132300 0.000000
-8.116700 0.000000
-8.101100 0.000000
-8.085400 0.000000
-8.069800 0.000000
-8.054200 0.000000
-8.038600 0.000000
-8.023000 0.000000
-8.007400 0.000000
-7.991800 0.000000
-7.976100 0.000000
-7.960500 0.000000
-7.944900 0.000000
-7.929300 0.000000
-7.913700 0.000000
-7.898100 0.000000
-7.882500 0.000000
-7.866800 0.000000
-7.851200 0.000000
-7.835600 0.000000
-7.820000 0.000000
-7.804400 0.000000
-7.788800 0.000000
-7.773100 0.000000
-7.757500 0.000000
-7.741900 0.000000
-7.726300 0.000000
-7.710700 0.000000
-7.695100 0.000000
-7.679500 0.000000
-7.663800 0.000000
-7.648200 0.000000
-7.632600 0.000000
-7.617000 0.000000
-7.601400 0.000000
-7.585800 0.000000
-7.570200 0.000000
-7.554500 0.000000
-7.538900 0.000000
-7.523300 0.000000
-7.507700 0.000000
-7.492100 0.000000
-7.476500 0.000000
-7.460900 0.000000
-7.445200 0.000000
-7.429600 0.000000
-7.414000 0.000000
-7.398400 0.000000
-7.382800 0.000000
-7.367200 0.000000
-7.351600 0.000000
-7.335900 0.000000
-7.320300 0.000000
-7.304700 0.000000
-7.289100 0.000000
-7.273500 0.000000
-7.257900 0.000000
-7.242300 0.000000
-7.226600 0.000000
-7.211000 0.000000
-7.195400 0.000000
-7.179800 0.000000
-7.164200 0.000000
-7.148600 0.000000
-7.133000 0.000000
-7.117300 0.000000
-7.101700 0.000000
-7.086100 0.000000
-7.070500 0.000000
-7.054900 0.000000
-7.039300 0.000000
-7.023600 0.000000
-7.008000 0.000000
-6.992400 0.000000
-6.976800 0.000000
-6.961200 0.000000
-6.945600 0.000000
-6.930000 0.000000
-6.914300 0.000000
-6.898700 0.000000
-6.883100 0.000000
-6.867500 0.000000
-6.851900 0.000000
-6.836300 0.000000
-6.820700 0.000000
-6.805000 0.000000
-6.789400 0.000000
-6.773800 0.000000
-6.758200 0.000000
-6.742600 0.000000
-6.727000 0.000000
-6.711400 0.000000
-6.695700 0.000000
-6.680100 0.000000
-6.664500 0.000000
-6.648900 0.000000
-6.633300 0.000000
-6.617700 0.000000
-6.602100 0.000000
-6.586400 0.000000
-6.570800 0.000000
-6.555200 0.000000
-6.539600 0.000000
-6.524000 0.000000
-6.508400 0.000000
-6.492800 14.719100
-6.477100 39.955600
-6.461500 52.940700
-6.445900 69.408500
-6.430300 58.925400
-6.414700 35.890900
-6.399100 52.935200
-6.383500 76.247400
-6.367800 68.494600
-6.352200 46.361400
-6.336600 67.023600
-6.321000 150.029400
-6.305400 173.511800
-6.289800 83.915300
-6.274100 52.344000
-6.258500 54.048900
-6.242900 37.390000
-6.227300 28.036700
-6.211700 18.683300
-6.196100 9.329900
-6.180500 3.007200
-6.164800 0.000000
-6.149200 0.000000
-6.133600 0.000000
-6.118000 0.000000
-6.102400 0.000000
-6.086800 0.000000
-6.071200 0.000000
-6.055500 0.000000
-6.039900 0.000000
-6.024300 0.000000
-6.008700 0.000000
-5.993100 0.000000
-5.977500 0.000000
-5.961900 0.000000
-5.946200 0.000000
-5.930600 0.000000
-5.915000 0.000000
-5.899400 0.000000
-5.883800 0.000000
-5.868200 0.000000
-5.852600 0.000000
-5.836900 0.000000
-5.821300 0.000000
-5.805700 0.000000
-5.790100 0.000000
-5.774500 0.000000
-5.758900 0.000000
-5.743300 0.000000
-5.727600 0.000000
-5.712000 0.000000
-5.696400 0.000000
-5.680800 0.000000
-5.665200 0.000000
-5.649600 0.000000
-5.634000 0.000000
-5.618300 0.000000
-5.602700 0.000000
-5.587100 0.000000
-5.571500 0.000000
-5.555900 0.000000
-5.540300 0.000000
-5.524600 0.000000
-5.509000 0.000000
-5.493400 0.000000
-5.477800 0.000000
-5.462200 0.000000
-5.446600 0.000000
-5.431000 0.000000
-5.415300 0.000000
-5.399700 0.000000
-5.384100 0.000000
-5.368500 0.000000
-5.352900 0.000000
-5.337300 0.000000
-5.321700 0.000000
-5.306000 0.000000
-5.290400 0.000000
-5.274800 0.000000
-5.259200 0.000000
-5.243600 0.000000
-5.228000 0.000000
-5.212400 0.000000
-5.196700 0.000000
-5.181100 0.000000
-5.165500 0.000000
-5.149900 0.000000
-5.134300 0.000000
-5.118700 0.000000
-5.103100 0.000000
-5.087400 0.000000
-5.071800 0.000000
-5.056200 0.000000
-5.040600 0.000000
-5.025000 0.000000
-5.009400 0.000000
-4.993800 0.000000
-4.978100 0.000000
-4.962500 0.000000
-4.946900 0.000000
-4.931300 0.000000
-4.915700 0.000000
-4.900100 0.000000
-4.884500 0.000000
-4.868800 0.000000
-4.853200 0.000000
-4.837600 0.000000
-4.822000 0.000000
-4.806400 0.000000
-4.790800 0.000000
-4.775200 0.000000
-4.759500 0.000000
-4.743900 0.000000
-4.728300 0.000000
-4.712700 0.000000
-4.697100 0.000000
-4.681500 0.000000
-4.665800 0.000000
-4.650200 0.000000
-4.634600 0.000000
-4.619000 0.000000
-4.603400 0.000000
-4.587800 0.000000
-4.572200 0.000000
-4.556500 0.000000
-4.540900 0.000000
-4.525300 0.000000
-4.509700 0.000000
-4.494100 0.000000
-4.478500 0.000000
-4.462900 0.000000
-4.447200 0.000000
-4.431600 0.000000
-4.416000 0.000000
-4.400400 0.000000
-4.384800 0.000000
-4.369200 0.000000
-4.353600 0.000000
-4.337900 0.000000
-4.322300 0.000000
-4.306700 0.000000
-4.291100 0.000000
-4.275500 0.000000
-4.259900 0.000000
-4.244300 0.000000
-4.228600 0.000000
-4.213000 0.000000
-4.197400 0.000000
-4.181800 0.000000
-4.166200 0.000000
-4.150600 0.000000
-4.135000 0.000000
-4.119300 0.000000
-4.103700 0.000000
-4.088100 0.000000
-4.072500 0.000000
-4.056900 0.000000
-4.041300 0.000000
-4.025700 0.000000
-4.010000 0.000000
-3.994400 0.000000
-3.978800 0.000000
-3.963200 0.000000
-3.947600 0.000000
-3.932000 0.000000
-3.916300 0.000000
-3.900700 0.000000
-3.885100 0.000000
-3.869500 0.000000
-3.853900 0.000000
-3.838300 0.000000
-3.822700 0.000000
-3.807000 0.000000
-3.791400 0.000000
-3.775800 0.000000
-3.760200 0.000000
-3.744600 0.000000
-3.729000 0.000000
-3.713400 0.000000
-3.697700 0.000000
-3.682100 0.000000
-3.666500 0.000000
-3.650900 0.000000
-3.635300 0.000000
-3.619700 0.000000
-3.604100 0.000000
-3.588400 0.000000
-3.572800 0.000000
-3.557200 0.000000
-3.541600 0.000000
-3.526000 0.000000
-3.510400 0.000000
-3.494800 0.000000
-3.479100 0.000000
-3.463500 0.000000
-3.447900 0.000000
-3.432300 0.000000
-3.416700 0.000000
-3.401100 0.000000
-3.385500 0.000000
-3.369800 0.000000
-3.354200 0.000000
-3.338600 0.000000
-3.323000 0.000000
-3.307400 0.000000
-3.291800 0.000000
-3.276200 0.000000
-3.260500 0.000000
-3.244900 0.000000
-3.229300 0.000000
-3.213700 0.000000
-3.198100 0.000000
-3.182500 0.000000
-3.166800 0.000000
-3.151200 0.000000
-3.135600 0.000000
-3.120000 0.000000
-3.104400 0.000000
-3.088800 0.000000
-3.073200 0.000000
-3.057500 0.000000
-3.041900 0.000000
-3.026300 0.000000
-3.010700 0.000000
-2.995100 0.000000
-2.979500 0.000000
-2.963900 0.000000
-2.948200 0.000000
-2.932600 0.000000
-2.917000 0.000000
-2.901400 0.000000
-2.885800 0.000000
-2.870200 0.000000
-2.854600 0.000000
-2.838900 0.000000
-2.823300 0.000000
-2.807700 0.000000
-2.792100 0.000000
-2.776500 0.000000
-2.760900 0.000000
-2.745300 0.000000
-2.729600 0.000000
-2.714000 0.000000
-2.698400 0.000000
-2.682800 0.000000
-2.667200 0.000000
-2.651600 0.000000
-2.636000 0.000000
-2.620300 0.000000
-2.604700 0.000000
-2.589100 0.494200
-2.573500 1.284300
-2.557900 2.449000
-2.542300 3.963700
-2.526700 5.478000
-2.511000 6.991900
-2.495400 8.505300
-2.479800 10.018300
-2.464200 11.530800
-2.448600 13.043000
-2.433000 25.049300
-2.417300 10.551400
-2.401700 12.195700
-2.386100 7.033100
-2.370500 6.957500
-2.354900 6.882000
-2.339300 6.806600
-2.323700 6.731200
-2.308000 6.655900
-2.292400 6.580600
-2.276800 6.776200
-2.261200 7.396000
-2.245600 8.244400
-2.230000 9.321200
-2.214400 10.626600
-2.198700 10.595600
-2.183100 8.818100
-2.167500 2.945400
-2.151900 2.909300
-2.136300 4.635200
-2.120700 4.860700
-2.105100 3.987600
-2.089400 3.189100
-2.073800 2.465200
-2.058200 1.815700
-2.042600 1.316300
-2.027000 1.063300
-2.011400 0.835200
-1.995800 0.631800
-1.980100 0.453300
-1.964500 0.299500
-1.948900 0.170600
-1.933300 0.066500
-1.917700 0.000000
-1.902100 0.000000
-1.886500 0.000000
-1.870800 0.000000
-1.855200 0.000000
-1.839600 0.000000
-1.824000 0.000000
-1.808400 0.000000
-1.792800 0.000000
-1.777200 0.000000
-1.761500 0.000000
-1.745900 0.000000
-1.730300 0.000000
-1.714700 0.000000
-1.699100 0.000000
-1.683500 0.049000
-1.667800 0.149900
-1.652200 0.321700
-1.636600 0.493500
-1.621000 0.675800
-1.605400 0.955900
-1.589800 1.269600
-1.574200 1.583300
-1.558500 1.896800
-1.542900 2.210200
-1.527300 2.523500
-1.511700 2.836700
-1.496100 3.149800
-1.480500 3.462700
-1.464900 3.775600
-1.449200 4.088300
-1.433600 4.400900
-1.418000 4.713400
-1.402400 5.025800
-1.386800 5.338100
-1.371200 5.650200
-1.355600 5.962200
-1.339900 6.274200
-1.324300 11.955000
-1.308700 4.584700
-1.293100 4.717200
-1.277500 4.849600
-1.261900 4.981900
-1.246300 6.233600
-1.230600 7.359200
-1.215000 6.826100
-1.199400 4.634300
-1.183800 3.356900
-1.168200 3.343200
-1.152600 3.329400
-1.137000 3.315600
-1.121300 3.301800
-1.105700 3.288000
-1.090100 3.274200
-1.074500 3.260400
-1.058900 3.246700
-1.043300 3.232900
-1.027700 3.219100
-1.012000 3.205300
-0.996400 3.191500
-0.980800 3.177700
-0.965200 3.163900
-0.949600 3.150100
-0.934000 10.852400
-0.918300 4.663900
-0.902700 4.685800
-0.887100 6.042300
-0.871500 5.975100
-0.855900 5.865800
-0.840300 5.813200
-0.824700 5.767700
-0.809000 5.715600
-0.793400 5.656800
-0.777800 5.687300
-0.762200 5.690600
-0.746600 5.642500
-0.731000 5.592300
-0.715400 5.540200
-0.699700 5.472900
-0.684100 5.299000
-0.668500 5.138700
-0.652900 5.152400
-0.637300 5.193100
-0.621700 5.233800
-0.606100 5.274500
-0.590400 5.315200
-0.574800 5.356000
-0.559200 5.396900
-0.543600 5.437800
-0.528000 5.478700
-0.512400 5.519600
-0.496800 5.560600
-0.481100 5.601600
-0.465500 5.642700
-0.449900 5.683800
-0.434300 5.686000
-0.418700 5.609500
-0.403100 5.513900
-0.387500 11.912600
-0.371800 14.833200
-0.356200 11.626600
-0.340600 10.900100
-0.325000 35.227200
-0.309400 16.203000
-0.293800 14.704000
-0.278200 13.245800
-0.262500 12.226600
-0.246900 11.283600
-0.231300 10.392100
-0.215700 9.803600
-0.200100 9.412200
-0.184500 9.035700
-0.168800 8.673100
-0.153200 8.382500
-0.137600 8.120100
-0.122000 7.858100
-0.106400 7.602500
-0.090800 7.363600
-0.075200 7.137900
-0.059500 6.924100
-0.043900 6.720800
-0.028300 6.528000
-0.012700 6.343700
0.002900 6.165800
0.018500 5.994300
0.034100 5.829200
0.049800 5.657200
0.065400 5.472100
0.081000 5.287500
0.096600 5.103400
0.112200 4.919800
0.127800 6.281100
0.143400 9.334200
0.159100 9.876500
0.174700 7.888400
0.190300 8.187400
0.205900 8.494100
0.221500 8.662800
0.237100 8.740100
0.252700 8.766600
0.268400 8.742300
0.284000 8.667000
0.299600 8.541000
0.315200 9.048400
0.330800 9.655800
0.346400 10.096800
0.362000 10.384900
0.377700 10.520000
0.393300 10.502100
0.408900 10.277600
0.424500 9.784500
0.440100 9.139700
0.455700 8.643100
0.471300 8.366300
0.487000 8.130900
0.502600 7.882800
0.518200 7.622100
0.533800 7.348800
0.549400 7.062800
0.565000 6.984500
0.580700 7.028300
0.596300 7.075900
0.611900 7.061400
0.627500 6.930200
0.643100 6.682500
0.658700 6.216100
0.674300 21.194600
0.690000 15.198200
0.705600 13.884900
0.721200 20.261500
0.736800 20.755000
0.752400 18.471500
0.768000 18.228800
0.783600 17.868800
0.799300 17.432800
0.814900 16.819300
0.830500 15.990700
0.846100 14.816500
0.861700 13.568000
0.877300 13.690800
0.892900 12.839100
0.908600 10.787800
0.924200 8.641100
0.939800 9.802200
0.955400 19.211100
0.971000 3.812100
0.986600 0.000000
1.002200 0.000000
1.017900 0.000000
1.033500 0.000000
1.049100 0.000000
1.064700 0.000000
1.080300 0.000000
1.095900 0.000000
1.111500 0.000000
1.127200 0.000000
1.142800 0.000000
1.158400 0.000000
1.174000 0.000000
1.189600 0.000000
1.205200 0.000000
1.220800 0.000000
1.236500 0.000000
1.252100 0.000000
1.267700 0.000000
1.283300 0.000000
1.298900 0.000000
1.314500 0.000000
1.330200 0.000000
1.345800 0.000000
1.361400 0.000000
1.377000 0.000000
1.392600 0.000000
1.408200 0.000000
1.423800 0.000000
1.439500 0.000000
1.455100 0.000000
1.470700 0.000000
1.486300 0.000000
1.501900 0.000000
1.517500 0.000000
1.533100 0.000000
1.548800 0.000000
1.564400 0.000000
1.580000 0.000000
1.595600 0.000000
1.611200 0.000000
1.626800 0.000000
1.642400 0.000000
1.658100 0.000000
1.673700 0.000000
1.689300 0.000000
1.704900 0.000000
1.720500 0.000000
1.736100 0.000000
1.751700 0.000000
1.767400 0.000000
1.783000 0.000000
1.798600 0.000000
1.814200 0.000000
1.829800 0.000000
1.845400 0.000000
1.861000 0.000000
1.876700 0.000000
1.892300 0.000000
1.907900 0.000000
1.923500 0.000000
1.939100 0.000000
1.954700 0.000000
1.970300 0.000000
1.986000 0.000000
2.001600 0.000000
2.017200 0.000000
2.032800 0.000000
2.048400 0.000000
2.064000 0.000000
2.079700 0.000000
2.095300 0.000000
2.110900 0.000000
2.126500 0.000000
2.142100 0.000000
2.157700 0.000000
2.173300 0.000000
2.189000 0.000000
2.204600 0.000000
2.220200 0.000000
2.235800 0.000000
2.251400 0.000000
2.267000 0.000000
2.282600 0.000000
2.298300 0.000000
2.313900 0.000000
2.329500 0.000000
2.345100 0.000000
2.360700 0.000000
2.376300 0.000000
2.391900 0.000000
2.407600 0.000000
2.423200 0.000000
2.438800 0.000000
2.454400 0.000000
2.470000 0.000000
2.485600 0.000000
2.501200 0.000000
2.516900 0.000000
2.532500 0.000000
2.548100 0.000000
2.563700 0.000000
2.579300 0.000000
2.594900 0.000000
2.610500 0.000000
2.626200 0.000000
2.641800 0.000000
2.657400 0.000000
2.673000 0.000000
2.688600 0.000000
2.704200 0.000000
2.719800 0.000000
2.735500 0.000000
2.751100 0.000000
2.766700 0.000000
2.782300 0.000000
2.797900 0.000000
2.813500 0.000000
2.829100 0.000000
2.844800 0.000000
2.860400 0.000000
2.876000 0.000000
2.891600 0.000000
2.907200 0.000000
2.922800 0.000000
2.938500 0.000000
2.954100 0.000000
2.969700 0.000000
2.985300 0.000000
3.000900 0.000000
3.016500 0.000000
3.032100 0.000000
3.047800 0.000000
3.063400 0.000000
3.079000 0.000000
3.094600 0.000000
3.110200 0.000000
3.125800 0.000000
3.141400 0.000000
3.157100 0.000000
3.172700 0.000000
3.188300 0.000000
3.203900 0.000000
3.219500 0.000000
3.235100 0.000000
3.250700 0.000000
3.266400 0.000000
3.282000 0.000000
3.297600 0.000000
3.313200 0.000000
3.328800 0.000000
3.344400 0.000000
3.360000 0.000000
3.375700 0.012700
3.391300 0.049700
3.406900 0.110100
3.422500 0.191400
3.438100 0.272700
3.453700 0.359000
3.469300 0.448500
3.485000 0.539400
3.500600 0.649300
3.516200 0.776000
3.531800 0.914400
3.547400 1.064600
3.563000 1.229900
3.578600 1.425700
3.594300 1.622900
3.609900 1.821400
3.625500 2.021300
3.641100 2.222500
3.656700 2.425000
3.672300 2.628900
3.688000 2.846300
3.703600 3.073000
3.719200 3.300100
3.734800 3.527400
3.750400 3.755000
3.766000 3.982900
3.781600 4.211100
3.797300 4.439600
3.812900 4.668400
3.828500 4.897500
3.844100 5.126800
3.859700 5.356500
3.875300 5.586400
3.890900 5.816700
3.906600 6.047200
3.922200 6.278000
3.937800 6.509100
3.953400 6.740500
3.969000 6.972200
3.984600 7.204100
4.000200 7.504500
4.015900 10.612200
4.031500 13.410200
4.047100 14.737500
4.062700 14.873400
4.078300 8.510800
4.093900 6.947300
4.109500 10.775900
4.125200 5.709100
4.140800 9.522100
4.156400 12.353200
4.172000 13.019100
4.187600 6.348100
4.203200 0.000000
4.218800 0.000000
4.234500 0.000000
4.250100 0.000000
4.265700 0.000000
4.281300 0.000000
4.296900 0.000000
4.312500 0.000000
4.328100 0.000000
4.343800 0.000000
4.359400 0.000000
4.375000 0.000000
4.390600 0.000000
4.406200 0.000000
4.421800 0.000000
4.437500 0.000000
4.453100 0.000000
4.468700 0.000000
4.484300 0.000000
4.499900 0.000000
4.515500 0.000000
4.531100 0.000000
4.546800 0.000000
4.562400 0.000000
4.578000 0.000000
4.593600 0.000000
4.609200 0.000000
4.624800 0.000000
4.640400 0.000000
4.656100 0.000000
4.671700 0.000000
4.687300 0.000000
4.702900 0.000000
4.718500 0.000000
4.734100 0.000000
4.749700 0.000000
4.765400 0.000000
4.781000 0.000000
4.796600 0.000000
4.812200 0.000000
4.827800 0.000000
4.843400 0.000000
4.859000 0.000000
4.874700 0.000000
4.890300 0.000000
4.905900 0.000000
4.921500 0.000000
4.937100 0.000000
4.952700 0.000000
4.968300 0.000000
4.984000 0.000000
4.999600 0.000000
5.015200 0.000000
5.030800 0.000000
5.046400 0.000000
5.062000 0.000000
5.077600 0.000000
5.093300 0.000000
5.108900 0.000000
5.124500 0.000000
5.140100 0.000000
5.155700 0.000000
5.171300 0.000000
5.187000 0.000000
5.202600 0.000000
5.218200 0.000000
5.233800 0.000000
5.249400 0.000000
5.265000 0.000000
5.280600 0.000000
5.296300 0.000000
5.311900 0.000000
5.327500 0.000000
5.343100 0.000000
5.358700 0.000000
5.374300 0.000000
5.389900 0.000000
5.405600 0.000000
5.421200 0.000000
5.436800 0.000000
5.452400 0.000000
5.468000 0.000000
5.483600 0.000000
5.499200 0.000000
5.514900 0.020600
5.530500 0.067100
5.546100 0.121600
5.561700 0.176100
5.577300 0.230500
5.592900 0.284800
5.608500 0.339000
5.624200 0.393200
5.639800 0.447300
5.655400 0.501300
5.671000 0.555300
5.686600 0.609200
5.702200 0.663000
5.717800 0.716700
5.733500 0.770400
5.749100 0.823900
5.764700 0.877500
5.780300 0.930900
5.795900 0.984300
5.811500 1.037600
5.827100 1.090800
5.842800 1.143900
5.858400 1.197000
5.874000 1.250000
5.889600 1.302900
5.905200 1.355800
5.920800 1.408500
5.936500 1.461300
5.952100 1.513900
5.967700 1.593100
5.983300 1.873900
5.998900 2.156800
6.014500 2.436300
6.030100 2.714300
6.045800 3.018000
6.061400 3.355800
6.077000 3.662800
6.092600 3.783500
6.108200 3.881200
6.123800 3.955800
6.139400 4.007300
6.155100 4.035800
6.170700 4.045000
6.186300 4.077900
6.201900 4.130600
6.217500 4.230900
6.233100 4.335600
6.248700 4.435600
6.264400 4.531100
6.280000 4.622000
6.295600 4.724400
6.311200 4.813800
6.326800 4.884700
6.342400 4.937100
6.358000 4.971000
6.373700 4.986300
6.389300 4.983100
6.404900 4.962000
6.420500 4.929100
6.436100 4.886000
6.451700 4.832700
6.467300 4.769300
6.483000 4.697300
6.498600 4.617500
6.514200 4.508100
6.529800 4.373000
6.545400 4.238000
6.561000 4.279400
6.576600 4.647100
6.592300 4.806900
6.607900 4.759000
6.623500 4.503200
6.639100 4.039600
6.654700 3.368300
6.670300 2.489100
6.686000 2.096600
6.701600 2.040900
6.717200 1.985500
6.732800 1.930200
6.748400 1.875000
6.764000 1.820000
6.779600 1.765200
6.795300 1.710500
6.810900 1.656000
6.826500 1.601600
6.842100 1.547400
6.857700 1.493400
6.873300 1.439500
6.888900 1.385700
6.904600 1.332100
6.920200 1.316600
6.935800 1.361600
6.951400 1.392800
6.967000 1.410300
6.982600 1.413900
6.998200 1.403800
7.013900 1.379900
7.029500 1.342200
7.045100 1.290700
7.060700 1.225400
7.076300 1.329300
7.091900 1.531400
7.107500 1.768100
7.123200 2.039500
7.138800 2.345500
7.154400 2.686100
7.170000 3.061300
7.185600 3.471200
7.201200 3.915700
7.216800 4.893600
7.232500 6.833600
7.248100 10.514000
7.263700 13.438300
7.279300 15.454100
7.294900 16.541300
7.310500 16.700100
7.326100 15.853900
7.341800 13.262800
7.357400 4.371800
7.373000 2.357600
7.388600 3.241200
7.404200 4.354900
7.419800 5.698500
7.435500 7.954500
7.451100 10.152600
7.466700 11.973000
7.482300 13.452600
7.497900 14.592900
7.513500 15.374200
7.529100 22.969000
7.544800 8.305700
7.560400 5.411900
7.576000 5.222000
7.591600 5.112000
7.607200 5.025000
7.622800 4.941100
7.638400 4.860200
7.654100 4.782400
7.669700 4.707600
7.685300 4.800000
7.700900 5.278500
7.716500 5.798800
7.732100 6.361000
7.747700 7.119000
7.763400 8.297700
7.779000 9.184000
7.794600 9.689700
7.810200 10.191400
7.825800 10.697800
7.841400 11.203800
7.857000 11.686100
7.872700 12.521500
7.888300 12.786600
7.903900 12.059000
7.919500 11.257800
7.935100 10.464100
7.950700 9.678000
7.966300 9.003600
7.982000 8.354300
7.997600 6.302500
8.013200 6.084000
8.028800 5.881000
8.044400 5.693400
8.060000 5.697900
8.075600 13.374800
8.091300 4.786900
8.106900 5.943400
8.122500 6.539100
8.138100 6.540500
8.153700 6.530400
8.169300 6.636100
8.185000 6.728300
8.200600 6.807000
8.216200 6.872200
8.231800 6.923900
8.247400 6.962000
8.263000 6.986700
8.278600 6.997900
8.294300 6.995600
8.309900 6.979800
8.325500 6.994200
8.341100 7.102200
8.356700 7.182000
8.372300 7.233600
8.387900 7.257000
8.403600 7.252300
8.419200 7.285300
8.434800 7.513300
8.450400 7.602200
8.466000 7.364400
8.481600 7.052600
8.497200 6.666700
8.512900 6.206700
8.528500 5.672700
8.544100 5.064700
8.559700 4.382600
8.575300 3.626400
8.590900 3.063100
8.606500 2.763000
8.622200 2.457900
8.637800 2.149200
8.653400 2.960000
8.669000 3.691700
8.684600 4.028300
8.700200 3.970000
8.715800 3.517700
8.731500 3.700600
8.747100 7.978600
8.762700 8.300000
8.778300 4.605400
8.793900 4.272700
8.809500 4.280700
8.825100 4.277500
8.840800 4.263200
8.856400 4.237700
8.872000 4.201000
8.887600 3.966900
8.903200 3.456900
8.918800 3.315600
8.934500 3.211800
8.950100 3.822100
8.965700 5.208700
8.981300 5.959400
8.996900 6.074100
9.012500 5.552800
9.028100 5.204300
9.043800 7.521700
9.059400 7.474500
9.075000 7.464100
9.090600 7.367300
9.106200 7.184100
9.121800 6.914500
9.137400 6.584800
9.153100 6.291200
9.168700 6.048800
9.184300 5.796600
9.199900 5.431300
9.215500 5.028500
9.231100 4.830800
9.246700 4.636900
9.262400 4.446600
9.278000 4.324100
9.293600 4.732700
9.309200 6.371700
9.324800 7.280700
9.340400 7.389600
9.356000 7.241800
9.371700 7.369300
9.387300 7.444700
9.402900 7.468000
9.418500 7.439200
9.434100 7.358300
9.449700 7.225400
9.465300 7.040400
9.481000 6.803300
9.496600 6.514100
9.512200 6.172800
9.527800 5.789300
9.543400 5.388200
9.559000 4.984500
9.574600 4.611500
9.590300 4.388800
9.605900 4.299600
9.621500 4.275600
9.637100 4.313100
9.652700 4.424300
9.668300 4.609900
9.684000 5.313300
9.699600 6.621200
9.715200 7.479900
9.730800 7.889300
9.746400 7.855000
9.762000 7.374600
9.777600 6.696200
9.793300 7.407100
9.808900 6.772400
9.824500 6.332300
9.840100 6.304300
9.855700 6.090200
9.871300 5.477100
9.886900 4.642100
9.902600 3.969200
9.918200 3.455800
9.933800 3.108500
9.949400 2.895600
9.965000 2.816500
9.980600 2.804200
9.996200 2.792000
10.011900 2.780000
10.027500 2.768000
10.043100 2.756200
10.058700 18.333700
10.074300 3.338900
10.089900 3.455500
10.105500 3.574700
10.121200 3.710200
10.136800 3.847000
10.152400 3.985100
10.168000 4.124400
10.183600 4.265000
10.199200 4.406900
10.214800 4.550000
10.230500 4.694400
10.246100 4.840100
10.261700 4.987000
10.277300 5.135200
10.292900 5.284600
10.308500 5.435400
10.324100 5.587300
10.339800 5.740600
10.355400 5.895100
10.371000 6.060100
10.386600 6.407300
10.402200 5.941800
10.417800 5.198300
10.433400 4.590600
10.449100 4.481900
10.464700 4.468500
10.480300 4.740800
10.495900 5.040900
10.511500 5.434100
10.527100 5.836700
10.542800 5.320600
10.558400 4.981800
10.574000 4.810900
10.589600 4.671500
10.605200 4.519500
10.620800 4.364100
10.636400 4.227800
10.652100 4.125200
10.667700 4.060100
10.683300 4.032400
10.698900 4.042100
10.714500 4.089200
10.730100 4.173700
10.745700 4.295700
10.761400 4.455000
10.777000 4.563400
10.792600 4.853700
10.808200 5.041900
10.823800 5.164700
10.839400 5.180500
10.855000 5.088800
10.870700 5.528700
10.886300 5.450500
10.901900 5.382600
10.917500 5.323000
10.933100 5.265600
10.948700 5.210500
10.964300 5.157700
10.980000 5.107000
10.995600 5.058600
11.011200 5.012500
11.026800 4.968600
11.042400 4.926900
11.058000 4.887500
11.073600 4.850300
11.089300 4.815300
11.104900 4.782600
11.120500 4.752200
11.136100 4.723900
11.151700 4.697900
11.167300 5.692100
11.182900 6.395500
11.198600 6.056500
11.214200 5.656400
11.229800 5.620300
11.245400 7.445500
11.261000 7.936000
11.276600 7.091900
11.292300 4.904000
11.307900 4.565600
11.323500 4.395900
11.339100 4.236300
11.354700 4.086600
11.370300 3.947000
11.385900 3.817500
11.401600 3.697900
11.417200 3.593200
11.432800 3.667100
11.448400 4.145300
11.464000 5.028800
11.479600 6.944200
11.495200 7.646900
11.510900 6.466700
11.526500 7.657200
11.542100 7.744200
11.557700 6.748700
11.573300 8.030800
11.588900 7.633200
11.604500 7.361500
11.620200 6.993300
11.635800 6.635200
11.651400 6.404500
11.667000 6.204900
11.682600 6.035500
11.698200 5.907700
11.713800 5.812300
11.729500 5.748400
11.745100 5.718700
11.760700 5.710100
11.776300 5.691400
11.791900 5.685800
11.807500 5.687700
11.823100 5.594200
11.838800 5.406400
11.854400 5.122600
11.870000 5.021700
11.885600 4.967300
11.901200 4.914600
11.916800 4.865000
11.932400 4.819500
11.948100 4.789200
11.963700 4.801400
11.979300 4.813100
11.994900 4.824500
12.010500 4.835400
12.026100 4.873200
12.041800 4.922000
12.057400 4.977400
12.073000 5.037000
12.088600 5.101600
12.104200 5.116600
12.119800 5.096900
12.135400 5.169900
12.151100 5.263100
12.166700 5.369100
12.182300 5.450500
12.197900 5.352800
12.213500 5.316700
12.229100 5.342300
12.244700 5.401400
12.260400 5.442100
12.276000 5.481200
12.291600 5.518900
12.307200 5.555000
12.322800 5.589600
12.338400 5.622700
12.354000 5.654300
12.369700 5.687000
12.385300 5.718800
12.400900 5.753600
12.416500 5.791900
12.432100 5.829600
12.447700 5.866800
12.463300 5.903500
12.479000 5.939600
12.494600 5.976600
12.510200 6.014300
12.525800 6.052100
12.541400 6.089600
12.557000 6.125700
12.572600 6.348200
12.588300 6.571100
12.603900 6.754100
12.619500 6.853100
12.635100 6.867700
12.650700 6.802100
12.666300 6.701100
12.681900 6.563300
12.697600 6.389100
12.713200 6.177000
12.728800 5.926900
12.744400 5.638900
12.760000 5.532600
12.775600 5.573500
12.791300 5.600100
12.806900 5.611900
12.822500 5.617300
12.838100 5.633300
12.853700 5.635400
12.869300 5.622600
12.884900 5.593400
12.900600 5.548200
12.916200 5.496500
12.931800 5.434600
12.947400 5.354600
12.963000 5.267500
12.978600 5.167200
12.994200 5.051400
13.009900 4.920100
13.025500 4.773400
13.041100 4.622100
13.056700 4.690400
13.072300 4.759000
13.087900 4.828100
13.103500 4.897700
13.119200 4.967900
13.134800 5.038600
13.150400 5.109900
13.166000 5.181700
13.181600 5.254000
13.197200 5.326900
13.212800 5.400300
13.228500 5.474200
13.244100 5.548700
13.259700 5.623700
13.275300 5.699300
13.290900 5.775300
13.306500 5.851700
13.322100 6.102200
13.337800 8.073900
13.353400 15.954200
13.369000 13.783000
13.384600 11.867100
13.400200 9.411800
13.415800 7.679000
13.431400 8.174900
13.447100 8.273300
13.462700 7.974400
13.478300 7.724600
13.493900 7.528300
13.509500 7.311200
13.525100 7.073600
13.540800 6.815400
13.556400 6.536600
13.572000 6.242300
13.587600 5.939500
13.603200 5.612300
13.618800 5.259900
13.634400 5.394600
13.650100 5.532200
13.665700 5.672500
13.681300 5.815500
13.696900 6.265100
13.712500 6.722300
13.728100 7.136800
13.743700 7.508200
13.759400 7.836300
13.775000 8.504200
13.790600 8.338300
13.806200 5.933500
13.821800 4.398700
13.837400 4.501800
13.853000 4.606100
13.868700 4.711600
13.884300 4.818600
13.899900 4.941500
13.915500 5.062800
13.931100 5.187700
13.946700 5.316200
13.962300 5.448300
13.978000 5.597400
13.993600 5.759300
14.009200 5.924100
14.024800 6.091800
14.040400 6.262400
14.056000 6.435800
14.071600 6.612100
14.087300 6.838600
14.102900 7.117100
14.118500 7.461600
14.134100 7.925600
14.149700 8.300000
14.165300 8.656700
14.180900 8.912400
14.196600 9.047500
14.212200 9.062100
14.227800 8.956300
14.243400 8.729900
14.259000 8.383000
14.274600 7.915600
14.290300 7.345800
14.305900 7.425500
14.321500 7.626100
14.337100 7.934500
14.352700 8.297500
14.368300 10.027400
14.383900 10.123100
14.399600 9.662600
14.415200 9.623900
14.430800 9.506800
14.446400 9.303700
14.462000 9.080800
14.477600 8.771300
14.493200 8.344000
14.508900 7.798800
14.524500 7.901300
14.540100 7.908800
14.555700 7.841200
14.571300 7.806100
14.586900 7.853800
14.602500 7.937100
14.618200 8.324500
14.633800 8.942400
14.649400 9.314600
14.665000 9.366300
14.680600 9.502100
14.696200 9.921500
14.711800 10.456500
14.727500 10.665000
14.743100 10.818200
14.758700 10.916000
14.774300 10.961900
14.789900 10.955300
14.805500 10.894200
14.821100 10.778400
14.836800 11.040000
14.852400 10.859000
14.868000 11.002100
14.883600 11.142700
14.899200 11.225200
14.914800 12.313400
14.930400 13.915200
14.946100 13.169500
14.961700 9.768000
14.977300 10.026600
14.992900 10.232300
15.008500 10.484700
15.024100 11.068700
15.039800 10.658700
15.055400 10.250900
15.071000 9.845100
15.086600 10.084600
15.102200 10.576700
15.117800 10.468900
15.133400 9.485500
15.149100 7.618300
15.164700 6.624000
15.180300 6.726600
15.195900 6.898300
15.211500 4.157900
15.227100 4.765200
15.242700 5.919400
15.258400 7.680500
15.274000 9.509500
15.289600 11.353800
15.305200 18.991800
15.320800 13.513600
15.336400 13.170100
15.352000 12.747200
15.367700 16.774300
15.383300 15.772300
15.398900 14.742300
15.414500 12.885100
15.430100 11.035600
15.445700 10.243900
15.461300 9.797300
15.477000 9.332600
15.492600 8.852100
15.508200 8.387400
15.523800 7.965000
15.539400 7.640400
15.555000 7.198700
15.570600 7.034400
15.586300 7.001200
15.601900 7.045800
15.617500 7.158100
15.633100 7.332700
15.648700 7.659800
15.664300 7.967000
15.679900 8.243900
15.695600 8.575400
15.711200 9.154800
15.726800 9.768000
15.742400 10.532700
15.758000 11.110800
15.773600 11.109500
15.789300 11.035900
15.804900 10.889800
15.820500 10.699500
15.836100 10.265800
15.851700 9.642400
15.867300 8.993000
15.882900 9.626100
15.898600 10.940400
15.914200 9.206500
15.929800 5.398200
15.945400 5.087900
15.961000 5.104400
15.976600 5.153700
15.992200 5.199400
16.007900 5.228300
16.023500 5.245600
16.039100 5.254500
16.054700 5.254900
16.070300 5.246900
16.085900 5.230400
16.101500 5.205500
16.117200 5.172100
16.132800 5.130300
16.148400 5.080000
16.164000 5.021300
16.179600 4.954100
16.195200 4.890300
16.210800 4.823100
16.226500 4.716000
16.242100 4.644000
16.257700 4.733200
16.273300 4.814000
16.288900 4.900200
16.304500 4.992000
16.320100 5.084400
16.335800 5.160600
16.351400 5.221100
16.367000 5.413500
16.382600 5.581600
16.398200 5.725500
16.413800 5.850800
16.429400 5.968700
16.445100 6.080800
16.460700 6.187200
16.476300 6.287900
16.491900 6.380400
16.507500 6.451500
16.523100 6.602800
16.538800 7.954000
16.554400 8.686300
16.570000 8.799700
16.585600 8.175600
16.601200 6.811200
16.616800 6.243600
16.632400 6.054900
16.648100 5.757200
16.663700 5.350500
16.679300 4.834800
16.694900 4.518500
16.710500 4.787900
16.726100 5.082300
16.741700 5.582200
16.757400 6.164800
16.773000 6.965600
16.788600 7.715800
16.804200 7.984900
16.819800 7.918500
16.835400 7.612400
16.851000 6.904400
16.866700 6.149900
16.882300 5.854100
16.897900 5.592100
16.913500 5.363900
16.929100 5.169400
16.944700 5.006000
16.960300 4.851900
16.976000 4.720000
16.991600 4.589600
17.007200 4.460700
17.022800 4.333300
17.038400 4.207500
17.054000 4.083200
17.069600 3.960400
17.085300 3.857900
17.100900 3.864900
17.116500 3.877100
17.132100 3.894600
17.147700 3.917300
17.163300 3.945300
17.178900 3.959800
17.194600 4.148200
17.210200 4.326200
17.225800 4.201300
17.241400 4.075500
17.257000 3.948600
17.272600 3.820800
17.288300 3.692000
17.303900 3.562300
17.319500 3.431600
17.335100 3.299900
17.350700 3.167200
17.366300 3.033600
17.381900 2.899000
17.397600 2.763500
17.413200 2.626900
17.428800 2.489400
17.444400 2.350900
17.460000 2.211500
17.475600 2.144400
17.491200 2.101100
17.506900 2.057800
17.522500 2.014400
17.538100 1.971100
17.553700 1.927700
17.569300 3.600100
17.584900 3.886600
17.600500 2.785000
17.616200 0.295200
17.631800 0.000000
17.647400 0.000000
17.663000 0.000000
17.678600 0.000000
17.694200 0.000000
17.709800 0.000000
17.725500 0.000000
17.741100 0.000000
17.756700 0.000000
17.772300 0.000000
17.787900 0.000000
17.803500 0.000000
17.819100 0.000000
17.834800 0.000000
17.850400 0.000000
17.866000 0.000000
17.881600 0.000000
17.897200 0.000000
17.912800 0.000000
17.928400 0.000000
17.944100 0.000000
17.959700 0.000000
17.975300 0.000000
17.990900 0.000000
18.006500 0.000000
18.022100 0.000000
18.037700 0.000000
18.053400 0.000000
18.069000 0.000000
18.084600 0.000000
18.100200 0.000000
18.115800 0.000000
18.131400 0.000000
18.147100 0.000000
18.162700 0.000000
18.178300 0.000000
18.193900 0.000000
18.209500 0.000000
18.225100 0.000000
18.240700 0.000000
18.256400 0.000000
18.272000 0.000000
18.287600 0.000000
18.303200 0.000000
18.318800 0.000000
18.334400 0.000000
18.350000 0.000000
18.365700 0.000000
18.381300 0.000000
18.396900 0.000000
18.412500 0.000000
18.428100 0.000000
18.443700 0.000000
18.459300 0.000000
18.475000 0.000000
18.490600 0.000000
18.506200 0.000000
18.521800 0.000000
18.537400 0.000000
18.553000 0.000000
18.568600 0.000000
18.584300 0.000000
18.599900 0.000000
18.615500 0.000000
18.631100 0.000000
18.646700 0.000000
18.662300 0.000000
18.677900 0.000000
18.693600 0.000000
18.709200 0.000000
18.724800 0.000000
18.740400 0.000000
18.756000 0.000000
18.771600 0.000000
18.787200 0.000000
18.802900 0.000000
18.818500 0.000000
18.834100 0.000000
18.849700 0.000000
18.865300 0.000000
18.880900 0.000000
18.896600 0.000000
18.912200 0.000000
18.927800 0.000000
18.943400 0.000000
18.959000 0.000000
18.974600 0.000000
18.990200 0.000000
19.005900 0.000000
19.021500 0.000000
19.037100 0.000000
e
