set title 'mp-1186367 - Density of States'
set xlabel 'Energy (eV)'
set ylabel 'DOS (states/eV)'
set grid
set xrange [-10:10]
set yrange [0:7.795]
set xzeroaxis lt -1
set terminal png size 800,600
set output 'mp-1186367_dos_gnuplot.png'
plot '-' using 1:2 with lines title 'DOS'
-32.236000 0.000000
-32.197300 0.000000
-32.158600 0.000000
-32.119900 0.000000
-32.081200 0.000000
-32.042500 0.000000
-32.003800 0.000000
-31.965100 0.000000
-31.926400 0.000000
-31.887600 0.000000
-31.848900 0.000000
-31.810200 0.000000
-31.771500 0.000000
-31.732800 0.000000
-31.694100 0.000000
-31.655400 0.000000
-31.616700 0.000000
-31.578000 0.000000
-31.539300 0.000000
-31.500600 0.000000
-31.461900 0.000000
-31.423200 0.000000
-31.384500 0.000000
-31.345800 0.000000
-31.307100 0.000000
-31.268400 0.000000
-31.229700 0.000000
-31.191000 0.000000
-31.152300 0.000000
-31.113600 0.000000
-31.074900 0.000000
-31.036200 0.000000
-30.997400 0.000000
-30.958700 0.000000
-30.920000 0.000000
-30.881300 0.000000
-30.842600 0.000000
-30.803900 0.000000
-30.765200 0.000000
-30.726500 0.000000
-30.687800 0.000000
-30.649100 0.000000
-30.610400 0.000000
-30.571700 0.000000
-30.533000 0.000000
-30.494300 0.000000
-30.455600 0.000000
-30.416900 0.000000
-30.378200 0.000000
-30.339500 0.000000
-30.300800 0.000000
-30.262100 0.000000
-30.223400 0.000000
-30.184700 0.000000
-30.145900 0.000000
-30.107200 0.000000
-30.068500 0.000000
-30.029800 0.000000
-29.991100 0.000000
-29.952400 0.000000
-29.913700 0.000000
-29.875000 0.000000
-29.836300 0.000000
-29.797600 0.000000
-29.758900 0.000000
-29.720200 0.000000
-29.681500 0.000000
-29.642800 0.000000
-29.604100 0.000000
-29.565400 0.000000
-29.526700 0.000000
-29.488000 0.000000
-29.449300 0.000000
-29.410600 0.000000
-29.371900 0.000000
-29.333200 0.000000
-29.294400 0.000000
-29.255700 0.000000
-29.217000 0.000000
-29.178300 0.000000
-29.139600 0.000000
-29.100900 0.000000
-29.062200 0.000000
-29.023500 0.000000
-28.984800 0.000000
-28.946100 0.000000
-28.907400 0.000000
-28.868700 0.000000
-28.830000 0.000000
-28.791300 0.000000
-28.752600 0.000000
-28.713900 0.018400
-28.675200 0.664100
-28.636500 1.019000
-28.597800 1.356500
-28.559100 1.729500
-28.520400 1.857200
-28.481700 2.439700
-28.443000 2.907100
-28.404200 3.549100
-28.365500 4.676700
-28.326800 5.041100
-28.288100 5.643400
-28.249400 6.384800
-28.210700 7.518700
-28.172000 9.527500
-28.133300 12.993400
-28.094600 13.570000
-28.055900 16.701800
-28.017200 0.000000
-27.978500 0.000000
-27.939800 0.000000
-27.901100 0.000000
-27.862400 0.000000
-27.823700 0.000000
-27.785000 0.000000
-27.746300 0.000000
-27.707600 0.000000
-27.668900 0.000000
-27.630200 0.000000
-27.591500 0.000000
-27.552700 0.000000
-27.514000 0.000000
-27.475300 0.000000
-27.436600 0.000000
-27.397900 0.000000
-27.359200 0.000000
-27.320500 0.000000
-27.281800 0.000000
-27.243100 0.000000
-27.204400 0.000000
-27.165700 0.000000
-27.127000 0.000000
-27.088300 0.000000
-27.049600 0.000000
-27.010900 0.000000
-26.972200 0.000000
-26.933500 0.000000
-26.894800 0.000000
-26.856100 0.000000
-26.817400 0.000000
-26.778700 0.000000
-26.740000 0.000000
-26.701200 0.000000
-26.662500 0.000000
-26.623800 0.000000
-26.585100 0.000000
-26.546400 0.000000
-26.507700 0.000000
-26.469000 0.000000
-26.430300 0.000000
-26.391600 0.000000
-26.352900 0.000000
-26.314200 0.000000
-26.275500 0.000000
-26.236800 0.000000
-26.198100 0.000000
-26.159400 0.000000
-26.120700 0.000000
-26.082000 0.000000
-26.043300 0.000000
-26.004600 0.000000
-25.965900 0.000000
-25.927200 0.000000
-25.888500 0.000000
-25.849800 0.000000
-25.811000 0.000000
-25.772300 0.000000
-25.733600 0.000000
-25.694900 0.000000
-25.656200 0.000000
-25.617500 0.000000
-25.578800 0.000000
-25.540100 0.000000
-25.501400 0.000000
-25.462700 0.000000
-25.424000 0.000000
-25.385300 0.000000
-25.346600 0.000000
-25.307900 0.000000
-25.269200 0.000000
-25.230500 0.000000
-25.191800 0.000000
-25.153100 0.000000
-25.114400 0.000000
-25.075700 0.000000
-25.037000 0.000000
-24.998300 0.000000
-24.959500 0.000000
-24.920800 0.000000
-24.882100 0.000000
-24.843400 0.000000
-24.804700 0.000000
-24.766000 0.000000
-24.727300 0.000000
-24.688600 0.000000
-24.649900 0.000000
-24.611200 0.000000
-24.572500 0.000000
-24.533800 0.000000
-24.495100 0.000000
-24.456400 0.000000
-24.417700 0.000000
-24.379000 0.000000
-24.340300 0.000000
-24.301600 0.000000
-24.262900 0.000000
-24.224200 0.000000
-24.185500 0.000000
-24.146800 0.000000
-24.108000 0.000000
-24.069300 0.000000
-24.030600 0.000000
-23.991900 0.000000
-23.953200 0.000000
-23.914500 0.000000
-23.875800 0.000000
-23.837100 0.000000
-23.798400 0.000000
-23.759700 0.000000
-23.721000 0.000000
-23.682300 0.000000
-23.643600 0.000000
-23.604900 0.000000
-23.566200 0.000000
-23.527500 0.000000
-23.488800 0.000000
-23.450100 0.000000
-23.411400 0.000000
-23.372700 0.000000
-23.334000 0.000000
-23.295300 0.000000
-23.256600 0.000000
-23.217800 0.000000
-23.179100 0.000000
-23.140400 0.000000
-23.101700 0.000000
-23.063000 0.000000
-23.024300 0.000000
-22.985600 0.000000
-22.946900 0.000000
-22.908200 0.000000
-22.869500 0.000000
-22.830800 0.000000
-22.792100 0.000000
-22.753400 0.000000
-22.714700 0.000000
-22.676000 0.000000
-22.637300 0.000000
-22.598600 0.000000
-22.559900 0.000000
-22.521200 0.000000
-22.482500 0.000000
-22.443800 0.000000
-22.405100 0.000000
-22.366300 0.000000
-22.327600 0.000000
-22.288900 0.000000
-22.250200 0.000000
-22.211500 0.000000
-22.172800 0.000000
-22.134100 0.000000
-22.095400 0.000000
-22.056700 0.000000
-22.018000 0.000000
-21.979300 0.000000
-21.940600 0.000000
-21.901900 0.000000
-21.863200 0.000000
-21.824500 0.000000
-21.785800 0.000000
-21.747100 0.000000
-21.708400 0.000000
-21.669700 0.000000
-21.631000 0.000000
-21.592300 0.000000
-21.553600 0.000000
-21.514800 0.000000
-21.476100 0.000000
-21.437400 0.000000
-21.398700 0.000000
-21.360000 0.000000
-21.321300 0.000000
-21.282600 0.000000
-21.243900 0.000000
-21.205200 0.000000
-21.166500 0.000000
-21.127800 0.000000
-21.089100 0.000000
-21.050400 0.000000
-21.011700 0.000000
-20.973000 0.000000
-20.934300 0.000000
-20.895600 0.000000
-20.856900 0.000000
-20.818200 0.000000
-20.779500 0.000000
-20.740800 0.000000
-20.702100 0.000000
-20.663400 0.000000
-20.624600 0.000000
-20.585900 0.000000
-20.547200 0.000000
-20.508500 0.000000
-20.469800 0.000000
-20.431100 0.000000
-20.392400 0.000000
-20.353700 0.000000
-20.315000 0.000000
-20.276300 0.000000
-20.237600 0.000000
-20.198900 0.000000
-20.160200 0.000000
-20.121500 0.000000
-20.082800 0.000000
-20.044100 0.000000
-20.005400 0.000000
-19.966700 0.000000
-19.928000 0.000000
-19.889300 0.000000
-19.850600 0.000000
-19.811900 0.000000
-19.773100 0.000000
-19.734400 0.000000
-19.695700 0.000000
-19.657000 0.000000
-19.618300 0.000000
-19.579600 0.000000
-19.540900 0.000000
-19.502200 0.000000
-19.463500 0.000000
-19.424800 0.000000
-19.386100 0.000000
-19.347400 0.000000
-19.308700 0.000000
-19.270000 0.000000
-19.231300 0.000000
-19.192600 0.000000
-19.153900 0.000000
-19.115200 0.000000
-19.076500 0.000000
-19.037800 0.000000
-18.999100 0.000000
-18.960400 0.000000
-18.921700 0.000000
-18.882900 0.000000
-18.844200 0.000000
-18.805500 0.000000
-18.766800 0.000000
-18.728100 0.000000
-18.689400 0.000000
-18.650700 0.000000
-18.612000 0.000000
-18.573300 0.000000
-18.534600 0.000000
-18.495900 0.000000
-18.457200 0.000000
-18.418500 0.000000
-18.379800 0.000000
-18.341100 0.000000
-18.302400 0.000000
-18.263700 0.000000
-18.225000 0.000000
-18.186300 0.000000
-18.147600 0.000000
-18.108900 0.000000
-18.070200 0.000000
-18.031400 0.000000
-17.992700 0.000000
-17.954000 0.000000
-17.915300 0.000000
-17.876600 0.000000
-17.837900 0.000000
-17.799200 0.000000
-17.760500 0.000000
-17.721800 0.000000
-17.683100 0.000000
-17.644400 0.000000
-17.605700 0.000000
-17.567000 0.000000
-17.528300 0.000000
-17.489600 0.000000
-17.450900 0.000000
-17.412200 0.000000
-17.373500 0.000000
-17.334800 0.000000
-17.296100 0.000000
-17.257400 0.000000
-17.218700 0.000000
-17.179900 0.000000
-17.141200 0.000000
-17.102500 0.000000
-17.063800 0.000000
-17.025100 0.000000
-16.986400 0.000000
-16.947700 0.000000
-16.909000 0.000000
-16.870300 0.000000
-16.831600 0.000000
-16.792900 0.000000
-16.754200 0.000000
-16.715500 0.000000
-16.676800 0.000000
-16.638100 0.000000
-16.599400 0.000000
-16.560700 0.000000
-16.522000 0.000000
-16.483300 0.000000
-16.444600 0.000000
-16.405900 0.000000
-16.367200 0.000000
-16.328500 0.000000
-16.289700 0.000000
-16.251000 0.000000
-16.212300 0.000000
-16.173600 0.000000
-16.134900 0.000000
-16.096200 0.000000
-16.057500 0.000000
-16.018800 0.000000
-15.980100 0.000000
-15.941400 0.000000
-15.902700 0.000000
-15.864000 0.000000
-15.825300 0.000000
-15.786600 0.000000
-15.747900 0.000000
-15.709200 0.000000
-15.670500 0.000000
-15.631800 0.000000
-15.593100 0.000000
-15.554400 0.000000
-15.515700 0.000000
-15.477000 0.000000
-15.438200 0.000000
-15.399500 0.000000
-15.360800 0.000000
-15.322100 0.000000
-15.283400 0.000000
-15.244700 0.000000
-15.206000 0.000000
-15.167300 0.000000
-15.128600 0.000000
-15.089900 0.000000
-15.051200 0.000000
-15.012500 0.000000
-14.973800 0.000000
-14.935100 0.000000
-14.896400 0.000000
-14.857700 0.000000
-14.819000 0.000000
-14.780300 0.000000
-14.741600 0.000000
-14.702900 0.000000
-14.664200 0.000000
-14.625500 0.000000
-14.586700 0.000000
-14.548000 0.000000
-14.509300 0.000000
-14.470600 0.000000
-14.431900 0.000000
-14.393200 0.000000
-14.354500 0.000000
-14.315800 0.000000
-14.277100 0.000000
-14.238400 0.000000
-14.199700 0.000000
-14.161000 0.000000
-14.122300 0.000000
-14.083600 0.000000
-14.044900 0.000000
-14.006200 0.000000
-13.967500 0.000000
-13.928800 0.000000
-13.890100 0.000000
-13.851400 0.000000
-13.812700 0.000000
-13.774000 0.000000
-13.735300 0.000000
-13.696500 0.000000
-13.657800 0.000000
-13.619100 0.000000
-13.580400 0.000000
-13.541700 0.000000
-13.503000 0.000000
-13.464300 0.000000
-13.425600 0.000000
-13.386900 0.000000
-13.348200 0.000000
-13.309500 0.000000
-13.270800 0.000000
-13.232100 0.000000
-13.193400 0.000000
-13.154700 0.000000
-13.116000 0.000000
-13.077300 0.000000
-13.038600 0.000000
-12.999900 0.000000
-12.961200 0.000000
-12.922500 0.000000
-12.883800 0.000000
-12.845000 0.000000
-12.806300 0.000000
-12.767600 0.000000
-12.728900 0.000000
-12.690200 0.000000
-12.651500 0.000000
-12.612800 0.000000
-12.574100 0.000000
-12.535400 0.000000
-12.496700 0.000000
-12.458000 0.000000
-12.419300 0.000000
-12.380600 0.000000
-12.341900 0.000000
-12.303200 0.000000
-12.264500 0.000000
-12.225800 0.000000
-12.187100 0.000000
-12.148400 0.000000
-12.109700 0.000000
-12.071000 0.000000
-12.032300 0.000000
-11.993500 0.000000
-11.954800 0.000000
-11.916100 0.000000
-11.877400 0.000000
-11.838700 0.000000
-11.800000 0.000000
-11.761300 0.000000
-11.722600 0.000000
-11.683900 0.000000
-11.645200 0.000000
-11.606500 0.000000
-11.567800 0.000000
-11.529100 0.000000
-11.490400 0.000000
-11.451700 0.000000
-11.413000 0.000000
-11.374300 0.000000
-11.335600 0.000000
-11.296900 0.000000
-11.258200 0.000000
-11.219500 0.000000
-11.180800 0.000000
-11.142100 0.000000
-11.103300 0.000000
-11.064600 0.000000
-11.025900 0.000000
-10.987200 0.000000
-10.948500 0.000000
-10.909800 0.000000
-10.871100 0.000000
-10.832400 0.000000
-10.793700 0.000000
-10.755000 0.000000
-10.716300 0.000000
-10.677600 0.000000
-10.638900 0.000000
-10.600200 0.000000
-10.561500 0.000000
-10.522800 0.000000
-10.484100 0.000000
-10.445400 0.000000
-10.406700 0.000000
-10.368000 0.000000
-10.329300 0.000000
-10.290600 0.000000
-10.251800 0.000000
-10.213100 0.000000
-10.174400 0.000000
-10.135700 0.000000
-10.097000 0.000000
-10.058300 0.000000
-10.019600 0.000000
-9.980900 0.000000
-9.942200 0.000000
-9.903500 0.000000
-9.864800 0.000000
-9.826100 0.000000
-9.787400 0.000000
-9.748700 0.000000
-9.710000 0.000000
-9.671300 0.000000
-9.632600 0.000000
-9.593900 0.000000
-9.555200 0.000000
-9.516500 0.000000
-9.477800 0.000000
-9.439100 0.000000
-9.400400 0.000000
-9.361600 0.000000
-9.322900 0.000000
-9.284200 0.000000
-9.245500 0.000000
-9.206800 0.000000
-9.168100 0.000000
-9.129400 0.000000
-9.090700 0.000000
-9.052000 0.000000
-9.013300 0.000000
-8.974600 0.000000
-8.935900 0.000000
-8.897200 0.000000
-8.858500 0.000000
-8.819800 0.000000
-8.781100 0.000000
-8.742400 0.000000
-8.703700 0.000000
-8.665000 0.000000
-8.626300 0.000000
-8.587600 0.000000
-8.548900 0.000000
-8.510100 0.000000
-8.471400 0.000000
-8.432700 0.000000
-8.394000 0.000000
-8.355300 0.000000
-8.316600 0.000000
-8.277900 0.000000
-8.239200 0.000000
-8.200500 0.000000
-8.161800 0.000000
-8.123100 0.000000
-8.084400 0.000000
-8.045700 0.000000
-8.007000 0.000000
-7.968300 0.000000
-7.929600 0.000000
-7.890900 0.000000
-7.852200 0.000000
-7.813500 0.000000
-7.774800 0.000000
-7.736100 0.000000
-7.697400 0.000000
-7.658600 0.000000
-7.619900 0.000000
-7.581200 0.000000
-7.542500 0.000000
-7.503800 0.000000
-7.465100 0.000000
-7.426400 0.000000
-7.387700 0.000000
-7.349000 0.000000
-7.310300 0.000900
-7.271600 0.450200
-7.232900 1.208100
-7.194200 1.253600
-7.155500 1.343100
-7.116800 1.509300
-7.078100 1.675900
-7.039400 1.824600
-7.000700 1.998600
-6.962000 2.174400
-6.923300 2.334600
-6.884600 2.549200
-6.845900 2.771500
-6.807200 3.136300
-6.768400 3.491500
-6.729700 3.772100
-6.691000 4.389400
-6.652300 4.328200
-6.613600 4.070300
-6.574900 3.807700
-6.536200 3.650300
-6.497500 3.317100
-6.458800 3.281400
-6.420100 3.362400
-6.381400 3.467100
-6.342700 3.314500
-6.304000 3.571400
-6.265300 2.591900
-6.226600 1.955100
-6.187900 1.630900
-6.149200 1.383100
-6.110500 1.261300
-6.071800 1.263100
-6.033100 1.239100
-5.994400 1.218400
-5.955700 1.183200
-5.916900 1.204300
-5.878200 1.549500
-5.839500 1.852500
-5.800800 1.356100
-5.762100 1.452100
-5.723400 1.557400
-5.684700 1.649300
-5.646000 1.754600
-5.607300 1.877400
-5.568600 2.067600
-5.529900 2.307900
-5.491200 2.440100
-5.452500 2.626500
-5.413800 2.805700
-5.375100 3.214200
-5.336400 3.329000
-5.297700 2.794700
-5.259000 2.656300
-5.220300 2.969800
-5.181600 2.871300
-5.142900 2.694200
-5.104200 2.572300
-5.065400 2.554500
-5.026700 2.624800
-4.988000 2.706100
-4.949300 2.822000
-4.910600 2.891000
-4.871900 4.282500
-4.833200 2.876200
-4.794500 2.813700
-4.755800 2.764100
-4.717100 2.754100
-4.678400 2.760300
-4.639700 2.835600
-4.601000 3.138800
-4.562300 3.523400
-4.523600 4.524900
-4.484900 4.718300
-4.446200 4.606500
-4.407500 4.784400
-4.368800 5.530700
-4.330100 5.582700
-4.291400 5.692100
-4.252700 5.614200
-4.214000 7.086300
-4.175200 6.329300
-4.136500 6.002800
-4.097800 5.518900
-4.059100 5.264900
-4.020400 5.015900
-3.981700 4.758100
-3.943000 4.536700
-3.904300 4.417600
-3.865600 4.230500
-3.826900 3.799100
-3.788200 3.375300
-3.749500 3.047900
-3.710800 2.779500
-3.672100 2.507500
-3.633400 2.324200
-3.594700 2.196100
-3.556000 2.095600
-3.517300 1.964300
-3.478600 1.832700
-3.439900 1.842500
-3.401200 1.614700
-3.362500 1.507600
-3.323700 1.307200
-3.285000 1.127000
-3.246300 1.038600
-3.207600 0.786200
-3.168900 0.672700
-3.130200 0.438300
-3.091500 0.231700
-3.052800 0.000000
-3.014100 0.000000
-2.975400 0.000000
-2.936700 0.000000
-2.898000 0.000000
-2.859300 0.000000
-2.820600 0.000000
-2.781900 0.000000
-2.743200 0.000000
-2.704500 0.000000
-2.665800 0.000000
-2.627100 0.000000
-2.588400 0.000000
-2.549700 0.000000
-2.511000 0.000000
-2.472200 0.000000
-2.433500 0.000000
-2.394800 0.000000
-2.356100 0.000000
-2.317400 0.000000
-2.278700 0.000000
-2.240000 0.000000
-2.201300 0.000000
-2.162600 0.000000
-2.123900 0.000000
-2.085200 0.000000
-2.046500 0.000000
-2.007800 0.000000
-1.969100 0.000000
-1.930400 0.000000
-1.891700 0.000000
-1.853000 0.000000
-1.814300 0.000000
-1.775600 0.000000
-1.736900 0.000000
-1.698200 0.000000
-1.659500 0.000000
-1.620800 0.000000
-1.582000 0.000000
-1.543300 0.000000
-1.504600 0.000000
-1.465900 0.000000
-1.427200 0.000000
-1.388500 0.000000
-1.349800 0.000000
-1.311100 0.000000
-1.272400 0.000000
-1.233700 0.000000
-1.195000 0.000000
-1.156300 0.000000
-1.117600 0.000000
-1.078900 0.000000
-1.040200 0.000000
-1.001500 0.000000
-0.962800 0.000000
-0.924100 0.000000
-0.885400 0.000000
-0.846700 0.000000
-0.808000 0.000000
-0.769300 0.000000
-0.730500 0.000000
-0.691800 0.000000
-0.653100 0.000000
-0.614400 0.000000
-0.575700 0.000000
-0.537000 0.000000
-0.498300 0.000000
-0.459600 0.000000
-0.420900 0.000000
-0.382200 0.000000
-0.343500 0.000000
-0.304800 0.000000
-0.266100 0.000000
-0.227400 0.000000
-0.188700 0.000000
-0.150000 0.000000
-0.111300 0.000000
-0.072600 0.000000
-0.033900 0.000000
0.004800 0.000000
0.043500 0.000000
0.082200 0.000000
0.121000 0.000000
0.159700 0.000000
0.198400 0.000000
0.237100 0.000000
0.275800 0.000000
0.314500 0.000000
0.353200 0.000000
0.391900 0.000000
0.430600 0.000000
0.469300 0.000000
0.508000 0.000000
0.546700 0.000000
0.585400 0.000000
0.624100 0.000000
0.662800 0.000000
0.701500 0.000000
0.740200 0.000000
0.778900 0.000000
0.817600 0.000000
0.856300 0.000000
0.895000 0.000000
0.933700 0.000000
0.972400 0.000000
1.011200 0.000000
1.049900 0.000000
1.088600 0.000000
1.127300 0.000000
1.166000 0.000000
1.204700 0.000000
1.243400 0.000000
1.282100 0.000000
1.320800 0.000000
1.359500 0.000000
1.398200 0.000000
1.436900 0.000000
1.475600 0.000000
1.514300 0.000000
1.553000 0.000000
1.591700 0.000000
1.630400 0.000000
1.669100 0.000000
1.707800 0.000000
1.746500 0.000000
1.785200 0.000000
1.823900 0.000000
1.862700 0.000000
1.901400 0.000000
1.940100 0.000000
1.978800 0.000000
2.017500 0.000000
2.056200 0.000000
2.094900 0.000000
2.133600 0.000000
2.172300 0.000000
2.211000 0.000000
2.249700 0.000000
2.288400 0.000000
2.327100 0.000000
2.365800 0.000000
2.404500 0.000000
2.443200 0.000000
2.481900 0.000000
2.520600 0.000000
2.559300 0.000000
2.598000 0.000000
2.636700 0.000000
2.675400 0.000000
2.714100 0.000000
2.752900 0.000000
2.791600 0.000000
2.830300 0.000000
2.869000 0.000000
2.907700 0.000000
2.946400 0.000000
2.985100 0.000000
3.023800 0.000000
3.062500 0.000000
3.101200 0.000000
3.139900 0.000000
3.178600 0.000000
3.217300 0.000000
3.256000 0.000000
3.294700 0.000000
3.333400 0.000000
3.372100 0.000000
3.410800 0.000000
3.449500 0.000000
3.488200 0.000000
3.526900 0.000000
3.565600 0.000000
3.604400 0.000000
3.643100 0.000000
3.681800 0.000000
3.720500 0.000000
3.759200 0.000000
3.797900 0.000000
3.836600 0.000000
3.875300 0.000000
3.914000 0.000000
3.952700 0.000000
3.991400 0.000000
4.030100 0.000000
4.068800 0.000000
4.107500 0.000000
4.146200 0.000000
4.184900 0.000000
4.223600 0.000000
4.262300 0.000000
4.301000 0.000000
4.339700 0.000000
4.378400 0.000000
4.417100 0.000000
4.455900 0.000000
4.494600 0.000000
4.533300 0.000000
4.572000 0.000000
4.610700 0.000000
4.649400 0.000000
4.688100 0.000000
4.726800 0.000000
4.765500 0.000000
4.804200 0.000000
4.842900 0.000000
4.881600 0.000000
4.920300 0.000000
4.959000 0.000000
4.997700 0.000000
5.036400 0.000000
5.075100 0.000000
5.113800 0.000000
5.152500 0.000000
5.191200 0.000000
5.229900 0.000000
5.268600 0.000000
5.307300 0.000000
5.346100 0.000000
5.384800 0.000000
5.423500 0.000000
5.462200 0.000000
5.500900 0.000000
5.539600 0.000000
5.578300 0.000000
5.617000 0.000000
5.655700 0.000000
5.694400 0.000000
5.733100 0.000000
5.771800 0.000000
5.810500 0.000000
5.849200 0.000000
5.887900 0.000000
5.926600 0.000000
5.965300 0.000000
6.004000 0.000000
6.042700 0.000000
6.081400 0.000000
6.120100 0.000000
6.158800 0.000000
6.197600 0.000000
6.236300 0.000000
6.275000 0.000000
6.313700 0.000000
6.352400 0.000000
6.391100 0.000000
6.429800 0.000000
6.468500 0.000000
6.507200 0.000000
6.545900 0.000000
6.584600 0.000000
6.623300 0.000000
6.662000 0.000000
6.700700 0.000000
6.739400 0.000000
6.778100 0.000000
6.816800 0.000000
6.855500 0.000000
6.894200 0.000000
6.932900 0.000000
6.971600 0.000000
7.010300 0.000000
7.049100 0.000000
7.087800 0.000000
7.126500 0.000000
7.165200 0.000000
7.203900 0.000000
7.242600 0.000000
7.281300 0.000000
7.320000 0.000000
7.358700 0.000000
7.397400 0.000000
7.436100 0.000000
7.474800 0.000000
7.513500 0.000000
7.552200 0.000000
7.590900 0.000000
7.629600 0.000000
7.668300 0.000000
7.707000 0.000000
7.745700 0.000000
7.784400 0.000000
7.823100 0.000000
7.861800 0.000000
7.900500 0.000000
7.939300 0.000000
7.978000 0.000000
8.016700 0.000000
8.055400 0.000000
8.094100 0.000000
8.132800 0.000000
8.171500 0.000000
8.210200 0.000000
8.248900 0.000000
8.287600 0.000000
8.326300 0.000000
8.365000 0.000100
8.403700 0.001300
8.442400 0.004000
8.481100 0.008200
8.519800 0.013900
8.558500 0.020900
8.597200 0.028200
8.635900 0.031600
8.674600 0.034200
8.713300 0.036100
8.752000 0.037200
8.790800 0.038900
8.829500 0.041900
8.868200 0.045000
8.906900 0.048200
8.945600 0.051500
8.984300 0.054800
9.023000 0.058300
9.061700 0.061600
9.100400 0.064800
9.139100 0.067800
9.177800 0.070600
9.216500 0.073300
9.255200 0.076300
9.293900 0.079600
9.332600 0.083000
9.371300 0.093800
9.410000 0.161500
9.448700 0.284000
9.487400 0.437400
9.526100 0.560500
9.564800 0.622100
9.603500 0.669000
9.642300 0.707400
9.681000 0.764100
9.719700 0.872200
9.758400 0.966600
9.797100 1.100800
9.835800 1.275800
9.874500 1.491700
9.913200 1.709100
9.951900 1.891400
9.990600 2.050400
10.029300 2.165500
10.068000 2.339300
10.106700 2.691500
10.145400 2.649500
10.184100 2.636100
10.222800 2.666800
10.261500 2.737200
10.300200 2.838000
10.338900 2.838800
10.377600 2.723800
10.416300 2.640800
10.455000 2.631500
10.493700 2.669800
10.532500 2.765000
10.571200 2.968300
10.609900 3.093400
10.648600 2.801300
10.687300 2.861300
10.726000 2.828000
10.764700 2.806600
10.803400 2.509600
10.842100 2.474800
10.880800 2.351700
10.919500 2.367800
10.958200 2.408600
10.996900 2.333800
11.035600 2.335200
11.074300 2.412600
11.113000 2.547300
11.151700 2.706300
11.190400 2.616600
11.229100 2.674600
11.267800 2.852100
11.306500 2.761700
11.345200 2.739300
11.384000 2.500400
11.422700 2.392100
11.461400 2.377300
11.500100 2.488500
11.538800 2.733000
11.577500 2.920300
11.616200 3.249100
11.654900 3.676800
11.693600 3.941800
11.732300 3.750000
11.771000 3.517300
11.809700 3.528100
11.848400 3.330000
11.887100 3.447300
11.925800 3.004700
11.964500 3.210000
12.003200 2.667700
12.041900 3.001000
12.080600 3.239000
12.119300 3.226800
12.158000 3.259600
12.196700 3.438700
12.235400 3.800800
12.274200 3.828000
12.312900 3.920800
12.351600 4.363400
12.390300 4.612300
12.429000 4.692500
12.467700 4.294700
12.506400 3.882700
12.545100 3.264300
12.583800 2.948000
12.622500 2.892400
12.661200 3.075900
12.699900 3.307400
12.738600 3.484800
12.777300 3.676900
12.816000 3.680600
12.854700 3.837600
12.893400 4.334300
12.932100 4.786000
12.970800 5.347200
13.009500 4.355600
13.048200 4.361800
13.086900 4.314900
13.125700 4.167000
13.164400 4.295600
13.203100 4.069800
13.241800 5.519800
13.280500 4.055800
13.319200 3.707800
13.357900 3.871800
13.396600 4.214500
13.435300 4.784100
13.474000 5.603300
13.512700 5.873300
13.551400 6.788500
13.590100 7.026200
13.628800 7.533600
13.667500 8.343900
13.706200 7.776400
13.744900 7.811000
13.783600 8.840100
13.822300 14.839200
13.861000 8.751700
13.899700 11.605300
13.938400 9.794400
13.977200 8.466500
14.015900 9.116500
14.054600 11.392300
14.093300 11.488700
14.132000 14.114300
14.170700 13.724000
14.209400 14.983100
14.248100 10.985300
14.286800 11.137900
14.325500 12.345800
14.364200 12.268400
14.402900 13.650300
14.441600 10.883000
14.480300 10.787400
14.519000 10.592900
14.557700 13.245400
14.596400 13.583400
14.635100 14.487000
14.673800 14.642400
14.712500 10.353200
14.751200 10.636600
14.789900 14.403600
14.828600 13.206200
14.867400 11.884600
14.906100 9.241300
14.944800 8.866100
14.983500 7.849800
15.022200 7.431900
15.060900 7.140600
15.099600 7.078100
15.138300 10.046800
15.177000 11.625800
15.215700 21.421700
15.254400 18.359300
15.293100 14.916300
15.331800 14.178700
15.370500 13.362800
15.409200 11.156300
15.447900 8.980800
15.486600 6.754100
15.525300 5.796600
15.564000 5.431700
15.602700 5.612500
15.641400 6.327100
15.680100 5.507800
15.718900 4.599800
15.757600 4.228400
15.796300 3.813900
15.835000 3.537900
15.873700 3.357000
15.912400 3.309200
15.951100 3.030500
15.989800 2.812500
16.028500 2.715000
16.067200 2.703200
16.105900 2.706100
16.144600 2.711500
16.183300 2.727800
16.222000 2.948800
16.260700 3.136300
16.299400 3.314500
16.338100 3.283100
16.376800 2.978300
16.415500 2.655000
16.454200 2.413500
16.492900 2.271900
16.531600 2.289700
16.570400 2.422900
16.609100 2.637200
16.647800 3.049900
16.686500 3.158300
16.725200 3.107100
16.763900 3.218900
16.802600 2.879200
16.841300 2.651100
16.880000 2.487700
16.918700 2.402400
16.957400 2.348600
16.996100 2.316500
17.034800 2.476500
17.073500 2.518800
17.112200 2.347000
17.150900 2.410500
17.189600 2.500100
17.228300 2.532900
17.267000 2.591300
17.305700 2.674800
17.344400 2.786200
17.383100 3.044000
17.421800 3.152000
17.460600 3.103800
17.499300 2.890200
17.538000 2.378500
17.576700 2.161900
17.615400 1.966000
17.654100 1.909100
17.692800 1.889400
17.731500 1.974900
17.770200 2.259000
17.808900 2.194800
17.847600 2.144500
17.886300 2.252000
17.925000 1.994200
17.963700 1.824200
18.002400 1.766600
18.041100 1.739600
18.079800 1.677200
18.118500 1.627500
18.157200 1.515600
18.195900 1.512200
18.234600 1.474900
18.273300 1.517300
18.312100 1.577900
18.350800 1.659600
18.389500 1.720000
18.428200 1.711700
18.466900 1.686100
18.505600 1.661700
18.544300 1.635700
18.583000 1.684400
18.621700 1.616500
18.660400 1.583400
18.699100 1.532500
18.737800 1.493000
18.776500 1.481500
18.815200 1.473700
18.853900 1.462300
18.892600 1.442500
18.931300 1.387500
18.970000 1.358800
19.008700 1.414700
19.047400 1.461300
19.086100 1.412800
19.124800 1.393200
19.163600 1.369300
19.202300 1.335400
19.241000 1.325700
19.279700 1.324600
19.318400 1.338300
19.357100 1.337200
19.395800 1.330100
19.434500 1.310200
19.473200 1.272400
19.511900 1.235800
19.550600 1.195300
19.589300 1.164400
19.628000 1.162200
19.666700 1.167700
19.705400 1.181900
19.744100 1.217900
19.782800 1.270800
19.821500 1.323900
19.860200 1.369300
19.898900 1.405400
19.937600 1.410200
19.976300 1.408000
20.015000 1.402700
20.053800 1.530800
20.092500 1.641700
20.131200 1.582400
20.169900 1.698000
20.208600 2.079600
20.247300 1.894700
20.286000 1.622500
20.324700 1.527200
20.363400 1.509000
20.402100 1.348400
20.440800 1.294000
20.479500 1.272900
20.518200 1.251900
20.556900 1.218000
20.595600 1.187400
20.634300 1.154400
20.673000 1.121300
20.711700 1.224000
20.750400 1.355400
20.789100 1.510100
20.827800 1.383700
20.866500 1.324700
20.905300 1.379800
20.944000 1.326500
20.982700 1.345500
21.021400 1.373400
21.060100 1.364300
21.098800 1.379700
21.137500 1.373900
21.176200 1.389300
21.214900 1.382900
21.253600 1.370100
21.292300 1.384200
21.331000 1.409600
21.369700 1.442300
21.408400 1.458800
21.447100 1.472700
21.485800 1.485500
21.524500 1.495400
21.563200 1.517900
21.601900 1.533300
21.640600 1.550900
21.679300 1.589100
21.718000 1.644100
21.756800 1.706900
21.795500 1.770900
21.834200 1.976300
21.872900 2.209900
21.911600 2.007700
21.950300 1.979600
21.989000 1.992000
22.027700 2.004000
22.066400 1.929400
22.105100 1.800900
22.143800 1.644300
22.182500 1.602800
22.221200 1.578000
22.259900 1.579600
22.298600 1.628900
22.337300 1.608500
22.376000 1.578800
22.414700 1.554300
22.453400 1.534000
22.492100 1.550800
22.530800 1.662900
22.569500 1.574100
22.608200 1.562700
22.647000 1.552700
22.685700 1.540900
22.724400 1.535700
22.763100 1.515000
22.801800 1.449700
22.840500 1.382100
22.879200 1.353900
22.917900 1.321700
22.956600 1.265300
22.995300 1.236000
23.034000 1.219000
23.072700 1.205100
23.111400 1.188700
23.150100 1.136500
23.188800 1.050800
23.227500 0.986400
23.266200 0.938700
23.304900 0.893400
23.343600 0.850100
23.382300 0.795300
23.421000 0.748800
23.459700 0.723400
23.498500 0.706700
23.537200 0.693000
23.575900 0.680400
23.614600 0.668600
23.653300 0.657700
23.692000 0.651300
23.730700 0.643900
23.769400 0.636900
23.808100 0.630400
23.846800 0.625400
23.885500 0.621700
23.924200 0.621100
23.962900 0.624700
24.001600 0.633100
24.040300 0.653700
24.079000 0.670700
24.117700 0.683900
24.156400 0.710600
24.195100 0.724000
24.233800 0.733400
24.272500 0.740400
24.311200 0.744100
24.349900 0.744200
24.388700 0.748300
24.427400 0.721500
24.466100 0.704100
24.504800 0.694100
24.543500 0.695400
24.582200 0.696500
24.620900 0.697400
24.659600 0.698100
24.698300 0.699300
24.737000 0.700500
24.775700 0.701300
24.814400 0.701900
24.853100 0.702400
24.891800 0.704100
24.930500 0.709000
24.969200 0.798000
25.007900 0.910400
25.046600 0.892300
25.085300 0.920800
25.124000 0.953700
25.162700 0.975700
25.201400 1.006400
25.240200 1.049800
25.278900 1.099900
25.317600 1.138200
25.356300 1.183800
25.395000 1.226300
25.433700 1.287700
25.472400 1.346700
25.511100 1.388900
25.549800 1.396000
25.588500 1.483100
25.627200 1.387200
25.665900 1.264600
25.704600 1.157500
25.743300 0.984000
25.782000 0.915000
25.820700 0.870600
25.859400 0.858700
25.898100 0.920900
25.936800 0.989400
25.975500 1.029500
26.014200 1.090400
26.052900 1.121600
26.091700 1.248600
26.130400 1.117100
26.169100 1.158000
26.207800 1.250200
26.246500 1.317200
26.285200 1.403100
26.323900 1.404900
26.362600 1.613300
26.401300 1.694500
26.440000 1.773500
26.478700 1.915900
26.517400 2.019900
26.556100 2.019300
26.594800 1.959700
26.633500 1.915300
26.672200 1.871600
26.710900 1.865600
26.749600 1.772800
26.788300 1.680900
26.827000 1.612000
26.865700 1.601100
26.904400 1.645800
26.943100 1.665600
26.981900 1.989100
27.020600 1.707400
27.059300 1.476700
27.098000 1.413000
27.136700 1.466700
27.175400 1.587400
27.214100 1.560800
27.252800 1.556300
27.291500 1.529700
27.330200 1.577400
27.368900 1.624200
27.407600 1.666200
27.446300 1.675600
27.485000 1.713200
27.523700 1.864200
27.562400 1.817200
27.601100 1.804600
27.639800 1.805600
27.678500 1.777000
27.717200 1.731800
27.755900 1.691100
27.794600 1.657500
27.833400 1.628300
27.872100 1.617400
27.910800 1.670700
27.949500 1.847700
27.988200 1.982100
28.026900 2.088700
28.065600 2.023100
28.104300 1.851600
28.143000 1.863800
28.181700 1.823000
28.220400 1.761600
28.259100 1.739700
28.297800 1.724900
28.336500 1.719900
28.375200 1.745100
28.413900 1.797600
28.452600 1.994900
28.491300 1.909300
28.530000 1.886600
28.568700 1.910000
28.607400 1.994800
28.646100 1.992300
28.684900 1.955200
28.723600 1.870500
28.762300 1.784000
28.801000 1.670200
28.839700 1.621900
28.878400 1.575200
28.917100 1.528800
28.955800 1.485200
28.994500 1.444400
29.033200 1.408700
29.071900 1.374800
29.110600 1.423100
29.149300 1.553500
29.188000 1.628100
29.226700 1.487000
29.265400 1.508300
29.304100 1.505300
29.342800 1.446700
29.381500 1.431500
29.420200 1.429700
29.458900 1.452300
29.497600 1.490500
29.536300 1.516600
29.575100 1.537900
29.613800 1.599500
29.652500 1.734000
29.691200 1.693500
29.729900 1.583700
29.768600 1.589800
29.807300 1.602400
29.846000 1.596200
29.884700 1.607100
29.923400 1.612100
29.962100 1.620500
30.000800 1.671400
30.039500 1.667100
30.078200 1.825800
30.116900 1.637800
30.155600 1.564500
30.194300 1.517500
30.233000 1.478000
30.271700 1.440400
30.310400 1.429000
30.349100 1.420400
30.387800 1.419600
30.426600 1.478900
30.465300 1.519200
30.504000 1.566700
30.542700 1.609500
30.581400 1.629600
30.620100 1.635500
30.658800 1.652000
30.697500 1.680600
30.736200 1.735200
30.774900 1.887300
30.813600 1.898800
30.852300 1.849300
30.891000 2.060200
30.929700 2.229400
30.968400 2.167300
31.007100 2.101300
31.045800 2.055400
31.084500 2.125300
31.123200 2.208400
31.161900 2.262800
31.200600 2.349200
31.239300 2.326200
31.278100 2.290800
31.316800 2.257100
31.355500 2.247300
31.394200 2.303400
31.432900 2.319100
31.471600 2.356200
31.510300 2.413500
31.549000 2.428200
31.587700 2.442300
31.626400 2.495000
31.665100 2.307500
31.703800 2.173700
31.742500 2.227700
31.781200 2.288000
31.819900 2.283700
31.858600 2.412000
31.897300 2.477700
31.936000 2.450400
31.974700 2.410300
32.013400 2.372100
32.052100 2.360500
32.090800 2.376000
32.129500 2.349500
32.168300 2.327100
32.207000 2.320500
32.245700 2.332200
32.284400 2.353600
32.323100 2.343100
32.361800 2.319500
32.400500 2.325500
32.439200 2.311000
32.477900 2.257400
32.516600 2.221200
32.555300 2.169500
32.594000 2.079100
32.632700 2.010900
32.671400 1.943600
32.710100 1.921400
32.748800 1.914300
32.787500 2.027800
32.826200 2.012400
32.864900 1.754400
32.903600 1.686000
32.942300 1.665600
32.981000 1.647200
33.019800 1.574500
33.058500 1.491500
33.097200 1.432500
33.135900 1.446200
33.174600 1.472800
33.213300 1.643000
33.252000 1.576500
33.290700 1.584300
33.329400 1.721400
33.368100 1.975900
33.406800 2.047900
33.445500 1.999200
33.484200 1.984300
33.522900 1.949300
33.561600 1.962000
33.600300 2.004000
33.639000 2.096800
33.677700 2.207100
33.716400 2.297400
33.755100 2.396100
33.793800 2.501500
33.832500 2.665000
33.871200 2.519900
33.910000 2.369100
33.948700 2.250800
33.987400 2.181800
34.026100 2.110800
34.064800 2.041100
34.103500 1.978900
34.142200 1.925200
34.180900 1.864300
34.219600 1.839700
34.258300 1.871900
34.297000 1.919300
34.335700 1.922900
34.374400 1.746600
34.413100 1.619800
34.451800 1.579900
34.490500 1.579400
34.529200 1.533100
34.567900 1.527500
34.606600 1.477700
34.645300 1.490800
34.684000 1.555700
34.722700 1.629000
34.761500 1.706700
34.800200 1.771700
34.838900 1.830900
34.877600 1.850500
34.916300 1.919900
34.955000 1.995400
34.993700 2.030300
35.032400 2.046700
35.071100 2.059500
35.109800 2.048900
35.148500 2.013000
35.187200 2.016200
35.225900 2.195600
35.264600 2.098400
35.303300 2.011000
35.342000 1.869400
35.380700 1.780200
35.419400 1.760100
35.458100 1.796800
35.496800 1.867300
35.535500 2.002300
35.574200 2.138500
35.613000 2.247600
35.651700 2.365200
35.690400 2.559100
35.729100 3.265300
35.767800 2.579700
35.806500 2.534800
35.845200 2.488700
35.883900 2.416000
35.922600 2.389800
35.961300 2.454600
36.000000 2.627800
36.038700 2.704300
36.077400 2.703900
36.116100 2.683000
36.154800 2.588500
36.193500 2.560900
36.232200 2.433500
36.270900 2.345400
36.309600 2.244300
36.348300 2.186800
36.387000 2.137300
36.425700 2.096900
36.464400 2.050000
36.503200 2.162000
36.541900 2.355100
36.580600 2.219000
36.619300 2.074500
36.658000 2.046800
36.696700 2.025700
36.735400 2.011200
36.774100 1.995500
36.812800 1.979200
36.851500 1.919000
36.890200 1.896900
36.928900 1.901300
36.967600 1.911500
37.006300 1.929100
37.045000 1.974000
37.083700 2.032700
37.122400 2.132000
37.161100 2.168100
37.199800 2.188400
37.238500 2.184200
37.277200 2.127200
37.315900 2.093400
37.354700 2.014600
37.393400 1.967100
37.432100 1.920500
37.470800 1.895900
37.509500 1.833400
37.548200 1.842800
37.586900 1.932000
37.625600 2.039700
37.664300 2.097100
37.703000 2.153400
37.741700 2.202400
37.780400 2.272200
37.819100 2.346900
37.857800 2.284200
37.896500 2.263600
37.935200 2.236500
37.973900 2.288700
38.012600 2.273200
38.051300 2.292300
38.090000 2.319400
38.128700 2.366900
38.167400 2.441900
38.206200 2.553900
38.244900 2.775500
38.283600 2.913100
38.322300 2.746600
38.361000 2.591900
38.399700 2.360800
38.438400 2.226900
38.477100 2.129900
38.515800 2.010100
38.554500 1.990700
38.593200 1.888400
38.631900 1.886100
38.670600 1.936700
38.709300 1.967300
38.748000 1.974500
38.786700 2.026100
38.825400 2.090600
38.864100 2.186700
38.902800 2.538900
38.941500 2.788500
38.980200 2.579100
39.018900 2.523200
39.057600 2.451100
39.096400 2.220000
39.135100 2.174700
39.173800 2.237000
39.212500 2.190900
39.251200 2.204700
39.289900 2.273200
39.328600 2.542900
39.367300 2.521200
39.406000 2.654900
39.444700 2.705900
39.483400 2.666300
39.522100 2.724100
39.560800 2.632100
39.599500 2.727000
39.638200 2.730900
39.676900 2.478100
39.715600 2.328400
39.754300 2.171600
39.793000 2.123600
39.831700 2.083900
39.870400 1.986300
39.909100 1.808600
39.947900 1.678500
39.986600 1.562400
40.025300 1.463200
40.064000 1.378200
40.102700 1.304400
40.141400 1.244600
40.180100 1.202700
40.218800 1.239200
40.257500 1.187100
40.296200 1.042700
40.334900 0.935400
40.373600 0.849500
40.412300 0.764800
40.451000 0.682300
40.489700 0.607700
40.528400 0.514000
40.567100 0.432700
40.605800 0.368900
40.644500 0.331300
40.683200 0.304200
40.721900 0.285100
40.760600 0.327500
40.799400 0.256200
40.838100 0.214500
40.876800 0.219000
40.915500 0.223200
40.954200 0.229600
40.992900 0.309300
41.031600 0.305000
41.070300 0.110300
41.109000 0.102400
41.147700 0.094700
41.186400 0.087500
41.225100 0.066700
41.263800 0.050000
41.302500 0.039800
41.341200 0.034200
41.379900 0.029200
41.418600 0.024400
41.457300 0.019900
41.496000 0.015700
41.534700 0.011800
41.573400 0.008200
41.612100 0.002900
41.650800 0.000000
41.689600 0.000000
41.728300 0.000000
41.767000 0.000000
41.805700 0.000000
41.844400 0.000000
41.883100 0.000000
41.921800 0.000000
41.960500 0.000000
41.999200 0.000000
42.037900 0.000000
42.076600 0.000000
42.115300 0.000000
42.154000 0.000000
42.192700 0.000000
42.231400 0.000000
42.270100 0.000000
42.308800 0.000000
42.347500 0.000000
42.386200 0.000000
42.424900 0.000000
42.463600 0.000000
42.502300 0.000000
42.541100 0.000000
42.579800 0.000000
42.618500 0.000000
42.657200 0.000000
42.695900 0.000000
42.734600 0.000000
42.773300 0.000000
42.812000 0.000000
42.850700 0.000000
42.889400 0.000000
42.928100 0.000000
42.966800 0.000000
43.005500 0.000000
43.044200 0.000000
43.082900 0.000000
43.121600 0.000000
43.160300 0.000000
43.199000 0.000000
43.237700 0.000000
43.276400 0.000000
43.315100 0.000000
43.353800 0.000000
43.392500 0.000000
43.431300 0.000000
43.470000 0.000000
43.508700 0.000000
43.547400 0.000000
43.586100 0.000000
43.624800 0.000000
43.663500 0.000000
43.702200 0.000000
43.740900 0.000000
43.779600 0.000000
43.818300 0.000000
43.857000 0.000000
43.895700 0.000000
43.934400 0.000000
43.973100 0.000000
44.011800 0.000000
44.050500 0.000000
44.089200 0.000000
44.127900 0.000000
44.166600 0.000000
44.205300 0.000000
44.244000 0.000000
44.282800 0.000000
44.321500 0.000000
44.360200 0.000000
44.398900 0.000000
44.437600 0.000000
44.476300 0.000000
44.515000 0.000000
44.553700 0.000000
44.592400 0.000000
44.631100 0.000000
44.669800 0.000000
44.708500 0.000000
44.747200 0.000000
44.785900 0.000000
44.824600 0.000000
44.863300 0.000000
44.902000 0.000000
44.940700 0.000000
44.979400 0.000000
45.018100 0.000000
45.056800 0.000000
45.095500 0.000000
45.134300 0.000000
45.173000 0.000000
e
