set title 'mp-146 - Density of States'
set xlabel 'Energy (eV)'
set ylabel 'DOS (states/eV)'
set grid
set xrange [-10:10]
set yrange [0:5.327]
set xzeroaxis lt -1
set terminal png size 800,600
set output 'mp-146_dos_gnuplot.png'
plot '-' using 1:2 with lines title 'DOS'
-35.667000 0.000000
-35.626600 0.000000
-35.586200 0.000000
-35.545800 0.000000
-35.505400 0.000000
-35.465000 0.000000
-35.424600 0.000000
-35.384200 0.000000
-35.343800 0.000000
-35.303400 0.000000
-35.263000 0.000000
-35.222600 0.000000
-35.182200 0.000000
-35.141800 0.000000
-35.101400 0.000000
-35.061000 0.000000
-35.020600 0.000000
-34.980200 0.000000
-34.939800 0.000000
-34.899400 0.000000
-34.859000 0.000000
-34.818700 0.000000
-34.778300 0.000000
-34.737900 0.000000
-34.697500 0.000000
-34.657100 0.000000
-34.616700 0.000000
-34.576300 0.000000
-34.535900 0.000000
-34.495500 0.000000
-34.455100 0.000000
-34.414700 0.000000
-34.374300 0.000000
-34.333900 0.000000
-34.293500 0.000000
-34.253100 0.000000
-34.212700 0.000000
-34.172300 0.000000
-34.131900 0.000000
-34.091500 0.000000
-34.051100 0.000000
-34.010700 0.000000
-33.970300 0.000000
-33.929900 0.000000
-33.889500 0.000000
-33.849100 0.000000
-33.808700 0.000000
-33.768300 0.000000
-33.727900 0.000000
-33.687500 0.000000
-33.647100 0.000000
-33.606700 0.000000
-33.566300 0.000000
-33.525900 0.000000
-33.485500 0.000000
-33.445100 0.000000
-33.404700 0.000000
-33.364300 0.000000
-33.323900 0.000000
-33.283500 0.000000
-33.243100 0.000000
-33.202700 0.000000
-33.162300 0.000000
-33.121900 0.000000
-33.081500 0.000000
-33.041100 0.000000
-33.000700 0.000000
-32.960300 0.000000
-32.919900 0.000000
-32.879500 0.000000
-32.839100 0.000000
-32.798700 0.000000
-32.758300 0.000000
-32.717900 0.000000
-32.677500 0.000000
-32.637100 0.000000
-32.596700 0.000000
-32.556300 0.000000
-32.515900 0.000000
-32.475500 0.000000
-32.435100 0.000000
-32.394700 0.000000
-32.354300 0.000000
-32.313900 0.000000
-32.273500 0.000000
-32.233100 0.000000
-32.192700 0.000000
-32.152300 0.000000
-32.111900 0.000000
-32.071500 0.000000
-32.031100 0.000000
-31.990700 0.606900
-31.950300 2.414000
-31.909900 3.777600
-31.869500 5.532600
-31.829100 10.710900
-31.788700 7.804500
-31.748300 5.514800
-31.707900 3.494200
-31.667500 4.130300
-31.627100 4.349800
-31.586700 4.623300
-31.546300 5.218700
-31.505900 6.001000
-31.465500 6.641900
-31.425100 7.521400
-31.384700 8.661100
-31.344300 7.182300
-31.303900 6.779500
-31.263500 6.966000
-31.223100 8.416000
-31.182700 12.870600
-31.142300 10.971800
-31.101900 10.505100
-31.061500 0.000000
-31.021100 0.000000
-30.980700 0.000000
-30.940300 0.000000
-30.899900 0.000000
-30.859500 0.000000
-30.819100 0.000000
-30.778700 0.000000
-30.738300 0.000000
-30.697900 0.000000
-30.657500 0.000000
-30.617100 0.000000
-30.576700 0.000000
-30.536300 0.000000
-30.495900 0.000000
-30.455500 0.000000
-30.415100 0.000000
-30.374700 0.000000
-30.334300 0.000000
-30.293900 0.000000
-30.253500 0.000000
-30.213100 0.000000
-30.172700 0.000000
-30.132300 0.000000
-30.091900 0.000000
-30.051500 0.000000
-30.011100 0.000000
-29.970700 0.000000
-29.930300 0.000000
-29.889900 0.000000
-29.849500 0.000000
-29.809100 0.000000
-29.768800 0.000000
-29.728400 0.000000
-29.688000 0.000000
-29.647600 0.000000
-29.607200 0.000000
-29.566800 0.000000
-29.526400 0.000000
-29.486000 0.000000
-29.445600 0.000000
-29.405200 0.000000
-29.364800 0.000000
-29.324400 0.000000
-29.284000 0.000000
-29.243600 0.000000
-29.203200 0.000000
-29.162800 0.000000
-29.122400 0.000000
-29.082000 0.000000
-29.041600 0.000000
-29.001200 0.000000
-28.960800 0.000000
-28.920400 0.000000
-28.880000 0.000000
-28.839600 0.000000
-28.799200 0.000000
-28.758800 0.000000
-28.718400 0.000000
-28.678000 0.000000
-28.637600 0.000000
-28.597200 0.000000
-28.556800 0.000000
-28.516400 0.000000
-28.476000 0.000000
-28.435600 0.000000
-28.395200 0.000000
-28.354800 0.000000
-28.314400 0.000000
-28.274000 0.000000
-28.233600 0.000000
-28.193200 0.000000
-28.152800 0.000000
-28.112400 0.000000
-28.072000 0.000000
-28.031600 0.000000
-27.991200 0.000000
-27.950800 0.000000
-27.910400 0.000000
-27.870000 0.000000
-27.829600 0.000000
-27.789200 0.000000
-27.748800 0.000000
-27.708400 0.000000
-27.668000 0.000000
-27.627600 0.000000
-27.587200 0.000000
-27.546800 0.000000
-27.506400 0.000000
-27.466000 0.000000
-27.425600 0.000000
-27.385200 0.000000
-27.344800 0.000000
-27.304400 0.000000
-27.264000 0.000000
-27.223600 0.000000
-27.183200 0.000000
-27.142800 0.000000
-27.102400 0.000000
-27.062000 0.000000
-27.021600 0.000000
-26.981200 0.000000
-26.940800 0.000000
-26.900400 0.000000
-26.860000 0.000000
-26.819600 0.000000
-26.779200 0.000000
-26.738800 0.000000
-26.698400 0.000000
-26.658000 0.000000
-26.617600 0.000000
-26.577200 0.000000
-26.536800 0.000000
-26.496400 0.000000
-26.456000 0.000000
-26.415600 0.000000
-26.375200 0.000000
-26.334800 0.000000
-26.294400 0.000000
-26.254000 0.000000
-26.213600 0.000000
-26.173200 0.000000
-26.132800 0.000000
-26.092400 0.000000
-26.052000 0.000000
-26.011600 0.000000
-25.971200 0.000000
-25.930800 0.000000
-25.890400 0.000000
-25.850000 0.000000
-25.809600 0.000000
-25.769200 0.000000
-25.728800 0.000000
-25.688400 0.000000
-25.648000 0.000000
-25.607600 0.000000
-25.567200 0.000000
-25.526800 0.000000
-25.486400 0.000000
-25.446000 0.000000
-25.405600 0.000000
-25.365200 0.000000
-25.324800 0.000000
-25.284400 0.000000
-25.244000 0.000000
-25.203600 0.000000
-25.163200 0.000000
-25.122800 0.000000
-25.082400 0.000000
-25.042000 0.000000
-25.001600 0.000000
-24.961200 0.000000
-24.920800 0.000000
-24.880400 0.000000
-24.840000 0.000000
-24.799600 0.000000
-24.759200 0.000000
-24.718800 0.000000
-24.678500 0.000000
-24.638100 0.000000
-24.597700 0.000000
-24.557300 0.000000
-24.516900 0.000000
-24.476500 0.000000
-24.436100 0.000000
-24.395700 0.000000
-24.355300 0.000000
-24.314900 0.000000
-24.274500 0.000000
-24.234100 0.000000
-24.193700 0.000000
-24.153300 0.000000
-24.112900 0.000000
-24.072500 0.000000
-24.032100 0.000000
-23.991700 0.000000
-23.951300 0.000000
-23.910900 0.000000
-23.870500 0.000000
-23.830100 0.000000
-23.789700 0.000000
-23.749300 0.000000
-23.708900 0.000000
-23.668500 0.000000
-23.628100 0.000000
-23.587700 0.000000
-23.547300 0.000000
-23.506900 0.000000
-23.466500 0.000000
-23.426100 0.000000
-23.385700 0.000000
-23.345300 0.000000
-23.304900 0.000000
-23.264500 0.000000
-23.224100 0.000000
-23.183700 0.000000
-23.143300 0.000000
-23.102900 0.000000
-23.062500 0.000000
-23.022100 0.000000
-22.981700 0.000000
-22.941300 0.000000
-22.900900 0.000000
-22.860500 0.000000
-22.820100 0.000000
-22.779700 0.000000
-22.739300 0.000000
-22.698900 0.000000
-22.658500 0.000000
-22.618100 0.000000
-22.577700 0.000000
-22.537300 0.000000
-22.496900 0.000000
-22.456500 0.000000
-22.416100 0.000000
-22.375700 0.000000
-22.335300 0.000000
-22.294900 0.000000
-22.254500 0.000000
-22.214100 0.000000
-22.173700 0.000000
-22.133300 0.000000
-22.092900 0.000000
-22.052500 0.000000
-22.012100 0.000000
-21.971700 0.000000
-21.931300 0.000000
-21.890900 0.000000
-21.850500 0.000000
-21.810100 0.000000
-21.769700 0.000000
-21.729300 0.000000
-21.688900 0.000000
-21.648500 0.000000
-21.608100 0.000000
-21.567700 0.000000
-21.527300 0.000000
-21.486900 0.000000
-21.446500 0.000000
-21.406100 0.000000
-21.365700 0.000000
-21.325300 0.000000
-21.284900 0.000000
-21.244500 0.000000
-21.204100 0.000000
-21.163700 0.000000
-21.123300 0.000000
-21.082900 0.000000
-21.042500 0.000000
-21.002100 0.000000
-20.961700 0.000000
-20.921300 0.000000
-20.880900 0.000000
-20.840500 0.000000
-20.800100 0.000000
-20.759700 0.000000
-20.719300 0.000000
-20.678900 0.000000
-20.638500 0.000000
-20.598100 0.000000
-20.557700 0.000000
-20.517300 0.000000
-20.476900 0.000000
-20.436500 0.000000
-20.396100 0.000000
-20.355700 0.000000
-20.315300 0.000000
-20.274900 0.000000
-20.234500 0.000000
-20.194100 0.000000
-20.153700 0.000000
-20.113300 0.000000
-20.072900 0.000000
-20.032500 0.000000
-19.992100 0.000000
-19.951700 0.000000
-19.911300 0.000000
-19.870900 0.000000
-19.830500 0.000000
-19.790100 0.000000
-19.749700 0.000000
-19.709300 0.000000
-19.668900 0.000000
-19.628600 0.000000
-19.588200 0.000000
-19.547800 0.000000
-19.507400 0.000000
-19.467000 0.000000
-19.426600 0.000000
-19.386200 0.000000
-19.345800 0.000000
-19.305400 0.000000
-19.265000 0.000000
-19.224600 0.000000
-19.184200 0.000000
-19.143800 0.000000
-19.103400 0.000000
-19.063000 0.000000
-19.022600 0.000000
-18.982200 0.000000
-18.941800 0.000000
-18.901400 0.000000
-18.861000 0.000000
-18.820600 0.000000
-18.780200 0.000000
-18.739800 0.000000
-18.699400 0.000000
-18.659000 0.000000
-18.618600 0.000000
-18.578200 0.000000
-18.537800 0.000000
-18.497400 0.000000
-18.457000 0.000000
-18.416600 0.000000
-18.376200 0.000000
-18.335800 0.000000
-18.295400 0.000000
-18.255000 0.000000
-18.214600 0.000000
-18.174200 0.000000
-18.133800 0.000000
-18.093400 0.000000
-18.053000 0.000000
-18.012600 0.000000
-17.972200 0.000000
-17.931800 0.000000
-17.891400 0.000000
-17.851000 0.000000
-17.810600 0.000000
-17.770200 0.000000
-17.729800 0.000000
-17.689400 0.000000
-17.649000 0.000000
-17.608600 0.000000
-17.568200 0.000000
-17.527800 0.000000
-17.487400 0.000000
-17.447000 0.000000
-17.406600 0.000000
-17.366200 0.000000
-17.325800 0.000000
-17.285400 0.000000
-17.245000 0.000000
-17.204600 0.000000
-17.164200 0.000000
-17.123800 0.000000
-17.083400 0.000000
-17.043000 0.000000
-17.002600 0.000000
-16.962200 0.000000
-16.921800 0.000000
-16.881400 0.000000
-16.841000 0.000000
-16.800600 0.000000
-16.760200 0.000000
-16.719800 0.000000
-16.679400 0.000000
-16.639000 0.000000
-16.598600 0.000000
-16.558200 0.000000
-16.517800 0.000000
-16.477400 0.000000
-16.437000 0.000000
-16.396600 0.000000
-16.356200 0.000000
-16.315800 0.000000
-16.275400 0.000000
-16.235000 0.000000
-16.194600 0.000000
-16.154200 0.000000
-16.113800 0.000000
-16.073400 0.000000
-16.033000 0.000000
-15.992600 0.000000
-15.952200 0.000000
-15.911800 0.000000
-15.871400 0.000000
-15.831000 0.000000
-15.790600 0.000000
-15.750200 0.000000
-15.709800 0.000000
-15.669400 0.000000
-15.629000 0.000000
-15.588600 0.000000
-15.548200 0.000000
-15.507800 0.000000
-15.467400 0.000000
-15.427000 0.000000
-15.386600 0.000000
-15.346200 0.000000
-15.305800 0.000000
-15.265400 0.000000
-15.225000 0.000000
-15.184600 0.000000
-15.144200 0.000000
-15.103800 0.000000
-15.063400 0.000000
-15.023000 0.000000
-14.982600 0.000000
-14.942200 0.000000
-14.901800 0.000000
-14.861400 0.000000
-14.821000 0.000000
-14.780600 0.000000
-14.740200 0.000000
-14.699800 0.000000
-14.659400 0.000000
-14.619000 0.000000
-14.578600 0.000000
-14.538300 0.000000
-14.497900 0.000000
-14.457500 0.000000
-14.417100 0.000000
-14.376700 0.000000
-14.336300 0.000000
-14.295900 0.000000
-14.255500 0.000000
-14.215100 0.000000
-14.174700 0.000000
-14.134300 0.000000
-14.093900 0.000000
-14.053500 0.000000
-14.013100 0.000000
-13.972700 0.000000
-13.932300 0.000000
-13.891900 0.000000
-13.851500 0.000000
-13.811100 0.000000
-13.770700 0.000000
-13.730300 0.000000
-13.689900 0.000000
-13.649500 0.000000
-13.609100 0.000000
-13.568700 0.000000
-13.528300 0.000000
-13.487900 0.000000
-13.447500 0.000000
-13.407100 0.000000
-13.366700 0.000000
-13.326300 0.000000
-13.285900 0.000000
-13.245500 0.000000
-13.205100 0.000000
-13.164700 0.000000
-13.124300 0.000000
-13.083900 0.000000
-13.043500 0.000000
-13.003100 0.000000
-12.962700 0.000000
-12.922300 0.000000
-12.881900 0.000000
-12.841500 0.000000
-12.801100 0.000000
-12.760700 0.000000
-12.720300 0.000000
-12.679900 0.000000
-12.639500 0.000000
-12.599100 0.000000
-12.558700 0.000000
-12.518300 0.000000
-12.477900 0.000000
-12.437500 0.000000
-12.397100 0.000000
-12.356700 0.000000
-12.316300 0.000000
-12.275900 0.000000
-12.235500 0.000000
-12.195100 0.000000
-12.154700 0.000000
-12.114300 0.000000
-12.073900 0.000000
-12.033500 0.000000
-11.993100 0.000000
-11.952700 0.000000
-11.912300 0.000000
-11.871900 0.000000
-11.831500 0.000000
-11.791100 0.000000
-11.750700 0.000000
-11.710300 0.000000
-11.669900 0.000000
-11.629500 0.000000
-11.589100 0.000000
-11.548700 0.000000
-11.508300 0.000000
-11.467900 0.000000
-11.427500 0.000000
-11.387100 0.000000
-11.346700 0.000000
-11.306300 0.000000
-11.265900 0.000000
-11.225500 0.000000
-11.185100 0.000000
-11.144700 0.000000
-11.104300 0.000000
-11.063900 0.000000
-11.023500 0.000000
-10.983100 0.000000
-10.942700 0.000000
-10.902300 0.000000
-10.861900 0.000000
-10.821500 0.000000
-10.781100 0.000000
-10.740700 0.000000
-10.700300 0.000000
-10.659900 0.000000
-10.619500 0.000000
-10.579100 0.000000
-10.538700 0.000000
-10.498300 0.000000
-10.457900 0.000000
-10.417500 0.000000
-10.377100 0.000000
-10.336700 0.000000
-10.296300 0.000000
-10.255900 0.000000
-10.215500 0.000000
-10.175100 0.000000
-10.134700 0.000000
-10.094300 0.000000
-10.053900 0.000000
-10.013500 0.000000
-9.973100 0.000000
-9.932700 0.000000
-9.892300 0.000000
-9.851900 0.000000
-9.811500 0.000000
-9.771100 0.000000
-9.730700 0.000000
-9.690300 0.000000
-9.649900 0.000000
-9.609500 0.000000
-9.569100 0.000000
-9.528700 0.000000
-9.488400 0.000000
-9.448000 0.000000
-9.407600 0.000000
-9.367200 0.000000
-9.326800 0.000000
-9.286400 0.000000
-9.246000 0.000000
-9.205600 0.000000
-9.165200 0.000000
-9.124800 0.000000
-9.084400 0.000000
-9.044000 0.000000
-9.003600 0.000000
-8.963200 0.000000
-8.922800 0.000000
-8.882400 0.000000
-8.842000 0.000000
-8.801600 0.000000
-8.761200 0.000000
-8.720800 0.000000
-8.680400 0.000000
-8.640000 0.000000
-8.599600 0.000000
-8.559200 0.000000
-8.518800 0.000000
-8.478400 0.000000
-8.438000 0.000000
-8.397600 0.000000
-8.357200 0.000000
-8.316800 0.000000
-8.276400 0.000000
-8.236000 0.000000
-8.195600 0.000000
-8.155200 0.000000
-8.114800 0.000000
-8.074400 0.000000
-8.034000 0.000000
-7.993600 0.000000
-7.953200 0.000000
-7.912800 0.000000
-7.872400 0.000000
-7.832000 0.000000
-7.791600 0.000000
-7.751200 0.000000
-7.710800 0.000000
-7.670400 0.000000
-7.630000 0.000000
-7.589600 0.000000
-7.549200 0.000000
-7.508800 0.000000
-7.468400 0.000000
-7.428000 0.000000
-7.387600 0.000000
-7.347200 0.000000
-7.306800 0.000000
-7.266400 0.000000
-7.226000 0.000000
-7.185600 0.000000
-7.145200 0.000000
-7.104800 0.000000
-7.064400 0.000000
-7.024000 0.000000
-6.983600 0.000000
-6.943200 0.000000
-6.902800 0.000000
-6.862400 0.000000
-6.822000 0.000000
-6.781600 0.000000
-6.741200 0.000000
-6.700800 0.000000
-6.660400 0.000000
-6.620000 0.000000
-6.579600 0.000000
-6.539200 0.000000
-6.498800 0.000000
-6.458400 0.000000
-6.418000 0.000000
-6.377600 0.000000
-6.337200 0.000000
-6.296800 0.000000
-6.256400 0.000000
-6.216000 0.000000
-6.175600 0.000000
-6.135200 0.000000
-6.094800 0.000000
-6.054400 0.000000
-6.014000 0.000000
-5.973600 0.000000
-5.933200 0.000000
-5.892800 0.000000
-5.852400 0.000000
-5.812000 0.000000
-5.771600 0.000000
-5.731200 0.000000
-5.690800 0.000000
-5.650400 0.000000
-5.610000 0.000000
-5.569600 0.000000
-5.529200 0.000000
-5.488800 0.000000
-5.448400 0.000000
-5.408000 0.000000
-5.367600 0.000000
-5.327200 0.000000
-5.286800 0.000000
-5.246400 0.000000
-5.206000 0.000000
-5.165600 0.000000
-5.125200 0.000000
-5.084800 0.000000
-5.044400 0.000000
-5.004000 0.000000
-4.963600 0.000000
-4.923200 0.000000
-4.882800 0.000000
-4.842400 0.000000
-4.802000 0.000000
-4.761600 0.000000
-4.721200 0.000000
-4.680800 0.000000
-4.640400 0.000000
-4.600000 0.000000
-4.559600 0.000000
-4.519200 0.000000
-4.478800 0.000000
-4.438400 0.000000
-4.398100 0.000000
-4.357700 0.000000
-4.317300 0.000000
-4.276900 0.000000
-4.236500 0.000000
-4.196100 0.000000
-4.155700 0.000000
-4.115300 0.000000
-4.074900 0.000000
-4.034500 0.000000
-3.994100 0.000000
-3.953700 0.000000
-3.913300 0.000000
-3.872900 0.000000
-3.832500 0.000000
-3.792100 0.000000
-3.751700 0.000000
-3.711300 0.000000
-3.670900 0.000000
-3.630500 0.000000
-3.590100 0.000000
-3.549700 0.000000
-3.509300 0.000000
-3.468900 0.000000
-3.428500 0.000000
-3.388100 0.000000
-3.347700 0.000000
-3.307300 0.000000
-3.266900 0.000000
-3.226500 0.000000
-3.186100 0.000000
-3.145700 0.000000
-3.105300 0.000000
-3.064900 0.000000
-3.024500 0.000000
-2.984100 0.000000
-2.943700 0.000000
-2.903300 0.000000
-2.862900 0.000000
-2.822500 0.000000
-2.782100 0.000000
-2.741700 0.000000
-2.701300 0.000000
-2.660900 0.000000
-2.620500 0.000000
-2.580100 0.000000
-2.539700 0.000000
-2.499300 0.000000
-2.458900 0.000000
-2.418500 0.000000
-2.378100 0.000000
-2.337700 0.000000
-2.297300 0.000000
-2.256900 0.000000
-2.216500 0.000000
-2.176100 0.000000
-2.135700 0.000000
-2.095300 0.000000
-2.054900 0.000000
-2.014500 0.000000
-1.974100 0.000000
-1.933700 0.000000
-1.893300 0.000000
-1.852900 0.000000
-1.812500 0.000000
-1.772100 0.000000
-1.731700 0.000000
-1.691300 0.000000
-1.650900 0.000000
-1.610500 0.000000
-1.570100 0.000000
-1.529700 0.000000
-1.489300 0.000000
-1.448900 0.000000
-1.408500 0.000000
-1.368100 0.000000
-1.327700 0.000000
-1.287300 0.000000
-1.246900 0.000000
-1.206500 0.000000
-1.166100 0.000000
-1.125700 0.000000
-1.085300 0.000000
-1.044900 0.000000
-1.004500 0.000000
-0.964100 0.000000
-0.923700 0.000000
-0.883300 0.000000
-0.842900 0.000000
-0.802500 0.000000
-0.762100 0.000000
-0.721700 0.000000
-0.681300 0.000000
-0.640900 0.008100
-0.600500 0.015200
-0.560100 0.022900
-0.519700 0.024300
-0.479300 0.028400
-0.438900 0.032900
-0.398500 0.036400
-0.358100 0.039200
-0.317700 0.040600
-0.277300 0.043200
-0.236900 0.046600
-0.196500 0.050300
-0.156100 0.052100
-0.115700 0.053700
-0.075300 0.055900
-0.034900 0.058100
0.005500 0.060500
0.045900 0.063000
0.086300 0.065800
0.126700 0.068100
0.167100 0.069800
0.207500 0.071800
0.247900 0.073600
0.288300 0.075700
0.328700 0.078300
0.369100 0.080800
0.409500 0.083000
0.449900 0.085200
0.490300 0.087300
0.530700 0.089400
0.571100 0.091500
0.611500 0.093800
0.651800 0.096000
0.692200 0.098200
0.732600 0.100400
0.773000 0.102900
0.813400 0.105500
0.853800 0.108100
0.894200 0.110600
0.934600 0.112800
0.975000 0.115100
1.015400 0.117600
1.055800 0.120400
1.096200 0.123200
1.136600 0.125800
1.177000 0.128400
1.217400 0.131100
1.257800 0.134100
1.298200 0.137500
1.338600 0.140700
1.379000 0.143700
1.419400 0.146800
1.459800 0.150000
1.500200 0.153300
1.540600 0.156900
1.581000 0.160700
1.621400 0.164500
1.661800 0.168400
1.702200 0.172300
1.742600 0.176400
1.783000 0.181300
1.823400 0.186200
1.863800 0.190900
1.904200 0.195900
1.944600 0.201100
1.985000 0.206700
2.025400 0.212900
2.065800 0.219600
2.106200 0.226300
2.146600 0.233200
2.187000 0.240600
2.227400 0.249800
2.267800 0.258700
2.308200 0.268200
2.348600 0.278800
2.389000 0.291400
2.429400 0.305900
2.469800 0.321900
2.510200 0.341400
2.550600 0.363300
2.591000 0.389400
2.631400 0.421900
2.671800 0.479400
2.712200 0.753400
2.752600 0.797900
2.793000 0.795900
2.833400 0.796000
2.873800 0.818000
2.914200 0.864900
2.954600 0.891700
2.995000 0.923300
3.035400 0.961400
3.075800 0.974300
3.116200 0.997800
3.156600 1.023700
3.197000 1.047800
3.237400 1.077900
3.277800 1.106400
3.318200 1.134300
3.358600 1.169200
3.399000 1.206100
3.439400 1.250900
3.479800 1.305700
3.520200 1.381900
3.560600 1.495400
3.601000 1.696900
3.641400 1.981800
3.681800 1.862600
3.722200 1.446800
3.762600 1.254600
3.803000 1.152500
3.843400 1.078200
3.883800 1.008600
3.924200 0.963300
3.964600 0.932500
4.005000 0.894500
4.045400 0.872800
4.085800 0.860400
4.126200 0.840100
4.166600 0.844000
4.207000 0.693200
4.247400 0.638300
4.287800 0.593000
4.328200 0.558800
4.368600 0.533700
4.409000 0.503200
4.449400 0.490200
4.489800 0.477800
4.530200 0.476200
4.570600 0.735300
4.611000 1.537400
4.651400 2.033000
4.691800 2.570600
4.732200 2.957500
4.772600 2.782800
4.813000 2.411200
4.853400 2.190400
4.893800 1.969400
4.934200 1.923200
4.974600 1.910500
5.015000 1.892400
5.055400 1.851100
5.095800 1.845200
5.136200 1.883000
5.176600 1.887600
5.217000 1.919400
5.257400 1.853600
5.297800 1.850700
5.338200 1.821200
5.378600 1.778600
5.419000 1.708600
5.459400 1.694400
5.499800 1.736500
5.540200 1.834000
5.580600 1.975300
5.621000 2.198100
5.661400 2.597900
5.701800 2.512600
5.742100 2.331500
5.782500 2.199500
5.822900 2.142600
5.863300 1.921800
5.903700 1.749300
5.944100 1.644200
5.984500 1.565700
6.024900 1.496800
6.065300 1.423800
6.105700 1.390900
6.146100 1.353800
6.186500 1.332600
6.226900 1.207100
6.267300 0.887900
6.307700 0.605900
6.348100 0.576400
6.388500 0.549800
6.428900 0.528600
6.469300 0.510800
6.509700 0.502300
6.550100 0.479800
6.590500 0.477100
6.630900 0.480100
6.671300 0.481600
6.711700 0.484900
6.752100 0.486300
6.792500 0.489600
6.832900 0.496100
6.873300 0.507900
6.913700 0.515500
6.954100 0.533900
6.994500 0.545300
7.034900 0.556300
7.075300 0.574600
7.115700 0.597100
7.156100 0.625400
7.196500 0.661200
7.236900 0.693200
7.277300 0.750600
7.317700 0.794700
7.358100 0.840000
7.398500 0.938200
7.438900 1.128400
7.479300 1.280800
7.519700 1.243600
7.560100 1.308200
7.600500 1.370700
7.640900 1.435600
7.681300 1.479400
7.721700 1.532800
7.762100 1.582600
7.802500 1.649700
7.842900 1.725700
7.883300 1.823100
7.923700 1.966400
7.964100 2.129400
8.004500 2.179000
8.044900 2.236500
8.085300 2.300600
8.125700 2.225800
8.166100 2.191300
8.206500 2.239200
8.246900 2.262500
8.287300 2.478300
8.327700 2.582300
8.368100 2.440200
8.408500 2.401200
8.448900 2.363800
8.489300 2.410800
8.529700 2.523700
8.570100 2.664000
8.610500 2.781200
8.650900 3.119300
8.691300 4.667400
8.731700 4.843100
8.772100 2.840000
8.812500 2.436700
8.852900 2.126300
8.893300 1.910700
8.933700 1.777100
8.974100 1.653500
9.014500 1.549700
9.054900 1.459400
9.095300 1.393400
9.135700 1.345100
9.176100 1.318300
9.216500 1.267700
9.256900 1.228900
9.297300 1.204000
9.337700 1.189700
9.378100 1.173900
9.418500 1.155500
9.458900 1.123900
9.499300 1.183200
9.539700 1.149900
9.580100 1.173800
9.620500 0.959400
9.660900 0.829400
9.701300 0.742400
9.741700 0.684200
9.782100 0.610600
9.822500 0.554100
9.862900 0.475500
9.903300 0.427900
9.943700 0.411100
9.984100 0.428700
10.024500 0.464800
10.064900 0.449400
10.105300 0.429000
10.145700 0.411300
10.186100 0.402500
10.226500 0.394200
10.266900 0.389200
10.307300 0.384800
10.347700 0.380900
10.388100 0.376400
10.428500 0.373100
10.468900 0.370300
10.509300 0.368000
10.549700 0.365900
10.590100 0.363800
10.630500 0.361300
10.670900 0.358800
10.711300 0.356100
10.751700 0.353300
10.792000 0.350700
10.832400 0.347900
10.872800 0.344800
10.913200 0.342700
10.953600 0.340800
10.994000 0.339000
11.034400 0.337300
11.074800 0.335600
11.115200 0.333700
11.155600 0.331600
11.196000 0.329300
11.236400 0.327000
11.276800 0.324600
11.317200 0.322500
11.357600 0.320200
11.398000 0.318200
11.438400 0.316200
11.478800 0.314000
11.519200 0.311400
11.559600 0.309300
11.600000 0.307200
11.640400 0.304700
11.680800 0.302500
11.721200 0.300300
11.761600 0.298300
11.802000 0.296200
11.842400 0.294000
11.882800 0.291900
11.923200 0.289800
11.963600 0.287600
12.004000 0.285300
12.044400 0.282900
12.084800 0.280300
12.125200 0.277800
12.165600 0.275400
12.206000 0.272700
12.246400 0.270000
12.286800 0.267700
12.327200 0.265500
12.367600 0.263300
12.408000 0.261100
12.448400 0.258600
12.488800 0.255900
12.529200 0.253300
12.569600 0.251000
12.610000 0.248300
12.650400 0.245600
12.690800 0.243200
12.731200 0.240700
12.771600 0.238300
12.812000 0.235900
12.852400 0.233300
12.892800 0.230500
12.933200 0.227600
12.973600 0.224500
13.014000 0.221800
13.054400 0.218800
13.094800 0.216200
13.135200 0.213700
13.175600 0.211000
13.216000 0.208200
13.256400 0.205900
13.296800 0.203300
13.337200 0.200300
13.377600 0.197000
13.418000 0.193600
13.458400 0.190500
13.498800 0.187400
13.539200 0.185000
13.579600 0.182900
13.620000 0.181000
13.660400 0.177600
13.700800 0.174700
13.741200 0.171600
13.781600 0.168300
13.822000 0.164800
13.862400 0.161200
13.902800 0.158300
13.943200 0.155500
13.983600 0.151900
14.024000 0.148900
14.064400 0.145100
14.104800 0.142500
14.145200 0.139100
14.185600 0.135800
14.226000 0.134900
14.266400 0.130600
14.306800 0.127100
14.347200 0.123900
14.387600 0.122900
14.428000 0.117000
14.468400 0.108600
14.508800 0.108400
14.549200 0.104000
14.589600 0.098100
14.630000 0.088000
14.670400 0.083600
14.710800 0.079500
14.751200 0.075500
14.791600 0.072300
14.832000 0.068600
14.872400 0.064900
14.912800 0.062500
14.953200 0.060200
14.993600 0.058000
15.034000 0.055900
15.074400 0.054200
15.114800 0.053300
15.155200 0.051600
15.195600 0.050500
15.236000 0.048600
15.276400 0.047200
15.316800 0.046700
15.357200 0.045500
15.397600 0.045500
15.438000 0.045700
15.478400 0.055000
15.518800 0.059400
15.559200 0.064100
15.599600 0.069100
15.640000 0.074300
15.680400 0.078500
15.720800 0.083900
15.761200 0.107800
15.801600 0.115600
15.841900 0.127000
15.882300 0.142000
15.922700 0.171400
15.963100 0.223700
16.003500 0.338900
16.043900 0.683900
16.084300 1.108300
16.124700 1.265300
16.165100 1.033900
16.205500 0.942600
16.245900 0.865600
16.286300 0.793300
16.326700 0.745300
16.367100 0.694600
16.407500 0.636600
16.447900 0.598100
16.488300 0.573400
16.528700 0.552300
16.569100 0.533200
16.609500 0.515100
16.649900 0.500400
16.690300 0.488100
16.730700 0.479300
16.771100 0.466200
16.811500 0.455200
16.851900 0.447100
16.892300 0.439000
16.932700 0.432100
16.973100 0.425700
17.013500 0.418800
17.053900 0.415000
17.094300 0.448500
17.134700 0.438900
17.175100 0.497300
17.215500 0.512500
17.255900 0.524100
17.296300 0.531000
17.336700 0.529900
17.377100 0.525500
17.417500 0.525300
17.457900 0.517200
17.498300 0.516100
17.538700 0.515200
17.579100 0.513800
17.619500 0.509800
17.659900 0.506100
17.700300 0.502500
17.740700 0.500400
17.781100 0.497900
17.821500 0.496400
17.861900 0.495000
17.902300 0.493000
17.942700 0.489800
17.983100 0.488500
18.023500 0.487600
18.063900 0.485800
18.104300 0.483900
18.144700 0.481800
18.185100 0.481000
18.225500 0.481000
18.265900 0.481000
18.306300 0.481800
18.346700 0.480300
18.387100 0.479000
18.427500 0.477700
18.467900 0.476300
18.508300 0.477000
18.548700 0.476600
18.589100 0.475000
18.629500 0.474100
18.669900 0.473200
18.710300 0.472100
18.750700 0.470700
18.791100 0.470300
18.831500 0.470100
18.871900 0.469800
18.912300 0.469100
18.952700 0.468900
18.993100 0.469100
19.033500 0.469300
19.073900 0.469700
19.114300 0.470000
19.154700 0.469500
19.195100 0.468600
19.235500 0.468600
19.275900 0.467300
19.316300 0.466300
19.356700 0.465800
19.397100 0.465700
19.437500 0.465900
19.477900 0.465900
19.518300 0.465800
19.558700 0.465900
19.599100 0.466100
19.639500 0.465600
19.679900 0.464900
19.720300 0.464300
19.760700 0.463800
19.801100 0.462800
19.841500 0.462400
19.881900 0.462200
19.922300 0.462800
19.962700 0.463000
20.003100 0.463300
20.043500 0.463500
20.083900 0.463600
20.124300 0.463800
20.164700 0.463900
20.205100 0.463900
20.245500 0.463800
20.285900 0.463200
20.326300 0.463100
20.366700 0.463200
20.407100 0.463200
20.447500 0.463500
20.487900 0.464400
20.528300 0.465500
20.568700 0.466200
20.609100 0.466000
20.649500 0.465500
20.689900 0.465600
20.730300 0.465800
20.770700 0.465900
20.811100 0.466000
20.851500 0.466200
20.891900 0.466600
20.932200 0.467200
20.972600 0.467600
21.013000 0.468000
21.053400 0.468900
21.093800 0.469800
21.134200 0.470900
21.174600 0.471900
21.215000 0.472900
21.255400 0.474000
21.295800 0.475000
21.336200 0.476600
21.376600 0.480400
21.417000 0.479000
21.457400 0.480000
21.497800 0.481200
21.538200 0.482500
21.578600 0.484300
21.619000 0.486400
21.659400 0.488800
21.699800 0.491200
21.740200 0.493500
21.780600 0.496000
21.821000 0.499300
21.861400 0.503300
21.901800 0.508600
21.942200 0.517400
21.982600 0.524900
22.023000 0.532100
22.063400 0.539900
22.103800 0.562400
22.144200 0.599800
22.184600 0.598800
22.225000 0.590300
22.265400 0.567500
22.305800 0.554600
22.346200 0.542800
22.386600 0.529700
22.427000 0.513500
22.467400 0.498400
22.507800 0.486000
22.548200 0.475200
22.588600 0.464200
22.629000 0.455200
22.669400 0.448100
22.709800 0.446900
22.750200 0.432100
22.790600 0.424600
22.831000 0.432500
22.871400 0.471400
22.911800 0.515300
22.952200 0.533200
22.992600 0.549700
23.033000 0.569900
23.073400 0.588200
23.113800 0.624600
23.154200 0.692700
23.194600 0.722600
23.235000 0.734000
23.275400 0.735800
23.315800 0.729600
23.356200 0.722300
23.396600 0.679500
23.437000 0.654700
23.477400 0.642300
23.517800 0.635800
23.558200 0.628900
23.598600 0.618000
23.639000 0.607500
23.679400 0.598400
23.719800 0.594700
23.760200 0.590000
23.800600 0.587200
23.841000 0.584600
23.881400 0.582700
23.921800 0.582600
23.962200 0.592100
24.002600 0.583100
24.043000 0.583900
24.083400 0.587500
24.123800 0.586200
24.164200 0.583200
24.204600 0.584400
24.245000 0.587600
24.285400 0.587700
24.325800 0.584900
24.366200 0.585100
24.406600 0.583900
24.447000 0.585700
24.487400 0.587800
24.527800 0.589300
24.568200 0.591200
24.608600 0.593500
24.649000 0.596300
24.689400 0.600500
24.729800 0.605800
24.770200 0.611400
24.810600 0.616300
24.851000 0.631700
24.891400 0.648400
24.931800 0.661200
24.972200 0.669100
25.012600 0.670800
25.053000 0.666900
25.093400 0.660800
25.133800 0.657400
25.174200 0.653600
25.214600 0.649700
25.255000 0.647700
25.295400 0.642100
25.335800 0.638700
25.376200 0.635800
25.416600 0.632600
25.457000 0.629200
25.497400 0.625900
25.537800 0.622400
25.578200 0.617700
25.618600 0.613700
25.659000 0.609700
25.699400 0.601400
25.739800 0.596000
25.780200 0.591700
25.820600 0.588900
25.861000 0.584700
25.901400 0.576900
25.941800 0.562300
25.982100 0.556000
26.022500 0.550600
26.062900 0.544900
26.103300 0.539100
26.143700 0.534300
26.184100 0.531000
26.224500 0.527100
26.264900 0.520000
26.305300 0.515100
26.345700 0.512300
26.386100 0.508900
26.426500 0.501800
26.466900 0.496600
26.507300 0.490800
26.547700 0.486500
26.588100 0.484300
26.628500 0.480700
26.668900 0.478000
26.709300 0.475100
26.749700 0.474300
26.790100 0.474000
26.830500 0.475100
26.870900 0.478900
26.911300 0.463800
26.951700 0.459200
26.992100 0.456300
27.032500 0.437100
27.072900 0.434900
27.113300 0.423000
27.153700 0.414500
27.194100 0.418300
27.234500 0.429500
27.274900 0.453700
27.315300 0.462500
27.355700 0.465800
27.396100 0.467400
27.436500 0.450000
27.476900 0.445800
27.517300 0.450600
27.557700 0.447200
27.598100 0.439100
27.638500 0.431500
27.678900 0.420700
27.719300 0.412800
27.759700 0.402900
27.800100 0.397200
27.840500 0.392900
27.880900 0.388500
27.921300 0.383200
27.961700 0.374900
28.002100 0.370900
28.042500 0.370300
28.082900 0.367300
28.123300 0.364300
28.163700 0.362500
28.204100 0.363400
28.244500 0.366700
28.284900 0.348600
28.325300 0.319400
28.365700 0.284200
28.406100 0.255900
28.446500 0.226600
28.486900 0.217600
28.527300 0.217700
28.567700 0.220400
28.608100 0.225900
28.648500 0.232800
28.688900 0.242500
28.729300 0.257700
28.769700 0.280800
28.810100 0.314300
28.850500 0.334400
28.890900 0.360300
28.931300 0.404300
28.971700 0.450000
29.012100 0.495700
29.052500 0.517300
29.092900 0.550200
29.133300 0.586200
29.173700 0.599800
29.214100 0.614600
29.254500 0.628100
29.294900 0.643600
29.335300 0.664400
29.375700 0.685400
29.416100 0.695100
29.456500 0.683400
29.496900 0.686000
29.537300 0.695100
29.577700 0.704400
29.618100 0.708200
29.658500 0.720100
29.698900 0.736300
29.739300 0.745200
29.779700 0.727900
29.820100 0.709100
29.860500 0.678400
29.900900 0.644800
29.941300 0.613800
29.981700 0.587600
30.022100 0.565800
30.062500 0.547400
30.102900 0.530800
30.143300 0.515000
30.183700 0.500300
30.224100 0.485500
30.264500 0.474800
30.304900 0.464700
30.345300 0.457500
30.385700 0.449200
30.426100 0.442400
30.466500 0.435300
30.506900 0.428000
30.547300 0.419400
30.587700 0.410400
30.628100 0.402000
30.668500 0.394500
30.708900 0.387300
30.749300 0.380500
30.789700 0.373400
30.830100 0.366100
30.870500 0.359300
30.910900 0.354200
30.951300 0.355800
30.991700 0.347200
31.032100 0.338900
31.072400 0.330500
31.112800 0.320700
31.153200 0.318700
31.193600 0.317700
31.234000 0.316900
31.274400 0.316700
31.314800 0.317100
31.355200 0.319600
31.395600 0.325200
31.436000 0.332400
31.476400 0.338100
31.516800 0.343800
31.557200 0.346300
31.597600 0.353600
31.638000 0.361400
31.678400 0.370300
31.718800 0.390900
31.759200 0.430900
31.799600 0.474400
31.840000 0.518900
31.880400 0.574900
31.920800 0.636500
31.961200 0.721000
32.001600 0.821800
32.042000 0.902000
32.082400 0.831100
32.122800 0.793600
32.163200 0.748700
32.203600 0.708100
32.244000 0.682900
32.284400 0.670700
32.324800 0.659400
32.365200 0.648200
32.405600 0.647300
32.446000 0.650900
32.486400 0.652600
32.526800 0.657000
32.567200 0.663900
32.607600 0.687300
32.648000 0.700600
32.688400 0.711200
32.728800 0.693700
32.769200 0.683000
32.809600 0.671500
32.850000 0.656800
32.890400 0.638600
32.930800 0.621200
32.971200 0.599800
33.011600 0.577200
33.052000 0.567300
33.092400 0.558500
33.132800 0.552000
33.173200 0.545900
33.213600 0.541300
33.254000 0.535500
33.294400 0.532600
33.334800 0.529800
33.375200 0.526200
33.415600 0.528200
33.456000 0.529600
33.496400 0.528800
33.536800 0.530200
33.577200 0.532400
33.617600 0.538700
33.658000 0.544700
33.698400 0.551100
33.738800 0.549800
33.779200 0.550700
33.819600 0.553400
33.860000 0.558600
33.900400 0.568100
33.940800 0.578300
33.981200 0.590900
34.021600 0.597600
34.062000 0.621500
34.102400 0.640800
34.142800 0.649800
34.183200 0.651200
34.223600 0.654000
34.264000 0.653800
34.304400 0.652300
34.344800 0.646900
34.385200 0.640500
34.425600 0.638100
34.466000 0.636700
34.506400 0.634800
34.546800 0.627200
34.587200 0.628900
34.627600 0.631800
34.668000 0.631700
34.708400 0.635200
34.748800 0.635000
34.789200 0.637300
34.829600 0.637100
34.870000 0.628700
34.910400 0.645000
34.950800 0.622700
34.991200 0.611200
35.031600 0.597100
35.072000 0.595600
35.112400 0.601500
35.152800 0.608800
35.193200 0.616500
35.233600 0.626400
35.274000 0.637300
35.314400 0.648400
35.354800 0.668400
35.395200 0.698100
35.435600 0.728600
35.476000 0.763100
35.516400 0.805300
35.556800 0.863400
35.597200 0.929200
35.637600 1.007700
35.678000 1.118500
35.718400 1.275800
35.758800 1.471500
35.799200 1.788400
35.839600 2.866400
35.880000 3.492100
35.920400 1.982800
35.960800 1.556100
36.001200 1.331000
36.041600 1.198600
36.082000 1.098900
36.122300 1.017400
36.162700 0.951300
36.203100 0.901900
36.243500 0.858200
36.283900 0.813600
36.324300 0.767600
36.364700 0.732200
36.405100 0.699500
36.445500 0.672200
36.485900 0.637100
36.526300 0.616500
36.566700 0.596500
36.607100 0.571500
36.647500 0.553000
36.687900 0.538800
36.728300 0.523900
36.768700 0.511600
36.809100 0.499500
36.849500 0.490600
36.889900 0.483600
36.930300 0.474900
36.970700 0.465600
37.011100 0.458900
37.051500 0.451800
37.091900 0.444700
37.132300 0.438200
37.172700 0.431400
37.213100 0.422900
37.253500 0.414900
37.293900 0.408000
37.334300 0.404800
37.374700 0.399600
37.415100 0.401000
37.455500 0.384200
37.495900 0.381000
37.536300 0.378200
37.576700 0.375400
37.617100 0.371000
37.657500 0.374600
37.697900 0.360400
37.738300 0.337500
37.778700 0.326500
37.819100 0.317000
37.859500 0.305500
37.899900 0.298800
37.940300 0.292900
37.980700 0.288300
38.021100 0.281900
38.061500 0.277000
38.101900 0.272200
38.142300 0.267600
38.182700 0.263300
38.223100 0.253000
38.263500 0.249400
38.303900 0.247400
38.344300 0.243900
38.384700 0.241200
38.425100 0.235500
38.465500 0.229800
38.505900 0.224600
38.546300 0.219700
38.586700 0.214300
38.627100 0.209900
38.667500 0.206300
38.707900 0.202400
38.748300 0.199300
38.788700 0.196300
38.829100 0.193600
38.869500 0.194500
38.909900 0.191100
38.950300 0.187300
38.990700 0.184700
39.031100 0.183300
39.071500 0.175900
39.111900 0.170300
39.152300 0.169100
39.192700 0.166100
39.233100 0.160000
39.273500 0.153700
39.313900 0.149700
39.354300 0.147700
39.394700 0.145400
39.435100 0.143000
39.475500 0.140600
39.515900 0.136000
39.556300 0.130600
39.596700 0.126700
39.637100 0.123200
39.677500 0.120000
39.717900 0.119400
39.758300 0.113200
39.798700 0.108200
39.839100 0.102200
39.879500 0.096800
39.919900 0.096700
39.960300 0.096100
40.000700 0.095100
40.041100 0.092200
40.081500 0.083600
40.121900 0.080800
40.162300 0.078200
40.202700 0.075400
40.243100 0.070800
40.283500 0.069900
40.323900 0.067100
40.364300 0.064300
40.404700 0.061600
40.445100 0.059000
40.485500 0.056600
40.525900 0.054200
40.566300 0.052000
40.606700 0.049400
40.647100 0.047100
40.687500 0.044900
40.727900 0.042500
40.768300 0.040100
40.808700 0.037600
40.849100 0.035100
40.889500 0.034400
40.929900 0.032300
40.970300 0.030300
41.010700 0.028300
41.051100 0.025700
41.091500 0.020800
41.131900 0.017900
41.172300 0.014900
41.212600 0.012000
41.253000 0.009400
41.293400 0.007000
41.333800 0.003100
41.374200 0.001400
41.414600 0.000400
41.455000 0.000000
41.495400 0.000000
41.535800 0.000000
41.576200 0.000000
41.616600 0.000000
41.657000 0.000000
41.697400 0.000000
41.737800 0.000000
41.778200 0.000000
41.818600 0.000000
41.859000 0.000000
41.899400 0.000000
41.939800 0.000000
41.980200 0.000000
42.020600 0.000000
42.061000 0.000000
42.101400 0.000000
42.141800 0.000000
42.182200 0.000000
42.222600 0.000000
42.263000 0.000000
42.303400 0.000000
42.343800 0.000000
42.384200 0.000000
42.424600 0.000000
42.465000 0.000000
42.505400 0.000000
42.545800 0.000000
42.586200 0.000000
42.626600 0.000000
42.667000 0.000000
42.707400 0.000000
42.747800 0.000000
42.788200 0.000000
42.828600 0.000000
42.869000 0.000000
42.909400 0.000000
42.949800 0.000000
42.990200 0.000000
43.030600 0.000000
43.071000 0.000000
43.111400 0.000000
43.151800 0.000000
43.192200 0.000000
43.232600 0.000000
43.273000 0.000000
43.313400 0.000000
43.353800 0.000000
43.394200 0.000000
43.434600 0.000000
43.475000 0.000000
43.515400 0.000000
43.555800 0.000000
43.596200 0.000000
43.636600 0.000000
43.677000 0.000000
43.717400 0.000000
43.757800 0.000000
43.798200 0.000000
43.838600 0.000000
43.879000 0.000000
43.919400 0.000000
43.959800 0.000000
44.000200 0.000000
44.040600 0.000000
44.081000 0.000000
44.121400 0.000000
44.161800 0.000000
44.202200 0.000000
44.242600 0.000000
44.283000 0.000000
44.323400 0.000000
44.363800 0.000000
44.404200 0.000000
44.444600 0.000000
44.485000 0.000000
44.525400 0.000000
44.565800 0.000000
44.606200 0.000000
44.646600 0.000000
44.687000 0.000000
44.727400 0.000000
44.767800 0.000000
44.808200 0.000000
44.848600 0.000000
44.889000 0.000000
44.929400 0.000000
44.969800 0.000000
45.010200 0.000000
45.050600 0.000000
45.091000 0.000000
45.131400 0.000000
e
