set title 'mp-13064 - Density of States'
set xlabel 'Energy (eV)'
set ylabel 'DOS (states/eV)'
set grid
set xrange [-10:10]
set yrange [0:15.531]
set xzeroaxis lt -1
set terminal png size 800,600
set output 'mp-13064_dos_gnuplot.png'
plot '-' using 1:2 with lines title 'DOS'
-21.714000 0.000000
-21.686900 0.000000
-21.659800 0.000000
-21.632600 0.000000
-21.605500 0.000000
-21.578400 0.000000
-21.551300 0.000000
-21.524100 0.000000
-21.497000 0.000000
-21.469900 0.000000
-21.442800 0.000000
-21.415700 0.000000
-21.388500 0.000000
-21.361400 0.000000
-21.334300 0.000000
-21.307200 0.000000
-21.280100 0.000000
-21.252900 0.000000
-21.225800 0.000000
-21.198700 0.000000
-21.171600 0.000000
-21.144400 0.000000
-21.117300 0.000000
-21.090200 0.000000
-21.063100 0.000000
-21.036000 0.000000
-21.008800 0.000000
-20.981700 0.000000
-20.954600 0.000000
-20.927500 0.000000
-20.900300 0.000000
-20.873200 0.000000
-20.846100 0.000000
-20.819000 0.000000
-20.791900 0.000000
-20.764700 0.000000
-20.737600 0.000000
-20.710500 0.000000
-20.683400 0.000000
-20.656300 0.000000
-20.629100 0.000000
-20.602000 0.000000
-20.574900 0.000000
-20.547800 0.000000
-20.520600 0.000000
-20.493500 0.000000
-20.466400 0.000000
-20.439300 0.000000
-20.412200 0.000000
-20.385000 0.000000
-20.357900 0.000000
-20.330800 0.000000
-20.303700 0.000000
-20.276500 0.000000
-20.249400 0.000000
-20.222300 0.000000
-20.195200 0.000000
-20.168100 0.000000
-20.140900 0.000000
-20.113800 0.000000
-20.086700 0.000000
-20.059600 0.000000
-20.032400 0.000000
-20.005300 0.000000
-19.978200 0.000000
-19.951100 0.000000
-19.924000 0.000000
-19.896800 0.000000
-19.869700 0.000000
-19.842600 0.000000
-19.815500 0.000000
-19.788400 0.000000
-19.761200 0.000000
-19.734100 0.000000
-19.707000 0.000000
-19.679900 0.000000
-19.652700 0.000000
-19.625600 0.000000
-19.598500 0.000000
-19.571400 0.000000
-19.544300 0.000000
-19.517100 0.000000
-19.490000 0.000000
-19.462900 0.000000
-19.435800 0.000000
-19.408600 0.000000
-19.381500 0.000000
-19.354400 0.000000
-19.327300 0.000000
-19.300200 0.000000
-19.273000 0.000000
-19.245900 0.064800
-19.218800 1.100700
-19.191700 2.669500
-19.164500 4.135700
-19.137400 5.825500
-19.110300 7.203400
-19.083200 8.298100
-19.056100 12.555900
-19.028900 16.362500
-19.001800 18.095400
-18.974700 14.949300
-18.947600 7.426200
-18.920500 5.519300
-18.893300 4.638800
-18.866200 3.813000
-18.839100 3.404700
-18.812000 2.166400
-18.784800 1.857600
-18.757700 1.680400
-18.730600 1.626700
-18.703500 1.573400
-18.676400 1.520900
-18.649200 1.472900
-18.622100 1.424800
-18.595000 1.371600
-18.567900 1.303800
-18.540700 1.226000
-18.513600 1.151600
-18.486500 3.620200
-18.459400 5.199200
-18.432300 8.399400
-18.405100 8.549300
-18.378000 9.060200
-18.350900 8.042800
-18.323800 6.958200
-18.296600 10.930800
-18.269500 16.466400
-18.242400 16.985400
-18.215300 14.123600
-18.188200 17.185400
-18.161000 28.923700
-18.133900 28.666700
-18.106800 34.449200
-18.079700 28.397500
-18.052600 23.942100
-18.025400 16.965400
-17.998300 10.657700
-17.971200 5.661100
-17.944100 0.005300
-17.916900 0.000000
-17.889800 0.000000
-17.862700 0.000000
-17.835600 0.000000
-17.808500 0.000000
-17.781300 0.000000
-17.754200 0.000000
-17.727100 0.000000
-17.700000 0.000000
-17.672800 0.000000
-17.645700 0.000000
-17.618600 0.000000
-17.591500 0.000000
-17.564400 0.000000
-17.537200 0.000000
-17.510100 0.000000
-17.483000 0.000000
-17.455900 0.000000
-17.428700 0.000000
-17.401600 0.000000
-17.374500 0.000000
-17.347400 0.000000
-17.320300 0.000000
-17.293100 0.000000
-17.266000 0.000000
-17.238900 0.000000
-17.211800 0.000000
-17.184700 0.000000
-17.157500 0.000000
-17.130400 0.000000
-17.103300 0.000000
-17.076200 0.000000
-17.049000 0.000000
-17.021900 0.000000
-16.994800 0.000000
-16.967700 0.000000
-16.940600 0.000000
-16.913400 0.000000
-16.886300 0.000000
-16.859200 0.000000
-16.832100 0.000000
-16.804900 0.000000
-16.777800 0.000000
-16.750700 0.000000
-16.723600 0.000000
-16.696500 0.000000
-16.669300 0.000000
-16.642200 0.000000
-16.615100 0.000000
-16.588000 0.000000
-16.560800 0.000000
-16.533700 0.000000
-16.506600 0.000000
-16.479500 0.000000
-16.452400 0.000000
-16.425200 0.000000
-16.398100 0.000000
-16.371000 0.000000
-16.343900 0.000000
-16.316800 0.000000
-16.289600 0.000000
-16.262500 0.000000
-16.235400 0.000000
-16.208300 0.000000
-16.181100 0.000000
-16.154000 0.000000
-16.126900 0.000000
-16.099800 0.000000
-16.072700 0.000000
-16.045500 0.000000
-16.018400 0.000000
-15.991300 0.000000
-15.964200 0.000000
-15.937000 0.000000
-15.909900 0.000000
-15.882800 0.000000
-15.855700 0.000000
-15.828600 0.000000
-15.801400 0.000000
-15.774300 0.000000
-15.747200 0.000000
-15.720100 0.000000
-15.692900 0.000000
-15.665800 0.000000
-15.638700 0.000000
-15.611600 0.000000
-15.584500 0.000000
-15.557300 0.000000
-15.530200 0.000000
-15.503100 0.000000
-15.476000 0.000000
-15.448900 0.000000
-15.421700 0.000000
-15.394600 0.000000
-15.367500 0.000000
-15.340400 0.000000
-15.313200 0.000000
-15.286100 0.000000
-15.259000 0.000000
-15.231900 0.000000
-15.204800 0.000000
-15.177600 0.000000
-15.150500 0.000000
-15.123400 0.000000
-15.096300 0.000000
-15.069100 0.000000
-15.042000 0.000000
-15.014900 0.000000
-14.987800 0.000000
-14.960700 0.000000
-14.933500 0.000000
-14.906400 0.000000
-14.879300 0.000000
-14.852200 0.000000
-14.825100 0.000000
-14.797900 0.000000
-14.770800 0.000000
-14.743700 0.000000
-14.716600 0.000000
-14.689400 0.000000
-14.662300 0.000000
-14.635200 0.000000
-14.608100 0.000000
-14.581000 0.000000
-14.553800 0.000000
-14.526700 0.000000
-14.499600 0.000000
-14.472500 0.000000
-14.445300 0.000000
-14.418200 0.000000
-14.391100 0.000000
-14.364000 0.000000
-14.336900 0.000000
-14.309700 0.000000
-14.282600 0.000000
-14.255500 0.000000
-14.228400 0.000000
-14.201200 0.000000
-14.174100 0.000000
-14.147000 0.000000
-14.119900 0.002300
-14.092800 0.011000
-14.065600 0.026400
-14.038500 0.048400
-14.011400 0.077000
-13.984300 0.111800
-13.957200 0.152300
-13.930000 0.198600
-13.902900 0.250600
-13.875800 0.301000
-13.848700 0.331000
-13.821500 0.359900
-13.794400 0.404000
-13.767300 0.449300
-13.740200 0.497500
-13.713100 0.541800
-13.685900 0.582100
-13.658800 0.619000
-13.631700 0.716100
-13.604600 0.858100
-13.577400 0.982500
-13.550300 1.198100
-13.523200 1.489200
-13.496100 1.653800
-13.469000 1.752400
-13.441800 1.853500
-13.414700 1.865800
-13.387600 2.115700
-13.360500 2.983400
-13.333300 4.070800
-13.306200 4.915600
-13.279100 5.586600
-13.252000 6.380700
-13.224900 6.809600
-13.197700 6.789800
-13.170600 6.491200
-13.143500 6.047400
-13.116400 5.613500
-13.089300 5.304900
-13.062100 5.014700
-13.035000 4.670200
-13.007900 4.515500
-12.980800 4.707600
-12.953600 5.396000
-12.926500 5.418000
-12.899400 3.926600
-12.872300 4.554800
-12.845200 6.593700
-12.818000 9.164400
-12.790900 9.228400
-12.763800 8.753300
-12.736700 8.383700
-12.709500 18.239600
-12.682400 5.733700
-12.655300 5.647700
-12.628200 6.917000
-12.601100 7.062900
-12.573900 5.007700
-12.546800 4.552600
-12.519700 4.075600
-12.492600 3.529300
-12.465400 2.981300
-12.438300 2.606600
-12.411200 1.942600
-12.384100 1.122100
-12.357000 0.584100
-12.329800 0.198800
-12.302700 0.000000
-12.275600 0.000000
-12.248500 0.000000
-12.221400 0.000000
-12.194200 0.000000
-12.167100 0.000000
-12.140000 0.000000
-12.112900 0.000000
-12.085700 0.000000
-12.058600 0.000000
-12.031500 0.000000
-12.004400 0.000000
-11.977300 0.000000
-11.950100 0.000000
-11.923000 0.000000
-11.895900 0.000000
-11.868800 0.000000
-11.841600 0.000000
-11.814500 0.000000
-11.787400 0.000000
-11.760300 0.000000
-11.733200 0.000000
-11.706000 0.000000
-11.678900 0.000000
-11.651800 0.000000
-11.624700 0.000000
-11.597500 0.000000
-11.570400 0.000000
-11.543300 0.000000
-11.516200 0.000000
-11.489100 0.000000
-11.461900 0.000000
-11.434800 0.000000
-11.407700 0.000000
-11.380600 0.000000
-11.353500 0.000000
-11.326300 0.000000
-11.299200 0.000000
-11.272100 0.000000
-11.245000 0.000000
-11.217800 0.000000
-11.190700 0.000000
-11.163600 0.000000
-11.136500 0.000000
-11.109400 0.000000
-11.082200 0.000000
-11.055100 0.000000
-11.028000 0.000000
-11.000900 0.000000
-10.973700 0.000000
-10.946600 0.000000
-10.919500 0.000000
-10.892400 0.000000
-10.865300 0.000000
-10.838100 0.000000
-10.811000 0.000000
-10.783900 0.000000
-10.756800 0.000000
-10.729600 0.000000
-10.702500 0.000000
-10.675400 0.000000
-10.648300 0.000000
-10.621200 0.000000
-10.594000 0.000000
-10.566900 0.000000
-10.539800 0.000000
-10.512700 0.000000
-10.485600 0.000000
-10.458400 0.000000
-10.431300 0.000000
-10.404200 0.000000
-10.377100 0.000000
-10.349900 0.000000
-10.322800 0.000000
-10.295700 0.000000
-10.268600 0.000000
-10.241500 0.000000
-10.214300 0.000000
-10.187200 0.000000
-10.160100 0.000000
-10.133000 0.000000
-10.105800 0.000000
-10.078700 0.000000
-10.051600 0.000000
-10.024500 0.000000
-9.997400 0.000000
-9.970200 0.000000
-9.943100 0.000000
-9.916000 0.000000
-9.888900 0.000000
-9.861700 0.000000
-9.834600 0.000000
-9.807500 0.000000
-9.780400 0.000000
-9.753300 0.000000
-9.726100 0.000000
-9.699000 0.000000
-9.671900 0.000000
-9.644800 0.000000
-9.617700 0.000000
-9.590500 0.000000
-9.563400 0.000000
-9.536300 0.000000
-9.509200 0.000000
-9.482000 0.000000
-9.454900 0.000000
-9.427800 0.000000
-9.400700 0.000000
-9.373600 0.000000
-9.346400 0.000000
-9.319300 0.000000
-9.292200 0.000000
-9.265100 0.000000
-9.237900 0.000000
-9.210800 0.000000
-9.183700 0.000000
-9.156600 0.000000
-9.129500 0.000000
-9.102300 0.000000
-9.075200 0.000000
-9.048100 0.000000
-9.021000 0.000000
-8.993900 0.000000
-8.966700 0.000000
-8.939600 0.000000
-8.912500 0.000000
-8.885400 0.000000
-8.858200 0.000000
-8.831100 0.000000
-8.804000 0.000000
-8.776900 0.000000
-8.749800 0.000000
-8.722600 0.000000
-8.695500 0.000000
-8.668400 0.000000
-8.641300 0.000000
-8.614100 0.000000
-8.587000 0.000000
-8.559900 0.000000
-8.532800 0.000000
-8.505700 0.000000
-8.478500 0.000000
-8.451400 0.000000
-8.424300 0.000000
-8.397200 0.000000
-8.370000 0.000000
-8.342900 0.000000
-8.315800 0.000000
-8.288700 0.000000
-8.261600 0.000000
-8.234400 0.000000
-8.207300 0.000000
-8.180200 0.000000
-8.153100 0.000000
-8.126000 0.000000
-8.098800 0.000000
-8.071700 0.000000
-8.044600 0.000000
-8.017500 0.000000
-7.990300 0.000000
-7.963200 0.000000
-7.936100 0.000000
-7.909000 0.000000
-7.881900 0.000000
-7.854700 0.000000
-7.827600 0.000000
-7.800500 0.000000
-7.773400 0.000000
-7.746200 0.000000
-7.719100 0.000000
-7.692000 0.000000
-7.664900 0.000000
-7.637800 0.000000
-7.610600 0.000000
-7.583500 0.000000
-7.556400 0.000000
-7.529300 0.000000
-7.502100 0.000000
-7.475000 0.000000
-7.447900 0.000000
-7.420800 0.000000
-7.393700 0.000000
-7.366500 0.000000
-7.339400 0.000000
-7.312300 0.000000
-7.285200 0.000000
-7.258100 0.000000
-7.230900 0.000000
-7.203800 0.000000
-7.176700 0.000000
-7.149600 0.000000
-7.122400 0.000000
-7.095300 0.000000
-7.068200 0.000000
-7.041100 0.000000
-7.014000 0.000000
-6.986800 0.000000
-6.959700 0.000000
-6.932600 0.000000
-6.905500 0.000000
-6.878300 0.000000
-6.851200 0.000000
-6.824100 0.000000
-6.797000 0.000000
-6.769900 0.000000
-6.742700 0.000000
-6.715600 0.000000
-6.688500 0.000000
-6.661400 0.000000
-6.634200 0.000000
-6.607100 0.000000
-6.580000 0.000000
-6.552900 0.000000
-6.525800 0.000000
-6.498600 0.000000
-6.471500 0.000000
-6.444400 0.000000
-6.417300 0.000000
-6.390200 0.000000
-6.363000 0.000000
-6.335900 0.000000
-6.308800 0.000000
-6.281700 0.000000
-6.254500 0.000000
-6.227400 0.000000
-6.200300 0.000000
-6.173200 0.000000
-6.146100 0.000000
-6.118900 0.000000
-6.091800 0.000000
-6.064700 0.000000
-6.037600 0.000000
-6.010400 0.000000
-5.983300 0.000000
-5.956200 0.000000
-5.929100 0.000000
-5.902000 0.000000
-5.874800 0.000000
-5.847700 0.000000
-5.820600 0.000000
-5.793500 0.000000
-5.766300 0.000000
-5.739200 0.000000
-5.712100 0.000000
-5.685000 0.000000
-5.657900 0.000000
-5.630700 0.000000
-5.603600 0.000000
-5.576500 0.000000
-5.549400 0.000000
-5.522300 0.000000
-5.495100 0.000000
-5.468000 0.000000
-5.440900 0.000000
-5.413800 0.000000
-5.386600 0.000000
-5.359500 0.000000
-5.332400 0.000000
-5.305300 0.000000
-5.278200 0.000000
-5.251000 0.000000
-5.223900 0.000000
-5.196800 0.000000
-5.169700 0.000000
-5.142500 0.000000
-5.115400 0.000000
-5.088300 0.000000
-5.061200 0.000000
-5.034100 0.000000
-5.006900 0.000000
-4.979800 0.000000
-4.952700 0.000000
-4.925600 0.000000
-4.898400 0.000000
-4.871300 0.000000
-4.844200 0.000000
-4.817100 0.000000
-4.790000 0.000000
-4.762800 0.000000
-4.735700 0.000000
-4.708600 0.000000
-4.681500 0.000000
-4.654400 0.000000
-4.627200 0.000000
-4.600100 0.000000
-4.573000 0.000000
-4.545900 0.000000
-4.518700 0.000000
-4.491600 0.000000
-4.464500 0.000000
-4.437400 0.000000
-4.410300 0.000000
-4.383100 0.000000
-4.356000 0.000000
-4.328900 0.000000
-4.301800 0.000000
-4.274600 0.000000
-4.247500 0.000000
-4.220400 0.000000
-4.193300 0.000000
-4.166200 0.000000
-4.139000 0.000000
-4.111900 0.000000
-4.084800 0.000000
-4.057700 0.000000
-4.030600 0.000000
-4.003400 0.000000
-3.976300 0.000000
-3.949200 0.000000
-3.922100 0.000000
-3.894900 0.000000
-3.867800 0.000000
-3.840700 0.000000
-3.813600 0.000000
-3.786500 0.000000
-3.759300 0.000000
-3.732200 0.000000
-3.705100 0.000000
-3.678000 0.000000
-3.650800 0.000000
-3.623700 0.000000
-3.596600 0.000000
-3.569500 0.000000
-3.542400 0.000000
-3.515200 0.000000
-3.488100 0.000000
-3.461000 0.000000
-3.433900 0.000000
-3.406700 0.000000
-3.379600 0.000000
-3.352500 0.000000
-3.325400 0.000000
-3.298300 0.000000
-3.271100 0.000000
-3.244000 0.000000
-3.216900 0.000000
-3.189800 0.000000
-3.162700 0.000000
-3.135500 0.000000
-3.108400 0.000000
-3.081300 0.000000
-3.054200 0.000000
-3.027000 0.000000
-2.999900 0.000000
-2.972800 0.000000
-2.945700 0.000000
-2.918600 0.000000
-2.891400 0.000000
-2.864300 0.000000
-2.837200 0.000000
-2.810100 0.000000
-2.782900 0.000000
-2.755800 0.000000
-2.728700 0.000000
-2.701600 0.000000
-2.674500 0.000000
-2.647300 0.000000
-2.620200 0.000000
-2.593100 0.000000
-2.566000 0.000000
-2.538800 0.000000
-2.511700 0.000000
-2.484600 0.000000
-2.457500 0.000000
-2.430400 0.000000
-2.403200 0.000000
-2.376100 0.000000
-2.349000 0.000000
-2.321900 0.000000
-2.294800 0.000000
-2.267600 0.000000
-2.240500 0.000000
-2.213400 0.000000
-2.186300 0.000000
-2.159100 0.000000
-2.132000 0.000000
-2.104900 0.000000
-2.077800 0.000000
-2.050700 0.000000
-2.023500 0.000000
-1.996400 0.000000
-1.969300 0.000000
-1.942200 0.000000
-1.915000 0.000000
-1.887900 0.000000
-1.860800 0.000000
-1.833700 0.000000
-1.806600 0.000000
-1.779400 0.000000
-1.752300 0.000000
-1.725200 0.000000
-1.698100 0.000000
-1.670900 0.011300
-1.643800 0.078000
-1.616700 0.154600
-1.589600 0.241200
-1.562500 0.337800
-1.535300 0.444300
-1.508200 0.560800
-1.481100 0.687300
-1.454000 0.715900
-1.426900 0.722200
-1.399700 0.787000
-1.372600 0.868200
-1.345500 0.951600
-1.318400 1.037200
-1.291200 1.125500
-1.264100 1.217200
-1.237000 1.314700
-1.209900 1.430100
-1.182800 1.565100
-1.155600 1.719600
-1.128500 2.243700
-1.101400 2.338800
-1.074300 2.493500
-1.047100 2.967700
-1.020000 4.066500
-0.992900 4.131800
-0.965800 4.928000
-0.938700 6.060300
-0.911500 6.936500
-0.884400 5.961300
-0.857300 4.257100
-0.830200 2.921000
-0.803000 1.855000
-0.775900 1.360600
-0.748800 1.345900
-0.721700 1.533500
-0.694600 2.166300
-0.667400 2.888300
-0.640300 3.177200
-0.613200 3.518700
-0.586100 4.001200
-0.559000 4.728700
-0.531800 5.735500
-0.504700 6.652200
-0.477600 6.435900
-0.450500 6.029400
-0.423300 6.245900
-0.396200 6.020200
-0.369100 6.117300
-0.342000 6.139300
-0.314900 6.244800
-0.287700 7.377600
-0.260600 8.397400
-0.233500 8.646000
-0.206400 10.985200
-0.179200 10.441100
-0.152100 9.566200
-0.125000 9.917900
-0.097900 10.988700
-0.070800 10.394300
-0.043600 6.235800
-0.016500 4.710000
0.010600 3.802300
0.037700 3.530400
0.064900 3.682800
0.092000 4.285700
0.119100 4.878000
0.146200 5.407600
0.173300 5.801700
0.200500 6.041800
0.227600 6.102600
0.254700 6.111400
0.281800 5.932800
0.308900 5.054700
0.336100 3.999500
0.363200 3.233200
0.390300 2.594600
0.417400 2.477900
0.444600 2.450100
0.471700 2.606400
0.498800 2.749600
0.525900 3.036300
0.553000 3.787400
0.580200 4.948700
0.607300 7.620500
0.634400 8.366000
0.661500 8.897600
0.688700 9.037000
0.715800 5.349000
0.742900 4.201000
0.770000 3.452400
0.797100 3.177400
0.824300 3.107800
0.851400 3.010200
0.878500 2.853900
0.905600 3.031500
0.932800 3.206500
0.959900 3.761700
0.987000 4.318100
1.014100 4.519300
1.041200 4.485300
1.068400 4.353800
1.095500 4.256800
1.122600 4.321500
1.149700 4.125400
1.176800 3.187000
1.204000 2.921700
1.231100 1.928900
1.258200 1.517800
1.285300 1.897400
1.312500 2.491300
1.339600 3.517200
1.366700 5.940200
1.393800 10.324500
1.420900 10.287900
1.448100 9.880600
1.475200 8.971200
1.502300 6.239700
1.529400 3.541000
1.556600 4.669400
1.583700 7.403000
1.610800 14.118700
1.637900 10.964500
1.665000 9.046300
1.692200 6.499800
1.719300 5.664000
1.746400 10.924000
1.773500 9.466800
1.800600 8.911000
1.827800 8.504800
1.854900 7.898100
1.882000 7.125800
1.909100 6.471400
1.936300 6.415600
1.963400 5.359300
1.990500 4.331400
2.017600 4.085000
2.044700 3.705400
2.071900 4.952600
2.099000 2.918400
2.126100 1.919300
2.153200 1.304200
2.180400 0.845900
2.207500 0.423700
2.234600 0.223000
2.261700 0.138300
2.288800 0.073600
2.316000 0.029200
2.343100 0.005000
2.370200 0.000000
2.397300 0.000000
2.424500 0.000000
2.451600 0.000000
2.478700 0.000000
2.505800 0.000000
2.532900 0.000000
2.560100 0.000000
2.587200 0.000000
2.614300 0.000000
2.641400 0.000000
2.668500 0.000000
2.695700 0.000000
2.722800 0.000000
2.749900 0.000000
2.777000 0.000000
2.804200 0.000000
2.831300 0.000000
2.858400 0.000000
2.885500 0.000000
2.912600 0.000000
2.939800 0.000000
2.966900 0.000000
2.994000 0.000000
3.021100 0.000000
3.048300 0.000000
3.075400 0.000000
3.102500 0.000000
3.129600 0.000000
3.156700 0.000000
3.183900 0.000000
3.211000 0.000000
3.238100 0.000000
3.265200 0.000000
3.292400 0.000000
3.319500 0.000000
3.346600 0.000000
3.373700 0.000000
3.400800 0.000000
3.428000 0.000000
3.455100 0.000000
3.482200 0.000000
3.509300 0.000000
3.536400 0.000000
3.563600 0.000000
3.590700 0.000000
3.617800 0.000000
3.644900 0.000000
3.672100 0.000000
3.699200 0.000000
3.726300 0.000000
3.753400 0.000000
3.780500 0.000000
3.807700 0.000000
3.834800 0.000000
3.861900 0.000000
3.889000 0.000000
3.916200 0.000000
3.943300 0.000000
3.970400 0.000000
3.997500 0.000000
4.024600 0.000000
4.051800 0.000000
4.078900 0.000000
4.106000 0.000000
4.133100 0.000000
4.160300 0.000000
4.187400 0.000000
4.214500 0.000000
4.241600 0.000000
4.268700 0.000000
4.295900 0.000000
4.323000 0.000000
4.350100 0.000000
4.377200 0.000000
4.404300 0.000000
4.431500 0.000000
4.458600 0.000000
4.485700 0.000000
4.512800 0.000000
4.540000 0.000000
4.567100 0.000000
4.594200 0.000000
4.621300 0.000000
4.648400 0.000000
4.675600 0.000000
4.702700 0.000000
4.729800 0.000000
4.756900 0.000000
4.784100 0.000000
4.811200 0.000000
4.838300 0.000000
4.865400 0.000000
4.892500 0.000000
4.919700 0.000000
4.946800 0.000000
4.973900 0.000000
5.001000 0.000000
5.028200 0.000000
5.055300 0.000000
5.082400 0.000000
5.109500 0.000000
5.136600 0.000000
5.163800 0.000000
5.190900 0.000000
5.218000 0.000000
5.245100 0.000000
5.272200 0.000000
5.299400 0.000000
5.326500 0.000000
5.353600 0.000000
5.380700 0.000000
5.407900 0.000000
5.435000 0.000000
5.462100 0.000000
5.489200 0.000000
5.516300 0.000000
5.543500 0.000000
5.570600 0.000000
5.597700 0.000000
5.624800 0.000000
5.652000 0.000000
5.679100 0.000000
5.706200 0.000000
5.733300 0.000000
5.760400 0.000000
5.787600 0.000000
5.814700 0.000000
5.841800 0.000000
5.868900 0.000000
5.896100 0.000000
5.923200 0.000000
5.950300 0.000000
5.977400 0.000000
6.004500 0.000000
6.031700 0.000000
6.058800 0.000000
6.085900 0.000000
6.113000 0.000000
6.140100 0.000000
6.167300 0.000000
6.194400 0.000000
6.221500 0.000000
6.248600 0.000000
6.275800 0.000000
6.302900 0.000000
6.330000 0.000000
6.357100 0.000000
6.384200 0.000000
6.411400 0.000000
6.438500 0.000000
6.465600 0.000000
6.492700 0.000000
6.519900 0.000000
6.547000 0.000000
6.574100 0.000000
6.601200 0.000000
6.628300 0.000000
6.655500 0.000000
6.682600 0.126700
6.709700 0.199800
6.736800 0.287900
6.764000 0.390900
6.791100 0.510700
6.818200 0.710300
6.845300 0.941300
6.872400 1.306200
6.899600 1.726400
6.926700 2.272900
6.953800 3.114300
6.980900 3.757300
7.008000 3.408400
7.035200 3.096100
7.062300 2.685600
7.089400 2.370200
7.116500 2.246400
7.143700 2.153400
7.170800 2.062500
7.197900 1.972800
7.225000 1.894100
7.252100 1.986200
7.279300 1.933500
7.306400 1.895500
7.333500 1.866700
7.360600 1.848500
7.387800 1.831800
7.414900 1.813500
7.442000 1.799300
7.469100 1.826500
7.496200 1.848700
7.523400 1.964000
7.550500 2.472200
7.577600 2.442400
7.604700 2.415800
7.631800 2.314000
7.659000 2.185700
7.686100 2.376500
7.713200 1.905100
7.740300 1.368000
7.767500 1.234600
7.794600 1.039400
7.821700 1.222200
7.848800 1.344000
7.875900 1.468000
7.903100 1.643300
7.930200 1.856200
7.957300 2.441100
7.984400 3.301200
8.011600 4.158800
8.038700 4.928300
8.065800 5.857900
8.092900 7.532000
8.120000 12.062900
8.147200 6.675600
8.174300 6.057900
8.201400 5.541800
8.228500 5.113700
8.255700 4.687700
8.282800 3.944800
8.309900 3.260800
8.337000 2.771300
8.364100 2.390200
8.391300 2.396700
8.418400 2.804400
8.445500 3.302500
8.472600 3.380300
8.499700 3.482200
8.526900 3.340100
8.554000 3.242000
8.581100 3.173900
8.608200 3.094700
8.635400 3.014700
8.662500 2.954100
8.689600 2.919700
8.716700 2.885000
8.743800 2.856000
8.771000 2.704500
8.798100 2.678100
8.825200 2.679900
8.852300 2.699400
8.879500 2.736300
8.906600 2.790700
8.933700 2.920000
8.960800 3.074100
8.987900 3.271900
9.015100 4.165400
9.042200 4.878600
9.069300 3.948100
9.096400 4.147200
9.123600 4.438800
9.150700 4.884500
9.177800 5.407000
9.204900 5.633400
9.232000 4.755900
9.259200 4.456600
9.286300 3.968600
9.313400 3.659600
9.340500 3.298600
9.367600 3.075400
9.394800 3.328200
9.421900 4.856300
9.449000 4.362700
9.476100 4.319900
9.503300 4.587300
9.530400 5.478300
9.557500 6.785000
9.584600 7.806800
9.611700 7.763600
9.638900 6.660200
9.666000 5.047400
9.693100 4.146500
9.720200 3.389900
9.747400 2.507300
9.774500 1.985300
9.801600 1.678300
9.828700 1.510500
9.855800 1.407400
9.883000 1.372600
9.910100 1.472200
9.937200 1.676500
9.964300 1.679900
9.991500 1.718700
10.018600 1.803000
10.045700 1.596500
10.072800 1.488900
10.099900 1.612600
10.127100 1.890600
10.154200 2.289500
10.181300 2.937100
10.208400 3.315500
10.235500 3.619100
10.262700 3.909000
10.289800 4.116300
10.316900 3.645100
10.344000 3.288300
10.371200 2.994600
10.398300 2.736600
10.425400 2.518400
10.452500 2.342000
10.479600 2.209000
10.506800 2.102400
10.533900 2.182700
10.561000 2.385000
10.588100 2.249200
10.615300 2.180100
10.642400 2.187600
10.669500 2.385800
10.696600 2.785700
10.723700 3.471200
10.750900 4.377400
10.778000 5.436500
10.805100 6.524800
10.832200 7.404000
10.859400 6.937700
10.886500 6.233900
10.913600 5.541900
10.940700 4.836100
10.967800 4.617400
10.995000 4.314400
11.022100 3.775200
11.049200 1.617700
11.076300 1.072600
11.103400 0.112600
11.130600 0.042900
11.157700 0.006500
11.184800 0.000000
11.211900 0.000000
11.239100 0.105500
11.266200 0.402100
11.293300 0.826300
11.320400 1.376900
11.347500 3.657100
11.374700 3.635500
11.401800 4.453900
11.428900 6.370200
11.456000 8.320200
11.483200 8.516100
11.510300 6.972500
11.537400 4.662900
11.564500 4.014700
11.591600 3.999200
11.618800 4.669000
11.645900 6.129200
11.673000 6.856700
11.700100 6.781600
11.727300 6.204500
11.754400 5.849000
11.781500 5.458400
11.808600 4.755000
11.835700 4.697300
11.862900 4.831400
11.890000 5.540700
11.917100 5.783900
11.944200 4.790300
11.971300 4.348200
11.998500 3.460900
12.025600 3.020200
12.052700 2.584100
12.079800 2.322200
12.107000 1.894300
12.134100 1.759500
12.161200 1.927600
12.188300 2.207300
12.215400 2.610700
12.242600 3.959700
12.269700 4.545800
12.296800 5.805100
12.323900 6.961500
12.351100 8.144000
12.378200 6.764700
12.405300 7.521700
12.432400 6.632400
12.459500 5.409900
12.486700 3.224700
12.513800 2.032300
12.540900 1.320900
12.568000 0.827700
12.595200 0.544400
12.622300 0.334200
12.649400 0.188900
12.676500 0.113000
12.703600 0.125200
12.730800 0.211400
12.757900 0.427900
12.785000 0.900400
12.812100 1.444400
12.839200 2.010300
12.866400 2.504900
12.893500 2.832500
12.920600 3.072200
12.947700 4.140000
12.974900 3.694500
13.002000 3.615200
13.029100 3.427400
13.056200 3.158300
13.083300 2.877500
13.110500 2.647100
13.137600 2.415300
13.164700 2.216600
13.191800 2.096700
13.219000 2.050000
13.246100 2.390900
13.273200 2.412000
13.300300 2.565200
13.327400 2.496900
13.354600 2.346300
13.381700 2.146500
13.408800 1.964600
13.435900 1.828000
13.463000 1.514800
13.490200 1.475700
13.517300 1.458300
13.544400 1.442800
13.571500 1.428500
13.598700 1.415200
13.625800 1.402500
13.652900 1.391300
13.680000 1.388600
13.707100 1.410800
13.734300 1.458200
13.761400 1.529000
13.788500 1.544700
13.815600 1.508500
13.842800 1.452000
13.869900 1.369400
13.897000 1.304300
13.924100 1.254700
13.951200 1.215700
13.978400 1.191700
14.005500 1.181900
14.032600 1.181700
14.059700 1.181900
14.086900 1.181200
14.114000 1.179400
14.141100 1.172200
14.168200 1.166600
14.195300 1.160900
14.222500 1.155400
14.249600 1.150000
14.276700 1.144900
14.303800 1.108300
14.330900 1.099400
14.358100 1.091200
14.385200 1.084700
14.412300 1.080400
14.439400 1.078200
14.466600 1.078000
14.493700 1.075000
14.520800 1.066200
14.547900 1.062200
14.575000 1.064300
14.602200 1.069800
14.629300 1.075800
14.656400 1.083700
14.683500 1.406700
14.710700 1.362200
14.737800 1.014700
14.764900 1.034300
14.792000 1.054200
14.819100 1.074300
14.846300 1.094600
14.873400 1.118400
14.900500 1.172300
14.927600 1.261900
14.954800 1.387200
14.981900 1.548100
15.009000 1.744800
15.036100 2.250200
15.063200 2.466400
15.090400 2.802200
15.117500 3.161100
15.144600 4.255200
15.171700 2.962800
15.198800 2.874700
15.226000 2.839400
15.253100 2.797000
15.280200 2.728300
15.307300 2.651300
15.334500 2.559000
15.361600 2.460500
15.388700 2.366400
15.415800 2.273100
15.442900 2.183800
15.470100 2.118700
15.497200 2.081700
15.524300 2.137400
15.551400 2.160200
15.578600 2.226700
15.605700 2.360400
15.632800 2.562400
15.659900 3.307100
15.687000 2.582000
15.714200 2.302300
15.741300 1.782700
15.768400 1.716200
15.795500 1.692000
15.822700 1.704400
15.849800 1.650800
15.876900 1.574700
15.904000 1.478800
15.931100 1.306300
15.958300 1.091100
15.985400 0.893200
16.012500 0.712500
16.039600 0.588700
16.066700 0.404900
16.093900 0.280600
16.121000 0.270200
16.148100 0.271100
16.175200 0.279100
16.202400 0.294200
16.229500 0.316400
16.256600 0.337200
16.283700 0.349700
16.310800 0.361200
16.338000 0.377700
16.365100 0.397800
16.392200 0.418000
16.419300 0.437700
16.446500 0.457000
16.473600 0.475700
16.500700 0.494000
16.527800 0.511800
16.554900 0.529100
16.582100 0.546500
16.609200 0.565300
16.636300 0.585700
16.663400 0.607800
16.690600 0.789500
16.717700 0.884300
16.744800 0.969000
16.771900 1.043800
16.799000 1.108400
16.826200 1.163100
16.853300 1.207600
16.880400 1.245100
16.907500 1.274800
16.934600 1.297900
16.961800 1.306700
16.988900 1.300400
17.016000 1.293100
17.043100 1.285500
17.070300 1.277600
17.097400 1.270100
17.124500 1.293400
17.151600 1.288800
17.178700 1.275900
17.205900 1.274600
17.233000 1.291200
17.260100 1.314400
17.287200 1.343200
17.314400 1.377600
17.341500 1.417400
17.368600 1.636900
17.395700 1.699700
17.422800 1.768200
17.450000 1.831200
17.477100 1.904200
17.504200 2.938800
17.531300 2.022800
17.558500 2.007100
17.585600 1.990100
17.612700 1.992800
17.639800 2.009900
17.666900 2.059300
17.694100 2.114000
17.721200 2.167400
17.748300 2.216700
17.775400 2.251100
17.802500 2.305200
17.829700 2.379700
17.856800 2.448300
17.883900 2.505400
17.911000 2.551000
17.938200 2.588400
17.965300 2.659900
17.992400 2.871900
18.019500 2.964600
18.046600 2.729400
18.073800 2.689700
18.100900 2.654800
18.128000 2.625700
18.155100 2.598700
18.182300 2.613400
18.209400 2.673700
18.236500 2.743800
18.263600 2.823100
18.290700 2.970400
18.317900 2.830400
18.345000 2.761200
18.372100 2.636500
18.399200 2.507500
18.426400 2.365300
18.453500 2.245200
18.480600 2.225800
18.507700 2.211100
18.534800 2.199000
18.562000 2.190800
18.589100 2.189500
18.616200 2.198500
18.643300 2.193700
18.670400 2.147100
18.697600 2.118500
18.724700 2.155100
18.751800 2.370600
18.778900 2.466200
18.806100 2.537800
18.833200 2.590700
18.860300 2.624900
18.887400 2.640400
18.914500 2.695500
18.941700 2.628900
18.968800 2.546400
18.995900 2.453300
19.023000 2.269600
19.050200 2.194500
19.077300 2.129000
19.104400 2.072500
19.131500 2.024400
19.158600 1.984800
19.185800 1.953700
19.212900 1.931000
19.240000 1.949600
19.267100 1.709700
19.294200 1.535300
19.321400 1.502800
19.348500 1.485600
19.375600 1.432500
19.402700 1.322400
19.429900 1.156600
19.457000 1.026400
19.484100 0.904200
19.511200 0.811500
19.538300 0.768600
19.565500 0.810500
19.592600 0.939200
19.619700 1.157600
19.646800 1.442200
19.674000 1.717300
19.701100 1.892900
19.728200 2.054800
19.755300 1.664700
19.782400 1.584500
19.809600 1.539100
19.836700 1.522200
19.863800 1.534300
19.890900 1.551000
19.918100 1.579700
19.945200 1.604300
19.972300 1.694300
19.999400 1.769400
20.026500 1.848700
20.053700 1.932200
20.080800 2.019700
20.107900 2.119800
20.135000 2.233300
20.162100 2.387800
20.189300 2.615300
20.216400 2.860000
20.243500 3.052100
20.270600 3.237200
20.297800 3.307000
20.324900 3.505400
20.352000 3.539200
20.379100 3.092300
20.406200 2.627500
20.433400 2.400200
20.460500 2.272400
20.487600 2.208500
20.514700 2.148200
20.541900 2.142500
20.569000 2.177800
20.596100 2.215100
20.623200 2.238200
20.650300 2.236400
20.677500 2.270400
20.704600 2.153300
20.731700 2.184000
20.758800 2.224900
20.786000 2.278700
20.813100 2.345700
20.840200 2.613100
20.867300 2.677200
20.894400 2.768800
20.921600 2.811500
20.948700 3.129600
20.975800 2.958400
21.002900 2.923100
21.030000 2.935600
21.057200 2.976900
21.084300 3.008400
21.111400 3.059700
21.138500 3.137200
21.165700 3.120000
21.192800 3.074400
21.219900 3.078900
21.247000 3.120600
21.274100 3.140400
21.301300 3.237700
21.328400 3.000200
21.355500 2.727200
21.382600 2.422900
21.409800 2.138500
21.436900 2.004900
21.464000 1.981100
21.491100 1.957400
21.518200 1.931600
21.545400 1.903800
21.572500 1.873900
21.599600 1.842400
21.626700 1.810800
21.653900 1.778900
21.681000 1.754500
21.708100 1.782100
21.735200 1.817700
21.762300 1.768700
21.789500 1.715500
21.816600 1.672000
21.843700 1.641800
21.870800 1.619300
21.897900 1.586300
21.925100 1.540700
21.952200 1.544200
21.979300 1.550400
22.006400 1.593000
22.033600 1.686900
22.060700 1.792200
22.087800 1.887500
22.114900 2.048100
22.142000 2.205800
22.169200 2.393300
22.196300 2.636400
22.223400 3.013800
22.250500 3.369100
22.277700 3.653400
22.304800 3.898700
22.331900 4.105800
22.359000 4.448400
22.386100 4.622000
22.413300 3.474800
22.440400 2.933200
22.467500 2.684200
22.494600 2.456400
22.521800 1.957900
22.548900 1.883800
22.576000 1.805100
22.603100 1.722700
22.630200 1.646100
22.657400 1.592900
22.684500 2.190700
22.711600 1.985300
22.738700 2.014000
22.765800 2.063600
22.793000 2.126100
22.820100 2.198300
22.847200 2.281600
22.874300 2.382900
22.901500 2.518200
22.928600 2.680300
22.955700 2.834500
22.982800 3.048500
23.009900 3.438900
23.037100 3.567100
23.064200 3.512300
23.091300 3.205800
23.118400 2.830600
23.145600 2.507100
23.172700 2.407300
23.199800 2.319700
23.226900 2.244300
23.254000 2.182000
23.281200 2.130500
23.308300 2.100200
23.335400 2.043400
23.362500 2.127900
23.389700 2.060100
23.416800 1.985000
23.443900 1.943400
23.471000 1.919200
23.498100 1.911600
23.525300 2.244100
23.552400 2.085500
23.579500 1.903000
23.606600 1.937400
23.633700 2.068200
23.660900 2.237200
23.688000 2.278300
23.715100 2.233900
23.742200 2.275300
23.769400 2.322400
23.796500 2.360500
23.823600 2.378800
23.850700 2.398900
23.877800 2.412000
23.905000 2.409300
23.932100 2.783600
23.959200 3.344300
23.986300 2.479000
24.013500 2.364400
24.040600 2.262900
24.067700 2.421500
24.094800 2.473800
24.121900 2.353700
24.149100 2.215800
24.176200 2.024800
24.203300 1.890100
24.230400 1.837800
24.257500 1.831700
24.284700 1.824300
24.311800 1.812700
24.338900 1.798900
24.366000 1.786400
24.393200 1.777200
24.420300 1.772600
24.447400 1.722200
24.474500 1.699800
24.501600 1.703000
24.528800 1.726500
24.555900 1.771000
24.583000 1.916900
24.610100 1.893700
24.637300 1.872600
24.664400 1.853800
24.691500 1.837400
24.718600 1.940700
24.745700 1.949300
24.772900 1.974100
24.800000 2.013400
24.827100 2.055900
24.854200 2.121600
24.881400 2.189000
24.908500 2.300100
24.935600 2.473400
24.962700 2.668000
24.989800 2.965400
25.017000 3.301800
25.044100 3.504700
25.071200 3.541900
25.098300 3.586000
25.125400 3.579300
25.152600 3.512200
25.179700 3.320200
25.206800 3.089900
25.233900 2.893400
25.261100 2.730600
25.288200 2.644400
25.315300 2.484600
25.342400 2.331800
25.369500 2.199900
25.396700 2.119400
25.423800 2.052300
25.450900 1.989200
25.478000 1.933600
25.505200 1.885500
25.532300 1.848800
25.559400 1.837100
25.586500 1.859300
25.613600 1.908300
25.640800 2.064500
25.667900 2.369400
25.695000 2.932400
25.722100 3.558900
25.749300 4.311500
25.776400 5.217100
25.803500 6.179900
25.830600 7.381300
25.857700 7.852300
25.884900 7.850900
25.912000 7.666000
25.939100 7.283000
25.966200 8.499300
25.993300 27.372600
26.020500 37.031200
26.047600 10.746400
26.074700 7.072900
26.101800 5.672900
26.129000 4.819900
26.156100 4.170400
26.183200 3.666600
26.210300 3.321500
26.237400 3.157900
26.264600 3.121500
26.291700 3.236300
26.318800 3.320000
26.345900 3.318200
26.373100 3.267500
26.400200 3.203300
26.427300 3.128200
26.454400 3.045900
26.481500 2.963600
26.508700 2.886100
26.535800 2.811000
26.562900 2.712900
26.590000 2.458600
26.617200 2.543000
26.644300 2.600200
26.671400 2.509300
26.698500 2.416100
26.725600 2.351100
26.752800 2.290900
26.779900 2.234000
26.807000 2.219700
26.834100 2.222100
26.861200 2.237500
26.888400 2.104500
26.915500 2.007800
26.942600 1.930700
26.969700 1.871400
26.996900 1.829000
27.024000 1.803000
27.051100 1.793300
27.078200 1.797600
27.105300 2.250600
27.132500 2.244600
27.159600 2.352500
27.186700 2.532500
27.213800 2.729200
27.241000 2.915200
27.268100 3.089100
27.295200 3.210900
27.322300 3.266300
27.349400 3.272800
27.376600 3.236400
27.403700 3.111000
27.430800 2.984800
27.457900 2.929500
27.485100 2.929100
27.512200 2.994100
27.539300 3.161300
27.566400 3.370600
27.593500 3.823600
27.620700 3.236800
27.647800 3.217500
27.674900 3.208900
27.702000 3.207700
27.729100 3.189700
27.756300 3.157300
27.783400 3.110000
27.810500 3.047700
27.837600 3.045200
27.864800 2.811800
27.891900 2.596000
27.919000 2.510900
27.946100 2.352200
27.973200 2.320400
28.000400 2.310200
28.027500 2.321900
28.054600 2.419700
28.081700 2.875300
28.108900 2.708800
28.136000 2.501900
28.163100 2.420800
28.190200 2.395400
28.217300 2.377700
28.244500 2.363500
28.271600 2.344200
28.298700 2.319900
28.325800 2.290600
28.353000 2.256600
28.380100 2.241200
28.407200 2.225400
28.434300 2.209400
28.461400 2.187200
28.488600 2.141400
28.515700 2.097400
28.542800 2.090900
28.569900 2.082000
28.597000 2.064000
28.624200 2.109500
28.651300 1.911700
28.678400 2.382500
28.705500 2.456400
28.732700 2.501800
28.759800 2.535200
28.786900 2.561900
28.814000 2.648100
28.841100 2.701800
28.868300 2.719600
28.895400 2.730600
28.922500 2.758900
28.949600 3.022000
28.976800 3.291500
29.003900 2.651700
29.031000 2.557500
29.058100 2.571900
29.085200 2.470000
29.112400 2.360400
29.139500 2.251200
29.166600 2.144900
29.193700 2.043800
29.220900 1.941000
29.248000 1.843700
29.275100 1.748000
29.302200 1.653200
29.329300 1.559300
29.356500 1.465900
29.383600 1.370500
29.410700 1.273300
29.437800 1.176000
29.464900 1.078900
29.492100 0.983200
29.519200 0.892300
29.546300 0.811100
29.573400 0.750400
29.600600 0.713700
29.627700 0.682200
29.654800 0.653400
29.681900 0.624300
29.709000 0.591100
29.736200 0.554700
29.763300 0.516100
29.790400 0.474300
29.817500 0.429200
29.844700 0.381000
29.871800 0.329500
29.898900 0.274700
29.926000 0.216800
29.953100 0.153200
29.980300 0.088100
30.007400 0.037800
30.034500 0.008400
30.061600 0.000100
30.088700 0.000000
30.115900 0.000000
30.143000 0.000000
30.170100 0.000000
30.197200 0.000000
30.224400 0.000000
30.251500 0.000000
30.278600 0.000000
30.305700 0.000000
30.332800 0.000000
30.360000 0.000000
30.387100 0.000000
30.414200 0.000000
30.441300 0.000000
30.468500 0.000000
30.495600 0.000000
30.522700 0.000000
30.549800 0.000000
30.576900 0.000000
30.604100 0.000000
30.631200 0.000000
30.658300 0.000000
30.685400 0.000000
30.712600 0.000000
30.739700 0.000000
30.766800 0.000000
30.793900 0.000000
30.821000 0.000000
30.848200 0.000000
30.875300 0.000000
30.902400 0.000000
30.929500 0.000000
30.956600 0.000000
30.983800 0.000000
31.010900 0.000000
31.038000 0.000000
31.065100 0.000000
31.092300 0.000000
31.119400 0.000000
31.146500 0.000000
31.173600 0.000000
31.200700 0.000000
31.227900 0.000000
31.255000 0.000000
31.282100 0.000000
31.309200 0.000000
31.336400 0.000000
31.363500 0.000000
31.390600 0.000000
31.417700 0.000000
31.444800 0.000000
31.472000 0.000000
31.499100 0.000000
31.526200 0.000000
31.553300 0.000000
31.580500 0.000000
31.607600 0.000000
31.634700 0.000000
31.661800 0.000000
31.688900 0.000000
31.716100 0.000000
31.743200 0.000000
31.770300 0.000000
31.797400 0.000000
31.824500 0.000000
31.851700 0.000000
31.878800 0.000000
31.905900 0.000000
31.933000 0.000000
31.960200 0.000000
31.987300 0.000000
32.014400 0.000000
32.041500 0.000000
32.068600 0.000000
32.095800 0.000000
32.122900 0.000000
32.150000 0.000000
32.177100 0.000000
32.204300 0.000000
32.231400 0.000000
32.258500 0.000000
32.285600 0.000000
32.312700 0.000000
32.339900 0.000000
32.367000 0.000000
32.394100 0.000000
32.421200 0.000000
32.448400 0.000000
32.475500 0.000000
32.502600 0.000000
32.529700 0.000000
e
