set title 'mp-1008501 - Density of States'
set xlabel 'Energy (eV)'
set ylabel 'DOS (states/eV)'
set grid
set xrange [-10:10]
set yrange [0:2.400]
set xzeroaxis lt -1
set terminal png size 800,600
set output 'mp-1008501_dos_gnuplot.png'
plot '-' using 1:2 with lines title 'DOS'
-104.735700 0.000000
-104.630300 0.000000
-104.524900 0.000000
-104.419500 0.000000
-104.314200 0.000000
-104.208800 0.000000
-104.103400 0.000000
-103.998100 0.000000
-103.892700 0.000000
-103.787300 0.000000
-103.681900 0.000000
-103.576600 0.000000
-103.471200 0.000000
-103.365800 0.000000
-103.260400 0.000000
-103.155100 0.000000
-103.049700 0.000000
-102.944300 0.000000
-102.839000 0.000000
-102.733600 0.000000
-102.628200 0.000000
-102.522800 0.000000
-102.417500 0.000000
-102.312100 0.000000
-102.206700 0.000000
-102.101300 0.000000
-101.996000 0.000000
-101.890600 0.000000
-101.785200 0.000000
-101.679800 0.000000
-101.574500 0.000000
-101.469100 0.000000
-101.363700 0.000000
-101.258400 0.000000
-101.153000 0.000000
-101.047600 0.000000
-100.942200 0.000000
-100.836900 0.000000
-100.731500 0.000000
-100.626100 0.000000
-100.520700 0.000000
-100.415400 0.000000
-100.310000 0.000000
-100.204600 0.000000
-100.099200 0.000000
-99.993900 0.000000
-99.888500 0.000000
-99.783100 0.000000
-99.677800 0.000000
-99.572400 0.000000
-99.467000 0.000000
-99.361600 0.000000
-99.256300 0.000000
-99.150900 0.000000
-99.045500 0.000000
-98.940100 0.000000
-98.834800 0.000000
-98.729400 0.000000
-98.624000 0.000000
-98.518700 0.000000
-98.413300 0.000000
-98.307900 0.000000
-98.202500 0.000000
-98.097200 0.000000
-97.991800 0.000000
-97.886400 0.000000
-97.781000 0.000000
-97.675700 0.000000
-97.570300 0.000000
-97.464900 0.000000
-97.359500 0.000000
-97.254200 0.000000
-97.148800 0.000000
-97.043400 0.000000
-96.938100 0.000000
-96.832700 0.000000
-96.727300 0.000000
-96.621900 0.000000
-96.516600 0.000000
-96.411200 0.000000
-96.305800 0.000000
-96.200400 0.000000
-96.095100 0.000000
-95.989700 0.000000
-95.884300 0.000000
-95.778900 0.000000
-95.673600 0.000000
-95.568200 0.000000
-95.462800 0.000000
-95.357500 0.000000
-95.252100 0.000000
-95.146700 82.493500
-95.041300 0.000000
-94.936000 0.000000
-94.830600 0.000000
-94.725200 0.000000
-94.619800 0.000000
-94.514500 0.000000
-94.409100 0.000000
-94.303700 0.000000
-94.198400 0.000000
-94.093000 0.000000
-93.987600 0.000000
-93.882200 0.000000
-93.776900 0.000000
-93.671500 0.000000
-93.566100 0.000000
-93.460700 0.000000
-93.355400 0.000000
-93.250000 0.000000
-93.144600 0.000000
-93.039200 0.000000
-92.933900 0.000000
-92.828500 0.000000
-92.723100 0.000000
-92.617800 0.000000
-92.512400 0.000000
-92.407000 0.000000
-92.301600 0.000000
-92.196300 0.000000
-92.090900 0.000000
-91.985500 0.000000
-91.880100 0.000000
-91.774800 0.000000
-91.669400 0.000000
-91.564000 0.000000
-91.458700 0.000000
-91.353300 0.000000
-91.247900 0.000000
-91.142500 0.000000
-91.037200 0.000000
-90.931800 0.000000
-90.826400 0.000000
-90.721000 0.000000
-90.615700 0.000000
-90.510300 0.000000
-90.404900 0.000000
-90.299500 0.000000
-90.194200 0.000000
-90.088800 0.000000
-89.983400 0.000000
-89.878100 0.000000
-89.772700 0.000000
-89.667300 0.000000
-89.561900 0.000000
-89.456600 0.000000
-89.351200 0.000000
-89.245800 0.000000
-89.140400 0.000000
-89.035100 0.000000
-88.929700 0.000000
-88.824300 0.000000
-88.718900 0.000000
-88.613600 0.000000
-88.508200 0.000000
-88.402800 0.000000
-88.297500 0.000000
-88.192100 0.000000
-88.086700 0.000000
-87.981300 0.000000
-87.876000 0.000000
-87.770600 0.000000
-87.665200 0.000000
-87.559800 0.000000
-87.454500 0.000000
-87.349100 0.000000
-87.243700 0.000000
-87.138400 0.000000
-87.033000 0.000000
-86.927600 0.000000
-86.822200 0.000000
-86.716900 0.000000
-86.611500 0.000000
-86.506100 0.000000
-86.400700 0.000000
-86.295400 0.000000
-86.190000 0.000000
-86.084600 0.000000
-85.979200 0.000000
-85.873900 0.000000
-85.768500 0.000000
-85.663100 0.000000
-85.557800 0.000000
-85.452400 0.000000
-85.347000 0.000000
-85.241600 0.000000
-85.136300 0.000000
-85.030900 0.000000
-84.925500 0.000000
-84.820100 0.000000
-84.714800 0.000000
-84.609400 0.000000
-84.504000 0.000000
-84.398600 0.000000
-84.293300 0.000000
-84.187900 0.000000
-84.082500 0.000000
-83.977200 0.000000
-83.871800 0.000000
-83.766400 0.000000
-83.661000 0.000000
-83.555700 0.000000
-83.450300 0.000000
-83.344900 0.000000
-83.239500 0.000000
-83.134200 0.000000
-83.028800 0.000000
-82.923400 0.000000
-82.818100 0.000000
-82.712700 0.000000
-82.607300 0.000000
-82.501900 0.000000
-82.396600 0.000000
-82.291200 0.000000
-82.185800 0.000000
-82.080400 0.000000
-81.975100 0.000000
-81.869700 0.000000
-81.764300 0.000000
-81.658900 0.000000
-81.553600 0.000000
-81.448200 0.000000
-81.342800 0.000000
-81.237500 0.000000
-81.132100 0.000000
-81.026700 0.000000
-80.921300 0.000000
-80.816000 0.000000
-80.710600 0.000000
-80.605200 0.000000
-80.499800 0.000000
-80.394500 0.000000
-80.289100 0.000000
-80.183700 0.000000
-80.078300 0.000000
-79.973000 0.000000
-79.867600 0.000000
-79.762200 0.000000
-79.656900 0.000000
-79.551500 0.000000
-79.446100 0.000000
-79.340700 0.000000
-79.235400 0.000000
-79.130000 0.000000
-79.024600 0.000000
-78.919200 0.000000
-78.813900 0.000000
-78.708500 0.000000
-78.603100 0.000000
-78.497800 0.000000
-78.392400 0.000000
-78.287000 0.000000
-78.181600 0.000000
-78.076300 0.000000
-77.970900 0.000000
-77.865500 0.000000
-77.760100 0.000000
-77.654800 0.000000
-77.549400 0.000000
-77.444000 0.000000
-77.338600 0.000000
-77.233300 0.000000
-77.127900 0.000000
-77.022500 0.000000
-76.917200 0.000000
-76.811800 0.000000
-76.706400 0.000000
-76.601000 0.000000
-76.495700 0.000000
-76.390300 0.000000
-76.284900 0.000000
-76.179500 0.000000
-76.074200 0.000000
-75.968800 0.000000
-75.863400 0.000000
-75.758100 0.000000
-75.652700 0.000000
-75.547300 0.000000
-75.441900 0.000000
-75.336600 0.000000
-75.231200 0.000000
-75.125800 0.000000
-75.020400 0.000000
-74.915100 0.000000
-74.809700 0.000000
-74.704300 0.000000
-74.598900 0.000000
-74.493600 0.000000
-74.388200 0.000000
-74.282800 0.000000
-74.177500 0.000000
-74.072100 0.000000
-73.966700 0.000000
-73.861300 0.000000
-73.756000 0.000000
-73.650600 0.000000
-73.545200 0.000000
-73.439800 0.000000
-73.334500 0.000000
-73.229100 0.000000
-73.123700 0.000000
-73.018300 0.000000
-72.913000 0.000000
-72.807600 0.000000
-72.702200 0.000000
-72.596900 0.000000
-72.491500 0.000000
-72.386100 0.000000
-72.280700 0.000000
-72.175400 0.000000
-72.070000 0.000000
-71.964600 0.000000
-71.859200 0.000000
-71.753900 0.000000
-71.648500 0.000000
-71.543100 0.000000
-71.437800 0.000000
-71.332400 0.000000
-71.227000 0.000000
-71.121600 0.000000
-71.016300 0.000000
-70.910900 0.000000
-70.805500 0.000000
-70.700100 0.000000
-70.594800 0.000000
-70.489400 0.000000
-70.384000 0.000000
-70.278600 0.000000
-70.173300 0.000000
-70.067900 0.000000
-69.962500 0.000000
-69.857200 0.000000
-69.751800 0.000000
-69.646400 0.000000
-69.541000 0.000000
-69.435700 0.000000
-69.330300 0.000000
-69.224900 0.000000
-69.119500 0.000000
-69.014200 0.000000
-68.908800 0.000000
-68.803400 0.000000
-68.698000 0.000000
-68.592700 0.000000
-68.487300 0.000000
-68.381900 0.000000
-68.276600 0.000000
-68.171200 0.000000
-68.065800 0.000000
-67.960400 0.000000
-67.855100 0.000000
-67.749700 0.000000
-67.644300 0.000000
-67.538900 0.000000
-67.433600 0.000000
-67.328200 0.000000
-67.222800 0.000000
-67.117500 0.000000
-67.012100 0.000000
-66.906700 0.000000
-66.801300 0.000000
-66.696000 0.000000
-66.590600 0.000000
-66.485200 0.000000
-66.379800 0.000000
-66.274500 0.000000
-66.169100 0.000000
-66.063700 0.000000
-65.958300 0.000000
-65.853000 0.000000
-65.747600 0.000000
-65.642200 0.000000
-65.536900 0.000000
-65.431500 0.000000
-65.326100 0.000000
-65.220700 0.000000
-65.115400 0.000000
-65.010000 0.000000
-64.904600 0.000000
-64.799200 0.000000
-64.693900 0.000000
-64.588500 0.000000
-64.483100 0.000000
-64.377700 0.000000
-64.272400 0.000000
-64.167000 0.000000
-64.061600 0.000000
-63.956300 0.000000
-63.850900 0.000000
-63.745500 0.000000
-63.640100 0.000000
-63.534800 0.000000
-63.429400 0.000000
-63.324000 0.000000
-63.218600 0.000000
-63.113300 0.000000
-63.007900 0.000000
-62.902500 0.000000
-62.797200 0.000000
-62.691800 0.000000
-62.586400 0.000000
-62.481000 0.000000
-62.375700 0.000000
-62.270300 0.000000
-62.164900 0.000000
-62.059500 0.000000
-61.954200 0.000000
-61.848800 0.000000
-61.743400 0.000000
-61.638000 0.000000
-61.532700 0.000000
-61.427300 0.000000
-61.321900 0.000000
-61.216600 0.000000
-61.111200 0.000000
-61.005800 0.000000
-60.900400 0.000000
-60.795100 0.000000
-60.689700 0.000000
-60.584300 0.000000
-60.478900 0.000000
-60.373600 0.000000
-60.268200 0.000000
-60.162800 0.000000
-60.057500 0.000000
-59.952100 0.000000
-59.846700 0.000000
-59.741300 0.000000
-59.636000 0.000000
-59.530600 0.000000
-59.425200 0.000000
-59.319800 0.000000
-59.214500 0.000000
-59.109100 0.000000
-59.003700 0.000000
-58.898300 0.000000
-58.793000 0.000000
-58.687600 0.000000
-58.582200 0.000000
-58.476900 0.000000
-58.371500 0.000000
-58.266100 0.000000
-58.160700 0.000000
-58.055400 0.000000
-57.950000 0.000000
-57.844600 0.000000
-57.739200 0.000000
-57.633900 0.000000
-57.528500 0.000000
-57.423100 0.000000
-57.317700 0.000000
-57.212400 0.000000
-57.107000 0.000000
-57.001600 0.000000
-56.896300 0.000000
-56.790900 0.000000
-56.685500 0.000000
-56.580100 0.000000
-56.474800 0.000000
-56.369400 0.000000
-56.264000 0.000000
-56.158600 0.000000
-56.053300 0.000000
-55.947900 0.000000
-55.842500 0.000000
-55.737200 0.000000
-55.631800 0.000000
-55.526400 0.000000
-55.421000 0.000000
-55.315700 0.000000
-55.210300 0.000000
-55.104900 0.000000
-54.999500 0.000000
-54.894200 0.000000
-54.788800 0.000000
-54.683400 0.000000
-54.578000 0.000000
-54.472700 0.000000
-54.367300 0.000000
-54.261900 0.000000
-54.156600 0.000000
-54.051200 0.000000
-53.945800 0.000000
-53.840400 0.000000
-53.735100 0.000000
-53.629700 0.000000
-53.524300 0.000000
-53.418900 0.000000
-53.313600 0.000000
-53.208200 0.000000
-53.102800 0.000000
-52.997400 0.000000
-52.892100 0.000000
-52.786700 0.000000
-52.681300 0.000000
-52.576000 0.000000
-52.470600 0.000000
-52.365200 0.000000
-52.259800 0.000000
-52.154500 0.000000
-52.049100 0.000000
-51.943700 0.000000
-51.838300 0.000000
-51.733000 0.000000
-51.627600 0.000000
-51.522200 0.000000
-51.416900 0.000000
-51.311500 0.000000
-51.206100 0.000000
-51.100700 0.000000
-50.995400 0.000000
-50.890000 0.000000
-50.784600 0.000000
-50.679200 0.000000
-50.573900 0.000000
-50.468500 0.000000
-50.363100 0.000000
-50.257700 0.000000
-50.152400 0.000000
-50.047000 0.000000
-49.941600 0.000000
-49.836300 0.000000
-49.730900 0.000000
-49.625500 0.000000
-49.520100 0.000000
-49.414800 0.000000
-49.309400 0.000000
-49.204000 0.000000
-49.098600 0.000000
-48.993300 0.000000
-48.887900 0.000000
-48.782500 0.000000
-48.677100 0.000000
-48.571800 0.000000
-48.466400 0.000000
-48.361000 0.000000
-48.255700 0.000000
-48.150300 0.000000
-48.044900 0.000000
-47.939500 0.000000
-47.834200 0.000000
-47.728800 0.000000
-47.623400 0.000000
-47.518000 0.000000
-47.412700 0.000000
-47.307300 0.000000
-47.201900 0.000000
-47.096600 0.000000
-46.991200 0.000000
-46.885800 0.000000
-46.780400 0.000000
-46.675100 0.000000
-46.569700 0.000000
-46.464300 0.000000
-46.358900 0.000000
-46.253600 0.000000
-46.148200 0.000000
-46.042800 0.000000
-45.937400 0.000000
-45.832100 0.000000
-45.726700 0.000000
-45.621300 0.000000
-45.516000 0.000000
-45.410600 0.000000
-45.305200 0.000000
-45.199800 0.000000
-45.094500 0.000000
-44.989100 0.000000
-44.883700 0.000000
-44.778300 0.000000
-44.673000 0.000000
-44.567600 0.000000
-44.462200 0.000000
-44.356900 0.000000
-44.251500 0.000000
-44.146100 0.000000
-44.040700 0.000000
-43.935400 0.000000
-43.830000 0.000000
-43.724600 0.000000
-43.619200 0.000000
-43.513900 0.000000
-43.408500 0.000000
-43.303100 0.000000
-43.197700 0.000000
-43.092400 0.000000
-42.987000 0.000000
-42.881600 0.000000
-42.776300 0.000000
-42.670900 0.000000
-42.565500 0.000000
-42.460100 0.000000
-42.354800 0.000000
-42.249400 0.000000
-42.144000 0.000000
-42.038600 0.000000
-41.933300 0.000000
-41.827900 0.000000
-41.722500 0.000000
-41.617100 0.000000
-41.511800 0.000000
-41.406400 0.000000
-41.301000 0.000000
-41.195700 0.000000
-41.090300 0.000000
-40.984900 0.000000
-40.879500 0.000000
-40.774200 0.000000
-40.668800 0.000000
-40.563400 0.000000
-40.458000 0.000000
-40.352700 0.000000
-40.247300 0.000000
-40.141900 0.000000
-40.036600 0.000000
-39.931200 0.000000
-39.825800 0.000000
-39.720400 0.000000
-39.615100 0.000000
-39.509700 0.000000
-39.404300 0.000000
-39.298900 0.000000
-39.193600 0.000000
-39.088200 0.000000
-38.982800 0.000000
-38.877400 0.000000
-38.772100 0.000000
-38.666700 0.000000
-38.561300 0.000000
-38.456000 0.000000
-38.350600 0.000000
-38.245200 0.000000
-38.139800 0.000000
-38.034500 0.000000
-37.929100 0.000000
-37.823700 0.000000
-37.718300 0.000000
-37.613000 0.000000
-37.507600 0.000000
-37.402200 0.000000
-37.296800 0.000000
-37.191500 0.000000
-37.086100 0.000000
-36.980700 0.000000
-36.875400 0.000000
-36.770000 0.000000
-36.664600 0.000000
-36.559200 0.000000
-36.453900 0.000000
-36.348500 0.000000
-36.243100 0.000000
-36.137700 0.000000
-36.032400 0.000000
-35.927000 0.000000
-35.821600 0.000000
-35.716300 0.000000
-35.610900 0.000000
-35.505500 0.000000
-35.400100 0.000000
-35.294800 0.000000
-35.189400 0.000000
-35.084000 0.000000
-34.978600 0.000000
-34.873300 0.000000
-34.767900 0.000000
-34.662500 0.000000
-34.557100 0.000000
-34.451800 0.000000
-34.346400 0.000000
-34.241000 0.000000
-34.135700 0.000000
-34.030300 0.000000
-33.924900 0.000000
-33.819500 0.000000
-33.714200 0.000000
-33.608800 0.000000
-33.503400 0.000000
-33.398000 0.000000
-33.292700 0.000000
-33.187300 0.000000
-33.081900 0.000000
-32.976500 0.000000
-32.871200 0.000000
-32.765800 0.000000
-32.660400 0.000000
-32.555100 0.000000
-32.449700 0.000000
-32.344300 0.000000
-32.238900 0.000000
-32.133600 0.000000
-32.028200 0.000000
-31.922800 0.000000
-31.817400 0.000000
-31.712100 0.000000
-31.606700 0.000000
-31.501300 0.000000
-31.396000 0.000000
-31.290600 0.000000
-31.185200 0.000000
-31.079800 0.000000
-30.974500 0.000000
-30.869100 0.000000
-30.763700 0.000000
-30.658300 0.000000
-30.553000 0.000000
-30.447600 0.000000
-30.342200 0.000000
-30.236800 0.000000
-30.131500 0.000000
-30.026100 0.000000
-29.920700 0.000000
-29.815400 0.000000
-29.710000 0.000000
-29.604600 0.000000
-29.499200 0.000000
-29.393900 0.000000
-29.288500 0.000000
-29.183100 0.000000
-29.077700 0.000000
-28.972400 0.000000
-28.867000 0.000000
-28.761600 0.000000
-28.656300 0.000000
-28.550900 0.000000
-28.445500 0.000000
-28.340100 0.000000
-28.234800 0.000000
-28.129400 0.000000
-28.024000 0.000000
-27.918600 0.000000
-27.813300 0.000000
-27.707900 0.000000
-27.602500 0.000000
-27.497100 0.000000
-27.391800 0.000000
-27.286400 0.000000
-27.181000 0.000000
-27.075700 0.000000
-26.970300 0.000000
-26.864900 0.000000
-26.759500 0.000000
-26.654200 0.000000
-26.548800 0.000000
-26.443400 0.000000
-26.338000 0.000000
-26.232700 0.000000
-26.127300 0.000000
-26.021900 0.000000
-25.916500 0.000000
-25.811200 0.000000
-25.705800 0.000000
-25.600400 0.000000
-25.495100 0.000000
-25.389700 0.000000
-25.284300 0.000000
-25.178900 0.000000
-25.073600 0.000000
-24.968200 0.000000
-24.862800 0.000000
-24.757400 0.000000
-24.652100 0.000000
-24.546700 0.000000
-24.441300 0.000000
-24.336000 0.000000
-24.230600 0.000000
-24.125200 0.000000
-24.019800 0.000000
-23.914500 0.000000
-23.809100 0.000000
-23.703700 0.000000
-23.598300 0.000000
-23.493000 0.000000
-23.387600 0.000000
-23.282200 0.000000
-23.176800 0.000000
-23.071500 0.000000
-22.966100 0.000000
-22.860700 0.000000
-22.755400 0.000000
-22.650000 0.000000
-22.544600 0.000000
-22.439200 0.000000
-22.333900 0.000000
-22.228500 0.000000
-22.123100 0.000000
-22.017700 0.000000
-21.912400 0.000000
-21.807000 0.000000
-21.701600 0.000000
-21.596200 0.000000
-21.490900 0.000000
-21.385500 0.000000
-21.280100 0.000000
-21.174800 0.000000
-21.069400 0.000000
-20.964000 0.000000
-20.858600 0.000000
-20.753300 0.000000
-20.647900 0.000000
-20.542500 0.000000
-20.437100 0.000000
-20.331800 0.000000
-20.226400 0.000000
-20.121000 0.000000
-20.015700 0.000000
-19.910300 0.000000
-19.804900 0.000000
-19.699500 0.000000
-19.594200 0.000000
-19.488800 0.000000
-19.383400 0.000000
-19.278000 0.000000
-19.172700 0.000000
-19.067300 0.000000
-18.961900 0.000000
-18.856500 0.000000
-18.751200 0.000000
-18.645800 0.000000
-18.540400 0.000000
-18.435100 0.000000
-18.329700 0.000000
-18.224300 0.000000
-18.118900 0.000000
-18.013600 0.000000
-17.908200 0.000000
-17.802800 0.000000
-17.697400 0.000000
-17.592100 0.000000
-17.486700 0.000000
-17.381300 0.000000
-17.275900 0.000000
-17.170600 0.000000
-17.065200 0.000000
-16.959800 0.000000
-16.854500 0.000000
-16.749100 0.000000
-16.643700 0.000000
-16.538300 0.000000
-16.433000 0.000000
-16.327600 0.000000
-16.222200 0.000000
-16.116800 0.000000
-16.011500 0.000000
-15.906100 0.000000
-15.800700 0.000000
-15.695400 0.000000
-15.590000 0.000000
-15.484600 0.000000
-15.379200 0.000000
-15.273900 0.000000
-15.168500 0.000000
-15.063100 0.000000
-14.957700 0.000000
-14.852400 0.000000
-14.747000 0.000000
-14.641600 0.000000
-14.536200 0.000000
-14.430900 0.000000
-14.325500 0.000000
-14.220100 0.000000
-14.114800 0.000000
-14.009400 0.000000
-13.904000 0.000000
-13.798600 0.000000
-13.693300 0.000000
-13.587900 0.000000
-13.482500 0.000000
-13.377100 0.000000
-13.271800 0.000000
-13.166400 0.000000
-13.061000 0.000000
-12.955700 0.000000
-12.850300 0.000000
-12.744900 0.000000
-12.639500 0.000000
-12.534200 0.000000
-12.428800 0.000000
-12.323400 0.000000
-12.218000 0.000000
-12.112700 0.000000
-12.007300 0.000000
-11.901900 0.000000
-11.796500 0.000000
-11.691200 0.000000
-11.585800 0.000000
-11.480400 0.000000
-11.375100 0.000000
-11.269700 0.000000
-11.164300 0.000000
-11.058900 0.000000
-10.953600 0.000000
-10.848200 0.000000
-10.742800 0.000000
-10.637400 0.000000
-10.532100 0.000000
-10.426700 0.000000
-10.321300 0.000000
-10.215900 0.000000
-10.110600 0.000000
-10.005200 0.000000
-9.899800 0.000000
-9.794500 0.000000
-9.689100 0.000000
-9.583700 0.000000
-9.478300 0.000000
-9.373000 0.000000
-9.267600 0.000000
-9.162200 0.000000
-9.056800 0.000000
-8.951500 0.000000
-8.846100 0.000000
-8.740700 0.000000
-8.635400 0.000000
-8.530000 0.000000
-8.424600 0.000000
-8.319200 0.000000
-8.213900 0.000000
-8.108500 0.000000
-8.003100 0.000000
-7.897700 0.000000
-7.792400 0.000000
-7.687000 0.000000
-7.581600 0.000000
-7.476200 0.000000
-7.370900 0.000000
-7.265500 0.000000
-7.160100 0.000000
-7.054800 0.000000
-6.949400 0.000000
-6.844000 0.000000
-6.738600 0.000000
-6.633300 0.000000
-6.527900 0.000000
-6.422500 0.000000
-6.317100 0.039900
-6.211800 0.117300
-6.106400 0.165700
-6.001000 0.200100
-5.895600 0.234900
-5.790300 0.255400
-5.684900 0.279200
-5.579500 0.306500
-5.474200 0.321800
-5.368800 0.339300
-5.263400 0.359800
-5.158000 0.379400
-5.052700 0.393100
-4.947300 0.407300
-4.841900 0.422900
-4.736500 0.439100
-4.631200 0.531000
-4.525800 0.508600
-4.420400 0.486600
-4.315100 0.478900
-4.209700 0.463200
-4.104300 0.452400
-3.998900 0.526200
-3.893600 0.551600
-3.788200 0.549600
-3.682800 0.567500
-3.577400 0.576500
-3.472100 0.587900
-3.366700 0.601900
-3.261300 0.610800
-3.155900 0.620800
-3.050600 0.632800
-2.945200 0.661500
-2.839800 0.658500
-2.734500 0.666800
-2.629100 0.679400
-2.523700 0.695700
-2.418300 0.705300
-2.313000 0.731700
-2.207600 0.710600
-2.102200 0.722800
-1.996800 0.728900
-1.891500 0.730100
-1.786100 0.739300
-1.680700 0.770800
-1.575400 0.794100
-1.470000 0.848100
-1.364600 0.839100
-1.259200 0.829800
-1.153900 0.842400
-1.048500 0.850600
-0.943100 0.865700
-0.837700 0.861500
-0.732400 0.861400
-0.627000 0.862500
-0.521600 0.887900
-0.416200 0.929200
-0.310900 0.968700
-0.205500 0.978500
-0.100100 0.987900
0.005200 1.017500
0.110600 1.063400
0.216000 1.138300
0.321400 1.440300
0.426700 1.225200
0.532100 1.167300
0.637500 1.124700
0.742900 1.102300
0.848200 1.037200
0.953600 0.912300
1.059000 0.820900
1.164400 0.796800
1.269700 0.802200
1.375100 0.907000
1.480500 1.072200
1.585800 1.139900
1.691200 1.117300
1.796600 1.175300
1.902000 1.104600
2.007300 1.035600
2.112700 0.988900
2.218100 0.968300
2.323500 0.961000
2.428800 0.996800
2.534200 0.932000
2.639600 0.894000
2.744900 0.891000
2.850300 0.855300
2.955700 0.810700
3.061100 0.775900
3.166400 0.752300
3.271800 0.726200
3.377200 0.710600
3.482600 0.699300
3.587900 0.822700
3.693300 0.769700
3.798700 0.821300
3.904100 0.842000
4.009400 0.681500
4.114800 0.590900
4.220200 0.553200
4.325500 0.484200
4.430900 0.438900
4.536300 0.386100
4.641700 0.377100
4.747000 0.339700
4.852400 0.227600
4.957800 0.219000
5.063200 0.255700
5.168500 0.290100
5.273900 0.325800
5.379300 0.358800
5.484700 0.388700
5.590000 0.402100
5.695400 0.424600
5.800800 0.472500
5.906100 0.531500
6.011500 0.583500
6.116900 0.642500
6.222300 0.739900
6.327600 1.161500
6.433000 1.293500
6.538400 1.116500
6.643800 2.181800
6.749100 1.668100
6.854500 1.428600
6.959900 1.250500
7.065200 1.148100
7.170600 1.117800
7.276000 1.140600
7.381400 1.164300
7.486700 1.170500
7.592100 1.209000
7.697500 1.293700
7.802900 1.350600
7.908200 1.335000
8.013600 1.199300
8.119000 1.030000
8.224400 0.977500
8.329700 0.946200
8.435100 0.901600
8.540500 0.822700
8.645800 0.798300
8.751200 0.806300
8.856600 0.868200
8.962000 0.940200
9.067300 0.945900
9.172700 0.954000
9.278100 0.976500
9.383500 0.997200
9.488800 1.093000
9.594200 1.260300
9.699600 1.227500
9.805000 1.125800
9.910300 1.015400
10.015700 0.894800
10.121100 0.875700
10.226400 0.872000
10.331800 0.872700
10.437200 0.900700
10.542600 0.969700
10.647900 1.048100
10.753300 1.116300
10.858700 1.196500
10.964100 1.529100
11.069400 1.555900
11.174800 1.631300
11.280200 1.841200
11.385500 1.527000
11.490900 1.356900
11.596300 1.191400
11.701700 1.179900
11.807000 1.179800
11.912400 1.242300
12.017800 1.338600
12.123200 1.342100
12.228500 1.309000
12.333900 1.270400
12.439300 1.198300
12.544700 1.144700
12.650000 1.097200
12.755400 1.095200
12.860800 1.116900
12.966100 1.222300
13.071500 1.233100
13.176900 1.246800
13.282300 1.222600
13.387600 1.235300
13.493000 1.263700
13.598400 1.311200
13.703800 1.161800
13.809100 1.118900
13.914500 1.108200
14.019900 1.151000
14.125200 1.226600
14.230600 1.264400
14.336000 1.245700
14.441400 1.276700
14.546700 1.254500
14.652100 1.352700
14.757500 1.412300
14.862900 1.372200
14.968200 1.435900
15.073600 1.316500
15.179000 1.194100
15.284400 1.167200
15.389700 1.154300
15.495100 1.150500
15.600500 1.166300
15.705800 1.193200
15.811200 1.230200
15.916600 1.252700
16.022000 1.220500
16.127300 1.254600
16.232700 1.352500
16.338100 1.277000
16.443500 1.148300
16.548800 1.231800
16.654200 1.434700
16.759600 1.714100
16.865000 1.839800
16.970300 1.812200
17.075700 1.739400
17.181100 1.713300
17.286400 1.682900
17.391800 1.638000
17.497200 1.624500
17.602600 1.664600
17.707900 1.685800
17.813300 1.729900
17.918700 1.735300
18.024100 1.608900
18.129400 1.561500
18.234800 1.626000
18.340200 1.586100
18.445500 1.521200
18.550900 1.546500
18.656300 1.631200
18.761700 1.751100
18.867000 1.923700
18.972400 1.759200
19.077800 1.769700
19.183200 1.778900
19.288500 1.866300
19.393900 1.777900
19.499300 1.802400
19.604700 1.817500
19.710000 1.828800
19.815400 1.823900
19.920800 1.855100
20.026100 1.869700
20.131500 1.886100
20.236900 1.929000
20.342300 2.057600
20.447600 2.119800
20.553000 2.239400
20.658400 2.344300
20.763800 2.217900
20.869100 2.092100
20.974500 2.053800
21.079900 2.064100
21.185300 2.135200
21.290600 1.974800
21.396000 1.762800
21.501400 1.638200
21.606700 1.813500
21.712100 1.623800
21.817500 1.151400
21.922900 1.066200
22.028200 1.028300
22.133600 0.995000
22.239000 0.982900
22.344400 0.975200
22.449700 0.977300
22.555100 1.029200
22.660500 1.030300
22.765800 0.990100
22.871200 0.929900
22.976600 0.903200
23.082000 0.882900
23.187300 0.952700
23.292700 0.840300
23.398100 0.820900
23.503500 0.781800
23.608800 0.767500
23.714200 0.757900
23.819600 0.766800
23.925000 0.738100
24.030300 0.668400
24.135700 0.553700
24.241100 0.492200
24.346400 0.525700
24.451800 0.407900
24.557200 0.470600
24.662600 0.562200
24.767900 0.693400
24.873300 0.827100
24.978700 0.942200
25.084100 0.911700
25.189400 0.852000
25.294800 0.832000
25.400200 0.898500
25.505600 0.938200
25.610900 1.007200
25.716300 1.148000
25.821700 1.257200
25.927000 1.307900
26.032400 1.201300
26.137800 1.030700
26.243200 0.951400
26.348500 0.910600
26.453900 0.973000
26.559300 1.056800
26.664700 1.050800
26.770000 1.082400
26.875400 1.082100
26.980800 1.034800
27.086100 1.022200
27.191500 0.999700
27.296900 0.989300
27.402300 0.998800
27.507600 1.013600
27.613000 1.105200
27.718400 1.123300
27.823800 1.091100
27.929100 1.165800
28.034500 1.276600
28.139900 1.381900
28.245300 1.444700
28.350600 1.445500
28.456000 1.450500
28.561400 1.468700
28.666700 1.620100
28.772100 1.927200
28.877500 1.831200
28.982900 1.773600
29.088200 1.741100
29.193600 1.907100
29.299000 1.839000
29.404400 1.672300
29.509700 1.437500
29.615100 1.425000
29.720500 1.625300
29.825800 1.548300
29.931200 1.514400
30.036600 1.489600
30.142000 1.449800
30.247300 1.398900
30.352700 1.349100
30.458100 1.360600
30.563500 1.419900
30.668800 1.413700
30.774200 1.387300
30.879600 1.345000
30.985000 1.337200
31.090300 1.344400
31.195700 1.387800
31.301100 1.366000
31.406400 1.344100
31.511800 1.313600
31.617200 1.318600
31.722600 1.359700
31.827900 1.424500
31.933300 1.508400
32.038700 1.530900
32.144100 1.453000
32.249400 1.361400
32.354800 1.315900
32.460200 1.253200
32.565600 1.232700
32.670900 1.268200
32.776300 1.232500
32.881700 1.268000
32.987000 1.351200
33.092400 1.418500
33.197800 1.552800
33.303200 1.565400
33.408500 1.571400
33.513900 1.514200
33.619300 1.477300
33.724700 1.478700
33.830000 1.479000
33.935400 1.529900
34.040800 1.646900
34.146100 1.664500
34.251500 1.628900
34.356900 1.477300
34.462300 1.452000
34.567600 1.459100
34.673000 1.432500
34.778400 1.391700
34.883800 1.334500
34.989100 1.286100
35.094500 1.307400
35.199900 1.256000
35.305300 1.279600
35.410600 1.341400
35.516000 1.348300
35.621400 1.410100
35.726700 1.423200
35.832100 1.455900
35.937500 1.382000
36.042900 1.317700
36.148200 1.374700
36.253600 1.487300
36.359000 1.361800
36.464400 1.388200
36.569700 1.476100
36.675100 1.543700
36.780500 1.541200
36.885900 1.578300
36.991200 1.631100
37.096600 1.741200
37.202000 1.810400
37.307300 1.767300
37.412700 1.738600
37.518100 1.620400
37.623500 1.540600
37.728800 1.517800
37.834200 1.529400
37.939600 1.501200
38.045000 1.499000
38.150300 1.516900
38.255700 1.569700
38.361100 1.528700
38.466400 1.451400
38.571800 1.311000
38.677200 1.281500
38.782600 1.377200
38.887900 1.613700
38.993300 1.826300
39.098700 1.688900
39.204100 1.519200
39.309400 1.509400
39.414800 1.328600
39.520200 1.305300
39.625600 1.451400
39.730900 1.578700
39.836300 1.557600
39.941700 1.574500
40.047000 1.645300
40.152400 1.789500
40.257800 1.873300
40.363200 1.867500
40.468500 1.716500
40.573900 1.711600
40.679300 1.552000
40.784700 1.474300
40.890000 1.411400
40.995400 1.434800
41.100800 1.443200
41.206200 1.345600
41.311500 1.334700
41.416900 1.418300
41.522300 1.580200
41.627600 1.666400
41.733000 1.729200
41.838400 1.738900
41.943800 1.755100
42.049100 1.745900
42.154500 1.735500
42.259900 1.838800
42.365300 1.947800
42.470600 1.699000
42.576000 1.692100
42.681400 1.622400
42.786700 1.576000
42.892100 1.502500
42.997500 1.548600
43.102900 1.560600
43.208200 1.533100
43.313600 1.560900
43.419000 1.522200
43.524400 1.556900
43.629700 1.677800
43.735100 1.740900
43.840500 1.756200
43.945900 1.672900
44.051200 1.614100
44.156600 1.619500
44.262000 1.653500
44.367300 1.735400
44.472700 1.788200
44.578100 1.837900
44.683500 1.941400
44.788800 2.026400
44.894200 1.977600
44.999600 1.986100
45.105000 1.976500
45.210300 1.963400
45.315700 1.837600
45.421100 1.729100
45.526400 1.743200
45.631800 1.691300
45.737200 1.598800
45.842600 1.541000
45.947900 1.481500
46.053300 1.423200
46.158700 1.390700
46.264100 1.506400
46.369400 1.543700
46.474800 1.595600
46.580200 1.550100
46.685600 1.462000
46.790900 1.429800
46.896300 1.473600
47.001700 1.560600
47.107000 1.577700
47.212400 1.515700
47.317800 1.612000
47.423200 1.691500
47.528500 1.704500
47.633900 1.636100
47.739300 1.587900
47.844700 1.551100
47.950000 1.588000
48.055400 1.601900
48.160800 1.620700
48.266200 1.680200
48.371500 1.717900
48.476900 1.673100
48.582300 1.715200
48.687600 1.774400
48.793000 1.719900
48.898400 1.681500
49.003800 1.682800
49.109100 1.589300
49.214500 1.602700
49.319900 1.614800
49.425300 1.619800
49.530600 1.634500
49.636000 1.669100
49.741400 1.832800
49.846700 1.758400
49.952100 1.756300
50.057500 1.791900
50.162900 1.905100
50.268200 2.029400
50.373600 2.062200
50.479000 1.991000
50.584400 1.874400
50.689700 1.873600
50.795100 1.924600
50.900500 1.920700
51.005900 2.002500
51.111200 2.062600
51.216600 2.116700
51.322000 2.142300
51.427300 2.040800
51.532700 1.875800
51.638100 1.755200
51.743500 1.750200
51.848800 1.777200
51.954200 1.834000
52.059600 1.900000
52.165000 1.975600
52.270300 2.011500
52.375700 2.145100
52.481100 2.229200
52.586500 2.133300
52.691800 2.169400
52.797200 2.237800
52.902600 2.086300
53.007900 1.841900
53.113300 1.741800
53.218700 1.674500
53.324100 1.731700
53.429400 1.728100
53.534800 1.848700
53.640200 1.910500
53.745600 2.005800
53.850900 1.970800
53.956300 1.879400
54.061700 1.821100
54.167000 1.796300
54.272400 1.796600
54.377800 1.742500
54.483200 1.751500
54.588500 1.748700
54.693900 1.806500
54.799300 1.911300
54.904700 1.927700
55.010000 1.802800
55.115400 1.759900
55.220800 1.790900
55.326200 1.781500
55.431500 1.755900
55.536900 1.742100
55.642300 1.761900
55.747600 1.826100
55.853000 1.784500
55.958400 1.856200
56.063800 1.967600
56.169100 1.953900
56.274500 2.003700
56.379900 1.987800
56.485300 2.069600
56.590600 2.182600
56.696000 2.129900
56.801400 2.085600
56.906800 2.078100
57.012100 2.079700
57.117500 2.141600
57.222900 2.070700
57.328200 1.980700
57.433600 1.865400
57.539000 1.884400
57.644400 1.879000
57.749700 1.736400
57.855100 1.673200
57.960500 1.691800
58.065900 1.766000
58.171200 1.718500
58.276600 1.722000
58.382000 1.743700
58.487300 1.772500
58.592700 1.716800
58.698100 1.630300
58.803500 1.685800
58.908800 1.809200
59.014200 1.744900
59.119600 1.809600
59.225000 1.903200
59.330300 1.930700
59.435700 1.986700
59.541100 2.066000
59.646500 1.937900
59.751800 1.817200
59.857200 1.719900
59.962600 1.690300
60.067900 1.745700
60.173300 1.794100
60.278700 1.782400
60.384100 1.786200
60.489400 1.857100
60.594800 1.957900
60.700200 1.852800
60.805600 1.846400
60.910900 1.874200
61.016300 1.869600
61.121700 1.833400
61.227000 1.855700
61.332400 1.885500
61.437800 1.924200
61.543200 1.910400
61.648500 1.899700
61.753900 1.841400
61.859300 1.818700
61.964700 1.850500
62.070000 1.803300
62.175400 1.784200
62.280800 1.686600
62.386200 1.670300
62.491500 1.683100
62.596900 1.623000
62.702300 1.587700
62.807600 1.591800
62.913000 1.606300
63.018400 1.644900
63.123800 1.705000
63.229100 1.801500
63.334500 1.744800
63.439900 1.773200
63.545300 1.781700
63.650600 1.587000
63.756000 1.486700
63.861400 1.486900
63.966800 1.496800
64.072100 1.566500
64.177500 1.745700
64.282900 1.882500
64.388200 2.027600
64.493600 2.133200
64.599000 2.071600
64.704400 1.900400
64.809700 1.875100
64.915100 1.830500
65.020500 1.798900
65.125900 1.783600
65.231200 1.921000
65.336600 2.026000
65.442000 1.930200
65.547300 1.827500
65.652700 1.766900
65.758100 1.753600
65.863500 1.688800
65.968800 1.649200
66.074200 1.632900
66.179600 1.606000
66.285000 1.699800
66.390300 1.753200
66.495700 1.818800
66.601100 1.808200
66.706500 1.935700
66.811800 2.023500
66.917200 2.158000
67.022600 2.063000
67.127900 1.992200
67.233300 1.872900
67.338700 1.860300
67.444100 1.974400
67.549400 2.204500
67.654800 2.122200
67.760200 2.151500
67.865600 2.127400
67.970900 2.006000
68.076300 1.924400
68.181700 1.855700
68.287100 1.887600
68.392400 1.902500
68.497800 1.923000
68.603200 1.913900
68.708500 1.979200
68.813900 2.043200
68.919300 2.091000
69.024700 2.079100
69.130000 2.089500
69.235400 2.064000
69.340800 2.068400
69.446200 2.184100
69.551500 2.198100
69.656900 2.109600
69.762300 2.009200
69.867600 1.929900
69.973000 1.984000
70.078400 1.933200
70.183800 2.007900
70.289100 1.994100
70.394500 1.917700
70.499900 1.942900
70.605300 1.844600
70.710600 1.770000
70.816000 1.836700
70.921400 1.926300
71.026800 2.091500
71.132100 2.208600
71.237500 2.165900
71.342900 2.136000
71.448200 2.068400
71.553600 1.998400
71.659000 2.035500
71.764400 2.236700
71.869700 2.137800
71.975100 1.995200
72.080500 1.985000
72.185900 1.899900
72.291200 2.303500
72.396600 2.026600
72.502000 2.103500
72.607400 2.018400
72.712700 2.069400
72.818100 2.045700
72.923500 2.013600
73.028800 1.990100
73.134200 1.989000
73.239600 1.994200
73.345000 2.001200
73.450300 2.028900
73.555700 2.140600
73.661100 2.144300
73.766500 2.038800
73.871800 1.916400
73.977200 1.837400
74.082600 1.816200
74.187900 1.833000
74.293300 1.929800
74.398700 1.962000
74.504100 1.981900
74.609400 2.071100
74.714800 2.152800
74.820200 2.129800
74.925600 2.111400
75.030900 2.044000
75.136300 2.056400
75.241700 2.076300
75.347100 2.164400
75.452400 2.138800
75.557800 2.139000
75.663200 2.000000
75.768500 1.940100
75.873900 1.902800
75.979300 2.020500
76.084700 2.064500
76.190000 2.106800
76.295400 2.028700
76.400800 2.062600
76.506200 2.036600
76.611500 2.001600
76.716900 1.980100
76.822300 1.994900
76.927600 2.079500
77.033000 2.074100
77.138400 2.088100
77.243800 1.949400
77.349100 1.906500
77.454500 1.851200
77.559900 1.904000
77.665300 1.975500
77.770600 1.949900
77.876000 1.989200
77.981400 2.044000
78.086800 1.984700
78.192100 1.900600
78.297500 1.871500
78.402900 1.865700
78.508200 1.828100
78.613600 1.832400
78.719000 1.862300
78.824400 1.897800
78.929700 1.978600
79.035100 2.003900
79.140500 2.103200
79.245900 2.125500
79.351200 2.099200
79.456600 2.133200
79.562000 2.087700
79.667400 2.168700
79.772700 2.091600
79.878100 1.980000
79.983500 1.975500
80.088800 2.080200
80.194200 2.092000
80.299600 2.059100
80.405000 2.033000
80.510300 2.075100
80.615700 2.038000
80.721100 2.026600
80.826500 2.045400
80.931800 2.127400
81.037200 2.134100
81.142600 2.142900
81.247900 2.229300
81.353300 2.341500
81.458700 2.349000
81.564100 2.179400
81.669400 2.136300
81.774800 2.112800
81.880200 2.166900
81.985600 2.194800
82.090900 2.120100
82.196300 2.107300
82.301700 2.102400
82.407100 2.057500
82.512400 2.100400
82.617800 2.057000
82.723200 2.030400
82.828500 2.056400
82.933900 2.129300
83.039300 2.174900
83.144700 2.247200
83.250000 2.288800
83.355400 2.315500
83.460800 2.244100
83.566200 2.261000
83.671500 2.175800
83.776900 2.183400
83.882300 2.088900
83.987700 2.133000
84.093000 2.232400
84.198400 2.298300
84.303800 2.301000
84.409100 2.235200
84.514500 2.186400
84.619900 2.257500
84.725300 2.247500
84.830600 2.208100
84.936000 2.170700
85.041400 2.179600
85.146800 2.139700
85.252100 2.061300
85.357500 1.958100
85.462900 1.928800
85.568200 1.922600
85.673600 1.946700
85.779000 1.955400
85.884400 1.974100
85.989700 2.054600
86.095100 2.086800
86.200500 2.104800
86.305900 2.155700
86.411200 2.182600
86.516600 2.181200
86.622000 2.128300
86.727400 2.105000
86.832700 2.190300
86.938100 2.169100
87.043500 2.165600
87.148800 2.140500
87.254200 2.149600
87.359600 2.179800
87.465000 2.220000
87.570300 2.174000
87.675700 2.126900
87.781100 2.046900
87.886500 2.037400
87.991800 1.903700
88.097200 1.908600
88.202600 1.946300
88.307900 1.933400
88.413300 1.906700
88.518700 1.894400
88.624100 1.904100
88.729400 1.956400
88.834800 1.927900
88.940200 1.789900
89.045600 1.794900
89.150900 1.847100
89.256300 1.870500
89.361700 1.856900
89.467100 1.802200
89.572400 1.773700
89.677800 1.714000
89.783200 1.774900
89.888500 1.792300
89.993900 1.704900
90.099300 1.592700
90.204700 1.543000
90.310000 1.437300
90.415400 1.358800
90.520800 1.301700
90.626200 1.228000
90.731500 1.204600
90.836900 1.165500
90.942300 1.110900
91.047700 1.042100
91.153000 1.021300
91.258400 1.003800
91.363800 0.986800
91.469100 0.971600
91.574500 0.931500
91.679900 0.874200
91.785300 0.811300
91.890600 0.774700
91.996000 0.742900
92.101400 0.726900
92.206800 0.694800
92.312100 0.612900
92.417500 0.537200
92.522900 0.489100
92.628200 0.470200
92.733600 0.395900
92.839000 0.342400
92.944400 0.320200
93.049700 0.299400
93.155100 0.290400
93.260500 0.284400
93.365900 0.283300
93.471200 0.292700
93.576600 0.320400
93.682000 0.248400
93.787400 0.200800
93.892700 0.161600
93.998100 0.145800
94.103500 0.128400
94.208800 0.111500
94.314200 0.101700
94.419600 0.085200
94.525000 0.075600
94.630300 0.069100
94.735700 0.058800
94.841100 0.041200
94.946500 0.032300
95.051800 0.026100
95.157200 0.021700
95.262600 0.018200
95.368000 0.014200
95.473300 0.009100
95.578700 0.007000
95.684100 0.006000
95.789400 0.004800
95.894800 0.003700
96.000200 0.002700
96.105600 0.001800
96.210900 0.001100
96.316300 0.000500
96.421700 0.000000
96.527100 0.000000
96.632400 0.000000
96.737800 0.000000
96.843200 0.000000
96.948500 0.000000
97.053900 0.000000
97.159300 0.000000
97.264700 0.000000
97.370000 0.000000
97.475400 0.000000
97.580800 0.000000
97.686200 0.000000
97.791500 0.000000
97.896900 0.000000
98.002300 0.000000
98.107700 0.000000
98.213000 0.000000
98.318400 0.000000
98.423800 0.000000
98.529100 0.000000
98.634500 0.000000
98.739900 0.000000
98.845300 0.000000
98.950600 0.000000
99.056000 0.000000
99.161400 0.000000
99.266800 0.000000
99.372100 0.000000
99.477500 0.000000
99.582900 0.000000
99.688300 0.000000
99.793600 0.000000
99.899000 0.000000
100.004400 0.000000
100.109700 0.000000
100.215100 0.000000
100.320500 0.000000
100.425900 0.000000
100.531200 0.000000
100.636600 0.000000
100.742000 0.000000
100.847400 0.000000
100.952700 0.000000
101.058100 0.000000
101.163500 0.000000
101.268800 0.000000
101.374200 0.000000
101.479600 0.000000
101.585000 0.000000
101.690300 0.000000
101.795700 0.000000
101.901100 0.000000
102.006500 0.000000
102.111800 0.000000
102.217200 0.000000
102.322600 0.000000
102.428000 0.000000
102.533300 0.000000
102.638700 0.000000
102.744100 0.000000
102.849400 0.000000
102.954800 0.000000
103.060200 0.000000
103.165600 0.000000
103.270900 0.000000
103.376300 0.000000
103.481700 0.000000
103.587100 0.000000
103.692400 0.000000
103.797800 0.000000
103.903200 0.000000
104.008500 0.000000
104.113900 0.000000
104.219300 0.000000
104.324700 0.000000
104.430000 0.000000
104.535400 0.000000
104.640800 0.000000
104.746200 0.000000
104.851500 0.000000
104.956900 0.000000
105.062300 0.000000
105.167700 0.000000
105.273000 0.000000
105.378400 0.000000
105.483800 0.000000
105.589100 0.000000
105.694500 0.000000
105.799900 0.000000
105.905300 0.000000
106.010600 0.000000
e
