set title 'mp-1215257 - Density of States'
set xlabel 'Energy (eV)'
set ylabel 'DOS (states/eV)'
set grid
set xrange [-10:10]
set yrange [0:6.341]
set xzeroaxis lt -1
set terminal png size 800,600
set output 'mp-1215257_dos_gnuplot.png'
plot '-' using 1:2 with lines title 'DOS'
-48.205100 0.000000
-48.151400 0.000000
-48.097700 0.000000
-48.044100 0.000000
-47.990400 0.000000
-47.936800 0.000000
-47.883100 0.000000
-47.829500 0.000000
-47.775800 0.000000
-47.722100 0.000000
-47.668500 0.000000
-47.614800 0.000000
-47.561200 0.000000
-47.507500 0.000000
-47.453800 0.000000
-47.400200 0.000000
-47.346500 0.000000
-47.292900 0.000000
-47.239200 0.000000
-47.185600 0.000000
-47.131900 0.000000
-47.078200 0.000000
-47.024600 0.000000
-46.970900 0.000000
-46.917300 0.000000
-46.863600 0.000000
-46.809900 0.000000
-46.756300 0.000000
-46.702600 0.000000
-46.649000 0.000000
-46.595300 0.000000
-46.541700 0.000000
-46.488000 0.000000
-46.434300 0.000000
-46.380700 0.000000
-46.327000 0.000000
-46.273400 0.000000
-46.219700 0.000000
-46.166000 0.000000
-46.112400 0.000000
-46.058700 0.000000
-46.005100 0.000000
-45.951400 0.000000
-45.897800 0.000000
-45.844100 0.000000
-45.790400 0.000000
-45.736800 0.000000
-45.683100 0.000000
-45.629500 0.000000
-45.575800 0.000000
-45.522200 0.000000
-45.468500 0.000000
-45.414800 0.000000
-45.361200 0.000000
-45.307500 0.000000
-45.253900 0.000000
-45.200200 0.000000
-45.146500 0.000000
-45.092900 0.000000
-45.039200 0.000000
-44.985600 0.000000
-44.931900 0.000000
-44.878300 0.000000
-44.824600 0.000000
-44.770900 0.000000
-44.717300 0.000000
-44.663600 0.000000
-44.610000 0.000000
-44.556300 0.000000
-44.502600 0.000000
-44.449000 0.000000
-44.395300 0.000000
-44.341700 0.000000
-44.288000 0.000000
-44.234400 0.000000
-44.180700 0.000000
-44.127000 0.000000
-44.073400 0.000000
-44.019700 0.000000
-43.966100 0.000000
-43.912400 0.000000
-43.858700 0.000000
-43.805100 0.000000
-43.751400 0.000000
-43.697800 0.000000
-43.644100 0.000000
-43.590500 0.000000
-43.536800 0.000000
-43.483100 0.000000
-43.429500 0.000000
-43.375800 0.000000
-43.322200 10.792700
-43.268500 23.014400
-43.214800 0.000000
-43.161200 0.000000
-43.107500 0.000000
-43.053900 0.000000
-43.000200 0.000000
-42.946600 0.000000
-42.892900 0.000000
-42.839200 0.000000
-42.785600 0.000000
-42.731900 0.000000
-42.678300 0.000000
-42.624600 0.000000
-42.570900 0.000000
-42.517300 0.000000
-42.463600 0.000000
-42.410000 0.000000
-42.356300 0.000000
-42.302700 0.000000
-42.249000 0.000000
-42.195300 0.000000
-42.141700 0.000000
-42.088000 0.000000
-42.034400 0.000000
-41.980700 0.000000
-41.927100 0.000000
-41.873400 0.000000
-41.819700 0.000000
-41.766100 0.000000
-41.712400 0.000000
-41.658800 0.000000
-41.605100 0.000000
-41.551400 0.000000
-41.497800 0.000000
-41.444100 0.000000
-41.390500 0.000000
-41.336800 0.000000
-41.283200 0.000000
-41.229500 0.000000
-41.175800 0.000000
-41.122200 0.000000
-41.068500 0.000000
-41.014900 0.000000
-40.961200 0.000000
-40.907500 0.000000
-40.853900 0.000000
-40.800200 0.000000
-40.746600 0.000000
-40.692900 0.000000
-40.639300 0.000000
-40.585600 0.000000
-40.531900 32.219200
-40.478300 183.614200
-40.424600 0.000000
-40.371000 0.000000
-40.317300 0.000000
-40.263600 0.000000
-40.210000 0.000000
-40.156300 0.000000
-40.102700 0.000000
-40.049000 0.000000
-39.995400 0.000000
-39.941700 0.000000
-39.888000 0.000000
-39.834400 0.000000
-39.780700 0.000000
-39.727100 0.000000
-39.673400 0.000000
-39.619700 0.000000
-39.566100 0.000000
-39.512400 0.000000
-39.458800 0.000000
-39.405100 0.000000
-39.351500 0.000000
-39.297800 0.000000
-39.244100 0.000000
-39.190500 0.000000
-39.136800 0.000000
-39.083200 0.000000
-39.029500 0.000000
-38.975800 0.000000
-38.922200 0.000000
-38.868500 0.000000
-38.814900 0.000000
-38.761200 0.000000
-38.707600 0.000000
-38.653900 0.000000
-38.600200 0.000000
-38.546600 0.000000
-38.492900 0.000000
-38.439300 0.000000
-38.385600 0.000000
-38.332000 0.000000
-38.278300 0.000000
-38.224600 0.000000
-38.171000 0.000000
-38.117300 0.000000
-38.063700 0.000000
-38.010000 0.000000
-37.956300 0.000000
-37.902700 0.000000
-37.849000 0.000000
-37.795400 0.000000
-37.741700 0.000000
-37.688100 0.000000
-37.634400 0.000000
-37.580700 0.000000
-37.527100 0.000000
-37.473400 0.000000
-37.419800 0.000000
-37.366100 0.000000
-37.312400 0.000000
-37.258800 0.000000
-37.205100 0.000000
-37.151500 0.000000
-37.097800 0.000000
-37.044200 0.000000
-36.990500 0.000000
-36.936800 0.000000
-36.883200 0.000000
-36.829500 0.000000
-36.775900 0.000000
-36.722200 0.000000
-36.668500 0.000000
-36.614900 0.000000
-36.561200 0.000000
-36.507600 0.000000
-36.453900 0.000000
-36.400300 0.000000
-36.346600 0.000000
-36.292900 0.000000
-36.239300 0.000000
-36.185600 0.000000
-36.132000 0.000000
-36.078300 0.000000
-36.024600 0.000000
-35.971000 0.000000
-35.917300 0.000000
-35.863700 0.000000
-35.810000 0.000000
-35.756400 0.000000
-35.702700 0.000000
-35.649000 0.000000
-35.595400 0.000000
-35.541700 0.000000
-35.488100 0.000000
-35.434400 0.000000
-35.380700 0.000000
-35.327100 0.000000
-35.273400 0.000000
-35.219800 0.000000
-35.166100 0.000000
-35.112500 0.000000
-35.058800 0.000000
-35.005100 0.000000
-34.951500 0.000000
-34.897800 0.000000
-34.844200 0.000000
-34.790500 0.000000
-34.736900 0.000000
-34.683200 0.000000
-34.629500 0.000000
-34.575900 0.000000
-34.522200 0.000000
-34.468600 0.000000
-34.414900 0.000000
-34.361200 0.000000
-34.307600 0.000000
-34.253900 0.000000
-34.200300 0.000000
-34.146600 0.000000
-34.093000 0.000000
-34.039300 0.000000
-33.985600 0.000000
-33.932000 0.000000
-33.878300 0.000000
-33.824700 0.000000
-33.771000 0.000000
-33.717300 0.000000
-33.663700 0.000000
-33.610000 0.000000
-33.556400 0.000000
-33.502700 0.000000
-33.449100 0.000000
-33.395400 0.000000
-33.341700 0.000000
-33.288100 0.000000
-33.234400 0.000000
-33.180800 0.000000
-33.127100 0.000000
-33.073400 0.000000
-33.019800 0.000000
-32.966100 0.000000
-32.912500 0.000000
-32.858800 0.000000
-32.805200 0.000000
-32.751500 0.000000
-32.697800 0.000000
-32.644200 0.000000
-32.590500 0.000000
-32.536900 0.000000
-32.483200 0.000000
-32.429500 0.000000
-32.375900 0.000000
-32.322200 0.000000
-32.268600 0.000000
-32.214900 0.000000
-32.161300 0.000000
-32.107600 0.000000
-32.053900 0.000000
-32.000300 0.000000
-31.946600 0.000000
-31.893000 0.000000
-31.839300 0.000000
-31.785600 0.000000
-31.732000 0.000000
-31.678300 0.000000
-31.624700 0.000000
-31.571000 0.000000
-31.517400 0.000000
-31.463700 0.000000
-31.410000 0.000000
-31.356400 0.000000
-31.302700 0.000000
-31.249100 0.000000
-31.195400 0.000000
-31.141800 0.000000
-31.088100 0.000000
-31.034400 0.000000
-30.980800 0.000000
-30.927100 0.000000
-30.873500 0.000000
-30.819800 0.000000
-30.766100 0.000000
-30.712500 0.000000
-30.658800 0.000000
-30.605200 0.000000
-30.551500 0.000000
-30.497900 0.000000
-30.444200 0.000000
-30.390500 0.000000
-30.336900 0.000000
-30.283200 0.000000
-30.229600 0.000000
-30.175900 0.000000
-30.122200 0.000000
-30.068600 0.000000
-30.014900 0.000000
-29.961300 0.000000
-29.907600 0.000000
-29.854000 0.000000
-29.800300 0.000000
-29.746600 0.000000
-29.693000 0.000000
-29.639300 0.000000
-29.585700 0.000000
-29.532000 0.000000
-29.478300 0.000000
-29.424700 0.000000
-29.371000 0.000000
-29.317400 0.000000
-29.263700 0.000000
-29.210100 0.000000
-29.156400 0.000000
-29.102700 0.000000
-29.049100 0.000000
-28.995400 0.000000
-28.941800 0.000000
-28.888100 0.000000
-28.834400 0.000000
-28.780800 0.000000
-28.727100 0.000000
-28.673500 0.000000
-28.619800 0.000000
-28.566200 0.000000
-28.512500 0.000000
-28.458800 0.000000
-28.405200 0.000000
-28.351500 0.000000
-28.297900 0.000000
-28.244200 0.000000
-28.190500 0.000000
-28.136900 0.000000
-28.083200 0.000000
-28.029600 0.000000
-27.975900 0.000000
-27.922300 0.000000
-27.868600 0.000000
-27.814900 0.000000
-27.761300 0.000000
-27.707600 0.000000
-27.654000 0.000000
-27.600300 0.000000
-27.546700 0.000000
-27.493000 0.000000
-27.439300 0.000000
-27.385700 0.000000
-27.332000 0.000000
-27.278400 0.000000
-27.224700 0.000000
-27.171000 0.000000
-27.117400 0.000000
-27.063700 0.000000
-27.010100 0.000000
-26.956400 0.000000
-26.902800 0.000000
-26.849100 0.000000
-26.795400 0.000000
-26.741800 0.000000
-26.688100 0.000000
-26.634500 0.000000
-26.580800 0.000000
-26.527100 0.000000
-26.473500 0.000000
-26.419800 0.000000
-26.366200 0.000000
-26.312500 0.000000
-26.258900 0.000000
-26.205200 0.000000
-26.151500 0.000000
-26.097900 0.000000
-26.044200 0.000000
-25.990600 0.000000
-25.936900 0.000000
-25.883200 0.000000
-25.829600 0.000000
-25.775900 0.000000
-25.722300 0.000000
-25.668600 0.000000
-25.615000 0.000000
-25.561300 0.000000
-25.507600 0.000000
-25.454000 0.000000
-25.400300 0.000000
-25.346700 0.000000
-25.293000 0.000000
-25.239300 0.000000
-25.185700 0.000000
-25.132000 0.000000
-25.078400 0.000000
-25.024700 0.000000
-24.971100 0.000000
-24.917400 0.000000
-24.863700 0.000000
-24.810100 0.000000
-24.756400 0.000000
-24.702800 0.000000
-24.649100 0.000000
-24.595400 0.000000
-24.541800 0.000000
-24.488100 0.000000
-24.434500 0.000000
-24.380800 0.000000
-24.327200 0.000000
-24.273500 0.000000
-24.219800 0.000000
-24.166200 0.000000
-24.112500 0.000000
-24.058900 0.000000
-24.005200 0.000000
-23.951600 0.000000
-23.897900 0.000000
-23.844200 0.000000
-23.790600 0.000000
-23.736900 0.000000
-23.683300 0.000000
-23.629600 0.000000
-23.575900 0.000000
-23.522300 0.000000
-23.468600 0.000000
-23.415000 0.000000
-23.361300 0.000000
-23.307700 0.000000
-23.254000 0.000000
-23.200300 0.000000
-23.146700 0.000000
-23.093000 0.000000
-23.039400 0.000000
-22.985700 0.000000
-22.932000 0.000000
-22.878400 0.000000
-22.824700 0.000000
-22.771100 0.000000
-22.717400 0.000000
-22.663800 0.000000
-22.610100 0.000000
-22.556400 0.000000
-22.502800 0.000000
-22.449100 0.000000
-22.395500 0.000000
-22.341800 0.000000
-22.288100 0.000000
-22.234500 0.000000
-22.180800 0.000000
-22.127200 0.000000
-22.073500 0.000000
-22.019900 0.000000
-21.966200 0.000000
-21.912500 0.000000
-21.858900 0.000000
-21.805200 0.000000
-21.751600 1.772700
-21.697900 5.031000
-21.644200 2.981400
-21.590600 7.089900
-21.536900 12.221800
-21.483300 13.764600
-21.429600 10.414700
-21.376000 10.743400
-21.322300 12.703300
-21.268600 15.206000
-21.215000 5.817400
-21.161300 6.958900
-21.107700 0.093000
-21.054000 0.000000
-21.000300 0.000000
-20.946700 0.000000
-20.893000 0.000000
-20.839400 0.000000
-20.785700 0.000000
-20.732100 0.000000
-20.678400 0.000000
-20.624700 0.000000
-20.571100 0.000000
-20.517400 0.000000
-20.463800 0.000000
-20.410100 0.000000
-20.356500 0.000000
-20.302800 0.000000
-20.249100 0.000000
-20.195500 0.000000
-20.141800 0.000000
-20.088200 0.000000
-20.034500 0.000000
-19.980800 0.000000
-19.927200 0.000000
-19.873500 0.000000
-19.819900 0.000000
-19.766200 0.000000
-19.712600 0.000000
-19.658900 0.000000
-19.605200 0.000000
-19.551600 0.000000
-19.497900 0.000000
-19.444300 0.000000
-19.390600 0.000000
-19.336900 0.000000
-19.283300 0.000000
-19.229600 0.000000
-19.176000 0.000000
-19.122300 0.000000
-19.068700 0.000000
-19.015000 0.000000
-18.961300 0.000000
-18.907700 0.000000
-18.854000 0.000000
-18.800400 0.000000
-18.746700 0.000000
-18.693000 0.000000
-18.639400 0.000000
-18.585700 0.000000
-18.532100 0.000000
-18.478400 0.000000
-18.424800 0.000000
-18.371100 0.000000
-18.317400 0.000000
-18.263800 0.000000
-18.210100 0.000000
-18.156500 0.000000
-18.102800 0.000000
-18.049100 0.000000
-17.995500 0.000000
-17.941800 0.000000
-17.888200 0.000000
-17.834500 0.000000
-17.780900 0.000000
-17.727200 0.000000
-17.673500 0.000000
-17.619900 0.000000
-17.566200 0.000000
-17.512600 0.000000
-17.458900 0.000000
-17.405200 0.000000
-17.351600 0.000000
-17.297900 0.000000
-17.244300 0.000000
-17.190600 0.000000
-17.137000 0.000000
-17.083300 0.000000
-17.029600 0.000000
-16.976000 0.000000
-16.922300 0.000000
-16.868700 0.000000
-16.815000 0.000000
-16.761400 0.000000
-16.707700 0.000000
-16.654000 0.000000
-16.600400 0.000000
-16.546700 0.000000
-16.493100 0.000000
-16.439400 0.000000
-16.385700 0.000000
-16.332100 0.000000
-16.278400 0.000000
-16.224800 0.000000
-16.171100 0.000000
-16.117500 0.000000
-16.063800 0.000000
-16.010100 0.000000
-15.956500 0.000000
-15.902800 0.000000
-15.849200 0.000000
-15.795500 0.000000
-15.741800 0.000000
-15.688200 0.000000
-15.634500 0.000000
-15.580900 0.000000
-15.527200 0.000000
-15.473600 0.000000
-15.419900 0.000000
-15.366200 0.000000
-15.312600 0.000000
-15.258900 0.000000
-15.205300 0.000000
-15.151600 0.000000
-15.097900 0.000000
-15.044300 0.000000
-14.990600 0.000000
-14.937000 0.000000
-14.883300 0.000000
-14.829700 0.000000
-14.776000 0.000000
-14.722300 0.000000
-14.668700 0.000000
-14.615000 0.000000
-14.561400 0.000000
-14.507700 0.000000
-14.454000 0.000000
-14.400400 0.000000
-14.346700 0.000000
-14.293100 0.000000
-14.239400 0.000000
-14.185800 0.000000
-14.132100 0.000000
-14.078400 0.000000
-14.024800 0.000000
-13.971100 0.000000
-13.917500 0.000000
-13.863800 0.000000
-13.810100 0.000000
-13.756500 0.000000
-13.702800 0.000000
-13.649200 0.000000
-13.595500 0.000000
-13.541900 0.000000
-13.488200 0.000000
-13.434500 0.000000
-13.380900 0.000000
-13.327200 0.000000
-13.273600 0.000000
-13.219900 0.000000
-13.166300 0.000000
-13.112600 0.000000
-13.058900 0.000000
-13.005300 0.000000
-12.951600 0.000000
-12.898000 0.000000
-12.844300 0.000000
-12.790600 0.000000
-12.737000 0.000000
-12.683300 0.000000
-12.629700 0.000000
-12.576000 0.000000
-12.522400 0.000000
-12.468700 0.000000
-12.415000 0.000000
-12.361400 0.000000
-12.307700 0.000000
-12.254100 0.000000
-12.200400 0.000000
-12.146700 0.000000
-12.093100 0.000000
-12.039400 0.000000
-11.985800 0.000000
-11.932100 0.000000
-11.878500 0.000000
-11.824800 0.000000
-11.771100 0.000000
-11.717500 0.000000
-11.663800 0.000000
-11.610200 0.000000
-11.556500 0.000000
-11.502800 0.000000
-11.449200 0.000000
-11.395500 0.000000
-11.341900 0.000000
-11.288200 0.000000
-11.234600 0.000000
-11.180900 0.000000
-11.127200 0.000000
-11.073600 0.000000
-11.019900 0.000000
-10.966300 0.000000
-10.912600 0.000000
-10.858900 0.000000
-10.805300 0.000000
-10.751600 0.000000
-10.698000 0.000000
-10.644300 0.000000
-10.590700 0.000000
-10.537000 0.000000
-10.483300 0.000000
-10.429700 0.000000
-10.376000 0.000000
-10.322400 0.000000
-10.268700 0.000000
-10.215000 0.000000
-10.161400 0.000000
-10.107700 0.000000
-10.054100 0.000000
-10.000400 0.000000
-9.946800 0.000000
-9.893100 0.000000
-9.839400 0.000000
-9.785800 0.000000
-9.732100 0.000000
-9.678500 0.000000
-9.624800 0.000000
-9.571200 0.000000
-9.517500 0.000000
-9.463800 0.000000
-9.410200 0.000000
-9.356500 0.000000
-9.302900 0.000000
-9.249200 0.000000
-9.195500 0.000000
-9.141900 0.000000
-9.088200 0.000000
-9.034600 0.000000
-8.980900 0.000000
-8.927300 0.000000
-8.873600 0.000000
-8.819900 0.000000
-8.766300 0.000000
-8.712600 0.000000
-8.659000 0.000000
-8.605300 0.000000
-8.551600 0.000000
-8.498000 0.000000
-8.444300 0.000000
-8.390700 0.000000
-8.337000 0.000000
-8.283400 0.000000
-8.229700 0.000000
-8.176000 0.000000
-8.122400 0.000000
-8.068700 0.000000
-8.015100 0.000000
-7.961400 0.000000
-7.907700 0.000000
-7.854100 0.000000
-7.800400 0.000000
-7.746800 0.000000
-7.693100 0.000000
-7.639500 0.000000
-7.585800 0.000000
-7.532100 0.000000
-7.478500 0.000000
-7.424800 0.000000
-7.371200 0.000000
-7.317500 0.000000
-7.263800 0.000000
-7.210200 0.000000
-7.156500 0.000000
-7.102900 0.000000
-7.049200 0.000000
-6.995600 0.000000
-6.941900 0.000000
-6.888200 0.000000
-6.834600 0.000000
-6.780900 0.000000
-6.727300 0.000000
-6.673600 0.000000
-6.619900 0.000000
-6.566300 0.000000
-6.512600 0.000000
-6.459000 0.000000
-6.405300 0.000000
-6.351700 0.000000
-6.298000 0.000000
-6.244300 0.000000
-6.190700 0.000000
-6.137000 0.000000
-6.083400 0.000000
-6.029700 0.000000
-5.976100 0.000000
-5.922400 0.000000
-5.868700 0.000000
-5.815100 0.000000
-5.761400 0.000000
-5.707800 0.000000
-5.654100 0.000000
-5.600400 0.000000
-5.546800 0.000000
-5.493100 0.000000
-5.439500 0.000000
-5.385800 0.000000
-5.332200 0.000000
-5.278500 0.000000
-5.224800 0.000000
-5.171200 0.000000
-5.117500 0.000000
-5.063900 0.000000
-5.010200 0.000000
-4.956500 0.000000
-4.902900 0.000000
-4.849200 0.000000
-4.795600 0.000000
-4.741900 0.000000
-4.688300 0.000000
-4.634600 0.000000
-4.580900 0.000000
-4.527300 0.000000
-4.473600 0.000000
-4.420000 0.000000
-4.366300 0.000000
-4.312600 0.000000
-4.259000 0.000000
-4.205300 0.000000
-4.151700 0.000000
-4.098000 0.000000
-4.044400 0.000000
-3.990700 0.000000
-3.937000 0.000000
-3.883400 0.000000
-3.829700 0.000000
-3.776100 0.000000
-3.722400 0.000000
-3.668700 0.000000
-3.615100 0.000000
-3.561400 0.000000
-3.507800 0.000000
-3.454100 0.000000
-3.400500 0.000000
-3.346800 0.000000
-3.293100 0.000000
-3.239500 0.000000
-3.185800 0.000000
-3.132200 0.000000
-3.078500 0.000000
-3.024800 0.000000
-2.971200 0.000000
-2.917500 0.000000
-2.863900 0.000000
-2.810200 0.000000
-2.756600 0.000000
-2.702900 0.000000
-2.649200 0.000000
-2.595600 0.000000
-2.541900 0.000000
-2.488300 0.000000
-2.434600 0.000000
-2.381000 0.000000
-2.327300 0.000000
-2.273600 0.000000
-2.220000 0.000000
-2.166300 0.000000
-2.112700 0.000000
-2.059000 0.000000
-2.005300 0.000000
-1.951700 0.000000
-1.898000 0.000000
-1.844400 0.000000
-1.790700 0.000000
-1.737100 0.000000
-1.683400 0.000000
-1.629700 0.000000
-1.576100 0.000000
-1.522400 0.000000
-1.468800 0.000000
-1.415100 0.000000
-1.361400 0.000000
-1.307800 0.000000
-1.254100 0.000000
-1.200500 0.000000
-1.146800 0.000000
-1.093200 0.000000
-1.039500 0.000000
-0.985800 0.000000
-0.932200 0.000600
-0.878500 0.014200
-0.824900 0.042200
-0.771200 0.057600
-0.717500 0.060700
-0.663900 0.069400
-0.610200 0.082000
-0.556600 0.095200
-0.502900 0.103300
-0.449300 0.106800
-0.395600 0.113500
-0.341900 0.121400
-0.288300 0.129100
-0.234600 0.136700
-0.181000 0.144900
-0.127300 0.155200
-0.073600 0.164500
-0.020000 0.170900
0.033700 0.177900
0.087300 0.185200
0.141000 0.192300
0.194600 0.200700
0.248300 0.211800
0.302000 0.222400
0.355600 0.233200
0.409300 0.244400
0.462900 0.255900
0.516600 0.266200
0.570300 0.278900
0.623900 0.294500
0.677600 0.311200
0.731200 0.327900
0.784900 0.344600
0.838500 0.362500
0.892200 0.386000
0.945900 0.419400
0.999500 0.570300
1.053200 0.793800
1.106800 1.016800
1.160500 1.396900
1.214100 1.869700
1.267800 2.207800
1.321500 2.324400
1.375100 2.409900
1.428800 2.522100
1.482400 2.624700
1.536100 2.734600
1.589800 2.847100
1.643400 3.010500
1.697100 3.264200
1.750700 3.489600
1.804400 3.846200
1.858000 4.191200
1.911700 4.113300
1.965400 4.004100
2.019000 3.909400
2.072700 3.729000
2.126300 3.695100
2.180000 3.524300
2.233700 2.880200
2.287300 2.727200
2.341000 3.092600
2.394600 3.595600
2.448300 3.606800
2.501900 3.908400
2.555600 4.366500
2.609300 4.894400
2.662900 5.764400
2.716600 4.970800
2.770200 3.813900
2.823900 3.658300
2.877600 4.671900
2.931200 4.212800
2.984900 3.768200
3.038500 3.291500
3.092200 3.218400
3.145800 2.882700
3.199500 3.180500
3.253200 3.774900
3.306800 5.182200
3.360500 4.707900
3.414100 4.297900
3.467800 4.628700
3.521500 4.194300
3.575100 3.552500
3.628800 3.204600
3.682400 3.573100
3.736100 3.807800
3.789700 3.242500
3.843400 3.252900
3.897100 3.208600
3.950700 3.135700
4.004400 2.762900
4.058000 2.309200
4.111700 1.653400
4.165400 1.429500
4.219000 1.303800
4.272700 1.241200
4.326300 1.182400
4.380000 1.124400
4.433600 1.084900
4.487300 1.073700
4.541000 1.014000
4.594600 0.956900
4.648300 0.882900
4.701900 0.828600
4.755600 0.818200
4.809200 0.692500
4.862900 0.673100
4.916600 0.651200
4.970200 0.697200
5.023900 0.736100
5.077500 0.770500
5.131200 0.787300
5.184900 0.774500
5.238500 0.848000
5.292200 0.974500
5.345800 1.087300
5.399500 1.225100
5.453100 1.391900
5.506800 1.457400
5.560500 1.481800
5.614100 1.565000
5.667800 1.650600
5.721400 1.749700
5.775100 1.808900
5.828800 1.869000
5.882400 1.995700
5.936100 2.014700
5.989700 2.121900
6.043400 2.200000
6.097000 2.530100
6.150700 2.451600
6.204400 2.522600
6.258000 2.585800
6.311700 2.686800
6.365300 2.756100
6.419000 2.855500
6.472700 2.893700
6.526300 2.802900
6.580000 2.814400
6.633600 2.908600
6.687300 2.877000
6.740900 2.359100
6.794600 2.127900
6.848300 2.205900
6.901900 2.479100
6.955600 3.302800
7.009200 3.607100
7.062900 3.217500
7.116600 2.892500
7.170200 2.696900
7.223900 2.777600
7.277500 2.532200
7.331200 2.270900
7.384800 2.297600
7.438500 2.381800
7.492200 2.353700
7.545800 2.023300
7.599500 1.868400
7.653100 1.741400
7.706800 1.685000
7.760500 1.724000
7.814100 1.704900
7.867800 1.586600
7.921400 1.435000
7.975100 1.359700
8.028700 1.308400
8.082400 1.279300
8.136100 1.238500
8.189700 1.265500
8.243400 1.366000
8.297000 1.263300
8.350700 1.164300
8.404300 1.072700
8.458000 1.020000
8.511700 1.005200
8.565300 1.008500
8.619000 1.015400
8.672600 1.020300
8.726300 1.041900
8.780000 1.115600
8.833600 1.196700
8.887300 1.253700
8.940900 1.339500
8.994600 1.458900
9.048200 1.580700
9.101900 1.796800
9.155600 2.140100
9.209200 2.826300
9.262900 3.161900
9.316500 3.020100
9.370200 2.842700
9.423900 2.706200
9.477500 2.675200
9.531200 2.663600
9.584800 2.591300
9.638500 2.440300
9.692100 2.245100
9.745800 1.940000
9.799500 1.635300
9.853100 1.334600
9.906800 1.097400
9.960400 0.931400
10.014100 0.741900
10.067800 0.654100
10.121400 0.587300
10.175100 0.533900
10.228700 0.498800
10.282400 0.482300
10.336000 0.470900
10.389700 0.460600
10.443400 0.451700
10.497000 0.431400
10.550700 0.843200
10.604300 0.820500
10.658000 0.858500
10.711700 0.831000
10.765300 0.823100
10.819000 0.803100
10.872600 0.776400
10.926300 0.754000
10.979900 0.732200
11.033600 0.714800
11.087300 0.701500
11.140900 0.691400
11.194600 0.682900
11.248200 0.677700
11.301900 0.675400
11.355600 0.673800
11.409200 0.673100
11.462900 0.672300
11.516500 0.671100
11.570200 0.670300
11.623800 0.675900
11.677500 0.686900
11.731200 0.701000
11.784800 0.771400
11.838500 0.944500
11.892100 1.151300
11.945800 1.373000
11.999400 0.869400
12.053100 0.839000
12.106800 0.817100
12.160400 0.798100
12.214100 0.784000
12.267700 0.773800
12.321400 0.765100
12.375100 0.755400
12.428700 0.745800
12.482400 0.748200
12.536000 0.746100
12.589700 0.721400
12.643300 0.686800
12.697000 0.627000
12.750700 0.589600
12.804300 0.563700
12.858000 0.551000
12.911600 0.542100
12.965300 0.534500
13.019000 0.528200
13.072600 0.525600
13.126300 0.661600
13.179900 0.677800
13.233600 0.559200
13.287200 0.528700
13.340900 0.505400
13.394600 0.497800
13.448200 0.493200
13.501900 0.487300
13.555500 0.480300
13.609200 0.475900
13.662900 0.475600
13.716500 0.476400
13.770200 0.476100
13.823800 0.476100
13.877500 0.483000
13.931100 0.493200
13.984800 0.466200
14.038500 0.438600
14.092100 0.415300
14.145800 0.398300
14.199400 0.388500
14.253100 0.378200
14.306800 0.367000
14.360400 0.357600
14.414100 0.350200
14.467700 0.355600
14.521400 0.349300
14.575000 0.346000
14.628700 0.348900
14.682400 0.361800
14.736000 0.385900
14.789700 0.442800
14.843300 0.515300
14.897000 0.585000
14.950700 0.667300
15.004300 0.730600
15.058000 0.812300
15.111600 0.897500
15.165300 1.020300
15.218900 1.153600
15.272600 1.147700
15.326300 1.116900
15.379900 1.091100
15.433600 1.055400
15.487200 1.067000
15.540900 1.066400
15.594500 1.060900
15.648200 1.059000
15.701900 1.071900
15.755500 1.091700
15.809200 1.113100
15.862800 1.137000
15.916500 1.194800
15.970200 1.309800
16.023800 1.175100
16.077500 1.106900
16.131100 1.070900
16.184800 1.053500
16.238400 1.054700
16.292100 1.057000
16.345800 1.048400
16.399400 1.028700
16.453100 1.011200
16.506700 0.986500
16.560400 0.960000
16.614100 0.943100
16.667700 0.931900
16.721400 0.919100
16.775000 0.911800
16.828700 0.905400
16.882300 0.899300
16.936000 0.906900
16.989700 0.922300
17.043300 0.933200
17.097000 0.945200
17.150600 0.989500
17.204300 1.018500
17.258000 1.090100
17.311600 1.138300
17.365300 1.400100
17.418900 1.225000
17.472600 1.237700
17.526200 1.252700
17.579900 1.276100
17.633600 1.314900
17.687200 1.350200
17.740900 1.365700
17.794500 1.380100
17.848200 1.434000
17.901900 1.469300
17.955500 1.559900
18.009200 1.713700
18.062800 1.668300
18.116500 1.532800
18.170100 1.491700
18.223800 1.515200
18.277500 1.557000
18.331100 1.579100
18.384800 1.491000
18.438400 1.427800
18.492100 1.412800
18.545800 1.404400
18.599400 1.420000
18.653100 1.439500
18.706700 1.461000
18.760400 1.488300
18.814000 1.527800
18.867700 1.535400
18.921400 1.529300
18.975000 1.496000
19.028700 1.478300
19.082300 1.482600
19.136000 1.501400
19.189600 1.492000
19.243300 1.477500
19.297000 1.443600
19.350600 1.400000
19.404300 1.381200
19.457900 1.358300
19.511600 1.351200
19.565300 1.372900
19.618900 1.411600
19.672600 1.443700
19.726200 1.505700
19.779900 1.555700
19.833500 1.560700
19.887200 1.577200
19.940900 1.610900
19.994500 1.665700
20.048200 1.707700
20.101800 1.743400
20.155500 1.759900
20.209200 1.683400
20.262800 1.567000
20.316500 1.493800
20.370100 1.448400
20.423800 1.430100
20.477400 1.416300
20.531100 1.414000
20.584800 1.405900
20.638400 1.394100
20.692100 1.387400
20.745700 1.404300
20.799400 1.407600
20.853100 1.383300
20.906700 1.361600
20.960400 1.317500
21.014000 1.299800
21.067700 1.268000
21.121300 1.289200
21.175000 1.256900
21.228700 1.223900
21.282300 1.202800
21.336000 1.222200
21.389600 1.124200
21.443300 1.092300
21.497000 1.078400
21.550600 1.073700
21.604300 1.125700
21.657900 1.136200
21.711600 1.083100
21.765200 1.010800
21.818900 0.963000
21.872600 0.852300
21.926200 0.830700
21.979900 0.850200
22.033500 0.876500
22.087200 0.921800
22.140900 0.968100
22.194500 1.008700
22.248200 1.046800
22.301800 1.078200
22.355500 1.082100
22.409100 1.055900
22.462800 1.016200
22.516500 0.961100
22.570100 0.927300
22.623800 0.935200
22.677400 0.954600
22.731100 0.975600
22.784700 0.952800
22.838400 0.979800
22.892100 1.018700
22.945700 1.077800
22.999400 1.137500
23.053000 1.230900
23.106700 1.225600
23.160400 1.218500
23.214000 1.152300
23.267700 1.117600
23.321300 1.142800
23.375000 1.215800
23.428600 1.253800
23.482300 1.305800
23.536000 1.366300
23.589600 1.431100
23.643300 1.503200
23.696900 1.479700
23.750600 1.457500
23.804300 1.435600
23.857900 1.484700
23.911600 1.530800
23.965200 1.559400
24.018900 1.554400
24.072500 1.537700
24.126200 1.439500
24.179900 1.247600
24.233500 1.102000
24.287200 1.052400
24.340800 1.072600
24.394500 1.119000
24.448200 1.299300
24.501800 1.418400
24.555500 1.414500
24.609100 1.410500
24.662800 1.422800
24.716400 1.423400
24.770100 1.457600
24.823800 1.467500
24.877400 1.329100
24.931100 1.304300
24.984700 1.357200
25.038400 1.375400
25.092100 1.405800
25.145700 1.452500
25.199400 1.466800
25.253000 1.527300
25.306700 1.619300
25.360300 1.593000
25.414000 1.451800
25.467700 1.414200
25.521300 1.380700
25.575000 1.350800
25.628600 1.318600
25.682300 1.293600
25.736000 1.276200
25.789600 1.263400
25.843300 1.238800
25.896900 1.206300
25.950600 1.185900
26.004200 1.167300
26.057900 1.157400
26.111600 1.135100
26.165200 1.108100
26.218900 1.087700
26.272500 1.069500
26.326200 1.056000
26.379800 1.040600
26.433500 1.021800
26.487200 1.002400
26.540800 0.992100
26.594500 1.005400
26.648100 1.030300
26.701800 1.010400
26.755500 0.979400
26.809100 0.959300
26.862800 0.957000
26.916400 0.972100
26.970100 0.979000
27.023700 0.989300
27.077400 1.005400
27.131100 1.031500
27.184700 1.071600
27.238400 1.113800
27.292000 1.147000
27.345700 1.187300
27.399400 1.240300
27.453000 1.346400
27.506700 1.369900
27.560300 1.331600
27.614000 1.326400
27.667600 1.352300
27.721300 1.457900
27.775000 1.448300
27.828600 1.462300
27.882300 1.513600
27.935900 1.562600
27.989600 1.644600
28.043300 1.748700
28.096900 1.892800
28.150600 2.095500
28.204200 2.101100
28.257900 1.957500
28.311500 1.778300
28.365200 1.666600
28.418900 1.704200
28.472500 1.719200
28.526200 1.800400
28.579800 2.066500
28.633500 2.193900
28.687200 1.352400
28.740800 1.125800
28.794500 1.120800
28.848100 1.138000
28.901800 1.157400
28.955400 1.178700
29.009100 1.242500
29.062800 1.325600
29.116400 1.411500
29.170100 1.588700
29.223700 1.579700
29.277400 1.536600
29.331100 1.467400
29.384700 1.459000
29.438400 1.468500
29.492000 1.504600
29.545700 1.521000
29.599300 1.598400
29.653000 1.653700
29.706700 1.712100
29.760300 1.765800
29.814000 1.701800
29.867600 1.697500
29.921300 1.714900
29.974900 1.765800
30.028600 1.816100
30.082300 1.856400
30.135900 1.873300
30.189600 1.881300
30.243200 1.995100
30.296900 2.024700
30.350600 2.088100
30.404200 2.180900
30.457900 2.332100
30.511500 2.613600
30.565200 3.136500
30.618800 7.370600
30.672500 11.642300
30.726200 4.039700
30.779800 2.785500
30.833500 2.243700
30.887100 2.039500
30.940800 1.859300
30.994500 1.611000
31.048100 1.453300
31.101800 1.330500
31.155400 1.252100
31.209100 1.182400
31.262700 1.070900
31.316400 0.999300
31.370100 0.945300
31.423700 0.900900
31.477400 0.845400
31.531000 0.818600
31.584700 0.799900
31.638400 0.797500
31.692000 0.816500
31.745700 0.861100
31.799300 0.990400
31.853000 1.107000
31.906600 1.236700
31.960300 1.395000
32.014000 1.626100
32.067600 1.950000
32.121300 2.259900
32.174900 2.289700
32.228600 2.039800
32.282300 1.732000
32.335900 1.701500
32.389600 1.690400
32.443200 1.724400
32.496900 1.717800
32.550500 1.785700
32.604200 1.949500
32.657900 2.086500
32.711500 2.145100
32.765200 2.164500
32.818800 2.156700
32.872500 2.127000
32.926200 2.036300
32.979800 1.908100
33.033500 1.744800
33.087100 1.645000
33.140800 1.550300
33.194400 1.488800
33.248100 1.417500
33.301800 1.389500
33.355400 1.358100
33.409100 1.297200
33.462700 1.255900
33.516400 1.253300
33.570000 1.856200
33.623700 1.295400
33.677400 1.312400
33.731000 1.307800
33.784700 1.339000
33.838300 1.434900
33.892000 1.582400
33.945700 1.696400
33.999300 1.768900
34.053000 1.854300
34.106600 2.046600
34.160300 1.922000
34.213900 1.895900
34.267600 1.890300
34.321300 1.877100
34.374900 1.852500
34.428600 1.775200
34.482200 1.663300
34.535900 1.584000
34.589600 1.527200
34.643200 1.494400
34.696900 1.524600
34.750500 1.423100
34.804200 1.333000
34.857800 1.239800
34.911500 1.194000
34.965200 1.183000
35.018800 1.217900
35.072500 1.265700
35.126100 1.321300
35.179800 1.391300
35.233500 1.489000
35.287100 1.532400
35.340800 1.578200
35.394400 1.552300
35.448100 1.545000
35.501700 1.533100
35.555400 1.525100
35.609100 1.533800
35.662700 1.560900
35.716400 1.547200
35.770000 1.565300
35.823700 1.593600
35.877400 1.609100
35.931000 1.477400
35.984700 1.479900
36.038300 1.464800
36.092000 1.472000
36.145600 1.542100
36.199300 1.565600
36.253000 1.467700
36.306600 1.356200
36.360300 1.336800
36.413900 1.334800
36.467600 1.355800
36.521300 1.396200
36.574900 1.474300
36.628600 1.572100
36.682200 1.695400
36.735900 1.793500
36.789500 1.866300
36.843200 1.792400
36.896900 1.717000
36.950500 1.715100
37.004200 1.757200
37.057800 1.793400
37.111500 1.824900
37.165100 1.849200
37.218800 1.886900
37.272500 1.924400
37.326100 1.982300
37.379800 2.020600
37.433400 2.278500
37.487100 2.257300
37.540800 2.141700
37.594400 2.038100
37.648100 2.059600
37.701700 1.984800
37.755400 1.950100
37.809000 1.952900
37.862700 1.954600
37.916400 1.977200
37.970000 1.982900
38.023700 2.011700
38.077300 2.018700
38.131000 1.983400
38.184700 1.998800
38.238300 2.034700
38.292000 2.031300
38.345600 1.872200
38.399300 1.811700
38.452900 1.783200
38.506600 1.715000
38.560300 1.579100
38.613900 1.455300
38.667600 1.349700
38.721200 1.287000
38.774900 1.263100
38.828600 1.237000
38.882200 1.264800
38.935900 1.421500
38.989500 1.408900
39.043200 1.438800
39.096800 1.479600
39.150500 1.513900
39.204200 1.527500
39.257800 1.541500
39.311500 1.568100
39.365100 1.602300
39.418800 1.622000
39.472500 1.625900
39.526100 1.618500
39.579800 1.645100
39.633400 1.612500
39.687100 1.540300
39.740700 1.487200
39.794400 1.460400
39.848100 1.408600
39.901700 1.418600
39.955400 1.448000
40.009000 1.475900
40.062700 1.473400
40.116400 1.496700
40.170000 1.563200
40.223700 1.584500
40.277300 1.595300
40.331000 1.617900
40.384600 1.603100
40.438300 1.634700
40.492000 1.587700
40.545600 1.577400
40.599300 1.565600
40.652900 1.538000
40.706600 1.515200
40.760200 1.493900
40.813900 1.492300
40.867600 1.552600
40.921200 1.634200
40.974900 1.704000
41.028500 1.710900
41.082200 1.742200
41.135900 1.732800
41.189500 1.718300
41.243200 1.694500
41.296800 1.637700
41.350500 1.625000
41.404100 1.624500
41.457800 1.618600
41.511500 1.625200
41.565100 1.633900
41.618800 1.662500
41.672400 1.664400
41.726100 1.665800
41.779800 1.681300
41.833400 1.718300
41.887100 1.766300
41.940700 1.844600
41.994400 1.921300
42.048000 1.914100
42.101700 1.853800
42.155400 1.895100
42.209000 1.954100
42.262700 1.965400
42.316300 2.003800
42.370000 2.017600
42.423700 2.048600
42.477300 2.097100
42.531000 2.258000
42.584600 2.498400
42.638300 2.427100
42.691900 2.296700
42.745600 2.198700
42.799300 2.054300
42.852900 1.986400
42.906600 1.923800
42.960200 1.864400
43.013900 1.766300
43.067600 1.731900
43.121200 1.665000
43.174900 1.606600
43.228500 1.491000
43.282200 1.444400
43.335800 1.457900
43.389500 1.477500
43.443200 1.518900
43.496800 1.578300
43.550500 1.696700
43.604100 1.768600
43.657800 1.859300
43.711500 1.971300
43.765100 1.965900
43.818800 1.934200
43.872400 1.920100
43.926100 1.911500
43.979700 1.901200
44.033400 2.077400
44.087100 2.113200
44.140700 2.136100
44.194400 2.142200
44.248000 2.089500
44.301700 2.000800
44.355300 1.946500
44.409000 1.853900
44.462700 1.799900
44.516300 1.852200
44.570000 1.859400
44.623600 1.845200
44.677300 1.828300
44.731000 1.816600
44.784600 1.795700
44.838300 1.786700
44.891900 1.758200
44.945600 1.817300
44.999200 1.856900
45.052900 1.841400
45.106600 1.846300
45.160200 1.798800
45.213900 1.717600
45.267500 1.619500
45.321200 1.540600
45.374900 1.478600
45.428500 1.454400
45.482200 1.450300
45.535800 1.455400
45.589500 1.445400
45.643100 1.416800
45.696800 1.405800
45.750500 1.418800
45.804100 1.437000
45.857800 1.453100
45.911400 1.466700
45.965100 1.484900
46.018800 1.425100
46.072400 1.417600
46.126100 1.423500
46.179700 1.470000
46.233400 1.527400
46.287000 1.433300
46.340700 1.431400
46.394400 1.466500
46.448000 1.491700
46.501700 1.545500
46.555300 1.607000
46.609000 1.652800
46.662700 1.662600
46.716300 1.707900
46.770000 1.610700
46.823600 1.546100
46.877300 1.546200
46.930900 1.505100
46.984600 1.505900
47.038300 1.548600
47.091900 1.567500
47.145600 1.596000
47.199200 1.645400
47.252900 1.608700
47.306600 1.598000
47.360200 1.642200
47.413900 1.628800
47.467500 1.587700
47.521200 1.627000
47.574800 1.624500
47.628500 1.618900
47.682200 1.664600
47.735800 1.647000
47.789500 1.606400
47.843100 1.599600
47.896800 1.614300
47.950400 1.637200
48.004100 1.688200
48.057800 1.774000
48.111400 1.817400
48.165100 1.757800
48.218700 1.699500
48.272400 1.662500
48.326100 1.643800
48.379700 1.668700
48.433400 1.733400
48.487000 1.889400
48.540700 2.059400
48.594300 2.205000
48.648000 2.233700
48.701700 2.172400
48.755300 2.145500
48.809000 1.988800
48.862600 1.921200
48.916300 1.880800
48.970000 1.873100
49.023600 1.820200
49.077300 1.755300
49.130900 1.706400
49.184600 1.690900
49.238200 1.736600
49.291900 1.799900
49.345600 1.836600
49.399200 1.859200
49.452900 1.865500
49.506500 1.852500
49.560200 1.842200
49.613900 1.836300
49.667500 1.922600
49.721200 1.878800
49.774800 1.803600
49.828500 1.823100
49.882100 1.820800
49.935800 1.861700
49.989500 1.853900
50.043100 1.867300
50.096800 1.853100
50.150400 1.837500
50.204100 1.807200
50.257800 1.806500
50.311400 1.803300
50.365100 1.776200
50.418700 1.776900
50.472400 1.770300
50.526000 1.701000
50.579700 1.732300
50.633400 1.693000
50.687000 1.644800
50.740700 1.589600
50.794300 1.503500
50.848000 1.453200
50.901700 1.408800
50.955300 1.367200
51.009000 1.321500
51.062600 1.279900
51.116300 1.241000
51.169900 1.184300
51.223600 1.130300
51.277300 1.087400
51.330900 1.038600
51.384600 1.000900
51.438200 0.970600
51.491900 0.956500
51.545500 0.949800
51.599200 0.949800
51.652900 0.953300
51.706500 0.918100
51.760200 0.895800
51.813800 0.888000
51.867500 0.866800
51.921200 0.841800
51.974800 0.791100
52.028500 0.784100
52.082100 0.719800
52.135800 0.635200
52.189400 0.603700
52.243100 0.576200
52.296800 0.549900
52.350400 0.524600
52.404100 0.499400
52.457700 0.473700
52.511400 0.447700
52.565100 0.423300
52.618700 0.395300
52.672400 0.347000
52.726000 0.321800
52.779700 0.291900
52.833300 0.267500
52.887000 0.245000
52.940700 0.229600
52.994300 0.211600
53.048000 0.194300
53.101600 0.186800
53.155300 0.182300
53.209000 0.176400
53.262600 0.166900
53.316300 0.153700
53.369900 0.140600
53.423600 0.130400
53.477200 0.116600
53.530900 0.104700
53.584600 0.099200
53.638200 0.098300
53.691900 0.094300
53.745500 0.086400
53.799200 0.074600
53.852900 0.056800
53.906500 0.032400
53.960200 0.012800
54.013800 0.007600
54.067500 0.003900
54.121100 0.001400
54.174800 0.000400
54.228500 0.000000
54.282100 0.000000
54.335800 0.000000
54.389400 0.000000
54.443100 0.000000
54.496800 0.000000
54.550400 0.000000
54.604100 0.000000
54.657700 0.000000
54.711400 0.000000
54.765000 0.000000
54.818700 0.000000
54.872400 0.000000
54.926000 0.000000
54.979700 0.000000
55.033300 0.000000
55.087000 0.000000
55.140600 0.000000
55.194300 0.000000
55.248000 0.000000
55.301600 0.000000
55.355300 0.000000
55.408900 0.000000
55.462600 0.000000
55.516300 0.000000
55.569900 0.000000
55.623600 0.000000
55.677200 0.000000
55.730900 0.000000
55.784500 0.000000
55.838200 0.000000
55.891900 0.000000
55.945500 0.000000
55.999200 0.000000
56.052800 0.000000
56.106500 0.000000
56.160200 0.000000
56.213800 0.000000
56.267500 0.000000
56.321100 0.000000
56.374800 0.000000
56.428400 0.000000
56.482100 0.000000
56.535800 0.000000
56.589400 0.000000
56.643100 0.000000
56.696700 0.000000
56.750400 0.000000
56.804100 0.000000
56.857700 0.000000
56.911400 0.000000
56.965000 0.000000
57.018700 0.000000
57.072300 0.000000
57.126000 0.000000
57.179700 0.000000
57.233300 0.000000
57.287000 0.000000
57.340600 0.000000
57.394300 0.000000
57.448000 0.000000
57.501600 0.000000
57.555300 0.000000
57.608900 0.000000
57.662600 0.000000
57.716200 0.000000
57.769900 0.000000
57.823600 0.000000
57.877200 0.000000
57.930900 0.000000
57.984500 0.000000
58.038200 0.000000
58.091900 0.000000
58.145500 0.000000
58.199200 0.000000
58.252800 0.000000
58.306500 0.000000
58.360100 0.000000
58.413800 0.000000
58.467500 0.000000
58.521100 0.000000
58.574800 0.000000
58.628400 0.000000
58.682100 0.000000
58.735700 0.000000
58.789400 0.000000
58.843100 0.000000
58.896700 0.000000
58.950400 0.000000
59.004000 0.000000
59.057700 0.000000
59.111400 0.000000
e
