set title 'mp-1186012 - Density of States'
set xlabel 'Energy (eV)'
set ylabel 'DOS (states/eV)'
set grid
set xrange [-10:10]
set yrange [0:44.219]
set xzeroaxis lt -1
set terminal png size 800,600
set output 'mp-1186012_dos_gnuplot.png'
plot '-' using 1:2 with lines title 'DOS'
-43.759100 0.000000
-43.717700 0.000000
-43.676200 0.000000
-43.634800 0.000000
-43.593300 0.000000
-43.551900 0.000000
-43.510400 0.000000
-43.469000 0.000000
-43.427500 0.000000
-43.386100 0.000000
-43.344600 0.000000
-43.303200 0.000000
-43.261700 0.000000
-43.220300 0.000000
-43.178800 0.000000
-43.137400 0.000000
-43.095900 0.000000
-43.054500 0.000000
-43.013000 0.000000
-42.971600 0.000000
-42.930200 0.000000
-42.888700 0.000000
-42.847300 0.000000
-42.805800 0.000000
-42.764400 0.000000
-42.722900 0.000000
-42.681500 0.000000
-42.640000 0.000000
-42.598600 0.000000
-42.557100 0.000000
-42.515700 0.000000
-42.474200 0.000000
-42.432800 0.000000
-42.391300 0.000000
-42.349900 0.000000
-42.308400 0.000000
-42.267000 0.000000
-42.225500 0.000000
-42.184100 0.000000
-42.142600 0.000000
-42.101200 0.000000
-42.059700 0.000000
-42.018300 0.000000
-41.976800 0.000000
-41.935400 0.000000
-41.893900 0.000000
-41.852500 0.000000
-41.811000 0.000000
-41.769600 0.000000
-41.728100 0.000000
-41.686700 0.000000
-41.645200 0.000000
-41.603800 0.000000
-41.562300 0.000000
-41.520900 0.000000
-41.479400 0.000000
-41.438000 0.000000
-41.396600 0.000000
-41.355100 0.000000
-41.313700 0.000000
-41.272200 0.000000
-41.230800 0.000000
-41.189300 0.000000
-41.147900 0.000000
-41.106400 0.000000
-41.065000 0.000000
-41.023500 0.000000
-40.982100 0.000000
-40.940600 0.000000
-40.899200 0.000000
-40.857700 0.000000
-40.816300 0.000000
-40.774800 0.000000
-40.733400 0.000000
-40.691900 0.000000
-40.650500 0.000000
-40.609000 0.000000
-40.567600 0.000000
-40.526100 0.000000
-40.484700 0.000000
-40.443200 0.000000
-40.401800 0.000000
-40.360300 0.000000
-40.318900 0.000000
-40.277400 0.000000
-40.236000 0.000000
-40.194500 0.000000
-40.153100 0.000000
-40.111600 0.000000
-40.070200 0.000000
-40.028700 0.000000
-39.987300 0.000000
-39.945900 0.000000
-39.904400 0.000000
-39.863000 0.000000
-39.821500 0.000000
-39.780100 0.000000
-39.738600 0.000000
-39.697200 0.000000
-39.655700 0.000000
-39.614300 0.000000
-39.572800 0.000000
-39.531400 0.000000
-39.489900 0.000000
-39.448500 0.000000
-39.407000 0.000000
-39.365600 0.000000
-39.324100 0.000000
-39.282700 0.000000
-39.241200 0.000000
-39.199800 0.000000
-39.158300 0.000000
-39.116900 0.000000
-39.075400 0.000000
-39.034000 0.000000
-38.992500 0.000000
-38.951100 0.000000
-38.909600 0.000000
-38.868200 0.000000
-38.826700 0.000000
-38.785300 0.000000
-38.743800 0.000000
-38.702400 0.000000
-38.660900 0.000000
-38.619500 0.000000
-38.578000 0.000000
-38.536600 0.000000
-38.495200 0.000000
-38.453700 0.000000
-38.412300 0.000000
-38.370800 0.000000
-38.329400 0.000000
-38.287900 0.000000
-38.246500 0.000000
-38.205000 0.000000
-38.163600 0.000000
-38.122100 0.000000
-38.080700 0.000000
-38.039200 0.000000
-37.997800 0.000000
-37.956300 0.000000
-37.914900 0.000000
-37.873400 0.000000
-37.832000 0.000000
-37.790500 0.000000
-37.749100 0.000000
-37.707600 0.000000
-37.666200 0.000000
-37.624700 0.000000
-37.583300 0.000000
-37.541800 0.000000
-37.500400 0.000000
-37.458900 0.000000
-37.417500 0.000000
-37.376000 0.000000
-37.334600 0.000000
-37.293100 0.000000
-37.251700 0.000000
-37.210200 0.000000
-37.168800 0.000000
-37.127300 0.000000
-37.085900 0.000000
-37.044500 0.000000
-37.003000 0.000000
-36.961600 0.000000
-36.920100 0.000000
-36.878700 0.000000
-36.837200 0.000000
-36.795800 0.000000
-36.754300 0.000000
-36.712900 0.000000
-36.671400 0.000000
-36.630000 0.000000
-36.588500 0.000000
-36.547100 0.000000
-36.505600 0.000000
-36.464200 0.000000
-36.422700 0.000000
-36.381300 0.000000
-36.339800 0.000000
-36.298400 0.000000
-36.256900 0.000000
-36.215500 0.000000
-36.174000 0.000000
-36.132600 0.000000
-36.091100 0.000000
-36.049700 0.000000
-36.008200 0.000000
-35.966800 0.000000
-35.925300 0.000000
-35.883900 0.000000
-35.842400 0.000000
-35.801000 0.000000
-35.759500 0.000000
-35.718100 0.000000
-35.676600 0.000000
-35.635200 0.000000
-35.593700 0.000000
-35.552300 0.000000
-35.510900 0.000000
-35.469400 0.000000
-35.428000 0.000000
-35.386500 0.000000
-35.345100 0.000000
-35.303600 0.000000
-35.262200 0.000000
-35.220700 0.000000
-35.179300 0.000000
-35.137800 0.000000
-35.096400 0.000000
-35.054900 0.000000
-35.013500 0.000000
-34.972000 0.000000
-34.930600 0.000000
-34.889100 0.000000
-34.847700 0.000000
-34.806200 0.000000
-34.764800 0.000000
-34.723300 0.000000
-34.681900 0.000000
-34.640400 0.000000
-34.599000 0.000000
-34.557500 0.000000
-34.516100 0.000000
-34.474600 0.000000
-34.433200 0.000000
-34.391700 0.000000
-34.350300 0.000000
-34.308800 0.000000
-34.267400 0.000000
-34.225900 0.000000
-34.184500 0.000000
-34.143000 0.000000
-34.101600 0.000000
-34.060200 0.000000
-34.018700 0.000000
-33.977300 0.000000
-33.935800 0.000000
-33.894400 0.000000
-33.852900 0.000000
-33.811500 0.000000
-33.770000 0.000000
-33.728600 0.000000
-33.687100 0.000000
-33.645700 0.000000
-33.604200 0.000000
-33.562800 0.000000
-33.521300 0.000000
-33.479900 0.000000
-33.438400 0.000000
-33.397000 0.000000
-33.355500 0.000000
-33.314100 0.000000
-33.272600 0.000000
-33.231200 0.000000
-33.189700 0.000000
-33.148300 0.000000
-33.106800 0.000000
-33.065400 0.000000
-33.023900 0.000000
-32.982500 0.000000
-32.941000 0.000000
-32.899600 0.000000
-32.858100 0.000000
-32.816700 0.000000
-32.775200 0.000000
-32.733800 0.000000
-32.692300 0.000000
-32.650900 0.000000
-32.609500 0.000000
-32.568000 0.000000
-32.526600 0.000000
-32.485100 0.000000
-32.443700 0.000000
-32.402200 0.000000
-32.360800 0.000000
-32.319300 0.000000
-32.277900 0.000000
-32.236400 0.000000
-32.195000 0.000000
-32.153500 0.000000
-32.112100 0.000000
-32.070600 0.000000
-32.029200 0.000000
-31.987700 0.000000
-31.946300 0.000000
-31.904800 0.000000
-31.863400 0.000000
-31.821900 0.000000
-31.780500 0.000000
-31.739000 0.000000
-31.697600 0.000000
-31.656100 0.000000
-31.614700 0.000000
-31.573200 0.000000
-31.531800 0.000000
-31.490300 0.000000
-31.448900 0.000000
-31.407400 0.000000
-31.366000 0.000000
-31.324500 0.000000
-31.283100 0.000000
-31.241600 0.000000
-31.200200 0.000000
-31.158800 0.000000
-31.117300 0.000000
-31.075900 0.000000
-31.034400 0.000000
-30.993000 0.000000
-30.951500 0.000000
-30.910100 0.000000
-30.868600 0.000000
-30.827200 0.000000
-30.785700 0.000000
-30.744300 0.000000
-30.702800 0.000000
-30.661400 0.000000
-30.619900 0.000000
-30.578500 0.000000
-30.537000 0.000000
-30.495600 0.000000
-30.454100 0.000000
-30.412700 0.000000
-30.371200 0.000000
-30.329800 0.000000
-30.288300 0.000000
-30.246900 0.000000
-30.205400 0.000000
-30.164000 0.000000
-30.122500 0.000000
-30.081100 0.000000
-30.039600 0.000000
-29.998200 0.000000
-29.956700 0.000000
-29.915300 0.000000
-29.873800 0.000000
-29.832400 0.000000
-29.790900 0.000000
-29.749500 0.000000
-29.708000 0.000000
-29.666600 0.000000
-29.625200 0.000000
-29.583700 0.000000
-29.542300 0.000000
-29.500800 0.000000
-29.459400 0.000000
-29.417900 0.000000
-29.376500 0.000000
-29.335000 0.000000
-29.293600 0.000000
-29.252100 0.000000
-29.210700 0.000000
-29.169200 0.000000
-29.127800 0.000000
-29.086300 0.000000
-29.044900 0.000000
-29.003400 0.000000
-28.962000 0.000000
-28.920500 0.000000
-28.879100 0.000000
-28.837600 0.000000
-28.796200 0.000000
-28.754700 0.000000
-28.713300 0.000000
-28.671800 0.000000
-28.630400 0.000000
-28.588900 0.000000
-28.547500 0.000000
-28.506000 0.000000
-28.464600 0.000000
-28.423100 0.000000
-28.381700 0.000000
-28.340200 0.000000
-28.298800 0.000000
-28.257300 0.000000
-28.215900 0.000000
-28.174500 0.000000
-28.133000 0.000000
-28.091600 0.000000
-28.050100 0.000000
-28.008700 0.000000
-27.967200 0.000000
-27.925800 0.000000
-27.884300 0.000000
-27.842900 0.000000
-27.801400 0.000000
-27.760000 0.000000
-27.718500 0.000000
-27.677100 0.000000
-27.635600 0.000000
-27.594200 0.000000
-27.552700 0.000000
-27.511300 0.000000
-27.469800 0.000000
-27.428400 0.000000
-27.386900 0.000000
-27.345500 0.000000
-27.304000 0.000000
-27.262600 0.000000
-27.221100 0.000000
-27.179700 0.000000
-27.138200 0.000000
-27.096800 0.000000
-27.055300 0.000000
-27.013900 0.000000
-26.972400 0.000000
-26.931000 0.000000
-26.889500 0.000000
-26.848100 0.000000
-26.806600 0.000000
-26.765200 0.000000
-26.723800 0.000000
-26.682300 0.000000
-26.640900 0.000000
-26.599400 0.000000
-26.558000 0.000000
-26.516500 0.000000
-26.475100 0.000000
-26.433600 0.000000
-26.392200 0.000000
-26.350700 0.000000
-26.309300 0.000000
-26.267800 0.000000
-26.226400 0.000000
-26.184900 0.000000
-26.143500 0.000000
-26.102000 0.000000
-26.060600 0.000000
-26.019100 0.000000
-25.977700 0.000000
-25.936200 0.000000
-25.894800 0.000000
-25.853300 0.000000
-25.811900 0.000000
-25.770400 0.000000
-25.729000 0.000000
-25.687500 0.000000
-25.646100 0.000000
-25.604600 0.000000
-25.563200 0.000000
-25.521700 0.000000
-25.480300 0.000000
-25.438800 0.000000
-25.397400 0.000000
-25.355900 0.000000
-25.314500 0.000000
-25.273000 0.000000
-25.231600 0.000000
-25.190200 0.000000
-25.148700 0.000000
-25.107300 0.000000
-25.065800 0.000000
-25.024400 0.000000
-24.982900 0.000000
-24.941500 0.000000
-24.900000 0.000000
-24.858600 0.000000
-24.817100 0.000000
-24.775700 0.000000
-24.734200 0.000000
-24.692800 0.000000
-24.651300 0.000000
-24.609900 0.000000
-24.568400 0.000000
-24.527000 0.000000
-24.485500 0.000000
-24.444100 0.000000
-24.402600 0.000000
-24.361200 0.000000
-24.319700 0.000000
-24.278300 0.000000
-24.236800 0.000000
-24.195400 0.000000
-24.153900 0.000000
-24.112500 0.000000
-24.071000 0.000000
-24.029600 0.000000
-23.988100 0.000000
-23.946700 0.000000
-23.905200 0.000000
-23.863800 0.000000
-23.822300 0.000000
-23.780900 0.000000
-23.739500 0.000000
-23.698000 0.000000
-23.656600 0.000000
-23.615100 0.000000
-23.573700 0.000000
-23.532200 0.000000
-23.490800 0.000000
-23.449300 0.000000
-23.407900 0.000000
-23.366400 0.000000
-23.325000 0.000000
-23.283500 0.000000
-23.242100 0.000000
-23.200600 0.000000
-23.159200 0.000000
-23.117700 0.000000
-23.076300 0.000000
-23.034800 0.000000
-22.993400 0.000000
-22.951900 0.000000
-22.910500 0.000000
-22.869000 0.000000
-22.827600 0.000000
-22.786100 0.000000
-22.744700 0.000000
-22.703200 0.000000
-22.661800 0.000000
-22.620300 0.000000
-22.578900 0.000000
-22.537400 0.000000
-22.496000 0.000000
-22.454500 0.000000
-22.413100 0.000000
-22.371600 0.000000
-22.330200 0.000000
-22.288800 0.000000
-22.247300 0.000000
-22.205900 0.000000
-22.164400 0.000000
-22.123000 0.000000
-22.081500 0.000000
-22.040100 0.000000
-21.998600 0.000000
-21.957200 0.000000
-21.915700 0.000000
-21.874300 0.000000
-21.832800 0.000000
-21.791400 0.000000
-21.749900 0.000000
-21.708500 0.000000
-21.667000 0.000000
-21.625600 0.000000
-21.584100 0.000000
-21.542700 0.000000
-21.501200 0.000000
-21.459800 0.000000
-21.418300 0.000000
-21.376900 0.000000
-21.335400 0.000000
-21.294000 0.000000
-21.252500 0.000000
-21.211100 0.000000
-21.169600 0.000000
-21.128200 0.000000
-21.086700 0.000000
-21.045300 0.000000
-21.003800 0.000000
-20.962400 0.000000
-20.920900 0.000000
-20.879500 0.000000
-20.838100 0.000000
-20.796600 0.000000
-20.755200 0.000000
-20.713700 0.000000
-20.672300 0.000000
-20.630800 0.000000
-20.589400 0.000000
-20.547900 0.000000
-20.506500 0.000000
-20.465000 0.000000
-20.423600 0.000000
-20.382100 0.000000
-20.340700 0.000000
-20.299200 0.000000
-20.257800 0.000000
-20.216300 0.000000
-20.174900 0.000000
-20.133400 0.000000
-20.092000 0.000000
-20.050500 0.000000
-20.009100 0.000000
-19.967600 0.000000
-19.926200 0.000000
-19.884700 0.000000
-19.843300 0.000000
-19.801800 0.000000
-19.760400 0.000000
-19.718900 0.000000
-19.677500 0.000000
-19.636000 0.000000
-19.594600 0.000000
-19.553100 0.000000
-19.511700 0.000000
-19.470200 0.000000
-19.428800 0.000000
-19.387300 0.000000
-19.345900 0.000000
-19.304500 0.000000
-19.263000 0.000000
-19.221600 0.000000
-19.180100 0.000000
-19.138700 0.000000
-19.097200 0.000000
-19.055800 0.000000
-19.014300 0.000000
-18.972900 0.000000
-18.931400 0.000000
-18.890000 0.000000
-18.848500 0.000000
-18.807100 0.000000
-18.765600 0.000000
-18.724200 0.000000
-18.682700 0.000000
-18.641300 0.000000
-18.599800 0.000000
-18.558400 0.000000
-18.516900 0.000000
-18.475500 0.000000
-18.434000 0.000000
-18.392600 0.000000
-18.351100 0.000000
-18.309700 0.000000
-18.268200 0.000000
-18.226800 0.000000
-18.185300 0.000000
-18.143900 0.000000
-18.102400 0.000000
-18.061000 0.000000
-18.019500 0.000000
-17.978100 0.000000
-17.936600 0.000000
-17.895200 0.000000
-17.853800 0.000000
-17.812300 0.000000
-17.770900 0.000000
-17.729400 0.000000
-17.688000 0.000000
-17.646500 0.000000
-17.605100 0.000000
-17.563600 0.000000
-17.522200 0.000000
-17.480700 0.000000
-17.439300 0.000000
-17.397800 0.000000
-17.356400 0.000000
-17.314900 0.000000
-17.273500 0.000000
-17.232000 0.000000
-17.190600 0.000000
-17.149100 0.000000
-17.107700 0.000000
-17.066200 0.000000
-17.024800 0.000000
-16.983300 0.000000
-16.941900 0.000000
-16.900400 0.000000
-16.859000 0.000000
-16.817500 0.000000
-16.776100 0.000000
-16.734600 0.000000
-16.693200 0.000000
-16.651700 0.000000
-16.610300 0.000000
-16.568800 0.000000
-16.527400 0.000000
-16.485900 0.000000
-16.444500 0.000000
-16.403100 0.000000
-16.361600 0.000000
-16.320200 0.000000
-16.278700 0.000000
-16.237300 0.000000
-16.195800 0.000000
-16.154400 0.000000
-16.112900 0.000000
-16.071500 0.000000
-16.030000 0.000000
-15.988600 0.000000
-15.947100 0.000000
-15.905700 0.000000
-15.864200 0.000000
-15.822800 0.000000
-15.781300 0.000000
-15.739900 0.000000
-15.698400 0.000000
-15.657000 0.000000
-15.615500 0.000000
-15.574100 0.000000
-15.532600 0.000000
-15.491200 0.000000
-15.449700 0.000000
-15.408300 0.000000
-15.366800 0.000000
-15.325400 0.000000
-15.283900 0.000000
-15.242500 0.000000
-15.201000 0.000000
-15.159600 0.000000
-15.118100 0.000000
-15.076700 0.000000
-15.035200 0.000000
-14.993800 0.000000
-14.952300 0.000000
-14.910900 0.000000
-14.869500 0.000000
-14.828000 0.000000
-14.786600 0.000000
-14.745100 0.000000
-14.703700 0.000000
-14.662200 0.000000
-14.620800 0.000000
-14.579300 0.000000
-14.537900 0.000000
-14.496400 0.000000
-14.455000 0.000000
-14.413500 0.000000
-14.372100 0.000000
-14.330600 0.000000
-14.289200 0.000000
-14.247700 0.000000
-14.206300 0.000000
-14.164800 0.000000
-14.123400 0.000000
-14.081900 0.000000
-14.040500 0.000000
-13.999000 0.000000
-13.957600 0.000000
-13.916100 0.000000
-13.874700 0.000000
-13.833200 0.000000
-13.791800 0.000000
-13.750300 0.000000
-13.708900 0.000000
-13.667400 0.000000
-13.626000 0.000000
-13.584500 0.000000
-13.543100 0.000000
-13.501600 0.000000
-13.460200 0.000000
-13.418800 0.000000
-13.377300 0.000000
-13.335900 0.000000
-13.294400 0.000000
-13.253000 0.000000
-13.211500 0.000000
-13.170100 0.000000
-13.128600 0.000000
-13.087200 0.000000
-13.045700 0.000000
-13.004300 0.000000
-12.962800 0.000000
-12.921400 0.000000
-12.879900 0.000000
-12.838500 0.000000
-12.797000 0.000000
-12.755600 0.000000
-12.714100 0.000000
-12.672700 0.000000
-12.631200 0.000000
-12.589800 0.000000
-12.548300 0.000000
-12.506900 0.000000
-12.465400 0.000000
-12.424000 0.000000
-12.382500 0.000000
-12.341100 0.000000
-12.299600 0.000000
-12.258200 0.000000
-12.216700 0.000000
-12.175300 0.000000
-12.133800 0.000000
-12.092400 0.000000
-12.050900 0.000000
-12.009500 0.000000
-11.968100 0.000000
-11.926600 0.000000
-11.885200 0.000000
-11.843700 0.000000
-11.802300 0.000000
-11.760800 0.000000
-11.719400 0.000000
-11.677900 0.000000
-11.636500 0.000000
-11.595000 0.000000
-11.553600 0.000000
-11.512100 0.000000
-11.470700 0.000000
-11.429200 0.000000
-11.387800 0.000000
-11.346300 0.000000
-11.304900 0.000000
-11.263400 0.000000
-11.222000 0.000000
-11.180500 0.000000
-11.139100 0.000000
-11.097600 0.000000
-11.056200 0.000000
-11.014700 0.000000
-10.973300 0.000000
-10.931800 0.000000
-10.890400 0.000000
-10.848900 0.000000
-10.807500 0.000000
-10.766000 0.000000
-10.724600 0.000000
-10.683100 0.000000
-10.641700 0.000000
-10.600200 0.000000
-10.558800 0.000000
-10.517400 0.000000
-10.475900 0.000000
-10.434500 0.000000
-10.393000 0.000000
-10.351600 0.000000
-10.310100 0.000000
-10.268700 0.000000
-10.227200 0.000000
-10.185800 0.000000
-10.144300 0.000000
-10.102900 0.000000
-10.061400 0.000000
-10.020000 0.000000
-9.978500 0.000000
-9.937100 0.000000
-9.895600 0.000000
-9.854200 0.000000
-9.812700 0.000000
-9.771300 0.000000
-9.729800 0.000000
-9.688400 0.000000
-9.646900 0.000000
-9.605500 0.000000
-9.564000 0.000000
-9.522600 0.000000
-9.481100 0.000000
-9.439700 0.000000
-9.398200 0.000000
-9.356800 0.000000
-9.315300 0.000000
-9.273900 0.000000
-9.232400 0.000000
-9.191000 0.000000
-9.149500 0.000000
-9.108100 0.000000
-9.066600 0.000000
-9.025200 0.000000
-8.983800 0.000000
-8.942300 0.000000
-8.900900 0.000000
-8.859400 0.000000
-8.818000 0.000000
-8.776500 0.000000
-8.735100 0.000000
-8.693600 0.000000
-8.652200 0.000000
-8.610700 0.000000
-8.569300 0.000000
-8.527800 0.000000
-8.486400 0.000000
-8.444900 0.000000
-8.403500 0.000000
-8.362000 0.000000
-8.320600 0.000000
-8.279100 0.000000
-8.237700 0.000000
-8.196200 0.000000
-8.154800 0.000000
-8.113300 0.000000
-8.071900 0.000000
-8.030400 0.000000
-7.989000 0.000000
-7.947500 0.000000
-7.906100 0.000000
-7.864600 0.000000
-7.823200 0.000000
-7.781700 0.000000
-7.740300 0.000000
-7.698800 1.930700
-7.657400 2.320400
-7.615900 2.617400
-7.574500 4.911900
-7.533100 9.754000
-7.491600 15.317100
-7.450200 26.709000
-7.408700 21.054900
-7.367300 15.510400
-7.325800 14.866600
-7.284400 22.486400
-7.242900 36.054900
-7.201500 27.476500
-7.160000 31.341500
-7.118600 20.754600
-7.077100 40.198700
-7.035700 19.005900
-6.994200 18.700500
-6.952800 15.636100
-6.911300 8.331900
-6.869900 1.737400
-6.828400 0.013100
-6.787000 0.000000
-6.745500 0.000000
-6.704100 0.000000
-6.662600 0.000000
-6.621200 0.000000
-6.579700 0.000000
-6.538300 0.000000
-6.496800 0.000000
-6.455400 0.000000
-6.413900 0.000000
-6.372500 0.000000
-6.331000 0.000000
-6.289600 0.000000
-6.248100 0.000000
-6.206700 0.000000
-6.165200 0.000000
-6.123800 0.000000
-6.082400 0.000000
-6.040900 0.000000
-5.999500 0.000000
-5.958000 0.000000
-5.916600 0.000000
-5.875100 0.000000
-5.833700 0.000000
-5.792200 0.000000
-5.750800 0.000000
-5.709300 0.000000
-5.667900 0.000000
-5.626400 0.000000
-5.585000 0.000000
-5.543500 0.000000
-5.502100 0.000000
-5.460600 0.000000
-5.419200 0.000000
-5.377700 0.000000
-5.336300 0.000000
-5.294800 0.000000
-5.253400 0.000000
-5.211900 0.000000
-5.170500 0.000000
-5.129000 0.000000
-5.087600 0.000000
-5.046100 0.000000
-5.004700 0.000000
-4.963200 0.000000
-4.921800 0.000000
-4.880300 0.000000
-4.838900 0.000000
-4.797400 0.000000
-4.756000 0.000000
-4.714500 0.000000
-4.673100 0.000000
-4.631600 0.000000
-4.590200 0.000000
-4.548800 0.000000
-4.507300 0.000000
-4.465900 0.000000
-4.424400 0.000000
-4.383000 0.000000
-4.341500 0.000000
-4.300100 0.000000
-4.258600 0.000000
-4.217200 0.000000
-4.175700 0.000000
-4.134300 0.000000
-4.092800 0.000000
-4.051400 0.000000
-4.009900 0.000000
-3.968500 0.000000
-3.927000 0.000000
-3.885600 0.000000
-3.844100 0.000000
-3.802700 0.000000
-3.761200 0.000000
-3.719800 0.000000
-3.678300 0.000000
-3.636900 0.000000
-3.595400 0.000000
-3.554000 0.000000
-3.512500 0.000000
-3.471100 0.000000
-3.429600 0.000000
-3.388200 0.000000
-3.346700 0.000000
-3.305300 0.000000
-3.263800 0.000000
-3.222400 0.000000
-3.180900 0.000000
-3.139500 0.000000
-3.098100 0.000000
-3.056600 0.000000
-3.015200 0.000000
-2.973700 0.000000
-2.932300 0.000000
-2.890800 0.000000
-2.849400 0.000000
-2.807900 0.000000
-2.766500 0.000000
-2.725000 0.000000
-2.683600 0.000000
-2.642100 0.000000
-2.600700 0.000000
-2.559200 0.000000
-2.517800 0.000000
-2.476300 0.000000
-2.434900 0.000000
-2.393400 0.000000
-2.352000 0.000000
-2.310500 0.000000
-2.269100 0.000000
-2.227600 0.000300
-2.186200 0.025800
-2.144700 0.077600
-2.103300 0.088700
-2.061800 0.103300
-2.020400 0.115600
-1.978900 0.132300
-1.937500 0.149600
-1.896000 0.158900
-1.854600 0.166700
-1.813100 0.175400
-1.771700 0.183200
-1.730200 0.191200
-1.688800 0.200700
-1.647400 0.210700
-1.605900 0.221800
-1.564500 0.231200
-1.523000 0.236800
-1.481600 0.241500
-1.440100 0.247900
-1.398700 0.254800
-1.357200 0.261700
-1.315800 0.268600
-1.274300 0.276300
-1.232900 0.284600
-1.191400 0.293000
-1.150000 0.301400
-1.108500 0.310200
-1.067100 0.318600
-1.025600 0.326800
-0.984200 0.336100
-0.942700 0.350500
-0.901300 0.361900
-0.859800 0.367500
-0.818400 0.368400
-0.776900 0.374000
-0.735500 0.376100
-0.694000 0.375900
-0.652600 0.374200
-0.611100 0.373600
-0.569700 0.374100
-0.528200 0.376500
-0.486800 0.379800
-0.445300 0.382100
-0.403900 0.383600
-0.362400 0.385000
-0.321000 0.388300
-0.279500 0.392700
-0.238100 0.396600
-0.196700 0.404400
-0.155200 0.427200
-0.113800 0.441200
-0.072300 0.451900
-0.030900 0.458200
0.010600 0.459900
0.052000 0.449200
0.093500 0.444800
0.134900 0.452200
0.176400 0.465700
0.217800 0.469100
0.259300 0.425300
0.300700 0.373100
0.342200 0.360100
0.383600 0.347700
0.425100 0.334600
0.466500 0.330100
0.508000 0.319800
0.549400 0.307900
0.590900 0.299300
0.632300 0.294800
0.673800 0.293600
0.715200 0.327100
0.756700 0.369700
0.798100 0.430400
0.839600 0.516300
0.881000 0.669300
0.922500 0.582300
0.963900 0.582600
1.005400 0.582800
1.046800 0.581400
1.088300 0.579000
1.129700 0.565900
1.171200 0.549300
1.212600 0.545900
1.254100 0.549700
1.295500 0.583100
1.336900 0.545300
1.378400 0.542000
1.419800 0.535900
1.461300 0.523500
1.502700 0.512300
1.544200 0.500000
1.585600 0.468200
1.627100 0.452400
1.668500 0.439300
1.710000 0.428400
1.751400 0.418700
1.792900 0.413300
1.834300 0.426900
1.875800 0.446100
1.917200 0.442100
1.958700 0.432400
2.000100 0.421700
2.041600 0.412600
2.083000 0.424400
2.124500 0.435400
2.165900 0.444800
2.207400 0.456500
2.248800 0.472000
2.290300 0.487500
2.331700 0.504700
2.373200 0.538400
2.414600 0.578000
2.456100 0.600600
2.497500 0.663500
2.539000 0.684000
2.580400 0.702200
2.621900 0.718700
2.663300 0.691000
2.704800 0.682600
2.746200 0.673600
2.787600 0.670500
2.829100 0.679000
2.870500 0.679800
2.912000 0.659000
2.953400 0.650600
2.994900 0.646500
3.036300 0.644900
3.077800 0.636200
3.119200 0.624600
3.160700 0.621800
3.202100 0.613700
3.243600 0.609300
3.285000 0.605800
3.326500 0.601000
3.367900 0.593400
3.409400 0.583400
3.450800 0.571000
3.492300 0.564000
3.533700 0.563000
3.575200 0.564900
3.616600 0.584200
3.658100 0.593300
3.699500 0.599900
3.741000 0.596600
3.782400 0.642400
3.823900 0.647400
3.865300 0.656900
3.906800 0.668200
3.948200 0.677000
3.989700 0.648200
4.031100 0.599500
4.072600 0.591600
4.114000 0.585700
4.155500 0.574600
4.196900 0.566300
4.238300 0.561100
4.279800 0.575900
4.321200 0.565800
4.362700 0.539300
4.404100 0.538400
4.445600 0.565100
4.487000 0.563400
4.528500 0.608500
4.569900 0.601300
4.611400 0.606500
4.652800 0.615500
4.694300 0.658600
4.735700 0.762000
4.777200 0.795200
4.818600 0.843000
4.860100 0.903900
4.901500 0.913200
4.943000 0.942700
4.984400 0.935500
5.025900 0.908500
5.067300 0.822900
5.108800 0.801900
5.150200 0.796200
5.191700 0.807100
5.233100 0.830600
5.274600 0.861300
5.316000 0.930800
5.357500 0.998400
5.398900 1.006700
5.440400 0.929500
5.481800 0.939600
5.523300 0.922100
5.564700 0.918200
5.606200 0.942600
5.647600 0.998200
5.689000 1.077600
5.730500 1.135800
5.771900 1.173900
5.813400 1.244100
5.854800 1.295400
5.896300 1.339300
5.937700 1.410500
5.979200 1.373700
6.020600 1.437600
6.062100 1.520600
6.103500 1.577400
6.145000 1.724300
6.186400 1.869800
6.227900 1.911300
6.269300 1.919900
6.310800 2.161800
6.352200 2.447400
6.393700 2.325700
6.435100 2.503000
6.476600 2.515300
6.518000 2.429500
6.559500 2.391000
6.600900 2.348500
6.642400 2.510200
6.683800 2.745600
6.725300 3.070900
6.766700 3.954800
6.808200 2.655000
6.849600 2.402200
6.891100 2.259500
6.932500 2.189900
6.974000 2.306600
7.015400 1.932400
7.056900 1.541400
7.098300 1.336700
7.139800 0.983700
7.181200 0.829800
7.222600 0.918300
7.264100 1.655900
7.305500 3.998800
7.347000 5.620400
7.388400 7.437200
7.429900 3.707100
7.471300 2.844200
7.512800 3.170300
7.554200 2.661600
7.595700 2.116600
7.637100 1.813900
7.678600 1.458500
7.720000 1.389000
7.761500 1.625400
7.802900 2.120800
7.844400 2.018500
7.885800 6.290500
7.927300 3.078900
7.968700 1.806700
8.010200 1.748300
8.051600 1.737700
8.093100 1.920000
8.134500 1.894400
8.176000 1.905600
8.217400 1.911900
8.258900 1.870500
8.300300 1.787100
8.341800 1.635800
8.383200 1.501600
8.424700 1.371900
8.466100 1.322900
8.507600 1.307000
8.549000 1.302300
8.590500 1.286800
8.631900 1.258600
8.673300 1.203400
8.714800 1.144600
8.756200 1.104900
8.797700 1.043300
8.839100 1.005200
8.880600 0.993000
8.922000 1.005000
8.963500 1.009300
9.004900 1.014700
9.046400 1.029200
9.087800 1.046400
9.129300 0.986500
9.170700 0.970900
9.212200 0.968800
9.253600 0.971500
9.295100 0.978600
9.336500 0.999500
9.378000 1.028600
9.419400 1.044000
9.460900 1.033600
9.502300 1.011900
9.543800 1.001300
9.585200 0.998100
9.626700 0.985100
9.668100 0.969300
9.709600 0.968300
9.751000 0.967300
9.792500 0.967500
9.833900 0.954500
9.875400 0.966100
9.916800 0.985700
9.958300 1.010600
9.999700 1.038800
10.041200 1.008600
10.082600 1.010900
10.124000 1.031800
10.165500 1.073700
10.206900 1.066400
10.248400 1.069100
10.289800 1.088500
10.331300 1.119000
10.372700 1.120700
10.414200 1.096900
10.455600 1.054300
10.497100 0.998100
10.538500 0.928300
10.580000 0.880500
10.621400 0.828800
10.662900 0.775500
10.704300 0.739200
10.745800 0.714500
10.787200 0.723500
10.828700 0.746400
10.870100 0.779600
10.911600 0.828800
10.953000 0.884200
10.994500 0.930900
11.035900 0.956400
11.077400 0.988000
11.118800 1.003100
11.160300 0.998300
11.201700 1.009100
11.243200 1.050900
11.284600 1.101200
11.326100 1.128400
11.367500 1.140200
11.409000 1.129000
11.450400 1.105900
11.491900 1.085100
11.533300 1.056600
11.574800 1.027400
11.616200 1.021000
11.657600 1.032600
11.699100 1.076600
11.740500 1.122900
11.782000 1.119000
11.823400 1.132000
11.864900 1.169900
11.906300 1.181800
11.947800 1.203500
11.989200 1.242500
12.030700 1.256900
12.072100 1.257400
12.113600 1.257700
12.155000 1.219000
12.196500 1.177600
12.237900 1.159600
12.279400 1.149500
12.320800 1.134600
12.362300 1.186600
12.403700 1.241700
12.445200 1.297600
12.486600 1.367600
12.528100 1.409800
12.569500 1.368900
12.611000 1.294300
12.652400 1.236000
12.693900 1.076300
12.735300 1.024000
12.776800 0.960600
12.818200 0.951500
12.859700 0.970000
12.901100 0.991700
12.942600 1.027600
12.984000 1.142500
13.025500 1.208200
13.066900 1.222000
13.108300 1.283800
13.149800 1.281300
13.191200 1.253300
13.232700 1.215400
13.274100 1.185600
13.315600 1.158800
13.357000 1.170800
13.398500 1.222700
13.439900 1.276800
13.481400 1.303800
13.522800 1.339000
13.564300 1.356200
13.605700 1.325100
13.647200 1.236600
13.688600 1.282400
13.730100 1.277500
13.771500 1.206000
13.813000 1.101600
13.854400 1.062300
13.895900 1.049100
13.937300 1.047500
13.978800 1.079400
14.020200 1.135900
14.061700 1.173100
14.103100 1.092400
14.144600 1.121800
14.186000 1.162300
14.227500 1.156700
14.268900 1.140400
14.310400 1.116300
14.351800 1.107000
14.393300 1.116700
14.434700 1.106300
14.476200 1.102700
14.517600 1.099300
14.559000 1.116500
14.600500 1.119300
14.641900 1.125500
14.683400 1.129300
14.724800 1.151600
14.766300 1.160600
14.807700 1.179200
14.849200 1.152700
14.890600 1.118000
14.932100 1.101800
14.973500 1.090100
15.015000 1.112500
15.056400 1.088200
15.097900 1.058800
15.139300 1.058400
15.180800 1.087700
15.222200 1.141900
15.263700 1.135500
15.305100 1.113200
15.346600 1.096700
15.388000 1.088500
15.429500 1.086600
15.470900 1.089700
15.512400 1.085200
15.553800 1.148900
15.595300 1.176600
15.636700 1.123500
15.678200 1.080800
15.719600 1.055800
15.761100 1.029300
15.802500 0.979400
15.844000 0.934100
15.885400 0.907100
15.926900 0.899600
15.968300 0.897700
16.009700 0.908200
16.051200 0.913800
16.092600 0.897900
16.134100 0.868600
16.175500 0.852300
16.217000 0.836200
16.258400 0.824200
16.299900 0.816400
16.341300 0.822200
16.382800 0.821800
16.424200 0.826500
16.465700 0.834500
16.507100 0.838500
16.548600 0.845700
16.590000 0.866000
16.631500 0.861200
16.672900 0.852600
16.714400 0.860400
16.755800 0.894800
16.797300 0.914100
16.838700 0.966700
16.880200 1.015200
16.921600 1.067300
16.963100 1.110000
17.004500 1.157700
17.046000 1.184400
17.087400 1.201600
17.128900 1.207100
17.170300 1.248200
17.211800 1.293000
17.253200 1.327500
17.294700 1.299400
17.336100 1.282700
17.377600 1.215300
17.419000 1.135500
17.460500 1.107500
17.501900 1.097800
17.543300 1.109700
17.584800 1.092500
17.626200 1.081300
17.667700 1.090900
17.709100 1.107700
17.750600 1.117000
17.792000 1.088100
17.833500 1.074000
17.874900 1.064100
17.916400 1.082900
17.957800 1.110100
17.999300 1.141500
18.040700 1.175700
18.082200 1.256000
18.123600 1.460700
18.165100 1.603700
18.206500 1.580800
18.248000 1.537900
18.289400 1.528700
18.330900 1.516000
18.372300 1.510600
18.413800 1.509000
18.455200 1.501800
18.496700 1.538400
18.538100 1.510500
18.579600 1.482900
18.621000 1.455100
18.662500 1.425700
18.703900 1.422900
18.745400 1.427700
18.786800 1.518600
18.828300 1.522900
18.869700 1.489600
18.911200 1.445200
18.952600 1.403000
18.994000 1.369000
19.035500 1.353200
19.076900 1.366800
19.118400 1.389300
19.159800 1.388600
19.201300 1.416000
19.242700 1.471000
19.284200 1.511400
19.325600 1.597200
19.367100 1.709200
19.408500 1.809200
19.450000 1.900300
19.491400 2.006400
19.532900 2.058000
19.574300 2.011600
19.615800 1.917300
19.657200 1.667800
19.698700 1.516800
19.740100 1.433700
19.781600 1.494800
19.823000 1.315400
19.864500 1.166000
19.905900 1.091300
19.947400 1.066500
19.988800 1.119800
20.030300 1.206000
20.071700 1.265800
20.113200 1.301200
20.154600 1.323000
20.196100 1.384300
20.237500 1.360300
20.279000 1.315600
20.320400 1.308500
20.361900 1.283100
20.403300 1.267700
20.444700 1.243800
20.486200 1.231000
20.527600 1.246000
20.569100 1.346100
20.610500 1.302500
20.652000 1.309900
20.693400 1.278800
20.734900 1.202900
20.776300 1.164900
20.817800 1.137100
20.859200 1.141700
20.900700 1.174000
20.942100 1.235400
20.983600 1.418900
21.025000 1.563500
21.066500 1.666900
21.107900 1.722300
21.149400 1.738800
21.190800 1.865300
21.232300 1.980600
21.273700 1.855300
21.315200 1.900400
21.356600 1.683200
21.398100 1.433700
21.439500 1.330700
21.481000 1.307200
21.522400 1.277700
21.563900 1.265700
21.605300 1.287400
21.646800 1.356800
21.688200 1.430600
21.729700 1.502000
21.771100 1.523800
21.812600 1.416200
21.854000 1.383800
21.895500 1.318100
21.936900 1.143800
21.978300 1.125800
22.019800 1.246400
22.061200 1.308600
22.102700 1.252600
22.144100 1.244400
22.185600 1.230500
22.227000 1.217700
22.268500 1.217400
22.309900 1.213100
22.351400 1.202500
22.392800 1.188700
22.434300 1.131900
22.475700 1.077600
22.517200 1.030300
22.558600 0.992500
22.600100 0.971800
22.641500 0.975500
22.683000 1.011600
22.724400 1.065200
22.765900 1.082700
22.807300 1.115400
22.848800 1.175100
22.890200 1.246200
22.931700 1.291800
22.973100 1.270700
23.014600 1.265800
23.056000 1.269700
23.097500 1.255400
23.138900 1.274700
23.180400 1.228600
23.221800 1.197900
23.263300 1.232800
23.304700 1.278100
23.346200 1.352700
23.387600 1.343100
23.429000 1.424700
23.470500 1.491300
23.511900 1.436500
23.553400 1.329500
23.594800 1.282100
23.636300 1.263900
23.677700 1.300100
23.719200 1.270600
23.760600 1.240700
23.802100 1.292600
23.843500 1.504000
23.885000 1.423900
23.926400 1.380300
23.967900 1.380700
24.009300 1.366700
24.050800 1.405100
24.092200 1.458200
24.133700 1.547200
24.175100 1.678300
24.216600 1.694700
24.258000 1.701700
24.299500 1.699800
24.340900 1.707000
24.382400 1.756500
24.423800 1.753200
24.465300 1.747800
24.506700 1.712000
24.548200 1.722100
24.589600 1.819500
24.631100 1.849800
24.672500 1.736900
24.714000 1.676700
24.755400 1.667700
24.796900 1.653500
24.838300 1.647500
24.879700 1.523800
24.921200 1.438400
24.962600 1.378600
25.004100 1.370000
25.045500 1.361000
25.087000 1.369000
25.128400 1.380800
25.169900 1.422600
25.211300 1.456200
25.252800 1.518800
25.294200 1.541900
25.335700 1.568500
25.377100 1.620100
25.418600 1.571100
25.460000 1.525900
25.501500 1.486600
25.542900 1.462800
25.584400 1.449200
25.625800 1.455000
25.667300 1.472600
25.708700 1.500500
25.750200 1.557100
25.791600 1.590500
25.833100 1.656200
25.874500 1.733300
25.916000 1.820500
25.957400 1.887300
25.998900 1.930900
26.040300 1.956600
26.081800 1.973800
26.123200 1.909800
26.164700 1.894200
26.206100 1.906800
26.247600 1.864600
26.289000 1.937600
26.330400 1.949100
26.371900 1.920100
26.413300 1.902200
26.454800 1.839800
26.496200 1.758000
26.537700 1.702500
26.579100 1.663400
26.620600 1.615900
26.662000 1.614100
26.703500 1.558000
26.744900 1.505200
26.786400 1.497100
26.827800 1.477900
26.869300 1.548400
26.910700 1.650500
26.952200 1.607800
26.993600 1.631900
27.035100 1.687000
27.076500 1.732500
27.118000 1.700400
27.159400 1.652000
27.200900 1.669900
27.242300 1.703300
27.283800 1.798700
27.325200 1.805700
27.366700 1.891500
27.408100 1.896000
27.449600 1.878000
27.491000 1.857300
27.532500 1.794100
27.573900 1.794300
27.615400 1.779500
27.656800 1.778500
27.698300 1.864000
27.739700 1.898100
27.781200 1.868300
27.822600 1.850100
27.864000 1.880300
27.905500 1.892300
27.946900 1.910000
27.988400 1.643000
28.029800 1.679900
28.071300 1.686500
28.112700 1.686100
28.154200 1.726800
28.195600 1.846700
28.237100 1.806600
28.278500 1.809300
28.320000 1.825400
28.361400 1.822000
28.402900 1.877900
28.444300 1.960400
28.485800 2.053100
28.527200 2.120800
28.568700 1.897400
28.610100 1.847200
28.651600 1.874100
28.693000 1.837300
28.734500 1.942800
28.775900 2.010400
28.817400 1.946100
28.858800 1.883400
28.900300 1.829000
28.941700 1.827200
28.983200 1.837700
29.024600 1.901700
29.066100 1.935400
29.107500 1.939100
29.149000 1.896100
29.190400 1.922000
29.231900 1.939600
29.273300 1.970800
29.314700 1.925300
29.356200 1.859800
29.397600 1.837800
29.439100 1.836100
29.480500 1.884600
29.522000 1.909500
29.563400 1.941600
29.604900 2.039600
29.646300 1.982800
29.687800 1.964400
29.729200 1.969800
29.770700 1.966100
29.812100 2.006600
29.853600 1.965000
29.895000 1.877900
29.936500 1.905900
29.977900 2.000000
30.019400 2.089200
30.060800 2.187500
30.102300 2.208800
30.143700 2.146600
30.185200 2.057600
30.226600 2.060700
30.268100 2.059800
30.309500 2.129200
30.351000 2.095500
30.392400 2.024800
30.433900 1.950600
30.475300 1.910400
30.516800 1.880500
30.558200 1.836900
30.599700 1.813700
30.641100 1.799900
30.682600 1.768900
30.724000 1.760600
30.765400 1.784900
30.806900 1.813200
30.848300 1.820700
30.889800 1.850200
30.931200 1.893900
30.972700 1.945400
31.014100 1.985100
31.055600 1.985100
31.097000 2.013500
31.138500 2.121900
31.179900 1.996700
31.221400 2.026100
31.262800 2.084500
31.304300 2.164700
31.345700 2.146100
31.387200 2.162300
31.428600 2.220400
31.470100 2.358900
31.511500 2.376400
31.553000 2.499500
31.594400 2.134100
31.635900 2.102000
31.677300 2.060500
31.718800 1.996900
31.760200 1.938200
31.801700 1.998100
31.843100 1.969600
31.884600 1.862500
31.926000 1.852500
31.967500 1.852100
32.008900 1.851000
32.050400 1.863000
32.091800 1.817800
32.133300 1.787900
32.174700 1.775100
32.216100 1.782700
32.257600 1.821600
32.299000 1.884200
32.340500 1.813900
32.381900 1.728300
32.423400 1.687900
32.464800 1.665900
32.506300 1.656500
32.547700 1.644500
32.589200 1.606900
32.630600 1.588200
32.672100 1.579800
32.713500 1.567000
32.755000 1.541200
32.796400 1.506600
32.837900 1.526500
32.879300 1.486100
32.920800 1.450500
32.962200 1.434500
33.003700 1.403700
33.045100 1.360300
33.086600 1.274600
33.128000 1.203800
33.169500 1.145500
33.210900 1.107800
33.252400 1.084800
33.293800 1.098200
33.335300 1.047600
33.376700 0.970200
33.418200 0.921700
33.459600 0.891600
33.501100 0.878100
33.542500 0.838300
33.584000 0.804200
33.625400 0.761200
33.666900 0.733500
33.708300 0.703200
33.749700 0.699300
33.791200 0.669600
33.832600 0.672900
33.874100 0.648200
33.915500 0.573200
33.957000 0.520300
33.998400 0.543700
34.039900 0.532300
34.081300 0.562200
34.122800 0.533100
34.164200 0.489400
34.205700 0.453000
34.247100 0.423700
34.288600 0.397600
34.330000 0.361300
34.371500 0.302100
34.412900 0.259400
34.454400 0.230200
34.495800 0.192900
34.537300 0.169100
34.578700 0.146000
34.620200 0.117300
34.661600 0.098800
34.703100 0.088600
34.744500 0.080000
34.786000 0.072400
34.827400 0.066900
34.868900 0.061800
34.910300 0.056900
34.951800 0.052700
34.993200 0.050700
35.034700 0.050400
35.076100 0.052200
35.117600 0.048800
35.159000 0.034800
35.200400 0.023000
35.241900 0.013300
35.283300 0.005700
35.324800 0.001300
35.366200 0.000000
35.407700 0.000000
35.449100 0.000000
35.490600 0.000000
35.532000 0.000000
35.573500 0.000000
35.614900 0.000000
35.656400 0.000000
35.697800 0.000000
35.739300 0.000000
35.780700 0.000000
35.822200 0.000000
35.863600 0.000000
35.905100 0.000000
35.946500 0.000000
35.988000 0.000000
36.029400 0.000000
36.070900 0.000000
36.112300 0.000000
36.153800 0.000000
36.195200 0.000000
36.236700 0.000000
36.278100 0.000000
36.319600 0.000000
36.361000 0.000000
36.402500 0.000000
36.443900 0.000000
36.485400 0.000000
36.526800 0.000000
36.568300 0.000000
36.609700 0.000000
36.651100 0.000000
36.692600 0.000000
36.734000 0.000000
36.775500 0.000000
36.816900 0.000000
36.858400 0.000000
36.899800 0.000000
36.941300 0.000000
36.982700 0.000000
37.024200 0.000000
37.065600 0.000000
37.107100 0.000000
37.148500 0.000000
37.190000 0.000000
37.231400 0.000000
37.272900 0.000000
37.314300 0.000000
37.355800 0.000000
37.397200 0.000000
37.438700 0.000000
37.480100 0.000000
37.521600 0.000000
37.563000 0.000000
37.604500 0.000000
37.645900 0.000000
37.687400 0.000000
37.728800 0.000000
37.770300 0.000000
37.811700 0.000000
37.853200 0.000000
37.894600 0.000000
37.936100 0.000000
37.977500 0.000000
38.019000 0.000000
38.060400 0.000000
38.101900 0.000000
38.143300 0.000000
38.184700 0.000000
38.226200 0.000000
38.267600 0.000000
38.309100 0.000000
38.350500 0.000000
38.392000 0.000000
38.433400 0.000000
38.474900 0.000000
38.516300 0.000000
38.557800 0.000000
38.599200 0.000000
38.640700 0.000000
38.682100 0.000000
38.723600 0.000000
38.765000 0.000000
38.806500 0.000000
38.847900 0.000000
38.889400 0.000000
38.930800 0.000000
38.972300 0.000000
39.013700 0.000000
39.055200 0.000000
39.096600 0.000000
39.138100 0.000000
e
