set title 'mp-542635 - Density of States'
set xlabel 'Energy (eV)'
set ylabel 'DOS (states/eV)'
set grid
set xrange [-10:10]
set yrange [0:128.962]
set xzeroaxis lt -1
set terminal png size 800,600
set output 'mp-542635_dos_gnuplot.png'
plot '-' using 1:2 with lines title 'DOS'
-19.165200 0.000000
-19.148700 0.000000
-19.132200 0.000000
-19.115700 0.000000
-19.099300 0.000000
-19.082800 0.000000
-19.066300 0.000000
-19.049800 0.000000
-19.033300 0.000000
-19.016900 0.000000
-19.000400 0.000000
-18.983900 0.000000
-18.967400 0.000000
-18.951000 0.000000
-18.934500 0.000000
-18.918000 0.000000
-18.901500 0.000000
-18.885000 0.000000
-18.868600 0.000000
-18.852100 0.000000
-18.835600 0.000000
-18.819100 0.000000
-18.802600 0.000000
-18.786200 0.000000
-18.769700 0.000000
-18.753200 0.000000
-18.736700 0.000000
-18.720200 0.000000
-18.703800 0.000000
-18.687300 0.000000
-18.670800 0.000000
-18.654300 0.000000
-18.637800 0.000000
-18.621400 0.000000
-18.604900 0.000000
-18.588400 0.000000
-18.571900 0.000000
-18.555500 0.000000
-18.539000 0.000000
-18.522500 0.000000
-18.506000 0.000000
-18.489500 0.000000
-18.473100 0.000000
-18.456600 0.000000
-18.440100 0.000000
-18.423600 0.000000
-18.407100 0.000000
-18.390700 0.000000
-18.374200 0.000000
-18.357700 0.000000
-18.341200 0.000000
-18.324700 0.000000
-18.308300 0.000000
-18.291800 0.000000
-18.275300 0.000000
-18.258800 0.000000
-18.242300 0.000000
-18.225900 0.000000
-18.209400 0.000000
-18.192900 0.000000
-18.176400 0.000000
-18.160000 0.000000
-18.143500 0.000000
-18.127000 0.000000
-18.110500 0.000000
-18.094000 0.000000
-18.077600 0.000000
-18.061100 0.000000
-18.044600 0.000000
-18.028100 0.000000
-18.011600 0.000000
-17.995200 0.000000
-17.978700 0.000000
-17.962200 0.000000
-17.945700 0.000000
-17.929200 0.000000
-17.912800 0.000000
-17.896300 0.000000
-17.879800 0.000000
-17.863300 0.000000
-17.846800 0.000000
-17.830400 0.000000
-17.813900 0.000000
-17.797400 0.000000
-17.780900 0.000000
-17.764500 0.000000
-17.748000 0.000000
-17.731500 0.000000
-17.715000 0.000000
-17.698500 0.000000
-17.682100 0.000000
-17.665600 0.127100
-17.649100 18.308100
-17.632600 59.020100
-17.616100 100.242300
-17.599700 89.101000
-17.583200 0.000000
-17.566700 77.704600
-17.550200 98.904400
-17.533700 75.904700
-17.517300 0.000000
-17.500800 0.000000
-17.484300 0.000000
-17.467800 0.000000
-17.451300 0.000000
-17.434900 0.000000
-17.418400 0.000000
-17.401900 0.000000
-17.385400 0.000000
-17.369000 0.000000
-17.352500 0.000000
-17.336000 0.000000
-17.319500 0.000000
-17.303000 0.000000
-17.286600 0.000000
-17.270100 0.000000
-17.253600 0.000000
-17.237100 0.000000
-17.220600 0.000000
-17.204200 0.000000
-17.187700 0.000000
-17.171200 0.000000
-17.154700 0.000000
-17.138200 0.000000
-17.121800 0.000000
-17.105300 0.000000
-17.088800 0.000000
-17.072300 0.000000
-17.055800 0.000000
-17.039400 0.000000
-17.022900 0.000000
-17.006400 0.000000
-16.989900 0.000000
-16.973500 0.000000
-16.957000 0.000000
-16.940500 0.000000
-16.924000 0.000000
-16.907500 0.000000
-16.891100 0.000000
-16.874600 0.000000
-16.858100 0.000000
-16.841600 0.000000
-16.825100 0.000000
-16.808700 0.000000
-16.792200 0.000000
-16.775700 0.000000
-16.759200 0.000000
-16.742700 0.000000
-16.726300 0.000000
-16.709800 0.000000
-16.693300 0.000000
-16.676800 0.000000
-16.660300 0.000000
-16.643900 0.000000
-16.627400 0.000000
-16.610900 0.000000
-16.594400 0.000000
-16.578000 0.000000
-16.561500 0.000000
-16.545000 0.000000
-16.528500 0.000000
-16.512000 0.000000
-16.495600 0.000000
-16.479100 0.000000
-16.462600 0.000000
-16.446100 0.000000
-16.429600 0.000000
-16.413200 0.000000
-16.396700 0.000000
-16.380200 0.000000
-16.363700 0.000000
-16.347200 0.000000
-16.330800 0.000000
-16.314300 0.000000
-16.297800 0.000000
-16.281300 0.000000
-16.264800 0.000000
-16.248400 0.000000
-16.231900 0.000000
-16.215400 0.000000
-16.198900 0.000000
-16.182500 0.000000
-16.166000 0.000000
-16.149500 0.000000
-16.133000 0.000000
-16.116500 0.000000
-16.100100 0.000000
-16.083600 0.000000
-16.067100 0.000000
-16.050600 0.000000
-16.034100 0.000000
-16.017700 0.000000
-16.001200 0.000000
-15.984700 0.000000
-15.968200 0.000000
-15.951700 0.000000
-15.935300 0.000000
-15.918800 238.675100
-15.902300 149.406500
-15.885800 101.521300
-15.869300 0.000000
-15.852900 144.527300
-15.836400 216.382800
-15.819900 218.654500
-15.803400 0.000000
-15.787000 0.000000
-15.770500 0.000000
-15.754000 0.000000
-15.737500 0.000000
-15.721000 0.000000
-15.704600 0.000000
-15.688100 0.000000
-15.671600 0.000000
-15.655100 0.000000
-15.638600 0.000000
-15.622200 0.000000
-15.605700 0.000000
-15.589200 0.000000
-15.572700 0.000000
-15.556200 0.000000
-15.539800 0.000000
-15.523300 0.000000
-15.506800 0.000000
-15.490300 0.000000
-15.473900 0.000000
-15.457400 0.000000
-15.440900 0.000000
-15.424400 0.000000
-15.407900 0.000000
-15.391500 0.000000
-15.375000 0.000000
-15.358500 0.000000
-15.342000 0.000000
-15.325500 0.000000
-15.309100 0.000000
-15.292600 0.000000
-15.276100 0.000000
-15.259600 0.000000
-15.243100 0.000000
-15.226700 0.000000
-15.210200 0.000000
-15.193700 0.000000
-15.177200 0.000000
-15.160700 0.000000
-15.144300 0.000000
-15.127800 0.000000
-15.111300 0.000000
-15.094800 0.000000
-15.078400 0.000000
-15.061900 0.000000
-15.045400 0.000000
-15.028900 0.000000
-15.012400 0.000000
-14.996000 0.000000
-14.979500 0.000000
-14.963000 0.000000
-14.946500 0.000000
-14.930000 0.000000
-14.913600 0.000000
-14.897100 0.000000
-14.880600 0.000000
-14.864100 0.000000
-14.847600 0.000000
-14.831200 0.000000
-14.814700 0.000000
-14.798200 0.000000
-14.781700 0.000000
-14.765200 0.000000
-14.748800 0.000000
-14.732300 0.000000
-14.715800 0.000000
-14.699300 0.000000
-14.682900 0.000000
-14.666400 0.000000
-14.649900 0.000000
-14.633400 0.000000
-14.616900 0.000000
-14.600500 0.000000
-14.584000 0.000000
-14.567500 0.000000
-14.551000 0.000000
-14.534500 0.000000
-14.518100 0.000000
-14.501600 0.000000
-14.485100 0.000000
-14.468600 0.000000
-14.452100 0.000000
-14.435700 0.000000
-14.419200 0.000000
-14.402700 0.000000
-14.386200 0.000000
-14.369700 0.000000
-14.353300 0.000000
-14.336800 0.000000
-14.320300 0.000000
-14.303800 0.000000
-14.287400 0.000000
-14.270900 0.000000
-14.254400 0.000000
-14.237900 0.000000
-14.221400 0.000000
-14.205000 0.000000
-14.188500 0.000000
-14.172000 0.000000
-14.155500 0.000000
-14.139000 0.000000
-14.122600 0.000000
-14.106100 0.000000
-14.089600 0.000000
-14.073100 0.000000
-14.056600 0.000000
-14.040200 0.000000
-14.023700 0.000000
-14.007200 0.000000
-13.990700 0.000000
-13.974200 0.000000
-13.957800 0.000000
-13.941300 0.000000
-13.924800 0.000000
-13.908300 0.000000
-13.891900 0.000000
-13.875400 0.000000
-13.858900 0.000000
-13.842400 0.000000
-13.825900 0.000000
-13.809500 0.000000
-13.793000 0.000000
-13.776500 0.000000
-13.760000 0.000000
-13.743500 0.000000
-13.727100 0.000000
-13.710600 0.000000
-13.694100 0.000000
-13.677600 0.000000
-13.661100 0.000000
-13.644700 0.000000
-13.628200 0.000000
-13.611700 0.000000
-13.595200 0.000000
-13.578700 0.000000
-13.562300 0.000000
-13.545800 0.000000
-13.529300 0.000000
-13.512800 0.000000
-13.496400 0.000000
-13.479900 0.000000
-13.463400 0.000000
-13.446900 0.000000
-13.430400 15.335300
-13.414000 131.116100
-13.397500 90.756400
-13.381000 0.000000
-13.364500 0.000000
-13.348000 89.172900
-13.331600 109.199500
-13.315100 54.037100
-13.298600 0.000000
-13.282100 0.000000
-13.265600 0.000000
-13.249200 0.000000
-13.232700 0.000000
-13.216200 0.000000
-13.199700 0.000000
-13.183200 0.000000
-13.166800 0.000000
-13.150300 0.000000
-13.133800 13.574600
-13.117300 96.789800
-13.100900 15.426200
-13.084400 133.905900
-13.067900 0.142500
-13.051400 0.000000
-13.034900 0.000000
-13.018500 0.000000
-13.002000 0.000000
-12.985500 0.000000
-12.969000 0.000000
-12.952500 0.000000
-12.936100 0.000000
-12.919600 0.000000
-12.903100 0.000000
-12.886600 0.000000
-12.870100 0.000000
-12.853700 0.000000
-12.837200 0.000000
-12.820700 0.000000
-12.804200 0.000000
-12.787700 0.000000
-12.771300 0.000000
-12.754800 0.000000
-12.738300 0.000000
-12.721800 0.000000
-12.705400 0.000000
-12.688900 0.000000
-12.672400 0.000000
-12.655900 0.000000
-12.639400 0.000000
-12.623000 0.000000
-12.606500 0.000000
-12.590000 0.000000
-12.573500 0.000000
-12.557000 0.000000
-12.540600 0.000000
-12.524100 0.000000
-12.507600 0.000000
-12.491100 0.000000
-12.474600 0.000000
-12.458200 0.000000
-12.441700 0.000000
-12.425200 0.000000
-12.408700 0.000000
-12.392200 0.000000
-12.375800 0.000000
-12.359300 0.000000
-12.342800 0.000000
-12.326300 0.000000
-12.309900 0.000000
-12.293400 0.000000
-12.276900 0.000000
-12.260400 0.000000
-12.243900 0.000000
-12.227500 0.000000
-12.211000 0.000000
-12.194500 0.000000
-12.178000 0.000000
-12.161500 0.000000
-12.145100 0.000000
-12.128600 0.000000
-12.112100 0.000000
-12.095600 0.000000
-12.079100 0.000000
-12.062700 0.000000
-12.046200 0.000000
-12.029700 0.000000
-12.013200 0.000000
-11.996700 0.000000
-11.980300 0.000000
-11.963800 0.000000
-11.947300 0.000000
-11.930800 0.000000
-11.914400 0.000000
-11.897900 0.000000
-11.881400 0.000000
-11.864900 0.000000
-11.848400 0.000000
-11.832000 0.000000
-11.815500 0.000000
-11.799000 0.000000
-11.782500 0.000000
-11.766000 0.000000
-11.749600 0.000000
-11.733100 0.000000
-11.716600 0.000000
-11.700100 0.000000
-11.683600 0.000000
-11.667200 0.000000
-11.650700 0.000000
-11.634200 0.000000
-11.617700 0.000000
-11.601200 0.000000
-11.584800 0.000000
-11.568300 0.000000
-11.551800 0.000000
-11.535300 0.000000
-11.518900 0.000000
-11.502400 0.000000
-11.485900 0.000000
-11.469400 0.000000
-11.452900 0.000000
-11.436500 0.000000
-11.420000 0.000000
-11.403500 0.000000
-11.387000 0.000000
-11.370500 0.000000
-11.354100 0.000000
-11.337600 0.000000
-11.321100 0.000000
-11.304600 0.000000
-11.288100 0.000000
-11.271700 0.000000
-11.255200 0.000000
-11.238700 0.000000
-11.222200 0.000000
-11.205700 0.000000
-11.189300 0.000000
-11.172800 0.000000
-11.156300 0.000000
-11.139800 0.000000
-11.123400 0.000000
-11.106900 0.000000
-11.090400 0.000000
-11.073900 0.000000
-11.057400 0.000000
-11.041000 0.000000
-11.024500 0.000000
-11.008000 0.000000
-10.991500 0.000000
-10.975000 0.000000
-10.958600 0.000000
-10.942100 0.000000
-10.925600 0.000000
-10.909100 0.000000
-10.892600 0.000000
-10.876200 0.000000
-10.859700 0.000000
-10.843200 0.000000
-10.826700 0.000000
-10.810200 0.000000
-10.793800 0.000000
-10.777300 0.000000
-10.760800 0.000000
-10.744300 0.000000
-10.727900 0.000000
-10.711400 0.000000
-10.694900 0.000000
-10.678400 0.000000
-10.661900 0.000000
-10.645500 0.000000
-10.629000 0.000000
-10.612500 0.000000
-10.596000 0.000000
-10.579500 0.000000
-10.563100 0.000000
-10.546600 0.000000
-10.530100 0.000000
-10.513600 0.000000
-10.497100 0.000000
-10.480700 0.000000
-10.464200 0.000000
-10.447700 0.000000
-10.431200 0.000000
-10.414800 0.000000
-10.398300 0.000000
-10.381800 0.000000
-10.365300 0.000000
-10.348800 0.000000
-10.332400 0.000000
-10.315900 0.000000
-10.299400 0.000000
-10.282900 0.000000
-10.266400 0.000000
-10.250000 0.000000
-10.233500 0.000000
-10.217000 0.000000
-10.200500 0.000000
-10.184000 0.000000
-10.167600 0.000000
-10.151100 0.000000
-10.134600 0.000000
-10.118100 0.000000
-10.101600 0.000000
-10.085200 0.000000
-10.068700 0.000000
-10.052200 0.000000
-10.035700 0.000000
-10.019300 0.000000
-10.002800 0.000000
-9.986300 0.000000
-9.969800 0.000000
-9.953300 0.000000
-9.936900 0.000000
-9.920400 0.000000
-9.903900 0.000000
-9.887400 0.000000
-9.870900 0.000000
-9.854500 0.000000
-9.838000 0.000000
-9.821500 0.000000
-9.805000 0.000000
-9.788500 0.000000
-9.772100 0.000000
-9.755600 0.000000
-9.739100 0.699800
-9.722600 3.857800
-9.706100 9.695800
-9.689700 31.930100
-9.673200 62.289100
-9.656700 60.911900
-9.640200 73.171200
-9.623800 105.635200
-9.607300 75.354800
-9.590800 72.275500
-9.574300 0.000000
-9.557800 33.972900
-9.541400 67.356200
-9.524900 63.877100
-9.508400 92.323300
-9.491900 97.706400
-9.475400 54.565300
-9.459000 51.900800
-9.442500 16.137400
-9.426000 1.546800
-9.409500 0.000000
-9.393000 0.000000
-9.376600 0.000000
-9.360100 0.000000
-9.343600 0.000000
-9.327100 0.000000
-9.310600 0.000000
-9.294200 0.000000
-9.277700 0.000000
-9.261200 0.000000
-9.244700 0.000000
-9.228300 0.000000
-9.211800 0.000000
-9.195300 0.000000
-9.178800 0.000000
-9.162300 0.000000
-9.145900 0.000000
-9.129400 0.000000
-9.112900 0.000000
-9.096400 0.000000
-9.079900 0.000000
-9.063500 0.000000
-9.047000 0.000000
-9.030500 0.000000
-9.014000 0.000000
-8.997500 0.000000
-8.981100 0.000000
-8.964600 0.000000
-8.948100 0.000000
-8.931600 0.000000
-8.915100 0.000000
-8.898700 0.000000
-8.882200 0.000000
-8.865700 0.000000
-8.849200 0.000000
-8.832800 0.000000
-8.816300 0.000000
-8.799800 0.000000
-8.783300 0.000000
-8.766800 0.000000
-8.750400 0.000000
-8.733900 0.000000
-8.717400 0.000000
-8.700900 0.000000
-8.684400 0.000000
-8.668000 0.000000
-8.651500 0.000000
-8.635000 0.000000
-8.618500 0.000000
-8.602000 0.000000
-8.585600 0.000000
-8.569100 0.000000
-8.552600 0.000000
-8.536100 0.000000
-8.519600 0.000000
-8.503200 0.000000
-8.486700 0.000000
-8.470200 0.000000
-8.453700 0.000000
-8.437300 0.000000
-8.420800 0.000000
-8.404300 0.000000
-8.387800 0.000000
-8.371300 0.000000
-8.354900 0.000000
-8.338400 0.000000
-8.321900 0.000000
-8.305400 0.000000
-8.288900 0.000000
-8.272500 0.000000
-8.256000 0.000000
-8.239500 0.000000
-8.223000 0.000000
-8.206500 0.000000
-8.190100 0.000000
-8.173600 0.000000
-8.157100 0.000000
-8.140600 0.000000
-8.124100 0.000000
-8.107700 0.000000
-8.091200 0.000000
-8.074700 0.000000
-8.058200 0.000000
-8.041800 0.000000
-8.025300 0.000000
-8.008800 0.000000
-7.992300 0.000000
-7.975800 0.000000
-7.959400 0.000000
-7.942900 0.000000
-7.926400 0.000000
-7.909900 0.000000
-7.893400 0.000000
-7.877000 0.000000
-7.860500 0.629200
-7.844000 2.539500
-7.827500 5.730700
-7.811000 17.009700
-7.794600 18.010800
-7.778100 20.116100
-7.761600 28.169100
-7.745100 32.391700
-7.728600 29.295500
-7.712200 22.479200
-7.695700 22.459900
-7.679200 22.662200
-7.662700 22.107200
-7.646300 0.000000
-7.629800 0.000000
-7.613300 0.000000
-7.596800 11.279900
-7.580300 25.103200
-7.563900 24.500700
-7.547400 26.643200
-7.530900 32.501000
-7.514400 31.509300
-7.497900 18.365700
-7.481500 15.829300
-7.465000 16.639000
-7.448500 16.994300
-7.432000 12.925100
-7.415500 4.680200
-7.399100 2.591900
-7.382600 1.116300
-7.366100 0.253100
-7.349600 0.000000
-7.333100 0.000000
-7.316700 0.000000
-7.300200 0.000000
-7.283700 0.000000
-7.267200 0.000000
-7.250800 0.000000
-7.234300 0.000000
-7.217800 0.000000
-7.201300 0.000000
-7.184800 0.000000
-7.168400 0.000000
-7.151900 0.000000
-7.135400 0.000000
-7.118900 0.000000
-7.102400 0.000000
-7.086000 0.000000
-7.069500 0.000000
-7.053000 0.000000
-7.036500 0.000000
-7.020000 0.000000
-7.003600 0.000000
-6.987100 0.000000
-6.970600 0.000000
-6.954100 0.000000
-6.937600 0.000000
-6.921200 0.000000
-6.904700 0.000000
-6.888200 0.000000
-6.871700 0.000000
-6.855300 0.000000
-6.838800 0.000000
-6.822300 0.000000
-6.805800 0.000000
-6.789300 0.000000
-6.772900 0.000000
-6.756400 0.000000
-6.739900 0.000000
-6.723400 0.000000
-6.706900 0.000000
-6.690500 0.000000
-6.674000 0.000000
-6.657500 0.000000
-6.641000 0.000000
-6.624500 0.000000
-6.608100 0.000000
-6.591600 0.000000
-6.575100 0.000000
-6.558600 0.000000
-6.542100 0.000000
-6.525700 0.000000
-6.509200 0.000000
-6.492700 0.000000
-6.476200 0.000000
-6.459800 0.000000
-6.443300 0.000000
-6.426800 0.000000
-6.410300 0.000000
-6.393800 0.000000
-6.377400 0.000000
-6.360900 0.000000
-6.344400 0.000000
-6.327900 0.000000
-6.311400 0.000000
-6.295000 0.000000
-6.278500 0.000000
-6.262000 0.000000
-6.245500 0.000000
-6.229000 0.000000
-6.212600 0.000000
-6.196100 0.000000
-6.179600 0.000000
-6.163100 0.000000
-6.146600 0.000000
-6.130200 0.000000
-6.113700 0.000000
-6.097200 0.000000
-6.080700 0.000000
-6.064300 0.000000
-6.047800 0.000000
-6.031300 0.000000
-6.014800 0.000000
-5.998300 0.000000
-5.981900 0.000000
-5.965400 0.000000
-5.948900 0.000000
-5.932400 0.000000
-5.915900 0.000000
-5.899500 0.000000
-5.883000 0.000000
-5.866500 0.000000
-5.850000 0.000000
-5.833500 0.000000
-5.817100 0.000000
-5.800600 0.000000
-5.784100 0.000000
-5.767600 0.000000
-5.751100 0.000000
-5.734700 0.000000
-5.718200 0.000000
-5.701700 0.000000
-5.685200 0.000000
-5.668800 0.000000
-5.652300 0.000000
-5.635800 0.000000
-5.619300 0.000000
-5.602800 0.000000
-5.586400 0.000000
-5.569900 0.000000
-5.553400 0.000000
-5.536900 0.000000
-5.520400 0.000000
-5.504000 0.000000
-5.487500 0.000000
-5.471000 0.000000
-5.454500 4.939400
-5.438000 23.326900
-5.421600 42.354500
-5.405100 60.894000
-5.388600 52.692000
-5.372100 46.308500
-5.355700 16.854700
-5.339200 0.000000
-5.322700 0.000000
-5.306200 0.000000
-5.289700 20.160000
-5.273300 39.777200
-5.256800 40.924700
-5.240300 64.997100
-5.223800 83.211300
-5.207300 0.000000
-5.190900 0.000000
-5.174400 0.000000
-5.157900 0.000000
-5.141400 0.000000
-5.124900 0.057500
-5.108500 1.018600
-5.092000 3.164000
-5.075500 11.417200
-5.059000 16.607000
-5.042500 20.678100
-5.026100 20.885200
-5.009600 21.994500
-4.993100 25.087900
-4.976600 27.693600
-4.960200 27.473200
-4.943700 24.055800
-4.927200 24.838700
-4.910700 21.083900
-4.894200 10.866700
-4.877800 19.071100
-4.861300 20.313500
-4.844800 24.158100
-4.828300 28.601000
-4.811800 27.257200
-4.795400 17.379200
-4.778900 10.581300
-4.762400 9.761300
-4.745900 9.311400
-4.729400 8.736000
-4.713000 8.510100
-4.696500 8.857000
-4.680000 9.487000
-4.663500 9.644100
-4.647000 9.215000
-4.630600 6.227900
-4.614100 1.585100
-4.597600 0.256700
-4.581100 0.013500
-4.564700 3.557100
-4.548200 10.145100
-4.531700 24.209900
-4.515200 33.279300
-4.498700 99.937200
-4.482300 43.861100
-4.465800 29.455000
-4.449300 7.528200
-4.432800 20.123200
-4.416300 27.581900
-4.399900 32.381400
-4.383400 35.748800
-4.366900 37.989400
-4.350400 39.244000
-4.333900 23.351600
-4.317500 10.068300
-4.301000 5.672400
-4.284500 2.977300
-4.268000 1.335800
-4.251500 0.343500
-4.235100 0.000300
-4.218600 0.000000
-4.202100 0.000000
-4.185600 0.000000
-4.169200 0.000000
-4.152700 0.000000
-4.136200 0.000000
-4.119700 0.000000
-4.103200 0.000000
-4.086800 0.000000
-4.070300 0.000000
-4.053800 0.000000
-4.037300 0.000000
-4.020800 0.000000
-4.004400 0.000000
-3.987900 0.000000
-3.971400 0.000000
-3.954900 0.000000
-3.938400 0.000000
-3.922000 0.000000
-3.905500 0.000000
-3.889000 0.000000
-3.872500 0.000000
-3.856000 0.000000
-3.839600 0.000000
-3.823100 0.000000
-3.806600 0.000000
-3.790100 0.000000
-3.773700 0.000000
-3.757200 0.000000
-3.740700 0.000000
-3.724200 0.000000
-3.707700 0.000000
-3.691300 0.000000
-3.674800 0.000000
-3.658300 0.000000
-3.641800 0.000000
-3.625300 0.000000
-3.608900 0.000000
-3.592400 0.000000
-3.575900 0.000000
-3.559400 0.000000
-3.542900 0.000000
-3.526500 0.000000
-3.510000 0.000000
-3.493500 0.000000
-3.477000 0.000000
-3.460500 0.000000
-3.444100 0.000000
-3.427600 0.000000
-3.411100 0.000000
-3.394600 0.000000
-3.378200 0.000000
-3.361700 0.000000
-3.345200 9.974200
-3.328700 26.386500
-3.312200 36.979800
-3.295800 31.432600
-3.279300 70.940800
-3.262800 46.051200
-3.246300 24.770800
-3.229800 49.847700
-3.213400 98.670800
-3.196900 81.968600
-3.180400 117.237900
-3.163900 95.501400
-3.147400 96.054600
-3.131000 75.533700
-3.114500 109.468100
-3.098000 27.731100
-3.081500 24.365800
-3.065000 18.008900
-3.048600 10.764900
-3.032100 0.000000
-3.015600 0.000000
-2.999100 0.000000
-2.982700 0.000000
-2.966200 0.000000
-2.949700 0.000000
-2.933200 0.000000
-2.916700 0.000000
-2.900300 0.000000
-2.883800 0.000000
-2.867300 0.000000
-2.850800 0.000000
-2.834300 0.000000
-2.817900 0.000000
-2.801400 0.000000
-2.784900 0.000000
-2.768400 0.000000
-2.751900 0.000000
-2.735500 0.000000
-2.719000 0.000000
-2.702500 0.000000
-2.686000 0.000000
-2.669500 4.772500
-2.653100 15.917900
-2.636600 38.992600
-2.620100 42.667000
-2.603600 40.000100
-2.587200 48.713100
-2.570700 51.413900
-2.554200 47.465300
-2.537700 60.705000
-2.521200 57.001000
-2.504800 64.547500
-2.488300 13.013000
-2.471800 0.662400
-2.455300 0.017100
-2.438800 0.471200
-2.422400 1.597100
-2.405900 3.910100
-2.389400 7.483500
-2.372900 12.194600
-2.356400 18.038700
-2.340000 30.843100
-2.323500 83.485800
-2.307000 41.764800
-2.290500 40.176900
-2.274000 25.936100
-2.257600 22.654900
-2.241100 22.249500
-2.224600 24.570600
-2.208100 27.743700
-2.191700 44.727900
-2.175200 18.649700
-2.158700 13.857400
-2.142200 12.340200
-2.125700 11.943000
-2.109300 13.325400
-2.092800 11.765600
-2.076300 0.000000
-2.059800 0.000000
-2.043300 0.000000
-2.026900 0.000000
-2.010400 0.000000
-1.993900 0.000000
-1.977400 0.000000
-1.960900 0.000000
-1.944500 0.000000
-1.928000 0.000000
-1.911500 0.000000
-1.895000 0.000000
-1.878500 0.000000
-1.862100 0.000000
-1.845600 0.000000
-1.829100 0.000000
-1.812600 0.000000
-1.796200 0.000000
-1.779700 0.000000
-1.763200 0.000000
-1.746700 0.000000
-1.730200 0.000000
-1.713800 0.000000
-1.697300 0.000000
-1.680800 0.000000
-1.664300 0.000000
-1.647800 0.000000
-1.631400 0.000000
-1.614900 0.000000
-1.598400 0.000000
-1.581900 0.000000
-1.565400 0.000000
-1.549000 0.804600
-1.532500 6.429300
-1.516000 20.256400
-1.499500 27.573000
-1.483000 32.446300
-1.466600 26.987100
-1.450100 24.160400
-1.433600 22.253400
-1.417100 21.031700
-1.400700 26.177400
-1.384200 59.609100
-1.367700 42.608000
-1.351200 36.971300
-1.334700 30.478300
-1.318300 31.363700
-1.301800 29.114800
-1.285300 24.643900
-1.268800 21.373000
-1.252300 5.013000
-1.235900 0.137400
-1.219400 0.459200
-1.202900 0.969400
-1.186400 1.668100
-1.169900 2.592200
-1.153500 11.996700
-1.137000 16.766300
-1.120500 29.988600
-1.104000 34.980300
-1.087500 37.369700
-1.071100 53.253300
-1.054600 25.525700
-1.038100 19.140300
-1.021600 17.255600
-1.005200 19.101000
-0.988700 23.251800
-0.972200 32.420300
-0.955700 30.117000
-0.939200 21.494100
-0.922800 18.823000
-0.906300 16.851500
-0.889800 16.233500
-0.873300 27.576800
-0.856800 23.408700
-0.840400 20.466500
-0.823900 41.630400
-0.807400 50.491100
-0.790900 61.340400
-0.774400 60.662600
-0.758000 17.520100
-0.741500 3.473700
-0.725000 2.382800
-0.708500 5.115600
-0.692000 35.714900
-0.675600 71.962500
-0.659100 60.744800
-0.642600 60.609800
-0.626100 21.097000
-0.609700 21.897800
-0.593200 39.952500
-0.576700 57.301900
-0.560200 65.321300
-0.543700 47.468000
-0.527300 10.421200
-0.510800 87.725100
-0.494300 58.493600
-0.477800 65.247500
-0.461300 43.084600
-0.444900 14.284900
-0.428400 15.648600
-0.411900 25.064000
-0.395400 28.625700
-0.378900 31.311000
-0.362500 34.742700
-0.346000 36.092400
-0.329500 64.077300
-0.313000 55.155000
-0.296600 34.892400
-0.280100 32.350700
-0.263600 33.013000
-0.247100 39.106700
-0.230600 34.591200
-0.214200 12.275800
-0.197700 1.017400
-0.181200 0.000000
-0.164700 0.000000
-0.148200 0.000000
-0.131800 0.000000
-0.115300 0.000000
-0.098800 0.000000
-0.082300 0.000000
-0.065800 0.000000
-0.049400 0.000000
-0.032900 0.000000
-0.016400 0.000000
0.000100 0.000000
0.016600 0.000000
0.033000 0.578800
0.049500 2.483600
0.066000 5.480000
0.082500 8.481400
0.098900 11.130600
0.115400 12.704800
0.131900 13.577300
0.148400 13.456600
0.164900 11.560600
0.181300 11.721400
0.197800 13.376500
0.214300 18.172200
0.230800 23.643900
0.247300 26.109100
0.263700 28.217000
0.280200 32.403300
0.296700 3.844400
0.313200 35.176600
0.329700 49.370400
0.346100 59.236200
0.362600 56.303700
0.379100 22.457900
0.395600 10.370300
0.412100 6.729600
0.428500 3.840900
0.445000 1.704300
0.461500 0.351600
0.478000 0.000000
0.494400 0.000000
0.510900 42.901500
0.527400 57.301200
0.543900 65.575100
0.560400 44.651100
0.576800 26.957000
0.593300 0.000000
0.609800 0.000000
0.626300 0.000000
0.642800 0.000000
0.659200 0.000000
0.675700 6.516800
0.692200 41.703000
0.708700 41.498400
0.725200 52.067700
0.741600 49.115300
0.758100 31.387900
0.774600 13.981200
0.791100 0.000000
0.807600 0.000000
0.824000 0.000000
0.840500 0.000000
0.857000 0.000000
0.873500 0.000000
0.889900 0.000000
0.906400 0.000000
0.922900 0.000000
0.939400 0.000000
0.955900 0.000000
0.972300 0.000000
0.988800 0.000000
1.005300 0.000000
1.021800 0.000000
1.038300 0.000000
1.054700 0.000000
1.071200 0.000000
1.087700 0.000000
1.104200 0.000000
1.120700 0.000000
1.137100 0.000000
1.153600 0.000000
1.170100 0.000000
1.186600 0.000000
1.203100 0.000000
1.219500 0.000000
1.236000 0.000000
1.252500 0.000000
1.269000 0.000000
1.285400 0.000000
1.301900 0.000000
1.318400 0.000000
1.334900 0.000000
1.351400 0.000000
1.367800 0.000000
1.384300 0.000000
1.400800 0.000000
1.417300 0.000000
1.433800 0.000000
1.450200 0.000000
1.466700 0.000000
1.483200 0.000000
1.499700 0.000000
1.516200 0.000000
1.532600 0.000000
1.549100 0.000000
1.565600 0.000000
1.582100 0.000000
1.598600 0.000000
1.615000 0.000000
1.631500 0.000000
1.648000 0.000000
1.664500 0.000000
1.680900 0.000000
1.697400 0.000000
1.713900 0.000000
1.730400 0.000000
1.746900 0.000000
1.763300 0.000000
1.779800 0.000000
1.796300 0.000000
1.812800 0.000000
1.829300 0.000000
1.845700 0.000000
1.862200 0.000000
1.878700 0.000000
1.895200 0.000000
1.911700 0.000000
1.928100 0.000000
1.944600 0.000000
1.961100 0.000000
1.977600 0.000000
1.994100 0.000000
2.010500 0.000000
2.027000 0.000000
2.043500 0.000000
2.060000 0.000000
2.076400 0.000000
2.092900 0.000000
2.109400 0.000000
2.125900 0.000000
2.142400 0.000000
2.158800 0.000000
2.175300 0.000000
2.191800 0.000000
2.208300 0.000000
2.224800 0.000000
2.241200 0.000000
2.257700 0.000000
2.274200 0.000000
2.290700 0.000000
2.307200 0.000000
2.323600 0.000000
2.340100 0.000000
2.356600 0.000000
2.373100 0.000000
2.389600 0.000000
2.406000 0.000000
2.422500 0.000000
2.439000 0.000000
2.455500 0.000000
2.471900 0.000000
2.488400 0.000000
2.504900 0.000000
2.521400 0.000000
2.537900 0.000000
2.554300 0.000000
2.570800 0.000000
2.587300 0.000000
2.603800 0.000000
2.620300 0.000000
2.636700 0.000000
2.653200 0.000000
2.669700 0.002000
2.686200 0.209900
2.702700 0.759900
2.719100 1.651900
2.735600 2.895200
2.752100 4.506800
2.768600 6.487200
2.785100 11.750300
2.801500 18.186800
2.818000 23.458700
2.834500 31.089000
2.851000 49.182300
2.867400 61.724400
2.883900 26.050600
2.900400 11.236200
2.916900 27.939800
2.933400 76.421100
2.949800 57.825500
2.966300 60.251900
2.982800 3.364400
2.999300 33.511200
3.015800 29.283500
3.032200 29.371100
3.048700 30.752900
3.065200 36.989200
3.081700 45.859300
3.098200 30.854200
3.114600 9.926300
3.131100 8.345700
3.147600 18.495000
3.164100 32.246700
3.180600 39.891700
3.197000 23.947500
3.213500 18.730200
3.230000 17.749000
3.246500 24.203200
3.262900 30.073500
3.279400 8.592300
3.295900 6.016300
3.312400 3.990100
3.328900 2.513500
3.345300 1.521900
3.361800 0.788700
3.378300 0.294300
3.394800 0.038800
3.411300 0.000000
3.427700 0.000000
3.444200 0.000000
3.460700 0.000000
3.477200 0.000000
3.493700 0.000000
3.510100 0.000000
3.526600 0.000000
3.543100 0.000000
3.559600 0.000000
3.576100 0.000000
3.592500 0.000000
3.609000 0.000000
3.625500 0.000000
3.642000 0.000000
3.658400 0.000000
3.674900 0.000000
3.691400 0.000000
3.707900 0.000000
3.724400 0.000000
3.740800 0.000000
3.757300 0.000000
3.773800 0.000000
3.790300 0.000000
3.806800 0.000000
3.823200 0.046400
3.839700 0.201200
3.856200 0.464600
3.872700 0.836700
3.889200 1.317400
3.905600 2.585400
3.922100 4.239300
3.938600 5.948500
3.955100 7.856200
3.971600 11.065800
3.988000 13.149700
4.004500 12.553700
4.021000 12.922100
4.037500 14.427000
4.053900 15.873400
4.070400 17.261500
4.086900 19.093300
4.103400 23.569300
4.119900 24.580000
4.136300 25.044300
4.152800 13.769700
4.169300 7.041800
4.185800 5.707600
4.202300 4.776200
4.218700 4.247600
4.235200 4.122000
4.251700 4.399200
4.268200 5.079300
4.284700 19.309300
4.301100 31.906200
4.317600 27.168400
4.334100 18.541300
4.350600 16.832600
4.367100 15.346100
4.383500 17.797500
4.400000 20.038600
4.416500 15.032800
4.433000 11.982200
4.449400 9.808700
4.465900 10.837200
4.482400 10.981300
4.498900 11.471900
4.515400 12.927800
4.531800 14.200600
4.548300 14.345900
4.564800 13.743200
4.581300 13.788200
4.597800 17.023400
4.614200 20.472400
4.630700 23.954200
4.647200 27.469000
4.663700 28.888200
4.680200 19.046600
4.696600 10.253100
4.713100 4.488800
4.729600 2.643200
4.746100 3.098000
4.762500 4.493800
4.779000 6.605700
4.795500 9.036200
4.812000 11.631800
4.828500 15.726100
4.844900 16.022500
4.861400 15.265700
4.877900 16.213100
4.894400 17.191000
4.910900 18.097700
4.927300 15.687700
4.943800 7.006700
4.960300 6.803800
4.976800 8.869400
4.993300 11.327200
5.009700 12.820900
5.026200 13.332700
5.042700 11.721100
5.059200 9.562800
5.075700 7.895400
5.092100 6.719100
5.108600 6.913100
5.125100 7.391300
5.141600 7.986900
5.158000 8.871400
5.174500 10.485700
5.191000 11.820100
5.207500 15.566700
5.224000 18.752200
5.240400 21.375000
5.256900 24.973600
5.273400 26.340700
5.289900 18.734700
5.306400 18.139600
5.322800 18.707400
5.339300 14.553500
5.355800 21.269100
5.372300 30.798400
5.388800 24.255600
5.405200 17.043600
5.421700 22.624600
5.438200 30.797500
5.454700 36.536200
5.471200 24.475100
5.487600 18.572300
5.504100 12.702500
5.520600 7.140900
5.537100 16.030100
5.553500 14.399400
5.570000 16.128200
5.586500 17.040500
5.603000 19.089400
5.619500 24.502400
5.635900 33.148800
5.652400 29.293700
5.668900 27.040000
5.685400 27.947700
5.701900 27.264300
5.718300 25.216000
5.734800 22.531300
5.751300 20.890900
5.767800 23.347200
5.784300 28.825600
5.800700 32.953100
5.817200 27.871500
5.833700 20.062800
5.850200 12.651500
5.866700 10.180000
5.883100 7.623400
5.899600 4.981500
5.916100 2.468700
5.932600 1.582400
5.949000 1.028400
5.965500 0.621800
5.982000 0.317000
5.998500 0.113900
6.015000 0.012500
6.031400 0.000000
6.047900 0.000000
6.064400 0.000000
6.080900 0.000000
6.097400 0.000000
6.113800 0.000000
6.130300 0.000000
6.146800 0.000000
6.163300 0.000000
6.179800 0.000000
6.196200 4.757800
6.212700 9.620900
6.229200 14.093100
6.245700 19.071300
6.262200 21.408800
6.278600 15.385000
6.295100 15.463300
6.311600 25.386900
6.328100 37.868100
6.344500 29.980300
6.361000 20.895000
6.377500 14.983700
6.394000 17.525000
6.410500 23.176200
6.426900 31.213900
6.443400 43.682100
6.459900 44.581300
6.476400 34.808500
6.492900 33.577800
6.509300 23.036100
6.525800 15.146100
6.542300 35.291500
6.558800 41.768000
6.575300 39.139900
6.591700 42.811200
6.608200 54.252700
6.624700 26.323500
6.641200 13.833200
6.657700 40.573300
6.674100 40.873100
6.690600 32.048400
6.707100 26.229400
6.723600 22.408500
6.740000 36.107700
6.756500 19.964200
6.773000 18.521200
6.789500 21.580200
6.806000 32.998200
6.822400 50.320100
6.838900 42.162800
6.855400 32.687100
6.871900 42.809000
6.888400 6.175100
6.904800 4.988000
6.921300 12.674200
6.937800 20.554700
6.954300 56.428200
6.970800 58.566500
6.987200 33.597400
7.003700 41.339800
7.020200 12.384000
7.036700 6.159400
7.053200 1.804100
7.069600 0.000000
7.086100 0.000000
7.102600 0.000000
7.119100 0.000000
7.135500 0.000000
7.152000 0.000000
7.168500 0.000000
7.185000 0.000000
7.201500 0.000000
7.217900 0.000000
7.234400 0.000000
7.250900 0.000000
7.267400 0.000000
7.283900 0.001700
7.300300 0.011200
7.316800 0.029300
7.333300 0.055900
7.349800 0.091000
7.366300 0.134600
7.382700 0.186700
7.399200 0.247300
7.415700 0.316400
7.432200 0.394000
7.448700 0.480100
7.465100 0.574800
7.481600 0.677900
7.498100 0.789500
7.514600 0.909600
7.531000 1.038300
7.547500 1.175400
7.564000 1.321100
7.580500 1.475200
7.597000 1.702000
7.613400 2.334500
7.629900 5.202100
7.646400 8.842200
7.662900 13.210500
7.679400 17.997900
7.695800 22.341600
7.712300 23.751400
7.728800 24.584400
7.745300 26.316700
7.761800 30.002400
7.778200 29.022000
7.794700 20.574200
7.811200 2.015400
7.827700 5.536200
7.844200 9.186200
7.860600 12.325800
7.877100 20.650600
7.893600 29.840300
7.910100 34.156100
7.926500 33.180300
7.943000 29.628700
7.959500 23.436800
7.976000 18.251700
7.992500 11.879300
8.008900 6.740100
8.025400 2.742700
8.041900 0.914100
8.058400 1.900100
8.074900 3.604700
8.091300 4.864500
8.107800 4.877600
8.124300 5.334800
8.140800 5.536700
8.157300 5.354700
8.173700 5.111500
8.190200 4.836600
8.206700 4.530100
8.223200 4.191800
8.239700 5.943200
8.256100 6.477000
8.272600 6.663700
8.289100 6.843100
8.305600 7.100600
8.322000 7.259700
8.338500 7.320400
8.355000 7.283500
8.371500 7.212300
8.388000 7.145800
8.404400 7.083800
8.420900 6.956000
8.437400 6.896100
8.453900 7.647900
8.470400 8.660300
8.486800 9.749200
8.503300 10.885600
8.519800 12.067900
8.536300 13.159800
8.552800 13.807000
8.569200 14.296200
8.585700 14.890500
8.602200 15.742400
8.618700 15.686600
8.635200 16.118300
8.651600 16.582200
8.668100 16.935400
8.684600 14.717200
8.701100 13.310400
8.717500 12.655300
8.734000 12.566400
8.750500 12.878300
8.767000 13.449700
8.783500 13.833900
8.799900 14.181000
8.816400 14.490800
8.832900 45.233100
8.849400 7.168200
8.865900 7.045200
8.882300 7.211700
8.898800 7.800300
8.915300 8.810800
8.931800 10.230500
8.948300 12.260600
8.964700 15.471300
8.981200 22.206000
8.997700 22.976300
9.014200 25.655100
9.030700 25.085500
9.047100 19.834400
9.063600 15.014400
9.080100 11.896700
9.096600 9.521400
9.113000 8.447900
9.129500 7.945400
9.146000 8.013800
9.162500 8.272000
9.179000 8.996800
9.195400 10.361700
9.211900 12.656200
9.228400 16.184100
9.244900 21.775200
9.261400 24.544900
9.277800 25.477400
9.294300 24.297600
9.310800 19.267400
9.327300 16.021100
9.343800 14.379100
9.360200 12.396500
9.376700 8.515800
9.393200 4.250500
9.409700 3.098400
9.426200 2.128100
9.442600 2.190200
9.459100 6.515700
9.475600 11.873700
9.492100 18.041000
9.508500 21.476200
9.525000 22.205500
9.541500 21.330600
9.558000 19.929900
9.574500 18.479600
9.590900 18.212100
9.607400 19.882800
9.623900 17.061200
9.640400 14.605400
9.656900 11.553000
9.673300 9.458100
9.689800 7.540900
9.706300 5.829900
9.722800 4.627200
9.739300 4.409200
9.755700 7.307300
9.772200 11.236500
9.788700 15.578800
9.805200 20.179500
9.821600 19.087000
9.838100 20.957300
9.854600 22.050800
9.871100 21.202700
9.887600 23.989500
9.904000 23.962400
9.920500 23.665200
9.937000 21.326100
9.953500 19.839800
9.970000 16.240800
9.986400 15.493800
10.002900 17.368200
10.019400 18.736600
10.035900 19.053500
10.052400 18.303500
10.068800 16.311500
10.085300 13.402900
10.101800 12.603900
10.118300 12.867800
10.134800 17.927600
10.151200 17.421800
10.167700 14.444600
10.184200 10.710200
10.200700 8.618000
10.217100 6.843000
10.233600 9.453900
10.250100 14.487400
10.266600 19.237900
10.283100 22.791400
10.299500 26.285000
10.316000 28.647500
10.332500 25.949700
10.349000 19.324700
10.365500 15.223600
10.381900 11.911000
10.398400 9.936700
10.414900 8.527500
10.431400 7.271200
10.447900 6.177600
10.464300 5.272800
10.480800 4.863200
10.497300 4.736100
10.513800 4.898800
10.530300 7.014800
10.546700 9.948200
10.563200 30.444900
10.579700 53.863900
10.596200 27.521100
10.612600 20.466000
10.629100 18.671200
10.645600 16.906400
10.662100 13.903400
10.678600 8.832800
10.695000 8.049000
10.711500 15.029700
10.728000 21.296200
10.744500 35.843100
10.761000 37.318400
10.777400 26.668800
10.793900 23.528600
10.810400 19.204500
10.826900 17.295500
10.843400 16.062500
10.859800 15.399400
10.876300 13.332700
10.892800 14.720600
10.909300 17.392700
10.925800 16.929800
10.942200 15.635000
10.958700 17.952300
10.975200 20.301800
10.991700 19.464400
11.008100 18.603700
11.024600 18.979800
11.041100 19.723500
11.057600 19.330200
11.074100 17.993300
11.090500 17.476000
11.107000 23.402400
11.123500 30.542500
11.140000 27.003300
11.156500 24.458300
11.172900 18.761500
11.189400 17.164200
11.205900 15.500400
11.222400 14.170400
11.238900 13.741600
11.255300 17.761700
11.271800 24.331200
11.288300 27.102600
11.304800 26.518900
11.321300 26.869400
11.337700 25.615300
11.354200 23.072100
11.370700 21.878200
11.387200 21.966900
11.403600 19.527500
11.420100 18.502900
11.436600 18.884500
11.453100 19.874900
11.469600 20.331300
11.486000 21.515100
11.502500 19.430400
11.519000 18.129600
11.535500 16.653100
11.552000 12.777500
11.568400 9.992100
11.584900 10.588500
11.601400 13.136500
11.617900 17.425900
11.634400 22.131700
11.650800 27.049700
11.667300 15.682900
11.683800 20.832100
11.700300 10.664500
11.716800 11.215400
11.733200 12.612600
11.749700 15.885000
11.766200 21.202900
11.782700 27.113700
11.799100 24.395000
11.815600 21.168500
11.832100 21.088500
11.848600 20.753000
11.865100 15.911400
11.881500 16.729500
11.898000 19.820500
11.914500 14.811100
11.931000 16.193200
11.947500 16.819900
11.963900 15.770800
11.980400 15.597700
11.996900 18.422800
12.013400 21.560700
12.029900 19.991600
12.046300 18.380900
12.062800 17.707400
12.079300 19.314100
12.095800 18.996500
12.112300 17.735400
12.128700 12.884600
12.145200 8.453900
12.161700 5.655400
12.178200 4.502400
12.194600 3.542100
12.211100 2.722800
12.227600 1.944500
12.244100 1.197300
12.260600 0.550100
12.277000 0.149700
12.293500 0.001000
12.310000 0.000000
12.326500 0.000000
12.343000 0.000000
12.359400 0.000000
12.375900 0.000000
12.392400 0.000000
12.408900 0.000000
12.425400 0.000000
12.441800 0.000000
12.458300 0.000000
12.474800 0.000000
12.491300 0.000000
12.507800 0.000000
12.524200 0.000000
12.540700 0.000000
12.557200 0.000000
12.573700 0.000000
12.590100 0.000000
12.606600 0.000000
12.623100 0.000000
12.639600 0.000000
12.656100 0.000000
12.672500 0.000000
12.689000 0.000000
12.705500 0.000000
12.722000 0.000000
12.738500 0.000000
12.754900 0.000000
12.771400 0.000000
12.787900 0.000000
12.804400 0.000000
12.820900 0.000000
12.837300 0.000000
12.853800 0.000000
12.870300 0.000000
12.886800 0.000000
12.903300 0.000000
12.919700 0.000000
12.936200 0.000000
12.952700 0.000000
12.969200 0.000000
12.985600 0.000000
13.002100 0.000000
13.018600 0.000000
13.035100 0.000000
13.051600 0.000000
13.068000 0.000000
13.084500 0.000000
13.101000 0.000000
13.117500 0.000000
13.134000 0.000000
13.150400 0.000000
13.166900 0.000000
13.183400 0.000000
13.199900 0.000000
13.216400 0.000000
13.232800 0.000000
13.249300 0.000000
13.265800 0.000000
13.282300 0.000000
13.298800 0.000000
13.315200 0.000000
13.331700 0.000000
13.348200 0.000000
13.364700 0.000000
13.381100 0.000000
13.397600 0.000000
13.414100 0.000000
13.430600 0.000000
13.447100 0.000000
13.463500 0.000000
13.480000 0.000000
13.496500 0.000000
13.513000 0.000000
13.529500 0.000000
13.545900 0.000000
13.562400 0.000000
13.578900 0.000000
13.595400 0.000000
13.611900 0.000000
13.628300 0.000000
13.644800 0.000000
13.661300 0.000000
13.677800 0.000000
13.694300 0.000000
13.710700 0.000000
13.727200 0.000000
13.743700 0.000000
13.760200 0.000000
13.776600 0.000000
13.793100 0.000000
e
