set title 'mp-13067 - Density of States'
set xlabel 'Energy (eV)'
set ylabel 'DOS (states/eV)'
set grid
set xrange [-10:10]
set yrange [0:15.022]
set xzeroaxis lt -1
set terminal png size 800,600
set output 'mp-13067_dos_gnuplot.png'
plot '-' using 1:2 with lines title 'DOS'
-23.799500 0.000000
-23.770000 0.000000
-23.740500 0.000000
-23.711100 0.000000
-23.681600 0.000000
-23.652200 0.000000
-23.622700 0.000000
-23.593200 0.000000
-23.563800 0.000000
-23.534300 0.000000
-23.504900 0.000000
-23.475400 0.000000
-23.446000 0.000000
-23.416500 0.000000
-23.387000 0.000000
-23.357600 0.000000
-23.328100 0.000000
-23.298700 0.000000
-23.269200 0.000000
-23.239700 0.000000
-23.210300 0.000000
-23.180800 0.000000
-23.151400 0.000000
-23.121900 0.000000
-23.092500 0.000000
-23.063000 0.000000
-23.033500 0.000000
-23.004100 0.000000
-22.974600 0.000000
-22.945200 0.000000
-22.915700 0.000000
-22.886200 0.000000
-22.856800 0.000000
-22.827300 0.000000
-22.797900 0.000000
-22.768400 0.000000
-22.739000 0.000000
-22.709500 0.000000
-22.680000 0.000000
-22.650600 0.000000
-22.621100 0.000000
-22.591700 0.000000
-22.562200 0.000000
-22.532800 0.000000
-22.503300 0.000000
-22.473800 0.000000
-22.444400 0.000000
-22.414900 0.000000
-22.385500 0.000000
-22.356000 0.000000
-22.326500 0.000000
-22.297100 0.000000
-22.267600 0.000000
-22.238200 0.000000
-22.208700 0.000000
-22.179300 0.000000
-22.149800 0.000000
-22.120300 0.000000
-22.090900 0.000000
-22.061400 0.000000
-22.032000 0.000000
-22.002500 0.000000
-21.973000 0.000000
-21.943600 0.000000
-21.914100 0.000000
-21.884700 0.000000
-21.855200 0.000000
-21.825800 0.000000
-21.796300 0.000000
-21.766800 0.000000
-21.737400 0.000000
-21.707900 0.000000
-21.678500 0.000000
-21.649000 0.000000
-21.619500 0.000000
-21.590100 0.000000
-21.560600 0.000000
-21.531200 0.000000
-21.501700 0.000000
-21.472300 0.000000
-21.442800 0.000000
-21.413300 0.000000
-21.383900 0.000000
-21.354400 0.000000
-21.325000 0.000000
-21.295500 0.000000
-21.266000 0.000000
-21.236600 0.000000
-21.207100 0.000000
-21.177700 0.000000
-21.148200 0.000000
-21.118800 0.105600
-21.089300 2.005800
-21.059800 4.621500
-21.030400 7.418100
-21.000900 9.486000
-20.971500 19.910400
-20.942000 21.392800
-20.912500 24.531000
-20.883100 8.830400
-20.853600 6.421900
-20.824200 4.868700
-20.794700 3.023400
-20.765300 2.420100
-20.735800 2.182400
-20.706300 2.085400
-20.676900 1.996200
-20.647400 1.928400
-20.618000 1.851600
-20.588500 2.758700
-20.559100 7.608700
-20.529600 11.802400
-20.500100 11.194600
-20.470700 10.002900
-20.441200 14.656800
-20.411800 21.173100
-20.382300 18.820100
-20.352800 22.803800
-20.323400 41.262500
-20.293900 37.985100
-20.264500 34.251500
-20.235000 26.987500
-20.205600 13.607100
-20.176100 8.179400
-20.146600 0.000000
-20.117200 0.000000
-20.087700 0.000000
-20.058300 0.000000
-20.028800 0.000000
-19.999300 0.000000
-19.969900 0.000000
-19.940400 0.000000
-19.911000 0.000000
-19.881500 0.000000
-19.852100 0.000000
-19.822600 0.000000
-19.793100 0.000000
-19.763700 0.000000
-19.734200 0.000000
-19.704800 0.000000
-19.675300 0.000000
-19.645800 0.000000
-19.616400 0.000000
-19.586900 0.000000
-19.557500 0.000000
-19.528000 0.000000
-19.498600 0.000000
-19.469100 0.000000
-19.439600 0.000000
-19.410200 0.000000
-19.380700 0.000000
-19.351300 0.000000
-19.321800 0.000000
-19.292300 0.000000
-19.262900 0.000000
-19.233400 0.000000
-19.204000 0.000000
-19.174500 0.000000
-19.145100 0.000000
-19.115600 0.000000
-19.086100 0.000000
-19.056700 0.000000
-19.027200 0.000000
-18.997800 0.000000
-18.968300 0.000000
-18.938800 0.000000
-18.909400 0.000000
-18.879900 0.000000
-18.850500 0.000000
-18.821000 0.000000
-18.791600 0.000000
-18.762100 0.000000
-18.732600 0.000000
-18.703200 0.000000
-18.673700 0.000000
-18.644300 0.000000
-18.614800 0.000000
-18.585400 0.000000
-18.555900 0.000000
-18.526400 0.000000
-18.497000 0.000000
-18.467500 0.000000
-18.438100 0.000000
-18.408600 0.000000
-18.379100 0.000000
-18.349700 0.000000
-18.320200 0.000000
-18.290800 0.000000
-18.261300 0.000000
-18.231900 0.000000
-18.202400 0.000000
-18.172900 0.000000
-18.143500 0.000000
-18.114000 0.000000
-18.084600 0.000000
-18.055100 0.000000
-18.025600 0.000000
-17.996200 0.000000
-17.966700 0.000000
-17.937300 0.000000
-17.907800 0.000000
-17.878400 0.000000
-17.848900 0.000000
-17.819400 0.000000
-17.790000 0.000000
-17.760500 0.000000
-17.731100 0.000000
-17.701600 0.000000
-17.672100 0.000000
-17.642700 0.000000
-17.613200 0.000000
-17.583800 0.000000
-17.554300 0.000000
-17.524900 0.000000
-17.495400 0.000000
-17.465900 0.000000
-17.436500 0.000000
-17.407000 0.000000
-17.377600 0.000000
-17.348100 0.000000
-17.318600 0.000000
-17.289200 0.000000
-17.259700 0.000000
-17.230300 0.000000
-17.200800 0.000000
-17.171400 0.000000
-17.141900 0.000000
-17.112400 0.000000
-17.083000 0.000000
-17.053500 0.000000
-17.024100 0.000000
-16.994600 0.000000
-16.965100 0.000000
-16.935700 0.000000
-16.906200 0.000000
-16.876800 0.000000
-16.847300 0.000000
-16.817900 0.000000
-16.788400 0.000000
-16.758900 0.000000
-16.729500 0.000000
-16.700000 0.000000
-16.670600 0.000000
-16.641100 0.000000
-16.611700 0.000000
-16.582200 0.000000
-16.552700 0.000000
-16.523300 0.000000
-16.493800 0.000000
-16.464400 0.000000
-16.434900 0.000000
-16.405400 0.000000
-16.376000 0.000000
-16.346500 0.000000
-16.317100 0.000000
-16.287600 0.000000
-16.258200 0.000000
-16.228700 0.000000
-16.199200 0.000000
-16.169800 0.000000
-16.140300 0.000000
-16.110900 0.000000
-16.081400 0.000000
-16.051900 0.000000
-16.022500 0.000000
-15.993000 0.000000
-15.963600 0.000000
-15.934100 0.000000
-15.904700 0.000000
-15.875200 0.000000
-15.845700 0.000000
-15.816300 0.000000
-15.786800 0.000000
-15.757400 0.000000
-15.727900 0.000000
-15.698400 0.000000
-15.669000 0.000000
-15.639500 0.000000
-15.610100 0.000000
-15.580600 0.000000
-15.551200 0.000000
-15.521700 0.000000
-15.492200 0.000000
-15.462800 0.000000
-15.433300 0.000000
-15.403900 0.000000
-15.374400 0.000000
-15.344900 0.000000
-15.315500 0.000000
-15.286000 0.000000
-15.256600 0.000000
-15.227100 0.000000
-15.197700 0.000000
-15.168200 0.000000
-15.138700 0.000000
-15.109300 0.000000
-15.079800 0.000000
-15.050400 0.000000
-15.020900 0.000000
-14.991400 0.000000
-14.962000 0.000000
-14.932500 0.000000
-14.903100 0.000000
-14.873600 0.000000
-14.844200 0.000000
-14.814700 0.000000
-14.785200 0.000000
-14.755800 0.000000
-14.726300 0.000000
-14.696900 0.000000
-14.667400 0.000000
-14.638000 0.000000
-14.608500 0.000000
-14.579000 0.000000
-14.549600 0.004500
-14.520100 0.021600
-14.490700 0.051400
-14.461200 0.093900
-14.431700 0.147600
-14.402300 0.210300
-14.372800 0.282000
-14.343400 0.332300
-14.313900 0.358900
-14.284500 0.379500
-14.255000 0.400000
-14.225500 0.447500
-14.196100 0.494800
-14.166600 0.578000
-14.137200 0.654500
-14.107700 0.721900
-14.078200 0.780200
-14.048800 0.829300
-14.019300 0.812000
-13.989900 0.857600
-13.960400 0.927700
-13.931000 1.071400
-13.901500 1.261300
-13.872000 1.505600
-13.842600 1.924100
-13.813100 2.148200
-13.783700 2.416400
-13.754200 2.593600
-13.724700 2.775200
-13.695300 3.246200
-13.665800 4.496200
-13.636400 5.397200
-13.606900 5.978500
-13.577500 6.274200
-13.548000 6.912600
-13.518500 7.027000
-13.489100 6.060900
-13.459600 5.669900
-13.430200 5.693800
-13.400700 5.970300
-13.371200 7.236400
-13.341800 11.637000
-13.312300 8.997700
-13.282900 7.712600
-13.253400 6.999800
-13.224000 4.808500
-13.194500 1.855300
-13.165000 3.926700
-13.135600 6.045800
-13.106100 7.885800
-13.076700 11.155300
-13.047200 13.882300
-13.017700 7.260800
-12.988300 5.990400
-12.958800 5.177900
-12.929400 4.406700
-12.899900 3.668000
-12.870500 1.601200
-12.841000 0.442000
-12.811500 0.000000
-12.782100 0.000000
-12.752600 0.000000
-12.723200 0.000000
-12.693700 0.000000
-12.664300 0.000000
-12.634800 0.000000
-12.605300 0.000000
-12.575900 0.000000
-12.546400 0.000000
-12.517000 0.000000
-12.487500 0.000000
-12.458000 0.000000
-12.428600 0.000000
-12.399100 0.000000
-12.369700 0.000000
-12.340200 0.000000
-12.310800 0.000000
-12.281300 0.000000
-12.251800 0.000000
-12.222400 0.000000
-12.192900 0.000000
-12.163500 0.000000
-12.134000 0.000000
-12.104500 0.000000
-12.075100 0.000000
-12.045600 0.000000
-12.016200 0.000000
-11.986700 0.000000
-11.957300 0.000000
-11.927800 0.000000
-11.898300 0.000000
-11.868900 0.000000
-11.839400 0.000000
-11.810000 0.000000
-11.780500 0.000000
-11.751000 0.000000
-11.721600 0.000000
-11.692100 0.000000
-11.662700 0.000000
-11.633200 0.000000
-11.603800 0.000000
-11.574300 0.000000
-11.544800 0.000000
-11.515400 0.000000
-11.485900 0.000000
-11.456500 0.000000
-11.427000 0.000000
-11.397500 0.000000
-11.368100 0.000000
-11.338600 0.000000
-11.309200 0.000000
-11.279700 0.000000
-11.250300 0.000000
-11.220800 0.000000
-11.191300 0.000000
-11.161900 0.000000
-11.132400 0.000000
-11.103000 0.000000
-11.073500 0.000000
-11.044000 0.000000
-11.014600 0.000000
-10.985100 0.000000
-10.955700 0.000000
-10.926200 0.000000
-10.896800 0.000000
-10.867300 0.000000
-10.837800 0.000000
-10.808400 0.000000
-10.778900 0.000000
-10.749500 0.000000
-10.720000 0.000000
-10.690500 0.000000
-10.661100 0.000000
-10.631600 0.000000
-10.602200 0.000000
-10.572700 0.000000
-10.543300 0.000000
-10.513800 0.000000
-10.484300 0.000000
-10.454900 0.000000
-10.425400 0.000000
-10.396000 0.000000
-10.366500 0.000000
-10.337100 0.000000
-10.307600 0.000000
-10.278100 0.000000
-10.248700 0.000000
-10.219200 0.000000
-10.189800 0.000000
-10.160300 0.000000
-10.130800 0.000000
-10.101400 0.000000
-10.071900 0.000000
-10.042500 0.000000
-10.013000 0.000000
-9.983600 0.000000
-9.954100 0.000000
-9.924600 0.000000
-9.895200 0.000000
-9.865700 0.000000
-9.836300 0.000000
-9.806800 0.000000
-9.777300 0.000000
-9.747900 0.000000
-9.718400 0.000000
-9.689000 0.000000
-9.659500 0.000000
-9.630100 0.000000
-9.600600 0.000000
-9.571100 0.000000
-9.541700 0.000000
-9.512200 0.000000
-9.482800 0.000000
-9.453300 0.000000
-9.423800 0.000000
-9.394400 0.000000
-9.364900 0.000000
-9.335500 0.000000
-9.306000 0.000000
-9.276600 0.000000
-9.247100 0.000000
-9.217600 0.000000
-9.188200 0.000000
-9.158700 0.000000
-9.129300 0.000000
-9.099800 0.000000
-9.070300 0.000000
-9.040900 0.000000
-9.011400 0.000000
-8.982000 0.000000
-8.952500 0.000000
-8.923100 0.000000
-8.893600 0.000000
-8.864100 0.000000
-8.834700 0.000000
-8.805200 0.000000
-8.775800 0.000000
-8.746300 0.000000
-8.716800 0.000000
-8.687400 0.000000
-8.657900 0.000000
-8.628500 0.000000
-8.599000 0.000000
-8.569600 0.000000
-8.540100 0.000000
-8.510600 0.000000
-8.481200 0.000000
-8.451700 0.000000
-8.422300 0.000000
-8.392800 0.000000
-8.363400 0.000000
-8.333900 0.000000
-8.304400 0.000000
-8.275000 0.000000
-8.245500 0.000000
-8.216100 0.000000
-8.186600 0.000000
-8.157100 0.000000
-8.127700 0.000000
-8.098200 0.000000
-8.068800 0.000000
-8.039300 0.000000
-8.009900 0.000000
-7.980400 0.000000
-7.950900 0.000000
-7.921500 0.000000
-7.892000 0.000000
-7.862600 0.000000
-7.833100 0.000000
-7.803600 0.000000
-7.774200 0.000000
-7.744700 0.000000
-7.715300 0.000000
-7.685800 0.000000
-7.656400 0.000000
-7.626900 0.000000
-7.597400 0.000000
-7.568000 0.000000
-7.538500 0.000000
-7.509100 0.000000
-7.479600 0.000000
-7.450100 0.000000
-7.420700 0.000000
-7.391200 0.000000
-7.361800 0.000000
-7.332300 0.000000
-7.302900 0.000000
-7.273400 0.000000
-7.243900 0.000000
-7.214500 0.000000
-7.185000 0.000000
-7.155600 0.000000
-7.126100 0.000000
-7.096600 0.000000
-7.067200 0.000000
-7.037700 0.000000
-7.008300 0.000000
-6.978800 0.000000
-6.949400 0.000000
-6.919900 0.000000
-6.890400 0.000000
-6.861000 0.000000
-6.831500 0.000000
-6.802100 0.000000
-6.772600 0.000000
-6.743100 0.000000
-6.713700 0.000000
-6.684200 0.000000
-6.654800 0.000000
-6.625300 0.000000
-6.595900 0.000000
-6.566400 0.000000
-6.536900 0.000000
-6.507500 0.000000
-6.478000 0.000000
-6.448600 0.000000
-6.419100 0.000000
-6.389700 0.000000
-6.360200 0.000000
-6.330700 0.000000
-6.301300 0.000000
-6.271800 0.000000
-6.242400 0.000000
-6.212900 0.000000
-6.183400 0.000000
-6.154000 0.000000
-6.124500 0.000000
-6.095100 0.000000
-6.065600 0.000000
-6.036200 0.000000
-6.006700 0.000000
-5.977200 0.000000
-5.947800 0.000000
-5.918300 0.000000
-5.888900 0.000000
-5.859400 0.000000
-5.829900 0.000000
-5.800500 0.000000
-5.771000 0.000000
-5.741600 0.000000
-5.712100 0.000000
-5.682700 0.000000
-5.653200 0.000000
-5.623700 0.000000
-5.594300 0.000000
-5.564800 0.000000
-5.535400 0.000000
-5.505900 0.000000
-5.476400 0.000000
-5.447000 0.000000
-5.417500 0.000000
-5.388100 0.000000
-5.358600 0.000000
-5.329200 0.000000
-5.299700 0.000000
-5.270200 0.000000
-5.240800 0.000000
-5.211300 0.000000
-5.181900 0.000000
-5.152400 0.000000
-5.122900 0.000000
-5.093500 0.000000
-5.064000 0.000000
-5.034600 0.000000
-5.005100 0.000000
-4.975700 0.000000
-4.946200 0.000000
-4.916700 0.000000
-4.887300 0.000000
-4.857800 0.000000
-4.828400 0.000000
-4.798900 0.000000
-4.769400 0.000000
-4.740000 0.000000
-4.710500 0.000000
-4.681100 0.000000
-4.651600 0.000000
-4.622200 0.000000
-4.592700 0.000000
-4.563200 0.000000
-4.533800 0.000000
-4.504300 0.000000
-4.474900 0.000000
-4.445400 0.000000
-4.416000 0.000000
-4.386500 0.000000
-4.357000 0.000000
-4.327600 0.000000
-4.298100 0.000000
-4.268700 0.000000
-4.239200 0.000000
-4.209700 0.000000
-4.180300 0.000000
-4.150800 0.000000
-4.121400 0.000000
-4.091900 0.000000
-4.062500 0.000000
-4.033000 0.000000
-4.003500 0.000000
-3.974100 0.000000
-3.944600 0.000000
-3.915200 0.000000
-3.885700 0.000000
-3.856200 0.000000
-3.826800 0.000000
-3.797300 0.000000
-3.767900 0.000000
-3.738400 0.000000
-3.709000 0.000000
-3.679500 0.000000
-3.650000 0.000000
-3.620600 0.000000
-3.591100 0.000000
-3.561700 0.000000
-3.532200 0.000000
-3.502700 0.000000
-3.473300 0.000000
-3.443800 0.000000
-3.414400 0.000000
-3.384900 0.000000
-3.355500 0.000000
-3.326000 0.000000
-3.296500 0.000000
-3.267100 0.000000
-3.237600 0.000000
-3.208200 0.000000
-3.178700 0.000000
-3.149200 0.000000
-3.119800 0.000000
-3.090300 0.000000
-3.060900 0.000000
-3.031400 0.000000
-3.002000 0.000000
-2.972500 0.000000
-2.943000 0.000000
-2.913600 0.000000
-2.884100 0.000000
-2.854700 0.000000
-2.825200 0.000000
-2.795700 0.000000
-2.766300 0.000000
-2.736800 0.000000
-2.707400 0.000000
-2.677900 0.000000
-2.648500 0.000000
-2.619000 0.000000
-2.589500 0.000000
-2.560100 0.000000
-2.530600 0.000000
-2.501200 0.000000
-2.471700 0.000000
-2.442300 0.000000
-2.412800 0.000000
-2.383300 0.000000
-2.353900 0.000000
-2.324400 0.000000
-2.295000 0.000000
-2.265500 0.000000
-2.236000 0.000000
-2.206600 0.000000
-2.177100 0.000000
-2.147700 0.000000
-2.118200 0.000000
-2.088800 0.041500
-2.059300 0.111100
-2.029800 0.190600
-2.000400 0.280000
-1.970900 0.379200
-1.941500 0.488200
-1.912000 0.607200
-1.882500 0.698300
-1.853100 0.684700
-1.823600 0.734100
-1.794200 0.805000
-1.764700 0.883500
-1.735300 0.963800
-1.705800 1.045500
-1.676300 1.127800
-1.646900 1.216800
-1.617400 1.321300
-1.588000 1.441300
-1.558500 1.575400
-1.529000 2.024800
-1.499600 2.090900
-1.470100 2.161100
-1.440700 2.474300
-1.411200 2.766400
-1.381800 3.271400
-1.352300 3.418400
-1.322800 3.676000
-1.293400 3.943000
-1.263900 4.370400
-1.234500 4.435100
-1.205000 4.356100
-1.175500 3.793000
-1.146100 3.004700
-1.116600 2.133300
-1.087200 1.430600
-1.057700 1.138000
-1.028300 1.295600
-0.998800 1.211000
-0.969300 1.417900
-0.939900 1.691600
-0.910400 6.468700
-0.881000 4.301200
-0.851500 5.304500
-0.822000 6.894900
-0.792600 7.076400
-0.763100 6.065300
-0.733700 5.513300
-0.704200 4.833400
-0.674800 5.183100
-0.645300 6.115300
-0.615800 6.230700
-0.586400 6.121100
-0.556900 6.167100
-0.527500 7.330600
-0.498000 9.167000
-0.468500 9.638400
-0.439100 9.889500
-0.409600 10.933400
-0.380200 11.183700
-0.350700 6.315500
-0.321300 5.690600
-0.291800 5.069100
-0.262300 4.807200
-0.232900 4.535600
-0.203400 4.380300
-0.174000 4.684500
-0.144500 4.842400
-0.115100 5.126900
-0.085600 5.375300
-0.056100 5.548300
-0.026700 5.853500
0.002800 6.126500
0.032200 5.571300
0.061700 3.146300
0.091200 2.888400
0.120600 2.833100
0.150100 2.695400
0.179500 2.660100
0.209000 2.724800
0.238400 2.857900
0.267900 3.043100
0.297400 3.467500
0.326800 5.108900
0.356300 6.587400
0.385700 7.228900
0.415200 6.776500
0.444700 6.312200
0.474100 5.988200
0.503600 6.148200
0.533000 3.604800
0.562500 2.897500
0.591900 2.649300
0.621400 2.449100
0.650900 2.563300
0.680300 3.918400
0.709800 4.177300
0.739200 4.088800
0.768700 4.200200
0.798200 4.226000
0.827600 4.225300
0.857100 4.131200
0.886500 4.020600
0.916000 3.911100
0.945400 2.908000
0.974900 2.249900
1.004400 2.296900
1.033800 1.505000
1.063300 1.395800
1.092700 1.928700
1.122200 2.461900
1.151700 3.241200
1.181100 5.579900
1.210600 8.471100
1.240000 10.718200
1.269500 10.593600
1.298900 7.927500
1.328400 4.663900
1.357900 2.934900
1.387300 4.406400
1.416800 6.104900
1.446200 8.670600
1.475700 13.656700
1.505200 10.096400
1.534600 5.191100
1.564100 7.519500
1.593500 10.728100
1.623000 9.371700
1.652400 8.458700
1.681900 7.605800
1.711400 6.764900
1.740800 6.164800
1.770300 5.765700
1.799700 5.077100
1.829200 4.035000
1.858600 3.705400
1.888100 3.398600
1.917600 3.642100
1.947000 3.787400
1.976500 2.357500
2.005900 1.560000
2.035400 1.087600
2.064900 0.741100
2.094300 0.412800
2.123800 0.216200
2.153200 0.140600
2.182700 0.081200
2.212100 0.038000
2.241600 0.011000
2.271100 0.000200
2.300500 0.000000
2.330000 0.000000
2.359400 0.000000
2.388900 0.000000
2.418400 0.000000
2.447800 0.000000
2.477300 0.000000
2.506700 0.000000
2.536200 0.000000
2.565600 0.000000
2.595100 0.000000
2.624600 0.000000
2.654000 0.000000
2.683500 0.000000
2.712900 0.000000
2.742400 0.000000
2.771900 0.000000
2.801300 0.000000
2.830800 0.000000
2.860200 0.000000
2.889700 0.000000
2.919100 0.000000
2.948600 0.000000
2.978100 0.000000
3.007500 0.000000
3.037000 0.000000
3.066400 0.000000
3.095900 0.000000
3.125400 0.000000
3.154800 0.000000
3.184300 0.000000
3.213700 0.000000
3.243200 0.000000
3.272600 0.000000
3.302100 0.000000
3.331600 0.000000
3.361000 0.000000
3.390500 0.000000
3.419900 0.000000
3.449400 0.000000
3.478900 0.000000
3.508300 0.000000
3.537800 0.000000
3.567200 0.000000
3.596700 0.000000
3.626100 0.000000
3.655600 0.000000
3.685100 0.000000
3.714500 0.000000
3.744000 0.000000
3.773400 0.000000
3.802900 0.000000
3.832300 0.000000
3.861800 0.000000
3.891300 0.000000
3.920700 0.000000
3.950200 0.000000
3.979600 0.000000
4.009100 0.000000
4.038600 0.000000
4.068000 0.000000
4.097500 0.000000
4.126900 0.000000
4.156400 0.000000
4.185800 0.000000
4.215300 0.000000
4.244800 0.000000
4.274200 0.000000
4.303700 0.000000
4.333100 0.000000
4.362600 0.000000
4.392100 0.000000
4.421500 0.000000
4.451000 0.000000
4.480400 0.000000
4.509900 0.000000
4.539300 0.000000
4.568800 0.000000
4.598300 0.000000
4.627700 0.000000
4.657200 0.000000
4.686600 0.000000
4.716100 0.000000
4.745600 0.000000
4.775000 0.000000
4.804500 0.000000
4.833900 0.000000
4.863400 0.000000
4.892800 0.000000
4.922300 0.000000
4.951800 0.000000
4.981200 0.000000
5.010700 0.000000
5.040100 0.000000
5.069600 0.000000
5.099100 0.000000
5.128500 0.000000
5.158000 0.000000
5.187400 0.000000
5.216900 0.000000
5.246300 0.000000
5.275800 0.000000
5.305300 0.000000
5.334700 0.000000
5.364200 0.000000
5.393600 0.000000
5.423100 0.000000
5.452600 0.000000
5.482000 0.000000
5.511500 0.000000
5.540900 0.000000
5.570400 0.000000
5.599800 0.000000
5.629300 0.000000
5.658800 0.000000
5.688200 0.000000
5.717700 0.000000
5.747100 0.000000
5.776600 0.000000
5.806000 0.000000
5.835500 0.000000
5.865000 0.000000
5.894400 0.000000
5.923900 0.000000
5.953300 0.000000
5.982800 0.000000
6.012300 0.000000
6.041700 0.000000
6.071200 0.000000
6.100600 0.000000
6.130100 0.000000
6.159500 0.000000
6.189000 0.000000
6.218500 0.000000
6.247900 0.000000
6.277400 0.000000
6.306800 0.000000
6.336300 0.000000
6.365800 0.000000
6.395200 0.000000
6.424700 0.000000
6.454100 0.000400
6.483600 0.002100
6.513000 0.004900
6.542500 0.009000
6.572000 0.014300
6.601400 0.020800
6.630900 0.028600
6.660300 0.037500
6.689800 0.047700
6.719300 0.059100
6.748700 0.071800
6.778200 0.085600
6.807600 0.235200
6.837100 0.356500
6.866500 0.526600
6.896000 0.788100
6.925500 1.144500
6.954900 1.632300
6.984400 2.189300
7.013800 2.670500
7.043300 3.104900
7.072800 3.326000
7.102200 3.090900
7.131700 2.821100
7.161100 2.527900
7.190600 2.115800
7.220000 1.967700
7.249500 1.873300
7.279000 1.799900
7.308400 1.739800
7.337900 1.691100
7.367300 1.654000
7.396800 1.780300
7.426300 1.766800
7.455700 1.756000
7.485200 1.743100
7.514600 1.728000
7.544100 1.710600
7.573500 1.691000
7.603000 1.716500
7.632500 1.793600
7.661900 2.152900
7.691400 2.756000
7.720800 2.954600
7.750300 2.845500
7.779700 2.087200
7.809200 1.473600
7.838700 0.897400
7.868100 0.721300
7.897600 0.810700
7.927000 1.035100
7.956500 1.107500
7.986000 1.213800
8.015400 1.326100
8.044900 1.468200
8.074300 1.640100
8.103800 2.127900
8.133200 2.989300
8.162700 3.749800
8.192200 4.433400
8.221600 5.730400
8.251100 7.588700
8.280500 9.922200
8.310000 6.712600
8.339500 6.054900
8.368900 5.511900
8.398400 5.043300
8.427800 4.463400
8.457300 3.738000
8.486700 3.336900
8.516200 3.121300
8.545700 2.904600
8.575100 2.808000
8.604600 3.077800
8.634000 3.389700
8.663500 3.303400
8.693000 3.224200
8.722400 3.141000
8.751900 3.034300
8.781300 2.894600
8.810800 2.736400
8.840200 2.650100
8.869700 2.576600
8.899200 2.524400
8.928600 2.498000
8.958100 2.489000
8.987500 2.494500
9.017000 2.511600
9.046500 2.536000
9.075900 2.571500
9.105400 2.663600
9.134800 2.831900
9.164300 3.161900
9.193700 4.374000
9.223200 4.689200
9.252700 3.870100
9.282100 4.056800
9.311600 4.318600
9.341000 4.637500
9.370500 4.957100
9.400000 4.980400
9.429400 4.347900
9.458900 8.092900
9.488300 3.564600
9.517800 3.268600
9.547200 3.218600
9.576700 3.276800
9.606200 3.543500
9.635600 4.004500
9.665100 5.421300
9.694500 4.418700
9.724000 5.195200
9.753400 6.191100
9.782900 6.827400
9.812400 6.949200
9.841800 5.900200
9.871300 4.230900
9.900700 3.623400
9.930200 3.146100
9.959700 2.793100
9.989100 2.486800
10.018600 2.036700
10.048000 1.660000
10.077500 1.491900
10.106900 1.470400
10.136400 1.598400
10.165900 1.862500
10.195300 1.658800
10.224800 1.777500
10.254200 1.660700
10.283700 1.442100
10.313200 1.514900
10.342600 1.733600
10.372100 2.063700
10.401500 2.677200
10.431000 3.402500
10.460400 3.793200
10.489900 4.059300
10.519400 4.079000
10.548800 3.440500
10.578300 3.022800
10.607700 2.666300
10.637200 2.377200
10.666700 2.257300
10.696100 2.155200
10.725600 2.052500
10.755000 1.954300
10.784500 1.877700
10.813900 2.276600
10.843400 2.343300
10.872900 2.251700
10.902300 2.257100
10.931800 2.458000
10.961200 2.930200
10.990700 3.774300
11.020200 5.672700
11.049600 7.448900
11.079100 7.405800
11.108500 7.137300
11.138000 6.614600
11.167400 6.073400
11.196900 5.254700
11.226400 4.713900
11.255800 2.010100
11.285300 1.225300
11.314700 0.231900
11.344200 0.122400
11.373700 0.047400
11.403100 0.007200
11.432600 0.019100
11.462000 0.135200
11.491500 0.401700
11.520900 0.893800
11.550400 2.032100
11.579900 3.240500
11.609300 2.659700
11.638800 3.616900
11.668200 5.237200
11.697700 6.528600
11.727200 6.965400
11.756600 6.474000
11.786100 4.918000
11.815500 4.167400
11.845000 4.533300
11.874400 5.207700
11.903900 5.510500
11.933400 6.369500
11.962800 6.712800
11.992300 6.045700
12.021700 5.798300
12.051200 5.445100
12.080600 4.723900
12.110100 4.665200
12.139600 4.786100
12.169000 5.679000
12.198500 5.922900
12.227900 4.291900
12.257400 3.144400
12.286900 2.647700
12.316300 2.607100
12.345800 2.332300
12.375200 2.180200
12.404700 1.784900
12.434100 2.374300
12.463600 2.878900
12.493100 3.506100
12.522500 4.272900
12.552000 6.314200
12.581400 7.512700
12.610900 5.907000
12.640400 5.860300
12.669800 6.385300
12.699300 7.370900
12.728700 6.420600
12.758200 2.520900
12.787600 1.437000
12.817100 0.992400
12.846600 0.640200
12.876000 0.380300
12.905500 0.203300
12.934900 0.100100
12.964400 0.057100
12.993900 0.099600
13.023300 0.252200
13.052800 0.515700
13.082200 1.210700
13.111700 2.303800
13.141100 2.640500
13.170600 2.938000
13.200100 3.267600
13.229500 3.541700
13.259000 3.941800
13.288400 4.649700
13.317900 3.874100
13.347400 3.426900
13.376800 3.052000
13.406300 2.752300
13.435700 2.510400
13.465200 2.545200
13.494600 2.757400
13.524100 2.777200
13.553600 2.718600
13.583000 2.597700
13.612500 2.553500
13.641900 2.466800
13.671400 2.395200
13.700900 2.307700
13.730300 2.204300
13.759800 2.088000
13.789200 1.962400
13.818700 1.662200
13.848100 1.586900
13.877600 1.570700
13.907100 1.579300
13.936500 1.606700
13.966000 1.654100
13.995400 1.630800
14.024900 1.580600
14.054300 1.497300
14.083800 1.428500
14.113300 1.374200
14.142700 1.333300
14.172200 1.308600
14.201600 1.299900
14.231100 1.300900
14.260600 1.302000
14.290000 1.297400
14.319500 1.290000
14.348900 1.243600
14.378400 1.231700
14.407800 1.219900
14.437300 1.208200
14.466800 1.199400
14.496200 1.195100
14.525700 1.195200
14.555100 1.194500
14.584600 1.172000
14.614100 1.173900
14.643500 1.180600
14.673000 1.187700
14.702400 1.455100
14.731900 1.577300
14.761300 1.709100
14.790800 1.783900
14.820300 1.958300
14.849700 1.978500
14.879200 2.011400
14.908600 1.913900
14.938100 2.050800
14.967600 2.178200
14.997000 2.320700
15.026500 2.478500
15.055900 2.605400
15.085400 2.930600
15.114800 3.230200
15.144300 3.100700
15.173800 2.969400
15.203200 2.831400
15.232700 2.714700
15.262100 2.588500
15.291600 2.426400
15.321100 2.366100
15.350500 2.299900
15.380000 2.213200
15.409400 2.152300
15.438900 2.126000
15.468300 2.135000
15.497800 2.188300
15.527300 2.243700
15.556700 2.269700
15.586200 2.298500
15.615600 2.647700
15.645100 2.465800
15.674600 2.240100
15.704000 1.744700
15.733500 1.667800
15.762900 1.600700
15.792400 1.514500
15.821800 1.454700
15.851300 1.375600
15.880800 1.224700
15.910200 0.993900
15.939700 0.746900
15.969100 0.517100
15.998600 0.304400
16.028000 0.109800
16.057500 0.006500
16.087000 0.066000
16.116400 0.099700
16.145900 0.134200
16.175300 0.169600
16.204800 0.205700
16.234300 0.242800
16.263700 0.280600
16.293200 0.311900
16.322600 0.331900
16.352100 0.351300
16.381500 0.370200
16.411000 0.388600
16.440500 0.406400
16.469900 0.423600
16.499400 0.440300
16.528800 0.456400
16.558300 0.472000
16.587800 0.488000
16.617200 0.504700
16.646700 0.522300
16.676100 0.540700
16.705600 0.687600
16.735000 0.770700
16.764500 0.846200
16.794000 0.914100
16.823400 0.974300
16.852900 1.026900
16.882300 1.071900
16.911800 1.109200
16.941300 1.141200
16.970700 1.106000
17.000200 1.121400
17.029600 1.132200
17.059100 1.132000
17.088500 1.132500
17.118000 1.133500
17.147500 1.135500
17.176900 1.145300
17.206400 1.153000
17.235800 1.158600
17.265300 1.162100
17.294800 1.163500
17.324200 1.162800
17.353700 1.160000
17.383100 1.165200
17.412600 1.192700
17.442000 1.228800
17.471500 1.275400
17.501000 1.330400
17.530400 1.563200
17.559900 1.646800
17.589300 1.761800
17.618800 1.688500
17.648300 1.673700
17.677700 1.713900
17.707200 1.845000
17.736600 1.892100
17.766100 1.964800
17.795500 2.020200
17.825000 1.914300
17.854500 1.972000
17.883900 2.018200
17.913400 2.051800
17.942800 2.098300
17.972300 2.157000
18.001700 2.223300
18.031200 2.245800
18.060700 2.251300
18.090100 2.262800
18.119600 2.289800
18.149000 2.323500
18.178500 2.363900
18.208000 2.420500
18.237400 2.497800
18.266900 2.567900
18.296300 2.568200
18.325800 2.534000
18.355200 2.508200
18.384700 2.490100
18.414200 2.508400
18.443600 2.549400
18.473100 2.598700
18.502500 2.659800
18.532000 2.854700
18.561500 2.750100
18.590900 2.361600
18.620400 2.227000
18.649800 2.163300
18.679300 2.155600
18.708700 2.171000
18.738200 2.207600
18.767700 2.243500
18.797100 2.222600
18.826600 2.151100
18.856000 2.053000
18.885500 1.970900
18.915000 1.915400
18.944400 1.869600
18.973900 1.854300
19.003300 2.051800
19.032800 2.169800
19.062200 2.271300
19.091700 2.358400
19.121200 2.428900
19.150600 2.482800
19.180100 2.672300
19.209500 2.639800
19.239000 2.387700
19.268500 2.335300
19.297900 2.276400
19.327400 2.209600
19.356800 2.133600
19.386300 2.059500
19.415700 1.987500
19.445200 1.890800
19.474700 1.721200
19.504100 1.641800
19.533600 1.588000
19.563000 1.545500
19.592500 1.441300
19.622000 1.224800
19.651400 1.133100
19.680900 1.051200
19.710300 0.974800
19.739800 0.922100
19.769200 0.901900
19.798700 0.915500
19.828200 0.963000
19.857600 1.048800
19.887100 1.215000
19.916500 1.261200
19.946000 1.305900
19.975400 1.348800
20.004900 1.389800
20.034400 1.428800
20.063800 1.465800
20.093300 1.499200
20.122700 1.683400
20.152200 1.629700
20.181700 1.564600
20.211100 1.520300
20.240600 1.526600
20.270000 1.539700
20.299500 1.570500
20.328900 1.610900
20.358400 1.682300
20.387900 1.799000
20.417300 1.947700
20.446800 2.096600
20.476200 2.256400
20.505700 2.417900
20.535200 2.577500
20.564600 2.730700
20.594100 2.876400
20.623500 3.011800
20.653000 3.122900
20.682400 3.282800
20.711900 3.300800
20.741400 3.085600
20.770800 2.762700
20.800300 2.571900
20.829700 2.410700
20.859200 2.261000
20.888700 2.184500
20.918100 2.172300
20.947600 2.175900
20.977000 2.178300
21.006500 2.176900
21.035900 2.196600
21.065400 2.230100
21.094900 2.280100
21.124300 2.343400
21.153800 2.475700
21.183200 2.613500
21.212700 2.651500
21.242200 2.748800
21.271600 2.861600
21.301100 2.942400
21.330500 2.992000
21.360000 3.212500
21.389400 3.228300
21.418900 3.110000
21.448400 3.050700
21.477800 3.004000
21.507300 2.945100
21.536700 2.835500
21.566200 2.537800
21.595700 2.531700
21.625100 2.576000
21.654600 2.621300
21.684000 2.660200
21.713500 3.193800
21.742900 2.696900
21.772400 2.212700
21.801900 1.938100
21.831300 1.886800
21.860800 1.843200
21.890200 1.806000
21.919700 1.770900
21.949100 1.737200
21.978600 1.704700
22.008100 1.673400
22.037500 1.646700
22.067000 1.675800
22.096400 1.693800
22.125900 1.695400
22.155400 1.684300
22.184800 1.671900
22.214300 1.660500
22.243700 1.650500
22.273200 1.642000
22.302600 1.637600
22.332100 1.656900
22.361600 1.735900
22.391000 1.856500
22.420500 2.004800
22.449900 2.078700
22.479400 2.075200
22.508900 2.080500
22.538300 2.116500
22.567800 2.196100
22.597200 2.302900
22.626700 2.513400
22.656100 2.759400
22.685600 2.963400
22.715100 3.157800
22.744500 3.348800
22.774000 3.577100
22.803400 3.691800
22.832900 3.713100
22.862400 3.641100
22.891800 3.569200
22.921300 2.843300
22.950700 1.798400
22.980200 1.608700
23.009600 1.508700
23.039100 1.423200
23.068600 1.363400
23.098000 1.320600
23.127500 1.294900
23.156900 2.874400
23.186400 1.876700
23.215900 1.893400
23.245300 1.918600
23.274800 1.998000
23.304200 2.119200
23.333700 2.262600
23.363100 2.405200
23.392600 2.542700
23.422100 2.675100
23.451500 2.803300
23.481000 3.002100
23.510400 3.167700
23.539900 3.153000
23.569400 3.068000
23.598800 2.909000
23.628300 2.646800
23.657700 2.404900
23.687200 2.267000
23.716600 2.204500
23.746100 2.137100
23.775600 2.095800
23.805000 2.165200
23.834500 2.035500
23.863900 1.933400
23.893400 1.846500
23.922900 1.775100
23.952300 1.718800
23.981800 1.677800
24.011200 1.649300
24.040700 1.616400
24.070100 1.605900
24.099600 1.515600
24.129100 1.544800
24.158500 1.633500
24.188000 1.734300
24.217400 1.855500
24.246900 2.242900
24.276300 2.318700
24.305800 2.214400
24.335300 2.141200
24.364700 2.081500
24.394200 2.036300
24.423600 2.001200
24.453100 2.339000
24.482600 2.165900
24.512000 2.087100
24.541500 2.046400
24.570900 2.012800
24.600400 1.986900
24.629800 1.969700
24.659300 1.941100
24.688800 1.922700
24.718200 1.983200
24.747700 2.052400
24.777100 2.009500
24.806600 1.957000
24.836100 1.895100
24.865500 1.856100
24.895000 1.860100
24.924400 1.899100
24.953900 1.906100
24.983300 1.873100
25.012800 1.839000
25.042300 1.816900
25.071700 1.814400
25.101200 1.801600
25.130600 1.866000
25.160100 2.018500
25.189600 2.161500
25.219000 2.232500
25.248500 2.251100
25.277900 2.274500
25.307400 2.304000
25.336800 2.366000
25.366300 2.481700
25.395800 2.624700
25.425200 2.788400
25.454700 2.992000
25.484100 3.158500
25.513600 3.271400
25.543100 3.370900
25.572500 3.344900
25.602000 3.130300
25.631400 2.942400
25.660900 2.753600
25.690300 2.626500
25.719800 2.555600
25.749300 2.588000
25.778700 2.578000
25.808200 2.559400
25.837600 2.499000
25.867100 2.435200
25.896600 2.315400
25.926000 2.160200
25.955500 2.073300
25.984900 1.996400
26.014400 1.929300
26.043800 1.871700
26.073300 1.827100
26.102800 1.801000
26.132200 1.793600
26.161700 1.834300
26.191100 1.978300
26.220600 2.139300
26.250000 2.310900
26.279500 2.562700
26.309000 2.759000
26.338400 3.099000
26.367900 4.100200
26.397300 4.079600
26.426800 4.148500
26.456300 4.144700
26.485700 3.728600
26.515200 3.548200
26.544600 3.136300
26.574100 2.925500
26.603500 2.715100
26.633000 2.514400
26.662500 2.338000
26.691900 2.186000
26.721400 2.033600
26.750800 1.968400
26.780300 2.208100
26.809800 2.268800
26.839200 2.341000
26.868700 2.401400
26.898100 2.443100
26.927600 2.477800
26.957000 2.512500
26.986500 2.547100
27.016000 2.832000
27.045400 2.789100
27.074900 2.746100
27.104300 2.710100
27.133800 2.654300
27.163300 2.586100
27.192700 2.572900
27.222200 2.546500
27.251600 2.621000
27.281100 2.562600
27.310500 2.472400
27.340000 2.350700
27.369500 2.175400
27.398900 2.030000
27.428400 1.900800
27.457800 1.789400
27.487300 1.699600
27.516800 1.633900
27.546200 1.595700
27.575700 1.592500
27.605100 1.596900
27.634600 1.600200
27.664000 1.602400
27.693500 1.627500
27.723000 2.015400
27.752400 2.270600
27.781900 2.465700
27.811300 2.265500
27.840800 2.232300
27.870300 2.271300
27.899700 3.222200
27.929200 2.788300
27.958600 2.711300
27.988100 2.757100
28.017500 2.800400
28.047000 2.877600
28.076500 2.994400
28.105900 3.278700
28.135400 3.539900
28.164800 3.631200
28.194300 3.681600
28.223700 3.637100
28.253200 3.397300
28.282700 3.221500
28.312100 2.965400
28.341600 2.726000
28.371000 2.573100
28.400500 2.463200
28.430000 2.367100
28.459400 2.316100
28.488900 2.225600
28.518300 2.144800
28.547800 2.073900
28.577200 1.995200
28.606700 2.007500
28.636200 2.033200
28.665600 2.065000
28.695100 2.081400
28.724500 2.059200
28.754000 2.097000
28.783500 2.250700
28.812900 2.455200
28.842400 2.527300
28.871800 2.510100
28.901300 2.514200
28.930700 2.511000
28.960200 2.500700
28.989700 2.377000
29.019100 2.081600
29.048600 2.024300
29.078000 1.982500
29.107500 1.955600
29.137000 1.934000
29.166400 1.916800
29.195900 1.904000
29.225300 2.161400
29.254800 2.824500
29.284200 2.232600
29.313700 2.333300
29.343200 2.426300
29.372600 2.522000
29.402100 2.510600
29.431500 2.722100
29.461000 2.907600
29.490500 3.063800
29.519900 3.137400
29.549400 3.164600
29.578800 3.263800
29.608300 3.325200
29.637700 3.256100
29.667200 3.301900
29.696700 3.183700
29.726100 3.199900
29.755600 3.223200
29.785000 3.249400
29.814500 3.164400
29.844000 3.134400
29.873400 3.135700
29.902900 3.369000
29.932300 3.343800
29.961800 3.104200
29.991200 2.882600
30.020700 2.467800
30.050200 2.338000
30.079600 2.306700
30.109100 2.798400
30.138500 3.178100
30.168000 2.683500
30.197400 2.737100
30.226900 2.790700
30.256400 2.904100
30.285800 3.006600
30.315300 3.085400
30.344700 3.136900
30.374200 3.176900
30.403700 3.187900
30.433100 3.157000
30.462600 3.125900
30.492000 3.065300
30.521500 2.979800
30.550900 2.903100
30.580400 2.708500
30.609900 2.653700
30.639300 2.578500
30.668800 2.515100
30.698200 2.438200
30.727700 2.344600
30.757200 2.245300
30.786600 2.168000
30.816100 2.091000
30.845500 2.013900
30.875000 1.945300
30.904400 1.881700
30.933900 1.857700
30.963400 1.854400
30.992800 1.864100
31.022300 1.903900
31.051700 1.967800
31.081200 2.121200
31.110700 2.983700
31.140100 3.565400
31.169600 2.832500
31.199000 2.218100
31.228500 2.172100
31.257900 2.159900
31.287400 2.159000
31.316900 2.138900
31.346300 2.150200
31.375800 2.167500
31.405200 2.185600
31.434700 2.240900
31.464200 2.071200
31.493600 1.796500
31.523100 1.555500
31.552500 1.323500
31.582000 1.120600
31.611400 0.959400
31.640900 0.813200
31.670400 0.677600
31.699800 0.557500
31.729300 0.464800
31.758700 0.378000
31.788200 0.296100
31.817700 0.219000
31.847100 0.154800
31.876600 0.104900
31.906000 0.066300
31.935500 0.039200
31.964900 0.023300
31.994400 0.018300
32.023900 0.016000
32.053300 0.013800
32.082800 0.011700
32.112200 0.009900
32.141700 0.008200
32.171100 0.006600
32.200600 0.005300
32.230100 0.004000
32.259500 0.003000
32.289000 0.002100
32.318400 0.001300
32.347900 0.000800
32.377400 0.000400
32.406800 0.000100
32.436300 0.000000
32.465700 0.000000
32.495200 0.000000
32.524600 0.000000
32.554100 0.000000
32.583600 0.000000
32.613000 0.000000
32.642500 0.000000
32.671900 0.000000
32.701400 0.000000
32.730900 0.000000
32.760300 0.000000
32.789800 0.000000
32.819200 0.000000
32.848700 0.000000
32.878100 0.000000
32.907600 0.000000
32.937100 0.000000
32.966500 0.000000
32.996000 0.000000
33.025400 0.000000
33.054900 0.000000
33.084400 0.000000
33.113800 0.000000
33.143300 0.000000
33.172700 0.000000
33.202200 0.000000
33.231600 0.000000
33.261100 0.000000
33.290600 0.000000
33.320000 0.000000
33.349500 0.000000
33.378900 0.000000
33.408400 0.000000
33.437900 0.000000
33.467300 0.000000
33.496800 0.000000
33.526200 0.000000
33.555700 0.000000
33.585100 0.000000
33.614600 0.000000
33.644100 0.000000
33.673500 0.000000
33.703000 0.000000
33.732400 0.000000
33.761900 0.000000
33.791400 0.000000
33.820800 0.000000
33.850300 0.000000
33.879700 0.000000
33.909200 0.000000
33.938600 0.000000
33.968100 0.000000
33.997600 0.000000
34.027000 0.000000
34.056500 0.000000
34.085900 0.000000
34.115400 0.000000
34.144900 0.000000
34.174300 0.000000
34.203800 0.000000
34.233200 0.000000
34.262700 0.000000
34.292100 0.000000
34.321600 0.000000
34.351100 0.000000
34.380500 0.000000
34.410000 0.000000
34.439400 0.000000
34.468900 0.000000
34.498300 0.000000
34.527800 0.000000
34.557300 0.000000
34.586700 0.000000
34.616200 0.000000
34.645600 0.000000
34.675100 0.000000
34.704600 0.000000
34.734000 0.000000
34.763500 0.000000
34.792900 0.000000
34.822400 0.000000
34.851800 0.000000
34.881300 0.000000
34.910800 0.000000
34.940200 0.000000
34.969700 0.000000
34.999100 0.000000
35.028600 0.000000
35.058100 0.000000
35.087500 0.000000
35.117000 0.000000
e
