set title 'mp-714944 - Density of States'
set xlabel 'Energy (eV)'
set ylabel 'DOS (states/eV)'
set grid
set xrange [-10:10]
set yrange [0:4.871]
set xzeroaxis lt -1
set terminal png size 800,600
set output 'mp-714944_dos_gnuplot.png'
plot '-' using 1:2 with lines title 'DOS'
-43.071400 0.000000
-43.020600 0.000000
-42.969800 0.000000
-42.919100 0.000000
-42.868300 0.000000
-42.817500 0.000000
-42.766700 0.000000
-42.716000 0.000000
-42.665200 0.000000
-42.614400 0.000000
-42.563700 0.000000
-42.512900 0.000000
-42.462100 0.000000
-42.411300 0.000000
-42.360600 0.000000
-42.309800 0.000000
-42.259000 0.000000
-42.208300 0.000000
-42.157500 0.000000
-42.106700 0.000000
-42.055900 0.000000
-42.005200 0.000000
-41.954400 0.000000
-41.903600 0.000000
-41.852900 0.000000
-41.802100 0.000000
-41.751300 0.000000
-41.700500 0.000000
-41.649800 0.000000
-41.599000 0.000000
-41.548200 0.000000
-41.497500 0.000000
-41.446700 0.000000
-41.395900 0.000000
-41.345200 0.000000
-41.294400 0.000000
-41.243600 0.000000
-41.192800 0.000000
-41.142100 0.000000
-41.091300 0.000000
-41.040500 0.000000
-40.989800 0.000000
-40.939000 0.000000
-40.888200 0.000000
-40.837400 0.000000
-40.786700 0.000000
-40.735900 0.000000
-40.685100 0.000000
-40.634400 0.000000
-40.583600 0.000000
-40.532800 0.000000
-40.482000 0.000000
-40.431300 0.000000
-40.380500 0.000000
-40.329700 0.000000
-40.279000 0.000000
-40.228200 0.000000
-40.177400 0.000000
-40.126600 0.000000
-40.075900 0.000000
-40.025100 0.000000
-39.974300 0.000000
-39.923600 0.000000
-39.872800 0.000000
-39.822000 0.000000
-39.771200 0.000000
-39.720500 0.000000
-39.669700 0.000000
-39.618900 0.000000
-39.568200 0.000000
-39.517400 0.000000
-39.466600 0.000000
-39.415800 0.000000
-39.365100 0.000000
-39.314300 0.000000
-39.263500 0.000000
-39.212800 0.000000
-39.162000 0.000000
-39.111200 0.000000
-39.060400 0.000000
-39.009700 0.000000
-38.958900 0.000000
-38.908100 0.000000
-38.857400 0.000000
-38.806600 0.000000
-38.755800 0.000000
-38.705000 0.000000
-38.654300 0.000000
-38.603500 0.000000
-38.552700 0.000000
-38.502000 0.000000
-38.451200 1.877900
-38.400400 3.595000
-38.349600 6.934200
-38.298900 4.486700
-38.248100 0.000000
-38.197300 0.000000
-38.146600 0.000000
-38.095800 0.000000
-38.045000 12.287700
-37.994200 4.898800
-37.943500 5.305300
-37.892700 14.224100
-37.841900 0.000000
-37.791200 0.000000
-37.740400 0.000000
-37.689600 0.000000
-37.638800 0.000000
-37.588100 0.000000
-37.537300 0.000000
-37.486500 0.000000
-37.435800 0.000000
-37.385000 0.000000
-37.334200 0.000000
-37.283400 0.000000
-37.232700 0.000000
-37.181900 0.000000
-37.131100 0.000000
-37.080400 0.000000
-37.029600 0.000000
-36.978800 0.000000
-36.928000 0.000000
-36.877300 0.000000
-36.826500 0.000000
-36.775700 0.000000
-36.725000 0.000000
-36.674200 0.000000
-36.623400 0.000000
-36.572600 0.000000
-36.521900 0.000000
-36.471100 0.000000
-36.420300 0.000000
-36.369600 0.000000
-36.318800 0.000000
-36.268000 0.000000
-36.217200 0.000000
-36.166500 0.000000
-36.115700 0.000000
-36.064900 0.000000
-36.014200 0.000000
-35.963400 0.000000
-35.912600 0.000000
-35.861800 0.000000
-35.811100 0.000000
-35.760300 0.000000
-35.709500 0.000000
-35.658800 0.000000
-35.608000 0.000000
-35.557200 0.000000
-35.506400 0.000000
-35.455700 0.000000
-35.404900 0.000000
-35.354100 0.000000
-35.303400 0.000000
-35.252600 0.000000
-35.201800 0.000000
-35.151100 0.000000
-35.100300 0.000000
-35.049500 0.000000
-34.998700 0.000000
-34.948000 0.000000
-34.897200 0.000000
-34.846400 0.000000
-34.795700 0.000000
-34.744900 0.000000
-34.694100 0.000000
-34.643300 0.000000
-34.592600 0.000000
-34.541800 0.000000
-34.491000 0.000000
-34.440300 0.000000
-34.389500 0.000000
-34.338700 0.000000
-34.287900 0.000000
-34.237200 0.000000
-34.186400 0.000000
-34.135600 0.000000
-34.084900 0.000000
-34.034100 0.000000
-33.983300 0.000000
-33.932500 0.000000
-33.881800 0.000000
-33.831000 0.000000
-33.780200 0.000000
-33.729500 0.000000
-33.678700 0.000000
-33.627900 0.000000
-33.577100 0.000000
-33.526400 0.000000
-33.475600 0.000000
-33.424800 0.000000
-33.374100 0.000000
-33.323300 0.000000
-33.272500 0.000000
-33.221700 0.000000
-33.171000 0.000000
-33.120200 0.000000
-33.069400 0.000000
-33.018700 0.000000
-32.967900 0.000000
-32.917100 0.000000
-32.866300 0.000000
-32.815600 0.000000
-32.764800 0.000000
-32.714000 0.000000
-32.663300 0.000000
-32.612500 0.000000
-32.561700 0.000000
-32.510900 0.000000
-32.460200 0.000000
-32.409400 0.000000
-32.358600 0.000000
-32.307900 0.000000
-32.257100 0.000000
-32.206300 0.000000
-32.155500 0.000000
-32.104800 0.000000
-32.054000 0.000000
-32.003200 0.000000
-31.952500 0.000000
-31.901700 0.000000
-31.850900 0.000000
-31.800100 0.000000
-31.749400 0.000000
-31.698600 0.000000
-31.647800 0.000000
-31.597100 0.000000
-31.546300 0.000000
-31.495500 0.000000
-31.444700 0.000000
-31.394000 0.000000
-31.343200 0.000000
-31.292400 0.000000
-31.241700 0.000000
-31.190900 0.000000
-31.140100 0.000000
-31.089300 0.000000
-31.038600 0.000000
-30.987800 0.000000
-30.937000 0.000000
-30.886300 0.000000
-30.835500 0.000000
-30.784700 0.000000
-30.733900 0.000000
-30.683200 0.000000
-30.632400 0.000000
-30.581600 0.000000
-30.530900 0.000000
-30.480100 0.000000
-30.429300 0.000000
-30.378500 0.000000
-30.327800 0.000000
-30.277000 0.000000
-30.226200 0.000000
-30.175500 0.000000
-30.124700 0.000000
-30.073900 0.000000
-30.023100 0.000000
-29.972400 0.000000
-29.921600 0.000000
-29.870800 0.000000
-29.820100 0.000000
-29.769300 0.000000
-29.718500 0.000000
-29.667700 0.000000
-29.617000 0.000000
-29.566200 0.000000
-29.515400 0.000000
-29.464700 0.000000
-29.413900 0.000000
-29.363100 0.000000
-29.312300 0.000000
-29.261600 0.000000
-29.210800 0.000000
-29.160000 0.000000
-29.109300 0.000000
-29.058500 0.000000
-29.007700 0.000000
-28.957000 0.000000
-28.906200 0.000000
-28.855400 0.000000
-28.804600 0.000000
-28.753900 0.000000
-28.703100 0.000000
-28.652300 0.000000
-28.601600 0.000000
-28.550800 0.000000
-28.500000 0.000000
-28.449200 0.000000
-28.398500 0.000000
-28.347700 0.000000
-28.296900 0.000000
-28.246200 0.000000
-28.195400 0.000000
-28.144600 0.000000
-28.093800 0.000000
-28.043100 0.000000
-27.992300 0.000000
-27.941500 0.000000
-27.890800 0.000000
-27.840000 0.000000
-27.789200 0.000000
-27.738400 0.000000
-27.687700 0.000000
-27.636900 0.000000
-27.586100 0.000000
-27.535400 0.000000
-27.484600 0.000000
-27.433800 0.000000
-27.383000 0.000000
-27.332300 0.000000
-27.281500 0.000000
-27.230700 0.000000
-27.180000 0.000000
-27.129200 0.000000
-27.078400 0.000000
-27.027600 0.000000
-26.976900 0.000000
-26.926100 0.000000
-26.875300 0.000000
-26.824600 0.000000
-26.773800 0.000000
-26.723000 0.000000
-26.672200 0.000000
-26.621500 0.000000
-26.570700 0.000000
-26.519900 0.000000
-26.469200 0.000000
-26.418400 0.000000
-26.367600 0.000000
-26.316800 0.000000
-26.266100 0.000000
-26.215300 0.000000
-26.164500 0.000000
-26.113800 0.000000
-26.063000 0.000000
-26.012200 0.000000
-25.961400 0.000000
-25.910700 0.000000
-25.859900 0.000000
-25.809100 0.000000
-25.758400 0.000000
-25.707600 0.000000
-25.656800 0.000000
-25.606000 0.000000
-25.555300 0.000000
-25.504500 0.000000
-25.453700 0.000000
-25.403000 0.000000
-25.352200 0.000000
-25.301400 0.000000
-25.250600 0.000000
-25.199900 0.000000
-25.149100 0.000000
-25.098300 0.000000
-25.047600 0.000000
-24.996800 0.000000
-24.946000 0.000000
-24.895200 0.000000
-24.844500 0.000000
-24.793700 0.000000
-24.742900 0.000000
-24.692200 0.000000
-24.641400 0.000000
-24.590600 0.000000
-24.539800 0.000000
-24.489100 0.000000
-24.438300 0.000000
-24.387500 0.000000
-24.336800 0.000000
-24.286000 0.000000
-24.235200 0.000000
-24.184400 0.000000
-24.133700 0.000000
-24.082900 0.000000
-24.032100 0.000000
-23.981400 0.000000
-23.930600 0.000000
-23.879800 0.000000
-23.829000 0.000000
-23.778300 0.000000
-23.727500 0.000000
-23.676700 0.000000
-23.626000 0.000000
-23.575200 0.000000
-23.524400 0.000000
-23.473600 0.000000
-23.422900 0.000000
-23.372100 0.000000
-23.321300 0.000000
-23.270600 0.000000
-23.219800 0.000000
-23.169000 0.000000
-23.118200 0.000000
-23.067500 0.000000
-23.016700 0.000000
-22.965900 0.000000
-22.915200 0.000000
-22.864400 0.000000
-22.813600 0.000000
-22.762900 0.000000
-22.712100 0.000000
-22.661300 0.000000
-22.610500 0.000000
-22.559800 0.000000
-22.509000 0.000000
-22.458200 0.000000
-22.407500 0.000000
-22.356700 0.000000
-22.305900 0.000000
-22.255100 0.000000
-22.204400 0.000000
-22.153600 0.000000
-22.102800 0.000000
-22.052100 0.000000
-22.001300 0.000000
-21.950500 0.000000
-21.899700 0.000000
-21.849000 0.000000
-21.798200 0.000000
-21.747400 0.000000
-21.696700 0.000000
-21.645900 0.000000
-21.595100 0.000000
-21.544300 0.000000
-21.493600 0.000000
-21.442800 0.000000
-21.392000 0.000000
-21.341300 0.000000
-21.290500 0.000000
-21.239700 0.000000
-21.188900 0.000000
-21.138200 0.000000
-21.087400 0.000000
-21.036600 0.000000
-20.985900 0.000000
-20.935100 0.000000
-20.884300 0.000000
-20.833500 0.000000
-20.782800 0.000000
-20.732000 0.000000
-20.681200 0.000000
-20.630500 0.000000
-20.579700 0.000000
-20.528900 0.000000
-20.478100 0.000000
-20.427400 0.000000
-20.376600 0.000000
-20.325800 0.000000
-20.275100 0.000000
-20.224300 0.000000
-20.173500 0.000000
-20.122700 0.000000
-20.072000 0.000000
-20.021200 0.000000
-19.970400 0.000000
-19.919700 0.000000
-19.868900 0.000000
-19.818100 0.000000
-19.767300 0.000000
-19.716600 0.000000
-19.665800 0.000000
-19.615000 0.000000
-19.564300 0.000000
-19.513500 0.000000
-19.462700 0.000000
-19.411900 0.000000
-19.361200 0.000000
-19.310400 0.000000
-19.259600 0.000000
-19.208900 0.000000
-19.158100 0.000000
-19.107300 0.000000
-19.056500 0.000000
-19.005800 0.000000
-18.955000 0.000000
-18.904200 0.000000
-18.853500 0.000000
-18.802700 0.000000
-18.751900 0.000000
-18.701100 0.000000
-18.650400 0.000000
-18.599600 0.000000
-18.548800 0.000000
-18.498100 0.000000
-18.447300 0.000000
-18.396500 0.000000
-18.345700 0.000000
-18.295000 0.000000
-18.244200 0.000000
-18.193400 0.000000
-18.142700 0.000000
-18.091900 0.000000
-18.041100 0.000000
-17.990300 0.000000
-17.939600 0.000000
-17.888800 0.000000
-17.838000 0.000000
-17.787300 0.000000
-17.736500 0.000000
-17.685700 0.000000
-17.634900 0.000000
-17.584200 0.000000
-17.533400 0.000000
-17.482600 0.000000
-17.431900 0.000000
-17.381100 0.000000
-17.330300 0.000000
-17.279500 0.000000
-17.228800 0.000000
-17.178000 0.000000
-17.127200 0.192400
-17.076500 0.315300
-17.025700 0.321700
-16.974900 0.352300
-16.924100 0.359900
-16.873400 0.356100
-16.822600 0.363600
-16.771800 0.380200
-16.721100 0.399200
-16.670300 0.418200
-16.619500 0.433600
-16.568800 0.452800
-16.518000 0.479600
-16.467200 0.507100
-16.416400 0.534800
-16.365700 0.563300
-16.314900 0.591700
-16.264100 0.667000
-16.213400 0.799900
-16.162600 0.941900
-16.111800 1.108100
-16.061000 1.798800
-16.010300 2.048700
-15.959500 1.959600
-15.908700 1.846700
-15.858000 1.963100
-15.807200 0.009300
-15.756400 1.026200
-15.705600 3.166200
-15.654900 6.052900
-15.604100 4.602500
-15.553300 1.628400
-15.502600 1.272000
-15.451800 1.080200
-15.401000 0.904500
-15.350200 0.558500
-15.299500 0.256100
-15.248700 0.000000
-15.197900 0.000000
-15.147200 0.000000
-15.096400 0.000000
-15.045600 0.000000
-14.994800 0.000000
-14.944100 0.000000
-14.893300 0.000000
-14.842500 0.000000
-14.791800 0.000000
-14.741000 0.000000
-14.690200 0.000000
-14.639400 0.000000
-14.588700 0.000000
-14.537900 0.000000
-14.487100 0.000000
-14.436400 0.000000
-14.385600 0.000000
-14.334800 0.000000
-14.284000 0.000000
-14.233300 0.000000
-14.182500 0.000000
-14.131700 0.000000
-14.081000 0.000000
-14.030200 0.000000
-13.979400 0.000000
-13.928600 0.000000
-13.877900 0.000000
-13.827100 0.000000
-13.776300 0.000000
-13.725600 0.000000
-13.674800 0.000000
-13.624000 0.000000
-13.573200 0.000000
-13.522500 0.000000
-13.471700 0.000000
-13.420900 0.000000
-13.370200 0.000000
-13.319400 0.000000
-13.268600 0.000000
-13.217800 0.000000
-13.167100 0.000000
-13.116300 0.000000
-13.065500 0.000000
-13.014800 0.000000
-12.964000 0.000000
-12.913200 0.000000
-12.862400 0.000000
-12.811700 0.000000
-12.760900 0.000000
-12.710100 0.000000
-12.659400 0.000000
-12.608600 0.000000
-12.557800 0.000000
-12.507000 0.000000
-12.456300 0.000000
-12.405500 0.000000
-12.354700 0.000000
-12.304000 0.000000
-12.253200 0.000000
-12.202400 0.000000
-12.151600 0.000000
-12.100900 0.000000
-12.050100 0.000000
-11.999300 0.000000
-11.948600 0.000000
-11.897800 0.000000
-11.847000 0.000000
-11.796200 0.000000
-11.745500 0.000000
-11.694700 0.000000
-11.643900 0.000000
-11.593200 0.000000
-11.542400 0.000000
-11.491600 0.000000
-11.440800 0.000000
-11.390100 0.000000
-11.339300 0.000000
-11.288500 0.000000
-11.237800 0.000000
-11.187000 0.000000
-11.136200 0.000000
-11.085400 0.000000
-11.034700 0.000000
-10.983900 0.000000
-10.933100 0.000000
-10.882400 0.000000
-10.831600 0.000000
-10.780800 0.000000
-10.730000 0.000000
-10.679300 0.000000
-10.628500 0.000000
-10.577700 0.000000
-10.527000 0.000000
-10.476200 0.000000
-10.425400 0.000000
-10.374700 0.000000
-10.323900 0.000000
-10.273100 0.000000
-10.222300 0.000000
-10.171600 0.000000
-10.120800 0.000000
-10.070000 0.000000
-10.019300 0.000000
-9.968500 0.000000
-9.917700 0.000000
-9.866900 0.000000
-9.816200 0.000000
-9.765400 0.000000
-9.714600 0.000000
-9.663900 0.000000
-9.613100 0.000000
-9.562300 0.000000
-9.511500 0.000000
-9.460800 0.000000
-9.410000 0.000000
-9.359200 0.000000
-9.308500 0.000000
-9.257700 0.000000
-9.206900 0.000000
-9.156100 0.000000
-9.105400 0.000000
-9.054600 0.000000
-9.003800 0.000000
-8.953100 0.000000
-8.902300 0.000000
-8.851500 0.000000
-8.800700 0.000000
-8.750000 0.000000
-8.699200 0.000000
-8.648400 0.000000
-8.597700 0.000000
-8.546900 0.000000
-8.496100 0.000000
-8.445300 0.000000
-8.394600 0.000000
-8.343800 0.000000
-8.293000 0.000000
-8.242300 0.000000
-8.191500 0.000000
-8.140700 0.000000
-8.089900 0.000000
-8.039200 0.000000
-7.988400 0.000000
-7.937600 0.000000
-7.886900 0.000000
-7.836100 0.000000
-7.785300 0.000000
-7.734500 0.000000
-7.683800 0.000000
-7.633000 0.000000
-7.582200 0.000000
-7.531500 0.000000
-7.480700 0.000000
-7.429900 0.000000
-7.379100 0.000000
-7.328400 0.000000
-7.277600 0.000000
-7.226800 0.000000
-7.176100 0.000000
-7.125300 0.000000
-7.074500 0.000000
-7.023700 0.000000
-6.973000 0.000000
-6.922200 0.000000
-6.871400 0.000000
-6.820700 0.000000
-6.769900 0.000000
-6.719100 0.000000
-6.668300 0.000000
-6.617600 0.000000
-6.566800 0.000000
-6.516000 0.000000
-6.465300 0.000000
-6.414500 0.000000
-6.363700 0.000000
-6.312900 0.000000
-6.262200 0.000000
-6.211400 0.000000
-6.160600 0.000000
-6.109900 0.000000
-6.059100 0.000000
-6.008300 0.000000
-5.957500 0.000000
-5.906800 0.000000
-5.856000 0.000000
-5.805200 0.000000
-5.754500 0.000000
-5.703700 0.000000
-5.652900 0.000000
-5.602100 0.000000
-5.551400 0.000000
-5.500600 0.000000
-5.449800 0.000000
-5.399100 0.000000
-5.348300 0.000000
-5.297500 0.000000
-5.246700 0.000000
-5.196000 0.000000
-5.145200 0.000000
-5.094400 0.000000
-5.043700 0.000000
-4.992900 0.000000
-4.942100 0.000000
-4.891300 0.000000
-4.840600 0.000000
-4.789800 0.000000
-4.739000 0.000000
-4.688300 0.000000
-4.637500 0.000000
-4.586700 0.000000
-4.535900 0.081800
-4.485200 0.107400
-4.434400 0.170500
-4.383600 0.176900
-4.332900 0.179700
-4.282100 0.194900
-4.231300 0.209400
-4.180600 0.357900
-4.129800 0.443400
-4.079000 0.532500
-4.028200 0.667300
-3.977500 0.699600
-3.926700 0.754700
-3.875900 0.815700
-3.825200 0.983400
-3.774400 1.327300
-3.723600 1.887900
-3.672800 2.207900
-3.622100 2.367100
-3.571300 2.417400
-3.520500 1.532700
-3.469800 0.953400
-3.419000 0.670400
-3.368200 0.561500
-3.317400 0.785300
-3.266700 1.516800
-3.215900 2.313700
-3.165100 2.240800
-3.114400 1.998800
-3.063600 1.888300
-3.012800 1.990300
-2.962000 2.227900
-2.911300 2.275200
-2.860500 1.958100
-2.809700 1.790900
-2.759000 1.019700
-2.708200 0.919200
-2.657400 0.939800
-2.606600 0.926900
-2.555900 0.950300
-2.505100 1.116000
-2.454300 1.291700
-2.403600 1.478300
-2.352800 1.389900
-2.302000 1.365700
-2.251200 1.316100
-2.200500 1.590900
-2.149700 1.401500
-2.098900 0.878600
-2.048200 0.564900
-1.997400 0.485600
-1.946600 0.668800
-1.895800 0.710400
-1.845100 0.811000
-1.794300 0.945300
-1.743500 1.322100
-1.692800 1.705700
-1.642000 2.176000
-1.591200 2.402500
-1.540400 2.042200
-1.489700 1.753100
-1.438900 1.299500
-1.388100 1.313600
-1.337400 1.526400
-1.286600 1.505600
-1.235800 1.334700
-1.185000 1.845800
-1.134300 1.714300
-1.083500 1.551600
-1.032700 1.545700
-0.982000 1.794100
-0.931200 1.820700
-0.880400 1.300800
-0.829600 0.717100
-0.778900 0.449200
-0.728100 0.444100
-0.677300 0.487500
-0.626600 0.687700
-0.575800 0.697700
-0.525000 0.763000
-0.474200 0.790200
-0.423500 0.838000
-0.372700 0.997500
-0.321900 0.972500
-0.271200 0.961800
-0.220400 1.237500
-0.169600 1.137400
-0.118800 1.044100
-0.068100 1.011000
-0.017300 1.051000
0.033500 0.920200
0.084200 0.968000
0.135000 1.064400
0.185800 1.221400
0.236600 1.053000
0.287300 1.207700
0.338100 1.221600
0.388900 1.111900
0.439600 1.557900
0.490400 1.600800
0.541200 1.388400
0.592000 1.179300
0.642700 0.971600
0.693500 0.999700
0.744300 1.123800
0.795000 1.205200
0.845800 1.501700
0.896600 1.363700
0.947400 1.397100
0.998100 1.470800
1.048900 1.555600
1.099700 1.696100
1.150400 1.597000
1.201200 1.081200
1.252000 0.439100
1.302800 0.076600
1.353500 0.000000
1.404300 0.000000
1.455100 0.000000
1.505800 0.000000
1.556600 0.000000
1.607400 0.000000
1.658200 0.000000
1.708900 0.000000
1.759700 0.000000
1.810500 0.000000
1.861200 0.000000
1.912000 0.000000
1.962800 0.000000
2.013500 0.000000
2.064300 0.000000
2.115100 0.000000
2.165900 0.000000
2.216600 0.000000
2.267400 0.000000
2.318200 0.000000
2.368900 0.000000
2.419700 0.000000
2.470500 0.000000
2.521300 0.274400
2.572000 0.203400
2.622800 0.226500
2.673600 0.249600
2.724300 0.276100
2.775100 0.356900
2.825900 0.450100
2.876700 1.145800
2.927400 1.454300
2.978200 1.601100
3.029000 1.646800
3.079700 1.520300
3.130500 1.768200
3.181300 1.656100
3.232100 2.445600
3.282800 3.835100
3.333600 0.373300
3.384400 3.500200
3.435100 4.428300
3.485900 3.893900
3.536700 2.957000
3.587500 2.222900
3.638200 1.629500
3.689000 0.581200
3.739800 0.016300
3.790500 0.000000
3.841300 0.000000
3.892100 0.000000
3.942900 0.000000
3.993600 0.000000
4.044400 0.000000
4.095200 0.000000
4.145900 0.000000
4.196700 0.000000
4.247500 0.000000
4.298300 0.000000
4.349000 0.000000
4.399800 0.000000
4.450600 0.000000
4.501300 0.000000
4.552100 0.000000
4.602900 0.000000
4.653700 0.000000
4.704400 0.000000
4.755200 0.000000
4.806000 0.012300
4.856700 0.107100
4.907500 0.154100
4.958300 0.217100
5.009100 0.292700
5.059800 0.414000
5.110600 0.819100
5.161400 1.433200
5.212100 1.776600
5.262900 2.107500
5.313700 3.443600
5.364500 3.368100
5.415200 2.260500
5.466000 1.741100
5.516800 1.418700
5.567500 2.384600
5.618300 2.159900
5.669100 1.800000
5.719900 1.826200
5.770600 2.408900
5.821400 3.568600
5.872200 2.461000
5.922900 1.397400
5.973700 0.908700
6.024500 0.684900
6.075300 0.386700
6.126000 0.100100
6.176800 0.000000
6.227600 0.000000
6.278300 0.000000
6.329100 0.000000
6.379900 0.000000
6.430700 0.000000
6.481400 0.000000
6.532200 0.000000
6.583000 0.000000
6.633700 0.000000
6.684500 0.000000
6.735300 0.000000
6.786100 0.000000
6.836800 0.000000
6.887600 0.000000
6.938400 0.000000
6.989100 0.000000
7.039900 0.000000
7.090700 0.000000
7.141500 0.000000
7.192200 0.000000
7.243000 0.000000
7.293800 0.000000
7.344500 0.000000
7.395300 0.000000
7.446100 0.000000
7.496900 0.000000
7.547600 0.000000
7.598400 0.000000
7.649200 0.000000
7.699900 0.000000
7.750700 0.000000
7.801500 0.000000
7.852300 0.000000
7.903000 0.000000
7.953800 0.000000
8.004600 0.000000
8.055300 0.000000
8.106100 0.000000
8.156900 0.000000
8.207600 0.000000
8.258400 0.000000
8.309200 0.000000
8.360000 0.000000
8.410700 0.018000
8.461500 0.023500
8.512300 0.024000
8.563000 0.025500
8.613800 0.028400
8.664600 0.031500
8.715400 0.034700
8.766100 0.037900
8.816900 0.041300
8.867700 0.044800
8.918400 0.048500
8.969200 0.051900
9.020000 0.055000
9.070800 0.057700
9.121500 0.060000
9.172300 0.062600
9.223100 0.065400
9.273800 0.068200
9.324600 0.071100
9.375400 0.073900
9.426200 0.076800
9.476900 0.079900
9.527700 0.083000
9.578500 0.086100
9.629200 0.089300
9.680000 0.092600
9.730800 0.095900
9.781600 0.099300
9.832300 0.103200
9.883100 0.108800
9.933900 0.116500
9.984600 0.126200
10.035400 0.150500
10.086200 0.132100
10.137000 0.135900
10.187700 0.139500
10.238500 0.143000
10.289300 0.146300
10.340000 0.149600
10.390800 0.152900
10.441600 0.156100
10.492400 0.159200
10.543100 0.162300
10.593900 0.165200
10.644700 0.168400
10.695400 0.172800
10.746200 0.178000
10.797000 0.182900
10.847800 0.187500
10.898500 0.202200
10.949300 0.214200
11.000100 0.223500
11.050800 0.231000
11.101600 0.237900
11.152400 0.244600
11.203200 0.251800
11.253900 0.259300
11.304700 0.267600
11.355500 0.276000
11.406200 0.285000
11.457000 0.294800
11.507800 0.307900
11.558600 0.323000
11.609300 0.338700
11.660100 0.353900
11.710900 0.371600
11.761600 0.373600
11.812400 0.378100
11.863200 0.383000
11.914000 0.390700
11.964700 0.401900
12.015500 0.411900
12.066300 0.419800
12.117000 0.429100
12.167800 0.440300
12.218600 0.452600
12.269400 0.465500
12.320100 0.471400
12.370900 0.470800
12.421700 0.468200
12.472400 0.466500
12.523200 0.468200
12.574000 0.475800
12.624800 0.481100
12.675500 0.485100
12.726300 0.492900
12.777100 0.500600
12.827800 0.492800
12.878600 0.473700
12.929400 0.450900
12.980200 0.436000
13.030900 0.426700
13.081700 0.416500
13.132500 0.404100
13.183200 0.397200
13.234000 0.400100
13.284800 0.413700
13.335600 0.475100
13.386300 0.526300
13.437100 0.517700
13.487900 0.499000
13.538600 0.491000
13.589400 0.500800
13.640200 0.537400
13.691000 0.551600
13.741700 0.536000
13.792500 0.526500
13.843300 0.514700
13.894000 0.503600
13.944800 0.494100
13.995600 0.486300
14.046400 0.488400
14.097100 0.488700
14.147900 0.486300
14.198700 0.497300
14.249400 0.506800
14.300200 0.521100
14.351000 0.527900
14.401700 0.530800
14.452500 0.535800
14.503300 0.553200
14.554100 0.554600
14.604800 0.532700
14.655600 0.533600
14.706400 0.520200
14.757100 0.493900
14.807900 0.482300
14.858700 0.487500
14.909500 0.505700
14.960200 0.343900
15.011000 0.213400
15.061800 0.214200
15.112500 0.253600
15.163300 0.305500
15.214100 0.376600
15.264900 0.483500
15.315600 0.648300
15.366400 0.808300
15.417200 0.990500
15.467900 1.266500
15.518700 1.370600
15.569500 1.144800
15.620300 1.036300
15.671000 0.987000
15.721800 0.964600
15.772600 0.909400
15.823300 0.919600
15.874100 0.881700
15.924900 0.892500
15.975700 0.896600
16.026400 0.878200
16.077200 1.128900
16.128000 1.243800
16.178700 1.207300
16.229500 1.246400
16.280300 1.259600
16.331100 1.026100
16.381800 0.875500
16.432600 0.763500
16.483400 0.714300
16.534100 0.646600
16.584900 0.599000
16.635700 0.561800
16.686500 0.551000
16.737200 0.555900
16.788000 0.469600
16.838800 0.435200
16.889500 0.350800
16.940300 0.356600
16.991100 0.376800
17.041900 0.432600
17.092600 0.552400
17.143400 0.635200
17.194200 0.705000
17.244900 0.695000
17.295700 0.689700
17.346500 0.717700
17.397300 0.753600
17.448000 0.848900
17.498800 0.939900
17.549600 0.962100
17.600300 0.839300
17.651100 0.803200
17.701900 0.768200
17.752700 0.751500
17.803400 0.739300
17.854200 0.731600
17.905000 0.719400
17.955700 0.707500
18.006500 0.695900
18.057300 0.703000
18.108100 0.691300
18.158800 0.686100
18.209600 0.668800
18.260400 0.664500
18.311100 0.619600
18.361900 0.581100
18.412700 0.542800
18.463500 0.443600
18.514200 0.341400
18.565000 0.287200
18.615800 0.263100
18.666500 0.476800
18.717300 0.562500
18.768100 0.595000
18.818900 0.622900
18.869600 0.535800
18.920400 0.504500
18.971200 0.497800
19.021900 0.493100
19.072700 0.488200
19.123500 0.481600
19.174300 0.473900
19.225000 0.469300
19.275800 0.464200
19.326600 0.460200
19.377300 0.454400
19.428100 0.448200
19.478900 0.439900
19.529700 0.431600
19.580400 0.423900
19.631200 0.415100
19.682000 0.405000
19.732700 0.395500
19.783500 0.388200
19.834300 0.380900
19.885100 0.373700
19.935800 0.366900
19.986600 0.360800
20.037400 0.349800
20.088100 0.342800
20.138900 0.336600
20.189700 0.331100
20.240500 0.326400
20.291200 0.323400
20.342000 0.320700
20.392800 0.318500
20.443500 0.314600
20.494300 0.313400
20.545100 0.314400
20.595800 0.317800
20.646600 0.325300
20.697400 0.336800
20.748200 0.351200
20.798900 0.367100
20.849700 0.387100
20.900500 0.413400
20.951200 0.446000
21.002000 0.492000
21.052800 0.523800
21.103600 0.552200
21.154300 0.579700
21.205100 0.608200
21.255900 0.640400
21.306600 0.679300
21.357400 0.734600
21.408200 0.761400
21.459000 0.785700
21.509700 0.762700
21.560500 0.704500
21.611300 0.715200
21.662000 0.798400
21.712800 0.797200
21.763600 0.784000
21.814400 0.816000
21.865100 0.809800
21.915900 0.825200
21.966700 0.854100
22.017400 0.899900
22.068200 0.907500
22.119000 0.886800
22.169800 0.799600
22.220500 0.762500
22.271300 0.747500
22.322100 0.713100
22.372800 0.671300
22.423600 0.660700
22.474400 0.663100
22.525200 0.737400
22.575900 0.817100
22.626700 0.914800
22.677500 1.048800
22.728200 1.385600
22.779000 1.393900
22.829800 1.419600
22.880600 1.446900
22.931300 1.269800
22.982100 1.083000
23.032900 0.931900
23.083600 0.769800
23.134400 0.721600
23.185200 0.713800
23.236000 0.695200
23.286700 0.737300
23.337500 0.820900
23.388300 0.812900
23.439000 0.735300
23.489800 0.693900
23.540600 0.619500
23.591400 0.645000
23.642100 0.585700
23.692900 0.539700
23.743700 0.512300
23.794400 0.518700
23.845200 0.578100
23.896000 0.619100
23.946800 0.604800
23.997500 0.635400
24.048300 0.673100
24.099100 0.687200
24.149800 0.712500
24.200600 0.777200
24.251400 0.810300
24.302200 0.805000
24.352900 0.780300
24.403700 0.716800
24.454500 0.683700
24.505200 0.678500
24.556000 0.647600
24.606800 0.625000
24.657600 0.598200
24.708300 0.582500
24.759100 0.556400
24.809900 0.555300
24.860600 0.557100
24.911400 0.542600
24.962200 0.534100
25.013000 0.525500
25.063700 0.520400
25.114500 0.523900
25.165300 0.530600
25.216000 0.538600
25.266800 0.549600
25.317600 0.560800
25.368400 0.569500
25.419100 0.587300
25.469900 0.615500
25.520700 0.592300
25.571400 0.524100
25.622200 0.539700
25.673000 0.473100
25.723800 0.443100
25.774500 0.429600
25.825300 0.434400
25.876100 0.440900
25.926800 0.455900
25.977600 0.461300
26.028400 0.471700
26.079200 0.487300
26.129900 0.511600
26.180700 0.498400
26.231500 0.487800
26.282200 0.455400
26.333000 0.474800
26.383800 0.525400
26.434600 0.578200
26.485300 0.606400
26.536100 0.638600
26.586900 0.715500
26.637600 0.746400
26.688400 0.755800
26.739200 0.758400
26.789900 0.749800
26.840700 0.865100
26.891500 0.834500
26.942300 0.822200
26.993000 0.777800
27.043800 0.714600
27.094600 0.645300
27.145300 0.553200
27.196100 0.443800
27.246900 0.386600
27.297700 0.316300
27.348400 0.283100
27.399200 0.271400
27.450000 0.257600
27.500700 0.278800
27.551500 0.315500
27.602300 0.378000
27.653100 0.433000
27.703800 0.487200
27.754600 0.533700
27.805400 0.606300
27.856100 0.686100
27.906900 0.769900
27.957700 0.869900
28.008500 0.992200
28.059200 1.090700
28.110000 1.221500
28.160800 1.380200
28.211500 1.480700
28.262300 1.590500
28.313100 1.833200
28.363900 2.997200
28.414600 2.472400
28.465400 1.683000
28.516200 1.249200
28.566900 1.026100
28.617700 0.939400
28.668500 0.880200
28.719300 0.812600
28.770000 0.733300
28.820800 0.671600
28.871600 0.631900
28.922300 0.592900
28.973100 0.559000
29.023900 0.551500
29.074700 0.582800
29.125400 0.743700
29.176200 0.753300
29.227000 0.681600
29.277700 0.604900
29.328500 0.563800
29.379300 0.542000
29.430100 0.542600
29.480800 0.552500
29.531600 0.579000
29.582400 0.621300
29.633100 0.667200
29.683900 0.729300
29.734700 0.824000
29.785500 0.880300
29.836200 0.875500
29.887000 0.852400
29.937800 0.841200
29.988500 0.826700
30.039300 0.819900
30.090100 0.807000
30.140900 0.798900
30.191600 0.795600
30.242400 0.786300
30.293200 0.768500
30.343900 0.743400
30.394700 0.701000
30.445500 0.673300
30.496300 0.658800
30.547000 0.648500
30.597800 0.638100
30.648600 0.609600
30.699300 0.646600
30.750100 0.628500
30.800900 0.628200
30.851700 0.626100
30.902400 0.623000
30.953200 0.619000
31.004000 0.612000
31.054700 0.607900
31.105500 0.602000
31.156300 0.592700
31.207100 0.584700
31.257800 0.578000
31.308600 0.563200
31.359400 0.544200
31.410100 0.532200
31.460900 0.531900
31.511700 0.549000
31.562500 0.560400
31.613200 0.569800
31.664000 0.587300
31.714800 0.629200
31.765500 0.663300
31.816300 0.697100
31.867100 0.717900
31.917900 0.726100
31.968600 0.794900
32.019400 0.788900
32.070200 0.872100
32.120900 0.854600
32.171700 0.838900
32.222500 0.812500
32.273300 0.795800
32.324000 0.796100
32.374800 0.823100
32.425600 0.848900
32.476300 1.022700
32.527100 0.970500
32.577900 0.847900
32.628700 0.773100
32.679400 0.728900
32.730200 0.747000
32.781000 0.803400
32.831700 0.845000
32.882500 0.870000
32.933300 0.916400
32.984000 0.951400
33.034800 0.993500
33.085600 1.044200
33.136400 1.083200
33.187100 1.082400
33.237900 1.141300
33.288700 1.147800
33.339400 1.092100
33.390200 1.008900
33.441000 0.912200
33.491800 0.910800
33.542500 0.885700
33.593300 0.827900
33.644100 0.889800
33.694800 0.920000
33.745600 1.022800
33.796400 1.116100
33.847200 1.153200
33.897900 1.222700
33.948700 1.217700
33.999500 1.179800
34.050200 1.125300
34.101000 1.102000
34.151800 1.120900
34.202600 1.091900
34.253300 0.910000
34.304100 0.798800
34.354900 0.689000
34.405600 0.621400
34.456400 0.636800
34.507200 0.709400
34.558000 0.728700
34.608700 0.813600
34.659500 0.947900
34.710300 1.157900
34.761000 1.100600
34.811800 1.074700
34.862600 1.061700
34.913400 1.068400
34.964100 1.097500
35.014900 1.136000
35.065700 1.160300
35.116400 1.064600
35.167200 0.920400
35.218000 0.804600
35.268800 0.734100
35.319500 0.683500
35.370300 0.653200
35.421100 0.646200
35.471800 0.666900
35.522600 0.732000
35.573400 0.730000
35.624200 0.786200
35.674900 0.805900
35.725700 0.874100
35.776500 0.888800
35.827200 0.889800
35.878000 1.000700
35.928800 0.937100
35.979600 0.964100
36.030300 0.999700
36.081100 1.018000
36.131900 1.072800
36.182600 1.094700
36.233400 1.115500
36.284200 1.116100
36.335000 1.072600
36.385700 1.055800
36.436500 1.059800
36.487300 1.067600
36.538000 1.111900
36.588800 0.995300
36.639600 0.885900
36.690400 0.821000
36.741100 0.703800
36.791900 0.722400
36.842700 0.645900
36.893400 0.641600
36.944200 0.664800
36.995000 0.682000
37.045800 0.697800
37.096500 0.715000
37.147300 0.740100
37.198100 0.779200
37.248800 0.819000
37.299600 0.846800
37.350400 0.880700
37.401200 0.908800
37.451900 0.934800
37.502700 1.071100
37.553500 1.009200
37.604200 0.970400
37.655000 0.927300
37.705800 0.917800
37.756600 0.929400
37.807300 0.967600
37.858100 0.985400
37.908900 0.989200
37.959600 0.943800
38.010400 0.916200
38.061200 0.919300
38.112000 0.949800
38.162700 1.029700
38.213500 0.950300
38.264300 0.914000
38.315000 0.911700
38.365800 0.850700
38.416600 0.826400
38.467400 0.834200
38.518100 0.843200
38.568900 0.843200
38.619700 0.881900
38.670400 0.893300
38.721200 0.897100
38.772000 0.906000
38.822800 0.914600
38.873500 0.942100
38.924300 0.956700
38.975100 0.948700
39.025800 0.973200
39.076600 1.015100
39.127400 1.013600
39.178100 0.979800
39.228900 0.957500
39.279700 0.927600
39.330500 0.891000
39.381200 0.869800
39.432000 0.881100
39.482800 0.897400
39.533500 0.926700
39.584300 0.916400
39.635100 0.927700
39.685900 0.965300
39.736600 1.010200
39.787400 1.031800
39.838200 0.987000
39.888900 0.948100
39.939700 0.929900
39.990500 0.921200
40.041300 0.928000
40.092000 0.915600
40.142800 0.911900
40.193600 0.904100
40.244300 0.888600
40.295100 0.869100
40.345900 0.855000
40.396700 0.837600
40.447400 0.818000
40.498200 0.795000
40.549000 0.766400
40.599700 0.725000
40.650500 0.685800
40.701300 0.651900
40.752100 0.635700
40.802800 0.630300
40.853600 0.633300
40.904400 0.644200
40.955100 0.669400
41.005900 0.729700
41.056700 0.716700
41.107500 0.724100
41.158200 0.735800
41.209000 0.760200
41.259800 0.906200
41.310500 0.921000
41.361300 0.900000
41.412100 0.889300
41.462900 0.886900
41.513600 0.894700
41.564400 0.906900
41.615200 0.910100
41.665900 0.886900
41.716700 0.864000
41.767500 0.827400
41.818300 0.804100
41.869000 0.790000
41.919800 0.758300
41.970600 0.724900
42.021300 0.687200
42.072100 0.650100
42.122900 0.619800
42.173700 0.598400
42.224400 0.588000
42.275200 0.600700
42.326000 0.621200
42.376700 0.648700
42.427500 0.669300
42.478300 0.693400
42.529100 0.716600
42.579800 0.733800
42.630600 0.759400
42.681400 0.778000
42.732100 0.795200
42.782900 0.807900
42.833700 0.823100
42.884500 0.828100
42.935200 0.807300
42.986000 0.769700
43.036800 0.774400
43.087500 0.740400
43.138300 0.690600
43.189100 0.675500
43.239900 0.671800
43.290600 0.672100
43.341400 0.677900
43.392200 0.684300
43.442900 0.693900
43.493700 0.717100
43.544500 0.774600
43.595300 0.847700
43.646000 0.892400
43.696800 0.946900
43.747600 0.994400
43.798300 1.020600
43.849100 1.045900
43.899900 1.078700
43.950700 1.056300
44.001400 0.987000
44.052200 0.934400
44.103000 0.905300
44.153700 0.897300
44.204500 0.832800
44.255300 0.829400
44.306100 0.826100
44.356800 0.822500
44.407600 0.891200
44.458400 0.983200
44.509100 1.038900
44.559900 1.039300
44.610700 1.014400
44.661500 0.999700
44.712200 1.005100
44.763000 1.012700
44.813800 0.982000
44.864500 0.933600
44.915300 0.911200
44.966100 0.912500
45.016900 0.921600
45.067600 0.948100
45.118400 1.001100
45.169200 1.066700
45.219900 1.098600
45.270700 1.060600
45.321500 0.995000
45.372200 0.945100
45.423000 1.026200
45.473800 0.981100
45.524600 1.034800
45.575300 1.032000
45.626100 1.025300
45.676900 1.031600
45.727600 1.016500
45.778400 1.020200
45.829200 1.078500
45.880000 1.142700
45.930700 1.170900
45.981500 1.224100
46.032300 1.215700
46.083000 1.239000
46.133800 1.222000
46.184600 1.227700
46.235400 1.279600
46.286100 1.338900
46.336900 1.375600
46.387700 1.375400
46.438400 1.336100
46.489200 1.387000
46.540000 1.382900
46.590800 1.265100
46.641500 1.231100
46.692300 1.181700
46.743100 1.120900
46.793800 1.058300
46.844600 1.049100
46.895400 1.010900
46.946200 0.974500
46.996900 1.010600
47.047700 1.061300
47.098500 1.112100
47.149200 1.130900
47.200000 1.195000
47.250800 1.191900
47.301600 1.136800
47.352300 1.079700
47.403100 1.049700
47.453900 1.063000
47.504600 1.065900
47.555400 1.054700
47.606200 1.051200
47.657000 1.075400
47.707700 1.076600
47.758500 1.090800
47.809300 1.098800
47.860000 1.119100
47.910800 1.148400
47.961600 1.149400
48.012400 1.155000
48.063100 1.063100
48.113900 1.016100
48.164700 1.014500
48.215400 1.021000
48.266200 0.984900
48.317000 0.944200
48.367800 1.052800
48.418500 1.016300
48.469300 1.015800
48.520100 1.027800
48.570800 1.008400
48.621600 0.991400
48.672400 0.971400
48.723200 0.993200
48.773900 0.944100
48.824700 0.923500
48.875500 0.960700
48.926200 0.949900
48.977000 0.944000
49.027800 0.939600
49.078600 0.961000
49.129300 0.931000
49.180100 0.914500
49.230900 0.905900
49.281600 0.915900
49.332400 0.935300
49.383200 0.918900
49.434000 0.964400
49.484700 1.062800
49.535500 1.126100
49.586300 1.098500
49.637000 1.078300
49.687800 1.024700
49.738600 0.995200
49.789400 0.965000
49.840100 0.933600
49.890900 0.933000
49.941700 0.936400
49.992400 1.033900
50.043200 0.906300
50.094000 0.898000
50.144800 0.891200
50.195500 0.882600
50.246300 0.897500
50.297100 0.936200
50.347800 0.952300
50.398600 0.977300
50.449400 1.033000
50.500200 0.993600
50.550900 0.944800
50.601700 0.933900
50.652500 0.924800
50.703200 0.919100
50.754000 0.913600
50.804800 0.837600
50.855600 0.762500
50.906300 0.686100
50.957100 0.637700
51.007900 0.603700
51.058600 0.556300
51.109400 0.530500
51.160200 0.509100
51.211000 0.494600
51.261700 0.460600
51.312500 0.405400
51.363300 0.353900
51.414000 0.311700
51.464800 0.277100
51.515600 0.252500
51.566300 0.237300
51.617100 0.229300
51.667900 0.221200
51.718700 0.214200
51.769400 0.207100
51.820200 0.197600
51.871000 0.189100
51.921700 0.193700
51.972500 0.173400
52.023300 0.163000
52.074100 0.153400
52.124800 0.146900
52.175600 0.135700
52.226400 0.120200
52.277100 0.106500
52.327900 0.096500
52.378700 0.089200
52.429500 0.080900
52.480200 0.075100
52.531000 0.072500
52.581800 0.070100
52.632500 0.067900
52.683300 0.065800
52.734100 0.063900
52.784900 0.062100
52.835600 0.060300
52.886400 0.058200
52.937200 0.055500
52.987900 0.052000
53.038700 0.047900
53.089500 0.045100
53.140300 0.043600
53.191000 0.042900
53.241800 0.036400
53.292600 0.021500
53.343300 0.014000
53.394100 0.008100
53.444900 0.002100
53.495700 0.000000
53.546400 0.000000
53.597200 0.000000
53.648000 0.000000
53.698700 0.000000
53.749500 0.000000
53.800300 0.000000
53.851100 0.000000
53.901800 0.000000
53.952600 0.000000
54.003400 0.000000
54.054100 0.000000
54.104900 0.000000
54.155700 0.000000
54.206500 0.000000
54.257200 0.000000
54.308000 0.000000
54.358800 0.000000
54.409500 0.000000
54.460300 0.000000
54.511100 0.000000
54.561900 0.000000
54.612600 0.000000
54.663400 0.000000
54.714200 0.000000
54.764900 0.000000
54.815700 0.000000
54.866500 0.000000
54.917300 0.000000
54.968000 0.000000
55.018800 0.000000
55.069600 0.000000
55.120300 0.000000
55.171100 0.000000
55.221900 0.000000
55.272700 0.000000
55.323400 0.000000
55.374200 0.000000
55.425000 0.000000
55.475700 0.000000
55.526500 0.000000
55.577300 0.000000
55.628100 0.000000
55.678800 0.000000
55.729600 0.000000
55.780400 0.000000
55.831100 0.000000
55.881900 0.000000
55.932700 0.000000
55.983500 0.000000
56.034200 0.000000
56.085000 0.000000
56.135800 0.000000
56.186500 0.000000
56.237300 0.000000
56.288100 0.000000
56.338900 0.000000
56.389600 0.000000
56.440400 0.000000
56.491200 0.000000
56.541900 0.000000
56.592700 0.000000
56.643500 0.000000
56.694300 0.000000
56.745000 0.000000
56.795800 0.000000
56.846600 0.000000
56.897300 0.000000
56.948100 0.000000
56.998900 0.000000
57.049700 0.000000
57.100400 0.000000
57.151200 0.000000
57.202000 0.000000
57.252700 0.000000
57.303500 0.000000
57.354300 0.000000
57.405100 0.000000
57.455800 0.000000
57.506600 0.000000
57.557400 0.000000
57.608100 0.000000
57.658900 0.000000
57.709700 0.000000
57.760400 0.000000
57.811200 0.000000
57.862000 0.000000
57.912800 0.000000
57.963500 0.000000
58.014300 0.000000
58.065100 0.000000
58.115800 0.000000
58.166600 0.000000
58.217400 0.000000
58.268200 0.000000
58.318900 0.000000
58.369700 0.000000
58.420500 0.000000
58.471200 0.000000
e
