set title 'mp-1224956 - Density of States'
set xlabel 'Energy (eV)'
set ylabel 'DOS (states/eV)'
set grid
set xrange [-10:10]
set yrange [0:4.213]
set xzeroaxis lt -1
set terminal png size 800,600
set output 'mp-1224956_dos_gnuplot.png'
plot '-' using 1:2 with lines title 'DOS'
-56.329400 0.000000
-56.268500 0.000000
-56.207500 0.000000
-56.146500 0.000000
-56.085600 0.000000
-56.024600 0.000000
-55.963600 0.000000
-55.902700 0.000000
-55.841700 0.000000
-55.780800 0.000000
-55.719800 0.000000
-55.658800 0.000000
-55.597900 0.000000
-55.536900 0.000000
-55.475900 0.000000
-55.415000 0.000000
-55.354000 0.000000
-55.293000 0.000000
-55.232100 0.000000
-55.171100 0.000000
-55.110200 0.000000
-55.049200 0.000000
-54.988200 0.000000
-54.927300 0.000000
-54.866300 0.000000
-54.805300 0.000000
-54.744400 0.000000
-54.683400 0.000000
-54.622400 0.000000
-54.561500 0.000000
-54.500500 0.000000
-54.439500 0.000000
-54.378600 0.000000
-54.317600 0.000000
-54.256700 0.000000
-54.195700 0.000000
-54.134700 0.000000
-54.073800 0.000000
-54.012800 0.000000
-53.951800 0.000000
-53.890900 0.000000
-53.829900 0.000000
-53.768900 0.000000
-53.708000 0.000000
-53.647000 0.000000
-53.586100 0.000000
-53.525100 0.000000
-53.464100 0.000000
-53.403200 0.000000
-53.342200 0.000000
-53.281200 0.000000
-53.220300 0.000000
-53.159300 0.000000
-53.098300 0.000000
-53.037400 0.000000
-52.976400 0.000000
-52.915500 0.000000
-52.854500 0.000000
-52.793500 0.000000
-52.732600 0.000000
-52.671600 0.000000
-52.610600 0.000000
-52.549700 0.000000
-52.488700 0.000000
-52.427700 0.000000
-52.366800 0.000000
-52.305800 0.000000
-52.244900 0.000000
-52.183900 0.000000
-52.122900 0.000000
-52.062000 0.000000
-52.001000 0.000000
-51.940000 0.000000
-51.879100 0.000000
-51.818100 0.000000
-51.757100 0.000000
-51.696200 0.000000
-51.635200 0.000000
-51.574300 0.000000
-51.513300 0.000000
-51.452300 0.000000
-51.391400 0.000000
-51.330400 0.000000
-51.269400 0.000000
-51.208500 0.000000
-51.147500 0.000000
-51.086500 0.000000
-51.025600 0.000000
-50.964600 0.000000
-50.903700 0.000000
-50.842700 0.000000
-50.781700 33.271100
-50.720800 0.000000
-50.659800 0.000000
-50.598800 0.000000
-50.537900 16.183000
-50.476900 13.789600
-50.415900 0.000000
-50.355000 0.000000
-50.294000 0.000000
-50.233100 0.000000
-50.172100 0.000000
-50.111100 0.000000
-50.050200 0.000000
-49.989200 0.000000
-49.928200 0.000000
-49.867300 0.000000
-49.806300 0.000000
-49.745300 0.000000
-49.684400 0.000000
-49.623400 0.000000
-49.562400 0.000000
-49.501500 0.000000
-49.440500 0.000000
-49.379600 0.000000
-49.318600 0.000000
-49.257600 0.000000
-49.196700 0.000000
-49.135700 0.000000
-49.074700 0.000000
-49.013800 0.000000
-48.952800 0.000000
-48.891800 0.000000
-48.830900 0.000000
-48.769900 0.000000
-48.709000 0.000000
-48.648000 0.000000
-48.587000 0.000000
-48.526100 0.000000
-48.465100 0.000000
-48.404100 0.000000
-48.343200 0.000000
-48.282200 0.000000
-48.221200 0.000000
-48.160300 0.000000
-48.099300 0.000000
-48.038400 0.000000
-47.977400 0.000000
-47.916400 0.000000
-47.855500 0.000000
-47.794500 0.000000
-47.733500 0.000000
-47.672600 0.000000
-47.611600 0.000000
-47.550600 0.000000
-47.489700 0.000000
-47.428700 0.000000
-47.367800 0.000000
-47.306800 0.000000
-47.245800 0.000000
-47.184900 0.000000
-47.123900 0.000000
-47.062900 0.000000
-47.002000 0.000000
-46.941000 0.000000
-46.880000 0.000000
-46.819100 0.000000
-46.758100 0.000000
-46.697200 0.000000
-46.636200 0.000000
-46.575200 0.000000
-46.514300 0.000000
-46.453300 0.000000
-46.392300 0.000000
-46.331400 0.000000
-46.270400 0.000000
-46.209400 0.000000
-46.148500 0.000000
-46.087500 0.000000
-46.026600 0.000000
-45.965600 0.000000
-45.904600 0.000000
-45.843700 0.000000
-45.782700 0.000000
-45.721700 0.000000
-45.660800 0.000000
-45.599800 0.000000
-45.538800 0.000000
-45.477900 0.000000
-45.416900 0.000000
-45.356000 0.000000
-45.295000 0.000000
-45.234000 0.000000
-45.173100 0.000000
-45.112100 0.000000
-45.051100 0.000000
-44.990200 0.000000
-44.929200 0.000000
-44.868200 0.000000
-44.807300 0.000000
-44.746300 0.000000
-44.685300 0.000000
-44.624400 0.000000
-44.563400 0.000000
-44.502500 0.000000
-44.441500 0.000000
-44.380500 0.000000
-44.319600 0.000000
-44.258600 0.000000
-44.197600 0.000000
-44.136700 0.000000
-44.075700 0.000000
-44.014700 0.000000
-43.953800 0.000000
-43.892800 0.000000
-43.831900 0.000000
-43.770900 0.000000
-43.709900 0.000000
-43.649000 0.000000
-43.588000 0.000000
-43.527000 0.000000
-43.466100 0.000000
-43.405100 0.000000
-43.344100 0.000000
-43.283200 0.000000
-43.222200 0.000000
-43.161300 0.000000
-43.100300 0.000000
-43.039300 0.000000
-42.978400 0.000000
-42.917400 0.000000
-42.856400 0.000000
-42.795500 0.000000
-42.734500 0.000000
-42.673500 0.000000
-42.612600 0.000000
-42.551600 0.000000
-42.490700 0.000000
-42.429700 0.000000
-42.368700 0.000000
-42.307800 0.000000
-42.246800 0.000000
-42.185800 0.000000
-42.124900 0.000000
-42.063900 0.000000
-42.002900 0.000000
-41.942000 0.000000
-41.881000 0.000000
-41.820100 0.000000
-41.759100 0.000000
-41.698100 0.000000
-41.637200 0.000000
-41.576200 0.000000
-41.515200 0.000000
-41.454300 0.000000
-41.393300 0.000000
-41.332300 0.000000
-41.271400 0.000000
-41.210400 0.000000
-41.149500 0.000000
-41.088500 0.000000
-41.027500 0.000000
-40.966600 0.000000
-40.905600 0.000000
-40.844600 0.000000
-40.783700 0.000000
-40.722700 0.000000
-40.661700 0.000000
-40.600800 0.000000
-40.539800 0.000000
-40.478900 0.000000
-40.417900 0.000000
-40.356900 0.000000
-40.296000 0.000000
-40.235000 0.000000
-40.174000 0.000000
-40.113100 0.000000
-40.052100 0.000000
-39.991100 0.000000
-39.930200 0.000000
-39.869200 0.000000
-39.808300 0.000000
-39.747300 0.000000
-39.686300 0.000000
-39.625400 0.000000
-39.564400 0.000000
-39.503400 0.000000
-39.442500 0.000000
-39.381500 0.000000
-39.320500 0.000000
-39.259600 0.000000
-39.198600 0.000000
-39.137600 0.000000
-39.076700 0.000000
-39.015700 0.000000
-38.954800 0.000000
-38.893800 0.000000
-38.832800 0.000000
-38.771900 0.000000
-38.710900 0.000000
-38.649900 0.000000
-38.589000 0.000000
-38.528000 0.000000
-38.467000 0.000000
-38.406100 0.000000
-38.345100 0.000000
-38.284200 0.000000
-38.223200 0.000000
-38.162200 0.000000
-38.101300 0.000000
-38.040300 0.000000
-37.979300 0.000000
-37.918400 0.000000
-37.857400 0.000000
-37.796400 0.000000
-37.735500 0.000000
-37.674500 0.000000
-37.613600 0.000000
-37.552600 0.000000
-37.491600 0.000000
-37.430700 0.000000
-37.369700 0.000000
-37.308700 0.000000
-37.247800 0.000000
-37.186800 0.000000
-37.125800 0.000000
-37.064900 0.000000
-37.003900 0.000000
-36.943000 0.000000
-36.882000 0.000000
-36.821000 0.000000
-36.760100 0.000000
-36.699100 0.000000
-36.638100 0.000000
-36.577200 0.000000
-36.516200 0.000000
-36.455200 0.000000
-36.394300 0.000000
-36.333300 0.000000
-36.272400 0.000000
-36.211400 0.000000
-36.150400 0.000000
-36.089500 0.000000
-36.028500 0.000000
-35.967500 0.000000
-35.906600 0.000000
-35.845600 0.000000
-35.784600 0.000000
-35.723700 0.000000
-35.662700 0.000000
-35.601800 0.000000
-35.540800 0.000000
-35.479800 0.000000
-35.418900 0.000000
-35.357900 0.000000
-35.296900 0.000000
-35.236000 0.000000
-35.175000 0.000000
-35.114000 0.000000
-35.053100 0.000000
-34.992100 0.000000
-34.931200 0.000000
-34.870200 0.000000
-34.809200 0.000000
-34.748300 0.000000
-34.687300 0.000000
-34.626300 0.000000
-34.565400 0.000000
-34.504400 0.000000
-34.443400 0.000000
-34.382500 0.000000
-34.321500 0.000000
-34.260500 0.000000
-34.199600 0.000000
-34.138600 0.000000
-34.077700 0.000000
-34.016700 0.000000
-33.955700 0.000000
-33.894800 0.000000
-33.833800 0.000000
-33.772800 0.000000
-33.711900 0.000000
-33.650900 0.000000
-33.589900 0.000000
-33.529000 0.000000
-33.468000 0.000000
-33.407100 0.000000
-33.346100 0.000000
-33.285100 0.000000
-33.224200 0.000000
-33.163200 0.000000
-33.102200 0.000000
-33.041300 0.000000
-32.980300 0.000000
-32.919300 0.000000
-32.858400 0.000000
-32.797400 0.000000
-32.736500 0.000000
-32.675500 0.000000
-32.614500 0.000000
-32.553600 0.000000
-32.492600 0.000000
-32.431600 0.000000
-32.370700 0.000000
-32.309700 0.000000
-32.248700 0.000000
-32.187800 0.000000
-32.126800 0.000000
-32.065900 0.000000
-32.004900 0.000000
-31.943900 0.000000
-31.883000 0.000000
-31.822000 0.000000
-31.761000 0.000000
-31.700100 0.000000
-31.639100 0.000000
-31.578100 0.000000
-31.517200 0.000000
-31.456200 0.000000
-31.395300 0.000000
-31.334300 0.000000
-31.273300 0.000000
-31.212400 0.000000
-31.151400 0.000000
-31.090400 0.000000
-31.029500 0.000000
-30.968500 0.000000
-30.907500 0.000000
-30.846600 0.000000
-30.785600 0.000000
-30.724700 0.000000
-30.663700 0.000000
-30.602700 0.000000
-30.541800 0.000000
-30.480800 0.000000
-30.419800 0.000000
-30.358900 0.000000
-30.297900 0.000000
-30.236900 0.000000
-30.176000 0.000000
-30.115000 0.000000
-30.054100 0.000000
-29.993100 0.000000
-29.932100 0.000000
-29.871200 0.000000
-29.810200 0.000000
-29.749200 0.000000
-29.688300 0.000000
-29.627300 0.000000
-29.566300 0.000000
-29.505400 0.000000
-29.444400 0.000000
-29.383500 0.000000
-29.322500 0.000000
-29.261500 0.000000
-29.200600 0.000000
-29.139600 0.000000
-29.078600 0.000000
-29.017700 0.000000
-28.956700 0.000000
-28.895700 0.000000
-28.834800 0.000000
-28.773800 0.000000
-28.712800 0.000000
-28.651900 0.000000
-28.590900 0.000000
-28.530000 0.000000
-28.469000 0.000000
-28.408000 0.000000
-28.347100 0.000000
-28.286100 0.000000
-28.225100 0.000000
-28.164200 0.000000
-28.103200 0.000000
-28.042200 0.000000
-27.981300 0.000000
-27.920300 0.000000
-27.859400 0.000000
-27.798400 0.000000
-27.737400 0.000000
-27.676500 0.000000
-27.615500 0.000000
-27.554500 0.000000
-27.493600 0.000000
-27.432600 0.000000
-27.371600 0.000000
-27.310700 0.000000
-27.249700 0.000000
-27.188800 0.000000
-27.127800 0.000000
-27.066800 0.000000
-27.005900 0.000000
-26.944900 0.000000
-26.883900 0.000000
-26.823000 0.000000
-26.762000 0.000000
-26.701000 0.000000
-26.640100 0.000000
-26.579100 0.000000
-26.518200 0.000000
-26.457200 0.000000
-26.396200 0.000000
-26.335300 0.000000
-26.274300 0.000000
-26.213300 0.000000
-26.152400 0.000000
-26.091400 0.000000
-26.030400 0.000000
-25.969500 0.000000
-25.908500 0.000000
-25.847600 0.000000
-25.786600 0.000000
-25.725600 0.000000
-25.664700 0.000000
-25.603700 0.000000
-25.542700 0.000000
-25.481800 0.000000
-25.420800 0.000000
-25.359800 0.000000
-25.298900 0.000000
-25.237900 0.000000
-25.177000 0.000000
-25.116000 0.000000
-25.055000 0.000000
-24.994100 0.000000
-24.933100 0.000000
-24.872100 0.000000
-24.811200 0.000000
-24.750200 0.000000
-24.689200 0.000000
-24.628300 0.000000
-24.567300 0.000000
-24.506400 0.000000
-24.445400 0.000000
-24.384400 0.000000
-24.323500 0.000000
-24.262500 0.000000
-24.201500 0.000000
-24.140600 0.000000
-24.079600 0.000000
-24.018600 0.000000
-23.957700 0.000000
-23.896700 0.000000
-23.835700 0.000000
-23.774800 0.000000
-23.713800 0.000000
-23.652900 0.000000
-23.591900 0.000000
-23.530900 0.000000
-23.470000 0.000000
-23.409000 0.000000
-23.348000 0.000000
-23.287100 0.000000
-23.226100 0.000000
-23.165100 0.000000
-23.104200 0.000000
-23.043200 0.000000
-22.982300 0.000000
-22.921300 0.000000
-22.860300 0.000000
-22.799400 0.000000
-22.738400 0.000000
-22.677400 0.000000
-22.616500 0.000000
-22.555500 0.000000
-22.494500 0.000000
-22.433600 0.000000
-22.372600 0.000000
-22.311700 0.000000
-22.250700 0.000000
-22.189700 0.000000
-22.128800 0.000000
-22.067800 0.000000
-22.006800 0.000000
-21.945900 0.000000
-21.884900 0.000000
-21.823900 0.000000
-21.763000 0.000000
-21.702000 0.000000
-21.641100 0.000000
-21.580100 0.000000
-21.519100 0.000000
-21.458200 0.000000
-21.397200 0.000000
-21.336200 0.000000
-21.275300 0.000000
-21.214300 0.000000
-21.153300 0.000000
-21.092400 0.000000
-21.031400 0.000000
-20.970500 0.000000
-20.909500 0.000000
-20.848500 0.000000
-20.787600 0.000000
-20.726600 0.000000
-20.665600 0.000000
-20.604700 0.000000
-20.543700 0.000000
-20.482700 0.000000
-20.421800 0.000000
-20.360800 0.000000
-20.299900 0.000000
-20.238900 0.000000
-20.177900 0.000000
-20.117000 0.000000
-20.056000 0.000000
-19.995000 0.000000
-19.934100 0.000000
-19.873100 0.000000
-19.812100 0.000000
-19.751200 0.000000
-19.690200 0.000000
-19.629300 0.000000
-19.568300 0.000000
-19.507300 0.000000
-19.446400 0.000000
-19.385400 0.000000
-19.324400 0.000000
-19.263500 0.000000
-19.202500 0.000000
-19.141500 0.000000
-19.080600 0.000000
-19.019600 0.000000
-18.958700 0.000000
-18.897700 0.000000
-18.836700 0.000000
-18.775800 0.000000
-18.714800 0.000000
-18.653800 0.000000
-18.592900 0.000000
-18.531900 0.000000
-18.470900 0.000000
-18.410000 0.000000
-18.349000 0.000000
-18.288000 0.000000
-18.227100 0.000000
-18.166100 0.000000
-18.105200 0.000000
-18.044200 0.000000
-17.983200 0.000000
-17.922300 0.000000
-17.861300 0.000000
-17.800300 0.000000
-17.739400 0.000000
-17.678400 0.000000
-17.617400 0.000000
-17.556500 0.000000
-17.495500 0.000000
-17.434600 0.000000
-17.373600 0.000000
-17.312600 0.000000
-17.251700 0.000000
-17.190700 0.000000
-17.129700 0.000000
-17.068800 0.000000
-17.007800 0.000000
-16.946800 0.000000
-16.885900 0.000000
-16.824900 0.000000
-16.764000 0.000000
-16.703000 0.000000
-16.642000 0.000000
-16.581100 0.000000
-16.520100 0.000000
-16.459100 0.000000
-16.398200 0.000000
-16.337200 0.000000
-16.276200 0.000000
-16.215300 0.000000
-16.154300 0.000000
-16.093400 0.000000
-16.032400 0.000000
-15.971400 0.000000
-15.910500 0.000000
-15.849500 0.000000
-15.788500 0.000000
-15.727600 0.000000
-15.666600 0.000000
-15.605600 0.000000
-15.544700 0.000000
-15.483700 0.000000
-15.422800 0.000000
-15.361800 0.000000
-15.300800 0.000000
-15.239900 0.000000
-15.178900 0.000000
-15.117900 0.000000
-15.057000 0.000000
-14.996000 0.000000
-14.935000 0.000000
-14.874100 0.000000
-14.813100 0.000000
-14.752200 0.000000
-14.691200 0.000000
-14.630200 0.000000
-14.569300 0.000000
-14.508300 0.000000
-14.447300 0.000000
-14.386400 0.000000
-14.325400 0.000000
-14.264400 0.000000
-14.203500 0.000000
-14.142500 0.000000
-14.081600 0.000000
-14.020600 0.000000
-13.959600 0.000000
-13.898700 0.000000
-13.837700 0.000000
-13.776700 0.000000
-13.715800 0.000000
-13.654800 0.000000
-13.593800 0.000000
-13.532900 0.000000
-13.471900 0.000000
-13.410900 0.000000
-13.350000 0.000000
-13.289000 0.000000
-13.228100 0.000000
-13.167100 0.000000
-13.106100 0.000000
-13.045200 0.000000
-12.984200 0.000000
-12.923200 0.000000
-12.862300 0.000000
-12.801300 0.000000
-12.740300 0.000000
-12.679400 0.000000
-12.618400 0.000000
-12.557500 0.000000
-12.496500 0.000000
-12.435500 0.000000
-12.374600 0.000000
-12.313600 0.000000
-12.252600 0.000000
-12.191700 0.000000
-12.130700 0.000000
-12.069700 0.000000
-12.008800 0.000000
-11.947800 0.000000
-11.886900 0.000000
-11.825900 0.000000
-11.764900 0.000000
-11.704000 0.000000
-11.643000 0.000000
-11.582000 0.000000
-11.521100 0.000000
-11.460100 0.000000
-11.399100 0.000000
-11.338200 0.000000
-11.277200 0.000000
-11.216300 0.000000
-11.155300 0.000000
-11.094300 0.000000
-11.033400 0.000000
-10.972400 0.000000
-10.911400 0.000000
-10.850500 0.000000
-10.789500 0.000000
-10.728500 0.000000
-10.667600 0.000000
-10.606600 0.000000
-10.545700 0.000000
-10.484700 0.000000
-10.423700 0.000000
-10.362800 0.000000
-10.301800 0.000000
-10.240800 0.000000
-10.179900 0.000000
-10.118900 0.000000
-10.057900 0.000000
-9.997000 0.000000
-9.936000 0.000000
-9.875100 0.000000
-9.814100 0.000000
-9.753100 0.000000
-9.692200 0.000000
-9.631200 0.000000
-9.570200 0.000000
-9.509300 0.000000
-9.448300 0.000000
-9.387300 0.000000
-9.326400 0.000000
-9.265400 0.000000
-9.204500 0.000000
-9.143500 0.000000
-9.082500 0.000000
-9.021600 0.000000
-8.960600 0.000000
-8.899600 0.000000
-8.838700 0.000000
-8.777700 0.000000
-8.716700 0.000000
-8.655800 0.000000
-8.594800 0.000000
-8.533900 0.000000
-8.472900 0.000000
-8.411900 0.000000
-8.351000 0.000000
-8.290000 0.000000
-8.229000 0.000000
-8.168100 0.000000
-8.107100 0.000000
-8.046100 0.000000
-7.985200 0.000000
-7.924200 0.000000
-7.863200 0.000000
-7.802300 0.000000
-7.741300 0.000000
-7.680400 0.000000
-7.619400 0.000000
-7.558400 0.000000
-7.497500 0.000000
-7.436500 0.000000
-7.375500 0.000000
-7.314600 0.000000
-7.253600 0.000000
-7.192600 0.000000
-7.131700 0.000000
-7.070700 0.000000
-7.009800 0.000000
-6.948800 0.000000
-6.887800 0.000000
-6.826900 0.000000
-6.765900 0.000000
-6.704900 0.000000
-6.644000 0.000000
-6.583000 0.000000
-6.522000 0.000000
-6.461100 0.000000
-6.400100 0.000000
-6.339200 0.000000
-6.278200 0.000000
-6.217200 0.000000
-6.156300 0.000000
-6.095300 0.000000
-6.034300 0.000000
-5.973400 0.000000
-5.912400 0.000000
-5.851400 0.000000
-5.790500 0.000000
-5.729500 0.000000
-5.668600 0.000000
-5.607600 0.000000
-5.546600 0.000000
-5.485700 0.000000
-5.424700 0.000000
-5.363700 0.000000
-5.302800 0.000000
-5.241800 0.000000
-5.180800 0.000000
-5.119900 0.000000
-5.058900 0.000000
-4.998000 0.000000
-4.937000 0.000000
-4.876000 0.000000
-4.815100 0.000000
-4.754100 0.000000
-4.693100 0.000000
-4.632200 0.000000
-4.571200 0.000000
-4.510200 0.000000
-4.449300 0.000000
-4.388300 0.000000
-4.327400 0.000000
-4.266400 0.000000
-4.205400 0.000000
-4.144500 0.000000
-4.083500 0.000000
-4.022500 0.000900
-3.961600 0.014400
-3.900600 0.034700
-3.839600 0.035200
-3.778700 0.041700
-3.717700 0.048500
-3.656800 0.055300
-3.595800 0.061700
-3.534800 0.066500
-3.473900 0.070800
-3.412900 0.076200
-3.351900 0.081900
-3.291000 0.088300
-3.230000 0.095100
-3.169000 0.102200
-3.108100 0.109800
-3.047100 0.119700
-2.986100 0.133500
-2.925200 0.146600
-2.864200 0.145700
-2.803300 0.153000
-2.742300 0.160800
-2.681300 0.289900
-2.620400 0.561500
-2.559400 0.821100
-2.498400 0.933800
-2.437500 1.032600
-2.376500 1.131200
-2.315500 1.164400
-2.254600 1.321400
-2.193600 1.501200
-2.132700 1.613100
-2.071700 1.706800
-2.010700 1.981900
-1.949800 2.208000
-1.888800 2.414300
-1.827800 2.844800
-1.766900 2.718800
-1.705900 2.481500
-1.644900 1.855200
-1.584000 1.177900
-1.523000 0.409500
-1.462100 0.364100
-1.401100 0.333700
-1.340100 0.525000
-1.279200 1.048400
-1.218200 1.859800
-1.157200 3.309500
-1.096300 2.898200
-1.035300 2.860100
-0.974300 2.212300
-0.913400 2.095600
-0.852400 2.117800
-0.791500 2.554600
-0.730500 2.535800
-0.669500 2.442400
-0.608600 1.598500
-0.547600 1.495400
-0.486600 1.450400
-0.425700 1.610600
-0.364700 2.480700
-0.303700 2.240400
-0.242800 2.030000
-0.181800 2.013600
-0.120900 1.933000
-0.059900 1.251700
0.001100 0.736700
0.062000 2.383000
0.123000 2.160000
0.184000 1.529500
0.244900 1.130700
0.305900 0.850000
0.366900 0.832100
0.427800 0.862000
0.488800 1.166700
0.549700 1.529600
0.610700 1.621300
0.671700 1.753200
0.732600 1.477100
0.793600 1.684500
0.854600 2.234600
0.915500 2.320800
0.976500 2.280600
1.037500 1.877000
1.098400 1.896400
1.159400 1.983100
1.220300 2.053800
1.281300 2.085500
1.342300 2.669200
1.403200 3.157600
1.464200 1.924300
1.525200 2.239100
1.586100 2.656300
1.647100 3.085300
1.708100 3.777600
1.769000 2.453800
1.830000 2.084800
1.891000 3.367800
1.951900 2.825300
2.012900 2.519400
2.073800 3.129600
2.134800 3.830100
2.195800 3.609400
2.256700 3.637200
2.317700 2.176300
2.378700 1.709200
2.439600 1.510400
2.500600 1.158800
2.561600 1.012400
2.622500 0.873000
2.683500 0.843500
2.744400 0.842700
2.805400 0.919600
2.866400 0.786900
2.927300 0.486000
2.988300 0.366600
3.049300 0.348300
3.110200 0.340300
3.171200 0.336100
3.232200 0.334500
3.293100 0.334500
3.354100 0.334700
3.415000 0.333800
3.476000 0.334700
3.537000 0.334100
3.597900 0.328800
3.658900 0.316600
3.719900 0.310500
3.780800 0.306400
3.841800 0.303300
3.902800 0.301000
3.963700 0.298800
4.024700 0.297700
4.085600 0.297300
4.146600 0.295500
4.207600 0.294500
4.268500 0.294600
4.329500 0.295700
4.390500 0.298800
4.451400 0.308700
4.512400 0.307900
4.573400 0.306600
4.634300 0.305300
4.695300 0.299800
4.756200 0.293900
4.817200 0.283200
4.878200 0.276800
4.939100 0.274000
5.000100 0.273300
5.061100 0.277700
5.122000 0.281500
5.183000 0.278000
5.244000 0.266600
5.304900 0.255900
5.365900 0.251200
5.426800 0.249300
5.487800 0.251400
5.548800 0.254600
5.609700 0.260100
5.670700 0.267200
5.731700 0.273200
5.792600 0.278900
5.853600 0.275300
5.914600 0.270100
5.975500 0.263800
6.036500 0.262500
6.097400 0.263600
6.158400 0.266600
6.219400 0.271500
6.280300 0.277800
6.341300 0.258300
6.402300 0.241800
6.463200 0.236500
6.524200 0.234100
6.585200 0.238000
6.646100 0.244900
6.707100 0.241500
6.768000 0.232900
6.829000 0.223100
6.890000 0.217200
6.950900 0.212700
7.011900 0.208600
7.072900 0.205300
7.133800 0.201900
7.194800 0.197500
7.255800 0.192300
7.316700 0.187500
7.377700 0.183400
7.438700 0.179100
7.499600 0.173500
7.560600 0.171100
7.621500 0.168000
7.682500 0.168900
7.743500 0.197800
7.804400 0.197200
7.865400 0.218900
7.926400 0.242100
7.987300 0.226400
8.048300 0.212800
8.109300 0.205900
8.170200 0.200200
8.231200 0.196200
8.292100 0.209800
8.353100 0.236500
8.414100 0.262300
8.475000 0.295900
8.536000 0.317700
8.597000 0.301600
8.657900 0.288100
8.718900 0.290000
8.779900 0.300500
8.840800 0.319900
8.901800 0.312700
8.962700 0.313000
9.023700 0.321700
9.084700 0.324100
9.145600 0.314600
9.206600 0.309100
9.267600 0.306100
9.328500 0.304700
9.389500 0.304400
9.450500 0.301900
9.511400 0.296000
9.572400 0.292300
9.633300 0.299900
9.694300 0.310200
9.755300 0.333200
9.816200 0.340900
9.877200 0.332600
9.938200 0.326200
9.999100 0.324500
10.060100 0.326900
10.121100 0.342900
10.182000 0.336300
10.243000 0.318800
10.303900 0.306900
10.364900 0.297100
10.425900 0.288600
10.486800 0.277500
10.547800 0.265200
10.608800 0.253000
10.669700 0.241100
10.730700 0.229300
10.791700 0.218800
10.852600 0.212300
10.913600 0.207600
10.974500 0.204800
11.035500 0.204800
11.096500 0.205600
11.157400 0.206700
11.218400 0.210800
11.279400 0.219800
11.340300 0.258200
11.401300 0.324300
11.462300 0.408800
11.523200 0.414900
11.584200 0.404200
11.645100 0.395300
11.706100 0.412500
11.767100 0.412000
11.828000 0.407400
11.889000 0.413900
11.950000 0.413900
12.010900 0.419200
12.071900 0.457600
12.132900 0.435000
12.193800 0.419200
12.254800 0.417900
12.315800 0.416700
12.376700 0.420700
12.437700 0.434600
12.498600 0.434800
12.559600 0.430100
12.620600 0.427400
12.681500 0.424400
12.742500 0.418700
12.803500 0.409800
12.864400 0.404600
12.925400 0.408000
12.986400 0.422300
13.047300 0.430000
13.108300 0.433000
13.169200 0.430300
13.230200 0.430600
13.291200 0.431100
13.352100 0.432500
13.413100 0.433300
13.474100 0.431300
13.535000 0.430300
13.596000 0.426700
13.657000 0.424900
13.717900 0.426000
13.778900 0.431700
13.839800 0.440600
13.900800 0.447400
13.961800 0.448000
14.022700 0.453800
14.083700 0.459400
14.144700 0.461700
14.205600 0.464700
14.266600 0.466900
14.327600 0.466500
14.388500 0.468100
14.449500 0.472200
14.510400 0.474900
14.571400 0.474700
14.632400 0.480300
14.693300 0.474400
14.754300 0.475000
14.815300 0.475300
14.876200 0.475600
14.937200 0.473900
14.998200 0.470300
15.059100 0.467700
15.120100 0.473500
15.181000 0.481700
15.242000 0.477600
15.303000 0.476600
15.363900 0.490000
15.424900 0.484100
15.485900 0.481300
15.546800 0.488500
15.607800 0.549400
15.668800 0.504300
15.729700 0.502000
15.790700 0.504300
15.851600 0.507300
15.912600 0.509600
15.973600 0.515800
16.034500 0.523700
16.095500 0.514800
16.156500 0.515600
16.217400 0.514100
16.278400 0.511100
16.339400 0.515600
16.400300 0.531000
16.461300 0.509900
16.522200 0.484600
16.583200 0.476300
16.644200 0.485500
16.705100 0.487400
16.766100 0.473800
16.827100 0.468600
16.888000 0.455900
16.949000 0.457000
17.010000 0.465900
17.070900 0.461000
17.131900 0.457100
17.192800 0.455100
17.253800 0.454600
17.314800 0.453500
17.375700 0.457200
17.436700 0.459700
17.497700 0.464300
17.558600 0.466800
17.619600 0.469500
17.680600 0.480000
17.741500 0.476300
17.802500 0.483900
17.863500 0.483600
17.924400 0.478200
17.985400 0.472200
18.046300 0.463400
18.107300 0.459900
18.168300 0.455200
18.229200 0.453700
18.290200 0.453400
18.351200 0.452400
18.412100 0.457500
18.473100 0.453400
18.534100 0.448900
18.595000 0.444300
18.656000 0.439700
18.716900 0.435800
18.777900 0.432200
18.838900 0.429100
18.899800 0.425300
18.960800 0.422700
19.021800 0.423000
19.082700 0.422400
19.143700 0.421100
19.204700 0.419400
19.265600 0.414600
19.326600 0.413000
19.387500 0.412600
19.448500 0.411800
19.509500 0.410800
19.570400 0.409900
19.631400 0.410400
19.692400 0.406300
19.753300 0.403400
19.814300 0.400800
19.875300 0.399700
19.936200 0.397800
19.997200 0.395400
20.058100 0.392600
20.119100 0.389700
20.180100 0.387200
20.241000 0.385800
20.302000 0.385200
20.363000 0.400600
20.423900 0.393000
20.484900 0.389600
20.545900 0.390400
20.606800 0.394300
20.667800 0.395400
20.728700 0.394900
20.789700 0.397300
20.850700 0.409900
20.911600 0.427200
20.972600 0.455900
21.033600 0.443600
21.094500 0.467700
21.155500 0.487400
21.216500 0.483300
21.277400 0.461900
21.338400 0.473100
21.399300 0.552900
21.460300 0.587400
21.521300 0.606600
21.582200 0.605300
21.643200 0.599300
21.704200 0.611700
21.765100 0.624300
21.826100 0.633300
21.887100 0.642900
21.948000 0.645800
22.009000 0.648800
22.069900 0.644300
22.130900 0.637200
22.191900 0.638200
22.252800 0.646200
22.313800 0.634700
22.374800 0.634200
22.435700 0.642200
22.496700 0.632400
22.557700 0.620900
22.618600 0.617400
22.679600 0.625000
22.740600 0.626600
22.801500 0.641700
22.862500 0.666700
22.923400 0.688100
22.984400 0.699300
23.045400 0.699300
23.106300 0.700300
23.167300 0.704600
23.228300 0.707900
23.289200 0.714500
23.350200 0.734200
23.411200 0.725400
23.472100 0.733200
23.533100 0.731900
23.594000 0.722800
23.655000 0.745700
23.716000 0.690000
23.776900 0.667800
23.837900 0.666000
23.898900 0.665600
23.959800 0.661300
24.020800 0.654600
24.081800 0.650700
24.142700 0.652000
24.203700 0.643500
24.264600 0.625000
24.325600 0.612600
24.386600 0.593800
24.447500 0.581400
24.508500 0.565500
24.569500 0.538900
24.630400 0.520800
24.691400 0.511500
24.752400 0.504900
24.813300 0.497900
24.874300 0.489300
24.935200 0.476300
24.996200 0.464300
25.057200 0.458900
25.118100 0.464100
25.179100 0.473400
25.240100 0.469300
25.301000 0.457400
25.362000 0.448100
25.423000 0.448200
25.483900 0.432600
25.544900 0.428900
25.605800 0.441300
25.666800 0.470800
25.727800 0.443600
25.788700 0.428100
25.849700 0.426000
25.910700 0.435900
25.971600 0.440800
26.032600 0.443200
26.093600 0.441100
26.154500 0.436500
26.215500 0.427700
26.276400 0.422800
26.337400 0.390000
26.398400 0.361600
26.459300 0.334500
26.520300 0.310500
26.581300 0.295000
26.642200 0.276900
26.703200 0.265300
26.764200 0.261000
26.825100 0.259500
26.886100 0.256700
26.947000 0.256500
27.008000 0.262000
27.069000 0.274300
27.129900 0.294000
27.190900 0.344400
27.251900 0.380000
27.312800 0.417900
27.373800 0.462100
27.434800 0.492000
27.495700 0.492100
27.556700 0.515300
27.617600 0.565300
27.678600 0.610700
27.739600 0.643700
27.800500 0.679200
27.861500 0.727900
27.922500 0.727600
27.983400 0.726600
28.044400 0.732500
28.105400 0.740800
28.166300 0.752000
28.227300 0.746000
28.288300 0.754500
28.349200 0.760000
28.410200 0.777400
28.471100 0.774400
28.532100 0.755300
28.593100 0.733600
28.654000 0.729900
28.715000 0.713900
28.776000 0.700000
28.836900 0.678500
28.897900 0.654600
28.958900 0.654000
29.019800 0.652100
29.080800 0.634900
29.141700 0.618100
29.202700 0.604600
29.263700 0.605600
29.324600 0.596600
29.385600 0.587400
29.446600 0.588700
29.507500 0.569500
29.568500 0.539200
29.629500 0.516600
29.690400 0.503800
29.751400 0.494800
29.812300 0.496900
29.873300 0.493200
29.934300 0.485400
29.995200 0.480400
30.056200 0.486400
30.117200 0.499600
30.178100 0.524700
30.239100 0.549500
30.300100 0.549700
30.361000 0.532600
30.422000 0.520500
30.482900 0.511200
30.543900 0.508500
30.604900 0.508200
30.665800 0.510500
30.726800 0.511200
30.787800 0.526500
30.848700 0.555600
30.909700 0.602500
30.970700 0.660800
31.031600 0.648300
31.092600 0.717400
31.153500 0.746700
31.214500 0.728400
31.275500 0.711000
31.336400 0.696800
31.397400 0.699100
31.458400 0.707100
31.519300 0.707500
31.580300 0.709400
31.641300 0.717400
31.702200 0.747500
31.763200 0.731700
31.824100 0.714400
31.885100 0.710400
31.946100 0.760400
32.007000 0.791000
32.068000 0.793800
32.129000 0.759800
32.189900 0.702900
32.250900 0.666300
32.311900 0.646300
32.372800 0.656600
32.433800 0.635500
32.494700 0.623400
32.555700 0.613800
32.616700 0.607000
32.677600 0.606800
32.738600 0.611600
32.799600 0.622600
32.860500 0.637200
32.921500 0.662900
32.982500 0.644000
33.043400 0.638800
33.104400 0.629300
33.165400 0.618700
33.226300 0.614900
33.287300 0.620400
33.348200 0.615200
33.409200 0.613100
33.470200 0.621200
33.531100 0.610100
33.592100 0.623500
33.653100 0.616400
33.714000 0.614400
33.775000 0.603000
33.836000 0.590100
33.896900 0.580900
33.957900 0.587500
34.018800 0.581700
34.079800 0.579700
34.140800 0.563000
34.201700 0.566300
34.262700 0.568000
34.323700 0.578800
34.384600 0.587500
34.445600 0.591000
34.506600 0.616300
34.567500 0.637800
34.628500 0.665000
34.689400 0.678300
34.750400 0.685100
34.811400 0.687800
34.872300 0.683700
34.933300 0.684100
34.994300 0.686000
35.055200 0.687500
35.116200 0.666500
35.177200 0.652700
35.238100 0.653400
35.299100 0.649900
35.360000 0.635400
35.421000 0.631900
35.482000 0.638200
35.542900 0.640700
35.603900 0.640700
35.664900 0.655200
35.725800 0.666700
35.786800 0.675100
35.847800 0.673800
35.908700 0.689900
35.969700 0.682400
36.030600 0.677400
36.091600 0.683600
36.152600 0.691900
36.213500 0.672100
36.274500 0.667000
36.335500 0.668800
36.396400 0.662900
36.457400 0.658500
36.518400 0.677000
36.579300 0.672300
36.640300 0.665600
36.701200 0.673700
36.762200 0.684000
36.823200 0.695200
36.884100 0.699400
36.945100 0.697300
37.006100 0.697600
37.067000 0.692100
37.128000 0.688700
37.189000 0.676700
37.249900 0.666600
37.310900 0.653800
37.371800 0.654700
37.432800 0.667200
37.493800 0.687700
37.554700 0.708200
37.615700 0.712800
37.676700 0.699500
37.737600 0.703000
37.798600 0.703500
37.859600 0.697300
37.920500 0.706800
37.981500 0.715300
38.042500 0.709000
38.103400 0.717800
38.164400 0.728200
38.225300 0.740500
38.286300 0.772800
38.347300 0.771000
38.408200 0.777800
38.469200 0.779500
38.530200 0.775500
38.591100 0.767400
38.652100 0.756800
38.713100 0.707000
38.774000 0.701300
38.835000 0.701300
38.895900 0.704000
38.956900 0.699900
39.017900 0.715100
39.078800 0.708500
39.139800 0.722500
39.200800 0.735200
39.261700 0.732900
39.322700 0.745500
39.383700 0.740100
39.444600 0.751600
39.505600 0.737000
39.566500 0.722900
39.627500 0.700000
39.688500 0.686900
39.749400 0.687300
39.810400 0.696000
39.871400 0.694000
39.932300 0.700600
39.993300 0.707400
40.054300 0.716500
40.115200 0.715200
40.176200 0.711500
40.237100 0.707600
40.298100 0.711200
40.359100 0.760100
40.420000 0.740000
40.481000 0.749400
40.542000 0.759200
40.602900 0.767000
40.663900 0.774600
40.724900 0.781500
40.785800 0.783700
40.846800 0.801900
40.907700 0.805300
40.968700 0.799500
41.029700 0.793900
41.090600 0.800500
41.151600 0.798700
41.212600 0.785800
41.273500 0.785100
41.334500 0.797600
41.395500 0.795300
41.456400 0.806000
41.517400 0.816400
41.578300 0.834600
41.639300 0.856800
41.700300 0.859200
41.761200 0.868600
41.822200 0.863600
41.883200 0.860100
41.944100 0.853300
42.005100 0.843100
42.066100 0.825200
42.127000 0.810900
42.188000 0.793700
42.248900 0.779900
42.309900 0.771500
42.370900 0.770400
42.431800 0.777400
42.492800 0.792600
42.553800 0.815800
42.614700 0.861500
42.675700 0.890600
42.736700 0.896100
42.797600 0.893300
42.858600 0.898800
42.919500 0.894500
42.980500 0.871700
43.041500 0.831300
43.102400 0.809800
43.163400 0.780000
43.224400 0.770800
43.285300 0.758800
43.346300 0.762200
43.407300 0.735000
43.468200 0.719600
43.529200 0.706800
43.590200 0.704200
43.651100 0.706700
43.712100 0.705800
43.773000 0.711700
43.834000 0.725000
43.895000 0.719800
43.955900 0.721100
44.016900 0.713800
44.077900 0.708700
44.138800 0.703300
44.199800 0.683500
44.260800 0.654500
44.321700 0.642900
44.382700 0.634600
44.443600 0.625400
44.504600 0.625800
44.565600 0.629300
44.626500 0.634000
44.687500 0.640500
44.748500 0.649600
44.809400 0.677600
44.870400 0.725600
44.931400 0.749000
44.992300 0.766000
45.053300 0.769700
45.114200 0.762500
45.175200 0.762200
45.236200 0.810800
45.297100 0.825400
45.358100 0.855500
45.419100 0.868300
45.480000 0.861200
45.541000 0.861700
45.602000 0.880900
45.662900 0.888400
45.723900 0.957900
45.784800 0.938800
45.845800 0.911000
45.906800 0.866200
45.967700 0.834800
46.028700 0.795400
46.089700 0.755600
46.150600 0.723900
46.211600 0.693400
46.272600 0.671700
46.333500 0.652400
46.394500 0.637900
46.455400 0.635200
46.516400 0.643200
46.577400 0.645300
46.638300 0.638400
46.699300 0.619500
46.760300 0.603200
46.821200 0.591900
46.882200 0.595500
46.943200 0.613300
47.004100 0.646900
47.065100 0.686700
47.126000 0.725100
47.187000 0.759700
47.248000 0.797400
47.308900 0.753600
47.369900 0.753100
47.430900 0.794300
47.491800 0.810600
47.552800 0.797000
47.613800 0.793000
47.674700 0.800100
47.735700 0.783800
47.796600 0.755100
47.857600 0.714500
47.918600 0.700200
47.979500 0.692000
48.040500 0.677900
48.101500 0.668300
48.162400 0.636200
48.223400 0.602400
48.284400 0.608400
48.345300 0.614900
48.406300 0.650300
48.467300 0.688300
48.528200 0.739300
48.589200 0.778100
48.650100 0.824100
48.711100 0.865500
48.772100 0.893700
48.833000 0.909100
48.894000 0.923900
48.955000 0.931500
49.015900 0.925000
49.076900 0.918600
49.137900 0.903900
49.198800 0.904900
49.259800 0.877200
49.320700 0.887200
49.381700 0.901400
49.442700 0.940600
49.503600 0.973000
49.564600 1.014000
49.625600 1.005600
49.686500 0.992200
49.747500 1.013000
49.808500 1.052300
49.869400 1.103800
49.930400 1.188700
49.991300 1.259200
50.052300 1.357600
50.113300 1.531200
50.174200 1.868600
50.235200 2.098700
50.296200 2.498500
50.357100 2.430600
50.418100 2.297200
50.479100 1.979300
50.540000 1.715500
50.601000 1.373900
50.661900 1.195500
50.722900 1.090600
50.783900 1.038000
50.844800 1.008600
50.905800 0.971700
50.966800 0.950200
51.027700 0.960200
51.088700 0.908600
51.149700 0.916900
51.210600 0.964300
51.271600 1.089500
51.332500 1.105800
51.393500 1.072400
51.454500 1.009400
51.515400 0.931600
51.576400 0.901600
51.637400 0.892100
51.698300 0.906300
51.759300 0.915900
51.820300 0.951300
51.881200 1.031800
51.942200 1.042500
52.003100 1.061900
52.064100 1.035700
52.125100 1.002300
52.186000 0.962000
52.247000 0.955000
52.308000 0.983100
52.368900 0.971900
52.429900 0.978600
52.490900 0.960700
52.551800 0.963300
52.612800 0.942900
52.673700 0.962200
52.734700 0.944800
52.795700 0.929200
52.856600 0.936000
52.917600 0.935500
52.978600 0.935700
53.039500 0.899100
53.100500 0.856800
53.161500 0.876400
53.222400 0.876600
53.283400 0.887100
53.344300 0.887400
53.405300 0.901600
53.466300 0.923200
53.527200 0.958100
53.588200 0.974600
53.649200 0.987700
53.710100 0.970700
53.771100 0.967800
53.832100 0.997500
53.893000 0.992800
53.954000 0.980000
54.015000 0.943400
54.075900 0.913800
54.136900 0.885900
54.197800 0.900000
54.258800 0.923700
54.319800 0.980300
54.380700 1.026600
54.441700 1.064500
54.502700 1.146200
54.563600 1.142300
54.624600 1.125800
54.685600 1.087600
54.746500 1.027300
54.807500 0.991500
54.868400 0.966600
54.929400 0.952600
54.990400 0.944200
55.051300 0.936500
55.112300 0.962300
55.173300 1.044800
55.234200 1.049500
55.295200 1.021700
55.356200 0.991500
55.417100 1.025400
55.478100 1.097400
55.539000 1.138200
55.600000 1.137500
55.661000 1.145100
55.721900 1.148800
55.782900 1.158100
55.843900 1.072300
55.904800 1.022300
55.965800 1.018600
56.026800 1.058800
56.087700 1.124800
56.148700 1.197000
56.209600 1.228200
56.270600 1.214200
56.331600 1.197700
56.392500 1.166300
56.453500 1.061000
56.514500 1.087200
56.575400 1.071800
56.636400 1.007700
56.697400 0.970100
56.758300 0.910100
56.819300 0.946900
56.880200 1.047200
56.941200 1.112600
57.002200 1.080600
57.063100 1.026500
57.124100 1.049600
57.185100 1.009800
57.246000 0.995400
57.307000 1.012100
57.368000 0.951800
57.428900 0.895500
57.489900 0.858000
57.550800 0.555500
57.611800 0.461700
57.672800 0.379000
57.733700 0.317700
57.794700 0.272300
57.855700 0.239200
57.916600 0.215600
57.977600 0.195500
58.038600 0.189300
58.099500 0.169500
58.160500 0.145500
58.221400 0.121200
58.282400 0.084100
58.343400 0.067800
58.404300 0.047600
58.465300 0.036600
58.526300 0.031700
58.587200 0.031600
58.648200 0.033000
58.709200 0.034700
58.770100 0.039400
58.831100 0.039500
58.892100 0.039500
58.953000 0.039900
59.014000 0.040800
59.074900 0.042200
59.135900 0.045400
59.196900 0.057900
59.257800 0.061000
59.318800 0.034900
59.379800 0.026000
59.440700 0.019400
59.501700 0.011600
59.562700 0.003100
59.623600 0.000100
59.684600 0.000000
59.745500 0.000000
59.806500 0.000000
59.867500 0.000000
59.928400 0.000000
59.989400 0.000000
60.050400 0.000000
60.111300 0.000000
60.172300 0.000000
60.233300 0.000000
60.294200 0.000000
60.355200 0.000000
60.416100 0.000000
60.477100 0.000000
60.538100 0.000000
60.599000 0.000000
60.660000 0.000000
60.721000 0.000000
60.781900 0.000000
60.842900 0.000000
60.903900 0.000000
60.964800 0.000000
61.025800 0.000000
61.086700 0.000000
61.147700 0.000000
61.208700 0.000000
61.269600 0.000000
61.330600 0.000000
61.391600 0.000000
61.452500 0.000000
61.513500 0.000000
61.574500 0.000000
61.635400 0.000000
61.696400 0.000000
61.757300 0.000000
61.818300 0.000000
61.879300 0.000000
61.940200 0.000000
62.001200 0.000000
62.062200 0.000000
62.123100 0.000000
62.184100 0.000000
62.245100 0.000000
62.306000 0.000000
62.367000 0.000000
62.427900 0.000000
62.488900 0.000000
62.549900 0.000000
62.610800 0.000000
62.671800 0.000000
62.732800 0.000000
62.793700 0.000000
62.854700 0.000000
62.915700 0.000000
62.976600 0.000000
63.037600 0.000000
63.098500 0.000000
63.159500 0.000000
63.220500 0.000000
63.281400 0.000000
63.342400 0.000000
63.403400 0.000000
63.464300 0.000000
63.525300 0.000000
63.586300 0.000000
63.647200 0.000000
63.708200 0.000000
63.769100 0.000000
63.830100 0.000000
63.891100 0.000000
63.952000 0.000000
64.013000 0.000000
64.074000 0.000000
64.134900 0.000000
64.195900 0.000000
64.256900 0.000000
64.317800 0.000000
64.378800 0.000000
64.439800 0.000000
64.500700 0.000000
64.561700 0.000000
64.622600 0.000000
64.683600 0.000000
64.744600 0.000000
64.805500 0.000000
64.866500 0.000000
64.927500 0.000000
64.988400 0.000000
65.049400 0.000000
65.110400 0.000000
65.171300 0.000000
65.232300 0.000000
65.293200 0.000000
65.354200 0.000000
65.415200 0.000000
65.476100 0.000000
65.537100 0.000000
65.598100 0.000000
e
