set title 'mp-1018026 - Density of States'
set xlabel 'Energy (eV)'
set ylabel 'DOS (states/eV)'
set grid
set xrange [-10:10]
set yrange [0:26.661]
set xzeroaxis lt -1
set terminal png size 800,600
set output 'mp-1018026_dos_gnuplot.png'
plot '-' using 1:2 with lines title 'DOS'
-49.189200 0.000000
-49.135000 0.000000
-49.080700 0.000000
-49.026500 0.000000
-48.972200 0.000000
-48.918000 0.000000
-48.863700 0.000000
-48.809500 0.000000
-48.755200 0.000000
-48.701000 0.000000
-48.646700 0.000000
-48.592500 0.000000
-48.538200 0.000000
-48.484000 0.000000
-48.429700 0.000000
-48.375500 0.000000
-48.321200 0.000000
-48.267000 0.000000
-48.212700 0.000000
-48.158500 0.000000
-48.104200 0.000000
-48.050000 0.000000
-47.995700 0.000000
-47.941500 0.000000
-47.887200 0.000000
-47.833000 0.000000
-47.778700 0.000000
-47.724400 0.000000
-47.670200 0.000000
-47.615900 0.000000
-47.561700 0.000000
-47.507400 0.000000
-47.453200 0.000000
-47.398900 0.000000
-47.344700 0.000000
-47.290400 0.000000
-47.236200 0.000000
-47.181900 0.000000
-47.127700 0.000000
-47.073400 0.000000
-47.019200 0.000000
-46.964900 0.000000
-46.910700 0.000000
-46.856400 0.000000
-46.802200 0.000000
-46.747900 0.000000
-46.693700 0.000000
-46.639400 0.000000
-46.585200 0.000000
-46.530900 0.000000
-46.476700 0.000000
-46.422400 0.000000
-46.368200 0.000000
-46.313900 0.000000
-46.259700 0.000000
-46.205400 0.000000
-46.151200 0.000000
-46.096900 0.000000
-46.042700 0.000000
-45.988400 0.000000
-45.934100 0.000000
-45.879900 0.000000
-45.825600 0.000000
-45.771400 0.000000
-45.717100 0.000000
-45.662900 0.000000
-45.608600 0.000000
-45.554400 0.000000
-45.500100 0.000000
-45.445900 0.000000
-45.391600 0.000000
-45.337400 0.000000
-45.283100 0.000000
-45.228900 0.000000
-45.174600 0.000000
-45.120400 0.000000
-45.066100 0.000000
-45.011900 0.000000
-44.957600 0.000000
-44.903400 0.000000
-44.849100 0.000000
-44.794900 0.000000
-44.740600 0.000000
-44.686400 0.000000
-44.632100 0.000000
-44.577900 0.000000
-44.523600 0.000000
-44.469400 0.000000
-44.415100 0.000100
-44.360900 0.046000
-44.306600 3.150000
-44.252300 27.824400
-44.198100 35.736100
-44.143800 6.800700
-44.089600 0.172700
-44.035300 0.000500
-43.981100 0.000000
-43.926800 0.000000
-43.872600 0.000000
-43.818300 0.000000
-43.764100 0.000000
-43.709800 0.000000
-43.655600 0.000000
-43.601300 0.000000
-43.547100 0.000000
-43.492800 0.000000
-43.438600 0.000000
-43.384300 0.000000
-43.330100 0.000000
-43.275800 0.000000
-43.221600 0.000000
-43.167300 0.000000
-43.113100 0.000000
-43.058800 0.000000
-43.004600 0.000000
-42.950300 0.000000
-42.896100 0.000000
-42.841800 0.000000
-42.787600 0.000000
-42.733300 0.000000
-42.679100 0.000000
-42.624800 0.000000
-42.570500 0.000000
-42.516300 0.000000
-42.462000 0.000000
-42.407800 0.000000
-42.353500 0.000000
-42.299300 0.000000
-42.245000 0.000000
-42.190800 0.000000
-42.136500 0.000000
-42.082300 0.000000
-42.028000 0.000000
-41.973800 0.000000
-41.919500 0.000000
-41.865300 0.000000
-41.811000 0.000000
-41.756800 0.000000
-41.702500 0.000000
-41.648300 0.000000
-41.594000 0.000000
-41.539800 0.000000
-41.485500 0.000000
-41.431300 0.000000
-41.377000 0.000000
-41.322800 0.000000
-41.268500 0.000000
-41.214300 0.000000
-41.160000 0.000000
-41.105800 0.000000
-41.051500 0.000000
-40.997300 0.000000
-40.943000 0.000000
-40.888700 0.000000
-40.834500 0.000000
-40.780200 0.000000
-40.726000 0.000000
-40.671700 0.000000
-40.617500 0.000000
-40.563200 0.000000
-40.509000 0.000000
-40.454700 0.000000
-40.400500 0.000000
-40.346200 0.000000
-40.292000 0.000000
-40.237700 0.000000
-40.183500 0.000000
-40.129200 0.000000
-40.075000 0.000000
-40.020700 0.000000
-39.966500 0.000000
-39.912200 0.000000
-39.858000 0.000000
-39.803700 0.000000
-39.749500 0.000000
-39.695200 0.000000
-39.641000 0.000000
-39.586700 0.000000
-39.532500 0.000000
-39.478200 0.000000
-39.424000 0.000000
-39.369700 0.000000
-39.315500 0.000000
-39.261200 0.000000
-39.206900 0.000000
-39.152700 0.000000
-39.098400 0.000000
-39.044200 0.000000
-38.989900 0.000000
-38.935700 0.000000
-38.881400 0.000000
-38.827200 0.000000
-38.772900 0.000000
-38.718700 0.000000
-38.664400 0.000000
-38.610200 0.000000
-38.555900 0.000000
-38.501700 0.000000
-38.447400 0.000000
-38.393200 0.000000
-38.338900 0.000000
-38.284700 0.000000
-38.230400 0.000000
-38.176200 0.000000
-38.121900 0.000000
-38.067700 0.000000
-38.013400 0.000000
-37.959200 0.000000
-37.904900 0.000000
-37.850700 0.000000
-37.796400 0.000000
-37.742200 0.000000
-37.687900 0.000000
-37.633700 0.000000
-37.579400 0.000000
-37.525100 0.000000
-37.470900 0.000000
-37.416600 0.000000
-37.362400 0.000000
-37.308100 0.000000
-37.253900 0.000000
-37.199600 0.000000
-37.145400 0.000000
-37.091100 0.000000
-37.036900 0.000000
-36.982600 0.000000
-36.928400 0.000000
-36.874100 0.000000
-36.819900 0.000000
-36.765600 0.000000
-36.711400 0.000000
-36.657100 0.000000
-36.602900 0.000000
-36.548600 0.000000
-36.494400 0.000000
-36.440100 0.000000
-36.385900 0.000000
-36.331600 0.000000
-36.277400 0.000000
-36.223100 0.000000
-36.168900 0.000000
-36.114600 0.000000
-36.060400 0.000000
-36.006100 0.000000
-35.951900 0.000000
-35.897600 0.000000
-35.843300 0.000000
-35.789100 0.000000
-35.734800 0.000000
-35.680600 0.000000
-35.626300 0.000000
-35.572100 0.000000
-35.517800 0.000000
-35.463600 0.000000
-35.409300 0.000000
-35.355100 0.000000
-35.300800 0.000000
-35.246600 0.000000
-35.192300 0.000000
-35.138100 0.000000
-35.083800 0.000000
-35.029600 0.000000
-34.975300 0.000000
-34.921100 0.000000
-34.866800 0.000000
-34.812600 0.000000
-34.758300 0.000000
-34.704100 0.000000
-34.649800 0.000000
-34.595600 0.000000
-34.541300 0.000000
-34.487100 0.000000
-34.432800 0.000000
-34.378600 0.000000
-34.324300 0.000000
-34.270100 0.000000
-34.215800 0.000000
-34.161600 0.000000
-34.107300 0.000000
-34.053000 0.000000
-33.998800 0.000000
-33.944500 0.000000
-33.890300 0.000000
-33.836000 0.000000
-33.781800 0.000000
-33.727500 0.000000
-33.673300 0.000000
-33.619000 0.000000
-33.564800 0.000000
-33.510500 0.000000
-33.456300 0.000000
-33.402000 0.000000
-33.347800 0.000000
-33.293500 0.000000
-33.239300 0.000000
-33.185000 0.000000
-33.130800 0.000000
-33.076500 0.000000
-33.022300 0.000000
-32.968000 0.000000
-32.913800 0.000000
-32.859500 0.000000
-32.805300 0.000000
-32.751000 0.000000
-32.696800 0.000000
-32.642500 0.000000
-32.588300 0.000000
-32.534000 0.000000
-32.479800 0.000000
-32.425500 0.000000
-32.371200 0.000000
-32.317000 0.000000
-32.262700 0.000000
-32.208500 0.000000
-32.154200 0.000000
-32.100000 0.000000
-32.045700 0.000000
-31.991500 0.000000
-31.937200 0.000000
-31.883000 0.000000
-31.828700 0.000000
-31.774500 0.000000
-31.720200 0.000000
-31.666000 0.000000
-31.611700 0.000000
-31.557500 0.000000
-31.503200 0.000000
-31.449000 0.000000
-31.394700 0.000000
-31.340500 0.000000
-31.286200 0.000000
-31.232000 0.000000
-31.177700 0.000000
-31.123500 0.000000
-31.069200 0.000000
-31.015000 0.000000
-30.960700 0.000000
-30.906500 0.000000
-30.852200 0.000000
-30.798000 0.000000
-30.743700 0.000000
-30.689400 0.000000
-30.635200 0.000000
-30.580900 0.000000
-30.526700 0.000000
-30.472400 0.000000
-30.418200 0.000000
-30.363900 0.000000
-30.309700 0.000000
-30.255400 0.000000
-30.201200 0.000000
-30.146900 0.000000
-30.092700 0.000000
-30.038400 0.000000
-29.984200 0.000000
-29.929900 0.000000
-29.875700 0.000000
-29.821400 0.000000
-29.767200 0.000000
-29.712900 0.000000
-29.658700 0.000000
-29.604400 0.000000
-29.550200 0.000000
-29.495900 0.000000
-29.441700 0.000000
-29.387400 0.000000
-29.333200 0.000000
-29.278900 0.000000
-29.224700 0.000000
-29.170400 0.000000
-29.116200 0.000000
-29.061900 0.000000
-29.007600 0.000000
-28.953400 0.000000
-28.899100 0.000000
-28.844900 0.000000
-28.790600 0.000000
-28.736400 0.000000
-28.682100 0.000000
-28.627900 0.000000
-28.573600 0.000000
-28.519400 0.000000
-28.465100 0.000000
-28.410900 0.000000
-28.356600 0.000000
-28.302400 0.000000
-28.248100 0.000000
-28.193900 0.000000
-28.139600 0.000000
-28.085400 0.000000
-28.031100 0.000000
-27.976900 0.000000
-27.922600 0.000000
-27.868400 0.000000
-27.814100 0.000000
-27.759900 0.000000
-27.705600 0.000000
-27.651400 0.000000
-27.597100 0.000000
-27.542900 0.000000
-27.488600 0.000000
-27.434400 0.000000
-27.380100 0.000000
-27.325800 0.000000
-27.271600 0.000000
-27.217300 0.000000
-27.163100 0.000000
-27.108800 0.000000
-27.054600 0.000000
-27.000300 0.000000
-26.946100 0.000000
-26.891800 0.000000
-26.837600 0.000000
-26.783300 0.000000
-26.729100 0.000000
-26.674800 0.000000
-26.620600 0.000000
-26.566300 0.000000
-26.512100 0.000000
-26.457800 0.000000
-26.403600 0.000000
-26.349300 0.000000
-26.295100 0.000000
-26.240800 0.000000
-26.186600 0.000000
-26.132300 0.000000
-26.078100 0.000000
-26.023800 0.000000
-25.969600 0.000000
-25.915300 0.000000
-25.861100 0.000000
-25.806800 0.000000
-25.752600 0.000000
-25.698300 0.000000
-25.644000 0.000000
-25.589800 0.000000
-25.535500 0.000000
-25.481300 0.000000
-25.427000 0.000000
-25.372800 0.000000
-25.318500 0.000000
-25.264300 0.000000
-25.210000 0.000000
-25.155800 0.000000
-25.101500 0.000000
-25.047300 0.000000
-24.993000 0.000000
-24.938800 0.000000
-24.884500 0.000000
-24.830300 0.000000
-24.776000 0.000000
-24.721800 0.000000
-24.667500 0.000000
-24.613300 0.000000
-24.559000 0.000000
-24.504800 0.000000
-24.450500 0.000000
-24.396300 0.000000
-24.342000 0.000000
-24.287800 0.000000
-24.233500 0.000000
-24.179300 0.000000
-24.125000 0.000000
-24.070800 0.000000
-24.016500 0.000000
-23.962200 0.000000
-23.908000 0.000000
-23.853700 0.000000
-23.799500 0.000000
-23.745200 0.000000
-23.691000 0.000000
-23.636700 0.000000
-23.582500 0.000000
-23.528200 0.000000
-23.474000 0.000000
-23.419700 0.000000
-23.365500 0.000000
-23.311200 0.000000
-23.257000 0.000000
-23.202700 0.000000
-23.148500 0.000000
-23.094200 0.000000
-23.040000 0.000000
-22.985700 0.000000
-22.931500 0.000000
-22.877200 0.000000
-22.823000 0.000000
-22.768700 0.000000
-22.714500 0.000000
-22.660200 0.000000
-22.606000 0.000000
-22.551700 0.000000
-22.497500 0.000000
-22.443200 0.000000
-22.389000 0.000000
-22.334700 0.000000
-22.280500 0.000000
-22.226200 0.000000
-22.171900 0.000000
-22.117700 0.000000
-22.063400 0.000000
-22.009200 0.000000
-21.954900 0.000000
-21.900700 0.000000
-21.846400 0.000000
-21.792200 0.000000
-21.737900 0.000000
-21.683700 0.000000
-21.629400 0.000000
-21.575200 0.000000
-21.520900 0.000000
-21.466700 0.000000
-21.412400 0.000000
-21.358200 0.000000
-21.303900 0.000000
-21.249700 0.000000
-21.195400 0.000000
-21.141200 0.000000
-21.086900 0.000000
-21.032700 0.000000
-20.978400 0.000000
-20.924200 0.000000
-20.869900 0.000000
-20.815700 0.000000
-20.761400 0.000000
-20.707200 0.000000
-20.652900 0.000000
-20.598700 0.000000
-20.544400 0.000000
-20.490100 0.000000
-20.435900 0.000000
-20.381600 0.000000
-20.327400 0.000000
-20.273100 0.000000
-20.218900 0.000000
-20.164600 0.000000
-20.110400 0.000000
-20.056100 0.000000
-20.001900 0.000000
-19.947600 0.000000
-19.893400 0.000000
-19.839100 0.000000
-19.784900 0.000000
-19.730600 0.000000
-19.676400 0.000000
-19.622100 0.000000
-19.567900 0.000000
-19.513600 0.000000
-19.459400 0.000000
-19.405100 0.000000
-19.350900 0.000000
-19.296600 0.000000
-19.242400 0.000000
-19.188100 0.000000
-19.133900 0.000000
-19.079600 0.000000
-19.025400 0.000000
-18.971100 0.000000
-18.916900 0.000000
-18.862600 0.000000
-18.808300 0.000000
-18.754100 0.000000
-18.699800 0.000000
-18.645600 0.000000
-18.591300 0.000000
-18.537100 0.000000
-18.482800 0.000000
-18.428600 0.000000
-18.374300 0.000000
-18.320100 0.000000
-18.265800 0.000000
-18.211600 0.000000
-18.157300 0.000000
-18.103100 0.000000
-18.048800 0.000000
-17.994600 0.000000
-17.940300 0.000000
-17.886100 0.000000
-17.831800 0.000000
-17.777600 0.000000
-17.723300 0.000000
-17.669100 0.000000
-17.614800 0.000000
-17.560600 0.000000
-17.506300 0.000000
-17.452100 0.000000
-17.397800 0.000000
-17.343600 0.000000
-17.289300 0.000000
-17.235100 0.000000
-17.180800 0.000000
-17.126500 0.000000
-17.072300 0.000000
-17.018000 0.000000
-16.963800 0.000000
-16.909500 0.000000
-16.855300 0.000000
-16.801000 0.000000
-16.746800 0.000000
-16.692500 0.000000
-16.638300 0.000000
-16.584000 0.000000
-16.529800 0.000000
-16.475500 0.000000
-16.421300 0.000000
-16.367000 0.000000
-16.312800 0.000000
-16.258500 0.000000
-16.204300 0.000000
-16.150000 0.000000
-16.095800 0.000000
-16.041500 0.000000
-15.987300 0.000000
-15.933000 0.000000
-15.878800 0.000000
-15.824500 0.000000
-15.770300 0.000000
-15.716000 0.000000
-15.661800 0.000000
-15.607500 0.000000
-15.553300 0.000000
-15.499000 0.000000
-15.444700 0.000000
-15.390500 0.000000
-15.336200 0.000000
-15.282000 0.000000
-15.227700 0.000000
-15.173500 0.000000
-15.119200 0.000000
-15.065000 0.000000
-15.010700 0.000000
-14.956500 0.000000
-14.902200 0.000000
-14.848000 0.000000
-14.793700 0.000000
-14.739500 0.000000
-14.685200 0.000000
-14.631000 0.000000
-14.576700 0.000000
-14.522500 0.000000
-14.468200 0.000000
-14.414000 0.000000
-14.359700 0.000000
-14.305500 0.000000
-14.251200 0.000000
-14.197000 0.000000
-14.142700 0.000000
-14.088500 0.000000
-14.034200 0.000000
-13.980000 0.000000
-13.925700 0.000000
-13.871500 0.000000
-13.817200 0.000000
-13.762900 0.000000
-13.708700 0.000000
-13.654400 0.000000
-13.600200 0.000000
-13.545900 0.000000
-13.491700 0.000000
-13.437400 0.000000
-13.383200 0.000000
-13.328900 0.000000
-13.274700 0.000000
-13.220400 0.000000
-13.166200 0.000000
-13.111900 0.000000
-13.057700 0.000000
-13.003400 0.000000
-12.949200 0.000000
-12.894900 0.000000
-12.840700 0.000000
-12.786400 0.000000
-12.732200 0.000000
-12.677900 0.000000
-12.623700 0.000000
-12.569400 0.000000
-12.515200 0.000000
-12.460900 0.000000
-12.406700 0.000000
-12.352400 0.000000
-12.298200 0.000000
-12.243900 0.000000
-12.189700 0.000000
-12.135400 0.000000
-12.081200 0.000000
-12.026900 0.000000
-11.972600 0.000000
-11.918400 0.000000
-11.864100 0.000000
-11.809900 0.000000
-11.755600 0.000000
-11.701400 0.000000
-11.647100 0.000000
-11.592900 0.000000
-11.538600 0.000000
-11.484400 0.000000
-11.430100 0.000000
-11.375900 0.000000
-11.321600 0.000000
-11.267400 0.000000
-11.213100 0.000000
-11.158900 0.000000
-11.104600 0.000000
-11.050400 0.000000
-10.996100 0.000000
-10.941900 0.000000
-10.887600 0.000000
-10.833400 0.000000
-10.779100 0.000000
-10.724900 0.000000
-10.670600 0.000000
-10.616400 0.000000
-10.562100 0.000000
-10.507900 0.000000
-10.453600 0.000000
-10.399400 0.000000
-10.345100 0.000000
-10.290800 0.000000
-10.236600 0.000000
-10.182300 0.000000
-10.128100 0.000000
-10.073800 0.000000
-10.019600 0.000000
-9.965300 0.000000
-9.911100 0.000000
-9.856800 0.000000
-9.802600 0.000000
-9.748300 0.000000
-9.694100 0.000000
-9.639800 0.000000
-9.585600 0.000000
-9.531300 0.000000
-9.477100 0.000000
-9.422800 0.000000
-9.368600 0.000000
-9.314300 0.000000
-9.260100 0.000000
-9.205800 0.000000
-9.151600 0.000000
-9.097300 0.000000
-9.043100 0.000000
-8.988800 0.000000
-8.934600 0.000000
-8.880300 0.000000
-8.826100 0.000000
-8.771800 0.000000
-8.717600 0.000000
-8.663300 0.000000
-8.609000 0.000000
-8.554800 0.000000
-8.500500 0.000000
-8.446300 0.000000
-8.392000 0.000000
-8.337800 0.000000
-8.283500 0.000000
-8.229300 0.000000
-8.175000 0.000000
-8.120800 0.000000
-8.066500 0.000000
-8.012300 0.000000
-7.958000 0.000000
-7.903800 0.000000
-7.849500 0.000000
-7.795300 0.000000
-7.741000 0.000000
-7.686800 0.000000
-7.632500 0.000000
-7.578300 0.000000
-7.524000 0.000000
-7.469800 0.000000
-7.415500 0.000000
-7.361300 0.000000
-7.307000 0.000000
-7.252800 0.000000
-7.198500 0.000000
-7.144300 0.000000
-7.090000 0.000000
-7.035800 0.000000
-6.981500 0.000000
-6.927200 0.000000
-6.873000 0.000000
-6.818700 0.000000
-6.764500 0.000000
-6.710200 0.000000
-6.656000 0.000000
-6.601700 0.000000
-6.547500 0.000000
-6.493200 0.000000
-6.439000 0.000000
-6.384700 0.000000
-6.330500 0.000000
-6.276200 0.000000
-6.222000 0.000000
-6.167700 0.000000
-6.113500 0.000000
-6.059200 0.000000
-6.005000 0.000000
-5.950700 0.000000
-5.896500 0.000000
-5.842200 0.000000
-5.788000 0.000000
-5.733700 0.000000
-5.679500 0.000000
-5.625200 0.000000
-5.571000 0.000000
-5.516700 0.000000
-5.462500 0.000000
-5.408200 0.000000
-5.354000 0.000000
-5.299700 0.000000
-5.245400 0.000000
-5.191200 0.000000
-5.136900 0.000000
-5.082700 0.000000
-5.028400 0.000000
-4.974200 0.000000
-4.919900 0.000000
-4.865700 0.000000
-4.811400 0.000000
-4.757200 0.000000
-4.702900 0.000000
-4.648700 0.000000
-4.594400 0.000000
-4.540200 0.000000
-4.485900 0.000000
-4.431700 0.000000
-4.377400 0.000000
-4.323200 0.000000
-4.268900 0.000000
-4.214700 0.001900
-4.160400 0.024200
-4.106200 0.085700
-4.051900 0.198700
-3.997700 0.198400
-3.943400 0.219900
-3.889200 0.408000
-3.834900 0.433600
-3.780700 0.245900
-3.726400 0.501900
-3.672200 0.776600
-3.617900 0.740400
-3.563600 1.259200
-3.509400 4.367700
-3.455100 12.496500
-3.400900 21.313700
-3.346600 24.237500
-3.292400 20.163200
-3.238100 14.536600
-3.183900 12.022600
-3.129600 11.313200
-3.075400 11.455600
-3.021100 10.534500
-2.966900 8.650600
-2.912600 9.240100
-2.858400 10.137000
-2.804100 10.218800
-2.749900 9.815600
-2.695600 9.722600
-2.641400 9.398500
-2.587100 9.378000
-2.532900 9.874700
-2.478600 11.187500
-2.424400 10.783800
-2.370100 9.764700
-2.315900 9.508200
-2.261600 8.472600
-2.207400 7.553500
-2.153100 7.768500
-2.098900 7.492000
-2.044600 8.372300
-1.990400 12.617300
-1.936100 12.505700
-1.881800 9.968600
-1.827600 8.594000
-1.773300 7.764500
-1.719100 6.346400
-1.664800 4.898900
-1.610600 3.135500
-1.556300 1.735100
-1.502100 1.208900
-1.447800 1.255900
-1.393600 1.063200
-1.339300 1.076300
-1.285100 0.883600
-1.230800 0.729200
-1.176600 1.027500
-1.122300 1.103200
-1.068100 1.151500
-1.013800 1.213400
-0.959600 0.998600
-0.905300 0.956000
-0.851100 0.910300
-0.796800 1.089300
-0.742600 1.297000
-0.688300 1.127500
-0.634100 0.962600
-0.579800 0.989200
-0.525600 0.673100
-0.471300 0.798400
-0.417100 1.030700
-0.362800 0.847200
-0.308600 0.370600
-0.254300 0.338900
-0.200100 0.659900
-0.145800 0.911300
-0.091500 0.940200
-0.037300 0.818200
0.017000 0.921500
0.071200 1.396200
0.125500 1.205400
0.179700 0.836700
0.234000 0.473600
0.288200 0.483300
0.342500 0.870800
0.396700 1.167100
0.451000 1.252000
0.505200 1.035600
0.559500 0.511700
0.613700 0.474600
0.668000 0.706600
0.722200 0.874400
0.776500 1.265600
0.830700 0.926200
0.885000 0.887100
0.939200 1.086900
0.993500 1.190600
1.047700 1.003700
1.102000 0.726000
1.156200 0.562600
1.210500 0.394700
1.264700 0.813700
1.319000 1.424400
1.373200 1.281400
1.427500 0.819600
1.481700 0.572500
1.536000 0.622400
1.590300 0.987800
1.644500 1.082600
1.698800 1.352100
1.753000 1.336400
1.807300 1.317100
1.861500 1.372900
1.915800 1.826900
1.970000 1.713500
2.024300 1.061300
2.078500 0.827000
2.132800 1.190500
2.187000 1.480500
2.241300 1.134500
2.295500 1.007000
2.349800 1.246500
2.404000 1.840600
2.458300 1.642000
2.512500 0.966100
2.566800 0.697200
2.621000 0.880200
2.675300 1.575400
2.729500 1.638500
2.783800 1.052600
2.838000 1.256900
2.892300 1.847900
2.946500 0.932200
3.000800 0.564900
3.055000 1.079200
3.109300 1.636400
3.163500 1.696500
3.217800 1.414000
3.272100 0.849100
3.326300 0.511100
3.380600 0.700200
3.434800 1.582000
3.489100 2.119000
3.543300 1.711000
3.597600 0.880000
3.651800 0.564400
3.706100 0.933500
3.760300 0.773600
3.814600 0.754300
3.868800 0.960800
3.923100 0.940200
3.977300 1.181900
4.031600 1.259700
4.085800 0.724400
4.140100 0.709800
4.194300 0.858900
4.248600 1.204700
4.302800 1.581700
4.357100 1.201700
4.411300 0.799200
4.465600 0.785900
4.519800 1.115500
4.574100 1.401700
4.628300 0.932300
4.682600 0.619600
4.736800 0.572400
4.791100 0.796500
4.845300 0.847200
4.899600 0.608800
4.953900 0.838400
5.008100 0.957300
5.062400 0.866300
5.116600 1.390200
5.170900 1.204900
5.225100 1.194700
5.279400 1.128700
5.333600 0.523900
5.387900 0.568900
5.442100 0.707400
5.496400 1.088400
5.550600 1.364300
5.604900 1.333000
5.659100 1.217800
5.713400 0.737900
5.767600 0.519000
5.821900 1.293600
5.876100 1.494300
5.930400 1.027500
5.984600 0.901600
6.038900 1.351900
6.093100 1.580600
6.147400 1.048500
6.201600 0.896000
6.255900 0.949000
6.310100 1.302600
6.364400 1.761300
6.418600 1.542500
6.472900 1.484700
6.527100 1.010300
6.581400 0.894000
6.635700 1.760500
6.689900 1.539000
6.744200 0.983200
6.798400 1.525300
6.852700 1.936700
6.906900 1.415800
6.961200 1.452800
7.015400 1.403700
7.069700 1.174200
7.123900 1.418900
7.178200 1.684600
7.232400 1.420900
7.286700 0.721000
7.340900 1.059000
7.395200 1.340500
7.449400 1.424200
7.503700 1.141500
7.557900 1.027500
7.612200 1.050200
7.666400 1.225100
7.720700 1.557300
7.774900 1.904400
7.829200 1.703000
7.883400 1.598400
7.937700 1.260200
7.991900 1.170400
8.046200 1.712000
8.100400 1.717600
8.154700 1.170500
8.208900 0.896300
8.263200 1.099500
8.317500 1.392300
8.371700 1.621600
8.426000 1.608500
8.480200 1.658700
8.534500 1.326200
8.588700 1.547800
8.643000 1.578700
8.697200 1.193200
8.751500 1.076000
8.805700 1.081400
8.860000 1.208600
8.914200 1.539700
8.968500 1.917200
9.022700 1.338200
9.077000 0.974800
9.131200 1.664700
9.185500 1.820200
9.239700 1.399800
9.294000 1.230000
9.348200 1.343900
9.402500 2.164800
9.456700 1.838600
9.511000 2.467800
9.565200 2.313000
9.619500 1.391400
9.673700 1.351600
9.728000 1.562700
9.782200 2.150900
9.836500 1.589200
9.890700 1.671100
9.945000 2.088100
9.999200 1.949600
10.053500 1.548900
10.107800 1.609500
10.162000 1.998400
10.216300 1.866100
10.270500 1.398300
10.324800 1.452300
10.379000 1.504400
10.433300 1.663900
10.487500 2.077200
10.541800 1.914300
10.596000 2.637200
10.650300 2.747000
10.704500 1.830100
10.758800 1.452500
10.813000 1.246100
10.867300 1.264800
10.921500 1.182400
10.975800 2.016000
11.030000 2.234400
11.084300 1.595500
11.138500 1.330200
11.192800 1.530100
11.247000 1.717400
11.301300 2.674300
11.355500 2.885000
11.409800 3.162100
11.464000 3.080600
11.518300 2.644300
11.572500 2.356700
11.626800 2.188900
11.681000 3.024500
11.735300 2.836100
11.789600 2.616600
11.843800 2.872000
11.898100 3.045100
11.952300 2.819800
12.006600 2.236600
12.060800 1.950700
12.115100 2.086100
12.169300 1.859100
12.223600 2.106300
12.277800 2.177800
12.332100 2.192200
12.386300 2.666800
12.440600 2.950200
12.494800 2.775500
12.549100 3.290700
12.603300 3.836200
12.657600 2.958300
12.711800 2.611100
12.766100 2.064100
12.820300 2.013700
12.874600 1.943900
12.928800 1.565300
12.983100 2.016800
13.037300 2.162900
13.091600 2.399000
13.145800 2.395800
13.200100 1.638500
13.254300 2.039500
13.308600 2.625200
13.362800 3.473100
13.417100 3.152200
13.471400 2.096100
13.525600 2.342200
13.579900 2.622800
13.634100 2.318000
13.688400 2.314300
13.742600 2.152600
13.796900 2.506700
13.851100 2.309100
13.905400 1.496700
13.959600 1.136900
14.013900 1.459100
14.068100 1.676900
14.122400 1.748600
14.176600 1.607600
14.230900 1.968200
14.285100 2.711600
14.339400 2.835200
14.393600 2.264800
14.447900 1.809400
14.502100 1.689300
14.556400 1.825600
14.610600 1.735800
14.664900 1.978200
14.719100 1.898100
14.773400 1.766400
14.827600 1.637100
14.881900 1.568600
14.936100 1.906800
14.990400 2.153000
15.044600 1.989700
15.098900 1.771800
15.153200 2.245700
15.207400 1.785900
15.261700 1.331800
15.315900 1.137500
15.370200 1.080900
15.424400 1.480000
15.478700 1.253400
15.532900 1.503000
15.587200 1.892800
15.641400 1.773200
15.695700 1.527000
15.749900 1.363800
15.804200 1.649300
15.858400 2.110300
15.912700 1.974700
15.966900 2.245400
16.021200 2.091300
16.075400 1.956900
16.129700 2.008400
16.183900 1.787700
16.238200 1.589300
16.292400 1.222500
16.346700 1.230400
16.400900 1.117900
16.455200 1.752400
16.509400 2.241700
16.563700 2.007300
16.617900 1.920400
16.672200 1.399800
16.726400 1.352200
16.780700 1.704700
16.835000 2.212900
16.889200 1.809000
16.943500 1.275900
16.997700 1.262700
17.052000 1.531800
17.106200 1.553900
17.160500 1.469700
17.214700 1.739100
17.269000 2.271600
17.323200 2.477800
17.377500 2.168600
17.431700 1.624900
17.486000 1.683300
17.540200 1.846400
17.594500 2.347100
17.648700 2.309600
17.703000 1.980100
17.757200 2.138200
17.811500 2.378200
17.865700 1.703600
17.920000 1.171800
17.974200 1.573000
18.028500 1.686300
18.082700 1.978000
18.137000 2.560700
18.191200 2.063700
18.245500 1.501600
18.299700 1.775200
18.354000 2.287900
18.408200 2.469600
18.462500 2.722500
18.516800 3.051600
18.571000 2.985800
18.625300 2.475500
18.679500 2.580200
18.733800 2.745200
18.788000 2.291300
18.842300 2.165300
18.896500 2.547600
18.950800 2.486900
19.005000 2.501900
19.059300 3.159500
19.113500 3.962800
19.167800 3.588100
19.222000 3.310300
19.276300 3.024500
19.330500 2.630000
19.384800 1.915400
19.439000 2.071000
19.493300 2.928200
19.547500 3.444300
19.601800 2.670900
19.656000 2.497500
19.710300 3.269400
19.764500 3.928800
19.818800 3.599600
19.873000 2.854000
19.927300 2.125500
19.981500 2.076000
20.035800 2.437700
20.090000 3.162700
20.144300 2.751300
20.198600 2.429400
20.252800 2.775700
20.307100 2.498000
20.361300 2.132900
20.415600 2.550800
20.469800 2.899900
20.524100 2.842200
20.578300 2.424100
20.632600 2.195400
20.686800 2.500700
20.741100 2.397500
20.795300 1.684600
20.849600 1.675700
20.903800 2.504900
20.958100 2.551400
21.012300 2.840900
21.066600 2.698400
21.120800 2.307000
21.175100 2.013300
21.229300 2.094500
21.283600 1.891500
21.337800 1.503800
21.392100 1.535100
21.446300 1.702400
21.500600 2.212900
21.554800 2.161800
21.609100 2.891000
21.663300 3.153900
21.717600 2.620700
21.771800 2.409200
21.826100 2.393700
21.880300 2.355600
21.934600 2.377000
21.988900 2.315200
22.043100 2.124200
22.097400 2.587100
22.151600 2.483300
22.205900 1.891300
22.260100 1.485300
22.314400 1.208900
22.368600 1.184800
22.422900 1.378100
22.477100 1.490600
22.531400 1.634700
22.585600 2.075000
22.639900 1.891500
22.694100 1.951200
22.748400 1.976000
22.802600 1.804200
22.856900 2.279300
22.911100 2.406100
22.965400 1.834300
23.019600 1.324200
23.073900 1.729900
23.128100 2.152300
23.182400 1.852700
23.236600 1.343800
23.290900 1.451500
23.345100 1.852100
23.399400 2.528500
23.453600 2.744000
23.507900 2.816200
23.562100 2.807900
23.616400 2.604200
23.670700 1.843300
23.724900 2.105200
23.779200 2.050700
23.833400 1.734300
23.887700 2.042800
23.941900 2.244400
23.996200 2.443200
24.050400 2.633100
24.104700 2.444200
24.158900 1.978500
24.213200 1.923900
24.267400 1.525100
24.321700 1.695600
24.375900 2.098800
24.430200 2.180200
24.484400 2.386200
24.538700 2.585500
24.592900 2.116800
24.647200 2.416600
24.701400 2.469400
24.755700 2.118000
24.809900 2.034000
24.864200 1.940700
24.918400 2.318400
24.972700 2.474600
25.026900 3.023600
25.081200 2.669000
25.135400 1.747800
25.189700 1.773700
25.243900 1.763600
25.298200 1.847500
25.352500 2.591400
25.406700 2.431100
25.461000 2.138600
25.515200 1.951500
25.569500 1.997800
25.623700 2.091400
25.678000 2.223600
25.732200 3.301100
25.786500 3.483900
25.840700 3.351900
25.895000 2.705100
25.949200 2.135100
26.003500 2.168700
26.057700 1.838500
26.112000 1.649700
26.166200 2.216700
26.220500 2.422300
26.274700 2.026100
26.329000 2.272100
26.383200 2.753500
26.437500 2.541500
26.491700 2.305200
26.546000 2.344600
26.600200 2.487000
26.654500 2.779600
26.708700 2.532400
26.763000 2.350800
26.817200 2.353100
26.871500 2.366100
26.925700 2.895000
26.980000 2.519300
27.034300 2.121500
27.088500 2.378900
27.142800 2.916100
27.197000 2.513900
27.251300 2.666600
27.305500 2.678800
27.359800 2.544600
27.414000 2.543200
27.468300 2.732800
27.522500 3.536300
27.576800 3.132900
27.631000 2.599100
27.685300 2.814800
27.739500 2.951100
27.793800 3.094700
27.848000 3.134000
27.902300 2.847200
27.956500 2.775000
28.010800 2.803900
28.065000 2.637500
28.119300 2.541800
28.173500 2.263400
28.227800 2.844600
28.282000 2.830400
28.336300 2.688200
28.390500 2.691100
28.444800 2.600700
28.499000 2.694100
28.553300 2.728400
28.607500 2.479800
28.661800 2.512000
28.716100 2.760400
28.770300 2.903200
28.824600 2.595300
28.878800 2.934900
28.933100 3.424600
28.987300 3.031100
29.041600 2.964300
29.095800 3.077100
29.150100 3.350400
29.204300 2.888700
29.258600 2.663100
29.312800 2.420800
29.367100 2.640400
29.421300 3.152000
29.475600 2.845700
29.529800 2.043300
29.584100 1.825400
29.638300 1.997900
29.692600 2.123200
29.746800 2.242000
29.801100 2.923800
29.855300 3.500900
29.909600 3.798700
29.963800 4.260200
30.018100 3.773100
30.072300 2.369700
30.126600 2.172600
30.180800 2.722300
30.235100 3.596100
30.289300 3.307100
30.343600 2.691400
30.397900 3.117900
30.452100 3.063100
30.506400 3.754900
30.560600 3.007900
30.614900 2.257100
30.669100 2.804900
30.723400 2.783400
30.777600 2.251000
30.831900 2.622400
30.886100 3.102500
30.940400 2.698400
30.994600 2.656200
31.048900 3.142100
31.103100 3.050000
31.157400 3.132500
31.211600 3.112600
31.265900 2.471000
31.320100 2.737500
31.374400 3.658100
31.428600 3.039000
31.482900 2.791500
31.537100 3.510100
31.591400 4.189800
31.645600 3.047800
31.699900 2.453900
31.754100 2.828300
31.808400 2.709000
31.862600 3.170400
31.916900 3.217600
31.971100 2.692100
32.025400 2.632100
32.079700 2.346800
32.133900 1.629000
32.188200 2.508900
32.242400 3.310200
32.296700 2.751500
32.350900 2.715400
32.405200 2.440500
32.459400 1.939500
32.513700 3.104800
32.567900 3.714600
32.622200 3.457800
32.676400 2.851800
32.730700 2.920900
32.784900 3.635200
32.839200 4.033300
32.893400 3.963200
32.947700 3.705900
33.001900 3.301700
33.056200 2.811300
33.110400 2.996500
33.164700 2.572900
33.218900 3.026200
33.273200 4.561000
33.327400 3.632900
33.381700 3.028700
33.435900 2.597600
33.490200 2.464700
33.544400 2.774600
33.598700 3.826400
33.652900 3.728800
33.707200 2.944200
33.761400 3.990400
33.815700 3.745900
33.870000 3.879000
33.924200 3.314700
33.978500 2.280900
34.032700 1.922600
34.087000 2.284900
34.141200 3.345500
34.195500 4.138400
34.249700 3.930500
34.304000 4.020700
34.358200 3.641500
34.412500 3.745000
34.466700 4.218500
34.521000 3.815600
34.575200 3.285200
34.629500 3.582800
34.683700 3.610600
34.738000 3.261300
34.792200 3.053400
34.846500 2.786300
34.900700 2.976000
34.955000 1.719700
35.009200 2.254000
35.063500 3.262600
35.117700 2.584500
35.172000 2.114600
35.226200 3.150500
35.280500 3.884600
35.334700 3.573500
35.389000 3.080900
35.443200 2.690200
35.497500 2.871300
35.551800 3.370500
35.606000 3.393200
35.660300 3.512300
35.714500 3.423900
35.768800 2.884700
35.823000 2.550800
35.877300 2.916500
35.931500 3.076400
35.985800 2.596200
36.040000 2.532600
36.094300 2.599000
36.148500 2.810200
36.202800 3.304500
36.257000 3.560400
36.311300 3.488800
36.365500 3.083100
36.419800 3.062900
36.474000 3.298000
36.528300 3.898100
36.582500 3.689700
36.636800 3.689000
36.691000 3.209000
36.745300 2.965300
36.799500 2.776700
36.853800 2.403400
36.908000 2.931800
36.962300 3.928700
37.016500 4.140500
37.070800 3.525900
37.125000 3.127100
37.179300 3.279700
37.233600 3.682500
37.287800 3.221300
37.342100 3.012700
37.396300 2.804000
37.450600 2.204300
37.504800 2.327300
37.559100 2.959700
37.613300 3.271400
37.667600 3.030700
37.721800 2.525500
37.776100 2.843800
37.830300 3.494300
37.884600 2.972300
37.938800 2.912600
37.993100 3.214300
38.047300 2.829000
38.101600 2.557600
38.155800 2.627000
38.210100 2.236100
38.264300 2.256600
38.318600 3.604000
38.372800 4.196800
38.427100 2.960500
38.481300 2.106800
38.535600 2.324500
38.589800 3.099000
38.644100 2.712000
38.698300 2.597500
38.752600 2.942200
38.806800 2.575500
38.861100 2.047100
38.915400 2.345300
38.969600 2.815200
39.023900 3.234000
39.078100 2.881100
39.132400 2.745500
39.186600 2.732800
39.240900 2.315400
39.295100 2.642500
39.349400 3.174300
39.403600 2.861600
39.457900 2.863100
39.512100 3.377700
39.566400 4.060300
39.620600 3.605300
39.674900 3.115100
39.729100 3.296100
39.783400 3.310400
39.837600 2.516400
39.891900 2.510200
39.946100 2.182400
40.000400 2.959700
40.054600 3.735100
40.108900 3.590800
40.163100 2.801400
40.217400 2.175200
40.271600 2.426100
40.325900 2.917000
40.380100 3.282500
40.434400 3.060100
40.488600 2.615100
40.542900 2.709200
40.597200 3.039600
40.651400 2.580000
40.705700 2.430400
40.759900 3.211100
40.814200 3.123000
40.868400 2.988100
40.922700 3.383400
40.976900 3.001400
41.031200 2.479700
41.085400 2.600100
41.139700 3.187900
41.193900 3.542200
41.248200 3.438600
41.302400 2.902600
41.356700 3.169800
41.410900 3.711900
41.465200 3.986300
41.519400 3.962800
41.573700 4.043600
41.627900 2.766000
41.682200 2.775500
41.736400 2.786300
41.790700 3.308200
41.844900 3.772800
41.899200 3.298800
41.953400 2.641800
42.007700 2.698000
42.061900 3.094600
42.116200 2.995100
42.170400 2.743700
42.224700 2.050800
42.279000 1.897300
42.333200 2.617200
42.387500 3.156600
42.441700 3.365400
42.496000 3.467800
42.550200 2.907900
42.604500 3.117700
42.658700 3.784000
42.713000 3.928300
42.767200 3.863600
42.821500 2.833400
42.875700 2.615100
42.930000 2.963600
42.984200 3.085000
43.038500 2.647200
43.092700 2.347400
43.147000 2.633000
43.201200 3.337100
43.255500 2.891900
43.309700 3.571900
43.364000 3.964300
43.418200 3.098300
43.472500 2.299200
43.526700 2.597400
43.581000 3.591000
43.635200 3.261200
43.689500 2.551300
43.743700 2.654200
43.798000 3.031400
43.852200 3.360800
43.906500 3.515700
43.960700 3.365200
44.015000 3.574400
44.069300 3.727800
44.123500 4.173300
44.177800 4.225100
44.232000 4.259100
44.286300 4.279100
44.340500 3.788600
44.394800 2.567000
44.449000 2.602700
44.503300 3.526300
44.557500 3.591400
44.611800 3.743300
44.666000 3.458400
44.720300 3.640900
44.774500 3.649200
44.828800 2.639200
44.883000 3.440200
44.937300 4.651200
44.991500 4.086900
45.045800 3.073400
45.100000 2.610500
45.154300 3.145700
45.208500 3.643600
45.262800 3.328700
45.317000 3.655800
45.371300 4.235800
45.425500 4.363400
45.479800 4.280200
45.534000 4.016900
45.588300 3.568700
45.642500 3.600900
45.696800 3.225000
45.751100 3.482000
45.805300 3.399100
45.859600 2.638200
45.913800 2.985500
45.968100 3.508100
46.022300 3.199400
46.076600 3.127000
46.130800 2.932400
46.185100 2.611000
46.239300 3.533700
46.293600 4.124500
46.347800 3.625100
46.402100 3.454100
46.456300 2.694700
46.510600 2.425600
46.564800 3.441900
46.619100 4.120000
46.673300 3.809200
46.727600 3.280500
46.781800 2.681300
46.836100 2.789900
46.890300 2.768600
46.944600 3.164500
46.998800 3.879600
47.053100 3.720000
47.107300 3.725500
47.161600 4.191200
47.215800 4.357700
47.270100 3.392300
47.324300 3.443600
47.378600 3.228800
47.432900 2.814700
47.487100 3.275400
47.541400 3.298900
47.595600 3.074600
47.649900 2.718100
47.704100 2.419900
47.758400 3.231000
47.812600 4.177800
47.866900 4.455400
47.921100 4.495100
47.975400 4.602900
48.029600 3.963600
48.083900 3.683000
48.138100 2.705400
48.192400 2.547700
48.246600 3.248100
48.300900 3.434200
48.355100 4.018300
48.409400 4.476300
48.463600 3.805700
48.517900 3.732900
48.572100 3.282400
48.626400 3.204200
48.680600 3.402700
48.734900 3.745400
48.789100 3.550100
48.843400 2.982600
48.897600 2.905700
48.951900 3.746000
49.006100 4.492500
49.060400 3.617000
49.114700 3.723900
49.168900 3.927100
49.223200 3.388600
49.277400 3.219600
49.331700 2.668000
49.385900 2.475400
49.440200 3.237200
49.494400 4.759300
49.548700 4.958800
49.602900 4.228200
49.657200 4.488000
49.711400 4.748200
49.765700 4.748900
49.819900 3.831200
49.874200 3.550400
49.928400 3.977500
49.982700 3.934100
50.036900 4.062200
50.091200 4.242100
50.145400 3.502500
50.199700 3.504400
50.253900 3.850600
50.308200 3.126100
50.362400 3.434400
50.416700 4.762400
50.470900 5.463700
50.525200 5.404200
50.579400 4.546600
50.633700 4.034700
50.687900 5.187700
50.742200 4.652500
50.796500 2.783600
50.850700 2.766500
50.905000 3.790300
50.959200 3.865100
51.013500 4.654700
51.067700 4.630900
51.122000 3.860700
51.176200 4.005400
51.230500 3.647600
51.284700 2.813600
51.339000 2.151300
51.393200 2.413600
51.447500 3.254700
51.501700 4.278300
51.556000 4.382800
51.610200 3.310200
51.664500 2.939300
51.718700 3.960400
51.773000 3.986900
51.827200 3.550600
51.881500 4.048800
51.935700 3.753500
51.990000 3.795400
52.044200 3.438700
52.098500 3.665300
52.152700 4.715800
52.207000 3.618800
52.261200 3.528700
52.315500 4.149700
52.369700 4.296800
52.424000 3.740900
52.478300 2.887100
52.532500 2.341100
52.586800 2.486300
52.641000 2.794200
52.695300 2.606700
52.749500 1.693300
52.803800 1.920600
52.858000 2.521400
52.912300 2.864800
52.966500 2.444500
53.020800 2.317800
53.075000 2.044100
53.129300 1.901300
53.183500 2.200000
53.237800 2.179500
53.292000 1.986900
53.346300 2.157000
53.400500 2.280900
53.454800 1.978700
53.509000 1.636500
53.563300 1.412800
53.617500 1.465200
53.671800 1.210800
53.726000 0.994400
53.780300 0.859900
53.834500 0.805400
53.888800 0.726500
53.943000 0.476000
53.997300 0.460400
54.051500 0.234500
54.105800 0.177600
54.160100 0.214600
54.214300 0.167200
54.268600 0.061200
54.322800 0.024100
54.377100 0.020000
54.431300 0.020300
54.485600 0.003400
54.539800 0.000100
54.594100 0.000000
54.648300 0.000000
54.702600 0.000000
54.756800 0.000000
54.811100 0.000000
54.865300 0.000000
54.919600 0.000000
54.973800 0.000000
55.028100 0.000000
55.082300 0.000000
55.136600 0.000000
55.190800 0.000000
55.245100 0.000000
55.299300 0.000000
55.353600 0.000000
55.407800 0.000000
55.462100 0.000000
55.516300 0.000000
55.570600 0.000000
55.624800 0.000000
55.679100 0.000000
55.733300 0.000000
55.787600 0.000000
55.841800 0.000000
55.896100 0.000000
55.950400 0.000000
56.004600 0.000000
56.058900 0.000000
56.113100 0.000000
56.167400 0.000000
56.221600 0.000000
56.275900 0.000000
56.330100 0.000000
56.384400 0.000000
56.438600 0.000000
56.492900 0.000000
56.547100 0.000000
56.601400 0.000000
56.655600 0.000000
56.709900 0.000000
56.764100 0.000000
56.818400 0.000000
56.872600 0.000000
56.926900 0.000000
56.981100 0.000000
57.035400 0.000000
57.089600 0.000000
57.143900 0.000000
57.198100 0.000000
57.252400 0.000000
57.306600 0.000000
57.360900 0.000000
57.415100 0.000000
57.469400 0.000000
57.523600 0.000000
57.577900 0.000000
57.632200 0.000000
57.686400 0.000000
57.740700 0.000000
57.794900 0.000000
57.849200 0.000000
57.903400 0.000000
57.957700 0.000000
58.011900 0.000000
58.066200 0.000000
58.120400 0.000000
58.174700 0.000000
58.228900 0.000000
58.283200 0.000000
58.337400 0.000000
58.391700 0.000000
58.445900 0.000000
58.500200 0.000000
58.554400 0.000000
58.608700 0.000000
58.662900 0.000000
58.717200 0.000000
58.771400 0.000000
58.825700 0.000000
58.879900 0.000000
58.934200 0.000000
58.988400 0.000000
59.042700 0.000000
59.096900 0.000000
59.151200 0.000000
59.205400 0.000000
59.259700 0.000000
59.314000 0.000000
e
