set title 'mp-1183400 - Density of States'
set xlabel 'Energy (eV)'
set ylabel 'DOS (states/eV)'
set grid
set xrange [-10:10]
set yrange [0:1.282]
set xzeroaxis lt -1
set terminal png size 800,600
set output 'mp-1183400_dos_gnuplot.png'
plot '-' using 1:2 with lines title 'DOS'
-106.089300 0.000000
-105.989600 0.000000
-105.889900 0.000000
-105.790200 0.000000
-105.690500 0.000000
-105.590900 0.000000
-105.491200 0.000000
-105.391500 0.000000
-105.291800 0.000000
-105.192100 0.000000
-105.092400 0.000000
-104.992700 0.000000
-104.893000 0.000000
-104.793400 0.000000
-104.693700 0.000000
-104.594000 0.000000
-104.494300 0.000000
-104.394600 0.000000
-104.294900 0.000000
-104.195200 0.000000
-104.095500 0.000000
-103.995800 0.000000
-103.896200 0.000000
-103.796500 0.000000
-103.696800 0.000000
-103.597100 0.000000
-103.497400 0.000000
-103.397700 0.000000
-103.298000 0.000000
-103.198300 0.000000
-103.098600 0.000000
-102.999000 0.000000
-102.899300 0.000000
-102.799600 0.000000
-102.699900 0.000000
-102.600200 0.000000
-102.500500 0.000000
-102.400800 0.000000
-102.301100 0.000000
-102.201400 0.000000
-102.101800 0.000000
-102.002100 0.000000
-101.902400 0.000000
-101.802700 0.000000
-101.703000 0.000000
-101.603300 0.000000
-101.503600 0.000000
-101.403900 0.000000
-101.304200 0.000000
-101.204600 0.000000
-101.104900 0.000000
-101.005200 0.000000
-100.905500 0.000000
-100.805800 0.000000
-100.706100 0.000000
-100.606400 0.000000
-100.506700 0.000000
-100.407100 0.000000
-100.307400 0.000000
-100.207700 0.000000
-100.108000 0.000000
-100.008300 0.000000
-99.908600 0.000000
-99.808900 0.000000
-99.709200 0.000000
-99.609500 0.000000
-99.509900 0.000000
-99.410200 0.000000
-99.310500 0.000000
-99.210800 0.000000
-99.111100 0.000000
-99.011400 0.000000
-98.911700 0.000000
-98.812000 0.000000
-98.712300 0.000000
-98.612700 0.000000
-98.513000 0.000000
-98.413300 0.000000
-98.313600 0.000000
-98.213900 0.000000
-98.114200 0.000000
-98.014500 0.000000
-97.914800 0.000000
-97.815100 0.000000
-97.715500 0.000000
-97.615800 0.000000
-97.516100 0.000000
-97.416400 0.000000
-97.316700 0.000000
-97.217000 0.000000
-97.117300 0.000000
-97.017600 327.627700
-96.917900 0.000000
-96.818300 0.000000
-96.718600 0.000000
-96.618900 0.000000
-96.519200 0.000000
-96.419500 0.000000
-96.319800 0.000000
-96.220100 0.000000
-96.120400 0.000000
-96.020800 0.000000
-95.921100 0.000000
-95.821400 0.000000
-95.721700 0.000000
-95.622000 0.000000
-95.522300 0.000000
-95.422600 0.000000
-95.322900 0.000000
-95.223200 0.000000
-95.123600 0.000000
-95.023900 0.000000
-94.924200 0.000000
-94.824500 0.000000
-94.724800 0.000000
-94.625100 0.000000
-94.525400 0.000000
-94.425700 0.000000
-94.326000 0.000000
-94.226400 0.000000
-94.126700 0.000000
-94.027000 0.000000
-93.927300 0.000000
-93.827600 0.000000
-93.727900 0.000000
-93.628200 0.000000
-93.528500 0.000000
-93.428800 0.000000
-93.329200 0.000000
-93.229500 0.000000
-93.129800 0.000000
-93.030100 0.000000
-92.930400 0.000000
-92.830700 0.000000
-92.731000 0.000000
-92.631300 0.000000
-92.531600 0.000000
-92.432000 0.000000
-92.332300 0.000000
-92.232600 0.000000
-92.132900 0.000000
-92.033200 0.000000
-91.933500 0.000000
-91.833800 0.000000
-91.734100 0.000000
-91.634400 0.000000
-91.534800 0.000000
-91.435100 0.000000
-91.335400 0.000000
-91.235700 0.000000
-91.136000 0.000000
-91.036300 0.000000
-90.936600 0.000000
-90.836900 0.000000
-90.737300 0.000000
-90.637600 0.000000
-90.537900 0.000000
-90.438200 0.000000
-90.338500 0.000000
-90.238800 0.000000
-90.139100 0.000000
-90.039400 0.000000
-89.939700 0.000000
-89.840100 0.000000
-89.740400 0.000000
-89.640700 0.000000
-89.541000 0.000000
-89.441300 0.000000
-89.341600 0.000000
-89.241900 0.000000
-89.142200 0.000000
-89.042500 0.000000
-88.942900 0.000000
-88.843200 0.000000
-88.743500 0.000000
-88.643800 0.000000
-88.544100 0.000000
-88.444400 0.000000
-88.344700 0.000000
-88.245000 0.000000
-88.145300 0.000000
-88.045700 0.000000
-87.946000 0.000000
-87.846300 0.000000
-87.746600 0.000000
-87.646900 0.000000
-87.547200 0.000000
-87.447500 0.000000
-87.347800 0.000000
-87.248100 0.000000
-87.148500 0.000000
-87.048800 0.000000
-86.949100 0.000000
-86.849400 0.000000
-86.749700 0.000000
-86.650000 0.000000
-86.550300 0.000000
-86.450600 0.000000
-86.351000 0.000000
-86.251300 0.000000
-86.151600 0.000000
-86.051900 0.000000
-85.952200 0.000000
-85.852500 0.000000
-85.752800 0.000000
-85.653100 0.000000
-85.553400 0.000000
-85.453800 0.000000
-85.354100 0.000000
-85.254400 0.000000
-85.154700 0.000000
-85.055000 0.000000
-84.955300 0.000000
-84.855600 0.000000
-84.755900 0.000000
-84.656200 0.000000
-84.556600 0.000000
-84.456900 0.000000
-84.357200 0.000000
-84.257500 0.000000
-84.157800 0.000000
-84.058100 0.000000
-83.958400 0.000000
-83.858700 0.000000
-83.759000 0.000000
-83.659400 0.000000
-83.559700 0.000000
-83.460000 0.000000
-83.360300 0.000000
-83.260600 0.000000
-83.160900 0.000000
-83.061200 0.000000
-82.961500 0.000000
-82.861800 0.000000
-82.762200 0.000000
-82.662500 0.000000
-82.562800 0.000000
-82.463100 0.000000
-82.363400 0.000000
-82.263700 0.000000
-82.164000 0.000000
-82.064300 0.000000
-81.964700 0.000000
-81.865000 0.000000
-81.765300 0.000000
-81.665600 0.000000
-81.565900 0.000000
-81.466200 0.000000
-81.366500 0.000000
-81.266800 0.000000
-81.167100 0.000000
-81.067500 0.000000
-80.967800 0.000000
-80.868100 0.000000
-80.768400 0.000000
-80.668700 0.000000
-80.569000 0.000000
-80.469300 0.000000
-80.369600 0.000000
-80.269900 0.000000
-80.170300 0.000000
-80.070600 0.000000
-79.970900 0.000000
-79.871200 0.000000
-79.771500 0.000000
-79.671800 0.000000
-79.572100 0.000000
-79.472400 0.000000
-79.372700 0.000000
-79.273100 0.000000
-79.173400 0.000000
-79.073700 0.000000
-78.974000 0.000000
-78.874300 0.000000
-78.774600 0.000000
-78.674900 0.000000
-78.575200 0.000000
-78.475500 0.000000
-78.375900 0.000000
-78.276200 0.000000
-78.176500 0.000000
-78.076800 0.000000
-77.977100 0.000000
-77.877400 0.000000
-77.777700 0.000000
-77.678000 0.000000
-77.578400 0.000000
-77.478700 0.000000
-77.379000 0.000000
-77.279300 0.000000
-77.179600 0.000000
-77.079900 0.000000
-76.980200 0.000000
-76.880500 0.000000
-76.780800 0.000000
-76.681200 0.000000
-76.581500 0.000000
-76.481800 0.000000
-76.382100 0.000000
-76.282400 0.000000
-76.182700 0.000000
-76.083000 0.000000
-75.983300 0.000000
-75.883600 0.000000
-75.784000 0.000000
-75.684300 0.000000
-75.584600 0.000000
-75.484900 0.000000
-75.385200 0.000000
-75.285500 0.000000
-75.185800 0.000000
-75.086100 0.000000
-74.986400 0.000000
-74.886800 0.000000
-74.787100 0.000000
-74.687400 0.000000
-74.587700 0.000000
-74.488000 0.000000
-74.388300 0.000000
-74.288600 0.000000
-74.188900 0.000000
-74.089200 0.000000
-73.989600 0.000000
-73.889900 0.000000
-73.790200 0.000000
-73.690500 0.000000
-73.590800 0.000000
-73.491100 0.000000
-73.391400 0.000000
-73.291700 0.000000
-73.192100 0.000000
-73.092400 0.000000
-72.992700 0.000000
-72.893000 0.000000
-72.793300 0.000000
-72.693600 0.000000
-72.593900 0.000000
-72.494200 0.000000
-72.394500 0.000000
-72.294900 0.000000
-72.195200 0.000000
-72.095500 0.000000
-71.995800 0.000000
-71.896100 0.000000
-71.796400 0.000000
-71.696700 0.000000
-71.597000 0.000000
-71.497300 0.000000
-71.397700 0.000000
-71.298000 0.000000
-71.198300 0.000000
-71.098600 0.000000
-70.998900 0.000000
-70.899200 0.000000
-70.799500 0.000000
-70.699800 0.000000
-70.600100 0.000000
-70.500500 0.000000
-70.400800 0.000000
-70.301100 0.000000
-70.201400 0.000000
-70.101700 0.000000
-70.002000 0.000000
-69.902300 0.000000
-69.802600 0.000000
-69.702900 0.000000
-69.603300 0.000000
-69.503600 0.000000
-69.403900 0.000000
-69.304200 0.000000
-69.204500 0.000000
-69.104800 0.000000
-69.005100 0.000000
-68.905400 0.000000
-68.805700 0.000000
-68.706100 0.000000
-68.606400 0.000000
-68.506700 0.000000
-68.407000 0.000000
-68.307300 0.000000
-68.207600 0.000000
-68.107900 0.000000
-68.008200 0.000000
-67.908600 0.000000
-67.808900 0.000000
-67.709200 0.000000
-67.609500 0.000000
-67.509800 0.000000
-67.410100 0.000000
-67.310400 0.000000
-67.210700 0.000000
-67.111000 0.000000
-67.011400 0.000000
-66.911700 0.000000
-66.812000 0.000000
-66.712300 0.000000
-66.612600 0.000000
-66.512900 0.000000
-66.413200 0.000000
-66.313500 0.000000
-66.213800 0.000000
-66.114200 0.000000
-66.014500 0.000000
-65.914800 0.000000
-65.815100 0.000000
-65.715400 0.000000
-65.615700 0.000000
-65.516000 0.000000
-65.416300 0.000000
-65.316600 0.000000
-65.217000 0.000000
-65.117300 0.000000
-65.017600 0.000000
-64.917900 0.000000
-64.818200 0.000000
-64.718500 0.000000
-64.618800 0.000000
-64.519100 0.000000
-64.419400 0.000000
-64.319800 0.000000
-64.220100 0.000000
-64.120400 0.000000
-64.020700 0.000000
-63.921000 0.000000
-63.821300 0.000000
-63.721600 0.000000
-63.621900 0.000000
-63.522300 0.000000
-63.422600 0.000000
-63.322900 0.000000
-63.223200 0.000000
-63.123500 0.000000
-63.023800 0.000000
-62.924100 0.000000
-62.824400 0.000000
-62.724700 0.000000
-62.625100 0.000000
-62.525400 0.000000
-62.425700 0.000000
-62.326000 0.000000
-62.226300 0.000000
-62.126600 0.000000
-62.026900 0.000000
-61.927200 0.000000
-61.827500 0.000000
-61.727900 0.000000
-61.628200 0.000000
-61.528500 0.000000
-61.428800 0.000000
-61.329100 0.000000
-61.229400 0.000000
-61.129700 0.000000
-61.030000 0.000000
-60.930300 0.000000
-60.830700 0.000000
-60.731000 0.000000
-60.631300 0.000000
-60.531600 0.000000
-60.431900 0.000000
-60.332200 0.000000
-60.232500 0.000000
-60.132800 0.000000
-60.033100 0.000000
-59.933500 0.000000
-59.833800 0.000000
-59.734100 0.000000
-59.634400 0.000000
-59.534700 0.000000
-59.435000 0.000000
-59.335300 0.000000
-59.235600 0.000000
-59.136000 0.000000
-59.036300 0.000000
-58.936600 0.000000
-58.836900 0.000000
-58.737200 0.000000
-58.637500 0.000000
-58.537800 0.000000
-58.438100 0.000000
-58.338400 0.000000
-58.238800 0.000000
-58.139100 0.000000
-58.039400 0.000000
-57.939700 0.000000
-57.840000 0.000000
-57.740300 0.000000
-57.640600 0.000000
-57.540900 0.000000
-57.441200 0.000000
-57.341600 0.000000
-57.241900 0.000000
-57.142200 0.000000
-57.042500 0.000000
-56.942800 0.000000
-56.843100 0.000000
-56.743400 0.000000
-56.643700 0.000000
-56.544000 0.000000
-56.444400 0.000000
-56.344700 0.000000
-56.245000 0.000000
-56.145300 0.000000
-56.045600 0.000000
-55.945900 0.000000
-55.846200 0.000000
-55.746500 0.000000
-55.646800 0.000000
-55.547200 0.000000
-55.447500 0.000000
-55.347800 0.000000
-55.248100 0.000000
-55.148400 0.000000
-55.048700 0.000000
-54.949000 0.000000
-54.849300 0.000000
-54.749700 0.000000
-54.650000 0.000000
-54.550300 0.000000
-54.450600 0.000000
-54.350900 0.000000
-54.251200 0.000000
-54.151500 0.000000
-54.051800 0.000000
-53.952100 0.000000
-53.852500 0.000000
-53.752800 0.000000
-53.653100 0.000000
-53.553400 0.000000
-53.453700 0.000000
-53.354000 0.000000
-53.254300 0.000000
-53.154600 0.000000
-53.054900 0.000000
-52.955300 0.000000
-52.855600 0.000000
-52.755900 0.000000
-52.656200 0.000000
-52.556500 0.000000
-52.456800 0.000000
-52.357100 0.000000
-52.257400 0.000000
-52.157700 0.000000
-52.058100 0.000000
-51.958400 0.000000
-51.858700 0.000000
-51.759000 0.000000
-51.659300 0.000000
-51.559600 0.000000
-51.459900 0.000000
-51.360200 0.000000
-51.260500 0.000000
-51.160900 0.000000
-51.061200 0.000000
-50.961500 0.000000
-50.861800 0.000000
-50.762100 0.000000
-50.662400 0.000000
-50.562700 0.000000
-50.463000 0.000000
-50.363400 0.000000
-50.263700 0.000000
-50.164000 0.000000
-50.064300 0.000000
-49.964600 0.000000
-49.864900 0.000000
-49.765200 0.000000
-49.665500 0.000000
-49.565800 0.000000
-49.466200 0.000000
-49.366500 0.000000
-49.266800 0.000000
-49.167100 0.000000
-49.067400 0.000000
-48.967700 0.000000
-48.868000 0.000000
-48.768300 0.000000
-48.668600 0.000000
-48.569000 0.000000
-48.469300 0.000000
-48.369600 0.000000
-48.269900 0.000000
-48.170200 0.000000
-48.070500 0.000000
-47.970800 0.000000
-47.871100 0.000000
-47.771400 0.000000
-47.671800 0.000000
-47.572100 0.000000
-47.472400 0.000000
-47.372700 0.000000
-47.273000 0.000000
-47.173300 0.000000
-47.073600 0.000000
-46.973900 0.000000
-46.874200 0.000000
-46.774600 0.000000
-46.674900 0.000000
-46.575200 0.000000
-46.475500 0.000000
-46.375800 0.000000
-46.276100 0.000000
-46.176400 0.000000
-46.076700 0.000000
-45.977000 0.000000
-45.877400 0.000000
-45.777700 0.000000
-45.678000 0.000000
-45.578300 0.000000
-45.478600 0.000000
-45.378900 0.000000
-45.279200 0.000000
-45.179500 0.000000
-45.079900 0.000000
-44.980200 0.000000
-44.880500 0.000000
-44.780800 0.000000
-44.681100 0.000000
-44.581400 0.000000
-44.481700 0.000000
-44.382000 0.000000
-44.282300 0.000000
-44.182700 0.000000
-44.083000 0.000000
-43.983300 0.000000
-43.883600 0.000000
-43.783900 0.000000
-43.684200 0.000000
-43.584500 0.000000
-43.484800 0.000000
-43.385100 0.000000
-43.285500 0.000000
-43.185800 0.000000
-43.086100 0.000000
-42.986400 0.000000
-42.886700 0.000000
-42.787000 0.000000
-42.687300 0.000000
-42.587600 0.000000
-42.487900 0.000000
-42.388300 0.000000
-42.288600 0.000000
-42.188900 0.000000
-42.089200 0.000000
-41.989500 0.000000
-41.889800 0.000000
-41.790100 0.000000
-41.690400 0.000000
-41.590700 0.000000
-41.491100 0.000000
-41.391400 0.000000
-41.291700 0.000000
-41.192000 0.000000
-41.092300 0.000000
-40.992600 0.000000
-40.892900 0.000000
-40.793200 0.000000
-40.693600 0.000000
-40.593900 0.000000
-40.494200 0.000000
-40.394500 0.000000
-40.294800 0.000000
-40.195100 0.000000
-40.095400 0.000000
-39.995700 0.000000
-39.896000 0.000000
-39.796400 0.000000
-39.696700 0.000000
-39.597000 0.000000
-39.497300 0.000000
-39.397600 0.000000
-39.297900 0.000000
-39.198200 0.000000
-39.098500 0.000000
-38.998800 0.000000
-38.899200 0.000000
-38.799500 0.000000
-38.699800 0.000000
-38.600100 0.000000
-38.500400 0.000000
-38.400700 0.000000
-38.301000 0.000000
-38.201300 0.000000
-38.101600 0.000000
-38.002000 0.000000
-37.902300 0.000000
-37.802600 0.000000
-37.702900 0.000000
-37.603200 0.000000
-37.503500 0.000000
-37.403800 0.000000
-37.304100 0.000000
-37.204400 0.000000
-37.104800 0.000000
-37.005100 0.000000
-36.905400 0.000000
-36.805700 0.000000
-36.706000 0.000000
-36.606300 0.000000
-36.506600 0.000000
-36.406900 0.000000
-36.307300 0.000000
-36.207600 0.000000
-36.107900 0.000000
-36.008200 0.000000
-35.908500 0.000000
-35.808800 0.000000
-35.709100 0.000000
-35.609400 0.000000
-35.509700 0.000000
-35.410100 0.000000
-35.310400 0.000000
-35.210700 0.000000
-35.111000 0.000000
-35.011300 0.000000
-34.911600 0.000000
-34.811900 0.000000
-34.712200 0.000000
-34.612500 0.000000
-34.512900 0.000000
-34.413200 0.000000
-34.313500 0.000000
-34.213800 0.000000
-34.114100 0.000000
-34.014400 0.000000
-33.914700 0.000000
-33.815000 0.000000
-33.715300 0.000000
-33.615700 0.000000
-33.516000 0.000000
-33.416300 0.000000
-33.316600 0.000000
-33.216900 0.000000
-33.117200 0.000000
-33.017500 0.000000
-32.917800 0.000000
-32.818100 0.000000
-32.718500 0.000000
-32.618800 0.000000
-32.519100 0.000000
-32.419400 0.000000
-32.319700 0.000000
-32.220000 0.000000
-32.120300 0.000000
-32.020600 0.000000
-31.921000 0.000000
-31.821300 0.000000
-31.721600 0.000000
-31.621900 0.000000
-31.522200 0.000000
-31.422500 0.000000
-31.322800 0.000000
-31.223100 0.000000
-31.123400 0.000000
-31.023800 0.000000
-30.924100 0.000000
-30.824400 0.000000
-30.724700 0.000000
-30.625000 0.000000
-30.525300 0.000000
-30.425600 0.000000
-30.325900 0.000000
-30.226200 0.000000
-30.126600 0.000000
-30.026900 0.000000
-29.927200 0.000000
-29.827500 0.000000
-29.727800 0.000000
-29.628100 0.000000
-29.528400 0.000000
-29.428700 0.000000
-29.329000 0.000000
-29.229400 0.000000
-29.129700 0.000000
-29.030000 0.000000
-28.930300 0.000000
-28.830600 0.000000
-28.730900 0.000000
-28.631200 0.000000
-28.531500 0.000000
-28.431800 0.000000
-28.332200 0.000000
-28.232500 0.000000
-28.132800 0.000000
-28.033100 0.000000
-27.933400 0.000000
-27.833700 0.000000
-27.734000 0.000000
-27.634300 0.000000
-27.534700 0.000000
-27.435000 0.000000
-27.335300 0.000000
-27.235600 0.000000
-27.135900 0.000000
-27.036200 0.000000
-26.936500 0.000000
-26.836800 0.000000
-26.737100 0.000000
-26.637500 0.000000
-26.537800 0.000000
-26.438100 0.000000
-26.338400 0.000000
-26.238700 0.000000
-26.139000 0.000000
-26.039300 0.000000
-25.939600 0.000000
-25.839900 0.000000
-25.740300 0.000000
-25.640600 0.000000
-25.540900 0.000000
-25.441200 0.000000
-25.341500 0.000000
-25.241800 0.000000
-25.142100 0.000000
-25.042400 0.000000
-24.942700 0.000000
-24.843100 0.000000
-24.743400 0.000000
-24.643700 0.000000
-24.544000 0.000000
-24.444300 0.000000
-24.344600 0.000000
-24.244900 0.000000
-24.145200 0.000000
-24.045500 0.000000
-23.945900 0.000000
-23.846200 0.000000
-23.746500 0.000000
-23.646800 0.000000
-23.547100 0.000000
-23.447400 0.000000
-23.347700 0.000000
-23.248000 0.000000
-23.148300 0.000000
-23.048700 0.000000
-22.949000 0.000000
-22.849300 0.000000
-22.749600 0.000000
-22.649900 0.000000
-22.550200 0.000000
-22.450500 0.000000
-22.350800 0.000000
-22.251200 0.000000
-22.151500 0.000000
-22.051800 0.000000
-21.952100 0.000000
-21.852400 0.000000
-21.752700 0.000000
-21.653000 0.000000
-21.553300 0.000000
-21.453600 0.000000
-21.354000 0.000000
-21.254300 0.000000
-21.154600 0.000000
-21.054900 0.000000
-20.955200 0.000000
-20.855500 0.000000
-20.755800 0.000000
-20.656100 0.000000
-20.556400 0.000000
-20.456800 0.000000
-20.357100 0.000000
-20.257400 0.000000
-20.157700 0.000000
-20.058000 0.000000
-19.958300 0.000000
-19.858600 0.000000
-19.758900 0.000000
-19.659200 0.000000
-19.559600 0.000000
-19.459900 0.000000
-19.360200 0.000000
-19.260500 0.000000
-19.160800 0.000000
-19.061100 0.000000
-18.961400 0.000000
-18.861700 0.000000
-18.762000 0.000000
-18.662400 0.000000
-18.562700 0.000000
-18.463000 0.000000
-18.363300 0.000000
-18.263600 0.000000
-18.163900 0.000000
-18.064200 0.000000
-17.964500 0.000000
-17.864900 0.000000
-17.765200 0.000000
-17.665500 0.000000
-17.565800 0.000000
-17.466100 0.000000
-17.366400 0.000000
-17.266700 0.000000
-17.167000 0.000000
-17.067300 0.000000
-16.967700 0.000000
-16.868000 0.000000
-16.768300 0.000000
-16.668600 0.000000
-16.568900 0.000000
-16.469200 0.000000
-16.369500 0.000000
-16.269800 0.000000
-16.170100 0.000000
-16.070500 0.000000
-15.970800 0.000000
-15.871100 0.000000
-15.771400 0.000000
-15.671700 0.000000
-15.572000 0.000000
-15.472300 0.000000
-15.372600 0.000000
-15.272900 0.000000
-15.173300 0.000000
-15.073600 0.000000
-14.973900 0.000000
-14.874200 0.000000
-14.774500 0.000000
-14.674800 0.000000
-14.575100 0.000000
-14.475400 0.000000
-14.375700 0.000000
-14.276100 0.000000
-14.176400 0.000000
-14.076700 0.000000
-13.977000 0.000000
-13.877300 0.000000
-13.777600 0.000000
-13.677900 0.000000
-13.578200 0.000000
-13.478600 0.000000
-13.378900 0.000000
-13.279200 0.000000
-13.179500 0.000000
-13.079800 0.000000
-12.980100 0.000000
-12.880400 0.000000
-12.780700 0.000000
-12.681000 0.000000
-12.581400 0.000000
-12.481700 0.000000
-12.382000 0.000000
-12.282300 0.000000
-12.182600 0.000000
-12.082900 0.000000
-11.983200 0.000000
-11.883500 0.000000
-11.783800 0.000000
-11.684200 0.000000
-11.584500 0.000000
-11.484800 0.000000
-11.385100 0.000000
-11.285400 0.000000
-11.185700 0.000000
-11.086000 0.000000
-10.986300 0.000000
-10.886600 0.000000
-10.787000 0.000000
-10.687300 0.000000
-10.587600 0.000000
-10.487900 0.000000
-10.388200 0.000000
-10.288500 0.000000
-10.188800 0.000000
-10.089100 0.000000
-9.989400 0.000000
-9.889800 0.000000
-9.790100 0.000000
-9.690400 0.000000
-9.590700 0.000000
-9.491000 0.000000
-9.391300 0.000000
-9.291600 0.000000
-9.191900 0.000000
-9.092300 0.000000
-8.992600 0.000000
-8.892900 0.000000
-8.793200 0.000000
-8.693500 0.064500
-8.593800 0.098900
-8.494100 0.122500
-8.394400 0.147600
-8.294700 0.168400
-8.195100 0.184100
-8.095400 0.201700
-7.995700 0.250100
-7.896000 0.240600
-7.796300 0.237900
-7.696600 0.241400
-7.596900 0.290500
-7.497200 0.286000
-7.397500 0.296000
-7.297900 0.310900
-7.198200 0.322100
-7.098500 0.335300
-6.998800 0.348000
-6.899100 0.361300
-6.799400 0.370800
-6.699700 0.384900
-6.600000 0.401000
-6.500300 0.417900
-6.400700 0.432000
-6.301000 0.463500
-6.201300 0.484100
-6.101600 0.486500
-6.001900 0.488000
-5.902200 0.491400
-5.802500 0.492100
-5.702800 0.493000
-5.603100 0.495800
-5.503500 0.497400
-5.403800 0.499100
-5.304100 0.501800
-5.204400 0.505000
-5.104700 0.507900
-5.005000 0.509300
-4.905300 0.511900
-4.805600 0.515300
-4.706000 0.518900
-4.606300 0.522100
-4.506600 0.525300
-4.406900 0.529200
-4.307200 0.533600
-4.207500 0.538500
-4.107800 0.543400
-4.008100 0.548500
-3.908400 0.553700
-3.808800 0.559900
-3.709100 0.566800
-3.609400 0.574500
-3.509700 0.582800
-3.410000 0.591900
-3.310300 0.602300
-3.210600 0.614100
-3.110900 0.627500
-3.011200 0.643100
-2.911600 0.661800
-2.811900 0.684800
-2.712200 0.713300
-2.612500 0.749500
-2.512800 0.844800
-2.413100 0.872700
-2.313400 0.895800
-2.213700 1.035900
-2.114000 1.023300
-2.014400 1.118400
-1.914700 0.963100
-1.815000 0.755500
-1.715300 0.686200
-1.615600 0.723000
-1.515900 0.649300
-1.416200 0.609500
-1.316500 0.566600
-1.216800 0.535800
-1.117200 0.519600
-1.017500 0.545000
-0.917800 0.503000
-0.818100 0.407900
-0.718400 0.372800
-0.618700 0.136400
-0.519000 0.142400
-0.419300 0.148600
-0.319600 0.155700
-0.220000 0.162200
-0.120300 0.168200
-0.020600 0.174300
0.079100 0.181000
0.178800 0.188000
0.278500 0.193900
0.378200 0.199200
0.477900 0.204500
0.577500 0.210200
0.677200 0.216400
0.776900 0.222900
0.876600 0.229300
0.976300 0.235300
1.076000 0.241300
1.175700 0.247900
1.275400 0.255100
1.375100 0.289600
1.474700 0.295400
1.574400 0.296100
1.674100 0.301700
1.773800 0.304100
1.873500 0.309500
1.973200 0.317200
2.072900 0.323900
2.172600 0.334300
2.272300 0.347800
2.371900 0.364700
2.471600 0.391700
2.571300 0.462200
2.671000 0.882100
2.770700 0.852500
2.870400 0.827800
2.970100 0.855600
3.069800 0.876500
3.169500 0.970900
3.269100 1.165700
3.368800 0.958900
3.468500 0.911400
3.568200 0.870200
3.667900 0.822900
3.767600 0.784000
3.867300 0.786400
3.967000 0.741600
4.066700 0.734500
4.166300 0.717300
4.266000 0.746600
4.365700 0.830800
4.465400 0.984500
4.565100 1.054800
4.664800 1.056100
4.764500 0.892600
4.864200 0.784600
4.963800 0.692800
5.063500 0.622500
5.163200 0.550600
5.262900 0.532900
5.362600 0.485200
5.462300 0.395400
5.562000 0.376700
5.661700 0.360300
5.761400 0.345600
5.861000 0.332800
5.960700 0.322500
6.060400 0.309800
6.160100 0.369600
6.259800 0.523300
6.359500 0.575100
6.459200 0.549600
6.558900 0.572200
6.658600 0.674800
6.758200 0.722800
6.857900 0.734100
6.957600 0.766300
7.057300 0.785600
7.157000 0.891600
7.256700 0.841500
7.356400 0.904500
7.456100 0.968500
7.555800 0.956900
7.655400 0.935700
7.755100 0.934600
7.854800 0.940200
7.954500 0.966800
8.054200 0.957200
8.153900 0.865100
8.253600 0.833500
8.353300 0.814500
8.453000 0.820400
8.552600 0.814400
8.652300 0.914300
8.752000 0.893300
8.851700 0.883700
8.951400 0.879800
9.051100 0.912400
9.150800 0.800600
9.250500 0.682600
9.350100 0.642700
9.449800 0.575400
9.549500 0.543300
9.649200 0.522800
9.748900 0.507400
9.848600 0.511700
9.948300 0.727100
10.048000 0.875800
10.147700 1.432100
10.247300 1.349100
10.347000 1.604500
10.446700 1.249200
10.546400 1.141100
10.646100 1.056000
10.745800 0.977700
10.845500 0.976200
10.945200 0.928000
11.044900 0.878000
11.144500 0.821700
11.244200 0.788100
11.343900 0.773800
11.443600 0.777600
11.543300 0.788500
11.643000 0.798800
11.742700 0.806200
11.842400 0.836100
11.942100 0.874200
12.041700 0.927700
12.141400 0.958200
12.241100 0.990300
12.340800 0.981900
12.440500 0.941300
12.540200 0.895600
12.639900 0.862200
12.739600 0.830100
12.839300 0.803600
12.938900 0.790400
13.038600 0.781100
13.138300 0.774300
13.238000 0.772600
13.337700 0.776700
13.437400 0.791800
13.537100 0.805300
13.636800 0.799700
13.736400 0.806400
13.836100 0.827900
13.935800 0.856400
14.035500 0.886200
14.135200 0.942200
14.234900 1.007400
14.334600 0.983400
14.434300 0.980200
14.534000 1.034800
14.633600 1.142700
14.733300 1.441200
14.833000 1.621200
14.932700 1.383300
15.032400 1.391700
15.132100 1.363200
15.231800 1.256900
15.331500 1.265200
15.431200 1.236800
15.530800 1.237500
15.630500 1.265800
15.730200 1.294300
15.829900 1.349700
15.929600 1.323600
16.029300 1.288300
16.129000 1.211600
16.228700 1.106600
16.328400 1.073200
16.428000 1.041700
16.527700 1.011200
16.627400 0.982100
16.727100 0.963500
16.826800 0.959600
16.926500 0.943200
17.026200 0.930600
17.125900 0.936000
17.225600 0.921400
17.325200 0.906800
17.424900 0.904000
17.524600 0.913000
17.624300 0.918600
17.724000 0.934000
17.823700 0.949000
17.923400 0.953100
18.023100 0.952000
18.122700 0.950900
18.222400 0.929000
18.322100 0.912400
18.421800 0.899700
18.521500 0.896000
18.621200 0.897200
18.720900 0.887100
18.820600 0.871400
18.920300 0.865900
19.019900 0.863200
19.119600 0.861600
19.219300 0.865100
19.319000 0.866100
19.418700 0.889200
19.518400 0.956900
19.618100 0.977900
19.717800 0.929600
19.817500 0.930500
19.917100 0.914600
20.016800 0.913200
20.116500 0.946300
20.216200 0.928800
20.315900 0.981000
20.415600 0.974400
20.515300 1.036700
20.615000 0.911800
20.714700 0.827700
20.814300 0.754000
20.914000 0.767100
21.013700 0.801200
21.113400 0.840800
21.213100 1.018200
21.312800 1.224200
21.412500 1.205800
21.512200 1.311800
21.611900 1.425100
21.711500 1.389200
21.811200 1.407100
21.910900 1.355500
22.010600 1.330300
22.110300 1.260600
22.210000 1.135800
22.309700 1.000100
22.409400 0.888700
22.509100 0.769600
22.608700 0.677700
22.708400 0.640300
22.808100 0.606700
22.907800 0.556600
23.007500 0.544800
23.107200 0.600200
23.206900 0.601900
23.306600 0.545800
23.406200 0.510800
23.505900 0.508400
23.605600 0.502200
23.705300 0.516400
23.805000 0.517300
23.904700 0.520400
24.004400 0.553300
24.104100 0.615300
24.203800 0.614500
24.303400 0.650700
24.403100 0.704400
24.502800 0.832100
24.602500 0.984700
24.702200 1.046300
24.801900 1.041800
24.901600 1.079300
25.001300 1.002900
25.101000 1.012800
25.200600 1.075600
25.300300 1.120700
25.400000 1.138000
25.499700 0.970000
25.599400 0.948700
25.699100 0.940000
25.798800 0.916400
25.898500 1.124800
25.998200 1.251000
26.097800 1.354800
26.197500 1.138100
26.297200 1.077900
26.396900 1.032000
26.496600 1.044900
26.596300 0.984300
26.696000 0.993600
26.795700 0.990800
26.895400 1.008700
26.995000 1.034000
27.094700 1.111800
27.194400 1.100200
27.294100 1.172900
27.393800 1.180900
27.493500 1.124700
27.593200 0.887600
27.692900 0.880000
27.792500 0.853900
27.892200 0.836100
27.991900 0.828300
28.091600 0.850300
28.191300 0.836300
28.291000 0.818700
28.390700 0.808600
28.490400 0.828500
28.590100 0.986400
28.689700 0.938600
28.789400 0.956700
28.889100 0.989200
28.988800 1.023700
29.088500 1.171400
29.188200 1.011300
29.287900 0.963100
29.387600 0.954200
29.487300 0.954300
29.586900 0.950800
29.686600 0.976200
29.786300 0.997800
29.886000 1.076800
29.985700 1.155100
30.085400 1.232800
30.185100 1.109200
30.284800 1.033900
30.384500 1.068900
30.484100 1.117100
30.583800 1.121200
30.683500 1.100700
30.783200 1.056900
30.882900 1.075100
30.982600 1.116400
31.082300 1.159100
31.182000 1.078200
31.281700 0.871000
31.381300 0.852400
31.481000 0.830800
31.580700 0.817700
31.680400 0.836100
31.780100 0.836500
31.879800 0.793500
31.979500 0.789600
32.079200 0.855100
32.178800 0.772600
32.278500 0.816400
32.378200 0.931100
32.477900 1.131700
32.577600 1.110800
32.677300 1.172700
32.777000 1.099900
32.876700 1.015700
32.976400 1.036400
33.076000 1.010500
33.175700 1.006600
33.275400 1.026000
33.375100 1.076000
33.474800 1.245200
33.574500 1.442200
33.674200 1.658200
33.773900 2.068300
33.873600 1.378900
33.973200 1.268800
34.072900 1.265300
34.172600 1.276800
34.272300 1.333800
34.372000 1.385300
34.471700 1.500300
34.571400 1.237900
34.671100 1.069700
34.770800 0.991200
34.870400 0.945800
34.970100 0.886300
35.069800 0.844600
35.169500 0.883700
35.269200 0.918500
35.368900 1.050900
35.468600 1.003900
35.568300 0.984100
35.668000 0.959800
35.767600 0.921400
35.867300 0.982600
35.967000 0.873300
36.066700 0.897000
36.166400 0.988700
36.266100 0.990900
36.365800 0.969800
36.465500 0.996800
36.565100 1.035700
36.664800 1.100000
36.764500 1.145400
36.864200 1.169300
36.963900 1.207200
37.063600 1.218600
37.163300 1.202400
37.263000 1.197800
37.362700 1.190700
37.462300 1.132500
37.562000 1.125900
37.661700 1.141800
37.761400 1.159800
37.861100 1.202600
37.960800 1.298600
38.060500 1.348000
38.160200 1.336700
38.259900 1.335800
38.359500 1.300700
38.459200 1.292900
38.558900 1.314700
38.658600 1.373000
38.758300 1.419800
38.858000 1.411700
38.957700 1.381500
39.057400 1.400800
39.157100 1.358100
39.256700 1.300700
39.356400 1.237800
39.456100 1.183000
39.555800 1.133700
39.655500 1.136600
39.755200 1.163800
39.854900 1.262200
39.954600 1.282200
40.054300 1.222700
40.153900 1.206100
40.253600 1.258200
40.353300 1.340600
40.453000 1.317100
40.552700 1.315400
40.652400 1.447300
40.752100 1.393600
40.851800 1.317800
40.951400 1.308200
41.051100 1.190500
41.150800 1.146100
41.250500 1.138300
41.350200 1.104100
41.449900 1.106100
41.549600 1.124500
41.649300 1.164500
41.749000 1.234600
41.848600 1.244100
41.948300 1.261100
42.048000 1.267800
42.147700 1.204900
42.247400 1.213200
42.347100 1.190800
42.446800 1.139200
42.546500 1.105000
42.646200 1.114500
42.745800 1.104200
42.845500 1.101300
42.945200 1.131800
43.044900 1.165800
43.144600 1.093100
43.244300 1.075900
43.344000 1.085900
43.443700 1.186400
43.543400 1.167500
43.643000 1.206200
43.742700 1.243800
43.842400 1.237600
43.942100 1.254800
44.041800 1.278000
44.141500 1.303100
44.241200 1.321700
44.340900 1.447200
44.440600 1.373700
44.540200 1.450400
44.639900 1.455100
44.739600 1.447000
44.839300 1.473300
44.939000 1.494800
45.038700 1.534200
45.138400 1.520800
45.238100 1.453800
45.337800 1.379500
45.437400 1.288600
45.537100 1.175700
45.636800 1.176500
45.736500 1.199500
45.836200 1.231800
45.935900 1.277300
46.035600 1.278300
46.135300 1.239900
46.234900 1.281100
46.334600 1.307000
46.434300 1.321000
46.534000 1.298100
46.633700 1.281800
46.733400 1.171100
46.833100 1.154300
46.932800 1.166900
47.032500 1.184200
47.132100 1.271100
47.231800 1.415200
47.331500 1.394800
47.431200 1.417700
47.530900 1.390900
47.630600 1.377600
47.730300 1.371800
47.830000 1.366000
47.929700 1.331300
48.029300 1.344200
48.129000 1.368600
48.228700 1.381500
48.328400 1.400800
48.428100 1.422100
48.527800 1.395700
48.627500 1.309400
48.727200 1.249400
48.826900 1.214000
48.926500 1.183500
49.026200 1.176400
49.125900 1.175100
49.225600 1.175300
49.325300 1.203300
49.425000 1.235700
49.524700 1.273100
49.624400 1.319500
49.724100 1.344200
49.823700 1.377400
49.923400 1.375700
50.023100 1.369900
50.122800 1.357300
50.222500 1.365800
50.322200 1.365300
50.421900 1.290600
50.521600 1.262900
50.621200 1.277300
50.720900 1.425900
50.820600 1.454400
50.920300 1.617900
51.020000 1.640700
51.119700 1.543900
51.219400 1.554500
51.319100 1.388500
51.418800 1.293800
51.518400 1.303100
51.618100 1.320900
51.717800 1.352900
51.817500 1.366400
51.917200 1.402500
52.016900 1.465000
52.116600 1.454500
52.216300 1.465500
52.316000 1.414400
52.415600 1.390700
52.515300 1.338100
52.615000 1.276000
52.714700 1.276200
52.814400 1.255600
52.914100 1.245300
53.013800 1.266200
53.113500 1.243300
53.213200 1.241600
53.312800 1.212000
53.412500 1.203200
53.512200 1.200300
53.611900 1.216400
53.711600 1.237900
53.811300 1.227500
53.911000 1.249600
54.010700 1.289900
54.110400 1.345000
54.210000 1.417300
54.309700 1.493800
54.409400 1.424700
54.509100 1.308000
54.608800 1.305600
54.708500 1.318000
54.808200 1.285900
54.907900 1.216400
55.007500 1.171700
55.107200 1.161100
55.206900 1.190800
55.306600 1.219400
55.406300 1.254800
55.506000 1.290400
55.605700 1.263900
55.705400 1.264700
55.805100 1.265600
55.904700 1.285300
56.004400 1.272400
56.104100 1.257400
56.203800 1.302200
56.303500 1.369800
56.403200 1.490400
56.502900 1.623400
56.602600 1.591200
56.702300 1.592400
56.801900 1.633900
56.901600 1.600800
57.001300 1.587000
57.101000 1.584600
57.200700 1.585700
57.300400 1.556600
57.400100 1.505700
57.499800 1.488600
57.599500 1.453100
57.699100 1.540800
57.798800 1.460500
57.898500 1.417800
57.998200 1.391900
58.097900 1.356300
58.197600 1.346700
58.297300 1.465200
58.397000 1.481300
58.496700 1.504700
58.596300 1.417200
58.696000 1.376400
58.795700 1.568000
58.895400 1.454500
58.995100 1.465500
59.094800 1.384200
59.194500 1.356700
59.294200 1.343800
59.393800 1.361100
59.493500 1.346800
59.593200 1.413100
59.692900 1.314800
59.792600 1.354200
59.892300 1.419100
59.992000 1.500400
60.091700 1.575400
60.191400 1.570300
60.291000 1.560900
60.390700 1.494200
60.490400 1.420900
60.590100 1.393600
60.689800 1.451300
60.789500 1.495500
60.889200 1.435000
60.988900 1.404900
61.088600 1.412700
61.188200 1.498200
61.287900 1.556200
61.387600 1.522400
61.487300 1.512800
61.587000 1.410200
61.686700 1.365900
61.786400 1.350400
61.886100 1.284000
61.985800 1.261300
62.085400 1.293900
62.185100 1.323900
62.284800 1.322700
62.384500 1.326300
62.484200 1.328900
62.583900 1.299100
62.683600 1.241900
62.783300 1.215900
62.883000 1.239700
62.982600 1.173500
63.082300 1.144300
63.182000 1.103700
63.281700 1.159500
63.381400 1.175400
63.481100 1.209200
63.580800 1.226300
63.680500 1.246400
63.780200 1.369000
63.879800 1.545700
63.979500 1.754600
64.079200 1.778100
64.178900 1.398400
64.278600 1.269100
64.378300 1.223500
64.478000 1.279400
64.577700 1.444200
64.677300 1.640000
64.777000 1.791800
64.876700 1.733200
64.976400 1.549800
65.076100 1.482800
65.175800 1.438200
65.275500 1.464400
65.375200 1.466800
65.474900 1.456500
65.574500 1.479500
65.674200 1.507100
65.773900 1.452900
65.873600 1.379100
65.973300 1.429100
66.073000 1.388300
66.172700 1.341700
66.272400 1.365500
66.372100 1.462000
66.471700 1.550300
66.571400 1.606700
66.671100 1.633500
66.770800 1.534700
66.870500 1.360600
66.970200 1.336900
67.069900 1.290300
67.169600 1.293800
67.269300 1.321600
67.368900 1.478700
67.468600 1.625700
67.568300 1.652500
67.668000 1.616600
67.767700 1.582900
67.867400 1.494000
67.967100 1.426000
68.066800 1.347900
68.166500 1.345400
68.266100 1.525400
68.365800 1.527000
68.465500 1.570900
68.565200 1.474700
68.664900 1.463200
68.764600 1.519700
68.864300 1.599600
68.964000 1.501700
69.063600 1.401500
69.163300 1.328900
69.263000 1.269800
69.362700 1.277500
69.462400 1.329500
69.562100 1.505600
69.661800 1.538600
69.761500 1.556700
69.861200 1.634700
69.960800 1.665200
70.060500 1.641300
70.160200 1.584200
70.259900 1.535700
70.359600 1.459700
70.459300 1.474600
70.559000 1.451100
70.658700 1.449400
70.758400 1.459400
70.858000 1.442800
70.957700 1.483500
71.057400 1.475200
71.157100 1.446400
71.256800 1.485000
71.356500 1.483400
71.456200 1.470000
71.555900 1.469800
71.655600 1.477300
71.755200 1.507800
71.854900 1.527600
71.954600 1.518300
72.054300 1.550100
72.154000 1.562200
72.253700 1.489000
72.353400 1.472000
72.453100 1.459300
72.552800 1.470700
72.652400 1.500500
72.752100 1.563700
72.851800 1.582700
72.951500 1.574100
73.051200 1.574000
73.150900 1.548400
73.250600 1.569700
73.350300 1.646200
73.449900 1.590000
73.549600 1.590700
73.649300 1.549500
73.749000 1.559500
73.848700 1.675100
73.948400 1.744700
74.048100 1.789200
74.147800 1.758100
74.247500 1.631700
74.347100 1.502000
74.446800 1.468200
74.546500 1.472300
74.646200 1.423300
74.745900 1.386900
74.845600 1.323900
74.945300 1.325800
75.045000 1.319600
75.144700 1.201400
75.244300 1.164200
75.344000 1.151100
75.443700 1.155400
75.543400 1.207800
75.643100 1.241100
75.742800 1.178000
75.842500 1.142100
75.942200 1.090900
76.041900 1.036700
76.141500 0.914200
76.241200 0.841700
76.340900 0.802600
76.440600 0.798600
76.540300 0.736900
76.640000 0.705300
76.739700 0.678300
76.839400 0.650500
76.939100 0.640700
77.038700 0.615300
77.138400 0.529300
77.238100 0.469100
77.337800 0.448600
77.437500 0.435900
77.537200 0.330500
77.636900 0.286200
77.736600 0.249000
77.836200 0.214500
77.935900 0.185500
78.035600 0.162000
78.135300 0.139800
78.235000 0.123000
78.334700 0.109100
78.434400 0.100900
78.534100 0.093400
78.633800 0.087200
78.733400 0.081700
78.833100 0.076800
78.932800 0.072200
79.032500 0.068400
79.132200 0.064700
79.231900 0.061500
79.331600 0.058300
79.431300 0.055300
79.531000 0.052400
79.630600 0.049500
79.730300 0.058700
79.830000 0.040500
79.929700 0.038500
80.029400 0.037900
80.129100 0.035500
80.228800 0.033500
80.328500 0.031600
80.428200 0.027800
80.527800 0.026800
80.627500 0.026400
80.727200 0.025700
80.826900 0.025000
80.926600 0.024300
81.026300 0.023600
81.126000 0.022900
81.225700 0.022200
81.325400 0.021600
81.425000 0.020900
81.524700 0.020300
81.624400 0.019700
81.724100 0.019000
81.823800 0.018300
81.923500 0.017600
82.023200 0.016800
82.122900 0.016100
82.222500 0.015600
82.322200 0.014900
82.421900 0.014200
82.521600 0.013400
82.621300 0.012700
82.721000 0.012000
82.820700 0.011200
82.920400 0.010600
83.020100 0.009900
83.119700 0.009200
83.219400 0.008600
83.319100 0.008000
83.418800 0.008300
83.518500 0.007300
83.618200 0.008500
83.717900 0.006800
83.817600 0.005200
83.917300 0.003700
84.016900 0.002300
84.116600 0.001000
84.216300 0.000100
84.316000 0.000000
84.415700 0.000000
84.515400 0.000000
84.615100 0.000000
84.714800 0.000000
84.814500 0.000000
84.914100 0.000000
85.013800 0.000000
85.113500 0.000000
85.213200 0.000000
85.312900 0.000000
85.412600 0.000000
85.512300 0.000000
85.612000 0.000000
85.711700 0.000000
85.811300 0.000000
85.911000 0.000000
86.010700 0.000000
86.110400 0.000000
86.210100 0.000000
86.309800 0.000000
86.409500 0.000000
86.509200 0.000000
86.608900 0.000000
86.708500 0.000000
86.808200 0.000000
86.907900 0.000000
87.007600 0.000000
87.107300 0.000000
87.207000 0.000000
87.306700 0.000000
87.406400 0.000000
87.506000 0.000000
87.605700 0.000000
87.705400 0.000000
87.805100 0.000000
87.904800 0.000000
88.004500 0.000000
88.104200 0.000000
88.203900 0.000000
88.303600 0.000000
88.403200 0.000000
88.502900 0.000000
88.602600 0.000000
88.702300 0.000000
88.802000 0.000000
88.901700 0.000000
89.001400 0.000000
89.101100 0.000000
89.200800 0.000000
89.300400 0.000000
89.400100 0.000000
89.499800 0.000000
89.599500 0.000000
89.699200 0.000000
89.798900 0.000000
89.898600 0.000000
89.998300 0.000000
90.098000 0.000000
90.197600 0.000000
90.297300 0.000000
90.397000 0.000000
90.496700 0.000000
90.596400 0.000000
90.696100 0.000000
90.795800 0.000000
90.895500 0.000000
90.995200 0.000000
91.094800 0.000000
91.194500 0.000000
91.294200 0.000000
91.393900 0.000000
91.493600 0.000000
91.593300 0.000000
91.693000 0.000000
91.792700 0.000000
91.892300 0.000000
91.992000 0.000000
92.091700 0.000000
92.191400 0.000000
92.291100 0.000000
92.390800 0.000000
92.490500 0.000000
92.590200 0.000000
92.689900 0.000000
92.789500 0.000000
92.889200 0.000000
92.988900 0.000000
93.088600 0.000000
93.188300 0.000000
93.288000 0.000000
e
