set title 'mp-2457 - Density of States'
set xlabel 'Energy (eV)'
set ylabel 'DOS (states/eV)'
set grid
set xrange [-10:10]
set yrange [0:39.679]
set xzeroaxis lt -1
set terminal png size 800,600
set output 'mp-2457_dos_gnuplot.png'
plot '-' using 1:2 with lines title 'DOS'
-21.145400 0.000000
-21.120900 0.000000
-21.096500 0.000000
-21.072000 0.000000
-21.047500 0.000000
-21.023000 0.000000
-20.998500 0.000000
-20.974000 0.000000
-20.949500 0.000000
-20.925000 0.000000
-20.900600 0.000000
-20.876100 0.000000
-20.851600 0.000000
-20.827100 0.000000
-20.802600 0.000000
-20.778100 0.000000
-20.753600 0.000000
-20.729100 0.000000
-20.704700 0.000000
-20.680200 0.000000
-20.655700 0.000000
-20.631200 0.000000
-20.606700 0.000000
-20.582200 0.000000
-20.557700 0.000000
-20.533200 0.000000
-20.508800 0.000000
-20.484300 0.000000
-20.459800 0.000000
-20.435300 0.000000
-20.410800 0.000000
-20.386300 0.000000
-20.361800 0.000000
-20.337400 0.000000
-20.312900 0.000000
-20.288400 0.000000
-20.263900 0.000000
-20.239400 0.000000
-20.214900 0.000000
-20.190400 0.000000
-20.165900 0.000000
-20.141500 0.000000
-20.117000 0.000000
-20.092500 0.000000
-20.068000 0.000000
-20.043500 0.000000
-20.019000 0.000000
-19.994500 0.000000
-19.970000 0.000000
-19.945600 0.000000
-19.921100 0.000000
-19.896600 0.000000
-19.872100 0.000000
-19.847600 0.000000
-19.823100 0.000000
-19.798600 0.000000
-19.774200 0.000000
-19.749700 0.000000
-19.725200 0.000000
-19.700700 0.000000
-19.676200 0.000000
-19.651700 0.000000
-19.627200 0.000000
-19.602700 0.000000
-19.578300 0.000000
-19.553800 0.000000
-19.529300 0.000000
-19.504800 0.000000
-19.480300 0.000000
-19.455800 0.000000
-19.431300 0.000000
-19.406800 0.000000
-19.382400 0.000000
-19.357900 0.000000
-19.333400 0.000000
-19.308900 0.000000
-19.284400 0.000000
-19.259900 0.000000
-19.235400 0.000000
-19.210900 0.000000
-19.186500 0.000000
-19.162000 0.000000
-19.137500 0.000000
-19.113000 0.000000
-19.088500 0.000000
-19.064000 0.000000
-19.039500 0.000000
-19.015100 0.000000
-18.990600 0.000000
-18.966100 0.000000
-18.941600 0.000000
-18.917100 0.001700
-18.892600 0.238300
-18.868100 0.861700
-18.843600 1.615700
-18.819200 2.430000
-18.794700 3.331200
-18.770200 4.052100
-18.745700 12.857400
-18.721200 14.001800
-18.696700 9.493000
-18.672200 7.202200
-18.647700 5.203300
-18.623300 8.111300
-18.598800 15.685500
-18.574300 20.803400
-18.549800 28.070200
-18.525300 18.595300
-18.500800 19.182500
-18.476300 29.741400
-18.451900 19.071500
-18.427400 29.016600
-18.402900 25.230400
-18.378400 17.068300
-18.353900 21.029400
-18.329400 25.293100
-18.304900 22.780700
-18.280400 12.167400
-18.256000 7.653100
-18.231500 9.098100
-18.207000 11.347500
-18.182500 10.189000
-18.158000 8.598200
-18.133500 7.989600
-18.109000 8.954500
-18.084500 9.642500
-18.060100 16.557400
-18.035600 18.045500
-18.011100 14.748400
-17.986600 13.809100
-17.962100 11.492900
-17.937600 12.570200
-17.913100 40.308700
-17.888600 22.970700
-17.864200 13.650600
-17.839700 15.856300
-17.815200 42.792200
-17.790700 18.228600
-17.766200 29.807600
-17.741700 18.092800
-17.717200 30.360500
-17.692800 34.192600
-17.668300 33.095700
-17.643800 42.357700
-17.619300 52.247600
-17.594800 47.367400
-17.570300 65.560700
-17.545800 64.222100
-17.521300 62.419100
-17.496900 67.252600
-17.472400 50.239800
-17.447900 61.041500
-17.423400 32.992600
-17.398900 16.790600
-17.374400 14.903500
-17.349900 14.911300
-17.325400 8.788300
-17.301000 0.000000
-17.276500 0.000000
-17.252000 0.000000
-17.227500 0.000000
-17.203000 0.000000
-17.178500 0.000000
-17.154000 0.000000
-17.129500 0.000000
-17.105100 0.000000
-17.080600 0.000000
-17.056100 0.000000
-17.031600 0.000000
-17.007100 0.000000
-16.982600 0.000000
-16.958100 0.000000
-16.933700 0.000000
-16.909200 0.000000
-16.884700 0.000000
-16.860200 0.000000
-16.835700 0.000000
-16.811200 0.000000
-16.786700 0.000000
-16.762200 0.000000
-16.737800 0.000000
-16.713300 0.000000
-16.688800 0.000000
-16.664300 0.000000
-16.639800 0.000000
-16.615300 0.000000
-16.590800 0.000000
-16.566300 0.000000
-16.541900 0.000000
-16.517400 0.000000
-16.492900 0.000000
-16.468400 0.000000
-16.443900 0.000000
-16.419400 0.000000
-16.394900 0.000000
-16.370500 0.000000
-16.346000 0.000000
-16.321500 0.000000
-16.297000 0.000000
-16.272500 0.000000
-16.248000 0.000000
-16.223500 0.000000
-16.199000 0.000000
-16.174600 0.000000
-16.150100 0.000000
-16.125600 0.000000
-16.101100 0.000000
-16.076600 0.000000
-16.052100 0.000000
-16.027600 0.000000
-16.003100 0.000000
-15.978700 0.000000
-15.954200 0.000000
-15.929700 0.000000
-15.905200 0.000000
-15.880700 0.000000
-15.856200 0.000000
-15.831700 0.000000
-15.807200 0.000000
-15.782800 0.000000
-15.758300 0.000000
-15.733800 0.000000
-15.709300 0.000000
-15.684800 0.000000
-15.660300 0.000000
-15.635800 0.000000
-15.611400 0.000000
-15.586900 0.000000
-15.562400 0.000000
-15.537900 0.000000
-15.513400 0.000000
-15.488900 0.000000
-15.464400 0.000000
-15.439900 0.000000
-15.415500 0.000000
-15.391000 0.000000
-15.366500 0.000000
-15.342000 0.000000
-15.317500 0.000000
-15.293000 0.000000
-15.268500 0.000000
-15.244000 0.000000
-15.219600 0.000000
-15.195100 0.000000
-15.170600 0.000000
-15.146100 0.000000
-15.121600 0.000000
-15.097100 0.000000
-15.072600 0.000000
-15.048100 0.000000
-15.023700 0.000000
-14.999200 0.000000
-14.974700 0.000000
-14.950200 0.000000
-14.925700 0.000000
-14.901200 0.000000
-14.876700 0.000000
-14.852300 0.000000
-14.827800 0.000000
-14.803300 0.000000
-14.778800 0.000000
-14.754300 0.000000
-14.729800 0.000000
-14.705300 0.000000
-14.680800 0.000000
-14.656400 0.000000
-14.631900 0.000000
-14.607400 0.000000
-14.582900 0.000000
-14.558400 0.000000
-14.533900 0.000000
-14.509400 0.000000
-14.484900 0.000000
-14.460500 0.000000
-14.436000 0.000000
-14.411500 0.000000
-14.387000 0.000000
-14.362500 0.000000
-14.338000 0.000000
-14.313500 0.000000
-14.289100 0.000000
-14.264600 0.000000
-14.240100 0.000000
-14.215600 0.000400
-14.191100 0.009800
-14.166600 0.031200
-14.142100 0.064600
-14.117600 0.110100
-14.093200 0.167700
-14.068700 0.236000
-14.044200 0.306500
-14.019700 0.376500
-13.995200 0.447500
-13.970700 0.522600
-13.946200 0.601700
-13.921700 0.685000
-13.897300 0.772400
-13.872800 0.874400
-13.848300 0.999800
-13.823800 1.142200
-13.799300 1.261900
-13.774800 1.357700
-13.750300 1.511600
-13.725800 1.692700
-13.701400 1.876400
-13.676900 2.282200
-13.652400 3.197500
-13.627900 6.051000
-13.603400 8.934600
-13.578900 12.030400
-13.554400 11.600700
-13.530000 10.433800
-13.505500 9.654200
-13.481000 8.897700
-13.456500 10.889000
-13.432000 15.346500
-13.407500 39.361200
-13.383000 11.200600
-13.358500 9.735700
-13.334100 7.656300
-13.309600 6.364400
-13.285100 5.762600
-13.260600 5.697400
-13.236100 6.105300
-13.211600 8.983200
-13.187100 12.426600
-13.162600 16.020400
-13.138200 23.681800
-13.113700 17.812000
-13.089200 9.266200
-13.064700 11.811000
-13.040200 13.258100
-13.015700 14.716500
-12.991200 18.887600
-12.966800 24.367000
-12.942300 12.761100
-12.917800 15.264400
-12.893300 22.521300
-12.868800 6.291100
-12.844300 7.154800
-12.819800 8.973200
-12.795300 12.545400
-12.770900 13.026600
-12.746400 16.079100
-12.721900 20.501000
-12.697400 16.991300
-12.672900 16.992300
-12.648400 18.345800
-12.623900 19.004900
-12.599400 16.233600
-12.575000 13.084300
-12.550500 14.194400
-12.526000 19.615700
-12.501500 17.748600
-12.477000 11.942300
-12.452500 7.490700
-12.428000 7.219900
-12.403500 8.295400
-12.379100 13.329400
-12.354600 11.691400
-12.330100 6.765900
-12.305600 2.370500
-12.281100 1.622100
-12.256600 1.299300
-12.232100 1.024300
-12.207700 0.776400
-12.183200 0.546900
-12.158700 0.307800
-12.134200 0.120700
-12.109700 0.019600
-12.085200 0.000000
-12.060700 0.000000
-12.036200 0.000000
-12.011800 0.000000
-11.987300 0.000000
-11.962800 0.000000
-11.938300 0.000000
-11.913800 0.000000
-11.889300 0.000000
-11.864800 0.000000
-11.840300 0.000000
-11.815900 0.000000
-11.791400 0.000000
-11.766900 0.000000
-11.742400 0.000000
-11.717900 0.000000
-11.693400 0.000000
-11.668900 0.000000
-11.644400 0.000000
-11.620000 0.000000
-11.595500 0.000000
-11.571000 0.000000
-11.546500 0.000000
-11.522000 0.000000
-11.497500 0.000000
-11.473000 0.000000
-11.448600 0.000000
-11.424100 0.000000
-11.399600 0.000000
-11.375100 0.000000
-11.350600 0.000000
-11.326100 0.000000
-11.301600 0.000000
-11.277100 0.000000
-11.252700 0.000000
-11.228200 0.000000
-11.203700 0.000000
-11.179200 0.000000
-11.154700 0.000000
-11.130200 0.000000
-11.105700 0.000000
-11.081200 0.000000
-11.056800 0.000000
-11.032300 0.000000
-11.007800 0.000000
-10.983300 0.000000
-10.958800 0.000000
-10.934300 0.000000
-10.909800 0.000000
-10.885400 0.000000
-10.860900 0.000000
-10.836400 0.000000
-10.811900 0.000000
-10.787400 0.000000
-10.762900 0.000000
-10.738400 0.000000
-10.713900 0.000000
-10.689500 0.000000
-10.665000 0.000000
-10.640500 0.000000
-10.616000 0.000000
-10.591500 0.000000
-10.567000 0.000000
-10.542500 0.000000
-10.518000 0.000000
-10.493600 0.000000
-10.469100 0.000000
-10.444600 0.000000
-10.420100 0.000000
-10.395600 0.000000
-10.371100 0.000000
-10.346600 0.000000
-10.322100 0.000000
-10.297700 0.000000
-10.273200 0.000000
-10.248700 0.000000
-10.224200 0.000000
-10.199700 0.000000
-10.175200 0.000000
-10.150700 0.000000
-10.126300 0.000000
-10.101800 0.000000
-10.077300 0.000000
-10.052800 0.000000
-10.028300 0.000000
-10.003800 0.000000
-9.979300 0.000000
-9.954800 0.000000
-9.930400 0.000000
-9.905900 0.000000
-9.881400 0.000000
-9.856900 0.000000
-9.832400 0.000000
-9.807900 0.000000
-9.783400 0.000000
-9.758900 0.000000
-9.734500 0.000000
-9.710000 0.000000
-9.685500 0.000000
-9.661000 0.000000
-9.636500 0.000000
-9.612000 0.000000
-9.587500 0.000000
-9.563100 0.000000
-9.538600 0.000000
-9.514100 0.000000
-9.489600 0.000000
-9.465100 0.000000
-9.440600 0.000000
-9.416100 0.000000
-9.391600 0.000000
-9.367200 0.000000
-9.342700 0.000000
-9.318200 0.000000
-9.293700 0.000000
-9.269200 0.000000
-9.244700 0.000000
-9.220200 0.000000
-9.195700 0.000000
-9.171300 0.000000
-9.146800 0.000000
-9.122300 0.000000
-9.097800 0.000000
-9.073300 0.000000
-9.048800 0.000000
-9.024300 0.000000
-8.999800 0.000000
-8.975400 0.000000
-8.950900 0.000000
-8.926400 0.000000
-8.901900 0.000000
-8.877400 0.000000
-8.852900 0.000000
-8.828400 0.000000
-8.804000 0.000000
-8.779500 0.000000
-8.755000 0.000000
-8.730500 0.000000
-8.706000 0.000000
-8.681500 0.000000
-8.657000 0.000000
-8.632500 0.000000
-8.608100 0.000000
-8.583600 0.000000
-8.559100 0.000000
-8.534600 0.000000
-8.510100 0.000000
-8.485600 0.000000
-8.461100 0.000000
-8.436600 0.000000
-8.412200 0.000000
-8.387700 0.000000
-8.363200 0.000000
-8.338700 0.000000
-8.314200 0.000000
-8.289700 0.000000
-8.265200 0.000000
-8.240700 0.000000
-8.216300 0.000000
-8.191800 0.000000
-8.167300 0.000000
-8.142800 0.000000
-8.118300 0.000000
-8.093800 0.000000
-8.069300 0.000000
-8.044900 0.000000
-8.020400 0.000000
-7.995900 0.000000
-7.971400 0.000000
-7.946900 0.000000
-7.922400 0.000000
-7.897900 0.000000
-7.873400 0.000000
-7.849000 0.000000
-7.824500 0.000000
-7.800000 0.000000
-7.775500 0.000000
-7.751000 0.000000
-7.726500 0.000000
-7.702000 0.000000
-7.677500 0.000000
-7.653100 0.000000
-7.628600 0.000000
-7.604100 0.000000
-7.579600 0.000000
-7.555100 0.000000
-7.530600 0.000000
-7.506100 0.000000
-7.481700 0.000000
-7.457200 0.000000
-7.432700 0.000000
-7.408200 0.000000
-7.383700 0.000000
-7.359200 0.000000
-7.334700 0.000000
-7.310200 0.000000
-7.285800 0.000000
-7.261300 0.000000
-7.236800 0.000000
-7.212300 0.000000
-7.187800 0.000000
-7.163300 0.000000
-7.138800 0.000000
-7.114300 0.000000
-7.089900 0.000000
-7.065400 0.000000
-7.040900 0.000000
-7.016400 0.000000
-6.991900 0.000000
-6.967400 0.000000
-6.942900 0.000000
-6.918400 0.000000
-6.894000 0.000000
-6.869500 0.000000
-6.845000 0.000000
-6.820500 0.000000
-6.796000 0.000000
-6.771500 0.000000
-6.747000 0.000000
-6.722600 0.000000
-6.698100 0.000000
-6.673600 0.000000
-6.649100 0.000000
-6.624600 0.000000
-6.600100 0.000000
-6.575600 0.000000
-6.551100 0.000000
-6.526700 0.000000
-6.502200 0.000000
-6.477700 0.000000
-6.453200 0.000000
-6.428700 0.000000
-6.404200 0.000000
-6.379700 0.000000
-6.355200 0.000000
-6.330800 0.000000
-6.306300 0.000000
-6.281800 0.000000
-6.257300 0.000000
-6.232800 0.000000
-6.208300 0.000000
-6.183800 0.000000
-6.159400 0.000000
-6.134900 0.000000
-6.110400 0.000000
-6.085900 0.000000
-6.061400 0.000000
-6.036900 0.000000
-6.012400 0.000000
-5.987900 0.000000
-5.963500 0.000000
-5.939000 0.000000
-5.914500 0.000000
-5.890000 0.000000
-5.865500 0.000000
-5.841000 0.000000
-5.816500 0.000000
-5.792000 0.000000
-5.767600 0.000000
-5.743100 0.000000
-5.718600 0.000000
-5.694100 0.000000
-5.669600 0.000000
-5.645100 0.000000
-5.620600 0.000000
-5.596100 0.000000
-5.571700 0.000000
-5.547200 0.000000
-5.522700 0.000000
-5.498200 0.000000
-5.473700 0.000000
-5.449200 0.000000
-5.424700 0.000000
-5.400300 0.000000
-5.375800 0.000000
-5.351300 0.000000
-5.326800 0.000000
-5.302300 0.000000
-5.277800 0.000000
-5.253300 0.000000
-5.228800 0.000000
-5.204400 0.000000
-5.179900 0.000000
-5.155400 0.000000
-5.130900 0.000000
-5.106400 0.000000
-5.081900 0.000000
-5.057400 0.000000
-5.032900 0.000000
-5.008500 0.000000
-4.984000 0.000000
-4.959500 0.000000
-4.935000 0.000000
-4.910500 0.000000
-4.886000 0.000000
-4.861500 0.000000
-4.837000 0.000000
-4.812600 0.000000
-4.788100 0.000000
-4.763600 0.000000
-4.739100 0.000000
-4.714600 0.000000
-4.690100 0.000000
-4.665600 0.000000
-4.641200 0.000000
-4.616700 0.000000
-4.592200 0.000000
-4.567700 0.000000
-4.543200 0.000000
-4.518700 0.000000
-4.494200 0.000000
-4.469700 0.000000
-4.445300 0.000000
-4.420800 0.000000
-4.396300 0.000000
-4.371800 0.000000
-4.347300 0.000000
-4.322800 0.000000
-4.298300 0.000000
-4.273800 0.000000
-4.249400 0.000000
-4.224900 0.000000
-4.200400 0.000000
-4.175900 0.000000
-4.151400 0.000000
-4.126900 0.000000
-4.102400 0.000000
-4.078000 0.000000
-4.053500 0.000000
-4.029000 0.000000
-4.004500 0.000000
-3.980000 0.000000
-3.955500 0.000000
-3.931000 0.000000
-3.906500 0.000000
-3.882100 0.000000
-3.857600 0.000000
-3.833100 0.000000
-3.808600 0.000000
-3.784100 0.000000
-3.759600 0.000000
-3.735100 0.000000
-3.710600 0.000000
-3.686200 0.000000
-3.661700 0.000000
-3.637200 0.000000
-3.612700 0.000000
-3.588200 0.000000
-3.563700 0.000000
-3.539200 0.000000
-3.514700 0.000000
-3.490300 0.000000
-3.465800 0.000000
-3.441300 0.000000
-3.416800 0.000000
-3.392300 0.000000
-3.367800 0.000000
-3.343300 0.000000
-3.318900 0.000000
-3.294400 0.000000
-3.269900 0.000000
-3.245400 0.000000
-3.220900 0.000000
-3.196400 0.000000
-3.171900 0.000000
-3.147400 0.000000
-3.123000 0.000000
-3.098500 0.000000
-3.074000 0.000000
-3.049500 0.000000
-3.025000 0.000000
-3.000500 0.000000
-2.976000 0.000000
-2.951500 0.000000
-2.927100 0.000000
-2.902600 0.000000
-2.878100 0.000000
-2.853600 0.000000
-2.829100 0.000000
-2.804600 0.000000
-2.780100 0.000000
-2.755700 0.000000
-2.731200 0.000000
-2.706700 0.000000
-2.682200 0.000000
-2.657700 0.000000
-2.633200 0.000000
-2.608700 0.000000
-2.584200 0.000000
-2.559800 0.000000
-2.535300 0.000000
-2.510800 0.000000
-2.486300 0.000000
-2.461800 0.000000
-2.437300 0.000000
-2.412800 0.000000
-2.388300 0.000000
-2.363900 0.000000
-2.339400 0.000000
-2.314900 0.000000
-2.290400 0.000000
-2.265900 0.000000
-2.241400 0.000000
-2.216900 0.000000
-2.192400 0.000000
-2.168000 0.000000
-2.143500 0.000000
-2.119000 0.000000
-2.094500 0.000000
-2.070000 0.000000
-2.045500 0.000000
-2.021000 0.000000
-1.996600 0.000000
-1.972100 0.000000
-1.947600 0.000000
-1.923100 0.000000
-1.898600 0.000000
-1.874100 0.000000
-1.849600 0.000000
-1.825100 0.000000
-1.800700 0.000000
-1.776200 0.000000
-1.751700 0.000000
-1.727200 0.000000
-1.702700 0.000000
-1.678200 0.000000
-1.653700 0.000000
-1.629200 0.000000
-1.604800 0.000000
-1.580300 0.000000
-1.555800 0.000000
-1.531300 0.000000
-1.506800 0.006100
-1.482300 0.042300
-1.457800 0.111100
-1.433300 0.974900
-1.408900 2.080500
-1.384400 2.877000
-1.359900 3.195600
-1.335400 3.361800
-1.310900 3.504300
-1.286400 3.652500
-1.261900 4.101800
-1.237500 4.685700
-1.213000 5.359100
-1.188500 6.161800
-1.164000 6.785000
-1.139500 6.111900
-1.115000 6.177400
-1.090500 7.159000
-1.066000 9.214100
-1.041600 11.735500
-1.017100 15.591400
-0.992600 13.111400
-0.968100 12.686300
-0.943600 10.446500
-0.919100 8.118900
-0.894600 8.553500
-0.870100 13.062400
-0.845700 11.831700
-0.821200 12.540200
-0.796700 12.529200
-0.772200 14.112700
-0.747700 14.030400
-0.723200 15.657500
-0.698700 14.362800
-0.674300 15.521700
-0.649800 17.869300
-0.625300 12.812500
-0.600800 11.597200
-0.576300 10.156400
-0.551800 15.880900
-0.527300 14.318500
-0.502800 12.044300
-0.478400 11.600300
-0.453900 11.131800
-0.429400 14.258400
-0.404900 21.513400
-0.380400 19.950300
-0.355900 17.612900
-0.331400 11.756800
-0.306900 14.763400
-0.282500 18.193200
-0.258000 16.596200
-0.233500 15.706400
-0.209000 21.228800
-0.184500 22.877300
-0.160000 20.493800
-0.135500 23.066700
-0.111000 25.350500
-0.086600 22.899700
-0.062100 23.625100
-0.037600 24.007900
-0.013100 19.870700
0.011400 20.229400
0.035900 14.450600
0.060400 13.420600
0.084800 17.095000
0.109300 20.240000
0.133800 18.946100
0.158300 18.463400
0.182800 21.162100
0.207300 17.894000
0.231800 17.224800
0.256300 18.223000
0.280700 15.024400
0.305200 19.944600
0.329700 24.610600
0.354200 17.527700
0.378700 14.754200
0.403200 16.502700
0.427700 19.692200
0.452200 18.905400
0.476600 15.919800
0.501100 17.473700
0.525600 20.386000
0.550100 15.331000
0.574600 14.075200
0.599100 15.143500
0.623600 15.863000
0.648000 16.365300
0.672500 19.383700
0.697000 15.827900
0.721500 10.656200
0.746000 11.854100
0.770500 13.015300
0.795000 14.322800
0.819500 15.762500
0.843900 16.930300
0.868400 22.577800
0.892900 20.696800
0.917400 17.700900
0.941900 16.597800
0.966400 12.461000
0.990900 9.536800
1.015400 10.702500
1.039800 19.546300
1.064300 26.135600
1.088800 24.213600
1.113300 13.643200
1.137800 14.095500
1.162300 16.564500
1.186800 21.891600
1.211300 31.071700
1.235700 15.890800
1.260200 18.495200
1.284700 25.225500
1.309200 19.065700
1.333700 5.030600
1.358200 7.732200
1.382700 17.366100
1.407100 27.257900
1.431600 27.587200
1.456100 27.077100
1.480600 19.660000
1.505100 16.468000
1.529600 19.543600
1.554100 22.995200
1.578600 19.249900
1.603000 17.892100
1.627500 19.242600
1.652000 20.438100
1.676500 18.857500
1.701000 18.410000
1.725500 13.392600
1.750000 10.478300
1.774500 10.132800
1.798900 10.641000
1.823400 36.071500
1.847900 25.450800
1.872400 18.788600
1.896900 18.074200
1.921400 18.902500
1.945900 21.237500
1.970400 10.329100
1.994800 4.275400
2.019300 2.031700
2.043800 0.380000
2.068300 0.000000
2.092800 0.000000
2.117300 0.000000
2.141800 0.000000
2.166200 0.000000
2.190700 0.000000
2.215200 0.000000
2.239700 0.000000
2.264200 0.000000
2.288700 0.000000
2.313200 0.000000
2.337700 0.000000
2.362100 0.000000
2.386600 0.000000
2.411100 0.000000
2.435600 0.000000
2.460100 0.000000
2.484600 0.000000
2.509100 0.000000
2.533600 0.000000
2.558000 0.000000
2.582500 0.000000
2.607000 0.000000
2.631500 0.000000
2.656000 0.000000
2.680500 0.000000
2.705000 0.000000
2.729400 0.000000
2.753900 0.000000
2.778400 0.000000
2.802900 0.000000
2.827400 0.000000
2.851900 0.000000
2.876400 0.000000
2.900900 0.000000
2.925300 0.000000
2.949800 0.000000
2.974300 0.000000
2.998800 0.000000
3.023300 0.000000
3.047800 0.000000
3.072300 0.000000
3.096800 0.000000
3.121200 0.000000
3.145700 0.000000
3.170200 0.000000
3.194700 0.000000
3.219200 0.000000
3.243700 0.000000
3.268200 0.000000
3.292700 0.000000
3.317100 0.000000
3.341600 0.000000
3.366100 0.000000
3.390600 0.000000
3.415100 0.000000
3.439600 0.000000
3.464100 0.000000
3.488500 0.000000
3.513000 0.000000
3.537500 0.000000
3.562000 0.000000
3.586500 0.000000
3.611000 0.000000
3.635500 0.000000
3.660000 0.000000
3.684400 0.000000
3.708900 0.000000
3.733400 0.000000
3.757900 0.000000
3.782400 0.000000
3.806900 0.000000
3.831400 0.000000
3.855900 0.000000
3.880300 0.000000
3.904800 0.000000
3.929300 0.000000
3.953800 0.000000
3.978300 0.000000
4.002800 0.000000
4.027300 0.000000
4.051700 0.000000
4.076200 0.000000
4.100700 0.000000
4.125200 0.000000
4.149700 0.000000
4.174200 0.000000
4.198700 0.000000
4.223200 0.000000
4.247600 0.000000
4.272100 0.000000
4.296600 0.000000
4.321100 0.000000
4.345600 0.000000
4.370100 0.000000
4.394600 0.000000
4.419100 0.000000
4.443500 0.000000
4.468000 0.000000
4.492500 0.000000
4.517000 0.000000
4.541500 0.000000
4.566000 0.000000
4.590500 0.000000
4.615000 0.000000
4.639400 0.000000
4.663900 0.000000
4.688400 0.000000
4.712900 0.000000
4.737400 0.000000
4.761900 0.000000
4.786400 0.000000
4.810800 0.000000
4.835300 0.000000
4.859800 0.000000
4.884300 0.000000
4.908800 0.000000
4.933300 0.000000
4.957800 0.000000
4.982300 0.000000
5.006700 0.000000
5.031200 0.000000
5.055700 0.000000
5.080200 0.000000
5.104700 0.000000
5.129200 0.000000
5.153700 0.000000
5.178200 0.000000
5.202600 0.000000
5.227100 0.000000
5.251600 0.000000
5.276100 0.000000
5.300600 0.000000
5.325100 0.000000
5.349600 0.000000
5.374100 0.000000
5.398500 0.000000
5.423000 0.000000
5.447500 0.000000
5.472000 0.000000
5.496500 0.000000
5.521000 0.000000
5.545500 0.000000
5.569900 0.000000
5.594400 0.000000
5.618900 0.000000
5.643400 0.000000
5.667900 0.000000
5.692400 0.000000
5.716900 0.000000
5.741400 0.000000
5.765800 0.000000
5.790300 0.000000
5.814800 0.000000
5.839300 0.000000
5.863800 0.000000
5.888300 0.000000
5.912800 0.000000
5.937300 0.000000
5.961700 0.000000
5.986200 0.000000
6.010700 0.000000
6.035200 0.000200
6.059700 0.080700
6.084200 0.189900
6.108700 0.327900
6.133100 0.494700
6.157600 0.689000
6.182100 0.900200
6.206600 1.168100
6.231100 1.451300
6.255600 1.712600
6.280100 1.940600
6.304600 2.155700
6.329000 2.362300
6.353500 2.555000
6.378000 2.631400
6.402500 2.682000
6.427000 2.604200
6.451500 2.509600
6.476000 2.476400
6.500500 2.502500
6.524900 2.557500
6.549400 2.631600
6.573900 2.682600
6.598400 2.701900
6.622900 2.695800
6.647400 2.732700
6.671900 2.859400
6.696400 3.137000
6.720800 4.031800
6.745300 5.337700
6.769800 5.837000
6.794300 5.825800
6.818800 5.408200
6.843300 5.284400
6.867800 5.210700
6.892200 5.097900
6.916700 4.882300
6.941200 4.672300
6.965700 4.789600
6.990200 5.204400
7.014700 5.774800
7.039200 6.238100
7.063700 6.655200
7.088100 7.036900
7.112600 7.494600
7.137100 8.352700
7.161600 10.044100
7.186100 9.263000
7.210600 9.146100
7.235100 8.955100
7.259600 8.062700
7.284000 7.215200
7.308500 6.771100
7.333000 6.745500
7.357500 7.959600
7.382000 9.942500
7.406500 9.454200
7.431000 7.591500
7.455500 6.647400
7.479900 6.375400
7.504400 6.212800
7.528900 4.839400
7.553400 3.903500
7.577900 3.831900
7.602400 3.869800
7.626900 3.926000
7.651300 4.020300
7.675800 4.210700
7.700300 4.566200
7.724800 5.268600
7.749300 7.412400
7.773800 10.022300
7.798300 11.274000
7.822800 11.660100
7.847200 8.344300
7.871700 7.915800
7.896200 6.905500
7.920700 8.004200
7.945200 10.711700
7.969700 10.050400
7.994200 2.741100
8.018700 1.431800
8.043100 2.281500
8.067600 6.036700
8.092100 9.205500
8.116600 10.288500
8.141100 10.708500
8.165600 12.702800
8.190100 13.460500
8.214500 12.323800
8.239000 11.931800
8.263500 11.696700
8.288000 13.504600
8.312500 15.819000
8.337000 15.660000
8.361500 15.169400
8.386000 14.689300
8.410400 13.539000
8.434900 13.890900
8.459400 13.691600
8.483900 14.727800
8.508400 16.243600
8.532900 14.689400
8.557400 13.021100
8.581900 9.962800
8.606300 8.895900
8.630800 10.530400
8.655300 9.956600
8.679800 9.298300
8.704300 8.441400
8.728800 8.955900
8.753300 11.109800
8.777800 13.377300
8.802200 12.813300
8.826700 12.478200
8.851200 12.653900
8.875700 9.892200
8.900200 7.937900
8.924700 8.935500
8.949200 8.528300
8.973600 6.046900
8.998100 7.165000
9.022600 9.111900
9.047100 9.712100
9.071600 9.869500
9.096100 9.455200
9.120600 9.765100
9.145100 12.063800
9.169500 15.717400
9.194000 17.978300
9.218500 17.742300
9.243000 14.806100
9.267500 13.453300
9.292000 13.462500
9.316500 12.255700
9.341000 12.069700
9.365400 12.101700
9.389900 12.774300
9.414400 16.307300
9.438900 13.930500
9.463400 15.874800
9.487900 16.741900
9.512400 15.700900
9.536800 16.978100
9.561300 11.857000
9.585800 13.822600
9.610300 15.007600
9.634800 12.651000
9.659300 10.862800
9.683800 10.661200
9.708300 10.348400
9.732700 10.997200
9.757200 12.730400
9.781700 12.204800
9.806200 10.493100
9.830700 9.036300
9.855200 6.894700
9.879700 6.826600
9.904200 7.937400
9.928600 8.454400
9.953100 9.176200
9.977600 10.467300
10.002100 12.652300
10.026600 13.265700
10.051100 12.480400
10.075600 12.249800
10.100100 12.579300
10.124500 12.996200
10.149000 11.953500
10.173500 11.154100
10.198000 11.073500
10.222500 11.557900
10.247000 11.057900
10.271500 9.456200
10.295900 8.796300
10.320400 9.596300
10.344900 10.463700
10.369400 11.571700
10.393900 11.277500
10.418400 10.635200
10.442900 10.166400
10.467400 9.626600
10.491800 8.865000
10.516300 8.014600
10.540800 7.349500
10.565300 7.671400
10.589800 9.857400
10.614300 10.589300
10.638800 11.369500
10.663300 10.970000
10.687700 8.942600
10.712200 8.123700
10.736700 7.884300
10.761200 8.638500
10.785700 10.023100
10.810200 15.312300
10.834700 21.320500
10.859200 13.206600
10.883600 12.665500
10.908100 16.223300
10.932600 19.393300
10.957100 10.166700
10.981600 12.206700
11.006100 12.868300
11.030600 10.681600
11.055000 10.323500
11.079500 10.747400
11.104000 9.962100
11.128500 9.821200
11.153000 10.867600
11.177500 12.002800
11.202000 12.129800
11.226500 13.183100
11.250900 12.164300
11.275400 11.365100
11.299900 10.698100
11.324400 15.298200
11.348900 12.430800
11.373400 7.120500
11.397900 6.031700
11.422400 5.685800
11.446800 5.970800
11.471300 6.902200
11.495800 6.877700
11.520300 6.973300
11.544800 8.344200
11.569300 11.092500
11.593800 12.435000
11.618200 12.811800
11.642700 10.952900
11.667200 10.027500
11.691700 9.373200
11.716200 11.546400
11.740700 15.485700
11.765200 13.691200
11.789700 11.294400
11.814100 10.270600
11.838600 9.959400
11.863100 10.224600
11.887600 11.215600
11.912100 14.492600
11.936600 13.504800
11.961100 10.276200
11.985600 9.680300
12.010000 8.631500
12.034500 7.595700
12.059000 7.136800
12.083500 7.201600
12.108000 7.028800
12.132500 7.264100
12.157000 7.756300
12.181500 8.913400
12.205900 10.557100
12.230400 10.754800
12.254900 10.162000
12.279400 9.171100
12.303900 7.585700
12.328400 6.228300
12.352900 5.633300
12.377300 5.639700
12.401800 5.812600
12.426300 5.060000
12.450800 5.188200
12.475300 5.644300
12.499800 6.869600
12.524300 7.889200
12.548800 8.500800
12.573200 8.716500
12.597700 6.788600
12.622200 5.665600
12.646700 5.390000
12.671200 5.236600
12.695700 5.307700
12.720200 5.673100
12.744700 6.356900
12.769100 7.306400
12.793600 8.330500
12.818100 8.939700
12.842600 9.283800
12.867100 9.489600
12.891600 9.803000
12.916100 10.371200
12.940500 10.299200
12.965000 10.164700
12.989500 10.061800
13.014000 11.620400
13.038500 14.217800
13.063000 15.408100
13.087500 11.272700
13.112000 10.674000
13.136400 7.092400
13.160900 6.653300
13.185400 6.620400
13.209900 6.754200
13.234400 6.466800
13.258900 5.964100
13.283400 5.669900
13.307900 5.342800
13.332300 4.952500
13.356800 4.440500
13.381300 4.223000
13.405800 4.134100
13.430300 4.415900
13.454800 4.597300
13.479300 4.688500
13.503800 4.768100
13.528200 4.710500
13.552700 4.508700
13.577200 4.163500
13.601700 3.908200
13.626200 3.614600
13.650700 3.399600
13.675200 3.315600
13.699600 3.240700
13.724100 3.189100
13.748600 3.144600
13.773100 3.112900
13.797600 3.084200
13.822100 3.053800
13.846600 3.001500
13.871100 2.985200
13.895500 2.979400
13.920000 2.987100
13.944500 3.023300
13.969000 3.097900
13.993500 3.213100
14.018000 3.368900
14.042500 3.965600
14.067000 3.855600
14.091400 3.851600
14.115900 3.833400
14.140400 3.824500
14.164900 3.823700
14.189400 3.831400
14.213900 3.844900
14.238400 3.861400
14.262900 3.883200
14.287300 3.908800
14.311800 3.938100
14.336300 3.967200
14.360800 3.991700
14.385300 3.952800
14.409800 3.925500
14.434300 3.950300
14.458700 4.037800
14.483200 4.134500
14.507700 4.240700
14.532200 4.362800
14.556700 4.496700
14.581200 4.680300
14.605700 4.907300
14.630200 5.262700
14.654600 5.602100
14.679100 5.925900
14.703600 6.262600
14.728100 6.552300
14.752600 6.723500
14.777100 6.883000
14.801600 7.143400
14.826100 7.597700
14.850500 8.538900
14.875000 9.569600
14.899500 10.518900
14.924000 21.641400
14.948500 41.310500
14.973000 39.042300
14.997500 47.152600
15.021900 28.787200
15.046400 21.134400
15.070900 18.770600
15.095400 17.796800
15.119900 18.879600
15.144400 23.363400
15.168900 62.076000
15.193400 17.017400
15.217800 13.919300
15.242300 10.901000
15.266800 9.811000
15.291300 8.993100
15.315800 8.259800
15.340300 7.768800
15.364800 8.441300
15.389300 7.851100
15.413700 7.557100
15.438200 7.266600
15.462700 7.393100
15.487200 7.677100
15.511700 7.815100
15.536200 6.978900
15.560700 5.834800
15.585200 5.562200
15.609600 5.333200
15.634100 4.878000
15.658600 4.771600
15.683100 4.577100
15.707600 4.309300
15.732100 4.069100
15.756600 3.673300
15.781000 3.636100
15.805500 3.788900
15.830000 4.034700
15.854500 4.460700
15.879000 4.996000
15.903500 5.609600
15.928000 6.272100
15.952500 6.760500
15.976900 7.295500
16.001400 8.857500
16.025900 7.384100
16.050400 6.355900
16.074900 4.792800
16.099400 3.271200
16.123900 2.417300
16.148400 3.576700
16.172800 4.756200
16.197300 5.494200
16.221800 5.706900
16.246300 5.741300
16.270800 5.602900
16.295300 5.205400
16.319800 4.871200
16.344200 4.645000
16.368700 4.732600
16.393200 4.730100
16.417700 4.841600
16.442200 5.113200
16.466700 5.464500
16.491200 5.909100
16.515700 6.548100
16.540100 6.874600
16.564600 7.086100
16.589100 6.669600
16.613600 6.095000
16.638100 5.162800
16.662600 4.913400
16.687100 4.819500
16.711600 4.773400
16.736000 5.087600
16.760500 5.608500
16.785000 6.295800
16.809500 7.233500
16.834000 7.881800
16.858500 7.339300
16.883000 6.561000
16.907500 6.072200
16.931900 5.711300
16.956400 4.803000
16.980900 4.851400
17.005400 4.882500
17.029900 4.919200
17.054400 5.060900
17.078900 5.249600
17.103300 5.371500
17.127800 5.495100
17.152300 5.616700
17.176800 5.792600
17.201300 6.002900
17.225800 6.222500
17.250300 6.412200
17.274800 6.614500
17.299200 6.386500
17.323700 5.732200
17.348200 5.150900
17.372700 5.002900
17.397200 4.951200
17.421700 4.905300
17.446200 4.922600
17.470700 5.177800
17.495100 5.575300
17.519600 5.796600
17.544100 5.803000
17.568600 5.886200
17.593100 5.953200
17.617600 5.972900
17.642100 6.015400
17.666600 5.645400
17.691000 5.471400
17.715500 5.772100
17.740000 5.819100
17.764500 5.807900
17.789000 5.856400
17.813500 6.112400
17.838000 6.790000
17.862400 7.895000
17.886900 9.036700
17.911400 8.173600
17.935900 7.662600
17.960400 7.248000
17.984900 7.011700
18.009400 6.907000
18.033900 6.881000
18.058300 6.817800
18.082800 6.098600
18.107300 5.773600
18.131800 5.623600
18.156300 5.553200
18.180800 5.439600
18.205300 5.359600
18.229800 5.449200
18.254200 5.552400
18.278700 5.629000
18.303200 5.702700
18.327700 5.891800
18.352200 5.915400
18.376700 6.019600
18.401200 6.111300
18.425600 6.072200
18.450100 6.112400
18.474600 6.014600
18.499100 5.805000
18.523600 5.440800
18.548100 5.069100
18.572600 5.332600
18.597100 5.962200
18.621500 5.907100
18.646000 5.885800
18.670500 8.131500
18.695000 9.129400
18.719500 10.226700
18.744000 9.036900
18.768500 6.717700
18.793000 6.685200
18.817400 6.785600
18.841900 6.419300
18.866400 6.078100
18.890900 5.870100
18.915400 5.634300
18.939900 5.302700
18.964400 5.048900
18.988900 5.061200
19.013300 5.464500
19.037800 5.844500
19.062300 6.286700
19.086800 6.701400
19.111300 6.654600
19.135800 5.770200
19.160300 5.914700
19.184700 6.431000
19.209200 6.941300
19.233700 8.009700
19.258200 9.194300
19.282700 9.953600
19.307200 9.565600
19.331700 9.675600
19.356200 10.104700
19.380600 9.225100
19.405100 8.454600
19.429600 8.863300
19.454100 8.502000
19.478600 8.767400
19.503100 7.917600
19.527600 7.795900
19.552100 7.122200
19.576500 7.008400
19.601000 7.014700
19.625500 7.401800
19.650000 7.611900
19.674500 7.907600
19.699000 8.177200
19.723500 8.442000
19.747900 8.334500
19.772400 7.057800
19.796900 6.424500
19.821400 6.161100
19.845900 8.111600
19.870400 7.993900
19.894900 8.337000
19.919400 8.572200
19.943800 8.552500
19.968300 8.362100
19.992800 8.124200
20.017300 7.874800
20.041800 7.322200
20.066300 5.970300
20.090800 5.486400
20.115300 5.303800
20.139700 5.368900
20.164200 5.436700
20.188700 5.508500
20.213200 5.590500
20.237700 5.738100
20.262200 5.908300
20.286700 6.166800
20.311200 6.488500
20.335600 6.617700
20.360100 6.509100
20.384600 6.178200
20.409100 5.981100
20.433600 6.043000
20.458100 6.137000
20.482600 6.302200
20.507000 6.677900
20.531500 6.577500
20.556000 6.029000
20.580500 5.928100
20.605000 6.198400
20.629500 5.715800
20.654000 5.608900
20.678500 5.647100
20.702900 5.654500
20.727400 5.870600
20.751900 6.237400
20.776400 6.044300
20.800900 5.812800
20.825400 5.661800
20.849900 5.880000
20.874400 6.342600
20.898800 6.628400
20.923300 6.524500
20.947800 7.140500
20.972300 7.576500
20.996800 7.617800
21.021300 7.298300
21.045800 6.505300
21.070300 6.214100
21.094700 6.484300
21.119200 6.699700
21.143700 7.066900
21.168200 7.292100
21.192700 7.497400
21.217200 7.515500
21.241700 7.514300
21.266100 7.344200
21.290600 7.720300
21.315100 7.105000
21.339600 6.774600
21.364100 6.482900
21.388600 6.297100
21.413100 6.304000
21.437600 6.325400
21.462000 6.586200
21.486500 6.836200
21.511000 7.055100
21.535500 7.265200
21.560000 7.448300
21.584500 8.312800
21.609000 6.842100
21.633500 6.628500
21.657900 6.792800
21.682400 6.906100
21.706900 6.754700
21.731400 6.204100
21.755900 5.882900
21.780400 5.630500
21.804900 5.403300
21.829300 5.076000
21.853800 4.764600
21.878300 5.589900
21.902800 6.654200
21.927300 7.628600
21.951800 8.442500
21.976300 8.992500
22.000800 7.380900
22.025200 6.918900
22.049700 6.349900
22.074200 6.702400
22.098700 7.045400
22.123200 7.543000
22.147700 7.429800
22.172200 6.680100
22.196700 6.446900
22.221100 6.134700
22.245600 5.976100
22.270100 5.740400
22.294600 5.563300
22.319100 5.381400
22.343600 5.232900
22.368100 4.950600
22.392600 4.757000
22.417000 6.007900
22.441500 6.134600
22.466000 6.271400
22.490500 6.346500
22.515000 6.452500
22.539500 6.769200
22.564000 7.314800
22.588400 7.891600
22.612900 7.083800
22.637400 6.674100
22.661900 6.182500
22.686400 5.961200
22.710900 5.852900
22.735400 5.672200
22.759900 5.480500
22.784300 5.404800
22.808800 5.614600
22.833300 5.730500
22.857800 6.371600
22.882300 6.940000
22.906800 7.061700
22.931300 7.063400
22.955800 6.885900
22.980200 5.450300
23.004700 4.969300
23.029200 4.913600
23.053700 4.545200
23.078200 4.259900
23.102700 4.605900
23.127200 5.225100
23.151600 6.375000
23.176100 6.536600
23.200600 6.803400
23.225100 7.035700
23.249600 6.978100
23.274100 6.962500
23.298600 6.688500
23.323100 6.341900
23.347500 6.375600
23.372000 6.511300
23.396500 6.722400
23.421000 7.067800
23.445500 7.422600
23.470000 7.507200
23.494500 7.225300
23.519000 6.890700
23.543400 6.439600
23.567900 6.288400
23.592400 6.167600
23.616900 5.811400
23.641400 5.834200
23.665900 5.915400
23.690400 6.211600
23.714900 6.339400
23.739300 6.983400
23.763800 7.458900
23.788300 6.748900
23.812800 6.626400
23.837300 7.046600
23.861800 7.417400
23.886300 7.139000
23.910700 7.410400
23.935200 7.287100
23.959700 7.030600
23.984200 7.368000
24.008700 7.506900
24.033200 8.061500
24.057700 7.706200
24.082200 7.013300
24.106600 6.396800
24.131100 6.471700
24.155600 6.774100
24.180100 6.636200
24.204600 6.684000
24.229100 6.545000
24.253600 6.245500
24.278100 5.895700
24.302500 5.616600
24.327000 5.489300
24.351500 5.676100
24.376000 6.216900
24.400500 6.662700
24.425000 6.771000
24.449500 6.777600
24.474000 6.934800
24.498400 7.535600
24.522900 7.651300
24.547400 7.138600
24.571900 7.054300
24.596400 7.225200
24.620900 7.191600
24.645400 6.433600
24.669800 5.780900
24.694300 5.614500
24.718800 5.506700
24.743300 5.339300
24.767800 5.153400
24.792300 5.064600
24.816800 4.924000
24.841300 4.445400
24.865700 4.795100
24.890200 4.735600
24.914700 4.491200
24.939200 4.311400
24.963700 4.302500
24.988200 4.417100
25.012700 4.062200
25.037200 3.814200
25.061600 3.587500
25.086100 3.529200
25.110600 3.523900
25.135100 3.326900
25.159600 2.886000
25.184100 2.674700
25.208600 2.441300
25.233000 2.195300
25.257500 1.926800
25.282000 1.691100
25.306500 1.526800
25.331000 1.387300
25.355500 1.284400
25.380000 1.113400
25.404500 0.853900
25.428900 0.506100
25.453400 0.253000
25.477900 0.179900
25.502400 0.133100
25.526900 0.091900
25.551400 0.056300
25.575900 0.026300
25.600400 0.001900
25.624800 0.000000
25.649300 0.000000
25.673800 0.000000
25.698300 0.000000
25.722800 0.000000
25.747300 0.000000
25.771800 0.000000
25.796300 0.000000
25.820700 0.000000
25.845200 0.000000
25.869700 0.000000
25.894200 0.000000
25.918700 0.000000
25.943200 0.000000
25.967700 0.000000
25.992100 0.000000
26.016600 0.000000
26.041100 0.000000
26.065600 0.000000
26.090100 0.000000
26.114600 0.000000
26.139100 0.000000
26.163600 0.000000
26.188000 0.000000
26.212500 0.000000
26.237000 0.000000
26.261500 0.000000
26.286000 0.000000
26.310500 0.000000
26.335000 0.000000
26.359500 0.000000
26.383900 0.000000
26.408400 0.000000
26.432900 0.000000
26.457400 0.000000
26.481900 0.000000
26.506400 0.000000
26.530900 0.000000
26.555300 0.000000
26.579800 0.000000
26.604300 0.000000
26.628800 0.000000
26.653300 0.000000
26.677800 0.000000
26.702300 0.000000
26.726800 0.000000
26.751200 0.000000
26.775700 0.000000
26.800200 0.000000
26.824700 0.000000
26.849200 0.000000
26.873700 0.000000
26.898200 0.000000
26.922700 0.000000
26.947100 0.000000
26.971600 0.000000
26.996100 0.000000
27.020600 0.000000
27.045100 0.000000
27.069600 0.000000
27.094100 0.000000
27.118600 0.000000
27.143000 0.000000
27.167500 0.000000
27.192000 0.000000
27.216500 0.000000
27.241000 0.000000
27.265500 0.000000
27.290000 0.000000
27.314400 0.000000
27.338900 0.000000
27.363400 0.000000
27.387900 0.000000
27.412400 0.000000
27.436900 0.000000
27.461400 0.000000
27.485900 0.000000
27.510300 0.000000
27.534800 0.000000
27.559300 0.000000
27.583800 0.000000
27.608300 0.000000
27.632800 0.000000
27.657300 0.000000
27.681800 0.000000
27.706200 0.000000
27.730700 0.000000
27.755200 0.000000
27.779700 0.000000
27.804200 0.000000
27.828700 0.000000
e
