set title 'mp-7487 - Density of States'
set xlabel 'Energy (eV)'
set ylabel 'DOS (states/eV)'
set grid
set xrange [-10:10]
set yrange [0:20.586]
set xzeroaxis lt -1
set terminal png size 800,600
set output 'mp-7487_dos_gnuplot.png'
plot '-' using 1:2 with lines title 'DOS'
-27.760200 0.000000
-27.722600 0.000000
-27.684900 0.000000
-27.647200 0.000000
-27.609600 0.000000
-27.571900 0.000000
-27.534300 0.000000
-27.496600 0.000000
-27.458900 0.000000
-27.421300 0.000000
-27.383600 0.000000
-27.346000 0.000000
-27.308300 0.000000
-27.270600 0.000000
-27.233000 0.000000
-27.195300 0.000000
-27.157700 0.000000
-27.120000 0.000000
-27.082300 0.000000
-27.044700 0.000000
-27.007000 0.000000
-26.969400 0.000000
-26.931700 0.000000
-26.894000 0.000000
-26.856400 0.000000
-26.818700 0.000000
-26.781100 0.000000
-26.743400 0.000000
-26.705700 0.000000
-26.668100 0.000000
-26.630400 0.000000
-26.592800 0.000000
-26.555100 0.000000
-26.517400 0.000000
-26.479800 0.000000
-26.442100 0.000000
-26.404500 0.000000
-26.366800 0.000000
-26.329100 0.000000
-26.291500 0.000000
-26.253800 0.000000
-26.216200 0.000000
-26.178500 0.000000
-26.140800 0.000000
-26.103200 0.000000
-26.065500 0.000000
-26.027900 0.000000
-25.990200 0.000000
-25.952500 0.000000
-25.914900 0.000000
-25.877200 0.000000
-25.839600 0.000000
-25.801900 0.000000
-25.764200 0.000000
-25.726600 0.000000
-25.688900 0.000000
-25.651300 0.000000
-25.613600 0.000000
-25.575900 0.000000
-25.538300 0.000000
-25.500600 0.000000
-25.463000 0.000000
-25.425300 0.000000
-25.387600 0.000000
-25.350000 0.000000
-25.312300 0.000000
-25.274700 0.000000
-25.237000 0.000000
-25.199300 0.000000
-25.161700 0.000000
-25.124000 0.000000
-25.086300 0.000000
-25.048700 0.000000
-25.011000 0.000000
-24.973400 0.000000
-24.935700 0.000000
-24.898000 0.000000
-24.860400 0.000000
-24.822700 0.000000
-24.785100 0.000000
-24.747400 0.000000
-24.709700 0.000000
-24.672100 0.000000
-24.634400 0.000000
-24.596800 0.000000
-24.559100 0.000000
-24.521400 0.000000
-24.483800 0.000000
-24.446100 0.000000
-24.408500 0.000000
-24.370800 0.000000
-24.333100 0.018700
-24.295500 2.274200
-24.257800 3.542400
-24.220200 5.599100
-24.182500 8.316300
-24.144800 13.003500
-24.107200 23.711600
-24.069500 35.169000
-24.031900 10.073900
-23.994200 2.120100
-23.956500 0.000000
-23.918900 0.000000
-23.881200 0.000000
-23.843600 0.000000
-23.805900 0.000000
-23.768200 0.000000
-23.730600 0.000000
-23.692900 0.000000
-23.655300 0.000000
-23.617600 0.000000
-23.579900 0.000000
-23.542300 0.000000
-23.504600 0.000000
-23.467000 0.000000
-23.429300 0.000000
-23.391600 0.000000
-23.354000 0.000000
-23.316300 0.000000
-23.278700 0.000000
-23.241000 0.000000
-23.203300 0.000000
-23.165700 0.000000
-23.128000 0.000000
-23.090400 0.000000
-23.052700 0.000000
-23.015000 0.000000
-22.977400 0.000000
-22.939700 0.000000
-22.902100 0.000000
-22.864400 0.000000
-22.826700 0.000000
-22.789100 0.000000
-22.751400 0.000000
-22.713800 0.000000
-22.676100 0.000000
-22.638400 0.000000
-22.600800 0.000000
-22.563100 0.000000
-22.525500 0.000000
-22.487800 0.000000
-22.450100 0.000000
-22.412500 0.000000
-22.374800 0.000000
-22.337200 0.000000
-22.299500 0.000000
-22.261800 0.000000
-22.224200 0.000000
-22.186500 0.000000
-22.148900 0.000000
-22.111200 0.000000
-22.073500 0.000000
-22.035900 0.000000
-21.998200 0.000000
-21.960600 0.000000
-21.922900 0.000000
-21.885200 0.000000
-21.847600 0.000000
-21.809900 0.000000
-21.772300 0.000000
-21.734600 0.000000
-21.696900 0.000000
-21.659300 0.000000
-21.621600 0.000000
-21.584000 0.000000
-21.546300 0.000000
-21.508600 0.000000
-21.471000 0.000000
-21.433300 0.000000
-21.395700 0.000000
-21.358000 0.000000
-21.320300 0.000000
-21.282700 0.000000
-21.245000 0.000000
-21.207400 0.000000
-21.169700 0.000000
-21.132000 0.000000
-21.094400 0.000000
-21.056700 0.000000
-21.019100 0.000000
-20.981400 0.000000
-20.943700 0.000000
-20.906100 0.000000
-20.868400 0.000000
-20.830800 0.000000
-20.793100 0.000000
-20.755400 0.000000
-20.717800 0.000000
-20.680100 0.000000
-20.642500 0.000000
-20.604800 0.000000
-20.567100 0.000000
-20.529500 0.000000
-20.491800 0.000000
-20.454200 0.000000
-20.416500 0.000000
-20.378800 0.000000
-20.341200 0.000000
-20.303500 0.000000
-20.265900 0.000000
-20.228200 0.000000
-20.190500 0.000000
-20.152900 0.000000
-20.115200 0.000000
-20.077600 0.000000
-20.039900 0.000000
-20.002200 0.000000
-19.964600 0.000000
-19.926900 0.000000
-19.889300 0.000000
-19.851600 0.000000
-19.813900 0.000000
-19.776300 0.000000
-19.738600 0.000000
-19.701000 0.000000
-19.663300 0.000000
-19.625600 0.000000
-19.588000 0.000000
-19.550300 0.000000
-19.512700 0.000000
-19.475000 0.000000
-19.437300 0.000000
-19.399700 0.000000
-19.362000 0.000000
-19.324400 0.000000
-19.286700 0.000000
-19.249000 0.000000
-19.211400 0.000000
-19.173700 0.000000
-19.136100 0.000000
-19.098400 0.000000
-19.060700 0.000000
-19.023100 0.000000
-18.985400 0.000000
-18.947800 0.000000
-18.910100 0.000000
-18.872400 0.000000
-18.834800 0.000000
-18.797100 0.000000
-18.759500 0.000000
-18.721800 0.000000
-18.684100 0.000000
-18.646500 0.000000
-18.608800 0.000000
-18.571200 0.000000
-18.533500 0.000000
-18.495800 0.000000
-18.458200 0.000000
-18.420500 0.000000
-18.382900 0.000000
-18.345200 0.000000
-18.307500 0.000000
-18.269900 0.000000
-18.232200 0.000000
-18.194600 0.000000
-18.156900 0.000000
-18.119200 0.000000
-18.081600 0.000000
-18.043900 0.000000
-18.006300 0.000000
-17.968600 0.000000
-17.930900 0.000000
-17.893300 0.000000
-17.855600 0.000000
-17.818000 0.000000
-17.780300 0.000000
-17.742600 0.000000
-17.705000 0.000000
-17.667300 0.000000
-17.629700 0.000000
-17.592000 0.000000
-17.554300 0.000000
-17.516700 0.000000
-17.479000 0.000000
-17.441400 0.000000
-17.403700 0.000000
-17.366000 0.000000
-17.328400 0.000000
-17.290700 0.000000
-17.253100 0.000000
-17.215400 0.000000
-17.177700 0.000000
-17.140100 0.000000
-17.102400 0.000000
-17.064800 0.000000
-17.027100 0.000000
-16.989400 0.000000
-16.951800 0.000000
-16.914100 0.000000
-16.876500 0.000000
-16.838800 0.000000
-16.801100 0.000000
-16.763500 0.000000
-16.725800 0.000000
-16.688200 0.000000
-16.650500 0.000000
-16.612800 0.000000
-16.575200 0.000000
-16.537500 0.000000
-16.499900 0.000000
-16.462200 0.000000
-16.424500 0.000000
-16.386900 0.000000
-16.349200 0.000000
-16.311600 0.000000
-16.273900 0.000000
-16.236200 0.000000
-16.198600 0.000000
-16.160900 0.000000
-16.123300 0.000000
-16.085600 0.000000
-16.047900 0.000000
-16.010300 0.000000
-15.972600 0.000000
-15.935000 0.000000
-15.897300 0.000000
-15.859600 0.000000
-15.822000 0.000000
-15.784300 0.000000
-15.746700 0.000000
-15.709000 0.000000
-15.671300 0.000000
-15.633700 0.000000
-15.596000 0.000000
-15.558400 0.000000
-15.520700 0.000000
-15.483000 0.000000
-15.445400 0.000000
-15.407700 0.000000
-15.370100 0.000000
-15.332400 0.000000
-15.294700 0.000000
-15.257100 0.000000
-15.219400 0.000000
-15.181800 0.000000
-15.144100 0.000000
-15.106400 0.000000
-15.068800 0.000000
-15.031100 0.000000
-14.993500 0.000000
-14.955800 0.000000
-14.918100 0.000000
-14.880500 0.000000
-14.842800 0.000000
-14.805200 0.000000
-14.767500 0.000000
-14.729800 0.000000
-14.692200 0.000000
-14.654500 0.000000
-14.616900 0.000000
-14.579200 0.000000
-14.541500 0.000000
-14.503900 0.000000
-14.466200 0.000000
-14.428600 0.000000
-14.390900 0.000000
-14.353200 0.000000
-14.315600 0.000000
-14.277900 0.000000
-14.240300 0.098500
-14.202600 0.986000
-14.164900 2.391700
-14.127300 3.640200
-14.089600 5.236300
-14.052000 8.592100
-14.014300 9.421300
-13.976600 14.219600
-13.939000 17.121300
-13.901300 11.704200
-13.863700 8.447300
-13.826000 6.157900
-13.788300 4.812100
-13.750700 3.818600
-13.713000 2.766500
-13.675400 2.380400
-13.637700 2.244100
-13.600000 1.732100
-13.562400 0.811800
-13.524700 0.129400
-13.487100 0.000000
-13.449400 0.000000
-13.411700 0.000000
-13.374100 0.000000
-13.336400 0.000000
-13.298800 0.000000
-13.261100 0.000000
-13.223400 0.000000
-13.185800 0.000000
-13.148100 0.000000
-13.110500 0.000000
-13.072800 0.000000
-13.035100 0.000000
-12.997500 0.000000
-12.959800 0.000000
-12.922200 0.000000
-12.884500 0.000000
-12.846800 0.000000
-12.809200 0.000000
-12.771500 0.000000
-12.733900 0.000000
-12.696200 0.000000
-12.658500 0.000000
-12.620900 0.000000
-12.583200 0.000000
-12.545600 0.000000
-12.507900 0.000000
-12.470200 0.000000
-12.432600 0.000000
-12.394900 0.000000
-12.357300 0.000000
-12.319600 0.000000
-12.281900 0.000000
-12.244300 0.000000
-12.206600 0.000000
-12.169000 0.000000
-12.131300 0.000000
-12.093600 0.000000
-12.056000 0.000000
-12.018300 0.000000
-11.980700 0.000000
-11.943000 0.000000
-11.905300 0.000000
-11.867700 0.000000
-11.830000 0.000000
-11.792400 0.000000
-11.754700 0.000000
-11.717000 0.000000
-11.679400 0.000000
-11.641700 0.000000
-11.604100 0.000000
-11.566400 0.000000
-11.528700 0.000000
-11.491100 0.000000
-11.453400 0.000000
-11.415800 0.000000
-11.378100 0.000000
-11.340400 0.000000
-11.302800 0.000000
-11.265100 0.000000
-11.227500 0.000000
-11.189800 0.000000
-11.152100 0.000000
-11.114500 0.000000
-11.076800 0.000000
-11.039200 0.000000
-11.001500 0.000000
-10.963800 0.000000
-10.926200 0.000000
-10.888500 0.000000
-10.850900 0.000000
-10.813200 0.000000
-10.775500 0.000000
-10.737900 0.000000
-10.700200 0.000000
-10.662600 0.000000
-10.624900 0.000000
-10.587200 0.000000
-10.549600 0.000000
-10.511900 0.000000
-10.474300 0.000000
-10.436600 0.000000
-10.398900 0.000000
-10.361300 0.000000
-10.323600 0.000000
-10.286000 0.000000
-10.248300 0.000000
-10.210600 0.686600
-10.173000 1.904100
-10.135300 2.274100
-10.097700 3.092300
-10.060000 4.184900
-10.022300 4.047200
-9.984700 4.624900
-9.947000 5.349800
-9.909400 5.801700
-9.871700 6.035500
-9.834000 5.684200
-9.796400 6.405700
-9.758700 6.446400
-9.721100 6.994100
-9.683400 8.181900
-9.645700 9.835900
-9.608100 9.461800
-9.570400 8.287700
-9.532800 9.647800
-9.495100 14.936400
-9.457400 11.385000
-9.419800 10.582600
-9.382100 10.399200
-9.344500 13.338800
-9.306800 12.259900
-9.269100 7.592400
-9.231500 6.894900
-9.193800 6.538600
-9.156200 7.380100
-9.118500 7.270300
-9.080800 7.118400
-9.043200 7.239100
-9.005500 5.549300
-8.967800 4.370300
-8.930200 4.463900
-8.892500 5.716000
-8.854900 6.618700
-8.817200 7.482500
-8.779500 8.239600
-8.741900 9.010400
-8.704200 9.167100
-8.666600 7.484600
-8.628900 4.918400
-8.591200 2.749800
-8.553600 1.891100
-8.515900 1.671600
-8.478300 1.460300
-8.440600 1.212800
-8.402900 0.878200
-8.365300 0.544200
-8.327600 0.281900
-8.290000 0.090900
-8.252300 0.000000
-8.214600 0.000000
-8.177000 0.000000
-8.139300 0.000000
-8.101700 0.000000
-8.064000 0.000000
-8.026300 0.000000
-7.988700 0.000000
-7.951000 0.000000
-7.913400 0.000000
-7.875700 0.000000
-7.838000 0.000000
-7.800400 0.000000
-7.762700 0.000000
-7.725100 0.000000
-7.687400 0.000000
-7.649700 0.000000
-7.612100 0.000000
-7.574400 0.000000
-7.536800 0.000000
-7.499100 0.000000
-7.461400 0.000000
-7.423800 0.000000
-7.386100 0.000000
-7.348500 0.000000
-7.310800 0.000000
-7.273100 0.000000
-7.235500 0.000000
-7.197800 0.000000
-7.160200 0.000000
-7.122500 0.000000
-7.084800 0.000000
-7.047200 0.000000
-7.009500 0.000000
-6.971900 0.000000
-6.934200 0.000000
-6.896500 0.000000
-6.858900 0.000000
-6.821200 0.000000
-6.783600 0.000000
-6.745900 0.000000
-6.708200 0.000000
-6.670600 0.000000
-6.632900 0.000000
-6.595300 0.000000
-6.557600 0.000000
-6.519900 0.000000
-6.482300 0.000000
-6.444600 0.000000
-6.407000 0.000000
-6.369300 0.000000
-6.331600 0.000000
-6.294000 0.000000
-6.256300 0.000000
-6.218700 0.000000
-6.181000 0.000000
-6.143300 0.000000
-6.105700 0.000000
-6.068000 0.000000
-6.030400 0.000000
-5.992700 0.000000
-5.955000 0.000000
-5.917400 0.000000
-5.879700 0.000000
-5.842100 0.000000
-5.804400 0.000000
-5.766700 0.000000
-5.729100 0.000000
-5.691400 0.000000
-5.653800 0.000000
-5.616100 0.000000
-5.578400 0.000000
-5.540800 0.000000
-5.503100 0.000000
-5.465500 0.000000
-5.427800 0.000000
-5.390100 0.000000
-5.352500 0.000000
-5.314800 0.000000
-5.277200 0.000000
-5.239500 0.000000
-5.201800 0.000000
-5.164200 0.000000
-5.126500 0.000000
-5.088900 0.000000
-5.051200 0.000000
-5.013500 0.000000
-4.975900 0.000000
-4.938200 0.000000
-4.900600 0.000000
-4.862900 0.000000
-4.825200 0.000000
-4.787600 0.000000
-4.749900 0.000000
-4.712300 0.000000
-4.674600 0.000000
-4.636900 0.000000
-4.599300 0.000000
-4.561600 0.000000
-4.524000 0.000000
-4.486300 0.000000
-4.448600 0.000000
-4.411000 0.000000
-4.373300 0.000000
-4.335700 0.000000
-4.298000 0.000000
-4.260300 0.000000
-4.222700 0.000000
-4.185000 0.000000
-4.147400 0.000000
-4.109700 0.000000
-4.072000 0.000000
-4.034400 0.000000
-3.996700 0.000000
-3.959100 0.000000
-3.921400 0.000000
-3.883700 0.000000
-3.846100 0.000000
-3.808400 0.000000
-3.770800 0.000000
-3.733100 0.000000
-3.695400 0.000000
-3.657800 0.000000
-3.620100 0.000000
-3.582500 0.000000
-3.544800 0.000000
-3.507100 0.000000
-3.469500 0.000000
-3.431800 0.000000
-3.394200 0.000000
-3.356500 0.000000
-3.318800 0.000000
-3.281200 0.000000
-3.243500 0.000000
-3.205900 0.000000
-3.168200 0.000000
-3.130500 0.000000
-3.092900 0.000000
-3.055200 0.000000
-3.017600 0.000000
-2.979900 0.000000
-2.942200 0.000000
-2.904600 0.000000
-2.866900 0.000000
-2.829300 0.000000
-2.791600 0.000000
-2.753900 0.000000
-2.716300 0.000000
-2.678600 0.000000
-2.641000 0.000000
-2.603300 0.000000
-2.565600 0.000000
-2.528000 0.000000
-2.490300 0.000000
-2.452700 0.000000
-2.415000 0.000000
-2.377300 0.000000
-2.339700 0.000000
-2.302000 0.000000
-2.264400 0.000000
-2.226700 0.000000
-2.189000 0.000000
-2.151400 0.000000
-2.113700 0.000000
-2.076100 0.000000
-2.038400 0.000000
-2.000700 0.000000
-1.963100 0.000000
-1.925400 0.000000
-1.887800 0.000000
-1.850100 0.000000
-1.812400 0.000000
-1.774800 0.000000
-1.737100 0.000000
-1.699500 0.000000
-1.661800 0.000000
-1.624100 0.000000
-1.586500 0.000000
-1.548800 0.000000
-1.511200 0.000000
-1.473500 0.000000
-1.435800 0.000000
-1.398200 0.000000
-1.360500 0.000000
-1.322900 0.000000
-1.285200 0.000000
-1.247500 0.000000
-1.209900 0.000000
-1.172200 0.000000
-1.134600 0.000000
-1.096900 0.000000
-1.059200 0.000000
-1.021600 0.000000
-0.983900 0.000000
-0.946300 0.000000
-0.908600 0.000000
-0.870900 0.000000
-0.833300 0.000000
-0.795600 0.000000
-0.758000 0.000000
-0.720300 0.000000
-0.682600 0.000000
-0.645000 0.000000
-0.607300 0.000000
-0.569700 0.000000
-0.532000 0.000000
-0.494300 0.000000
-0.456700 0.000000
-0.419000 0.000000
-0.381400 0.000000
-0.343700 0.000000
-0.306000 0.000000
-0.268400 0.154800
-0.230700 0.698600
-0.193100 1.187000
-0.155400 1.340400
-0.117700 1.455300
-0.080100 2.120000
-0.042400 2.471900
-0.004800 2.786900
0.032900 3.245900
0.070600 3.827400
0.108200 4.601900
0.145900 5.679500
0.183500 6.877300
0.221200 7.903000
0.258900 8.380500
0.296500 8.625200
0.334200 8.632000
0.371800 9.552400
0.409500 7.435400
0.447200 7.371200
0.484800 7.166000
0.522500 4.863100
0.560100 3.965600
0.597800 5.629400
0.635500 10.027800
0.673100 15.835400
0.710800 16.316800
0.748400 16.976200
0.786100 18.714200
0.823800 10.966600
0.861400 5.865500
0.899100 6.067300
0.936700 8.296300
0.974400 9.450200
1.012100 7.644200
1.049700 6.887600
1.087400 6.439900
1.125000 6.998300
1.162700 7.234900
1.200400 8.032000
1.238000 8.732500
1.275700 8.662800
1.313300 7.199800
1.351000 5.877700
1.388700 4.661400
1.426300 3.331500
1.464000 2.039800
1.501600 0.467800
1.539300 0.002100
1.577000 0.000000
1.614600 0.000000
1.652300 0.000000
1.689900 0.000000
1.727600 0.000000
1.765300 0.000000
1.802900 0.000000
1.840600 0.000000
1.878200 0.000000
1.915900 0.000000
1.953600 0.000000
1.991200 0.000000
2.028900 0.000000
2.066500 0.000000
2.104200 0.000000
2.141900 0.000000
2.179500 0.000000
2.217200 0.000000
2.254800 0.000000
2.292500 0.000000
2.330200 0.000000
2.367800 0.000000
2.405500 0.000000
2.443100 0.000000
2.480800 0.000000
2.518500 0.000000
2.556100 0.000000
2.593800 0.000000
2.631400 0.000000
2.669100 0.000000
2.706800 0.000000
2.744400 0.000000
2.782100 0.000000
2.819700 0.000000
2.857400 0.000000
2.895100 0.000000
2.932700 0.000000
2.970400 0.000000
3.008000 0.000000
3.045700 0.000000
3.083400 0.000000
3.121000 0.000000
3.158700 0.000000
3.196300 0.000000
3.234000 0.000000
3.271700 0.000000
3.309300 0.000000
3.347000 0.000000
3.384600 0.000000
3.422300 0.000000
3.460000 0.000000
3.497600 0.000000
3.535300 0.000000
3.572900 0.000000
3.610600 0.000000
3.648300 0.000000
3.685900 0.000000
3.723600 0.000000
3.761200 0.000000
3.798900 0.000000
3.836600 0.000000
3.874200 0.000000
3.911900 0.000000
3.949500 0.000000
3.987200 0.000000
4.024900 0.000000
4.062500 0.000000
4.100200 0.000000
4.137800 0.000000
4.175500 0.000000
4.213200 0.000000
4.250800 0.000000
4.288500 0.000000
4.326100 0.000100
4.363800 0.001200
4.401500 0.003900
4.439100 0.007900
4.476800 0.013400
4.514400 0.020400
4.552100 0.028800
4.589800 0.038700
4.627400 0.050000
4.665100 0.062700
4.702700 0.077000
4.740400 0.096200
4.778100 0.118700
4.815700 0.144000
4.853400 0.170600
4.891000 0.198600
4.928700 0.227900
4.966400 0.283200
5.004000 0.537400
5.041700 0.891200
5.079300 1.474100
5.117000 2.046500
5.154700 2.187500
5.192300 2.256600
5.230000 2.316000
5.267600 2.365900
5.305300 2.406100
5.343000 2.506100
5.380600 2.534500
5.418300 2.418100
5.455900 2.308400
5.493600 2.200200
5.531300 2.001800
5.568900 1.944900
5.606600 1.927000
5.644200 1.921700
5.681900 1.918300
5.719600 1.916700
5.757200 1.933700
5.794900 1.994000
5.832500 2.106400
5.870200 2.373500
5.907900 2.753500
5.945500 3.055900
5.983200 3.479800
6.020800 3.899700
6.058500 4.327300
6.096200 5.050700
6.133800 5.240700
6.171500 5.230300
6.209100 4.901300
6.246800 4.949700
6.284500 5.467700
6.322100 6.072100
6.359800 6.869600
6.397400 8.123000
6.435100 8.010700
6.472800 7.112200
6.510400 6.988200
6.548100 7.061300
6.585700 6.938100
6.623400 6.765000
6.661100 6.667900
6.698700 6.702500
6.736400 5.456700
6.774000 5.033400
6.811700 4.431700
6.849400 4.379200
6.887000 4.296700
6.924700 4.283200
6.962400 3.778100
7.000000 3.945200
7.037700 4.090200
7.075300 3.887900
7.113000 3.703600
7.150700 3.325800
7.188300 3.250700
7.226000 3.253800
7.263600 3.199100
7.301300 3.097700
7.339000 3.085300
7.376600 3.121500
7.414300 3.178700
7.451900 3.240800
7.489600 3.313300
7.527300 3.368900
7.564900 3.438100
7.602600 3.511600
7.640200 3.560900
7.677900 3.593300
7.715600 3.839000
7.753200 3.236500
7.790900 2.927000
7.828500 2.615200
7.866200 2.411800
7.903900 2.100000
7.941500 1.857000
7.979200 1.668600
8.016800 1.500500
8.054500 1.889900
8.092200 1.979200
8.129800 2.031000
8.167500 2.112200
8.205100 2.183700
8.242800 1.917600
8.280500 2.297500
8.318100 2.236000
8.355800 2.307400
8.393400 2.381600
8.431100 2.449800
8.468800 2.509000
8.506400 2.404200
8.544100 2.409500
8.581700 2.325400
8.619400 2.336800
8.657100 2.250000
8.694700 1.983400
8.732400 1.772900
8.770000 1.583300
8.807700 1.255700
8.845400 1.200700
8.883000 1.223900
8.920700 1.350200
8.958300 1.558300
8.996000 1.315700
9.033700 1.336000
9.071300 1.356700
9.109000 1.548600
9.146600 1.729900
9.184300 2.001100
9.222000 2.044500
9.259600 2.085100
9.297300 2.166600
9.334900 2.281600
9.372600 2.388700
9.410300 2.483100
9.447900 2.600000
9.485600 2.720900
9.523200 2.864200
9.560900 3.023300
9.598600 3.184300
9.636200 3.345200
9.673900 3.703200
9.711500 4.067200
9.749200 4.713400
9.786900 5.438200
9.824500 5.478200
9.862200 5.017300
9.899800 3.832200
9.937500 3.416800
9.975200 3.170200
10.012800 3.068700
10.050500 3.018700
10.088100 3.889300
10.125800 3.832300
10.163500 4.059600
10.201100 4.513300
10.238800 4.454100
10.276400 4.603000
10.314100 4.765000
10.351800 4.600800
10.389400 3.955600
10.427100 3.684700
10.464700 3.587500
10.502400 3.564700
10.540100 3.860700
10.577700 3.825900
10.615400 3.842400
10.653000 3.687400
10.690700 3.699800
10.728400 3.843900
10.766000 3.979900
10.803700 4.299700
10.841300 4.578800
10.879000 4.792500
10.916700 3.875300
10.954300 2.831500
10.992000 2.040500
11.029600 1.408400
11.067300 0.862000
11.105000 0.719900
11.142600 1.044000
11.180300 1.857400
11.217900 3.543100
11.255600 5.265000
11.293300 5.087900
11.330900 3.961600
11.368600 3.484300
11.406200 3.124000
11.443900 2.841800
11.481600 2.558200
11.519200 2.305800
11.556900 2.201200
11.594500 2.128300
11.632200 1.583600
11.669900 1.226800
11.707500 1.106900
11.745200 1.089000
11.782800 1.074000
11.820500 1.061800
11.858200 1.052100
11.895800 1.043600
11.933500 1.036200
11.971100 1.029800
12.008800 1.024500
12.046500 1.020200
12.084100 1.017000
12.121800 1.037300
12.159400 1.413400
12.197100 1.480500
12.234800 1.379300
12.272400 1.416600
12.310100 1.441200
12.347700 1.462200
12.385400 1.482800
12.423100 1.502800
12.460700 1.522400
12.498400 1.640900
12.536000 1.815500
12.573700 1.943500
12.611400 1.393200
12.649000 1.390900
12.686700 1.388100
12.724300 1.385000
12.762000 1.381300
12.799700 1.377000
12.837300 1.371900
12.875000 1.366000
12.912600 1.443800
12.950300 1.479000
12.988000 1.443800
13.025600 1.350100
13.063300 1.256800
13.100900 1.162200
13.138600 1.044600
13.176300 0.926500
13.213900 0.827800
13.251600 0.748700
13.289200 0.685600
13.326900 0.630000
13.364600 0.581700
13.402200 0.540300
13.439900 0.504400
13.477500 0.475500
13.515200 0.458700
13.552900 0.452000
13.590500 0.658200
13.628200 0.874900
13.665800 0.876500
13.703500 0.861300
13.741200 0.846000
13.778800 0.830500
13.816500 0.887200
13.854100 1.190200
13.891800 1.533900
13.929500 1.679500
13.967100 1.736900
14.004800 1.899300
14.042400 1.954000
14.080100 2.026100
14.117800 2.066700
14.155400 2.081900
14.193100 2.163000
14.230700 2.289500
14.268400 3.858800
14.306100 3.025000
14.343700 3.062800
14.381400 3.057700
14.419000 2.980200
14.456700 2.824400
14.494400 2.773600
14.532000 2.781700
14.569700 2.801400
14.607300 2.827400
14.645000 2.857800
14.682700 2.902600
14.720300 2.961100
14.758000 3.016700
14.795600 3.064700
14.833300 3.076900
14.871000 3.028800
14.908600 2.849700
14.946300 2.681000
14.983900 2.580600
15.021600 2.483900
15.059300 2.549500
15.096900 2.601000
15.134600 2.337600
15.172200 2.278900
15.209900 2.248800
15.247600 2.271500
15.285200 2.303100
15.322900 2.352800
15.360500 2.392800
15.398200 2.427600
15.435900 2.464300
15.473500 2.497800
15.511200 2.654900
15.548800 2.712100
15.586500 2.747500
15.624200 2.693000
15.661800 2.669100
15.699500 2.686500
15.737100 2.713500
15.774800 2.749200
15.812500 2.795200
15.850100 2.851700
15.887800 2.911400
15.925400 2.986700
15.963100 3.090300
16.000800 3.235900
16.038400 3.418400
16.076100 3.587900
16.113700 3.705400
16.151400 3.834900
16.189100 3.899700
16.226700 4.038900
16.264400 4.148800
16.302000 4.235200
16.339700 4.315300
16.377400 4.395500
16.415000 4.482700
16.452700 4.672200
16.490300 4.890800
16.528000 4.766100
16.565700 4.565000
16.603300 4.377400
16.641000 4.287100
16.678600 4.189600
16.716300 4.250400
16.754000 4.335600
16.791600 4.496200
16.829300 4.697000
16.866900 4.656600
16.904600 4.618300
16.942300 4.832600
16.979900 4.515600
17.017600 4.220600
17.055200 3.911700
17.092900 3.667700
17.130600 3.228200
17.168200 3.043400
17.205900 2.606500
17.243500 2.415400
17.281200 2.277200
17.318900 2.185100
17.356500 2.139000
17.394200 2.131900
17.431800 2.155900
17.469500 2.178000
17.507200 2.162600
17.544800 2.298700
17.582500 2.205600
17.620100 2.110000
17.657800 1.950400
17.695500 1.806400
17.733100 1.684600
17.770800 1.584900
17.808400 1.515600
17.846100 2.071400
17.883800 1.885500
17.921400 1.724400
17.959100 1.839600
17.996700 2.037500
18.034400 2.246500
18.072100 2.467500
18.109700 2.689100
18.147400 2.896400
18.185000 3.087100
18.222700 3.659000
18.260400 3.957800
18.298000 4.175000
18.335700 4.215100
18.373300 4.178700
18.411000 4.010300
18.448700 3.845600
18.486300 4.833600
18.524000 3.067500
18.561600 2.651500
18.599300 2.519900
18.637000 2.553500
18.674600 2.849000
18.712300 2.886500
18.749900 2.886200
18.787600 2.889900
18.825300 2.743400
18.862900 2.705500
18.900600 2.701600
18.938200 2.525100
18.975900 2.423800
19.013600 2.387100
19.051200 2.400400
19.088900 2.418100
19.126500 2.439200
19.164200 2.466500
19.201900 2.926700
19.239500 2.498700
19.277200 2.496300
19.314800 2.517300
19.352500 2.510500
19.390200 2.480900
19.427800 2.289900
19.465500 2.234200
19.503100 2.285000
19.540800 2.334600
19.578500 2.368900
19.616100 2.379800
19.653800 2.391600
19.691400 2.435300
19.729100 2.471100
19.766800 2.524400
19.804400 2.593500
19.842100 2.680600
19.879700 2.801800
19.917400 2.929800
19.955100 3.006300
19.992700 3.061100
20.030400 3.091300
20.068000 3.132400
20.105700 3.097600
20.143400 3.087800
20.181000 3.163200
20.218700 3.316400
20.256300 3.294700
20.294000 3.271000
20.331700 3.341200
20.369300 3.407100
20.407000 3.449600
20.444600 3.383300
20.482300 3.436000
20.520000 3.405000
20.557600 3.664600
20.595300 3.544400
20.632900 3.495100
20.670600 3.325000
20.708300 3.132200
20.745900 2.841800
20.783600 2.707700
20.821200 2.650000
20.858900 2.653600
20.896600 2.679700
20.934200 2.712200
20.971900 2.740200
21.009500 2.843200
21.047200 2.929300
21.084900 2.981400
21.122500 3.029200
21.160200 3.052300
21.197800 3.091200
21.235500 3.254400
21.273200 3.142800
21.310800 2.864700
21.348500 2.718300
21.386100 2.666900
21.423800 2.616900
21.461500 2.463200
21.499100 2.512300
21.536800 2.472500
21.574400 2.541600
21.612100 2.557200
21.649800 2.490500
21.687400 2.377800
21.725100 2.255000
21.762700 2.103200
21.800400 1.923000
21.838100 1.754400
21.875700 1.602000
21.913400 1.469700
21.951000 3.872900
21.988700 2.910300
22.026400 2.756000
22.064000 2.793500
22.101700 2.909100
22.139300 2.879200
22.177000 2.864100
22.214700 2.865600
22.252300 2.866700
22.290000 2.851500
22.327600 2.831900
22.365300 3.252300
22.403000 3.383400
22.440600 3.505000
22.478300 3.672600
22.515900 3.644500
22.553600 3.736800
22.591300 3.816400
22.628900 3.740000
22.666600 3.611400
22.704200 3.480400
22.741900 3.434400
22.779600 3.357800
22.817200 3.146300
22.854900 3.092000
22.892600 3.113700
22.930200 2.902400
22.967900 2.670600
23.005500 2.486800
23.043200 2.318800
23.080900 2.211100
23.118500 2.293200
23.156200 2.441600
23.193800 2.517900
23.231500 2.716100
23.269200 2.829400
23.306800 2.891400
23.344500 2.904700
23.382100 2.897100
23.419800 2.937700
23.457500 3.235000
23.495100 3.655100
23.532800 3.468400
23.570400 3.661600
23.608100 3.716900
23.645800 3.753400
23.683400 3.750200
23.721100 3.614500
23.758700 3.572200
23.796400 3.514400
23.834100 3.442300
23.871700 3.351300
23.909400 3.236800
23.947000 3.035000
23.984700 2.938500
24.022400 2.806100
24.060000 3.976600
24.097700 3.526300
24.135300 3.421900
24.173000 3.714500
24.210700 3.800800
24.248300 3.859900
24.286000 3.756200
24.323600 3.465200
24.361300 2.747300
24.399000 2.740000
24.436600 2.843200
24.474300 2.950300
24.511900 3.066800
24.549600 3.200600
24.587300 3.320400
24.624900 3.262800
24.662600 3.128200
24.700200 3.188000
24.737900 3.342300
24.775600 3.511700
24.813200 3.662700
24.850900 3.819700
24.888500 3.999700
24.926200 4.173100
24.963900 4.340000
25.001500 4.418400
25.039200 4.469600
25.076800 4.433200
25.114500 4.530100
25.152200 4.158100
25.189800 4.104900
25.227500 4.167400
25.265100 4.343700
25.302800 4.481400
25.340500 4.561400
25.378100 4.626400
25.415800 4.637500
25.453400 4.517900
25.491100 4.315000
25.528800 4.007200
25.566400 3.622800
25.604100 3.283400
25.641700 2.958000
25.679400 2.656300
25.717100 2.483600
25.754700 2.465900
25.792400 2.615500
25.830000 2.774700
25.867700 2.960400
25.905400 3.058500
25.943000 3.130800
25.980700 3.300000
26.018300 3.443600
26.056000 3.630600
26.093700 3.846300
26.131300 4.083700
26.169000 4.342700
26.206600 4.643400
26.244300 4.914600
26.282000 5.391800
26.319600 5.221400
26.357300 5.039500
26.394900 4.830200
26.432600 4.598200
26.470300 4.327800
26.507900 4.106300
26.545600 3.863400
26.583200 3.925100
26.620900 3.733900
26.658600 3.533200
26.696200 3.323200
26.733900 3.141300
26.771500 2.958800
26.809200 2.879000
26.846900 2.833600
26.884500 2.809800
26.922200 2.791200
26.959800 2.823700
26.997500 2.940500
27.035200 3.186300
27.072800 3.421500
27.110500 3.751800
27.148100 4.173500
27.185800 4.689000
27.223500 4.879700
27.261100 4.990400
27.298800 5.008600
27.336400 4.661400
27.374100 4.435500
27.411800 4.304100
27.449400 4.439300
27.487100 4.545300
27.524700 4.470200
27.562400 4.410400
27.600100 4.248100
27.637700 4.066000
27.675400 3.906100
27.713000 3.802600
27.750700 3.702100
27.788400 3.645600
27.826000 3.492600
27.863700 3.179100
27.901300 2.854000
27.939000 2.575600
27.976700 2.407600
28.014300 2.348000
28.052000 2.451700
28.089600 2.636100
28.127300 3.153600
28.165000 3.225700
28.202600 3.295700
28.240300 3.160400
28.277900 3.044900
28.315600 3.001700
28.353300 3.033800
28.390900 3.056000
28.428600 3.118000
28.466200 3.598300
28.503900 4.146100
28.541600 4.437100
28.579200 4.232900
28.616900 4.372000
28.654500 5.293300
28.692200 3.628200
28.729900 3.345400
28.767500 3.145600
28.805200 3.053400
28.842800 3.057900
28.880500 2.996900
28.918200 3.094400
28.955800 3.407400
28.993500 3.431000
29.031100 3.509500
29.068800 3.584300
29.106500 3.636200
29.144100 3.661500
29.181800 3.691600
29.219400 3.716400
29.257100 3.788500
29.294800 3.967400
29.332400 4.397000
29.370100 4.652400
29.407700 4.879500
29.445400 5.042700
29.483100 5.009400
29.520700 4.816200
29.558400 4.523600
29.596000 3.529600
29.633700 3.233900
29.671400 3.346700
29.709000 3.567100
29.746700 3.772200
29.784300 3.694400
29.822000 3.660600
29.859700 3.647000
29.897300 3.611700
29.935000 3.626500
29.972600 3.644300
30.010300 3.291700
30.048000 3.204100
30.085600 3.298900
30.123300 3.357500
30.160900 3.378600
30.198600 3.679800
30.236300 3.820800
30.273900 4.082600
30.311600 3.516100
30.349200 3.559900
30.386900 3.460500
30.424600 3.421200
30.462200 3.367900
30.499900 3.344700
30.537500 3.358000
30.575200 4.195000
30.612900 3.422800
30.650500 3.380900
30.688200 3.216600
30.725800 3.104800
30.763500 3.045300
30.801200 3.065400
30.838800 3.107700
30.876500 3.123900
30.914100 2.931300
30.951800 2.943700
30.989500 2.998300
31.027100 3.001500
31.064800 2.950600
31.102400 3.140900
31.140100 3.838600
31.177800 4.491700
31.215400 4.585700
31.253100 4.521700
31.290700 4.204100
31.328400 4.072400
31.366100 3.983600
31.403700 4.005200
31.441400 4.234800
31.479000 4.410200
31.516700 4.555200
31.554400 4.611600
31.592000 4.588200
31.629700 4.485500
31.667300 4.294400
31.705000 4.091700
31.742700 3.877500
31.780300 3.802700
31.818000 3.750700
31.855600 3.689200
31.893300 3.511000
31.931000 3.235500
31.968600 3.068000
32.006300 2.850300
32.043900 2.809300
32.081600 2.842800
32.119300 3.029600
32.156900 3.241600
32.194600 3.438200
32.232200 3.596900
32.269900 3.665700
32.307600 3.784800
32.345200 3.780400
32.382900 3.753500
32.420500 3.618200
32.458200 3.598900
32.495900 3.543500
32.533500 3.431700
32.571200 3.873000
32.608800 3.904200
32.646500 3.959500
32.684200 4.298900
32.721800 3.904700
32.759500 3.988300
32.797100 4.077800
32.834800 4.192300
32.872500 4.345200
32.910100 4.591400
32.947800 4.735100
32.985400 4.542800
33.023100 4.627100
33.060800 4.507500
33.098400 4.703000
33.136100 4.677300
33.173700 4.791400
33.211400 4.875300
33.249100 4.820400
33.286700 4.850700
33.324400 4.886600
33.362000 4.888600
33.399700 4.825600
33.437400 4.675200
33.475000 4.566400
33.512700 3.949700
33.550300 3.644300
33.588000 3.500800
33.625700 3.412000
33.663300 3.442000
33.701000 3.392800
33.738600 3.217100
33.776300 3.779200
33.814000 3.274400
33.851600 3.284100
33.889300 3.386000
33.926900 3.499000
33.964600 3.687000
34.002300 4.388500
34.039900 4.185500
34.077600 4.151800
34.115200 4.183600
34.152900 4.227900
34.190600 4.118300
34.228200 4.037700
34.265900 3.985800
34.303500 3.876900
34.341200 3.741200
34.378900 3.767500
34.416500 4.156600
34.454200 4.965300
34.491800 3.949300
34.529500 3.636200
34.567200 4.195900
34.604800 5.190100
34.642500 4.219700
34.680100 4.221500
34.717800 4.181300
34.755500 3.774800
34.793100 3.795400
34.830800 3.807400
34.868400 3.862700
34.906100 5.209000
34.943800 5.204500
34.981400 4.900400
35.019100 4.865400
35.056700 4.822500
35.094400 4.498200
35.132100 4.077300
35.169700 3.777500
35.207400 3.779100
35.245000 3.863600
35.282700 4.023700
35.320400 3.880500
35.358000 3.918400
35.395700 4.124500
35.433300 4.184300
35.471000 4.296000
35.508700 4.446600
35.546300 4.572100
35.584000 4.716400
35.621600 4.863400
35.659300 4.965600
35.697000 4.903800
35.734600 5.241200
35.772300 5.245900
35.809900 5.301400
35.847600 4.696200
35.885300 3.918100
35.922900 3.607700
35.960600 3.503500
35.998200 3.530200
36.035900 3.477100
36.073600 3.474900
36.111200 3.530800
36.148900 3.606000
36.186500 3.701800
36.224200 3.824800
36.261900 4.004200
36.299500 4.041000
36.337200 4.095600
36.374800 4.255000
36.412500 4.304100
36.450200 4.313000
36.487800 4.256000
36.525500 4.169800
36.563100 4.099600
36.600800 4.070900
36.638500 4.047500
36.676100 4.040300
36.713800 4.023000
36.751400 3.937800
36.789100 3.845000
36.826800 3.758100
36.864400 3.667200
36.902100 3.566700
36.939700 3.459500
36.977400 3.345800
37.015100 3.250800
37.052700 3.189100
37.090400 3.144300
37.128000 3.034300
37.165700 2.967500
37.203400 2.913700
37.241000 2.870500
37.278700 2.858400
37.316300 3.144300
37.354000 3.809500
37.391700 4.362300
37.429300 4.491800
37.467000 4.441600
37.504600 4.139300
37.542300 3.795600
37.580000 3.669800
37.617600 3.861500
37.655300 3.618700
37.692900 3.614300
37.730600 3.600600
37.768300 3.580300
37.805900 3.387500
37.843600 3.323900
37.881200 3.265400
37.918900 3.315900
37.956600 4.500700
37.994200 4.125100
38.031900 4.157400
38.069500 4.131400
38.107200 3.804500
38.144900 3.461000
38.182500 3.448400
38.220200 3.621500
38.257800 3.784900
38.295500 4.119600
38.333200 4.245900
38.370800 4.182200
38.408500 4.062500
38.446100 3.945700
38.483800 3.996800
38.521500 4.203700
38.559100 4.316200
38.596800 4.275800
38.634400 4.627600
38.672100 6.149100
38.709800 5.880600
38.747400 5.762100
38.785100 5.546800
38.822700 5.334000
38.860400 5.276400
38.898100 5.514500
38.935700 5.553900
38.973400 5.345200
39.011100 4.765500
39.048700 4.307700
39.086400 3.928300
39.124000 3.903700
39.161700 3.966600
39.199400 4.037200
39.237000 3.763100
39.274700 3.729400
39.312300 3.792400
39.350000 4.110200
39.387700 4.106800
39.425300 4.012700
39.463000 3.894500
39.500600 3.753000
39.538300 3.661500
39.576000 3.674700
39.613600 3.748900
39.651300 3.809700
39.688900 3.889100
39.726600 3.992100
39.764300 4.121300
39.801900 4.236300
39.839600 4.339800
39.877200 4.473800
39.914900 4.805300
39.952600 5.653000
39.990200 4.100500
40.027900 3.923100
40.065500 3.986100
40.103200 3.702400
40.140900 3.861500
40.178500 4.198600
40.216200 4.776300
40.253800 5.843200
40.291500 6.286100
40.329200 6.697200
40.366800 6.155000
40.404500 5.436000
40.442100 4.885500
40.479800 4.548300
40.517500 4.224200
40.555100 3.805200
40.592800 3.459400
40.630400 3.172700
40.668100 3.078300
40.705800 2.997800
40.743400 2.930500
40.781100 2.927100
40.818700 3.001000
40.856400 3.245200
40.894100 3.693200
40.931700 4.057700
40.969400 4.335800
41.007000 4.651400
41.044700 4.930400
41.082400 5.143600
41.120000 5.250800
41.157700 5.307800
41.195300 5.347700
41.233000 5.423300
41.270700 5.521700
41.308300 5.554200
41.346000 6.002000
41.383600 5.457000
41.421300 4.874100
41.459000 4.363300
41.496600 4.041900
41.534300 3.601300
41.571900 3.568300
41.609600 3.764800
41.647300 4.090900
41.684900 4.399300
41.722600 4.592600
41.760200 4.680600
41.797900 4.732800
41.835600 4.776900
41.873200 4.816900
41.910900 4.576600
41.948500 4.438400
41.986200 4.144100
42.023900 4.031500
42.061500 3.898300
42.099200 3.832600
42.136800 3.880000
42.174500 4.059800
42.212200 3.878400
42.249800 3.898300
42.287500 4.695800
42.325100 4.511900
42.362800 4.225000
42.400500 3.816800
42.438100 3.369200
42.475800 3.016700
42.513400 2.715200
42.551100 2.463200
42.588800 2.246700
42.626400 2.450300
42.664100 2.225900
42.701700 1.598200
42.739400 1.229300
42.777100 0.984800
42.814700 0.816000
42.852400 0.693700
42.890000 0.596200
42.927700 0.523700
42.965400 0.475300
43.003000 0.444600
43.040700 0.422500
43.078300 0.401300
43.116000 0.381000
43.153700 0.361500
43.191300 0.342900
43.229000 0.325200
43.266600 0.308300
43.304300 0.292300
43.342000 0.277100
43.379600 0.262600
43.417300 0.248600
43.454900 0.233200
43.492600 0.215800
43.530300 0.170000
43.567900 0.157800
43.605600 0.146500
43.643200 0.135000
43.680900 0.123500
43.718600 0.111800
43.756200 0.100100
43.793900 0.088200
43.831500 0.076300
43.869200 0.015600
43.906900 0.011500
43.944500 0.008000
43.982200 0.005200
44.019800 0.003000
44.057500 0.001400
44.095200 0.000400
44.132800 0.000000
44.170500 0.000000
44.208100 0.000000
44.245800 0.000000
44.283500 0.000000
44.321100 0.000000
44.358800 0.000000
44.396400 0.000000
44.434100 0.000000
44.471800 0.000000
44.509400 0.000000
44.547100 0.000000
44.584700 0.000000
44.622400 0.000000
44.660100 0.000000
44.697700 0.000000
44.735400 0.000000
44.773000 0.000000
44.810700 0.000000
44.848400 0.000000
44.886000 0.000000
44.923700 0.000000
44.961300 0.000000
44.999000 0.000000
45.036700 0.000000
45.074300 0.000000
45.112000 0.000000
45.149600 0.000000
45.187300 0.000000
45.225000 0.000000
45.262600 0.000000
45.300300 0.000000
45.337900 0.000000
45.375600 0.000000
45.413300 0.000000
45.450900 0.000000
45.488600 0.000000
45.526200 0.000000
45.563900 0.000000
45.601600 0.000000
45.639200 0.000000
45.676900 0.000000
45.714500 0.000000
45.752200 0.000000
45.789900 0.000000
45.827500 0.000000
45.865200 0.000000
45.902800 0.000000
45.940500 0.000000
45.978200 0.000000
46.015800 0.000000
46.053500 0.000000
46.091100 0.000000
46.128800 0.000000
46.166500 0.000000
46.204100 0.000000
46.241800 0.000000
46.279400 0.000000
46.317100 0.000000
46.354800 0.000000
46.392400 0.000000
46.430100 0.000000
46.467700 0.000000
46.505400 0.000000
46.543100 0.000000
46.580700 0.000000
46.618400 0.000000
46.656000 0.000000
46.693700 0.000000
46.731400 0.000000
46.769000 0.000000
46.806700 0.000000
46.844300 0.000000
46.882000 0.000000
46.919700 0.000000
46.957300 0.000000
46.995000 0.000000
47.032600 0.000000
47.070300 0.000000
47.108000 0.000000
47.145600 0.000000
47.183300 0.000000
47.220900 0.000000
47.258600 0.000000
47.296300 0.000000
47.333900 0.000000
47.371600 0.000000
47.409200 0.000000
47.446900 0.000000
47.484600 0.000000
47.522200 0.000000
47.559900 0.000000
e
