set title 'mp-27857 - Density of States'
set xlabel 'Energy (eV)'
set ylabel 'DOS (states/eV)'
set grid
set xrange [-10:10]
set yrange [0:47.455]
set xzeroaxis lt -1
set terminal png size 800,600
set output 'mp-27857_dos_gnuplot.png'
plot '-' using 1:2 with lines title 'DOS'
-17.152200 0.000000
-17.136500 0.000000
-17.120800 0.000000
-17.105100 0.000000
-17.089400 0.000000
-17.073600 0.000000
-17.057900 0.000000
-17.042200 0.000000
-17.026500 0.000000
-17.010800 0.000000
-16.995000 0.000000
-16.979300 0.000000
-16.963600 0.000000
-16.947900 0.000000
-16.932200 0.000000
-16.916500 0.000000
-16.900700 0.000000
-16.885000 0.000000
-16.869300 0.000000
-16.853600 0.000000
-16.837900 0.000000
-16.822200 0.000000
-16.806400 0.000000
-16.790700 0.000000
-16.775000 0.000000
-16.759300 0.000000
-16.743600 0.000000
-16.727800 0.000000
-16.712100 0.000000
-16.696400 0.000000
-16.680700 0.000000
-16.665000 0.000000
-16.649300 0.000000
-16.633500 0.000000
-16.617800 0.000000
-16.602100 0.000000
-16.586400 0.000000
-16.570700 0.000000
-16.555000 0.000000
-16.539200 0.000000
-16.523500 0.000000
-16.507800 0.000000
-16.492100 0.000000
-16.476400 0.000000
-16.460600 0.000000
-16.444900 0.000000
-16.429200 0.000000
-16.413500 0.000000
-16.397800 0.000000
-16.382100 0.000000
-16.366300 0.000000
-16.350600 0.000000
-16.334900 0.000000
-16.319200 0.000000
-16.303500 0.000000
-16.287800 0.000000
-16.272000 0.000000
-16.256300 0.000000
-16.240600 0.000000
-16.224900 0.000000
-16.209200 0.000000
-16.193500 0.000000
-16.177700 0.000000
-16.162000 0.000000
-16.146300 0.000000
-16.130600 0.000000
-16.114900 0.000000
-16.099100 0.000000
-16.083400 0.000000
-16.067700 0.000000
-16.052000 0.000000
-16.036300 0.000000
-16.020600 0.000000
-16.004800 0.000000
-15.989100 0.000000
-15.973400 0.000000
-15.957700 0.000000
-15.942000 0.000000
-15.926300 0.000000
-15.910500 0.000000
-15.894800 0.000000
-15.879100 0.000000
-15.863400 0.000000
-15.847700 0.000000
-15.831900 0.000000
-15.816200 0.000000
-15.800500 0.000000
-15.784800 0.000000
-15.769100 0.000000
-15.753400 0.000000
-15.737600 0.000000
-15.721900 0.008300
-15.706200 1.200000
-15.690500 4.267300
-15.674800 8.556900
-15.659100 16.756300
-15.643300 15.286000
-15.627600 12.268100
-15.611900 6.718900
-15.596200 6.721800
-15.580500 6.724700
-15.564700 6.727600
-15.549000 6.730600
-15.533300 10.356200
-15.517600 14.742800
-15.501900 7.881400
-15.486200 0.000000
-15.470400 0.000000
-15.454700 0.000000
-15.439000 0.000000
-15.423300 0.000000
-15.407600 0.000000
-15.391900 0.000000
-15.376100 6.416100
-15.360400 17.279000
-15.344700 6.151400
-15.329000 6.153000
-15.313300 6.155000
-15.297500 6.157300
-15.281800 6.160000
-15.266100 6.163100
-15.250400 6.166600
-15.234700 8.872100
-15.219000 16.136700
-15.203200 16.140400
-15.187500 14.408700
-15.171800 13.228500
-15.156100 25.894500
-15.140400 45.968100
-15.124700 50.950100
-15.108900 103.282300
-15.093200 0.000000
-15.077500 0.000000
-15.061800 0.000000
-15.046100 0.000000
-15.030400 0.000000
-15.014600 0.000000
-14.998900 0.000000
-14.983200 0.000000
-14.967500 0.000000
-14.951800 0.000000
-14.936000 0.000000
-14.920300 0.000000
-14.904600 0.000000
-14.888900 0.000000
-14.873200 0.000000
-14.857500 0.000000
-14.841700 0.000000
-14.826000 0.000000
-14.810300 0.000000
-14.794600 0.000000
-14.778900 0.000000
-14.763200 0.000000
-14.747400 0.000000
-14.731700 0.000000
-14.716000 0.000000
-14.700300 0.000000
-14.684600 0.000000
-14.668800 0.000000
-14.653100 0.000000
-14.637400 0.000000
-14.621700 0.000000
-14.606000 0.000000
-14.590300 0.000000
-14.574500 0.000000
-14.558800 0.000000
-14.543100 0.000000
-14.527400 0.000000
-14.511700 0.000000
-14.496000 0.000000
-14.480200 0.000000
-14.464500 0.000000
-14.448800 0.000000
-14.433100 0.000000
-14.417400 0.000000
-14.401600 0.000000
-14.385900 0.000000
-14.370200 0.000000
-14.354500 0.000000
-14.338800 0.000000
-14.323100 0.000000
-14.307300 0.000000
-14.291600 0.000000
-14.275900 0.000000
-14.260200 0.000000
-14.244500 0.000000
-14.228800 0.000000
-14.213000 0.000000
-14.197300 0.000000
-14.181600 0.000000
-14.165900 0.000000
-14.150200 0.000000
-14.134500 0.000000
-14.118700 0.000000
-14.103000 0.000000
-14.087300 0.000000
-14.071600 0.000000
-14.055900 0.000000
-14.040100 0.000000
-14.024400 0.000000
-14.008700 0.000000
-13.993000 0.000000
-13.977300 0.000000
-13.961600 0.000000
-13.945800 0.000000
-13.930100 0.000000
-13.914400 0.000000
-13.898700 0.000000
-13.883000 0.000000
-13.867300 0.000000
-13.851500 0.000000
-13.835800 0.000000
-13.820100 0.000000
-13.804400 0.000000
-13.788700 0.000000
-13.772900 0.000000
-13.757200 0.000000
-13.741500 0.000000
-13.725800 0.000000
-13.710100 0.000000
-13.694400 0.000000
-13.678600 0.000000
-13.662900 0.000000
-13.647200 0.000000
-13.631500 0.000000
-13.615800 0.000000
-13.600100 0.000000
-13.584300 0.000000
-13.568600 0.000000
-13.552900 0.000000
-13.537200 0.000000
-13.521500 0.000000
-13.505700 0.000000
-13.490000 0.000000
-13.474300 0.000000
-13.458600 0.000000
-13.442900 0.000000
-13.427200 0.000000
-13.411400 0.000000
-13.395700 0.000000
-13.380000 0.000000
-13.364300 0.000000
-13.348600 0.000000
-13.332900 0.000000
-13.317100 0.000000
-13.301400 0.000000
-13.285700 0.000000
-13.270000 0.000000
-13.254300 0.000000
-13.238600 0.000000
-13.222800 0.000000
-13.207100 0.000000
-13.191400 0.000000
-13.175700 0.000000
-13.160000 0.000000
-13.144200 0.000000
-13.128500 0.000000
-13.112800 0.000000
-13.097100 0.000000
-13.081400 0.000000
-13.065700 0.000000
-13.049900 0.000000
-13.034200 0.000000
-13.018500 0.000000
-13.002800 0.000000
-12.987100 0.000000
-12.971400 0.000000
-12.955600 0.000000
-12.939900 0.000000
-12.924200 0.000000
-12.908500 0.000000
-12.892800 0.000000
-12.877000 0.000000
-12.861300 0.000000
-12.845600 0.000000
-12.829900 0.000000
-12.814200 0.000000
-12.798500 0.000000
-12.782700 0.000000
-12.767000 0.000000
-12.751300 0.000000
-12.735600 0.000000
-12.719900 0.000000
-12.704200 0.000000
-12.688400 0.000000
-12.672700 0.000000
-12.657000 0.000000
-12.641300 0.000000
-12.625600 0.000000
-12.609800 0.000000
-12.594100 0.000000
-12.578400 0.000000
-12.562700 0.000000
-12.547000 0.000000
-12.531300 0.000000
-12.515500 0.000000
-12.499800 0.000000
-12.484100 0.000000
-12.468400 0.000000
-12.452700 0.000000
-12.437000 0.000000
-12.421200 0.000000
-12.405500 0.000000
-12.389800 0.000000
-12.374100 0.000000
-12.358400 0.000000
-12.342700 0.000000
-12.326900 0.000000
-12.311200 0.000000
-12.295500 0.000000
-12.279800 0.000000
-12.264100 0.000000
-12.248300 0.000000
-12.232600 0.000000
-12.216900 0.000000
-12.201200 0.000000
-12.185500 0.000000
-12.169800 0.000000
-12.154000 0.000000
-12.138300 0.000000
-12.122600 0.000000
-12.106900 0.000000
-12.091200 0.000000
-12.075500 0.000000
-12.059700 0.000000
-12.044000 0.000000
-12.028300 0.000000
-12.012600 0.000000
-11.996900 0.000000
-11.981100 0.000000
-11.965400 0.000000
-11.949700 0.000000
-11.934000 0.000000
-11.918300 0.000000
-11.902600 0.000000
-11.886800 0.000000
-11.871100 0.000000
-11.855400 0.000000
-11.839700 0.000000
-11.824000 0.000000
-11.808300 0.000000
-11.792500 0.000000
-11.776800 0.000000
-11.761100 0.000000
-11.745400 0.000000
-11.729700 0.000000
-11.713900 0.000000
-11.698200 0.000000
-11.682500 0.000000
-11.666800 0.000000
-11.651100 0.000000
-11.635400 0.000000
-11.619600 0.000000
-11.603900 0.000000
-11.588200 0.000000
-11.572500 0.000000
-11.556800 0.000000
-11.541100 0.000000
-11.525300 0.000000
-11.509600 0.000000
-11.493900 0.000000
-11.478200 0.000000
-11.462500 0.000000
-11.446700 0.000000
-11.431000 0.000000
-11.415300 0.000000
-11.399600 0.000000
-11.383900 0.000000
-11.368200 0.000000
-11.352400 0.000000
-11.336700 0.000000
-11.321000 0.000000
-11.305300 0.000000
-11.289600 0.000000
-11.273900 0.000000
-11.258100 0.000000
-11.242400 0.000000
-11.226700 0.000000
-11.211000 0.000000
-11.195300 0.000000
-11.179600 0.000000
-11.163800 0.000000
-11.148100 0.000000
-11.132400 0.000000
-11.116700 0.000000
-11.101000 0.000000
-11.085200 0.000000
-11.069500 0.000000
-11.053800 0.000000
-11.038100 0.000000
-11.022400 0.000000
-11.006700 0.000000
-10.990900 0.000000
-10.975200 0.000000
-10.959500 0.000000
-10.943800 0.000000
-10.928100 0.000000
-10.912400 0.000000
-10.896600 0.000000
-10.880900 0.000000
-10.865200 0.000000
-10.849500 0.000000
-10.833800 0.000000
-10.818000 0.000000
-10.802300 0.000000
-10.786600 0.000000
-10.770900 0.000000
-10.755200 0.000000
-10.739500 0.000000
-10.723700 0.000000
-10.708000 0.000000
-10.692300 0.000000
-10.676600 0.000000
-10.660900 0.000000
-10.645200 0.000000
-10.629400 0.000000
-10.613700 0.000000
-10.598000 0.000000
-10.582300 0.000000
-10.566600 0.000000
-10.550800 0.000000
-10.535100 0.000000
-10.519400 0.000000
-10.503700 0.000000
-10.488000 0.000000
-10.472300 0.000000
-10.456500 0.000000
-10.440800 0.000000
-10.425100 0.000000
-10.409400 0.000000
-10.393700 0.000000
-10.378000 0.000000
-10.362200 0.000000
-10.346500 0.000000
-10.330800 0.000000
-10.315100 0.000000
-10.299400 0.000000
-10.283700 0.000000
-10.267900 0.000000
-10.252200 0.000000
-10.236500 0.000000
-10.220800 0.000000
-10.205100 0.000000
-10.189300 0.000000
-10.173600 0.000000
-10.157900 0.000000
-10.142200 0.000000
-10.126500 0.000000
-10.110800 0.000000
-10.095000 0.000000
-10.079300 0.000000
-10.063600 0.000000
-10.047900 0.000000
-10.032200 0.000000
-10.016500 0.000000
-10.000700 0.000000
-9.985000 0.000000
-9.969300 0.000000
-9.953600 0.000000
-9.937900 0.000000
-9.922100 0.000000
-9.906400 0.000000
-9.890700 0.000000
-9.875000 0.000000
-9.859300 0.000000
-9.843600 0.000000
-9.827800 0.000000
-9.812100 0.000000
-9.796400 0.000000
-9.780700 0.000000
-9.765000 0.000000
-9.749300 0.000000
-9.733500 0.000000
-9.717800 0.000000
-9.702100 0.000000
-9.686400 0.000000
-9.670700 0.000000
-9.654900 0.000000
-9.639200 0.000000
-9.623500 0.000000
-9.607800 0.000000
-9.592100 0.000000
-9.576400 0.000000
-9.560600 0.000000
-9.544900 0.000000
-9.529200 0.000000
-9.513500 0.000000
-9.497800 0.000000
-9.482100 0.000000
-9.466300 0.000000
-9.450600 0.000000
-9.434900 0.000000
-9.419200 0.000000
-9.403500 0.000000
-9.387800 0.000000
-9.372000 0.000000
-9.356300 0.000000
-9.340600 0.000000
-9.324900 0.000000
-9.309200 0.000000
-9.293400 0.000000
-9.277700 0.000000
-9.262000 0.000000
-9.246300 0.000000
-9.230600 0.000000
-9.214900 0.000000
-9.199100 0.000000
-9.183400 0.000000
-9.167700 0.000000
-9.152000 0.000000
-9.136300 0.000000
-9.120600 0.000000
-9.104800 0.000000
-9.089100 0.000000
-9.073400 0.000000
-9.057700 0.000000
-9.042000 0.000000
-9.026200 0.000000
-9.010500 0.000000
-8.994800 0.000000
-8.979100 0.000000
-8.963400 0.000000
-8.947700 0.000000
-8.931900 0.000000
-8.916200 0.000000
-8.900500 0.000000
-8.884800 0.000000
-8.869100 0.000000
-8.853400 0.000000
-8.837600 0.000000
-8.821900 0.000000
-8.806200 0.000000
-8.790500 0.000000
-8.774800 0.000000
-8.759000 0.000000
-8.743300 0.000000
-8.727600 0.000000
-8.711900 0.000000
-8.696200 0.000000
-8.680500 0.000000
-8.664700 0.000000
-8.649000 0.000000
-8.633300 0.000000
-8.617600 0.000000
-8.601900 0.000000
-8.586200 0.000000
-8.570400 0.000000
-8.554700 0.000000
-8.539000 0.000000
-8.523300 0.000000
-8.507600 0.000000
-8.491900 0.000000
-8.476100 0.000000
-8.460400 0.000000
-8.444700 0.000000
-8.429000 0.000000
-8.413300 0.000000
-8.397500 0.000000
-8.381800 0.000000
-8.366100 0.000000
-8.350400 0.000000
-8.334700 0.000000
-8.319000 0.000000
-8.303200 0.000000
-8.287500 0.000000
-8.271800 0.000000
-8.256100 0.000000
-8.240400 0.000000
-8.224700 0.000000
-8.208900 0.000000
-8.193200 0.000000
-8.177500 0.000000
-8.161800 0.000000
-8.146100 0.000000
-8.130300 0.000000
-8.114600 0.000000
-8.098900 0.000000
-8.083200 0.000000
-8.067500 0.000000
-8.051800 0.000000
-8.036000 0.000000
-8.020300 0.000000
-8.004600 0.000000
-7.988900 0.000000
-7.973200 0.000000
-7.957500 0.000000
-7.941700 0.000000
-7.926000 0.000000
-7.910300 0.000000
-7.894600 0.000000
-7.878900 0.000000
-7.863100 0.000000
-7.847400 0.000000
-7.831700 0.000000
-7.816000 0.000000
-7.800300 0.000000
-7.784600 0.000000
-7.768800 0.000000
-7.753100 0.000000
-7.737400 0.000000
-7.721700 0.000000
-7.706000 0.000000
-7.690300 0.000000
-7.674500 0.000000
-7.658800 0.000000
-7.643100 0.000000
-7.627400 0.000000
-7.611700 0.000000
-7.595900 0.000000
-7.580200 0.000000
-7.564500 0.000000
-7.548800 0.000000
-7.533100 0.000000
-7.517400 0.000000
-7.501600 0.000000
-7.485900 0.000000
-7.470200 0.000000
-7.454500 0.000000
-7.438800 0.000000
-7.423100 0.000000
-7.407300 0.000000
-7.391600 0.000000
-7.375900 0.000000
-7.360200 0.000000
-7.344500 0.000000
-7.328800 0.000000
-7.313000 0.000000
-7.297300 0.000000
-7.281600 0.000000
-7.265900 0.000000
-7.250200 0.000000
-7.234400 0.000000
-7.218700 0.000000
-7.203000 0.000000
-7.187300 0.000000
-7.171600 0.000000
-7.155900 0.000000
-7.140100 0.000000
-7.124400 0.000000
-7.108700 0.000000
-7.093000 0.000000
-7.077300 0.000000
-7.061600 0.000000
-7.045800 0.000000
-7.030100 0.000000
-7.014400 0.000000
-6.998700 0.000000
-6.983000 0.000000
-6.967200 0.000000
-6.951500 0.000000
-6.935800 0.000000
-6.920100 0.000000
-6.904400 0.000000
-6.888700 0.000000
-6.872900 0.000000
-6.857200 0.000000
-6.841500 0.000000
-6.825800 0.000000
-6.810100 0.000000
-6.794400 0.000000
-6.778600 0.000000
-6.762900 0.000000
-6.747200 0.000000
-6.731500 0.000000
-6.715800 0.000000
-6.700000 0.000000
-6.684300 0.000000
-6.668600 0.000000
-6.652900 0.000000
-6.637200 0.000000
-6.621500 0.000000
-6.605700 0.000000
-6.590000 0.000000
-6.574300 0.000000
-6.558600 0.000000
-6.542900 0.000000
-6.527200 0.000000
-6.511400 0.000000
-6.495700 0.000000
-6.480000 0.000000
-6.464300 0.000000
-6.448600 0.000000
-6.432900 0.000000
-6.417100 0.000000
-6.401400 0.000000
-6.385700 0.000000
-6.370000 0.000000
-6.354300 0.000000
-6.338500 0.000000
-6.322800 0.000000
-6.307100 0.000000
-6.291400 0.000000
-6.275700 0.000000
-6.260000 0.000000
-6.244200 0.000000
-6.228500 0.000000
-6.212800 0.000000
-6.197100 0.000000
-6.181400 0.000000
-6.165700 0.000000
-6.149900 0.000000
-6.134200 0.000000
-6.118500 0.000000
-6.102800 0.000000
-6.087100 0.000000
-6.071300 0.000000
-6.055600 0.000000
-6.039900 0.000000
-6.024200 0.000000
-6.008500 0.000000
-5.992800 0.000000
-5.977000 0.000000
-5.961300 0.000000
-5.945600 0.000900
-5.929900 0.050300
-5.914200 0.175000
-5.898500 0.375100
-5.882700 0.650600
-5.867000 1.001400
-5.851300 1.393000
-5.835600 1.821400
-5.819900 2.289200
-5.804100 2.774000
-5.788400 3.258400
-5.772700 3.757400
-5.757000 4.262100
-5.741300 4.664900
-5.725600 4.947100
-5.709800 5.048800
-5.694100 4.991900
-5.678400 4.815900
-5.662700 4.454900
-5.647000 4.048700
-5.631300 3.792900
-5.615500 3.534000
-5.599800 3.374800
-5.584100 3.762800
-5.568400 4.303600
-5.552700 5.024100
-5.537000 5.845900
-5.521200 6.706000
-5.505500 7.602300
-5.489800 8.135500
-5.474100 8.137700
-5.458400 8.536800
-5.442600 9.070300
-5.426900 9.432200
-5.411200 9.617200
-5.395500 9.633800
-5.379800 12.699900
-5.364100 7.914400
-5.348300 6.795700
-5.332600 5.690600
-5.316900 4.499800
-5.301200 3.644400
-5.285500 3.594800
-5.269800 3.590500
-5.254000 3.587000
-5.238300 3.584300
-5.222600 5.541600
-5.206900 7.146400
-5.191200 7.851500
-5.175400 7.635200
-5.159700 7.195200
-5.144000 10.590200
-5.128300 29.100800
-5.112600 43.140900
-5.096900 35.610500
-5.081100 16.848000
-5.065400 13.474300
-5.049700 15.377900
-5.034000 13.579600
-5.018300 12.230300
-5.002600 11.819000
-4.986800 11.033500
-4.971100 11.283600
-4.955400 10.907800
-4.939700 8.057600
-4.924000 5.829200
-4.908200 3.815300
-4.892500 2.045000
-4.876800 1.211200
-4.861100 0.594500
-4.845400 0.195000
-4.829700 0.012600
-4.813900 0.000000
-4.798200 2.404600
-4.782500 1.666400
-4.766800 1.973000
-4.751100 2.271000
-4.735400 2.560200
-4.719600 3.937800
-4.703900 7.102900
-4.688200 3.450300
-4.672500 3.370700
-4.656800 3.299200
-4.641100 3.788400
-4.625300 2.749400
-4.609600 2.033800
-4.593900 2.034400
-4.578200 2.034900
-4.562500 2.035500
-4.546700 2.036100
-4.531000 2.036700
-4.515300 2.037200
-4.499600 2.037800
-4.483900 2.038400
-4.468200 4.564100
-4.452400 4.859600
-4.436700 5.156700
-4.421000 5.460800
-4.405300 5.821700
-4.389600 6.190900
-4.373900 6.675500
-4.358100 7.248800
-4.342400 7.977600
-4.326700 8.700900
-4.311000 8.382000
-4.295300 7.957000
-4.279500 7.755300
-4.263800 8.141900
-4.248100 8.475600
-4.232400 8.598900
-4.216700 8.564800
-4.201000 8.991900
-4.185200 8.593400
-4.169500 8.693300
-4.153800 9.337700
-4.138100 10.621100
-4.122400 9.536600
-4.106700 8.606600
-4.090900 6.465400
-4.075200 6.282400
-4.059500 7.603500
-4.043800 11.290100
-4.028100 14.557200
-4.012300 17.641300
-3.996600 9.853700
-3.980900 7.245100
-3.965200 7.837700
-3.949500 6.667900
-3.933800 5.667400
-3.918000 4.800600
-3.902300 4.389700
-3.886600 4.061600
-3.870900 3.759500
-3.855200 3.462900
-3.839500 3.179500
-3.823700 2.909300
-3.808000 2.653300
-3.792300 2.431000
-3.776600 2.219700
-3.760900 1.856200
-3.745100 1.506500
-3.729400 1.202900
-3.713700 0.943200
-3.698000 0.702700
-3.682300 0.469200
-3.666600 0.240400
-3.650800 0.016300
-3.635100 0.000000
-3.619400 2.753700
-3.603700 3.103500
-3.588000 3.442000
-3.572300 3.769200
-3.556500 5.352100
-3.540800 10.273000
-3.525100 11.554600
-3.509400 9.929000
-3.493700 9.318700
-3.478000 9.287200
-3.462200 9.254500
-3.446500 9.606300
-3.430800 9.979200
-3.415100 11.593200
-3.399400 13.485500
-3.383600 13.471300
-3.367900 13.366900
-3.352200 13.251800
-3.336500 12.037700
-3.320800 11.553700
-3.305100 11.387200
-3.289300 11.672600
-3.273600 12.159500
-3.257900 12.351700
-3.242200 11.493700
-3.226500 10.626200
-3.210800 9.519400
-3.195000 8.404600
-3.179300 7.590200
-3.163600 7.276200
-3.147900 7.835900
-3.132200 7.099100
-3.116400 6.137200
-3.100700 5.477600
-3.085000 5.277900
-3.069300 5.951200
-3.053600 6.387200
-3.037900 6.717000
-3.022100 7.019200
-3.006400 7.303000
-2.990700 7.615800
-2.975000 7.887000
-2.959300 7.879500
-2.943600 7.653100
-2.927800 7.327600
-2.912100 6.994200
-2.896400 6.650200
-2.880700 6.312500
-2.865000 6.008400
-2.849200 5.738600
-2.833500 5.503300
-2.817800 5.302200
-2.802100 5.111300
-2.786400 4.926100
-2.770700 4.746600
-2.754900 4.567400
-2.739200 4.386100
-2.723500 3.495900
-2.707800 3.001200
-2.692100 2.744800
-2.676400 2.462700
-2.660600 2.682900
-2.644900 2.944000
-2.629200 3.206400
-2.613500 3.474800
-2.597800 10.263300
-2.582100 12.351500
-2.566300 7.852900
-2.550600 2.756700
-2.534900 2.832800
-2.519200 2.842600
-2.503500 2.828500
-2.487700 3.730600
-2.472000 6.269000
-2.456300 6.263800
-2.440600 6.264700
-2.424900 6.448300
-2.409200 7.403400
-2.393400 7.937900
-2.377700 8.562000
-2.362000 9.386500
-2.346300 11.264200
-2.330600 13.442100
-2.314900 15.200400
-2.299100 20.361400
-2.283400 22.974600
-2.267700 15.738100
-2.252000 12.042200
-2.236300 8.636800
-2.220500 7.794600
-2.204800 7.780300
-2.189100 7.759100
-2.173400 7.734900
-2.157700 7.690600
-2.142000 7.542200
-2.126200 7.797900
-2.110500 8.913800
-2.094800 9.645600
-2.079100 9.483500
-2.063400 9.436700
-2.047700 9.425900
-2.031900 9.415700
-2.016200 11.817600
-2.000500 16.062900
-1.984800 13.021200
-1.969100 10.574300
-1.953300 13.763900
-1.937600 12.391000
-1.921900 9.239200
-1.906200 8.194000
-1.890500 7.029600
-1.874800 5.762000
-1.859000 5.234200
-1.843300 4.900400
-1.827600 4.871400
-1.811900 5.197900
-1.796200 6.064800
-1.780500 7.435300
-1.764700 9.087600
-1.749000 10.858200
-1.733300 12.136600
-1.717600 11.718500
-1.701900 10.016200
-1.686200 8.891800
-1.670400 7.982200
-1.654700 8.434600
-1.639000 9.147500
-1.623300 9.594600
-1.607600 14.320600
-1.591800 14.377400
-1.576100 24.430800
-1.560400 7.993300
-1.544700 11.327300
-1.529000 19.550500
-1.513300 13.522300
-1.497500 11.743600
-1.481800 6.618400
-1.466100 6.892600
-1.450400 7.350500
-1.434700 7.901200
-1.419000 9.148300
-1.403200 10.955700
-1.387500 10.911000
-1.371800 11.018700
-1.356100 7.834100
-1.340400 5.561300
-1.324600 3.747400
-1.308900 4.170400
-1.293200 8.394100
-1.277500 21.039500
-1.261800 4.981200
-1.246100 18.575100
-1.230300 14.135400
-1.214600 11.371700
-1.198900 12.077500
-1.183200 12.830400
-1.167500 9.900200
-1.151800 10.310500
-1.136000 22.445000
-1.120300 22.207800
-1.104600 22.707200
-1.088900 21.193600
-1.073200 20.315200
-1.057400 22.771500
-1.041700 22.572800
-1.026000 18.748100
-1.010300 18.805900
-0.994600 15.384000
-0.978900 15.398700
-0.963100 13.601700
-0.947400 8.622900
-0.931700 4.017500
-0.916000 2.710000
-0.900300 1.503300
-0.884600 0.689100
-0.868800 0.193900
-0.853100 0.002600
-0.837400 0.000000
-0.821700 0.000000
-0.806000 0.000000
-0.790300 0.000000
-0.774500 0.000000
-0.758800 0.000000
-0.743100 0.000000
-0.727400 0.000000
-0.711700 0.000000
-0.695900 0.000000
-0.680200 0.000000
-0.664500 0.000000
-0.648800 0.000000
-0.633100 0.000000
-0.617400 0.000000
-0.601600 0.000000
-0.585900 0.000000
-0.570200 0.000000
-0.554500 0.000000
-0.538800 0.000000
-0.523100 0.000000
-0.507300 0.000000
-0.491600 0.000000
-0.475900 0.000000
-0.460200 0.000000
-0.444500 0.000000
-0.428700 0.000000
-0.413000 0.000000
-0.397300 0.000000
-0.381600 0.000000
-0.365900 0.000000
-0.350200 0.000000
-0.334400 0.000000
-0.318700 0.000000
-0.303000 0.000000
-0.287300 0.000000
-0.271600 0.000000
-0.255900 0.000000
-0.240100 0.000000
-0.224400 0.000000
-0.208700 0.000000
-0.193000 0.000000
-0.177300 0.000000
-0.161500 0.000000
-0.145800 0.000000
-0.130100 0.000000
-0.114400 0.000000
-0.098700 0.000000
-0.083000 0.000000
-0.067200 0.000000
-0.051500 0.000000
-0.035800 0.000000
-0.020100 0.000000
-0.004400 0.000000
0.011300 0.000000
0.027100 0.000000
0.042800 0.000000
0.058500 0.000000
0.074200 0.000000
0.089900 0.000000
0.105600 0.127400
0.121400 0.352200
0.137100 0.659600
0.152800 1.049600
0.168500 1.440000
0.184200 1.632900
0.200000 1.839300
0.215700 2.097500
0.231400 2.406400
0.247100 2.766000
0.262800 3.195600
0.278500 4.792900
0.294300 5.193500
0.310000 6.046800
0.325700 7.062400
0.341400 7.988500
0.357100 7.581200
0.372800 7.615600
0.388600 7.952200
0.404300 8.355800
0.420000 8.756100
0.435700 9.009300
0.451400 9.729500
0.467200 9.650800
0.482900 8.614100
0.498600 7.534200
0.514300 7.229200
0.530000 8.700200
0.545700 6.215800
0.561500 5.586500
0.577200 5.340800
0.592900 5.096900
0.608600 4.746000
0.624300 4.249900
0.640000 3.603500
0.655800 3.655100
0.671500 3.798100
0.687200 3.968300
0.702900 4.173400
0.718600 4.411900
0.734400 4.675100
0.750100 4.963100
0.765800 5.292000
0.781500 5.665500
0.797200 5.875900
0.812900 5.626900
0.828700 4.734200
0.844400 3.803000
0.860100 2.954400
0.875800 2.211800
0.891500 1.732000
0.907200 1.269500
0.923000 0.671600
0.938700 0.227600
0.954400 0.018100
0.970100 0.000000
0.985800 0.000000
1.001600 0.000000
1.017300 0.000000
1.033000 0.000000
1.048700 0.000000
1.064400 0.000000
1.080100 0.000000
1.095900 0.000000
1.111600 0.000000
1.127300 0.000000
1.143000 0.000000
1.158700 0.000000
1.174400 0.000000
1.190200 0.000000
1.205900 0.000000
1.221600 0.000000
1.237300 0.000000
1.253000 0.000000
1.268700 0.000000
1.284500 0.000000
1.300200 0.000000
1.315900 0.000000
1.331600 0.000000
1.347300 0.000000
1.363100 0.000000
1.378800 0.000000
1.394500 0.000000
1.410200 0.000000
1.425900 0.000000
1.441600 0.000000
1.457400 0.000000
1.473100 0.000000
1.488800 0.000000
1.504500 0.000000
1.520200 0.000000
1.535900 0.000000
1.551700 0.000000
1.567400 0.000000
1.583100 0.000000
1.598800 0.000000
1.614500 0.000000
1.630300 0.000000
1.646000 0.000000
1.661700 0.000000
1.677400 0.000000
1.693100 0.000000
1.708800 0.000000
1.724600 0.000000
1.740300 0.000000
1.756000 0.000000
1.771700 0.000000
1.787400 0.000000
1.803100 0.000000
1.818900 0.000000
1.834600 0.000000
1.850300 0.000000
1.866000 0.000000
1.881700 0.000000
1.897500 0.000000
1.913200 0.000000
1.928900 0.000000
1.944600 0.000000
1.960300 0.000000
1.976000 0.000000
1.991800 0.000000
2.007500 0.000000
2.023200 0.000000
2.038900 0.000000
2.054600 0.000000
2.070300 0.000000
2.086100 0.000000
2.101800 0.000000
2.117500 0.000000
2.133200 0.000000
2.148900 0.000000
2.164600 0.000000
2.180400 0.000000
2.196100 0.000000
2.211800 0.000000
2.227500 0.000000
2.243200 0.000000
2.259000 0.000000
2.274700 0.000000
2.290400 0.000000
2.306100 0.000000
2.321800 0.000000
2.337500 0.000000
2.353300 0.000000
2.369000 0.000000
2.384700 0.000000
2.400400 0.000000
2.416100 0.000000
2.431800 0.000000
2.447600 0.000000
2.463300 0.000000
2.479000 0.000000
2.494700 0.000000
2.510400 0.000000
2.526200 0.000000
2.541900 0.000000
2.557600 0.000000
2.573300 0.000000
2.589000 0.000000
2.604700 0.000000
2.620500 0.000000
2.636200 0.000000
2.651900 0.000000
2.667600 0.000000
2.683300 0.000000
2.699000 0.000000
2.714800 0.000000
2.730500 0.000000
2.746200 0.000000
2.761900 0.000000
2.777600 0.000000
2.793400 0.000000
2.809100 0.000000
2.824800 0.000000
2.840500 0.000000
2.856200 0.000000
2.871900 0.000000
2.887700 0.000000
2.903400 0.000000
2.919100 0.000000
2.934800 0.000000
2.950500 0.000000
2.966200 0.000000
2.982000 0.000000
2.997700 0.000000
3.013400 0.000000
3.029100 0.000000
3.044800 0.000000
3.060500 0.000000
3.076300 0.000000
3.092000 0.000000
3.107700 0.000000
3.123400 0.000500
3.139100 0.001500
3.154900 0.003200
3.170600 0.005500
3.186300 0.008300
3.202000 0.011800
3.217700 0.015900
3.233400 0.020600
3.249200 0.026000
3.264900 0.031900
3.280600 0.038400
3.296300 0.045600
3.312000 0.053300
3.327700 0.061700
3.343500 0.070700
3.359200 0.080300
3.374900 0.090400
3.390600 0.101200
3.406300 0.112700
3.422100 0.124700
3.437800 0.137300
3.453500 0.150500
3.469200 0.164200
3.484900 0.178100
3.500600 0.192300
3.516400 0.206700
3.532100 0.221400
3.547800 0.236300
3.563500 0.251500
3.579200 0.266900
3.594900 0.282600
3.610700 0.298600
3.626400 0.315000
3.642100 0.331700
3.657800 0.348700
3.673500 0.366100
3.689300 0.383900
3.705000 0.401900
3.720700 0.420300
3.736400 0.439100
3.752100 0.458200
3.767800 0.477700
3.783600 0.497600
3.799300 0.518000
3.815000 0.538700
3.830700 0.559800
3.846400 0.581400
3.862100 0.603300
3.877900 0.625700
3.893600 0.648400
3.909300 0.677900
3.925000 0.709500
3.940700 0.742100
3.956400 0.775500
3.972200 0.809800
3.987900 0.845000
4.003600 0.881100
4.019300 0.918100
4.035000 0.956900
4.050800 0.998300
4.066500 1.042300
4.082200 1.088900
4.097900 1.138000
4.113600 1.189700
4.129300 1.243900
4.145100 1.300700
4.160800 1.360100
4.176500 1.422100
4.192200 1.486600
4.207900 1.555600
4.223600 1.630500
4.239400 1.711300
4.255100 1.798000
4.270800 1.906600
4.286500 2.023800
4.302200 2.149600
4.318000 2.382600
4.333700 3.231200
4.349400 3.732600
4.365100 4.185200
4.380800 4.589200
4.396500 4.944500
4.412300 5.194500
4.428000 5.277400
4.443700 4.758800
4.459400 3.852500
4.475100 3.518900
4.490800 3.668000
4.506600 4.634300
4.522300 5.831200
4.538000 6.354900
4.553700 6.358900
4.569400 5.321400
4.585200 3.783400
4.600900 3.007000
4.616600 2.494200
4.632300 2.267500
4.648000 2.316800
4.663700 2.360400
4.679500 2.513500
4.695200 2.801200
4.710900 3.155500
4.726600 3.460400
4.742300 3.779900
4.758000 4.228300
4.773800 4.781800
4.789500 5.249900
4.805200 5.845300
4.820900 6.782000
4.836600 8.847800
4.852400 11.662200
4.868100 9.660200
4.883800 8.771100
4.899500 7.275600
4.915200 5.478400
4.930900 4.770500
4.946700 4.110600
4.962400 3.498500
4.978100 2.963400
4.993800 2.734000
5.009500 2.624400
5.025200 2.432500
5.041000 1.921500
5.056700 1.302000
5.072400 1.141100
5.088100 1.365300
5.103800 1.760800
5.119500 2.129600
5.135300 2.234300
5.151000 2.358800
5.166700 2.503700
5.182400 2.668900
5.198100 2.854400
5.213900 3.060300
5.229600 3.286500
5.245300 3.533700
5.261000 3.801800
5.276700 4.090800
5.292400 4.400900
5.308200 4.732000
5.323900 5.096000
5.339600 5.595600
5.355300 6.124500
5.371000 6.237800
5.386700 5.900000
5.402500 5.266000
5.418200 4.757400
5.433900 4.385000
5.449600 4.081300
5.465300 3.822000
5.481100 3.753800
5.496800 4.028900
5.512500 4.298500
5.528200 4.564600
5.543900 4.822400
5.559600 4.970500
5.575400 4.968900
5.591100 4.897000
5.606800 4.814000
5.622500 4.720100
5.638200 4.613800
5.653900 4.487100
5.669700 4.633200
5.685400 4.665300
5.701100 4.601800
5.716800 4.356000
5.732500 4.189400
5.748300 4.133400
5.764000 4.103900
5.779700 4.149200
5.795400 4.468100
5.811100 4.482200
5.826800 4.408800
5.842600 4.287600
5.858300 4.097200
5.874000 3.807900
5.889700 3.419700
5.905400 3.054800
5.921100 2.789800
5.936900 2.681000
5.952600 2.620200
5.968300 2.543700
5.984000 2.425900
5.999700 2.275000
6.015400 2.112500
6.031200 1.939400
6.046900 1.774200
6.062600 1.630400
6.078300 1.511500
6.094000 1.415000
6.109800 1.338000
6.125500 1.280600
6.141200 1.242600
6.156900 1.224200
6.172600 1.232300
6.188300 1.277500
6.204100 1.359800
6.219800 1.479500
6.235500 1.729900
6.251200 2.101700
6.266900 2.521800
6.282600 2.997000
6.298400 3.524000
6.314100 4.058900
6.329800 4.248500
6.345500 4.140500
6.361200 4.273400
6.377000 4.360300
6.392700 4.423500
6.408400 4.496100
6.424100 4.588000
6.439800 4.699200
6.455500 4.829700
6.471300 4.979500
6.487000 5.133100
6.502700 5.204600
6.518400 5.244600
6.534100 5.260600
6.549800 5.269100
6.565600 5.252300
6.581300 5.254500
6.597000 5.277500
6.612700 5.015900
6.628400 4.795500
6.644200 4.606400
6.659900 4.282200
6.675600 3.957800
6.691300 3.633900
6.707000 3.356400
6.722700 3.235100
6.738500 3.274800
6.754200 3.380600
6.769900 3.507800
6.785600 3.708800
6.801300 4.747800
6.817000 4.931700
6.832800 5.174000
6.848500 5.039500
6.864200 4.782900
6.879900 4.619600
6.895600 4.570200
6.911300 4.632600
6.927100 4.741400
6.942800 4.744800
6.958500 4.636500
6.974200 4.416700
6.989900 3.461500
7.005700 3.041700
7.021400 2.767700
7.037100 2.587300
7.052800 2.451400
7.068500 2.357300
7.084200 2.183200
7.100000 2.041300
7.115700 1.990300
7.131400 2.030200
7.147100 2.160900
7.162800 2.377400
7.178500 2.604900
7.194300 2.859200
7.210000 3.151800
7.225700 3.482700
7.241400 3.852600
7.257100 4.283700
7.272900 4.787200
7.288600 5.362200
7.304300 5.996200
7.320000 6.666900
7.335700 7.371800
7.351400 7.995500
7.367200 8.471500
7.382900 8.595000
7.398600 8.116600
7.414300 7.292700
7.430000 6.434200
7.445700 5.719200
7.461500 5.552000
7.477200 4.117400
7.492900 3.588400
7.508600 3.377100
7.524300 3.144300
7.540100 2.889900
7.555800 2.617300
7.571500 2.355100
7.587200 2.110000
7.602900 1.942200
7.618600 1.938800
7.634400 2.107900
7.650100 2.483600
7.665800 3.061400
7.681500 3.874700
7.697200 4.860700
7.712900 5.730400
7.728700 6.501600
7.744400 7.261100
7.760100 7.937100
7.775800 8.405400
7.791500 8.846000
7.807200 7.965000
7.823000 7.523500
7.838700 7.106700
7.854400 6.707500
7.870100 6.369200
7.885800 6.271900
7.901600 5.164900
7.917300 3.892000
7.933000 3.216200
7.948700 2.625500
7.964400 2.120000
7.980100 1.701600
7.995900 1.267700
8.011600 0.990600
8.027300 0.847800
8.043000 0.737800
8.058700 0.637700
8.074400 0.547600
8.090200 1.009100
8.105900 2.970100
8.121600 5.179900
8.137300 6.323400
8.153000 7.182200
8.168800 8.857200
8.184500 9.536000
8.200200 9.436800
8.215900 9.372300
8.231600 9.239000
8.247300 8.885900
8.263100 9.011400
8.278800 6.586400
8.294500 5.022300
8.310200 4.466900
8.325900 4.096700
8.341600 3.775100
8.357400 3.033700
8.373100 2.382000
8.388800 2.039300
8.404500 1.711600
8.420200 1.438300
8.436000 1.243400
8.451700 1.146900
8.467400 1.105600
8.483100 1.123800
8.498800 1.201100
8.514500 1.329100
8.530300 1.504500
8.546000 1.741400
8.561700 2.054000
8.577400 2.625900
8.593100 3.802600
8.608800 5.347300
8.624600 6.960400
8.640300 9.057300
8.656000 10.168700
8.671700 8.403200
8.687400 7.183300
8.703200 7.032900
8.718900 6.694700
8.734600 6.351500
8.750300 6.016100
8.766000 5.608500
8.781700 5.144100
8.797500 4.682600
8.813200 4.539800
8.828900 4.656300
8.844600 5.023900
8.860300 5.580700
8.876000 6.318700
8.891800 7.288300
8.907500 8.351600
8.923200 9.590100
8.938900 8.215200
8.954600 7.175200
8.970300 7.002600
8.986100 6.830600
9.001800 6.886800
9.017500 6.903000
9.033200 6.686400
9.048900 6.668100
9.064700 6.654000
9.080400 6.665000
9.096100 6.742800
9.111800 6.876100
9.127500 7.041100
9.143200 7.211600
9.159000 7.351100
9.174700 7.458300
9.190400 7.593000
9.206100 7.639100
9.221800 7.438700
9.237500 7.257900
9.253300 7.275100
9.269000 6.873600
9.284700 6.375700
9.300400 5.878900
9.316100 5.234600
9.331900 5.580300
9.347600 6.144800
9.363300 6.480400
9.379000 6.691600
9.394700 6.970700
9.410400 7.265500
9.426200 7.539200
9.441900 7.852800
9.457600 8.087300
9.473300 8.047200
9.489000 7.860500
9.504700 7.568500
9.520500 7.202100
9.536200 6.730300
9.551900 6.431900
9.567600 6.241400
9.583300 6.207100
9.599100 6.357100
9.614800 6.580800
9.630500 6.916800
9.646200 7.365800
9.661900 7.880300
9.677600 8.508700
9.693400 9.136800
9.709100 9.766700
9.724800 9.837200
9.740500 9.394500
9.756200 8.913500
9.771900 7.454200
9.787700 6.825900
9.803400 6.470200
9.819100 6.261500
9.834800 6.203200
9.850500 6.249000
9.866200 6.307600
9.882000 6.375700
9.897700 6.463400
9.913400 6.571600
9.929100 6.708800
9.944800 6.885000
9.960600 7.062000
9.976300 7.852200
9.992000 8.398100
10.007700 7.852200
10.023400 7.067400
10.039100 6.985200
10.054900 7.081700
10.070600 7.225700
10.086300 7.188300
10.102000 6.939800
10.117700 6.546000
10.133400 6.208500
10.149200 5.898200
10.164900 5.657400
10.180600 5.579400
10.196300 5.546600
10.212000 5.595300
10.227800 5.760100
10.243500 5.977300
10.259200 7.428600
10.274900 7.786200
10.290600 7.657100
10.306300 7.291600
10.322100 7.135500
10.337800 6.834300
10.353500 6.727100
10.369200 7.005400
10.384900 7.081100
10.400600 7.148200
10.416400 7.204000
10.432100 7.245500
10.447800 7.304500
10.463500 7.511000
10.479200 7.858500
10.495000 8.205500
10.510700 8.505900
10.526400 8.759700
10.542100 8.682900
10.557800 8.324200
10.573500 7.827400
10.589300 7.565400
10.605000 7.720400
10.620700 7.658100
10.636400 7.500600
10.652100 7.290400
10.667800 7.066900
10.683600 6.832800
10.699300 6.645500
10.715000 6.814700
10.730700 6.971700
10.746400 7.003500
10.762100 6.956300
10.777900 6.821900
10.793600 6.572600
10.809300 6.301900
10.825000 6.037000
10.840700 5.878500
10.856500 5.744400
10.872200 5.656200
10.887900 5.578900
10.903600 5.639400
10.919300 6.500200
10.935000 6.598200
10.950800 6.612200
10.966500 6.598500
10.982200 6.886400
10.997900 7.323500
11.013600 7.889100
11.029300 8.122000
11.045100 7.911100
11.060800 7.228300
11.076500 6.057900
11.092200 5.752400
11.107900 5.493500
11.123700 5.335100
11.139400 5.410400
11.155100 5.325800
11.170800 5.230900
11.186500 5.137200
11.202200 5.110400
11.218000 5.222000
11.233700 5.356000
11.249400 5.141600
11.265100 4.862200
11.280800 4.936200
11.296500 5.020100
11.312300 5.123600
11.328000 5.245900
11.343700 5.315900
11.359400 5.456300
11.375100 5.367300
11.390900 4.923700
11.406600 4.194700
11.422300 3.625600
11.438000 3.278700
11.453700 3.435800
11.469400 3.634400
11.485200 3.832000
11.500900 4.018600
11.516600 4.245600
11.532300 4.527000
11.548000 4.859600
11.563700 5.137000
11.579500 5.353800
11.595200 5.508900
11.610900 5.586700
11.626600 5.577000
11.642300 5.509200
11.658000 5.380700
11.673800 5.359000
11.689500 5.402500
11.705200 5.386700
11.720900 5.390800
11.736600 5.398600
11.752400 5.412900
11.768100 5.439200
11.783800 5.602000
11.799500 5.841000
11.815200 6.092700
11.830900 5.308500
11.846700 5.362600
11.862400 5.436200
11.878100 5.524700
11.893800 5.622000
11.909500 5.824900
11.925200 6.255300
11.941000 6.609400
11.956700 6.884200
11.972400 7.079700
11.988100 7.171400
12.003800 7.072900
12.019600 6.806800
12.035300 6.525900
12.051000 4.830800
12.066700 4.209300
12.082400 3.953100
12.098100 3.894500
12.113900 3.918700
12.129600 3.999100
12.145300 4.301700
12.161000 4.835500
12.176700 5.427200
12.192400 6.181500
12.208200 7.070600
12.223900 7.691800
12.239600 8.138100
12.255300 7.718100
12.271000 7.080000
12.286800 6.380600
12.302500 5.946600
12.318200 5.532000
12.333900 4.116400
12.349600 3.750100
12.365300 3.696100
12.381100 3.652700
12.396800 3.599300
12.412500 3.550000
12.428200 3.562900
12.443900 3.638000
12.459600 3.732300
12.475400 3.833700
12.491100 3.939900
12.506800 4.041100
12.522500 4.178200
12.538200 4.532500
12.554000 4.805800
12.569700 4.871800
12.585400 4.816000
12.601100 4.883600
12.616800 4.753300
12.632500 4.505700
12.648300 4.218000
12.664000 3.886500
12.679700 3.526800
12.695400 3.167500
12.711100 2.808400
12.726800 2.396800
12.742600 2.012600
12.758300 1.702500
12.774000 1.427100
12.789700 1.175700
12.805400 0.948100
12.821100 0.744500
12.836900 0.514600
12.852600 0.002000
12.868300 0.000000
12.884000 0.000000
12.899700 0.000000
12.915500 0.000000
12.931200 0.000000
12.946900 0.000000
12.962600 0.000000
12.978300 0.000000
12.994000 0.000000
13.009800 0.000000
13.025500 0.000000
13.041200 0.000000
13.056900 0.000000
13.072600 0.000000
13.088300 0.000000
13.104100 0.000000
13.119800 0.000000
13.135500 0.000000
13.151200 0.000000
13.166900 0.000000
13.182700 0.000000
13.198400 0.000000
13.214100 0.000000
13.229800 0.000000
13.245500 0.000000
13.261200 0.000000
13.277000 0.000000
13.292700 0.000000
13.308400 0.000000
13.324100 0.000000
13.339800 0.000000
13.355500 0.000000
13.371300 0.000000
13.387000 0.000000
13.402700 0.000000
13.418400 0.000000
13.434100 0.000000
13.449900 0.000000
13.465600 0.000000
13.481300 0.000000
13.497000 0.000000
13.512700 0.000000
13.528400 0.000000
13.544200 0.000000
13.559900 0.000000
13.575600 0.000000
13.591300 0.000000
13.607000 0.000000
13.622700 0.000000
13.638500 0.000000
13.654200 0.000000
13.669900 0.000000
13.685600 0.000000
13.701300 0.000000
13.717000 0.000000
13.732800 0.000000
13.748500 0.000000
13.764200 0.000000
13.779900 0.000000
13.795600 0.000000
13.811400 0.000000
13.827100 0.000000
13.842800 0.000000
13.858500 0.000000
13.874200 0.000000
13.889900 0.000000
13.905700 0.000000
13.921400 0.000000
13.937100 0.000000
13.952800 0.000000
13.968500 0.000000
13.984200 0.000000
14.000000 0.000000
14.015700 0.000000
14.031400 0.000000
14.047100 0.000000
14.062800 0.000000
14.078600 0.000000
14.094300 0.000000
14.110000 0.000000
14.125700 0.000000
14.141400 0.000000
14.157100 0.000000
14.172900 0.000000
14.188600 0.000000
14.204300 0.000000
14.220000 0.000000
14.235700 0.000000
14.251400 0.000000
14.267200 0.000000
14.282900 0.000000
e
