set title 'mp-864635 - Density of States'
set xlabel 'Energy (eV)'
set ylabel 'DOS (states/eV)'
set grid
set xrange [-10:10]
set yrange [0:30.277]
set xzeroaxis lt -1
set terminal png size 800,600
set output 'mp-864635_dos_gnuplot.png'
plot '-' using 1:2 with lines title 'DOS'
-15.545100 0.000000
-15.528000 0.000000
-15.510900 0.000000
-15.493800 0.000000
-15.476700 0.000000
-15.459600 0.000000
-15.442500 0.000000
-15.425400 0.000000
-15.408300 0.000000
-15.391200 0.000000
-15.374100 0.000000
-15.357000 0.000000
-15.340000 0.000000
-15.322900 0.000000
-15.305800 0.000000
-15.288700 0.000000
-15.271600 0.000000
-15.254500 0.000000
-15.237400 0.000000
-15.220300 0.000000
-15.203200 0.000000
-15.186100 0.000000
-15.169000 0.000000
-15.151900 0.000000
-15.134800 0.000000
-15.117700 0.000000
-15.100600 0.000000
-15.083500 0.000000
-15.066400 0.000000
-15.049300 0.000000
-15.032300 0.000000
-15.015200 0.000000
-14.998100 0.000000
-14.981000 0.000000
-14.963900 0.000000
-14.946800 0.000000
-14.929700 0.000000
-14.912600 0.000000
-14.895500 0.000000
-14.878400 0.000000
-14.861300 0.000000
-14.844200 0.000000
-14.827100 0.000000
-14.810000 0.000000
-14.792900 0.000000
-14.775800 0.000000
-14.758700 0.000000
-14.741700 0.000000
-14.724600 0.000000
-14.707500 0.000000
-14.690400 0.000000
-14.673300 0.000000
-14.656200 0.000000
-14.639100 0.000000
-14.622000 0.000000
-14.604900 0.000000
-14.587800 0.000000
-14.570700 0.000000
-14.553600 0.000000
-14.536500 0.000000
-14.519400 0.000000
-14.502300 0.000000
-14.485200 0.000000
-14.468100 0.000000
-14.451000 0.000000
-14.434000 0.000000
-14.416900 0.000000
-14.399800 0.000000
-14.382700 0.000000
-14.365600 0.000000
-14.348500 0.000000
-14.331400 0.000000
-14.314300 0.000000
-14.297200 0.000000
-14.280100 0.000000
-14.263000 0.000000
-14.245900 0.000000
-14.228800 0.000000
-14.211700 0.000000
-14.194600 0.000000
-14.177500 0.000000
-14.160400 0.000000
-14.143400 0.000000
-14.126300 0.000000
-14.109200 0.000000
-14.092100 0.000000
-14.075000 0.000000
-14.057900 0.000000
-14.040800 0.000000
-14.023700 0.000000
-14.006600 0.000000
-13.989500 0.082400
-13.972400 0.751900
-13.955300 1.081200
-13.938200 1.400100
-13.921100 1.671100
-13.904000 1.922900
-13.886900 2.190300
-13.869800 2.474000
-13.852800 2.756500
-13.835700 3.062800
-13.818600 3.393300
-13.801500 3.776200
-13.784400 4.314500
-13.767300 5.056700
-13.750200 6.472300
-13.733100 6.699400
-13.716000 6.161500
-13.698900 5.781600
-13.681800 3.596500
-13.664700 6.806100
-13.647600 7.704800
-13.630500 6.574900
-13.613400 6.372700
-13.596300 5.924000
-13.579200 5.816500
-13.562100 12.679100
-13.545100 14.877300
-13.528000 18.184100
-13.510900 32.036400
-13.493800 34.026900
-13.476700 46.189200
-13.459600 29.185500
-13.442500 54.497400
-13.425400 0.000000
-13.408300 0.000000
-13.391200 0.000000
-13.374100 0.000000
-13.357000 0.000000
-13.339900 0.000000
-13.322800 0.000000
-13.305700 0.000000
-13.288600 0.000000
-13.271500 0.000000
-13.254500 0.000000
-13.237400 0.000000
-13.220300 0.000000
-13.203200 0.000000
-13.186100 0.000000
-13.169000 0.000000
-13.151900 0.000000
-13.134800 0.000000
-13.117700 0.000000
-13.100600 0.000000
-13.083500 0.000000
-13.066400 0.000000
-13.049300 0.000000
-13.032200 0.000000
-13.015100 0.000000
-12.998000 0.000000
-12.980900 0.000000
-12.963800 0.000000
-12.946800 0.000000
-12.929700 0.000000
-12.912600 0.000000
-12.895500 0.000000
-12.878400 0.000000
-12.861300 0.000000
-12.844200 0.000000
-12.827100 0.000000
-12.810000 0.000000
-12.792900 0.000000
-12.775800 0.000000
-12.758700 0.000000
-12.741600 0.000000
-12.724500 0.000000
-12.707400 0.000000
-12.690300 0.000000
-12.673200 0.000000
-12.656200 0.000000
-12.639100 0.000000
-12.622000 0.000000
-12.604900 0.000000
-12.587800 0.000000
-12.570700 0.000000
-12.553600 0.000000
-12.536500 0.000000
-12.519400 0.000000
-12.502300 0.000000
-12.485200 0.000000
-12.468100 0.000000
-12.451000 0.000000
-12.433900 0.000000
-12.416800 0.000000
-12.399700 0.000000
-12.382600 0.000000
-12.365600 0.000000
-12.348500 0.000000
-12.331400 0.000000
-12.314300 0.000000
-12.297200 0.000000
-12.280100 0.000000
-12.263000 0.000000
-12.245900 0.000000
-12.228800 0.000000
-12.211700 0.000000
-12.194600 0.000000
-12.177500 0.000000
-12.160400 0.000000
-12.143300 0.000000
-12.126200 0.000000
-12.109100 0.000000
-12.092000 0.000000
-12.074900 0.000000
-12.057900 0.000000
-12.040800 0.000000
-12.023700 0.000000
-12.006600 0.000000
-11.989500 0.000000
-11.972400 0.000000
-11.955300 0.000000
-11.938200 0.000000
-11.921100 0.000000
-11.904000 0.000000
-11.886900 0.000000
-11.869800 0.000000
-11.852700 0.000000
-11.835600 0.000000
-11.818500 0.000000
-11.801400 0.000000
-11.784300 0.000000
-11.767300 0.000000
-11.750200 0.000000
-11.733100 0.000000
-11.716000 0.000000
-11.698900 0.000000
-11.681800 0.000000
-11.664700 0.000000
-11.647600 0.000000
-11.630500 0.000000
-11.613400 0.000000
-11.596300 0.000000
-11.579200 0.000000
-11.562100 0.000000
-11.545000 0.000000
-11.527900 0.000000
-11.510800 0.000000
-11.493700 0.000000
-11.476700 0.000000
-11.459600 0.000000
-11.442500 0.000000
-11.425400 0.000000
-11.408300 0.000000
-11.391200 0.000000
-11.374100 0.000000
-11.357000 0.000000
-11.339900 0.000000
-11.322800 0.000000
-11.305700 0.000000
-11.288600 0.000000
-11.271500 0.000000
-11.254400 0.000000
-11.237300 0.000000
-11.220200 0.000000
-11.203100 0.000000
-11.186000 0.000000
-11.169000 0.000000
-11.151900 0.000000
-11.134800 0.000000
-11.117700 0.000000
-11.100600 0.000000
-11.083500 0.000000
-11.066400 0.000000
-11.049300 0.000000
-11.032200 0.000000
-11.015100 0.000000
-10.998000 0.000000
-10.980900 0.000000
-10.963800 0.000000
-10.946700 0.000000
-10.929600 0.000000
-10.912500 0.000000
-10.895400 0.000000
-10.878400 0.000000
-10.861300 0.000000
-10.844200 0.000000
-10.827100 0.000000
-10.810000 0.000000
-10.792900 0.000000
-10.775800 0.000000
-10.758700 0.000000
-10.741600 0.000000
-10.724500 0.000000
-10.707400 0.000000
-10.690300 0.000000
-10.673200 0.000000
-10.656100 0.000000
-10.639000 0.000000
-10.621900 0.000000
-10.604800 0.000000
-10.587700 0.000000
-10.570700 0.000000
-10.553600 0.000000
-10.536500 0.000000
-10.519400 0.000000
-10.502300 0.000000
-10.485200 0.000000
-10.468100 0.000000
-10.451000 0.000000
-10.433900 0.000000
-10.416800 0.000000
-10.399700 0.000000
-10.382600 0.000000
-10.365500 0.000000
-10.348400 0.000000
-10.331300 0.000000
-10.314200 0.000000
-10.297100 0.000000
-10.280100 0.000000
-10.263000 0.000000
-10.245900 0.000000
-10.228800 0.000000
-10.211700 0.000000
-10.194600 0.000000
-10.177500 0.000000
-10.160400 0.000000
-10.143300 0.000000
-10.126200 0.000000
-10.109100 0.000000
-10.092000 0.000000
-10.074900 0.000000
-10.057800 0.000000
-10.040700 0.000000
-10.023600 0.000000
-10.006500 0.000000
-9.989500 0.000000
-9.972400 0.000000
-9.955300 0.000000
-9.938200 0.000000
-9.921100 0.000000
-9.904000 0.000000
-9.886900 0.000000
-9.869800 0.000000
-9.852700 0.000000
-9.835600 0.000000
-9.818500 0.000000
-9.801400 0.000000
-9.784300 0.000000
-9.767200 0.000000
-9.750100 0.000000
-9.733000 0.000000
-9.715900 0.000000
-9.698800 0.000000
-9.681800 0.000000
-9.664700 0.000000
-9.647600 0.000000
-9.630500 0.000000
-9.613400 0.000000
-9.596300 0.000000
-9.579200 0.000000
-9.562100 0.000000
-9.545000 0.000000
-9.527900 0.000000
-9.510800 0.000000
-9.493700 0.000000
-9.476600 0.000000
-9.459500 0.000000
-9.442400 0.000000
-9.425300 0.000000
-9.408200 0.000000
-9.391200 0.000000
-9.374100 0.000000
-9.357000 0.000000
-9.339900 0.000000
-9.322800 0.000000
-9.305700 0.000000
-9.288600 0.000000
-9.271500 0.000000
-9.254400 0.000000
-9.237300 0.000000
-9.220200 0.000000
-9.203100 0.000000
-9.186000 0.000000
-9.168900 0.000000
-9.151800 0.000000
-9.134700 0.000000
-9.117600 0.000000
-9.100500 0.000000
-9.083500 0.000000
-9.066400 0.000000
-9.049300 0.000000
-9.032200 0.000000
-9.015100 0.000000
-8.998000 0.000000
-8.980900 0.000000
-8.963800 0.000000
-8.946700 0.000000
-8.929600 0.000000
-8.912500 0.000000
-8.895400 0.000000
-8.878300 0.000000
-8.861200 0.000000
-8.844100 0.000000
-8.827000 0.000000
-8.809900 0.000000
-8.792900 0.000000
-8.775800 0.000000
-8.758700 0.000000
-8.741600 0.000000
-8.724500 0.000000
-8.707400 0.000000
-8.690300 0.000000
-8.673200 0.000000
-8.656100 0.000000
-8.639000 0.000000
-8.621900 0.000000
-8.604800 0.000000
-8.587700 0.000000
-8.570600 0.000000
-8.553500 0.000000
-8.536400 0.000000
-8.519300 0.000000
-8.502300 0.000000
-8.485200 0.000000
-8.468100 0.000000
-8.451000 0.000000
-8.433900 0.000000
-8.416800 0.000000
-8.399700 0.000000
-8.382600 0.000000
-8.365500 0.000000
-8.348400 0.000000
-8.331300 0.000000
-8.314200 0.000000
-8.297100 0.000000
-8.280000 0.000000
-8.262900 0.000000
-8.245800 0.000000
-8.228700 0.000000
-8.211600 0.000000
-8.194600 0.000000
-8.177500 0.000000
-8.160400 0.000000
-8.143300 0.000000
-8.126200 0.000000
-8.109100 0.000000
-8.092000 0.000000
-8.074900 0.000000
-8.057800 0.000000
-8.040700 0.000000
-8.023600 0.000000
-8.006500 0.000000
-7.989400 0.000000
-7.972300 0.000000
-7.955200 0.000000
-7.938100 0.000000
-7.921000 0.000000
-7.904000 0.000000
-7.886900 0.000000
-7.869800 0.000000
-7.852700 0.000000
-7.835600 0.000000
-7.818500 0.000000
-7.801400 0.000000
-7.784300 0.000000
-7.767200 0.000000
-7.750100 0.000000
-7.733000 0.000000
-7.715900 0.000000
-7.698800 0.000000
-7.681700 0.000000
-7.664600 0.000000
-7.647500 0.000000
-7.630400 0.000000
-7.613400 0.000000
-7.596300 0.000000
-7.579200 0.000000
-7.562100 0.000000
-7.545000 0.000000
-7.527900 0.000000
-7.510800 0.000000
-7.493700 0.000000
-7.476600 0.000000
-7.459500 0.000000
-7.442400 0.000000
-7.425300 0.000000
-7.408200 0.000000
-7.391100 0.000000
-7.374000 0.000000
-7.356900 0.000000
-7.339800 0.000000
-7.322700 0.000000
-7.305700 0.000000
-7.288600 0.000000
-7.271500 0.000000
-7.254400 0.000000
-7.237300 0.000000
-7.220200 0.000000
-7.203100 0.000000
-7.186000 0.000000
-7.168900 0.000000
-7.151800 0.000000
-7.134700 0.000000
-7.117600 0.000000
-7.100500 0.000000
-7.083400 0.000000
-7.066300 0.000000
-7.049200 0.000000
-7.032100 0.000000
-7.015100 0.000000
-6.998000 0.000000
-6.980900 0.000000
-6.963800 0.000000
-6.946700 0.000000
-6.929600 0.000000
-6.912500 0.000000
-6.895400 0.000000
-6.878300 0.000000
-6.861200 0.000000
-6.844100 0.000000
-6.827000 0.000000
-6.809900 0.000000
-6.792800 0.000000
-6.775700 0.000000
-6.758600 0.000000
-6.741500 0.000000
-6.724400 0.000000
-6.707400 0.000000
-6.690300 0.000000
-6.673200 0.000000
-6.656100 0.000000
-6.639000 0.000000
-6.621900 0.000000
-6.604800 0.000000
-6.587700 0.000000
-6.570600 0.000000
-6.553500 0.000000
-6.536400 0.000000
-6.519300 0.000000
-6.502200 0.000000
-6.485100 0.000000
-6.468000 0.000000
-6.450900 0.000000
-6.433800 0.000000
-6.416800 0.000000
-6.399700 0.000000
-6.382600 0.000000
-6.365500 0.000000
-6.348400 0.000000
-6.331300 0.000000
-6.314200 0.000000
-6.297100 0.000000
-6.280000 0.000000
-6.262900 0.000000
-6.245800 0.000000
-6.228700 0.000000
-6.211600 0.000000
-6.194500 0.000000
-6.177400 0.000000
-6.160300 0.000000
-6.143200 0.000000
-6.126200 0.000000
-6.109100 0.000000
-6.092000 0.000000
-6.074900 0.000000
-6.057800 0.000000
-6.040700 0.000000
-6.023600 0.000000
-6.006500 0.000000
-5.989400 0.000000
-5.972300 0.000000
-5.955200 0.000000
-5.938100 0.000000
-5.921000 0.000000
-5.903900 0.000000
-5.886800 0.000000
-5.869700 0.000000
-5.852600 0.000000
-5.835500 0.000000
-5.818500 0.000000
-5.801400 0.000000
-5.784300 0.000000
-5.767200 0.000000
-5.750100 0.000000
-5.733000 0.000000
-5.715900 0.000000
-5.698800 0.000000
-5.681700 0.000000
-5.664600 0.000000
-5.647500 0.000000
-5.630400 0.000000
-5.613300 0.000000
-5.596200 0.000000
-5.579100 0.000000
-5.562000 0.000000
-5.544900 0.000000
-5.527900 0.000000
-5.510800 0.000000
-5.493700 0.000000
-5.476600 0.000000
-5.459500 0.000000
-5.442400 0.000000
-5.425300 0.000000
-5.408200 0.000000
-5.391100 0.000000
-5.374000 0.000000
-5.356900 0.000000
-5.339800 0.000000
-5.322700 0.000000
-5.305600 0.000000
-5.288500 0.000000
-5.271400 0.000000
-5.254300 0.000000
-5.237200 0.000000
-5.220200 0.000000
-5.203100 0.000000
-5.186000 0.000000
-5.168900 0.000000
-5.151800 0.000000
-5.134700 0.000000
-5.117600 0.000000
-5.100500 0.000000
-5.083400 0.000000
-5.066300 0.000000
-5.049200 0.000000
-5.032100 0.000000
-5.015000 0.000000
-4.997900 0.000000
-4.980800 0.000000
-4.963700 0.000000
-4.946600 0.000000
-4.929600 0.000000
-4.912500 0.000000
-4.895400 0.000000
-4.878300 0.000000
-4.861200 0.000000
-4.844100 0.000000
-4.827000 0.000000
-4.809900 0.000000
-4.792800 0.000000
-4.775700 0.000000
-4.758600 0.000000
-4.741500 0.000000
-4.724400 0.000000
-4.707300 0.000000
-4.690200 0.000000
-4.673100 0.000000
-4.656000 0.000000
-4.639000 0.000000
-4.621900 0.000000
-4.604800 0.000000
-4.587700 0.000000
-4.570600 0.000000
-4.553500 0.000000
-4.536400 0.000000
-4.519300 0.000000
-4.502200 0.000000
-4.485100 0.000000
-4.468000 0.000000
-4.450900 0.000000
-4.433800 0.000000
-4.416700 0.000000
-4.399600 0.000000
-4.382500 0.000000
-4.365400 0.000000
-4.348300 0.000000
-4.331300 0.000000
-4.314200 0.000000
-4.297100 0.000000
-4.280000 0.000000
-4.262900 0.000000
-4.245800 0.000000
-4.228700 0.000000
-4.211600 0.000000
-4.194500 0.000000
-4.177400 0.000000
-4.160300 0.000000
-4.143200 0.000000
-4.126100 0.000000
-4.109000 0.000000
-4.091900 0.172700
-4.074800 0.278300
-4.057700 0.383000
-4.040700 0.499300
-4.023600 0.629700
-4.006500 0.774900
-3.989400 0.927600
-3.972300 1.135700
-3.955200 1.563000
-3.938100 2.996900
-3.921000 5.038700
-3.903900 5.828400
-3.886800 6.945200
-3.869700 16.892700
-3.852600 17.372300
-3.835500 12.111700
-3.818400 10.361000
-3.801300 10.487000
-3.784200 10.029000
-3.767100 8.632000
-3.750000 8.486700
-3.733000 7.853800
-3.715900 7.037000
-3.698800 6.955900
-3.681700 7.334000
-3.664600 6.667700
-3.647500 6.142900
-3.630400 9.596400
-3.613300 8.678400
-3.596200 6.951100
-3.579100 5.900900
-3.562000 6.798600
-3.544900 8.100200
-3.527800 7.501600
-3.510700 6.879500
-3.493600 6.924200
-3.476500 6.791200
-3.459400 7.526800
-3.442400 11.630300
-3.425300 17.064700
-3.408200 9.137500
-3.391100 10.389600
-3.374000 12.267000
-3.356900 8.951200
-3.339800 15.528200
-3.322700 16.587700
-3.305600 13.428900
-3.288500 8.495800
-3.271400 8.512300
-3.254300 8.920300
-3.237200 9.422500
-3.220100 14.055600
-3.203000 12.114900
-3.185900 10.747700
-3.168800 10.058100
-3.151800 7.862400
-3.134700 7.589100
-3.117600 7.713000
-3.100500 10.905900
-3.083400 13.463200
-3.066300 10.623900
-3.049200 8.284500
-3.032100 7.964200
-3.015000 9.884500
-2.997900 10.376700
-2.980800 10.358900
-2.963700 8.332800
-2.946600 12.180500
-2.929500 9.477000
-2.912400 6.321000
-2.895300 4.977600
-2.878200 4.912500
-2.861100 6.178500
-2.844100 6.522100
-2.827000 5.841800
-2.809900 5.174800
-2.792800 3.784200
-2.775700 4.072500
-2.758600 4.138800
-2.741500 4.196100
-2.724400 4.240100
-2.707300 4.337800
-2.690200 4.428300
-2.673100 4.387400
-2.656000 4.495800
-2.638900 4.949200
-2.621800 4.813100
-2.604700 5.168200
-2.587600 4.866700
-2.570500 4.851600
-2.553500 4.520000
-2.536400 4.797400
-2.519300 5.170400
-2.502200 5.138800
-2.485100 6.147900
-2.468000 5.047800
-2.450900 4.757600
-2.433800 4.677800
-2.416700 5.103800
-2.399600 7.380400
-2.382500 9.764900
-2.365400 8.168200
-2.348300 7.850500
-2.331200 8.843200
-2.314100 8.201400
-2.297000 5.898200
-2.279900 6.866200
-2.262900 8.496300
-2.245800 9.281600
-2.228700 8.476600
-2.211600 7.737800
-2.194500 11.162300
-2.177400 19.001600
-2.160300 8.581700
-2.143200 6.692200
-2.126100 6.076300
-2.109000 7.672100
-2.091900 10.818600
-2.074800 12.651000
-2.057700 9.047400
-2.040600 9.394600
-2.023500 12.825400
-2.006400 11.026900
-1.989300 12.531100
-1.972200 14.191200
-1.955200 12.243500
-1.938100 19.391900
-1.921000 27.524500
-1.903900 19.178800
-1.886800 17.928500
-1.869700 20.589000
-1.852600 18.204400
-1.835500 21.317500
-1.818400 22.906300
-1.801300 8.288500
-1.784200 11.494900
-1.767100 8.385600
-1.750000 10.301000
-1.732900 12.681700
-1.715800 14.297900
-1.698700 17.050800
-1.681600 21.048900
-1.664600 21.382200
-1.647500 16.219400
-1.630400 16.618200
-1.613300 15.031200
-1.596200 10.020000
-1.579100 8.854400
-1.562000 8.288100
-1.544900 7.896400
-1.527800 7.652500
-1.510700 7.587800
-1.493600 8.230300
-1.476500 6.191400
-1.459400 7.147900
-1.442300 11.169500
-1.425200 10.853200
-1.408100 5.591500
-1.391000 5.835900
-1.373900 7.527300
-1.356900 9.477200
-1.339800 7.915500
-1.322700 11.481900
-1.305600 16.035400
-1.288500 12.639100
-1.271400 10.582800
-1.254300 5.645200
-1.237200 4.810400
-1.220100 7.450000
-1.203000 11.666400
-1.185900 12.128300
-1.168800 11.005600
-1.151700 8.892600
-1.134600 5.497600
-1.117500 4.774700
-1.100400 5.697100
-1.083300 7.356000
-1.066300 10.892300
-1.049200 12.564700
-1.032100 11.061800
-1.015000 8.284600
-0.997900 6.285200
-0.980800 5.676700
-0.963700 6.195100
-0.946600 6.769500
-0.929500 8.561100
-0.912400 9.859400
-0.895300 9.731400
-0.878200 8.792900
-0.861100 8.564400
-0.844000 10.235900
-0.826900 7.426800
-0.809800 8.594900
-0.792700 6.989000
-0.775700 7.383400
-0.758600 9.157400
-0.741500 4.080100
-0.724400 3.253700
-0.707300 2.884000
-0.690200 3.720800
-0.673100 4.777400
-0.656000 4.027400
-0.638900 4.927300
-0.621800 6.375800
-0.604700 6.321900
-0.587600 4.979700
-0.570500 4.550100
-0.553400 4.485800
-0.536300 4.503300
-0.519200 4.255300
-0.502100 5.108300
-0.485000 5.269800
-0.468000 4.789100
-0.450900 4.895500
-0.433800 5.510900
-0.416700 5.716400
-0.399600 4.989100
-0.382500 5.149100
-0.365400 3.767900
-0.348300 3.657400
-0.331200 3.962200
-0.314100 4.307400
-0.297000 4.548300
-0.279900 5.760400
-0.262800 6.814600
-0.245700 6.458800
-0.228600 5.441200
-0.211500 4.259100
-0.194400 3.771300
-0.177400 3.906600
-0.160300 3.475200
-0.143200 3.443400
-0.126100 3.642800
-0.109000 3.861400
-0.091900 3.897000
-0.074800 4.003000
-0.057700 5.219400
-0.040600 7.086300
-0.023500 9.066700
-0.006400 9.751500
0.010700 8.070800
0.027800 4.891400
0.044900 1.024600
0.062000 0.472400
0.079100 0.262400
0.096200 0.409400
0.113300 1.245900
0.130300 5.054700
0.147400 9.663100
0.164500 10.097500
0.181600 8.753900
0.198700 6.197200
0.215800 5.287100
0.232900 5.010800
0.250000 3.764600
0.267100 3.494300
0.284200 3.547700
0.301300 3.716300
0.318400 3.737400
0.335500 4.084200
0.352600 5.237900
0.369700 7.203300
0.386800 6.264200
0.403900 6.009300
0.420900 5.577500
0.438000 5.581900
0.455100 5.729500
0.472200 6.094200
0.489300 6.873800
0.506400 7.368000
0.523500 7.663400
0.540600 8.499000
0.557700 9.898900
0.574800 9.895800
0.591900 8.402400
0.609000 8.560700
0.626100 8.960800
0.643200 9.965800
0.660300 6.070800
0.677400 4.905900
0.694500 4.427400
0.711500 4.162800
0.728600 2.687200
0.745700 1.550500
0.762800 1.272100
0.779900 0.464700
0.797000 0.000000
0.814100 0.000000
0.831200 0.000000
0.848300 0.000000
0.865400 0.000000
0.882500 0.000000
0.899600 0.000000
0.916700 0.000000
0.933800 0.000000
0.950900 0.000000
0.968000 0.000000
0.985100 0.000000
1.002200 0.000000
1.019200 0.000000
1.036300 0.000000
1.053400 0.000000
1.070500 0.000000
1.087600 0.000000
1.104700 0.000000
1.121800 0.000000
1.138900 0.000000
1.156000 0.000000
1.173100 0.000000
1.190200 0.000000
1.207300 0.000000
1.224400 0.000000
1.241500 0.000000
1.258600 0.000000
1.275700 0.000000
1.292800 0.000000
1.309800 0.000000
1.326900 0.000000
1.344000 0.000000
1.361100 0.000000
1.378200 0.000000
1.395300 0.000000
1.412400 0.000000
1.429500 0.000000
1.446600 0.000000
1.463700 0.000000
1.480800 0.000000
1.497900 0.000000
1.515000 0.000000
1.532100 0.000000
1.549200 0.000000
1.566300 0.000000
1.583400 0.000000
1.600400 0.000000
1.617500 0.000000
1.634600 0.000000
1.651700 0.000000
1.668800 0.000000
1.685900 0.000000
1.703000 0.000000
1.720100 0.000000
1.737200 0.000000
1.754300 0.000000
1.771400 0.000000
1.788500 0.000000
1.805600 0.000000
1.822700 0.000000
1.839800 0.000000
1.856900 0.000000
1.874000 0.000000
1.891100 0.000000
1.908100 0.000000
1.925200 0.000000
1.942300 0.000000
1.959400 0.000000
1.976500 0.000000
1.993600 0.000000
2.010700 0.000000
2.027800 0.000000
2.044900 0.000000
2.062000 0.000000
2.079100 0.000000
2.096200 0.000000
2.113300 0.000000
2.130400 0.000000
2.147500 0.000000
2.164600 0.000000
2.181700 0.000000
2.198700 0.000000
2.215800 0.000000
2.232900 0.000000
2.250000 0.000000
2.267100 0.000000
2.284200 0.000000
2.301300 0.000000
2.318400 0.000000
2.335500 0.000000
2.352600 0.000000
2.369700 0.000000
2.386800 0.000000
2.403900 0.000000
2.421000 0.000000
2.438100 0.000000
2.455200 0.000000
2.472300 0.000000
2.489400 0.000000
2.506400 0.000000
2.523500 0.000000
2.540600 0.000000
2.557700 0.000000
2.574800 0.000000
2.591900 0.000000
2.609000 0.000000
2.626100 0.000000
2.643200 0.000000
2.660300 0.000000
2.677400 0.000000
2.694500 0.000000
2.711600 0.000000
2.728700 0.000000
2.745800 0.000000
2.762900 0.000000
2.780000 0.000000
2.797000 0.000000
2.814100 0.000000
2.831200 0.000000
2.848300 0.000000
2.865400 0.000000
2.882500 0.000000
2.899600 0.000000
2.916700 0.000000
2.933800 0.000000
2.950900 0.000000
2.968000 0.000000
2.985100 0.000000
3.002200 0.000000
3.019300 0.000000
3.036400 0.000000
3.053500 0.000000
3.070600 0.000000
3.087600 0.000000
3.104700 0.000000
3.121800 0.000000
3.138900 0.000000
3.156000 0.003400
3.173100 0.010500
3.190200 0.017600
3.207300 0.024600
3.224400 0.031600
3.241500 0.038600
3.258600 0.045600
3.275700 0.052600
3.292800 0.059600
3.309900 0.066600
3.327000 0.071000
3.344100 0.074300
3.361200 0.077800
3.378300 0.081500
3.395300 0.085500
3.412400 0.089800
3.429500 0.094200
3.446600 0.098500
3.463700 0.102300
3.480800 0.105500
3.497900 0.108500
3.515000 0.111800
3.532100 0.115400
3.549200 0.119300
3.566300 0.123300
3.583400 0.127200
3.600500 0.131300
3.617600 0.135400
3.634700 0.139500
3.651800 0.143700
3.668900 0.147900
3.685900 0.152200
3.703000 0.156500
3.720100 0.160800
3.737200 0.165000
3.754300 0.169200
3.771400 0.173400
3.788500 0.177700
3.805600 0.182100
3.822700 0.186400
3.839800 0.190900
3.856900 0.195300
3.874000 0.199900
3.891100 0.204400
3.908200 0.209100
3.925300 0.213800
3.942400 0.218500
3.959500 0.223300
3.976600 0.228100
3.993600 0.233000
4.010700 0.238000
4.027800 0.242900
4.044900 0.247800
4.062000 0.252800
4.079100 0.257900
4.096200 0.262900
4.113300 0.268100
4.130400 0.273200
4.147500 0.278400
4.164600 0.283600
4.181700 0.288800
4.198800 0.294100
4.215900 0.299400
4.233000 0.304800
4.250100 0.310200
4.267200 0.316100
4.284200 0.323100
4.301300 0.330100
4.318400 0.337100
4.335500 0.344100
4.352600 0.351200
4.369700 0.358400
4.386800 0.366200
4.403900 0.374600
4.421000 0.383100
4.438100 0.391700
4.455200 0.400400
4.472300 0.409300
4.489400 0.418200
4.506500 0.427300
4.523600 0.436500
4.540700 0.445900
4.557800 0.455500
4.574800 0.465300
4.591900 0.475600
4.609000 0.486300
4.626100 0.498000
4.643200 0.511200
4.660300 0.524100
4.677400 0.536900
4.694500 0.549400
4.711600 0.561900
4.728700 0.574400
4.745800 0.586700
4.762900 0.599000
4.780000 0.611300
4.797100 0.623400
4.814200 0.641200
4.831300 0.660700
4.848400 0.680900
4.865500 0.701800
4.882500 0.724600
4.899600 0.750400
4.916700 0.783100
4.933800 0.836200
4.950900 1.013100
4.968000 0.974900
4.985100 1.006800
5.002200 1.028200
5.019300 1.052200
5.036400 1.130400
5.053500 1.104600
5.070600 1.078500
5.087700 1.058900
5.104800 1.046000
5.121900 1.072600
5.139000 1.114400
5.156100 1.222800
5.173100 1.278500
5.190200 1.243700
5.207300 2.678100
5.224400 3.362000
5.241500 4.486000
5.258600 4.850400
5.275700 4.757200
5.292800 4.266700
5.309900 3.916800
5.327000 3.636600
5.344100 3.352300
5.361200 3.233500
5.378300 3.072800
5.395400 3.015900
5.412500 3.783300
5.429600 3.438600
5.446700 3.267700
5.463700 3.122100
5.480800 2.685000
5.497900 2.279800
5.515000 2.298700
5.532100 2.371300
5.549200 2.503500
5.566300 2.817200
5.583400 2.664200
5.600500 2.176200
5.617600 2.217600
5.634700 1.952700
5.651800 1.919200
5.668900 1.785300
5.686000 1.753400
5.703100 1.777600
5.720200 1.876800
5.737300 2.019600
5.754400 2.259600
5.771400 2.550000
5.788500 3.023500
5.805600 3.572700
5.822700 3.590400
5.839800 3.550100
5.856900 3.644400
5.874000 3.653900
5.891100 3.892700
5.908200 3.127100
5.925300 2.990500
5.942400 2.818400
5.959500 2.550900
5.976600 2.376300
5.993700 2.224500
6.010800 2.117600
6.027900 2.005000
6.045000 1.850200
6.062000 1.804200
6.079100 1.824500
6.096200 1.920300
6.113300 2.093800
6.130400 2.083300
6.147500 1.931300
6.164600 1.706500
6.181700 1.585800
6.198800 1.414700
6.215900 1.229100
6.233000 1.032800
6.250100 0.995400
6.267200 0.962100
6.284300 0.931200
6.301400 0.902600
6.318500 0.876300
6.335600 0.851500
6.352700 0.826700
6.369700 0.800600
6.386800 0.774300
6.403900 0.749500
6.421000 0.726100
6.438100 0.702800
6.455200 0.682300
6.472300 0.660500
6.489400 0.637000
6.506500 0.612500
6.523600 0.588000
6.540700 0.571000
6.557800 0.554600
6.574900 0.538400
6.592000 0.522400
6.609100 0.506400
6.626200 0.490300
6.643300 0.474300
6.660300 0.464400
6.677400 0.460800
6.694500 0.460500
6.711600 0.449200
6.728700 0.437000
6.745800 0.424800
6.762900 0.413100
6.780000 0.407300
6.797100 0.408700
6.814200 0.417400
6.831300 0.435200
6.848400 0.465700
6.865500 0.561500
6.882600 0.387900
6.899700 0.177800
6.916800 0.119600
6.933900 0.101300
6.950900 0.084300
6.968000 0.068700
6.985100 0.054300
7.002200 0.125300
7.019300 0.193500
7.036400 0.293100
7.053500 0.435900
7.070600 0.587000
7.087700 0.720400
7.104800 0.863100
7.121900 1.003900
7.139000 1.099100
7.156100 1.291500
7.173200 1.494000
7.190300 1.734700
7.207400 2.003500
7.224500 2.290100
7.241600 2.673600
7.258600 2.722600
7.275700 2.521200
7.292800 2.473600
7.309900 2.463800
7.327000 2.472800
7.344100 2.255100
7.361200 2.156300
7.378300 2.059200
7.395400 1.995900
7.412500 1.988100
7.429600 2.038400
7.446700 2.183900
7.463800 2.067200
7.480900 1.531600
7.498000 1.425400
7.515100 1.384100
7.532200 1.375500
7.549200 1.396900
7.566300 1.532900
7.583400 1.950400
7.600500 2.416900
7.617600 2.764800
7.634700 2.930500
7.651800 2.899800
7.668900 3.031300
7.686000 3.344400
7.703100 3.662600
7.720200 3.773900
7.737300 3.645300
7.754400 3.223600
7.771500 2.916800
7.788600 2.687100
7.805700 2.499000
7.822800 2.280300
7.839900 2.128300
7.856900 2.067800
7.874000 2.046300
7.891100 2.178700
7.908200 2.281900
7.925300 2.306800
7.942400 2.347600
7.959500 2.429800
7.976600 2.424100
7.993700 2.326000
8.010800 2.134400
8.027900 1.932700
8.045000 1.883600
8.062100 1.854100
8.079200 1.813400
8.096300 1.765300
8.113400 1.724500
8.130500 1.677400
8.147500 1.636400
8.164600 1.623900
8.181700 1.640900
8.198800 1.679600
8.215900 1.731000
8.233000 1.760400
8.250100 1.871600
8.267200 1.945300
8.284300 1.961600
8.301400 2.058500
8.318500 2.128700
8.335600 2.173900
8.352700 2.428600
8.369800 2.462600
8.386900 2.337300
8.404000 2.146900
8.421100 1.889100
8.438100 1.771200
8.455200 1.628900
8.472300 1.593500
8.489400 1.657800
8.506500 1.874600
8.523600 1.946100
8.540700 1.984700
8.557800 1.965600
8.574900 1.894000
8.592000 2.077900
8.609100 2.028700
8.626200 1.978500
8.643300 2.166200
8.660400 2.284300
8.677500 2.385900
8.694600 2.456400
8.711700 2.558200
8.728800 3.147700
8.745800 3.757400
8.762900 4.601000
8.780000 4.222300
8.797100 3.167000
8.814200 3.031100
8.831300 2.872100
8.848400 2.520500
8.865500 2.211400
8.882600 1.748700
8.899700 1.591000
8.916800 1.445800
8.933900 1.307600
8.951000 1.197300
8.968100 1.309700
8.985200 1.955100
9.002300 2.689600
9.019400 3.359200
9.036400 3.902500
9.053500 4.861300
9.070600 5.080000
9.087700 4.539200
9.104800 4.589500
9.121900 4.484700
9.139000 4.390900
9.156100 4.109400
9.173200 4.017900
9.190300 3.940500
9.207400 4.221300
9.224500 4.996800
9.241600 5.877600
9.258700 7.422500
9.275800 5.719800
9.292900 5.444000
9.310000 5.036900
9.327000 5.552300
9.344100 4.051400
9.361200 3.516800
9.378300 3.247600
9.395400 4.718300
9.412500 4.990400
9.429600 5.504100
9.446700 6.954100
9.463800 6.341800
9.480900 5.014900
9.498000 4.502700
9.515100 4.237900
9.532200 3.330200
9.549300 2.928100
9.566400 3.020800
9.583500 3.671900
9.600600 3.739800
9.617700 4.581900
9.634700 3.901900
9.651800 4.613100
9.668900 6.036700
9.686000 6.623500
9.703100 7.350300
9.720200 7.227700
9.737300 4.741100
9.754400 5.067900
9.771500 4.639600
9.788600 4.148300
9.805700 3.443300
9.822800 3.412700
9.839900 3.598000
9.857000 3.986200
9.874100 5.167000
9.891200 6.360500
9.908300 6.736100
9.925300 6.135500
9.942400 6.181300
9.959500 7.220300
9.976600 8.088700
9.993700 8.142600
10.010800 8.040200
10.027900 8.144300
10.045000 6.912900
10.062100 6.322800
10.079200 6.112100
10.096300 6.654500
10.113400 8.449400
10.130500 7.088600
10.147600 6.445900
10.164700 6.025500
10.181800 6.811900
10.198900 7.224000
10.216000 6.501400
10.233000 6.017100
10.250100 5.454000
10.267200 5.732200
10.284300 5.689900
10.301400 5.415200
10.318500 5.093000
10.335600 6.073100
10.352700 5.898800
10.369800 6.458500
10.386900 6.269200
10.404000 5.880000
10.421100 6.472100
10.438200 6.625500
10.455300 5.626400
10.472400 5.419000
10.489500 5.744500
10.506600 5.530800
10.523600 5.525300
10.540700 5.774700
10.557800 4.514400
10.574900 3.851700
10.592000 3.454400
10.609100 3.412600
10.626200 3.871800
10.643300 3.822800
10.660400 4.061400
10.677500 3.723100
10.694600 3.470100
10.711700 3.350900
10.728800 3.169100
10.745900 2.903600
10.763000 2.590700
10.780100 2.373600
10.797200 2.449600
10.814200 2.248400
10.831300 2.229900
10.848400 2.401800
10.865500 2.782300
10.882600 2.827900
10.899700 2.872600
10.916800 2.963400
10.933900 3.400500
10.951000 4.961300
10.968100 4.646500
10.985200 4.510100
11.002300 4.888800
11.019400 5.078000
11.036500 5.895900
11.053600 7.705900
11.070700 8.085700
11.087800 6.994500
11.104900 6.500000
11.121900 6.011500
11.139000 5.808700
11.156100 5.185200
11.173200 5.125900
11.190300 4.983800
11.207400 4.773600
11.224500 4.671900
11.241600 4.075800
11.258700 3.389300
11.275800 2.647900
11.292900 2.277100
11.310000 2.477500
11.327100 2.233500
11.344200 2.383100
11.361300 2.181900
11.378400 2.187500
11.395500 2.179000
11.412500 2.222900
11.429600 2.355000
11.446700 2.514200
11.463800 2.618900
11.480900 2.841200
11.498000 3.296500
11.515100 3.546700
11.532200 3.762700
11.549300 3.839100
11.566400 3.899100
11.583500 3.956200
11.600600 3.971100
11.617700 4.031000
11.634800 4.059700
11.651900 4.032100
11.669000 3.886900
11.686100 3.635600
11.703200 3.539200
11.720200 3.381200
11.737300 3.155700
11.754400 2.937700
11.771500 2.966800
11.788600 2.987500
11.805700 2.987000
11.822800 3.124600
11.839900 2.785800
11.857000 2.761400
11.874100 2.705000
11.891200 2.577500
11.908300 2.350300
11.925400 2.054200
11.942500 1.936600
11.959600 1.842000
11.976700 1.854800
11.993800 2.004100
12.010800 1.918900
12.027900 1.854100
12.045000 1.772800
12.062100 1.663500
12.079200 1.520600
12.096300 1.270400
12.113400 0.968200
12.130500 0.692100
12.147600 0.555500
12.164700 0.183900
12.181800 0.171500
12.198900 0.218200
12.216000 0.384700
12.233100 0.671200
12.250200 0.954400
12.267300 0.901700
12.284400 0.953400
12.301400 0.968600
12.318500 0.952900
12.335600 0.951200
12.352700 0.899000
12.369800 0.950400
12.386900 1.061800
12.404000 1.199600
12.421100 1.366800
12.438200 1.621400
12.455300 2.000000
12.472400 2.186400
12.489500 2.139800
12.506600 2.034800
12.523700 1.948700
12.540800 1.928100
12.557900 1.926300
12.575000 1.927000
12.592100 1.919700
12.609100 1.899800
12.626200 1.879900
12.643300 1.885200
12.660400 1.890400
12.677500 1.899400
12.694600 1.965900
12.711700 2.015400
12.728800 2.135800
12.745900 2.543700
12.763000 2.809000
12.780100 3.067100
12.797200 3.308200
12.814300 3.510400
12.831400 3.540900
12.848500 3.276300
12.865600 3.180000
12.882700 3.286900
12.899700 3.151600
12.916800 2.796900
12.933900 2.700600
12.951000 2.525000
12.968100 2.298400
12.985200 1.997400
13.002300 1.723800
13.019400 1.623900
13.036500 1.549200
13.053600 1.460700
13.070700 1.359700
13.087800 1.302500
13.104900 1.268700
13.122000 1.271900
13.139100 1.314300
13.156200 1.392900
13.173300 1.582100
13.190300 1.778700
13.207400 1.998800
13.224500 2.279700
13.241600 2.552600
13.258700 2.883000
13.275800 3.097800
13.292900 2.974600
13.310000 2.672800
13.327100 2.587700
13.344200 2.883200
13.361300 2.882700
13.378400 2.956900
13.395500 2.916800
13.412600 2.865300
13.429700 2.859900
13.446800 2.912100
13.463900 3.028800
13.481000 3.139800
13.498000 3.266300
13.515100 3.835100
13.532200 4.028000
13.549300 3.259300
13.566400 2.742600
13.583500 2.656400
13.600600 2.625800
13.617700 2.718200
13.634800 2.848700
13.651900 3.331700
13.669000 3.192500
13.686100 3.230000
13.703200 3.333000
13.720300 3.482800
13.737400 3.160900
13.754500 2.913800
13.771600 2.887200
13.788600 3.093400
13.805700 3.443600
13.822800 3.712300
13.839900 3.691700
13.857000 3.726900
13.874100 3.950500
13.891200 3.880900
13.908300 3.998700
13.925400 4.040900
13.942500 4.076800
13.959600 4.064900
13.976700 4.041600
13.993800 3.946700
14.010900 3.949500
14.028000 3.843300
14.045100 3.619400
14.062200 3.439000
14.079300 3.359400
14.096300 3.353100
14.113400 3.351600
14.130500 3.328700
14.147600 3.305700
14.164700 3.272000
14.181800 3.205200
14.198900 3.133600
14.216000 3.097200
14.233100 3.120000
14.250200 3.279500
14.267300 3.272300
14.284400 3.261300
14.301500 3.283200
14.318600 3.322900
14.335700 3.535800
14.352800 3.638400
14.369900 3.938200
14.386900 3.385100
14.404000 3.178200
14.421100 3.162600
14.438200 3.084300
14.455300 2.960000
14.472400 3.037200
14.489500 3.682900
14.506600 3.276900
14.523700 3.012000
14.540800 3.053000
14.557900 3.162100
14.575000 3.267000
14.592100 3.328200
14.609200 3.153300
14.626300 2.793400
14.643400 2.574200
14.660500 2.188800
14.677500 2.127900
14.694600 2.142100
14.711700 2.169500
14.728800 2.259500
14.745900 2.381800
14.763000 2.503500
14.780100 2.723100
14.797200 2.976600
14.814300 2.981000
14.831400 2.848800
14.848500 2.989200
14.865600 3.134500
14.882700 3.255800
14.899800 3.351300
14.916900 3.417900
14.934000 3.381500
14.951100 3.178600
14.968200 3.001700
14.985200 2.700800
15.002300 2.639000
15.019400 2.608300
15.036500 2.702300
15.053600 2.730600
15.070700 2.697200
15.087800 2.612200
15.104900 2.501700
15.122000 2.458300
15.139100 2.614000
15.156200 2.488700
15.173300 2.645900
15.190400 2.853100
15.207500 2.797800
15.224600 2.725800
15.241700 2.735600
15.258800 2.756500
15.275800 2.776200
15.292900 2.770200
15.310000 2.626300
15.327100 2.660900
15.344200 2.758000
15.361300 2.870200
15.378400 3.121500
15.395500 3.315500
15.412600 3.867500
15.429700 3.654300
15.446800 3.643800
15.463900 3.650400
15.481000 3.661300
15.498100 3.813900
15.515200 3.857800
15.532300 3.928300
15.549400 4.008100
15.566500 4.100900
15.583500 4.204400
15.600600 4.329100
15.617700 4.466700
15.634800 4.590700
15.651900 4.203500
15.669000 3.775400
15.686100 3.647100
15.703200 3.838600
15.720300 4.042200
15.737400 3.895800
15.754500 3.753700
15.771600 3.916400
15.788700 3.829600
15.805800 4.333200
15.822900 4.938300
15.840000 5.389500
15.857100 5.893000
15.874100 5.444100
15.891200 4.871800
15.908300 4.434100
15.925400 4.174300
15.942500 3.962200
15.959600 3.947200
15.976700 3.758300
15.993800 3.453000
16.010900 3.131500
16.028000 2.947000
16.045100 3.217400
16.062200 2.600200
16.079300 2.962600
16.096400 3.284100
16.113500 3.469100
16.130600 4.087500
16.147700 4.335100
16.164700 4.426100
16.181800 4.543400
16.198900 4.653800
16.216000 4.707200
16.233100 4.531000
16.250200 4.384400
16.267300 4.194100
16.284400 3.839300
16.301500 3.631200
16.318600 3.447500
16.335700 3.168600
16.352800 3.343900
16.369900 3.774500
16.387000 4.145800
16.404100 4.162900
16.421200 4.116700
16.438300 3.980000
16.455400 3.662000
16.472400 3.386500
16.489500 3.587700
16.506600 3.994700
16.523700 3.952000
16.540800 4.016900
16.557900 3.908000
16.575000 3.667200
16.592100 3.553300
16.609200 3.636300
16.626300 3.653900
16.643400 3.579700
16.660500 3.484600
16.677600 3.401300
16.694700 2.833900
16.711800 2.522200
16.728900 2.332300
16.746000 2.153900
16.763000 1.960700
16.780100 1.742800
16.797200 1.499900
16.814300 1.231200
16.831400 0.946700
16.848500 0.741400
16.865600 0.581100
16.882700 0.416100
16.899800 0.299500
16.916900 0.200400
16.934000 0.085500
16.951100 0.023500
16.968200 0.005200
16.985300 0.000000
17.002400 0.000000
17.019500 0.000000
17.036600 0.000000
17.053600 0.000000
17.070700 0.000000
17.087800 0.000000
17.104900 0.000000
17.122000 0.000000
17.139100 0.000000
17.156200 0.000000
17.173300 0.000000
17.190400 0.000000
17.207500 0.000000
17.224600 0.000000
17.241700 0.000000
17.258800 0.000000
17.275900 0.000000
17.293000 0.000000
17.310100 0.000000
17.327200 0.000000
17.344300 0.000000
17.361300 0.000000
17.378400 0.000000
17.395500 0.000000
17.412600 0.000000
17.429700 0.000000
17.446800 0.000000
17.463900 0.000000
17.481000 0.000000
17.498100 0.000000
17.515200 0.000000
17.532300 0.000000
17.549400 0.000000
17.566500 0.000000
17.583600 0.000000
17.600700 0.000000
17.617800 0.000000
17.634900 0.000000
17.651900 0.000000
17.669000 0.000000
17.686100 0.000000
17.703200 0.000000
17.720300 0.000000
17.737400 0.000000
17.754500 0.000000
17.771600 0.000000
17.788700 0.000000
17.805800 0.000000
17.822900 0.000000
17.840000 0.000000
17.857100 0.000000
17.874200 0.000000
17.891300 0.000000
17.908400 0.000000
17.925500 0.000000
17.942600 0.000000
17.959600 0.000000
17.976700 0.000000
17.993800 0.000000
18.010900 0.000000
18.028000 0.000000
18.045100 0.000000
18.062200 0.000000
18.079300 0.000000
18.096400 0.000000
18.113500 0.000000
18.130600 0.000000
18.147700 0.000000
18.164800 0.000000
18.181900 0.000000
18.199000 0.000000
18.216100 0.000000
18.233200 0.000000
18.250200 0.000000
18.267300 0.000000
18.284400 0.000000
18.301500 0.000000
18.318600 0.000000
18.335700 0.000000
18.352800 0.000000
18.369900 0.000000
18.387000 0.000000
18.404100 0.000000
18.421200 0.000000
18.438300 0.000000
18.455400 0.000000
18.472500 0.000000
18.489600 0.000000
18.506700 0.000000
18.523800 0.000000
18.540800 0.000000
18.557900 0.000000
18.575000 0.000000
18.592100 0.000000
18.609200 0.000000
18.626300 0.000000
18.643400 0.000000
e
