set title 'mp-1225687 - Density of States'
set xlabel 'Energy (eV)'
set ylabel 'DOS (states/eV)'
set grid
set xrange [-10:10]
set yrange [0:5.056]
set xzeroaxis lt -1
set terminal png size 800,600
set output 'mp-1225687_dos_gnuplot.png'
plot '-' using 1:2 with lines title 'DOS'
-69.148700 0.000000
-69.074200 0.000000
-68.999800 0.000000
-68.925300 0.000000
-68.850800 0.000000
-68.776400 0.000000
-68.701900 0.000000
-68.627400 0.000000
-68.553000 0.000000
-68.478500 0.000000
-68.404000 0.000000
-68.329600 0.000000
-68.255100 0.000000
-68.180600 0.000000
-68.106200 0.000000
-68.031700 0.000000
-67.957300 0.000000
-67.882800 0.000000
-67.808300 0.000000
-67.733900 0.000000
-67.659400 0.000000
-67.584900 0.000000
-67.510500 0.000000
-67.436000 0.000000
-67.361500 0.000000
-67.287100 0.000000
-67.212600 0.000000
-67.138100 0.000000
-67.063700 0.000000
-66.989200 0.000000
-66.914700 0.000000
-66.840300 0.000000
-66.765800 0.000000
-66.691300 0.000000
-66.616900 0.000000
-66.542400 0.000000
-66.467900 0.000000
-66.393500 0.000000
-66.319000 0.000000
-66.244500 0.000000
-66.170100 0.000000
-66.095600 0.000000
-66.021100 0.000000
-65.946700 0.000000
-65.872200 0.000000
-65.797700 0.000000
-65.723300 0.000000
-65.648800 0.000000
-65.574300 0.000000
-65.499900 0.000000
-65.425400 0.000000
-65.350900 0.000000
-65.276500 0.000000
-65.202000 0.000000
-65.127500 0.000000
-65.053100 0.000000
-64.978600 0.000000
-64.904100 0.000000
-64.829700 0.000000
-64.755200 0.000000
-64.680800 0.000000
-64.606300 0.000000
-64.531800 0.000000
-64.457400 0.000000
-64.382900 0.000000
-64.308400 0.000000
-64.234000 0.000000
-64.159500 0.000000
-64.085000 0.000000
-64.010600 0.000000
-63.936100 0.000000
-63.861600 0.000000
-63.787200 0.000000
-63.712700 0.000000
-63.638200 0.000000
-63.563800 0.000000
-63.489300 0.000000
-63.414800 0.000000
-63.340400 0.000000
-63.265900 0.000000
-63.191400 0.000000
-63.117000 0.000000
-63.042500 0.000000
-62.968000 0.000000
-62.893600 0.000000
-62.819100 0.000000
-62.744600 0.000000
-62.670200 0.000000
-62.595700 0.000000
-62.521200 0.000000
-62.446800 0.000000
-62.372300 0.000000
-62.297800 23.815200
-62.223400 0.000000
-62.148900 0.000000
-62.074400 0.000000
-62.000000 0.000000
-61.925500 0.000000
-61.851000 0.000000
-61.776600 0.000000
-61.702100 0.000000
-61.627600 0.000000
-61.553200 0.000000
-61.478700 0.000000
-61.404300 0.000000
-61.329800 0.000000
-61.255300 0.000000
-61.180900 0.000000
-61.106400 0.000000
-61.031900 0.000000
-60.957500 0.000000
-60.883000 0.000000
-60.808500 0.000000
-60.734100 0.000000
-60.659600 0.000000
-60.585100 0.000000
-60.510700 0.000000
-60.436200 0.000000
-60.361700 0.000000
-60.287300 0.000000
-60.212800 0.000000
-60.138300 0.000000
-60.063900 0.000000
-59.989400 0.000000
-59.914900 0.000000
-59.840500 0.000000
-59.766000 0.000000
-59.691500 0.000000
-59.617100 0.000000
-59.542600 0.000000
-59.468100 0.000000
-59.393700 0.000000
-59.319200 0.000000
-59.244700 0.000000
-59.170300 0.000000
-59.095800 0.000000
-59.021300 0.000000
-58.946900 0.000000
-58.872400 0.000000
-58.797900 0.000000
-58.723500 0.000000
-58.649000 0.000000
-58.574500 0.000000
-58.500100 0.000000
-58.425600 0.000000
-58.351200 0.000000
-58.276700 0.000000
-58.202200 0.000000
-58.127800 0.000000
-58.053300 0.000000
-57.978800 0.000000
-57.904400 0.000000
-57.829900 0.000000
-57.755400 0.000000
-57.681000 0.000000
-57.606500 0.000000
-57.532000 0.000000
-57.457600 0.000000
-57.383100 0.000000
-57.308600 0.000000
-57.234200 0.000000
-57.159700 0.000000
-57.085200 0.000000
-57.010800 0.000000
-56.936300 0.000000
-56.861800 0.000000
-56.787400 0.000000
-56.712900 0.000000
-56.638400 0.000000
-56.564000 0.000000
-56.489500 0.000000
-56.415000 0.000000
-56.340600 0.000000
-56.266100 0.000000
-56.191600 0.000000
-56.117200 0.000000
-56.042700 0.000000
-55.968200 11.390300
-55.893800 8.981000
-55.819300 11.003800
-55.744800 0.000000
-55.670400 0.000000
-55.595900 0.000000
-55.521400 0.000000
-55.447000 0.000000
-55.372500 0.000000
-55.298000 0.000000
-55.223600 0.000000
-55.149100 0.000000
-55.074700 0.000000
-55.000200 0.000000
-54.925700 0.000000
-54.851300 0.000000
-54.776800 0.000000
-54.702300 0.000000
-54.627900 0.000000
-54.553400 0.000000
-54.478900 0.000000
-54.404500 0.000000
-54.330000 0.000000
-54.255500 0.000000
-54.181100 0.000000
-54.106600 0.000000
-54.032100 0.000000
-53.957700 0.000000
-53.883200 0.000000
-53.808700 0.000000
-53.734300 0.000000
-53.659800 0.000000
-53.585300 0.000000
-53.510900 0.000000
-53.436400 0.000000
-53.361900 0.000000
-53.287500 0.000000
-53.213000 0.000000
-53.138500 0.000000
-53.064100 0.000000
-52.989600 0.000000
-52.915100 0.000000
-52.840700 0.000000
-52.766200 0.000000
-52.691700 0.000000
-52.617300 0.000000
-52.542800 0.000000
-52.468300 0.000000
-52.393900 0.000000
-52.319400 0.000000
-52.244900 0.000000
-52.170500 0.000000
-52.096000 0.000000
-52.021500 0.000000
-51.947100 0.000000
-51.872600 0.000000
-51.798200 0.000000
-51.723700 0.000000
-51.649200 0.000000
-51.574800 0.000000
-51.500300 0.000000
-51.425800 0.000000
-51.351400 0.000000
-51.276900 0.000000
-51.202400 0.000000
-51.128000 0.000000
-51.053500 0.000000
-50.979000 0.000000
-50.904600 0.000000
-50.830100 0.000000
-50.755600 0.000000
-50.681200 0.000000
-50.606700 0.000000
-50.532200 0.000000
-50.457800 0.000000
-50.383300 0.000000
-50.308800 0.000000
-50.234400 0.000000
-50.159900 0.000000
-50.085400 0.000000
-50.011000 0.000000
-49.936500 0.000000
-49.862000 0.000000
-49.787600 0.000000
-49.713100 0.000000
-49.638600 0.000000
-49.564200 0.000000
-49.489700 0.000000
-49.415200 0.000000
-49.340800 0.000000
-49.266300 0.000000
-49.191800 0.000000
-49.117400 0.000000
-49.042900 0.000000
-48.968400 0.000000
-48.894000 0.000000
-48.819500 0.000000
-48.745100 0.000000
-48.670600 0.000000
-48.596100 0.000000
-48.521700 0.000000
-48.447200 0.000000
-48.372700 0.000000
-48.298300 0.000000
-48.223800 0.000000
-48.149300 0.000000
-48.074900 0.000000
-48.000400 0.000000
-47.925900 0.000000
-47.851500 0.000000
-47.777000 0.000000
-47.702500 0.000000
-47.628100 0.000000
-47.553600 0.000000
-47.479100 0.000000
-47.404700 0.000000
-47.330200 0.000000
-47.255700 0.000000
-47.181300 0.000000
-47.106800 0.000000
-47.032300 0.000000
-46.957900 0.000000
-46.883400 0.000000
-46.808900 0.000000
-46.734500 0.000000
-46.660000 0.000000
-46.585500 0.000000
-46.511100 0.000000
-46.436600 0.000000
-46.362100 0.000000
-46.287700 0.000000
-46.213200 0.000000
-46.138700 0.000000
-46.064300 0.000000
-45.989800 0.000000
-45.915300 0.000000
-45.840900 0.000000
-45.766400 0.000000
-45.691900 0.000000
-45.617500 0.000000
-45.543000 0.000000
-45.468600 0.000000
-45.394100 0.000000
-45.319600 0.000000
-45.245200 0.000000
-45.170700 0.000000
-45.096200 0.000000
-45.021800 0.000000
-44.947300 0.000000
-44.872800 0.000000
-44.798400 0.000000
-44.723900 0.000000
-44.649400 0.000000
-44.575000 0.000000
-44.500500 0.000000
-44.426000 0.000000
-44.351600 0.000000
-44.277100 0.000000
-44.202600 0.000000
-44.128200 0.000000
-44.053700 0.000000
-43.979200 0.000000
-43.904800 0.000000
-43.830300 0.000000
-43.755800 0.000000
-43.681400 0.000000
-43.606900 0.000000
-43.532400 0.000000
-43.458000 0.000000
-43.383500 0.000000
-43.309000 0.000000
-43.234600 0.000000
-43.160100 0.000000
-43.085600 0.000000
-43.011200 0.000000
-42.936700 0.000000
-42.862200 0.000000
-42.787800 0.000000
-42.713300 0.000000
-42.638800 0.000000
-42.564400 0.000000
-42.489900 0.000000
-42.415400 0.000000
-42.341000 0.000000
-42.266500 0.000000
-42.192100 0.000000
-42.117600 0.000000
-42.043100 0.000000
-41.968700 0.000000
-41.894200 0.000000
-41.819700 0.000000
-41.745300 0.000000
-41.670800 0.000000
-41.596300 0.000000
-41.521900 0.000000
-41.447400 0.000000
-41.372900 0.000000
-41.298500 0.000000
-41.224000 0.000000
-41.149500 0.000000
-41.075100 0.000000
-41.000600 0.000000
-40.926100 0.000000
-40.851700 0.000000
-40.777200 0.000000
-40.702700 0.000000
-40.628300 0.000000
-40.553800 0.000000
-40.479300 0.000000
-40.404900 0.000000
-40.330400 0.000000
-40.255900 0.000000
-40.181500 0.000000
-40.107000 0.000000
-40.032500 0.000000
-39.958100 0.000000
-39.883600 0.000000
-39.809100 0.000000
-39.734700 0.000000
-39.660200 0.000000
-39.585700 0.000000
-39.511300 0.000000
-39.436800 0.000000
-39.362300 0.000000
-39.287900 0.000000
-39.213400 0.000000
-39.139000 0.000000
-39.064500 0.000000
-38.990000 0.000000
-38.915600 0.000000
-38.841100 0.000000
-38.766600 0.000000
-38.692200 0.000000
-38.617700 0.000000
-38.543200 0.000000
-38.468800 0.000000
-38.394300 0.000000
-38.319800 0.000000
-38.245400 0.000000
-38.170900 0.000000
-38.096400 0.000000
-38.022000 0.000000
-37.947500 0.000000
-37.873000 0.000000
-37.798600 0.000000
-37.724100 0.000000
-37.649600 0.000000
-37.575200 0.000000
-37.500700 0.000000
-37.426200 0.000000
-37.351800 0.000000
-37.277300 0.000000
-37.202800 0.000000
-37.128400 0.000000
-37.053900 0.000000
-36.979400 0.000000
-36.905000 0.000000
-36.830500 0.000000
-36.756000 0.000000
-36.681600 0.000000
-36.607100 0.000000
-36.532600 0.000000
-36.458200 0.000000
-36.383700 0.000000
-36.309200 0.000000
-36.234800 0.000000
-36.160300 0.000000
-36.085800 0.000000
-36.011400 0.000000
-35.936900 0.000000
-35.862500 0.000000
-35.788000 0.000000
-35.713500 0.000000
-35.639100 0.000000
-35.564600 0.000000
-35.490100 0.000000
-35.415700 0.000000
-35.341200 0.000000
-35.266700 0.000000
-35.192300 0.000000
-35.117800 0.000000
-35.043300 0.000000
-34.968900 0.000000
-34.894400 0.000000
-34.819900 0.000000
-34.745500 0.000000
-34.671000 0.000000
-34.596500 0.000000
-34.522100 0.000000
-34.447600 0.000000
-34.373100 0.000000
-34.298700 0.000000
-34.224200 0.000000
-34.149700 0.000000
-34.075300 0.000000
-34.000800 0.000000
-33.926300 0.000000
-33.851900 0.000000
-33.777400 0.000000
-33.702900 0.000000
-33.628500 0.000000
-33.554000 0.000000
-33.479500 0.000000
-33.405100 0.000000
-33.330600 0.000000
-33.256100 0.000000
-33.181700 0.000000
-33.107200 0.000000
-33.032700 0.000000
-32.958300 0.000000
-32.883800 0.000000
-32.809300 0.000000
-32.734900 0.000000
-32.660400 0.000000
-32.586000 0.000000
-32.511500 0.000000
-32.437000 0.000000
-32.362600 0.000000
-32.288100 0.000000
-32.213600 0.000000
-32.139200 0.000000
-32.064700 0.000000
-31.990200 0.000000
-31.915800 0.000000
-31.841300 0.000000
-31.766800 0.000000
-31.692400 0.000000
-31.617900 0.000000
-31.543400 0.000000
-31.469000 0.000000
-31.394500 0.000000
-31.320000 0.000000
-31.245600 0.000000
-31.171100 0.000000
-31.096600 0.000000
-31.022200 0.000000
-30.947700 0.000000
-30.873200 0.000000
-30.798800 0.000000
-30.724300 0.000000
-30.649800 0.000000
-30.575400 0.000000
-30.500900 0.000000
-30.426400 0.000000
-30.352000 0.000000
-30.277500 0.000000
-30.203000 0.000000
-30.128600 0.000000
-30.054100 0.000000
-29.979600 0.000000
-29.905200 0.000000
-29.830700 0.000000
-29.756200 0.000000
-29.681800 0.000000
-29.607300 0.000000
-29.532900 0.000000
-29.458400 0.000000
-29.383900 0.000000
-29.309500 0.000000
-29.235000 0.000000
-29.160500 0.000000
-29.086100 0.000000
-29.011600 0.000000
-28.937100 0.000000
-28.862700 0.000000
-28.788200 0.000000
-28.713700 0.000000
-28.639300 0.000000
-28.564800 0.000000
-28.490300 0.000000
-28.415900 0.000000
-28.341400 0.000000
-28.266900 0.000000
-28.192500 0.000000
-28.118000 0.000000
-28.043500 0.000000
-27.969100 0.000000
-27.894600 0.000000
-27.820100 0.000000
-27.745700 0.000000
-27.671200 0.000000
-27.596700 0.000000
-27.522300 0.000000
-27.447800 0.000000
-27.373300 0.000000
-27.298900 0.000000
-27.224400 0.000000
-27.149900 0.000000
-27.075500 0.000000
-27.001000 0.000000
-26.926500 0.000000
-26.852100 0.000000
-26.777600 0.000000
-26.703100 0.000000
-26.628700 0.000000
-26.554200 0.000000
-26.479700 0.000000
-26.405300 0.000000
-26.330800 0.000000
-26.256400 0.000000
-26.181900 0.000000
-26.107400 0.000000
-26.033000 0.000000
-25.958500 0.000000
-25.884000 0.000000
-25.809600 0.000000
-25.735100 0.000000
-25.660600 0.000000
-25.586200 0.000000
-25.511700 0.000000
-25.437200 0.000000
-25.362800 0.000000
-25.288300 0.000000
-25.213800 0.000000
-25.139400 0.000000
-25.064900 0.000000
-24.990400 0.000000
-24.916000 0.000000
-24.841500 0.000000
-24.767000 0.000000
-24.692600 0.000000
-24.618100 0.000000
-24.543600 0.000000
-24.469200 0.000000
-24.394700 0.000000
-24.320200 0.000000
-24.245800 0.000000
-24.171300 0.000000
-24.096800 0.000000
-24.022400 0.000000
-23.947900 0.000000
-23.873400 0.000000
-23.799000 0.000000
-23.724500 0.000000
-23.650000 0.000000
-23.575600 0.000000
-23.501100 0.000000
-23.426600 0.000000
-23.352200 0.000000
-23.277700 0.000000
-23.203200 0.000000
-23.128800 0.000000
-23.054300 0.000000
-22.979900 0.000000
-22.905400 0.000000
-22.830900 0.000000
-22.756500 0.000000
-22.682000 0.000000
-22.607500 0.000000
-22.533100 0.000000
-22.458600 0.000000
-22.384100 0.000000
-22.309700 0.000000
-22.235200 0.000000
-22.160700 0.000000
-22.086300 0.000000
-22.011800 0.000000
-21.937300 0.000000
-21.862900 0.000000
-21.788400 0.000000
-21.713900 0.000000
-21.639500 0.000000
-21.565000 0.000000
-21.490500 0.000000
-21.416100 0.000000
-21.341600 0.000000
-21.267100 0.000000
-21.192700 0.000000
-21.118200 0.000000
-21.043700 0.000000
-20.969300 0.000000
-20.894800 0.000000
-20.820300 0.000000
-20.745900 0.000000
-20.671400 0.000000
-20.596900 0.000000
-20.522500 0.000000
-20.448000 0.000000
-20.373500 0.000000
-20.299100 0.000000
-20.224600 0.000000
-20.150100 0.000000
-20.075700 0.000000
-20.001200 0.000000
-19.926800 0.000000
-19.852300 0.000000
-19.777800 0.000000
-19.703400 0.000000
-19.628900 0.000000
-19.554400 0.000000
-19.480000 0.000000
-19.405500 0.000000
-19.331000 0.000000
-19.256600 0.000000
-19.182100 0.000000
-19.107600 0.000000
-19.033200 0.000000
-18.958700 0.000000
-18.884200 0.000000
-18.809800 0.000000
-18.735300 0.000000
-18.660800 0.000000
-18.586400 0.000000
-18.511900 0.000000
-18.437400 0.000000
-18.363000 0.000000
-18.288500 0.000000
-18.214000 0.000000
-18.139600 0.000000
-18.065100 0.000000
-17.990600 0.000000
-17.916200 0.000000
-17.841700 0.000000
-17.767200 0.000000
-17.692800 0.000000
-17.618300 0.000000
-17.543800 0.000000
-17.469400 0.000000
-17.394900 0.000000
-17.320400 0.000000
-17.246000 0.000000
-17.171500 0.000000
-17.097000 0.000000
-17.022600 0.000000
-16.948100 0.000000
-16.873600 0.000000
-16.799200 0.000000
-16.724700 0.000000
-16.650300 0.000000
-16.575800 0.000000
-16.501300 0.000000
-16.426900 0.000000
-16.352400 0.000000
-16.277900 0.000000
-16.203500 0.000000
-16.129000 0.000000
-16.054500 0.000000
-15.980100 0.000000
-15.905600 0.000000
-15.831100 0.000000
-15.756700 0.000000
-15.682200 0.000000
-15.607700 0.000000
-15.533300 0.000000
-15.458800 0.000000
-15.384300 0.000000
-15.309900 0.000000
-15.235400 0.000000
-15.160900 0.000000
-15.086500 0.000000
-15.012000 0.000000
-14.937500 0.000000
-14.863100 0.000000
-14.788600 0.000000
-14.714100 0.000000
-14.639700 0.000000
-14.565200 0.000000
-14.490700 0.000000
-14.416300 0.000000
-14.341800 0.000000
-14.267300 0.000000
-14.192900 0.000000
-14.118400 0.000000
-14.043900 0.000000
-13.969500 0.000000
-13.895000 0.000000
-13.820500 0.000000
-13.746100 0.000000
-13.671600 0.000000
-13.597100 0.000000
-13.522700 0.000000
-13.448200 0.000000
-13.373800 0.000000
-13.299300 0.000000
-13.224800 0.000000
-13.150400 0.000000
-13.075900 0.000000
-13.001400 0.000000
-12.927000 0.000000
-12.852500 0.000000
-12.778000 0.000000
-12.703600 0.000000
-12.629100 0.000000
-12.554600 0.000000
-12.480200 0.000000
-12.405700 0.000000
-12.331200 0.000000
-12.256800 0.000000
-12.182300 0.000000
-12.107800 0.000000
-12.033400 0.000000
-11.958900 0.000000
-11.884400 0.000000
-11.810000 0.000000
-11.735500 0.000000
-11.661000 0.000000
-11.586600 0.000000
-11.512100 0.000000
-11.437600 0.000000
-11.363200 0.000000
-11.288700 0.000000
-11.214200 0.000000
-11.139800 0.000000
-11.065300 0.000000
-10.990800 0.000000
-10.916400 0.000000
-10.841900 0.000000
-10.767400 0.000000
-10.693000 0.000000
-10.618500 0.000000
-10.544000 0.000000
-10.469600 0.000000
-10.395100 0.000000
-10.320700 0.000000
-10.246200 0.000000
-10.171700 0.000000
-10.097300 0.000000
-10.022800 0.000000
-9.948300 0.000000
-9.873900 0.000000
-9.799400 0.000000
-9.724900 0.000000
-9.650500 0.000000
-9.576000 0.000000
-9.501500 0.000000
-9.427100 0.000000
-9.352600 0.000000
-9.278100 0.000000
-9.203700 0.000000
-9.129200 0.000000
-9.054700 0.000000
-8.980300 0.000000
-8.905800 0.000000
-8.831300 0.000000
-8.756900 0.000000
-8.682400 0.000000
-8.607900 0.000000
-8.533500 0.000000
-8.459000 0.000000
-8.384500 0.000000
-8.310100 0.000000
-8.235600 0.000000
-8.161100 0.000000
-8.086700 0.000000
-8.012200 0.000000
-7.937700 0.000000
-7.863300 0.000000
-7.788800 0.000000
-7.714300 0.000000
-7.639900 0.000000
-7.565400 0.000000
-7.490900 0.000000
-7.416500 0.000000
-7.342000 0.000000
-7.267500 0.000000
-7.193100 0.000000
-7.118600 0.000000
-7.044200 0.000000
-6.969700 0.000000
-6.895200 0.000000
-6.820800 0.000000
-6.746300 0.000000
-6.671800 0.000000
-6.597400 0.000000
-6.522900 0.000000
-6.448400 0.000000
-6.374000 0.000000
-6.299500 0.000000
-6.225000 0.000000
-6.150600 0.000000
-6.076100 0.000000
-6.001600 0.000000
-5.927200 0.000000
-5.852700 0.000000
-5.778200 0.000000
-5.703800 0.000000
-5.629300 0.000000
-5.554800 0.000000
-5.480400 0.000000
-5.405900 0.000000
-5.331400 0.000000
-5.257000 0.000000
-5.182500 0.000000
-5.108000 0.000000
-5.033600 0.000000
-4.959100 0.000000
-4.884600 0.000000
-4.810200 0.000000
-4.735700 0.000000
-4.661200 0.000000
-4.586800 0.000000
-4.512300 0.000000
-4.437800 0.000000
-4.363400 0.000000
-4.288900 0.000000
-4.214400 0.000000
-4.140000 0.000000
-4.065500 0.000000
-3.991000 0.000000
-3.916600 0.000000
-3.842100 0.000000
-3.767700 0.000000
-3.693200 0.000000
-3.618700 0.000000
-3.544300 0.000000
-3.469800 0.000000
-3.395300 0.000000
-3.320900 0.000000
-3.246400 0.000000
-3.171900 0.000000
-3.097500 0.000000
-3.023000 0.000000
-2.948500 0.000000
-2.874100 0.000000
-2.799600 0.000000
-2.725100 0.000000
-2.650700 0.000000
-2.576200 0.000000
-2.501700 0.000000
-2.427300 0.000000
-2.352800 0.000000
-2.278300 0.000000
-2.203900 0.000000
-2.129400 0.000000
-2.054900 0.000000
-1.980500 0.000000
-1.906000 0.000000
-1.831500 0.000000
-1.757100 0.000400
-1.682600 0.015200
-1.608100 0.024900
-1.533700 0.030200
-1.459200 0.036900
-1.384700 0.042700
-1.310300 0.046400
-1.235800 0.049700
-1.161300 0.053600
-1.086900 0.057800
-1.012400 0.062100
-0.937900 0.065600
-0.863500 0.068500
-0.789000 0.071700
-0.714600 0.074800
-0.640100 0.078000
-0.565600 0.081300
-0.491200 0.084900
-0.416700 0.088500
-0.342200 0.091800
-0.267800 0.094600
-0.193300 0.097800
-0.118800 0.101200
-0.044400 0.104600
0.030100 0.108300
0.104600 0.113000
0.179000 0.119900
0.253500 0.122200
0.328000 0.123800
0.402400 0.126100
0.476900 0.126300
0.551400 0.127000
0.625800 0.128900
0.700300 0.130800
0.774800 0.132600
0.849200 0.141000
0.923700 0.146100
0.998200 0.151900
1.072600 0.158200
1.147100 0.163200
1.221600 0.169100
1.296000 0.175100
1.370500 0.181100
1.445000 0.188000
1.519400 0.195900
1.593900 0.204400
1.668400 0.213300
1.742800 0.222700
1.817300 0.232700
1.891800 0.244700
1.966200 0.258000
2.040700 0.274100
2.115200 0.293100
2.189600 0.315300
2.264100 0.343800
2.338600 0.378600
2.413000 0.423300
2.487500 0.487100
2.561900 0.605800
2.636400 0.721100
2.710900 0.812900
2.785300 1.091100
2.859800 1.159200
2.934300 1.237700
3.008700 1.174000
3.083200 1.161000
3.157700 1.166800
3.232100 1.183500
3.306600 1.217000
3.381100 1.383200
3.455500 1.719000
3.530000 2.025500
3.604500 2.350500
3.678900 2.357800
3.753400 2.383900
3.827900 1.979200
3.902300 2.057400
3.976800 1.526300
4.051300 1.518400
4.125700 1.854000
4.200200 2.400000
4.274700 2.684400
4.349100 2.416900
4.423600 2.069400
4.498100 1.868800
4.572500 1.834800
4.647000 2.084300
4.721500 2.203600
4.795900 2.637600
4.870400 3.168800
4.944900 3.299400
5.019300 4.596200
5.093800 3.392700
5.168300 2.985900
5.242700 2.609000
5.317200 2.090400
5.391700 1.417100
5.466100 1.941400
5.540600 2.455700
5.615100 3.028200
5.689500 2.792700
5.764000 2.433300
5.838400 1.663600
5.912900 1.773600
5.987400 1.875900
6.061800 2.168400
6.136300 2.290600
6.210800 2.491900
6.285200 2.521500
6.359700 2.226700
6.434200 2.117800
6.508600 2.765300
6.583100 1.943600
6.657600 1.930400
6.732000 2.342500
6.806500 3.093400
6.881000 3.216000
6.955400 3.186500
7.029900 2.807000
7.104400 1.579900
7.178800 1.531300
7.253300 0.892500
7.327800 0.741000
7.402200 0.538500
7.476700 0.501700
7.551200 0.460900
7.625600 0.441300
7.700100 0.428400
7.774600 0.419400
7.849000 0.409700
7.923500 0.400700
7.998000 0.383300
8.072400 0.362600
8.146900 0.352800
8.221400 0.345200
8.295800 0.338800
8.370300 0.335500
8.444800 0.336100
8.519200 0.340900
8.593700 0.334300
8.668200 0.330700
8.742600 0.319300
8.817100 0.301800
8.891500 0.292800
8.966000 0.287500
9.040500 0.287200
9.114900 0.295300
9.189400 0.265500
9.263900 0.260000
9.338300 0.260400
9.412800 0.263800
9.487300 0.265600
9.561700 0.263200
9.636200 0.259900
9.710700 0.259000
9.785100 0.264400
9.859600 0.261900
9.934100 0.261400
10.008500 0.265100
10.083000 0.273800
10.157500 0.249000
10.231900 0.240300
10.306400 0.235000
10.380900 0.234000
10.455300 0.243100
10.529800 0.243100
10.604300 0.235500
10.678700 0.228500
10.753200 0.223900
10.827700 0.219600
10.902100 0.215600
10.976600 0.212000
11.051100 0.207800
11.125500 0.202300
11.200000 0.237800
11.274500 0.179700
11.348900 0.165000
11.423400 0.161700
11.497900 0.161100
11.572300 0.174000
11.646800 0.166400
11.721300 0.161100
11.795700 0.158300
11.870200 0.154100
11.944700 0.151900
12.019100 0.150000
12.093600 0.147900
12.168000 0.145100
12.242500 0.142000
12.317000 0.138700
12.391400 0.136600
12.465900 0.132500
12.540400 0.126300
12.614800 0.131000
12.689300 0.181900
12.763800 0.224800
12.838200 0.268600
12.912700 0.247400
12.987200 0.241100
13.061600 0.265600
13.136100 0.277500
13.210600 0.273800
13.285000 0.283700
13.359500 0.273700
13.434000 0.278000
13.508400 0.289300
13.582900 0.304200
13.657400 0.304400
13.731800 0.308000
13.806300 0.302900
13.880800 0.292100
13.955200 0.291800
14.029700 0.290500
14.104200 0.291000
14.178600 0.293400
14.253100 0.279100
14.327600 0.274000
14.402000 0.269000
14.476500 0.267400
14.551000 0.268000
14.625400 0.268600
14.699900 0.269300
14.774400 0.270300
14.848800 0.270600
14.923300 0.271200
14.997800 0.269400
15.072200 0.263900
15.146700 0.261400
15.221200 0.254600
15.295600 0.244900
15.370100 0.235700
15.444500 0.229700
15.519000 0.219600
15.593500 0.210900
15.667900 0.200700
15.742400 0.194200
15.816900 0.189000
15.891300 0.184400
15.965800 0.182800
16.040300 0.184600
16.114700 0.195700
16.189200 0.240200
16.263700 0.308400
16.338100 0.325100
16.412600 0.341000
16.487100 0.331800
16.561500 0.315300
16.636000 0.302100
16.710500 0.295500
16.784900 0.291300
16.859400 0.294400
16.933900 0.299200
17.008300 0.313400
17.082800 0.344000
17.157300 0.364300
17.231700 0.372100
17.306200 0.363100
17.380700 0.356500
17.455100 0.359200
17.529600 0.358700
17.604100 0.360600
17.678500 0.363500
17.753000 0.371200
17.827500 0.371000
17.901900 0.363000
17.976400 0.356500
18.050900 0.350200
18.125300 0.348500
18.199800 0.343300
18.274300 0.338200
18.348700 0.333500
18.423200 0.333400
18.497600 0.338900
18.572100 0.346200
18.646600 0.358200
18.721000 0.376600
18.795500 0.374700
18.870000 0.371900
18.944400 0.370500
19.018900 0.365900
19.093400 0.365000
19.167800 0.365900
19.242300 0.370300
19.316800 0.368400
19.391200 0.363700
19.465700 0.365800
19.540200 0.375800
19.614600 0.372400
19.689100 0.372700
19.763600 0.370700
19.838000 0.372200
19.912500 0.374600
19.987000 0.376500
20.061400 0.377800
20.135900 0.380100
20.210400 0.382800
20.284800 0.385100
20.359300 0.385500
20.433800 0.390000
20.508200 0.390200
20.582700 0.393800
20.657200 0.399100
20.731600 0.402300
20.806100 0.406500
20.880600 0.414900
20.955000 0.418700
21.029500 0.406700
21.104000 0.400800
21.178400 0.401500
21.252900 0.407500
21.327400 0.410400
21.401800 0.410100
21.476300 0.413100
21.550800 0.406000
21.625200 0.415500
21.699700 0.432000
21.774100 0.432300
21.848600 0.452400
21.923100 0.439400
21.997500 0.440500
22.072000 0.443700
22.146500 0.450000
22.220900 0.449900
22.295400 0.450400
22.369900 0.443200
22.444300 0.438800
22.518800 0.432000
22.593300 0.424300
22.667700 0.416200
22.742200 0.419000
22.816700 0.428600
22.891100 0.432800
22.965600 0.413300
23.040100 0.404800
23.114500 0.398500
23.189000 0.391000
23.263500 0.386600
23.337900 0.377600
23.412400 0.374500
23.486900 0.376200
23.561300 0.378900
23.635800 0.382500
23.710300 0.387800
23.784700 0.382200
23.859200 0.377800
23.933700 0.376200
24.008100 0.381100
24.082600 0.394900
24.157100 0.395000
24.231500 0.384000
24.306000 0.382300
24.380500 0.381400
24.454900 0.379500
24.529400 0.375000
24.603900 0.365800
24.678300 0.357400
24.752800 0.355600
24.827300 0.349200
24.901700 0.348700
24.976200 0.350600
25.050600 0.353100
25.125100 0.352500
25.199600 0.350700
25.274000 0.349100
25.348500 0.349800
25.423000 0.348900
25.497400 0.353500
25.571900 0.347300
25.646400 0.339900
25.720800 0.337300
25.795300 0.334500
25.869800 0.332000
25.944200 0.329100
26.018700 0.325900
26.093200 0.322600
26.167600 0.319400
26.242100 0.316500
26.316600 0.314100
26.391000 0.311900
26.465500 0.309900
26.540000 0.308600
26.614400 0.310100
26.688900 0.317000
26.763400 0.328200
26.837800 0.330500
26.912300 0.330600
26.986800 0.334500
27.061200 0.351700
27.135700 0.358200
27.210200 0.356500
27.284600 0.355200
27.359100 0.355000
27.433600 0.350600
27.508000 0.339200
27.582500 0.332900
27.657000 0.328000
27.731400 0.320200
27.805900 0.317500
27.880400 0.319800
27.954800 0.321200
28.029300 0.324400
28.103700 0.338700
28.178200 0.369000
28.252700 0.395500
28.327100 0.415400
28.401600 0.429000
28.476100 0.440800
28.550500 0.456000
28.625000 0.461600
28.699500 0.463000
28.773900 0.458500
28.848400 0.456200
28.922900 0.463500
28.997300 0.466500
29.071800 0.461100
29.146300 0.456700
29.220700 0.462700
29.295200 0.471700
29.369700 0.471100
29.444100 0.471900
29.518600 0.467900
29.593100 0.471100
29.667500 0.474800
29.742000 0.480100
29.816500 0.484100
29.890900 0.494900
29.965400 0.501600
30.039900 0.512200
30.114300 0.519200
30.188800 0.523400
30.263300 0.523200
30.337700 0.518400
30.412200 0.518000
30.486700 0.567200
30.561100 0.557700
30.635600 0.558300
30.710100 0.559900
30.784500 0.565400
30.859000 0.572300
30.933500 0.573700
31.007900 0.568100
31.082400 0.569200
31.156900 0.572600
31.231300 0.578500
31.305800 0.564200
31.380200 0.564700
31.454700 0.552500
31.529200 0.534900
31.603600 0.538500
31.678100 0.533300
31.752600 0.523800
31.827000 0.519100
31.901500 0.516200
31.976000 0.511200
32.050400 0.507600
32.124900 0.501300
32.199400 0.490900
32.273800 0.479300
32.348300 0.469000
32.422800 0.458700
32.497200 0.447700
32.571700 0.442300
32.646200 0.437800
32.720600 0.421900
32.795100 0.415700
32.869600 0.413200
32.944000 0.412000
33.018500 0.415400
33.093000 0.416400
33.167400 0.416000
33.241900 0.416900
33.316400 0.401600
33.390800 0.390700
33.465300 0.381600
33.539800 0.375600
33.614200 0.370700
33.688700 0.366100
33.763200 0.359800
33.837600 0.350500
33.912100 0.342700
33.986600 0.342500
34.061000 0.345500
34.135500 0.345100
34.210000 0.335300
34.284400 0.325000
34.358900 0.319200
34.433400 0.321700
34.507800 0.323800
34.582300 0.332900
34.656700 0.344400
34.731200 0.340900
34.805700 0.323200
34.880100 0.312600
34.954600 0.306900
35.029100 0.286000
35.103500 0.281000
35.178000 0.280600
35.252500 0.280800
35.326900 0.281300
35.401400 0.284500
35.475900 0.292000
35.550300 0.304300
35.624800 0.323000
35.699300 0.351500
35.773700 0.389300
35.848200 0.427900
35.922700 0.455600
35.997100 0.488500
36.071600 0.530000
36.146100 0.573600
36.220500 0.605800
36.295000 0.611800
36.369500 0.616100
36.443900 0.637800
36.518400 0.676500
36.592900 0.646000
36.667300 0.614800
36.741800 0.582600
36.816300 0.563700
36.890700 0.573000
36.965200 0.579400
37.039700 0.562200
37.114100 0.556000
37.188600 0.560100
37.263100 0.551200
37.337500 0.540700
37.412000 0.525600
37.486500 0.513300
37.560900 0.517500
37.635400 0.527800
37.709800 0.528700
37.784300 0.520600
37.858800 0.512600
37.933200 0.505100
38.007700 0.511300
38.082200 0.505500
38.156600 0.467800
38.231100 0.450300
38.305600 0.425100
38.380000 0.417000
38.454500 0.418500
38.529000 0.417700
38.603400 0.415600
38.677900 0.407900
38.752400 0.401600
38.826800 0.400400
38.901300 0.402600
38.975800 0.399700
39.050200 0.395700
39.124700 0.394400
39.199200 0.403600
39.273600 0.431600
39.348100 0.403800
39.422600 0.401000
39.497000 0.406100
39.571500 0.428500
39.646000 0.462100
39.720400 0.477000
39.794900 0.485300
39.869400 0.502900
39.943800 0.532600
40.018300 0.571200
40.092800 0.628200
40.167200 0.715400
40.241700 0.781900
40.316200 0.876600
40.390600 0.911200
40.465100 0.956100
40.539600 1.052800
40.614000 1.189000
40.688500 1.513500
40.763000 1.810700
40.837400 3.813400
40.911900 1.457000
40.986300 1.302900
41.060800 1.180100
41.135300 0.951300
41.209700 0.855300
41.284200 0.833400
41.358700 0.752200
41.433100 0.717500
41.507600 0.689600
41.582100 0.673500
41.656500 0.662100
41.731000 0.665800
41.805500 0.663400
41.879900 0.649500
41.954400 0.668200
42.028900 0.636200
42.103300 0.605200
42.177800 0.589600
42.252300 0.578400
42.326700 0.567500
42.401200 0.550200
42.475700 0.531800
42.550100 0.521000
42.624600 0.509300
42.699100 0.494800
42.773500 0.482200
42.848000 0.472500
42.922500 0.464000
42.996900 0.454300
43.071400 0.449700
43.145900 0.445500
43.220300 0.445300
43.294800 0.450100
43.369300 0.461600
43.443700 0.472900
43.518200 0.489100
43.592700 0.499200
43.667100 0.511900
43.741600 0.533300
43.816100 0.550300
43.890500 0.564700
43.965000 0.571100
44.039500 0.589300
44.113900 0.600000
44.188400 0.619200
44.262800 0.634500
44.337300 0.667800
44.411800 0.714900
44.486200 0.762600
44.560700 0.810400
44.635200 0.875900
44.709600 0.973500
44.784100 1.142800
44.858600 1.380600
44.933000 1.764600
45.007500 2.230900
45.082000 2.150800
45.156400 1.729000
45.230900 1.032600
45.305400 0.936700
45.379800 0.843900
45.454300 0.802300
45.528800 0.770000
45.603200 0.746100
45.677700 0.738700
45.752200 0.735100
45.826600 0.737800
45.901100 0.713300
45.975600 0.686200
46.050000 0.661600
46.124500 0.628100
46.199000 0.596800
46.273400 0.590700
46.347900 0.589900
46.422400 0.577700
46.496800 0.559600
46.571300 0.546300
46.645800 0.535700
46.720200 0.526900
46.794700 0.529700
46.869200 0.542300
46.943600 0.558800
47.018100 0.563200
47.092600 0.564400
47.167000 0.570400
47.241500 0.561100
47.315900 0.558800
47.390400 0.564900
47.464900 0.580700
47.539300 0.597800
47.613800 0.567500
47.688300 0.560900
47.762700 0.566300
47.837200 0.557000
47.911700 0.549500
47.986100 0.546200
48.060600 0.541400
48.135100 0.548700
48.209500 0.552800
48.284000 0.556000
48.358500 0.562300
48.432900 0.573000
48.507400 0.578400
48.581900 0.582000
48.656300 0.577900
48.730800 0.567900
48.805300 0.561900
48.879700 0.559700
48.954200 0.565900
49.028700 0.570800
49.103100 0.566200
49.177600 0.566300
49.252100 0.575500
49.326500 0.601300
49.401000 0.623600
49.475500 0.618800
49.549900 0.593500
49.624400 0.585500
49.698900 0.580200
49.773300 0.573700
49.847800 0.559100
49.922300 0.548600
49.996700 0.560200
50.071200 0.551900
50.145700 0.554600
50.220100 0.564500
50.294600 0.576400
50.369100 0.579900
50.443500 0.582400
50.518000 0.588000
50.592400 0.596900
50.666900 0.595000
50.741400 0.585500
50.815800 0.582400
50.890300 0.593200
50.964800 0.571400
51.039200 0.559400
51.113700 0.554700
51.188200 0.550300
51.262600 0.546500
51.337100 0.544900
51.411600 0.545700
51.486000 0.548300
51.560500 0.554600
51.635000 0.557000
51.709400 0.564200
51.783900 0.570200
51.858400 0.574900
51.932800 0.597700
52.007300 0.613900
52.081800 0.622800
52.156200 0.642300
52.230700 0.655500
52.305200 0.675700
52.379600 0.664500
52.454100 0.653000
52.528600 0.637500
52.603000 0.624100
52.677500 0.619900
52.752000 0.615700
52.826400 0.615900
52.900900 0.622700
52.975400 0.627300
53.049800 0.629700
53.124300 0.644200
53.198800 0.664600
53.273200 0.684900
53.347700 0.695300
53.422200 0.685900
53.496600 0.665500
53.571100 0.652100
53.645600 0.642400
53.720000 0.626800
53.794500 0.613400
53.868900 0.596800
53.943400 0.588800
54.017900 0.582700
54.092300 0.586600
54.166800 0.594400
54.241300 0.605400
54.315700 0.609800
54.390200 0.617400
54.464700 0.619100
54.539100 0.632200
54.613600 0.653700
54.688100 0.665500
54.762500 0.677600
54.837000 0.682100
54.911500 0.676200
54.985900 0.675900
55.060400 0.674700
55.134900 0.674100
55.209300 0.676800
55.283800 0.679900
55.358300 0.688000
55.432700 0.698200
55.507200 0.696700
55.581700 0.656100
55.656100 0.640800
55.730600 0.633900
55.805100 0.641900
55.879500 0.641100
55.954000 0.645100
56.028500 0.620900
56.102900 0.577900
56.177400 0.553300
56.251900 0.551400
56.326300 0.551600
56.400800 0.544700
56.475300 0.543700
56.549700 0.538500
56.624200 0.534300
56.698700 0.528300
56.773100 0.529300
56.847600 0.542200
56.922000 0.549500
56.996500 0.545500
57.071000 0.542000
57.145400 0.549700
57.219900 0.557100
57.294400 0.563800
57.368800 0.562300
57.443300 0.556800
57.517800 0.547300
57.592200 0.549300
57.666700 0.548400
57.741200 0.538000
57.815600 0.527200
57.890100 0.523000
57.964600 0.518000
58.039000 0.517800
58.113500 0.510500
58.188000 0.511000
58.262400 0.521800
58.336900 0.538000
58.411400 0.562800
58.485800 0.589900
58.560300 0.624100
58.634800 0.613200
58.709200 0.625300
58.783700 0.606500
58.858200 0.619600
58.932600 0.644300
59.007100 0.674200
59.081600 0.710700
59.156000 0.737600
59.230500 0.727900
59.305000 0.725900
59.379400 0.690500
59.453900 0.661800
59.528400 0.644700
59.602800 0.630600
59.677300 0.624700
59.751800 0.637500
59.826200 0.605000
59.900700 0.599400
59.975200 0.597100
60.049600 0.582900
60.124100 0.570400
60.198500 0.566300
60.273000 0.565400
60.347500 0.551200
60.421900 0.542800
60.496400 0.532800
60.570900 0.534200
60.645300 0.538200
60.719800 0.542100
60.794300 0.542200
60.868700 0.550200
60.943200 0.562200
61.017700 0.553700
61.092100 0.546900
61.166600 0.562900
61.241100 0.574800
61.315500 0.578300
61.390000 0.587300
61.464500 0.572400
61.538900 0.574500
61.613400 0.583300
61.687900 0.601000
61.762300 0.609100
61.836800 0.604900
61.911300 0.593700
61.985700 0.596000
62.060200 0.603000
62.134700 0.607400
62.209100 0.620000
62.283600 0.615500
62.358100 0.613700
62.432500 0.623800
62.507000 0.617900
62.581500 0.615900
62.655900 0.626000
62.730400 0.653400
62.804900 0.662300
62.879300 0.669400
62.953800 0.676900
63.028300 0.675900
63.102700 0.664000
63.177200 0.642100
63.251700 0.638600
63.326100 0.646400
63.400600 0.625500
63.475000 0.627800
63.549500 0.633700
63.624000 0.620700
63.698400 0.622900
63.772900 0.629500
63.847400 0.631600
63.921800 0.635200
63.996300 0.628900
64.070800 0.633000
64.145200 0.646800
64.219700 0.655000
64.294200 0.658600
64.368600 0.689500
64.443100 0.678700
64.517600 0.684700
64.592000 0.718100
64.666500 0.733200
64.741000 0.716400
64.815400 0.707600
64.889900 0.691100
64.964400 0.677300
65.038800 0.682000
65.113300 0.697200
65.187800 0.717100
65.262200 0.737900
65.336700 0.731600
65.411200 0.746900
65.485600 0.770200
65.560100 0.760100
65.634600 0.775000
65.709000 0.792900
65.783500 0.791800
65.858000 0.764400
65.932400 0.740500
66.006900 0.724600
66.081400 0.689200
66.155800 0.656500
66.230300 0.646100
66.304800 0.627600
66.379200 0.611200
66.453700 0.602500
66.528100 0.606600
66.602600 0.631400
66.677100 0.661500
66.751500 0.676900
66.826000 0.684100
66.900500 0.698300
66.974900 0.710800
67.049400 0.693200
67.123900 0.676600
67.198300 0.653500
67.272800 0.630600
67.347300 0.618000
67.421700 0.612400
67.496200 0.610300
67.570700 0.609400
67.645100 0.634100
67.719600 0.637900
67.794100 0.615800
67.868500 0.569600
67.943000 0.556900
68.017500 0.536400
68.091900 0.503600
68.166400 0.465800
68.240900 0.424400
68.315300 0.407800
68.389800 0.401000
68.464300 0.397500
68.538700 0.394400
68.613200 0.395600
68.687700 0.399600
68.762100 0.407500
68.836600 0.404700
68.911100 0.381900
68.985500 0.354300
69.060000 0.341700
69.134500 0.327700
69.208900 0.315500
69.283400 0.303200
69.357900 0.290100
69.432300 0.276200
69.506800 0.264000
69.581300 0.248300
69.655700 0.235500
69.730200 0.230500
69.804600 0.227000
69.879100 0.220800
69.953600 0.211400
70.028000 0.202800
70.102500 0.193600
70.177000 0.178800
70.251400 0.163800
70.325900 0.152900
70.400400 0.143500
70.474800 0.135300
70.549300 0.127600
70.623800 0.121200
70.698200 0.118800
70.772700 0.117300
70.847200 0.112900
70.921600 0.104900
70.996100 0.095700
71.070600 0.085100
71.145000 0.074600
71.219500 0.069200
71.294000 0.066400
71.368400 0.061300
71.442900 0.055800
71.517400 0.049600
71.591800 0.044800
71.666300 0.041300
71.740800 0.038400
71.815200 0.035300
71.889700 0.031000
71.964200 0.026500
72.038600 0.023000
72.113100 0.020500
72.187600 0.018300
72.262000 0.016200
72.336500 0.014100
72.411000 0.012100
72.485400 0.010200
72.559900 0.008400
72.634400 0.006700
72.708800 0.005100
72.783300 0.003600
72.857800 0.000300
72.932200 0.000000
73.006700 0.000000
73.081100 0.000000
73.155600 0.000000
73.230100 0.000000
73.304500 0.000000
73.379000 0.000000
73.453500 0.000000
73.527900 0.000000
73.602400 0.000000
73.676900 0.000000
73.751300 0.000000
73.825800 0.000000
73.900300 0.000000
73.974700 0.000000
74.049200 0.000000
74.123700 0.000000
74.198100 0.000000
74.272600 0.000000
74.347100 0.000000
74.421500 0.000000
74.496000 0.000000
74.570500 0.000000
74.644900 0.000000
74.719400 0.000000
74.793900 0.000000
74.868300 0.000000
74.942800 0.000000
75.017300 0.000000
75.091700 0.000000
75.166200 0.000000
75.240700 0.000000
75.315100 0.000000
75.389600 0.000000
75.464100 0.000000
75.538500 0.000000
75.613000 0.000000
75.687500 0.000000
75.761900 0.000000
75.836400 0.000000
75.910900 0.000000
75.985300 0.000000
76.059800 0.000000
76.134200 0.000000
76.208700 0.000000
76.283200 0.000000
76.357600 0.000000
76.432100 0.000000
76.506600 0.000000
76.581000 0.000000
76.655500 0.000000
76.730000 0.000000
76.804400 0.000000
76.878900 0.000000
76.953400 0.000000
77.027800 0.000000
77.102300 0.000000
77.176800 0.000000
77.251200 0.000000
77.325700 0.000000
77.400200 0.000000
77.474600 0.000000
77.549100 0.000000
77.623600 0.000000
77.698000 0.000000
77.772500 0.000000
77.847000 0.000000
77.921400 0.000000
77.995900 0.000000
78.070400 0.000000
78.144800 0.000000
78.219300 0.000000
78.293800 0.000000
78.368200 0.000000
78.442700 0.000000
78.517200 0.000000
78.591600 0.000000
78.666100 0.000000
78.740600 0.000000
78.815000 0.000000
78.889500 0.000000
78.964000 0.000000
79.038400 0.000000
79.112900 0.000000
79.187400 0.000000
79.261800 0.000000
79.336300 0.000000
79.410700 0.000000
79.485200 0.000000
79.559700 0.000000
79.634100 0.000000
79.708600 0.000000
79.783100 0.000000
e
