set title 'mp-1220390 - Density of States'
set xlabel 'Energy (eV)'
set ylabel 'DOS (states/eV)'
set grid
set xrange [-10:10]
set yrange [0:20.116]
set xzeroaxis lt -1
set terminal png size 800,600
set output 'mp-1220390_dos_gnuplot.png'
plot '-' using 1:2 with lines title 'DOS'
-29.363100 0.000000
-29.330200 0.000000
-29.297200 0.000000
-29.264300 0.000000
-29.231400 0.000000
-29.198500 0.000000
-29.165500 0.000000
-29.132600 0.000000
-29.099700 0.000000
-29.066700 0.000000
-29.033800 0.000000
-29.000900 0.000000
-28.968000 0.000000
-28.935000 0.000000
-28.902100 0.000000
-28.869200 0.000000
-28.836200 0.000000
-28.803300 0.000000
-28.770400 0.000000
-28.737500 0.000000
-28.704500 0.000000
-28.671600 0.000000
-28.638700 0.000000
-28.605800 0.000000
-28.572800 0.000000
-28.539900 0.000000
-28.507000 0.000000
-28.474000 0.000000
-28.441100 0.000000
-28.408200 0.000000
-28.375300 0.000000
-28.342300 0.000000
-28.309400 0.000000
-28.276500 0.000000
-28.243600 0.000000
-28.210600 0.000000
-28.177700 0.000000
-28.144800 0.000000
-28.111800 0.000000
-28.078900 0.000000
-28.046000 0.000000
-28.013100 0.000000
-27.980100 0.000000
-27.947200 0.000000
-27.914300 0.000000
-27.881300 0.000000
-27.848400 0.000000
-27.815500 0.000000
-27.782600 0.000000
-27.749600 0.000000
-27.716700 0.000000
-27.683800 0.000000
-27.650900 0.000000
-27.617900 0.000000
-27.585000 0.000000
-27.552100 0.000000
-27.519100 0.000000
-27.486200 0.000000
-27.453300 0.000000
-27.420400 0.000000
-27.387400 0.000000
-27.354500 0.000000
-27.321600 0.000000
-27.288600 0.000000
-27.255700 0.000000
-27.222800 0.000000
-27.189900 0.000000
-27.156900 0.000000
-27.124000 0.000000
-27.091100 0.000000
-27.058200 0.000000
-27.025200 0.000000
-26.992300 0.000000
-26.959400 0.000000
-26.926400 0.000000
-26.893500 0.000000
-26.860600 0.000000
-26.827700 0.000000
-26.794700 0.000000
-26.761800 0.000000
-26.728900 0.000000
-26.695900 0.000000
-26.663000 0.000000
-26.630100 0.000000
-26.597200 0.000000
-26.564200 0.000000
-26.531300 0.000000
-26.498400 0.000000
-26.465500 0.000000
-26.432500 0.000000
-26.399600 0.000000
-26.366700 9.665900
-26.333700 3.601100
-26.300800 4.528600
-26.267900 4.771400
-26.235000 5.792400
-26.202000 8.765700
-26.169100 10.039200
-26.136200 8.879400
-26.103200 23.815600
-26.070300 0.947600
-26.037400 22.703100
-26.004500 22.663200
-25.971500 2.884400
-25.938600 2.827400
-25.905700 2.770400
-25.872800 2.821000
-25.839800 2.871100
-25.806900 3.108600
-25.774000 3.593200
-25.741000 3.862500
-25.708100 4.433300
-25.675200 4.732100
-25.642300 7.838800
-25.609300 7.443800
-25.576400 5.970700
-25.543500 5.046100
-25.510500 5.119300
-25.477600 4.303400
-25.444700 4.320100
-25.411800 3.346800
-25.378800 0.000000
-25.345900 0.000000
-25.313000 0.000000
-25.280100 0.000000
-25.247100 0.000000
-25.214200 0.000000
-25.181300 0.000000
-25.148300 0.000000
-25.115400 0.000000
-25.082500 0.000000
-25.049600 0.000000
-25.016600 0.000000
-24.983700 0.000000
-24.950800 0.000000
-24.917800 0.000000
-24.884900 0.000000
-24.852000 0.000000
-24.819100 0.000000
-24.786100 0.000000
-24.753200 0.000000
-24.720300 0.000000
-24.687400 0.000000
-24.654400 0.000000
-24.621500 0.000000
-24.588600 0.000000
-24.555600 0.000000
-24.522700 0.000000
-24.489800 0.000000
-24.456900 0.000000
-24.423900 0.000000
-24.391000 0.000000
-24.358100 0.000000
-24.325200 0.000000
-24.292200 0.000000
-24.259300 0.000000
-24.226400 0.000000
-24.193400 0.000000
-24.160500 0.000000
-24.127600 0.000000
-24.094700 0.000000
-24.061700 0.000000
-24.028800 0.000000
-23.995900 0.000000
-23.962900 0.000000
-23.930000 0.000000
-23.897100 0.000000
-23.864200 0.000000
-23.831200 0.000000
-23.798300 0.000000
-23.765400 0.000000
-23.732500 0.000000
-23.699500 0.000000
-23.666600 0.000000
-23.633700 0.000000
-23.600700 0.000000
-23.567800 0.000000
-23.534900 0.000000
-23.502000 0.000000
-23.469000 0.000000
-23.436100 0.000000
-23.403200 0.000000
-23.370200 0.000000
-23.337300 0.000000
-23.304400 0.000000
-23.271500 0.000000
-23.238500 0.000000
-23.205600 0.000000
-23.172700 0.000000
-23.139800 0.000000
-23.106800 0.000000
-23.073900 0.000000
-23.041000 0.000000
-23.008000 0.000000
-22.975100 0.000000
-22.942200 0.000000
-22.909300 0.000000
-22.876300 0.000000
-22.843400 0.000000
-22.810500 0.000000
-22.777500 0.000000
-22.744600 0.000000
-22.711700 0.000000
-22.678800 0.000000
-22.645800 0.000000
-22.612900 0.000000
-22.580000 0.000000
-22.547100 0.000000
-22.514100 0.000000
-22.481200 0.000000
-22.448300 0.000000
-22.415300 0.000000
-22.382400 0.000000
-22.349500 0.000000
-22.316600 0.000000
-22.283600 0.000000
-22.250700 0.000000
-22.217800 0.000000
-22.184800 0.000000
-22.151900 0.000000
-22.119000 0.000000
-22.086100 0.000000
-22.053100 0.000000
-22.020200 0.000000
-21.987300 0.000000
-21.954400 0.000000
-21.921400 0.000000
-21.888500 0.000000
-21.855600 0.000000
-21.822600 0.000000
-21.789700 0.000000
-21.756800 0.000000
-21.723900 0.000000
-21.690900 0.000000
-21.658000 0.000000
-21.625100 0.000000
-21.592100 0.000000
-21.559200 0.000000
-21.526300 0.000000
-21.493400 0.000000
-21.460400 0.000000
-21.427500 0.000000
-21.394600 0.000000
-21.361700 0.000000
-21.328700 0.000000
-21.295800 0.000000
-21.262900 0.000000
-21.229900 0.000000
-21.197000 0.000000
-21.164100 0.000000
-21.131200 0.000000
-21.098200 0.000000
-21.065300 0.000000
-21.032400 0.000000
-20.999400 0.000000
-20.966500 0.000000
-20.933600 0.000000
-20.900700 0.000000
-20.867700 0.000000
-20.834800 0.000000
-20.801900 0.000000
-20.769000 0.000000
-20.736000 0.000000
-20.703100 0.000000
-20.670200 0.000000
-20.637200 0.000000
-20.604300 0.000000
-20.571400 0.000000
-20.538500 0.000000
-20.505500 0.000000
-20.472600 0.000000
-20.439700 0.000000
-20.406700 0.000000
-20.373800 0.000000
-20.340900 0.000000
-20.308000 0.000000
-20.275000 0.000000
-20.242100 0.000000
-20.209200 0.000000
-20.176300 0.000000
-20.143300 0.000000
-20.110400 0.000000
-20.077500 0.000000
-20.044500 0.000000
-20.011600 0.000000
-19.978700 0.000000
-19.945800 0.000000
-19.912800 0.000000
-19.879900 0.000000
-19.847000 0.000000
-19.814100 0.000000
-19.781100 0.000000
-19.748200 0.000000
-19.715300 0.000000
-19.682300 0.000000
-19.649400 0.000000
-19.616500 0.000000
-19.583600 0.000000
-19.550600 0.000000
-19.517700 0.000000
-19.484800 0.000000
-19.451800 0.000000
-19.418900 0.000000
-19.386000 0.000000
-19.353100 0.000000
-19.320100 0.000000
-19.287200 0.000000
-19.254300 0.000000
-19.221400 0.000000
-19.188400 0.000000
-19.155500 0.000000
-19.122600 0.000000
-19.089600 0.000000
-19.056700 0.000000
-19.023800 0.000000
-18.990900 0.000000
-18.957900 0.000000
-18.925000 0.000000
-18.892100 0.000000
-18.859100 0.000000
-18.826200 0.000000
-18.793300 0.000000
-18.760400 0.000000
-18.727400 0.000000
-18.694500 0.000000
-18.661600 0.000000
-18.628700 0.000000
-18.595700 0.000000
-18.562800 0.000000
-18.529900 0.000000
-18.496900 0.000000
-18.464000 0.000000
-18.431100 0.000000
-18.398200 0.000000
-18.365200 0.000000
-18.332300 0.000000
-18.299400 0.000000
-18.266400 0.000000
-18.233500 0.000000
-18.200600 0.000000
-18.167700 0.000000
-18.134700 0.000000
-18.101800 0.000000
-18.068900 0.000000
-18.036000 0.000000
-18.003000 0.000000
-17.970100 0.000000
-17.937200 0.000000
-17.904200 0.000000
-17.871300 0.000000
-17.838400 0.000000
-17.805500 0.000000
-17.772500 0.000000
-17.739600 0.000000
-17.706700 0.000000
-17.673700 0.000000
-17.640800 0.000000
-17.607900 0.000000
-17.575000 0.000000
-17.542000 0.000000
-17.509100 0.000000
-17.476200 0.000000
-17.443300 0.000000
-17.410300 0.000000
-17.377400 0.000000
-17.344500 0.000000
-17.311500 0.000000
-17.278600 0.000000
-17.245700 0.000000
-17.212800 0.000000
-17.179800 0.000000
-17.146900 0.000000
-17.114000 0.000000
-17.081000 0.000000
-17.048100 0.000000
-17.015200 0.000000
-16.982300 0.000000
-16.949300 0.000000
-16.916400 0.000000
-16.883500 0.000000
-16.850600 0.000000
-16.817600 0.000000
-16.784700 0.000000
-16.751800 0.000000
-16.718800 0.000000
-16.685900 0.000000
-16.653000 0.000000
-16.620100 0.000000
-16.587100 0.000000
-16.554200 0.000000
-16.521300 0.000000
-16.488300 0.000000
-16.455400 0.000000
-16.422500 0.000000
-16.389600 0.000000
-16.356600 0.000000
-16.323700 0.000000
-16.290800 0.000000
-16.257900 0.000000
-16.224900 0.000000
-16.192000 0.000000
-16.159100 0.000000
-16.126100 0.000000
-16.093200 0.000000
-16.060300 0.000000
-16.027400 0.000000
-15.994400 0.000000
-15.961500 0.000000
-15.928600 0.000000
-15.895600 0.000000
-15.862700 0.000000
-15.829800 0.000000
-15.796900 0.000000
-15.763900 0.000000
-15.731000 0.000000
-15.698100 0.000000
-15.665200 0.000000
-15.632200 0.000000
-15.599300 0.000000
-15.566400 0.000000
-15.533400 0.000000
-15.500500 0.000000
-15.467600 0.000000
-15.434700 0.000000
-15.401700 0.000000
-15.368800 0.000000
-15.335900 0.000000
-15.303000 0.000000
-15.270000 0.000000
-15.237100 0.000000
-15.204200 0.000000
-15.171200 0.000000
-15.138300 0.000000
-15.105400 0.000000
-15.072500 0.000000
-15.039500 0.000000
-15.006600 0.000000
-14.973700 0.000000
-14.940700 0.000000
-14.907800 0.000000
-14.874900 0.000000
-14.842000 0.000000
-14.809000 0.000000
-14.776100 0.000000
-14.743200 0.000000
-14.710300 0.000000
-14.677300 0.000000
-14.644400 0.000000
-14.611500 0.000000
-14.578500 0.000000
-14.545600 0.000000
-14.512700 0.000000
-14.479800 0.000000
-14.446800 0.000000
-14.413900 0.000000
-14.381000 0.000000
-14.348000 0.000000
-14.315100 0.000000
-14.282200 0.000000
-14.249300 0.000000
-14.216300 0.000000
-14.183400 0.000000
-14.150500 0.000000
-14.117600 0.000000
-14.084600 0.000000
-14.051700 0.000000
-14.018800 0.000000
-13.985800 0.000000
-13.952900 0.000000
-13.920000 0.000000
-13.887100 0.000000
-13.854100 0.000000
-13.821200 0.000000
-13.788300 0.000000
-13.755300 0.000000
-13.722400 0.000000
-13.689500 0.000000
-13.656600 0.000000
-13.623600 0.000000
-13.590700 0.000000
-13.557800 0.000000
-13.524900 0.000000
-13.491900 0.000000
-13.459000 0.000000
-13.426100 0.000000
-13.393100 0.000000
-13.360200 0.000000
-13.327300 0.000000
-13.294400 0.000000
-13.261400 0.000000
-13.228500 0.000000
-13.195600 0.000000
-13.162600 0.000000
-13.129700 0.000000
-13.096800 0.000000
-13.063900 0.000000
-13.030900 0.000000
-12.998000 0.000000
-12.965100 0.000000
-12.932200 0.000000
-12.899200 0.000000
-12.866300 0.000000
-12.833400 0.000000
-12.800400 0.000000
-12.767500 0.000000
-12.734600 0.000000
-12.701700 0.000000
-12.668700 0.000000
-12.635800 0.000000
-12.602900 0.000000
-12.569900 0.000000
-12.537000 0.000000
-12.504100 0.000000
-12.471200 0.000000
-12.438200 0.000000
-12.405300 0.000000
-12.372400 0.000000
-12.339500 0.000000
-12.306500 0.000000
-12.273600 0.000000
-12.240700 0.000000
-12.207700 0.000000
-12.174800 0.000000
-12.141900 0.000000
-12.109000 0.000000
-12.076000 0.000000
-12.043100 0.000000
-12.010200 0.000000
-11.977200 0.000000
-11.944300 0.000000
-11.911400 0.000000
-11.878500 0.000000
-11.845500 0.000000
-11.812600 0.000000
-11.779700 0.000000
-11.746800 0.000000
-11.713800 0.000000
-11.680900 0.000000
-11.648000 0.000000
-11.615000 0.000000
-11.582100 0.000000
-11.549200 0.000000
-11.516300 0.000000
-11.483300 0.000000
-11.450400 0.000000
-11.417500 0.000000
-11.384600 0.000000
-11.351600 0.000000
-11.318700 0.000000
-11.285800 0.000000
-11.252800 0.000000
-11.219900 0.000000
-11.187000 0.000000
-11.154100 0.000000
-11.121100 0.000000
-11.088200 0.000000
-11.055300 0.000000
-11.022300 0.000000
-10.989400 0.000000
-10.956500 0.000000
-10.923600 0.000000
-10.890600 0.000000
-10.857700 0.000000
-10.824800 0.000000
-10.791900 0.000000
-10.758900 0.000000
-10.726000 0.000000
-10.693100 0.000000
-10.660100 0.000000
-10.627200 0.000000
-10.594300 0.000000
-10.561400 0.000000
-10.528400 0.000000
-10.495500 0.000000
-10.462600 0.000000
-10.429600 0.000000
-10.396700 0.000000
-10.363800 0.000000
-10.330900 0.000000
-10.297900 0.000000
-10.265000 0.000000
-10.232100 0.000000
-10.199200 0.000000
-10.166200 0.000000
-10.133300 0.000000
-10.100400 0.000000
-10.067400 0.000000
-10.034500 0.000000
-10.001600 0.000000
-9.968700 0.000000
-9.935700 0.000000
-9.902800 0.000000
-9.869900 0.000000
-9.836900 0.000000
-9.804000 0.000000
-9.771100 0.000000
-9.738200 0.000000
-9.705200 0.000000
-9.672300 0.000000
-9.639400 0.000000
-9.606500 0.000000
-9.573500 0.000000
-9.540600 0.000000
-9.507700 0.000000
-9.474700 0.000000
-9.441800 0.000000
-9.408900 0.000000
-9.376000 0.000000
-9.343000 0.000000
-9.310100 0.000000
-9.277200 0.000000
-9.244200 0.000000
-9.211300 0.000000
-9.178400 0.000000
-9.145500 0.000000
-9.112500 0.000000
-9.079600 0.000000
-9.046700 0.000000
-9.013800 0.000000
-8.980800 0.000000
-8.947900 0.000000
-8.915000 0.000000
-8.882000 0.000000
-8.849100 0.000000
-8.816200 0.000000
-8.783300 0.000000
-8.750300 0.000000
-8.717400 0.000000
-8.684500 0.000000
-8.651500 0.000000
-8.618600 0.000000
-8.585700 0.000000
-8.552800 0.000000
-8.519800 0.000000
-8.486900 0.000000
-8.454000 0.000000
-8.421100 0.000000
-8.388100 0.000000
-8.355200 0.000000
-8.322300 0.000000
-8.289300 0.000000
-8.256400 0.000000
-8.223500 0.000000
-8.190600 0.000000
-8.157600 0.000000
-8.124700 0.000000
-8.091800 0.000000
-8.058800 0.000000
-8.025900 0.000000
-7.993000 0.000000
-7.960100 0.000000
-7.927100 0.000000
-7.894200 0.000000
-7.861300 0.000000
-7.828400 0.000000
-7.795400 0.000000
-7.762500 0.000000
-7.729600 0.000000
-7.696600 0.000000
-7.663700 0.000000
-7.630800 0.000000
-7.597900 0.000000
-7.564900 0.000000
-7.532000 0.000000
-7.499100 0.000000
-7.466100 0.000000
-7.433200 0.000000
-7.400300 0.000000
-7.367400 0.000000
-7.334400 0.000000
-7.301500 0.000000
-7.268600 0.000000
-7.235700 0.000000
-7.202700 0.000000
-7.169800 0.000000
-7.136900 0.000000
-7.103900 0.000000
-7.071000 0.000000
-7.038100 0.000000
-7.005200 0.000000
-6.972200 0.000000
-6.939300 0.000000
-6.906400 0.000000
-6.873500 0.000000
-6.840500 0.000000
-6.807600 0.000000
-6.774700 0.000000
-6.741700 0.000000
-6.708800 0.000000
-6.675900 0.000000
-6.643000 0.000000
-6.610000 0.000000
-6.577100 0.000000
-6.544200 0.000000
-6.511200 0.000000
-6.478300 0.000000
-6.445400 0.000000
-6.412500 0.000000
-6.379500 0.000000
-6.346600 0.000000
-6.313700 0.000000
-6.280800 0.000000
-6.247800 0.000000
-6.214900 0.000000
-6.182000 0.000000
-6.149000 0.000000
-6.116100 0.000000
-6.083200 0.000000
-6.050300 0.000000
-6.017300 0.000000
-5.984400 0.000000
-5.951500 0.000000
-5.918500 0.000000
-5.885600 0.000000
-5.852700 0.000000
-5.819800 0.000000
-5.786800 0.000000
-5.753900 0.000000
-5.721000 0.000000
-5.688100 0.000000
-5.655100 0.000000
-5.622200 0.000000
-5.589300 0.000000
-5.556300 0.000000
-5.523400 0.000000
-5.490500 0.000000
-5.457600 0.000000
-5.424600 0.000000
-5.391700 0.000000
-5.358800 0.000000
-5.325800 0.000000
-5.292900 0.000000
-5.260000 0.000000
-5.227100 0.000000
-5.194100 0.000000
-5.161200 0.000000
-5.128300 0.000000
-5.095400 0.000000
-5.062400 0.000000
-5.029500 0.000000
-4.996600 0.000000
-4.963600 0.000000
-4.930700 0.000000
-4.897800 0.000000
-4.864900 0.000000
-4.831900 0.000000
-4.799000 0.000000
-4.766100 0.000000
-4.733100 0.000000
-4.700200 0.000000
-4.667300 0.000000
-4.634400 0.000000
-4.601400 0.000000
-4.568500 0.000000
-4.535600 0.000000
-4.502700 0.000000
-4.469700 0.000000
-4.436800 0.000000
-4.403900 0.000000
-4.370900 0.000000
-4.338000 0.000000
-4.305100 0.000000
-4.272200 0.000000
-4.239200 0.000000
-4.206300 0.000000
-4.173400 0.000000
-4.140400 0.000000
-4.107500 0.000000
-4.074600 0.000000
-4.041700 0.000000
-4.008700 0.000000
-3.975800 0.000000
-3.942900 0.000000
-3.910000 0.000000
-3.877000 0.000000
-3.844100 0.000400
-3.811200 0.015100
-3.778200 0.040300
-3.745300 0.073400
-3.712400 0.114300
-3.679500 0.165900
-3.646500 0.221400
-3.613600 0.276900
-3.580700 0.269200
-3.547700 0.270900
-3.514800 0.271800
-3.481900 0.264300
-3.449000 0.230300
-3.416000 0.236000
-3.383100 0.241700
-3.350200 0.247500
-3.317300 0.253200
-3.284300 0.258900
-3.251400 0.272200
-3.218500 0.291000
-3.185500 0.314000
-3.152600 0.340200
-3.119700 0.368900
-3.086800 0.398200
-3.053800 0.428600
-3.020900 0.429500
-2.988000 0.436600
-2.955000 0.446200
-2.922100 0.457400
-2.889200 0.473000
-2.856300 0.495100
-2.823300 0.517500
-2.790400 0.538900
-2.757500 0.558200
-2.724600 0.574200
-2.691600 0.583500
-2.658700 0.585800
-2.625800 0.574700
-2.592800 0.585500
-2.559900 0.595800
-2.527000 0.605200
-2.494100 0.613900
-2.461100 0.622200
-2.428200 0.630100
-2.395300 0.637600
-2.362400 0.645000
-2.329400 0.654900
-2.296500 0.673400
-2.263600 0.698400
-2.230600 0.729000
-2.197700 0.765900
-2.164800 0.807300
-2.131900 0.853000
-2.098900 0.881600
-2.066000 0.912200
-2.033100 0.949300
-2.000100 0.997000
-1.967200 1.045100
-1.934300 1.092400
-1.901400 1.135600
-1.868400 1.174000
-1.835500 1.203800
-1.802600 1.220800
-1.769700 1.235000
-1.736700 1.272800
-1.703800 1.324900
-1.670900 1.423100
-1.637900 1.544100
-1.605000 1.669000
-1.572100 1.801300
-1.539200 2.182500
-1.506200 2.886700
-1.473300 3.347000
-1.440400 3.777000
-1.407400 3.876400
-1.374500 3.770200
-1.341600 3.369000
-1.308700 3.465600
-1.275700 3.749500
-1.242800 4.152800
-1.209900 4.798600
-1.177000 5.339100
-1.144000 5.893100
-1.111100 6.692400
-1.078200 6.618100
-1.045200 6.698700
-1.012300 7.393700
-0.979400 7.528100
-0.946500 8.158700
-0.913500 8.675000
-0.880600 8.841800
-0.847700 8.716300
-0.814700 8.499800
-0.781800 8.487000
-0.748900 8.519100
-0.716000 8.493600
-0.683000 8.934600
-0.650100 9.782100
-0.617200 9.273800
-0.584300 7.995600
-0.551300 8.368100
-0.518400 8.495400
-0.485500 7.793600
-0.452500 7.963700
-0.419600 8.538600
-0.386700 9.215700
-0.353800 9.740300
-0.320800 8.543100
-0.287900 10.913200
-0.255000 8.568600
-0.222000 8.543800
-0.189100 7.661100
-0.156200 6.018600
-0.123300 6.181300
-0.090300 6.737000
-0.057400 8.411700
-0.024500 9.632000
0.008400 8.540000
0.041400 8.129000
0.074300 8.375400
0.107200 8.540200
0.140200 3.882800
0.173100 5.974000
0.206000 8.154200
0.238900 9.118300
0.271900 9.850700
0.304800 13.696800
0.337700 18.287200
0.370700 13.364900
0.403600 9.387100
0.436500 10.655800
0.469400 13.230400
0.502400 13.364700
0.535300 12.116600
0.568200 12.109400
0.601100 12.104000
0.634100 11.401200
0.667000 10.860400
0.699900 9.447300
0.732900 8.738600
0.765800 9.647800
0.798700 11.232800
0.831600 12.706400
0.864600 13.109900
0.897500 15.223800
0.930400 13.468600
0.963400 12.227400
0.996300 12.388500
1.029200 11.933100
1.062100 10.220100
1.095100 13.083600
1.128000 11.334700
1.160900 8.342200
1.193800 9.193500
1.226800 8.781700
1.259700 10.266100
1.292600 15.532600
1.325600 8.961800
1.358500 6.174000
1.391400 5.712300
1.424300 7.171600
1.457300 7.575500
1.490200 8.296900
1.523100 12.579700
1.556000 6.385900
1.589000 6.926400
1.621900 8.956400
1.654800 10.464200
1.687800 10.303000
1.720700 11.245000
1.753600 11.779700
1.786500 10.430500
1.819500 12.321000
1.852400 11.701300
1.885300 12.138600
1.918300 12.631900
1.951200 14.520100
1.984100 9.417600
2.017000 6.984300
2.050000 6.438900
2.082900 6.139600
2.115800 6.960400
2.148700 7.107200
2.181700 7.867400
2.214600 7.883400
2.247500 7.770900
2.280500 8.222700
2.313400 9.321500
2.346300 10.101200
2.379200 8.045600
2.412200 7.254400
2.445100 7.099100
2.478000 7.021400
2.511000 7.068200
2.543900 7.092500
2.576800 7.115400
2.609700 7.014200
2.642700 6.666200
2.675600 6.942200
2.708500 7.703500
2.741400 8.173300
2.774400 9.088100
2.807300 10.807700
2.840200 9.811500
2.873200 11.865700
2.906100 8.905500
2.939000 7.614700
2.971900 7.655700
3.004900 8.015400
3.037800 8.836700
3.070700 7.598200
3.103700 10.047800
3.136600 6.674400
3.169500 3.986600
3.202400 4.434900
3.235400 5.019400
3.268300 4.263000
3.301200 3.925200
3.334100 3.131000
3.367100 2.959700
3.400000 3.002900
3.432900 3.008500
3.465900 3.013800
3.498800 3.048400
3.531700 3.086800
3.564600 3.131100
3.597600 3.173400
3.630500 3.234100
3.663400 3.274200
3.696400 3.213700
3.729300 3.165600
3.762200 3.125400
3.795100 3.125600
3.828100 3.107700
3.861000 3.128400
3.893900 3.171700
3.926800 3.162100
3.959800 3.111600
3.992700 3.046200
4.025600 2.964700
4.058600 2.870000
4.091500 2.822300
4.124400 2.793000
4.157300 2.781000
4.190300 2.783100
4.223200 2.820400
4.256100 2.892700
4.289100 3.012500
4.322000 3.142600
4.354900 3.447800
4.387800 3.687700
4.420800 3.010100
4.453700 3.088900
4.486600 3.046200
4.519500 2.910200
4.552500 2.685700
4.585400 2.512100
4.618300 2.381400
4.651300 2.275300
4.684200 1.728300
4.717100 1.717300
4.750000 1.714100
4.783000 1.727400
4.815900 1.787800
4.848800 1.934700
4.881800 2.256000
4.914700 2.621200
4.947600 3.365600
4.980500 6.008700
5.013500 4.686900
5.046400 3.743700
5.079300 3.164100
5.112200 2.704900
5.145200 2.348700
5.178100 2.278200
5.211000 2.225800
5.244000 2.214100
5.276900 2.277100
5.309800 2.364000
5.342700 2.494100
5.375700 2.251200
5.408600 2.061600
5.441500 2.183200
5.474500 2.970700
5.507400 4.303000
5.540300 3.400100
5.573200 3.132900
5.606200 2.876600
5.639100 2.926700
5.672000 2.267200
5.704900 2.076800
5.737900 2.055000
5.770800 2.070800
5.803700 2.094300
5.836700 2.178300
5.869600 2.038200
5.902500 2.105800
5.935400 2.186600
5.968400 2.293200
6.001300 2.602800
6.034200 2.844600
6.067100 2.891700
6.100100 2.748500
6.133000 2.442100
6.165900 2.047400
6.198900 2.029200
6.231800 2.066700
6.264700 2.065300
6.297600 2.115700
6.330600 2.347900
6.363500 2.460400
6.396400 2.627000
6.429400 2.807600
6.462300 2.886800
6.495200 2.880100
6.528100 2.858000
6.561100 2.788100
6.594000 2.564500
6.626900 2.572400
6.659800 2.948200
6.692800 2.593000
6.725700 2.428000
6.758600 2.330000
6.791600 2.324700
6.824500 2.358200
6.857400 2.348600
6.890300 2.311100
6.923300 2.384700
6.956200 2.466800
6.989100 2.499900
7.022100 2.391100
7.055000 2.210100
7.087900 2.084000
7.120800 2.005800
7.153800 1.945500
7.186700 1.822300
7.219600 1.698700
7.252500 1.809300
7.285500 2.218800
7.318400 2.813100
7.351300 3.417300
7.384300 3.132100
7.417200 2.960500
7.450100 2.937900
7.483000 2.748000
7.516000 2.718800
7.548900 2.314700
7.581800 2.055700
7.614800 2.485200
7.647700 3.445100
7.680600 3.782900
7.713500 3.538700
7.746500 3.160300
7.779400 3.040400
7.812300 2.983600
7.845200 3.504800
7.878200 3.208500
7.911100 3.110400
7.944000 3.006200
7.977000 2.994700
8.009900 3.111100
8.042800 2.018500
8.075700 2.020200
8.108700 2.039000
8.141600 2.167700
8.174500 2.208600
8.207500 2.177000
8.240400 2.186300
8.273300 2.209400
8.306200 2.268200
8.339200 2.317400
8.372100 2.337700
8.405000 2.344900
8.437900 2.402100
8.470900 2.466000
8.503800 2.487200
8.536700 2.484200
8.569700 2.431700
8.602600 2.423600
8.635500 2.386500
8.668400 2.310300
8.701400 2.280400
8.734300 2.210600
8.767200 2.193000
8.800200 2.173400
8.833100 2.146400
8.866000 2.075500
8.898900 1.691600
8.931900 1.642500
8.964800 1.622200
8.997700 1.614800
9.030600 1.590500
9.063600 1.566900
9.096500 1.548600
9.129400 1.534400
9.162400 1.541900
9.195300 1.572400
9.228200 1.665300
9.261100 1.923500
9.294100 2.277500
9.327000 2.283200
9.359900 2.467500
9.392900 2.440600
9.425800 2.237100
9.458700 2.109200
9.491600 1.990400
9.524600 1.843800
9.557500 1.611700
9.590400 1.487300
9.623300 1.376300
9.656300 1.274100
9.689200 1.198000
9.722100 1.133900
9.755100 1.067100
9.788000 1.144100
9.820900 2.908100
9.853800 2.109200
9.886800 1.906800
9.919700 1.834600
9.952600 1.806100
9.985500 1.730000
10.018500 1.716800
10.051400 1.724000
10.084300 1.734600
10.117300 1.758400
10.150200 1.988500
10.183100 2.271800
10.216000 2.599000
10.249000 2.664000
10.281900 2.231700
10.314800 2.066400
10.347800 1.950000
10.380700 1.786300
10.413600 1.560200
10.446500 1.457300
10.479500 1.516200
10.512400 1.716100
10.545300 1.849900
10.578200 1.923900
10.611200 2.031900
10.644100 2.166300
10.677000 2.272400
10.710000 2.313900
10.742900 2.379200
10.775800 2.347900
10.808700 2.198500
10.841700 1.978100
10.874600 1.835700
10.907500 1.777600
10.940500 1.738600
10.973400 1.701400
11.006300 1.728900
11.039200 1.786600
11.072200 1.812200
11.105100 1.881800
11.138000 1.857400
11.170900 2.013200
11.203900 1.813000
11.236800 1.776700
11.269700 1.764800
11.302700 1.746000
11.335600 1.743000
11.368500 1.752000
11.401400 1.769400
11.434400 1.781100
11.467300 1.801700
11.500200 1.802700
11.533200 1.799600
11.566100 1.784700
11.599000 1.758800
11.631900 1.717200
11.664900 1.650500
11.697800 1.536200
11.730700 1.357300
11.763600 1.311800
11.796600 1.279500
11.829500 1.253600
11.862400 1.234100
11.895400 1.226000
11.928300 1.238100
11.961200 1.263200
11.994100 1.296100
12.027100 1.327400
12.060000 1.371600
12.092900 1.480600
12.125900 1.649300
12.158800 1.800400
12.191700 1.881500
12.224600 1.918500
12.257600 1.871400
12.290500 1.713500
12.323400 1.595700
12.356300 1.530100
12.389300 1.463900
12.422200 1.353900
12.455100 1.360600
12.488100 1.432100
12.521000 1.481800
12.553900 1.480400
12.586800 1.491500
12.619800 1.513700
12.652700 1.543500
12.685600 1.573900
12.718600 1.604700
12.751500 1.636500
12.784400 1.661600
12.817300 1.679600
12.850300 1.703100
12.883200 1.735000
12.916100 1.769400
12.949000 1.813800
12.982000 1.800500
13.014900 2.124100
13.047800 1.806900
13.080800 1.686500
13.113700 1.630100
13.146600 1.609500
13.179500 1.612400
13.212500 1.625000
13.245400 1.653400
13.278300 1.704500
13.311300 1.769400
13.344200 1.826100
13.377100 1.849700
13.410000 1.839000
13.443000 1.860300
13.475900 1.874500
13.508800 1.874100
13.541700 1.899100
13.574700 1.918400
13.607600 1.902000
13.640500 1.863800
13.673500 1.798200
13.706400 1.737100
13.739300 1.680600
13.772200 1.617200
13.805200 1.578400
13.838100 1.562700
13.871000 1.555900
13.904000 1.551900
13.936900 1.550900
13.969800 1.551100
14.002700 1.552700
14.035700 1.561000
14.068600 1.571900
14.101500 1.585900
14.134400 1.604100
14.167400 1.631000
14.200300 1.659700
14.233200 1.689400
14.266200 1.720100
14.299100 1.750400
14.332000 1.794900
14.364900 1.821200
14.397900 1.833000
14.430800 1.843400
14.463700 1.857900
14.496600 1.875500
14.529600 1.898600
14.562500 1.936600
14.595400 1.968400
14.628400 2.095600
14.661300 2.295400
14.694200 2.428100
14.727100 2.370400
14.760100 2.230300
14.793000 2.228500
14.825900 2.227900
14.858900 2.167800
14.891800 1.947200
14.924700 1.770100
14.957600 1.767000
14.990600 1.812200
15.023500 1.882400
15.056400 1.993800
15.089300 2.147600
15.122300 2.299400
15.155200 2.420500
15.188100 2.494700
15.221100 2.468700
15.254000 2.448400
15.286900 2.453100
15.319800 2.454100
15.352800 2.564200
15.385700 2.508100
15.418600 2.530200
15.451600 2.554400
15.484500 2.553000
15.517400 2.532800
15.550300 2.548600
15.583300 2.487300
15.616200 2.445300
15.649100 2.424600
15.682000 2.439600
15.715000 2.490200
15.747900 2.579800
15.780800 2.665200
15.813800 2.731700
15.846700 2.768700
15.879600 2.756800
15.912500 2.750900
15.945500 2.752600
15.978400 2.780800
16.011300 2.832900
16.044300 2.878200
16.077200 2.823400
16.110100 2.739200
16.143000 2.679200
16.176000 2.574100
16.208900 2.466600
16.241800 2.384100
16.274700 2.327600
16.307700 2.297400
16.340600 2.279100
16.373500 2.267400
16.406500 2.255100
16.439400 2.238700
16.472300 2.234600
16.505200 2.225100
16.538200 2.217500
16.571100 2.214000
16.604000 2.345000
16.637000 2.461100
16.669900 2.502600
16.702800 2.563300
16.735700 2.653700
16.768700 2.661200
16.801600 2.647700
16.834500 2.604500
16.867400 2.573300
16.900400 2.583200
16.933300 2.613500
16.966200 2.654400
16.999200 2.669100
17.032100 2.652800
17.065000 2.657300
17.097900 2.702200
17.130900 2.745700
17.163800 2.797300
17.196700 2.854700
17.229700 2.880200
17.262600 2.900900
17.295500 2.929000
17.328400 2.953800
17.361400 2.980800
17.394300 2.937600
17.427200 2.860300
17.460100 2.818800
17.493100 2.782400
17.526000 2.767400
17.558900 2.710600
17.591900 2.622500
17.624800 2.599000
17.657700 2.542600
17.690600 2.509900
17.723600 2.510700
17.756500 2.477500
17.789400 2.436800
17.822400 2.422200
17.855300 2.449000
17.888200 2.496500
17.921100 2.546200
17.954100 2.611300
17.987000 2.666600
18.019900 2.703400
18.052800 2.757400
18.085800 2.696800
18.118700 2.691000
18.151600 2.691700
18.184600 2.770200
18.217500 2.686400
18.250400 2.588000
18.283300 2.516100
18.316300 2.494100
18.349200 2.531200
18.382100 2.593500
18.415100 2.695300
18.448000 2.845500
18.480900 2.881700
18.513800 2.872300
18.546800 2.842000
18.579700 2.789700
18.612600 2.731400
18.645500 2.667700
18.678500 2.686800
18.711400 2.788500
18.744300 2.850300
18.777300 2.830600
18.810200 2.825400
18.843100 2.835200
18.876000 2.856500
18.909000 2.878200
18.941900 2.878300
18.974800 2.884300
19.007700 2.907000
19.040700 2.930700
19.073600 2.955300
19.106500 3.139800
19.139500 3.825600
19.172400 3.258700
19.205300 2.984500
19.238200 2.842300
19.271200 2.762300
19.304100 2.702700
19.337000 2.686900
19.370000 2.724800
19.402900 2.767600
19.435800 2.911200
19.468700 2.841700
19.501700 2.855800
19.534600 2.904200
19.567500 3.006700
19.600400 3.131200
19.633400 3.190600
19.666300 3.170900
19.699200 3.122400
19.732200 3.037600
19.765100 3.002400
19.798000 3.028300
19.830900 3.035800
19.863900 3.074300
19.896800 3.137500
19.929700 3.208800
19.962700 3.284000
19.995600 3.828700
20.028500 3.442900
20.061400 3.090600
20.094400 3.057400
20.127300 2.948200
20.160200 2.946400
20.193100 2.941200
20.226100 3.085500
20.259000 3.153200
20.291900 3.121000
20.324900 3.008100
20.357800 2.985800
20.390700 2.972500
20.423600 2.969800
20.456600 2.999500
20.489500 3.006200
20.522400 3.052800
20.555400 3.125900
20.588300 3.213200
20.621200 3.383800
20.654100 3.519300
20.687100 3.506500
20.720000 3.363100
20.752900 3.395900
20.785800 3.414900
20.818800 3.362400
20.851700 3.300900
20.884600 3.245700
20.917600 3.196000
20.950500 3.185300
20.983400 3.165100
21.016300 3.147100
21.049300 3.128000
21.082200 3.116100
21.115100 3.078200
21.148100 3.058400
21.181000 3.069200
21.213900 3.069200
21.246800 3.112500
21.279800 3.139700
21.312700 3.277800
21.345600 3.248100
21.378500 3.106700
21.411500 2.808500
21.444400 2.726100
21.477300 2.687600
21.510300 2.685000
21.543200 2.722300
21.576100 2.726200
21.609000 2.661400
21.642000 2.585200
21.674900 2.538900
21.707800 2.374800
21.740800 2.317200
21.773700 2.306500
21.806600 2.335300
21.839500 2.437500
21.872500 2.501000
21.905400 2.578900
21.938300 2.680800
21.971200 2.733400
22.004200 2.779500
22.037100 2.837200
22.070000 2.907800
22.103000 3.026300
22.135900 3.127700
22.168800 3.241800
22.201700 3.417500
22.234700 3.502700
22.267600 3.566200
22.300500 3.607200
22.333500 3.623700
22.366400 3.646800
22.399300 3.659000
22.432200 3.579000
22.465200 3.452800
22.498100 3.305400
22.531000 3.129000
22.563900 3.018200
22.596900 2.935500
22.629800 2.854000
22.662700 2.777700
22.695700 2.763500
22.728600 3.056000
22.761500 3.343700
22.794400 3.492200
22.827400 3.640900
22.860300 3.841400
22.893200 4.016300
22.926100 3.940200
22.959100 4.048400
22.992000 4.348100
23.024900 4.485900
23.057900 4.383500
23.090800 4.562900
23.123700 4.910500
23.156600 5.327500
23.189600 4.912700
23.222500 4.622300
23.255400 4.410300
23.288400 4.209300
23.321300 4.059300
23.354200 3.856800
23.387100 3.735000
23.420100 3.569100
23.453000 3.903300
23.485900 4.485400
23.518800 4.518300
23.551800 4.525200
23.584700 4.134000
23.617600 3.712600
23.650600 3.698400
23.683500 3.702700
23.716400 3.635600
23.749300 3.491600
23.782300 3.359400
23.815200 3.261300
23.848100 3.215600
23.881100 3.286700
23.914000 3.215900
23.946900 3.132000
23.979800 3.083300
24.012800 3.049600
24.045700 2.981800
24.078600 2.917700
24.111500 2.891200
24.144500 2.899100
24.177400 3.034900
24.210300 3.139700
24.243300 2.994000
24.276200 2.878600
24.309100 2.822100
24.342000 2.731600
24.375000 2.724700
24.407900 2.739100
24.440800 2.836600
24.473800 2.886300
24.506700 2.876300
24.539600 2.848700
24.572500 2.802900
24.605500 2.775800
24.638400 2.777500
24.671300 2.780800
24.704200 2.785800
24.737200 2.798800
24.770100 2.813000
24.803000 2.846500
24.836000 2.884300
24.868900 2.941800
24.901800 3.043100
24.934700 3.107900
24.967700 3.165300
25.000600 3.246300
25.033500 3.249700
25.066500 3.071200
25.099400 2.913400
25.132300 2.820000
25.165200 2.721500
25.198200 2.586400
25.231100 2.447900
25.264000 2.323000
25.296900 2.223400
25.329900 2.190600
25.362800 2.188000
25.395700 2.189900
25.428700 2.148700
25.461600 2.047200
25.494500 1.930100
25.527400 1.894500
25.560400 1.932700
25.593300 1.940700
25.626200 1.970300
25.659200 2.000000
25.692100 2.036800
25.725000 2.109000
25.757900 2.161600
25.790900 2.208200
25.823800 2.229100
25.856700 2.245000
25.889600 2.271500
25.922600 2.223300
25.955500 2.105900
25.988400 2.049100
26.021400 1.983500
26.054300 2.040200
26.087200 2.015100
26.120100 1.973700
26.153100 1.941300
26.186000 1.907800
26.218900 1.895600
26.251900 1.872800
26.284800 1.872900
26.317700 1.897900
26.350600 1.944400
26.383600 2.008000
26.416500 2.137300
26.449400 1.958700
26.482300 1.877800
26.515300 1.897700
26.548200 1.942400
26.581100 1.985600
26.614100 2.028300
26.647000 2.078100
26.679900 2.225000
26.712800 2.460000
26.745800 2.461700
26.778700 2.504200
26.811600 2.557400
26.844600 2.592400
26.877500 2.645600
26.910400 2.673200
26.943300 2.688900
26.976300 2.708200
27.009200 2.796300
27.042100 2.962100
27.075000 2.919800
27.108000 2.765500
27.140900 2.502400
27.173800 2.301200
27.206800 2.210300
27.239700 2.229500
27.272600 2.267200
27.305500 2.202100
27.338500 2.172300
27.371400 2.068900
27.404300 2.020300
27.437200 1.973100
27.470200 1.930600
27.503100 1.907400
27.536000 1.913500
27.569000 1.948000
27.601900 2.008900
27.634800 2.099400
27.667700 2.221800
27.700700 2.326700
27.733600 2.403200
27.766500 2.457100
27.799500 2.465600
27.832400 2.444600
27.865300 2.433200
27.898200 2.400900
27.931200 2.409500
27.964100 2.431000
27.997000 2.460100
28.029900 2.467700
28.062900 2.478700
28.095800 2.493300
28.128700 2.446900
28.161700 2.373200
28.194600 2.335200
28.227500 2.320500
28.260400 2.351200
28.293400 2.415300
28.326300 2.550500
28.359200 2.698400
28.392200 2.725900
28.425100 2.791200
28.458000 3.072000
28.490900 3.023900
28.523900 3.065800
28.556800 3.218400
28.589700 3.428700
28.622600 3.628700
28.655600 3.697200
28.688500 3.571500
28.721400 3.534200
28.754400 3.506800
28.787300 3.563300
28.820200 3.776800
28.853100 3.782200
28.886100 3.811800
28.919000 3.806500
28.951900 3.801800
28.984900 3.860900
29.017800 3.832300
29.050700 4.111400
29.083600 4.278700
29.116600 4.541500
29.149500 4.449700
29.182400 3.993400
29.215300 3.872400
29.248300 3.687000
29.281200 3.346200
29.314100 3.200600
29.347100 3.179300
29.380000 3.260200
29.412900 3.504900
29.445800 3.798600
29.478800 3.879300
29.511700 4.013800
29.544600 3.765300
29.577600 3.776600
29.610500 3.862600
29.643400 3.910800
29.676300 4.009000
29.709300 4.048300
29.742200 3.994300
29.775100 3.954300
29.808000 4.063300
29.841000 4.165400
29.873900 4.276000
29.906800 3.470600
29.939800 3.633000
29.972700 3.956500
30.005600 3.709900
30.038500 3.666700
30.071500 3.909900
30.104400 4.017800
30.137300 4.032300
30.170300 4.067400
30.203200 4.565100
30.236100 4.754500
30.269000 4.852000
30.302000 4.818400
30.334900 4.836500
30.367800 4.877800
30.400700 4.898700
30.433700 4.631500
30.466600 4.437700
30.499500 4.433900
30.532500 4.646000
30.565400 4.828500
30.598300 4.901000
30.631200 5.116500
30.664200 5.156700
30.697100 4.711600
30.730000 4.649800
30.763000 4.616500
30.795900 4.775700
30.828800 4.873700
30.861700 4.855500
30.894700 4.747500
30.927600 4.439400
30.960500 4.269600
30.993400 4.118100
31.026400 3.984000
31.059300 3.827000
31.092200 3.754600
31.125200 3.668600
31.158100 3.591100
31.191000 3.608900
31.223900 3.643600
31.256900 3.685900
31.289800 3.691700
31.322700 3.680200
31.355600 3.774100
31.388600 3.958000
31.421500 3.838300
31.454400 3.835500
31.487400 3.756300
31.520300 3.697800
31.553200 3.611900
31.586100 3.501400
31.619100 3.417100
31.652000 3.329400
31.684900 3.183600
31.717900 2.983900
31.750800 2.797600
31.783700 2.663300
31.816600 2.604100
31.849600 2.604000
31.882500 2.580600
31.915400 2.585000
31.948300 2.627300
31.981300 2.674300
32.014200 2.680300
32.047100 2.553700
32.080100 2.393100
32.113000 2.333400
32.145900 2.263300
32.178800 2.148200
32.211800 2.002200
32.244700 1.877100
32.277600 1.792300
32.310600 1.738500
32.343500 1.723100
32.376400 1.736100
32.409300 1.709300
32.442300 1.437200
32.475200 1.315700
32.508100 1.249200
32.541000 1.193900
32.574000 1.148900
32.606900 1.110200
32.639800 1.084200
32.672800 1.027500
32.705700 0.950100
32.738600 0.899700
32.771500 0.890100
32.804500 0.899300
32.837400 0.844000
32.870300 0.753600
32.903300 0.695600
32.936200 0.646700
32.969100 0.606600
33.002000 0.567500
33.035000 0.526000
33.067900 0.482300
33.100800 0.437700
33.133700 0.416900
33.166700 0.418900
33.199600 0.421100
33.232500 0.429300
33.265500 0.480400
33.298400 0.447200
33.331300 0.254300
33.364200 0.115700
33.397200 0.053200
33.430100 0.024200
33.463000 0.006600
33.496000 0.000000
33.528900 0.000000
33.561800 0.000000
33.594700 0.000000
33.627700 0.000000
33.660600 0.000000
33.693500 0.000000
33.726400 0.000000
33.759400 0.000000
33.792300 0.000000
33.825200 0.000000
33.858200 0.000000
33.891100 0.000000
33.924000 0.000000
33.956900 0.000000
33.989900 0.000000
34.022800 0.000000
34.055700 0.000000
34.088700 0.000000
34.121600 0.000000
34.154500 0.000000
34.187400 0.000000
34.220400 0.000000
34.253300 0.000000
34.286200 0.000000
34.319100 0.000000
34.352100 0.000000
34.385000 0.000000
34.417900 0.000000
34.450900 0.000000
34.483800 0.000000
34.516700 0.000000
34.549600 0.000000
34.582600 0.000000
34.615500 0.000000
34.648400 0.000000
34.681400 0.000000
34.714300 0.000000
34.747200 0.000000
34.780100 0.000000
34.813100 0.000000
34.846000 0.000000
34.878900 0.000000
34.911800 0.000000
34.944800 0.000000
34.977700 0.000000
35.010600 0.000000
35.043600 0.000000
35.076500 0.000000
35.109400 0.000000
35.142300 0.000000
35.175300 0.000000
35.208200 0.000000
35.241100 0.000000
35.274100 0.000000
35.307000 0.000000
35.339900 0.000000
35.372800 0.000000
35.405800 0.000000
35.438700 0.000000
35.471600 0.000000
35.504500 0.000000
35.537500 0.000000
35.570400 0.000000
35.603300 0.000000
35.636300 0.000000
35.669200 0.000000
35.702100 0.000000
35.735000 0.000000
35.768000 0.000000
35.800900 0.000000
35.833800 0.000000
35.866700 0.000000
35.899700 0.000000
35.932600 0.000000
35.965500 0.000000
35.998500 0.000000
36.031400 0.000000
36.064300 0.000000
36.097200 0.000000
36.130200 0.000000
36.163100 0.000000
36.196000 0.000000
36.229000 0.000000
36.261900 0.000000
36.294800 0.000000
36.327700 0.000000
36.360700 0.000000
36.393600 0.000000
36.426500 0.000000
36.459400 0.000000
36.492400 0.000000
e
