set title 'mp-25349 - Density of States'
set xlabel 'Energy (eV)'
set ylabel 'DOS (states/eV)'
set grid
set xrange [-10:10]
set yrange [0:4.413]
set xzeroaxis lt -1
set terminal png size 800,600
set output 'mp-25349_dos_gnuplot.png'
plot '-' using 1:2 with lines title 'DOS'
-38.040200 0.000000
-37.992600 0.000000
-37.945100 0.000000
-37.897500 0.000000
-37.850000 0.000000
-37.802400 0.000000
-37.754900 0.000000
-37.707300 0.000000
-37.659800 0.000000
-37.612200 0.000000
-37.564700 0.000000
-37.517100 0.000000
-37.469600 0.000000
-37.422000 0.000000
-37.374500 0.000000
-37.326900 0.000000
-37.279400 0.000000
-37.231800 0.000000
-37.184300 0.000000
-37.136800 0.000000
-37.089200 0.000000
-37.041700 0.000000
-36.994100 0.000000
-36.946600 0.000000
-36.899000 0.000000
-36.851500 0.000000
-36.803900 0.000000
-36.756400 0.000000
-36.708800 0.000000
-36.661300 0.000000
-36.613700 0.000000
-36.566200 0.000000
-36.518600 0.000000
-36.471100 0.000000
-36.423500 0.000000
-36.376000 0.000000
-36.328400 0.000000
-36.280900 0.000000
-36.233300 0.000000
-36.185800 0.000000
-36.138200 0.000000
-36.090700 0.000000
-36.043100 0.000000
-35.995600 0.000000
-35.948100 0.000000
-35.900500 0.000000
-35.853000 0.000000
-35.805400 0.000000
-35.757900 0.000000
-35.710300 0.000000
-35.662800 0.000000
-35.615200 0.000000
-35.567700 0.000000
-35.520100 0.000000
-35.472600 0.000000
-35.425000 0.000000
-35.377500 0.000000
-35.329900 0.000000
-35.282400 0.000000
-35.234800 0.000000
-35.187300 0.000000
-35.139700 0.000000
-35.092200 0.000000
-35.044600 0.000000
-34.997100 0.000000
-34.949500 0.000000
-34.902000 0.000000
-34.854400 0.000000
-34.806900 0.000000
-34.759400 0.000000
-34.711800 0.000000
-34.664300 0.000000
-34.616700 0.000000
-34.569200 0.000000
-34.521600 0.000000
-34.474100 0.000000
-34.426500 0.000000
-34.379000 0.000000
-34.331400 0.000000
-34.283900 0.000000
-34.236300 0.000000
-34.188800 0.000000
-34.141200 0.000000
-34.093700 0.000000
-34.046100 0.000000
-33.998600 0.000000
-33.951000 0.000000
-33.903500 0.000000
-33.855900 0.000000
-33.808400 0.000000
-33.760800 0.000000
-33.713300 0.000000
-33.665700 0.000000
-33.618200 2.213400
-33.570700 2.767900
-33.523100 3.717400
-33.475600 2.887800
-33.428000 1.345200
-33.380500 1.000000
-33.332900 1.502500
-33.285400 1.557500
-33.237800 1.787500
-33.190300 2.557300
-33.142700 3.662900
-33.095200 8.064800
-33.047600 7.604800
-33.000100 14.466300
-32.952500 3.173500
-32.905000 2.837500
-32.857400 0.000000
-32.809900 0.000000
-32.762300 0.000000
-32.714800 0.000000
-32.667200 0.000000
-32.619700 0.000000
-32.572100 0.000000
-32.524600 0.000000
-32.477000 0.000000
-32.429500 0.000000
-32.382000 0.000000
-32.334400 0.000000
-32.286900 0.000000
-32.239300 0.000000
-32.191800 0.000000
-32.144200 0.000000
-32.096700 0.000000
-32.049100 0.000000
-32.001600 0.000000
-31.954000 0.000000
-31.906500 0.000000
-31.858900 0.000000
-31.811400 0.000000
-31.763800 0.000000
-31.716300 0.000000
-31.668700 0.000000
-31.621200 0.000000
-31.573600 0.000000
-31.526100 0.000000
-31.478500 0.000000
-31.431000 0.000000
-31.383400 0.000000
-31.335900 0.000000
-31.288300 0.000000
-31.240800 0.000000
-31.193300 0.000000
-31.145700 0.000000
-31.098200 0.000000
-31.050600 0.000000
-31.003100 0.000000
-30.955500 0.000000
-30.908000 0.000000
-30.860400 0.000000
-30.812900 0.000000
-30.765300 0.000000
-30.717800 0.000000
-30.670200 0.000000
-30.622700 0.000000
-30.575100 0.000000
-30.527600 0.000000
-30.480000 0.000000
-30.432500 0.000000
-30.384900 0.000000
-30.337400 0.000000
-30.289800 0.000000
-30.242300 0.000000
-30.194700 0.000000
-30.147200 0.000000
-30.099600 0.000000
-30.052100 0.000000
-30.004600 0.000000
-29.957000 0.000000
-29.909500 0.000000
-29.861900 0.000000
-29.814400 0.000000
-29.766800 0.000000
-29.719300 0.000000
-29.671700 0.000000
-29.624200 0.000000
-29.576600 0.000000
-29.529100 0.000000
-29.481500 0.000000
-29.434000 0.000000
-29.386400 0.000000
-29.338900 0.000000
-29.291300 0.000000
-29.243800 0.000000
-29.196200 0.000000
-29.148700 0.000000
-29.101100 0.000000
-29.053600 0.000000
-29.006000 0.000000
-28.958500 0.000000
-28.910900 0.000000
-28.863400 0.000000
-28.815800 0.000000
-28.768300 0.000000
-28.720800 0.000000
-28.673200 0.000000
-28.625700 0.000000
-28.578100 0.000000
-28.530600 0.000000
-28.483000 0.000000
-28.435500 0.000000
-28.387900 0.000000
-28.340400 0.000000
-28.292800 0.000000
-28.245300 0.000000
-28.197700 0.000000
-28.150200 0.000000
-28.102600 0.000000
-28.055100 0.000000
-28.007500 0.000000
-27.960000 0.000000
-27.912400 0.000000
-27.864900 0.000000
-27.817300 0.000000
-27.769800 0.000000
-27.722200 0.000000
-27.674700 0.000000
-27.627100 0.000000
-27.579600 0.000000
-27.532100 0.000000
-27.484500 0.000000
-27.437000 0.000000
-27.389400 0.000000
-27.341900 0.000000
-27.294300 0.000000
-27.246800 0.000000
-27.199200 0.000000
-27.151700 0.000000
-27.104100 0.000000
-27.056600 0.000000
-27.009000 0.000000
-26.961500 0.000000
-26.913900 0.000000
-26.866400 0.000000
-26.818800 0.000000
-26.771300 0.000000
-26.723700 0.000000
-26.676200 0.000000
-26.628600 0.000000
-26.581100 0.000000
-26.533500 0.000000
-26.486000 0.000000
-26.438400 0.000000
-26.390900 0.000000
-26.343400 0.000000
-26.295800 0.000000
-26.248300 0.000000
-26.200700 0.000000
-26.153200 0.000000
-26.105600 0.000000
-26.058100 0.000000
-26.010500 0.000000
-25.963000 0.000000
-25.915400 0.000000
-25.867900 0.000000
-25.820300 0.000000
-25.772800 0.000000
-25.725200 0.000000
-25.677700 0.000000
-25.630100 0.000000
-25.582600 0.000000
-25.535000 0.000000
-25.487500 0.000000
-25.439900 0.000000
-25.392400 0.000000
-25.344800 0.000000
-25.297300 0.000000
-25.249700 0.000000
-25.202200 0.000000
-25.154700 0.000000
-25.107100 0.000000
-25.059600 0.000000
-25.012000 0.000000
-24.964500 0.000000
-24.916900 0.000000
-24.869400 0.000000
-24.821800 0.000000
-24.774300 0.000000
-24.726700 0.000000
-24.679200 0.000000
-24.631600 0.000000
-24.584100 0.000000
-24.536500 0.000000
-24.489000 0.000000
-24.441400 0.000000
-24.393900 0.000000
-24.346300 0.000000
-24.298800 0.000000
-24.251200 0.000000
-24.203700 0.000000
-24.156100 0.000000
-24.108600 0.000000
-24.061000 0.000000
-24.013500 0.000000
-23.966000 0.000000
-23.918400 0.000000
-23.870900 0.000000
-23.823300 0.000000
-23.775800 0.000000
-23.728200 0.000000
-23.680700 0.000000
-23.633100 0.000000
-23.585600 0.000000
-23.538000 0.000000
-23.490500 0.000000
-23.442900 0.000000
-23.395400 0.000000
-23.347800 0.000000
-23.300300 0.000000
-23.252700 0.000000
-23.205200 0.000000
-23.157600 0.000000
-23.110100 0.000000
-23.062500 0.000000
-23.015000 0.000000
-22.967400 0.000000
-22.919900 0.000000
-22.872300 0.000000
-22.824800 0.000000
-22.777300 0.000000
-22.729700 0.000000
-22.682200 0.000000
-22.634600 0.000000
-22.587100 0.000000
-22.539500 0.000000
-22.492000 0.000000
-22.444400 0.000000
-22.396900 0.000000
-22.349300 0.000000
-22.301800 0.000000
-22.254200 0.000000
-22.206700 0.000000
-22.159100 0.000000
-22.111600 0.000000
-22.064000 0.000000
-22.016500 0.000000
-21.968900 0.000000
-21.921400 0.000000
-21.873800 0.000000
-21.826300 0.000000
-21.778700 0.000000
-21.731200 0.000000
-21.683600 0.000000
-21.636100 0.000000
-21.588600 0.000000
-21.541000 0.000000
-21.493500 0.000000
-21.445900 0.000000
-21.398400 0.000000
-21.350800 0.000000
-21.303300 0.000000
-21.255700 0.000000
-21.208200 0.000000
-21.160600 0.000000
-21.113100 0.000000
-21.065500 0.000000
-21.018000 0.000000
-20.970400 0.000000
-20.922900 0.000000
-20.875300 0.000000
-20.827800 0.000000
-20.780200 0.000000
-20.732700 0.000000
-20.685100 0.000000
-20.637600 0.000000
-20.590000 0.000000
-20.542500 0.000000
-20.494900 0.000000
-20.447400 0.000000
-20.399900 0.000000
-20.352300 0.000000
-20.304800 0.000000
-20.257200 0.000000
-20.209700 0.000000
-20.162100 0.000000
-20.114600 0.000000
-20.067000 0.000000
-20.019500 0.000000
-19.971900 0.000000
-19.924400 0.000000
-19.876800 0.000000
-19.829300 0.000000
-19.781700 0.000000
-19.734200 0.000000
-19.686600 0.000000
-19.639100 0.000000
-19.591500 0.000000
-19.544000 0.000000
-19.496400 0.000000
-19.448900 0.000000
-19.401300 0.000000
-19.353800 0.000000
-19.306200 0.000000
-19.258700 0.000000
-19.211100 0.000000
-19.163600 0.000000
-19.116100 0.000000
-19.068500 0.000000
-19.021000 0.000000
-18.973400 0.000000
-18.925900 0.000000
-18.878300 0.000000
-18.830800 0.000000
-18.783200 0.000000
-18.735700 0.000000
-18.688100 0.000000
-18.640600 0.000000
-18.593000 0.000000
-18.545500 0.000000
-18.497900 0.000000
-18.450400 0.000000
-18.402800 0.000000
-18.355300 0.000000
-18.307700 0.000000
-18.260200 0.000000
-18.212600 0.000000
-18.165100 0.000000
-18.117500 0.000000
-18.070000 0.000000
-18.022400 0.000000
-17.974900 0.000000
-17.927400 0.000000
-17.879800 0.000000
-17.832300 0.000000
-17.784700 0.000000
-17.737200 0.000000
-17.689600 0.000000
-17.642100 0.000000
-17.594500 0.000000
-17.547000 0.000000
-17.499400 0.000000
-17.451900 0.000000
-17.404300 0.000000
-17.356800 0.000000
-17.309200 0.000000
-17.261700 0.000000
-17.214100 0.000000
-17.166600 0.000000
-17.119000 0.000000
-17.071500 0.000000
-17.023900 0.000000
-16.976400 0.000000
-16.928800 0.000000
-16.881300 0.000000
-16.833700 0.000000
-16.786200 0.000000
-16.738700 0.000000
-16.691100 0.000000
-16.643600 0.000000
-16.596000 0.000000
-16.548500 0.000000
-16.500900 0.000000
-16.453400 0.000000
-16.405800 0.000000
-16.358300 0.000000
-16.310700 0.000000
-16.263200 0.000000
-16.215600 0.000000
-16.168100 0.000000
-16.120500 0.000000
-16.073000 0.000000
-16.025400 0.050600
-15.977900 0.183200
-15.930300 0.284200
-15.882800 0.278900
-15.835200 0.306600
-15.787700 0.315100
-15.740100 0.318400
-15.692600 0.333900
-15.645000 0.354300
-15.597500 0.373600
-15.550000 0.397900
-15.502400 0.434200
-15.454900 0.603700
-15.407300 2.213300
-15.359800 2.610800
-15.312200 2.957700
-15.264700 1.971300
-15.217100 1.800700
-15.169600 1.769800
-15.122000 2.249800
-15.074500 0.702200
-15.026900 0.577400
-14.979400 0.969200
-14.931800 1.855300
-14.884300 2.511500
-14.836700 2.235300
-14.789200 3.208300
-14.741600 2.415200
-14.694100 1.930600
-14.646500 1.596500
-14.599000 1.341900
-14.551400 1.113000
-14.503900 1.199700
-14.456300 0.266200
-14.408800 0.000000
-14.361300 0.000000
-14.313700 0.000000
-14.266200 0.000000
-14.218600 0.000000
-14.171100 0.000000
-14.123500 0.000000
-14.076000 0.000000
-14.028400 0.000000
-13.980900 0.000000
-13.933300 0.000000
-13.885800 0.000000
-13.838200 0.000000
-13.790700 0.000000
-13.743100 0.000000
-13.695600 0.000000
-13.648000 0.000000
-13.600500 0.000000
-13.552900 0.000000
-13.505400 0.000000
-13.457800 0.000000
-13.410300 0.000000
-13.362700 0.000000
-13.315200 0.000000
-13.267600 0.000000
-13.220100 0.000000
-13.172600 0.000000
-13.125000 0.000000
-13.077500 0.000000
-13.029900 0.000000
-12.982400 0.000000
-12.934800 0.000000
-12.887300 0.000000
-12.839700 0.000000
-12.792200 0.000000
-12.744600 0.000000
-12.697100 0.000000
-12.649500 0.000000
-12.602000 0.000000
-12.554400 0.000000
-12.506900 0.000000
-12.459300 0.000000
-12.411800 0.000000
-12.364200 0.000000
-12.316700 0.000000
-12.269100 0.000000
-12.221600 0.000000
-12.174000 0.000000
-12.126500 0.000000
-12.078900 0.000000
-12.031400 0.000000
-11.983900 0.000000
-11.936300 0.000000
-11.888800 0.000000
-11.841200 0.000000
-11.793700 0.000000
-11.746100 0.000000
-11.698600 0.000000
-11.651000 0.000000
-11.603500 0.000000
-11.555900 0.000000
-11.508400 0.000000
-11.460800 0.000000
-11.413300 0.000000
-11.365700 0.000000
-11.318200 0.000000
-11.270600 0.000000
-11.223100 0.000000
-11.175500 0.000000
-11.128000 0.000000
-11.080400 0.000000
-11.032900 0.000000
-10.985300 0.000000
-10.937800 0.000000
-10.890200 0.000000
-10.842700 0.000000
-10.795100 0.000000
-10.747600 0.000000
-10.700100 0.000000
-10.652500 0.000000
-10.605000 0.000000
-10.557400 0.000000
-10.509900 0.000000
-10.462300 0.000000
-10.414800 0.000000
-10.367200 0.000000
-10.319700 0.000000
-10.272100 0.000000
-10.224600 0.000000
-10.177000 0.000000
-10.129500 0.000000
-10.081900 0.000000
-10.034400 0.000000
-9.986800 0.000000
-9.939300 0.000000
-9.891700 0.000000
-9.844200 0.000000
-9.796600 0.000000
-9.749100 0.000000
-9.701500 0.000000
-9.654000 0.000000
-9.606400 0.000000
-9.558900 0.000000
-9.511400 0.000000
-9.463800 0.000000
-9.416300 0.000000
-9.368700 0.000000
-9.321200 0.000000
-9.273600 0.000000
-9.226100 0.000000
-9.178500 0.000000
-9.131000 0.000000
-9.083400 0.000000
-9.035900 0.000000
-8.988300 0.000000
-8.940800 0.000000
-8.893200 0.000000
-8.845700 0.000000
-8.798100 0.000000
-8.750600 0.000000
-8.703000 0.000000
-8.655500 0.000000
-8.607900 0.000000
-8.560400 0.000000
-8.512800 0.000000
-8.465300 0.000000
-8.417700 0.000000
-8.370200 0.000000
-8.322700 0.000000
-8.275100 0.000000
-8.227600 0.000000
-8.180000 0.000000
-8.132500 0.000000
-8.084900 0.000000
-8.037400 0.000000
-7.989800 0.000000
-7.942300 0.000000
-7.894700 0.000000
-7.847200 0.000000
-7.799600 0.000000
-7.752100 0.000000
-7.704500 0.000000
-7.657000 0.000000
-7.609400 0.000000
-7.561900 0.000000
-7.514300 0.000000
-7.466800 0.000000
-7.419200 0.000000
-7.371700 0.000000
-7.324100 0.000000
-7.276600 0.000000
-7.229000 0.000000
-7.181500 0.000000
-7.134000 0.000000
-7.086400 0.000000
-7.038900 0.000000
-6.991300 0.000000
-6.943800 0.000000
-6.896200 0.000000
-6.848700 0.000000
-6.801100 0.000000
-6.753600 0.000000
-6.706000 0.000000
-6.658500 0.000000
-6.610900 0.000000
-6.563400 0.000000
-6.515800 0.000000
-6.468300 0.000000
-6.420700 0.000000
-6.373200 0.000000
-6.325600 0.000000
-6.278100 0.000000
-6.230500 0.000000
-6.183000 0.000000
-6.135400 0.000000
-6.087900 0.000000
-6.040300 0.000000
-5.992800 0.000000
-5.945300 0.000000
-5.897700 0.000000
-5.850200 0.000000
-5.802600 0.000000
-5.755100 0.000000
-5.707500 0.000000
-5.660000 0.000000
-5.612400 0.000000
-5.564900 0.000000
-5.517300 0.000000
-5.469800 0.000000
-5.422200 0.000000
-5.374700 0.000000
-5.327100 0.000000
-5.279600 0.000000
-5.232000 0.000000
-5.184500 0.000000
-5.136900 0.000000
-5.089400 0.000000
-5.041800 0.000000
-4.994300 0.000000
-4.946700 0.000000
-4.899200 0.000000
-4.851600 0.000000
-4.804100 0.000000
-4.756600 0.000000
-4.709000 0.000000
-4.661500 0.000000
-4.613900 0.000000
-4.566400 0.000000
-4.518800 0.000000
-4.471300 0.000000
-4.423700 0.000000
-4.376200 0.000000
-4.328600 0.000000
-4.281100 0.000000
-4.233500 0.000000
-4.186000 0.000000
-4.138400 0.000000
-4.090900 0.000000
-4.043300 0.000000
-3.995800 0.000000
-3.948200 0.000000
-3.900700 0.000000
-3.853100 0.000000
-3.805600 0.000000
-3.758000 0.000000
-3.710500 0.000000
-3.662900 0.035600
-3.615400 0.146900
-3.567900 0.315200
-3.520300 0.385900
-3.472800 0.455300
-3.425200 0.436000
-3.377700 0.444800
-3.330100 0.473300
-3.282600 0.497300
-3.235000 0.513800
-3.187500 0.527100
-3.139900 0.557600
-3.092400 0.613500
-3.044800 0.655300
-2.997300 0.702300
-2.949700 0.752100
-2.902200 0.858500
-2.854600 0.994000
-2.807100 1.160500
-2.759500 1.496700
-2.712000 1.917400
-2.664400 1.933100
-2.616900 1.725600
-2.569300 1.689800
-2.521800 1.114400
-2.474200 0.444400
-2.426700 0.611200
-2.379200 1.601700
-2.331600 1.848400
-2.284100 2.438300
-2.236500 2.195900
-2.189000 1.724300
-2.141400 1.761200
-2.093900 1.814200
-2.046300 1.933600
-1.998800 1.990600
-1.951200 2.088200
-1.903700 2.285300
-1.856100 2.314500
-1.808600 1.371800
-1.761000 0.878700
-1.713500 1.124100
-1.665900 1.296400
-1.618400 1.137400
-1.570800 1.056000
-1.523300 1.086800
-1.475700 1.111400
-1.428200 1.100600
-1.380600 1.402700
-1.333100 1.481300
-1.285500 1.554800
-1.238000 1.372200
-1.190400 1.096500
-1.142900 1.006900
-1.095400 0.888600
-1.047800 1.463900
-1.000300 2.559700
-0.952700 2.404300
-0.905200 2.508400
-0.857600 2.430900
-0.810100 1.864300
-0.762500 1.225900
-0.715000 1.369700
-0.667400 1.308300
-0.619900 0.955400
-0.572300 1.044900
-0.524800 1.076500
-0.477200 1.184700
-0.429700 1.369300
-0.382100 1.192200
-0.334600 0.984200
-0.287000 0.773400
-0.239500 0.703300
-0.191900 0.711600
-0.144400 0.720000
-0.096800 0.729300
-0.049300 0.761300
-0.001700 0.960200
0.045800 1.305000
0.093300 1.648600
0.140900 1.855700
0.188400 1.952200
0.236000 1.907500
0.283500 1.855400
0.331100 1.825700
0.378600 2.142900
0.426200 2.346100
0.473700 1.291600
0.521300 1.116400
0.568800 1.161800
0.616400 1.135800
0.663900 1.118100
0.711500 1.160700
0.759000 1.363400
0.806600 1.378400
0.854100 1.102300
0.901700 0.925400
0.949200 0.812200
0.996800 0.655600
1.044300 0.517300
1.091900 0.327500
1.139400 0.000000
1.187000 0.000000
1.234500 0.000000
1.282000 0.000000
1.329600 0.000000
1.377100 0.000000
1.424700 0.000000
1.472200 0.000000
1.519800 0.000000
1.567300 0.000000
1.614900 0.000000
1.662400 0.000000
1.710000 0.000000
1.757500 0.000000
1.805100 0.000000
1.852600 0.000000
1.900200 0.000000
1.947700 0.000000
1.995300 0.000000
2.042800 0.000000
2.090400 0.000000
2.137900 0.000000
2.185500 0.000000
2.233000 0.000000
2.280600 0.000000
2.328100 0.000000
2.375700 0.000000
2.423200 0.000000
2.470700 0.000000
2.518300 0.000000
2.565800 0.000000
2.613400 0.000000
2.660900 0.000000
2.708500 0.000000
2.756000 0.000500
2.803600 0.071600
2.851100 0.162000
2.898700 0.265300
2.946200 0.389000
2.993800 0.521100
3.041300 0.653700
3.088900 0.748200
3.136400 1.143400
3.184000 1.282200
3.231500 1.647400
3.279100 1.746900
3.326600 1.547000
3.374200 1.325700
3.421700 1.083400
3.469300 0.926200
3.516800 0.891900
3.564400 0.864900
3.611900 0.939600
3.659400 0.857800
3.707000 0.817200
3.754500 0.799500
3.802100 0.660100
3.849600 0.657400
3.897200 0.813100
3.944700 0.788700
3.992300 0.750900
4.039800 0.755900
4.087400 0.773800
4.134900 0.818800
4.182500 0.842500
4.230000 0.816300
4.277600 0.683800
4.325100 0.674100
4.372700 0.816100
4.420200 0.994100
4.467800 0.675700
4.515300 0.745800
4.562900 0.681600
4.610400 0.711800
4.658000 0.742800
4.705500 0.759800
4.753100 0.773900
4.800600 0.788100
4.848100 0.925500
4.895700 0.732600
4.943200 0.744600
4.990800 1.025700
5.038300 0.799900
5.085900 1.124200
5.133400 1.231000
5.181000 1.662300
5.228500 1.682000
5.276100 0.962900
5.323600 0.880800
5.371200 0.905600
5.418700 0.981600
5.466300 1.000400
5.513800 1.051300
5.561400 1.111100
5.608900 1.242000
5.656500 1.532200
5.704000 2.362500
5.751600 3.380300
5.799100 0.992900
5.846700 0.897500
5.894200 0.682700
5.941800 0.125700
5.989300 0.000000
6.036800 0.000000
6.084400 0.000000
6.131900 0.000000
6.179500 0.000000
6.227000 0.000000
6.274600 0.000000
6.322100 0.000000
6.369700 0.000000
6.417200 0.000000
6.464800 0.000000
6.512300 0.000000
6.559900 0.000000
6.607400 0.000000
6.655000 0.000000
6.702500 0.000000
6.750100 0.000000
6.797600 0.000000
6.845200 0.000000
6.892700 0.000000
6.940300 0.000000
6.987800 0.000000
7.035400 0.000000
7.082900 0.000000
7.130500 0.000000
7.178000 0.000000
7.225600 0.044300
7.273100 0.176400
7.320600 0.299300
7.368200 0.453100
7.415700 0.557100
7.463300 0.600300
7.510800 0.655300
7.558400 0.720500
7.605900 0.822800
7.653500 1.065600
7.701000 1.021000
7.748600 0.989100
7.796100 0.945800
7.843700 0.920900
7.891200 0.957500
7.938800 1.519100
7.986300 4.011500
8.033900 2.399300
8.081400 2.151300
8.129000 2.138900
8.176500 2.378200
8.224100 2.454200
8.271600 2.313100
8.319200 1.973700
8.366700 1.921500
8.414300 2.968100
8.461800 3.193700
8.509300 2.378700
8.556900 0.037000
8.604400 0.025300
8.652000 0.027600
8.699500 0.029500
8.747100 0.031800
8.794600 0.034400
8.842200 0.036900
8.889700 0.039400
8.937300 0.042000
8.984800 0.044600
9.032400 0.047400
9.079900 0.049900
9.127500 0.052400
9.175000 0.054900
9.222600 0.057300
9.270100 0.059800
9.317700 0.062400
9.365200 0.065200
9.412800 0.068600
9.460300 0.072600
9.507900 0.076300
9.555400 0.081100
9.603000 0.086500
9.650500 0.091800
9.698000 0.095100
9.745600 0.094100
9.793100 0.093200
9.840700 0.095100
9.888200 0.097100
9.935800 0.099000
9.983300 0.100900
10.030900 0.102800
10.078400 0.104500
10.126000 0.106100
10.173500 0.107400
10.221100 0.108400
10.268600 0.109600
10.316200 0.111000
10.363700 0.112700
10.411300 0.114600
10.458800 0.116500
10.506400 0.118400
10.553900 0.120300
10.601500 0.122200
10.649000 0.124100
10.696600 0.126100
10.744100 0.128500
10.791700 0.131200
10.839200 0.133600
10.886700 0.136100
10.934300 0.138800
10.981800 0.141700
11.029400 0.144600
11.076900 0.147600
11.124500 0.150700
11.172000 0.154000
11.219600 0.157300
11.267100 0.161700
11.314700 0.167200
11.362200 0.173500
11.409800 0.180400
11.457300 0.187900
11.504900 0.195800
11.552400 0.201800
11.600000 0.209800
11.647500 0.219000
11.695100 0.229500
11.742600 0.240900
11.790200 0.253100
11.837700 0.266500
11.885300 0.281000
11.932800 0.297000
11.980400 0.336500
12.027900 0.369000
12.075400 0.395500
12.123000 0.416900
12.170500 0.432400
12.218100 0.443000
12.265600 0.446900
12.313200 0.446700
12.360700 0.456100
12.408300 0.465200
12.455800 0.473600
12.503400 0.480800
12.550900 0.498600
12.598500 0.474200
12.646000 0.448800
12.693600 0.419100
12.741100 0.387500
12.788700 0.359200
12.836200 0.351700
12.883800 0.347400
12.931300 0.342500
12.978900 0.336200
13.026400 0.330400
13.074000 0.324800
13.121500 0.320300
13.169100 0.316100
13.216600 0.312200
13.264100 0.309900
13.311700 0.308100
13.359200 0.305600
13.406800 0.301600
13.454300 0.299800
13.501900 0.299400
13.549400 0.300500
13.597000 0.301900
13.644500 0.303300
13.692100 0.304800
13.739600 0.307800
13.787200 0.311500
13.834700 0.315400
13.882300 0.320400
13.929800 0.325400
13.977400 0.330600
14.024900 0.335900
14.072500 0.339800
14.120000 0.344200
14.167600 0.349200
14.215100 0.354200
14.262700 0.358900
14.310200 0.363200
14.357800 0.367000
14.405300 0.372000
14.452800 0.377400
14.500400 0.383000
14.547900 0.388900
14.595500 0.395800
14.643000 0.405600
14.690600 0.417600
14.738100 0.432000
14.785700 0.449100
14.833200 0.470000
14.880800 0.481400
14.928300 0.502200
14.975900 0.530200
15.023400 0.564900
15.071000 0.557800
15.118500 0.561000
15.166100 0.572400
15.213600 0.587700
15.261200 0.610900
15.308700 0.640900
15.356300 0.693600
15.403800 0.907100
15.451400 0.714100
15.498900 0.718700
15.546500 0.699400
15.594000 0.643600
15.641500 0.573200
15.689100 0.511300
15.736600 0.480400
15.784200 0.448000
15.831700 0.410300
15.879300 0.382700
15.926800 0.355500
15.974400 0.332000
16.021900 0.323800
16.069500 0.322000
16.117000 0.327300
16.164600 0.335700
16.212100 0.332100
16.259700 0.314300
16.307200 0.295200
16.354800 0.286800
16.402300 0.305300
16.449900 0.329400
16.497400 0.375700
16.545000 0.594100
16.592500 1.077600
16.640100 1.447900
16.687600 1.153300
16.735200 1.078300
16.782700 0.908800
16.830300 0.835100
16.877800 0.706100
16.925300 0.630600
16.972900 0.714700
17.020400 0.849700
17.068000 0.851500
17.115500 0.823700
17.163100 0.872400
17.210600 0.927000
17.258200 1.093600
17.305700 1.058800
17.353300 0.947800
17.400800 0.856900
17.448400 0.795500
17.495900 0.755400
17.543500 0.738900
17.591000 0.719300
17.638600 0.722400
17.686100 0.714900
17.733700 0.690700
17.781200 0.652700
17.828800 0.608000
17.876300 0.566500
17.923900 0.539300
17.971400 0.512000
18.019000 0.510200
18.066500 0.504100
18.114000 0.496300
18.161600 0.486900
18.209100 0.490000
18.256700 0.491000
18.304200 0.490700
18.351800 0.507600
18.399300 0.537700
18.446900 0.575400
18.494400 0.682900
18.542000 0.956700
18.589500 62.936100
18.637100 1.244800
18.684600 0.888500
18.732200 0.918100
18.779700 0.879300
18.827300 0.832800
18.874800 0.857900
18.922400 0.839400
18.969900 0.820100
19.017500 0.815500
19.065000 0.833900
19.112600 0.856500
19.160100 0.882500
19.207700 0.885200
19.255200 0.900400
19.302700 0.879700
19.350300 0.841700
19.397800 0.803200
19.445400 0.783800
19.492900 0.772100
19.540500 0.793500
19.588000 0.742500
19.635600 0.724700
19.683100 0.718100
19.730700 0.692800
19.778200 0.675800
19.825800 0.661800
19.873300 0.647200
19.920900 0.652300
19.968400 0.656400
20.016000 0.662500
20.063500 0.663200
20.111100 0.652800
20.158600 0.632000
20.206200 0.614100
20.253700 0.599900
20.301300 0.587700
20.348800 0.584100
20.396400 0.589900
20.443900 0.636700
20.491400 0.651700
20.539000 0.589500
20.586500 0.575000
20.634100 0.568200
20.681600 0.545000
20.729200 0.502600
20.776700 0.479800
20.824300 0.472600
20.871800 0.466300
20.919400 0.465900
20.966900 0.460200
21.014500 0.452800
21.062000 0.441000
21.109600 0.453100
21.157100 0.621200
21.204700 0.633200
21.252200 0.788900
21.299800 1.519200
21.347300 1.208100
21.394900 1.007600
21.442400 0.946000
21.490000 0.948600
21.537500 0.888500
21.585100 0.801200
21.632600 0.739200
21.680100 0.692300
21.727700 0.644700
21.775200 0.584200
21.822800 0.529200
21.870300 0.492800
21.917900 0.477000
21.965400 0.463300
22.013000 0.450900
22.060500 0.439500
22.108100 0.428100
22.155600 0.416800
22.203200 0.406200
22.250700 0.396800
22.298300 0.388000
22.345800 0.381000
22.393400 0.368700
22.440900 0.356000
22.488500 0.342600
22.536000 0.329300
22.583600 0.321600
22.631100 0.330000
22.678700 0.347000
22.726200 0.351400
22.773800 0.354800
22.821300 0.364300
22.868800 0.383100
22.916400 0.424600
22.963900 0.473900
23.011500 0.436400
23.059000 0.441200
23.106600 0.456100
23.154100 0.459500
23.201700 0.454900
23.249200 0.466600
23.296800 0.501700
23.344300 0.529200
23.391900 0.562600
23.439400 0.581400
23.487000 0.612500
23.534500 0.744300
23.582100 0.756900
23.629600 0.777200
23.677200 0.799300
23.724700 0.849100
23.772300 0.893200
23.819800 0.986900
23.867400 0.989000
23.914900 1.124400
23.962500 1.281800
24.010000 1.382400
24.057500 1.441200
24.105100 1.144200
24.152600 0.996400
24.200200 0.731100
24.247700 0.575900
24.295300 0.517100
24.342800 0.490300
24.390400 0.462700
24.437900 0.441800
24.485500 0.425800
24.533000 0.411400
24.580600 0.395400
24.628100 0.379000
24.675700 0.360200
24.723200 0.343600
24.770800 0.342200
24.818300 0.347900
24.865900 0.360000
24.913400 0.394700
24.961000 0.453600
25.008500 0.484500
25.056100 0.506800
25.103600 0.530800
25.151200 0.539900
25.198700 0.562000
25.246300 0.582700
25.293800 0.576900
25.341300 0.558300
25.388900 0.533100
25.436400 0.499800
25.484000 0.495100
25.531500 0.499900
25.579100 0.514700
25.626600 0.537600
25.674200 0.560300
25.721700 0.581700
25.769300 0.608900
25.816800 0.637100
25.864400 0.672200
25.911900 0.620000
25.959500 0.595800
26.007000 0.595700
26.054600 0.610900
26.102100 0.626400
26.149700 0.640400
26.197200 0.658300
26.244800 0.688800
26.292300 0.719300
26.339900 0.689300
26.387400 0.687800
26.435000 0.702800
26.482500 0.732500
26.530000 0.731800
26.577600 0.724100
26.625100 0.624100
26.672700 0.541200
26.720200 0.509100
26.767800 0.484300
26.815300 0.466200
26.862900 0.403000
26.910400 0.345600
26.958000 0.316700
27.005500 0.322300
27.053100 0.326200
27.100600 0.376400
27.148200 0.470100
27.195700 0.631900
27.243300 0.771100
27.290800 1.181200
27.338400 1.036100
27.385900 0.941300
27.433500 0.887200
27.481000 0.842700
27.528600 0.827600
27.576100 0.847700
27.623700 0.812500
27.671200 0.776800
27.718700 0.744400
27.766300 0.733900
27.813800 0.714900
27.861400 0.699300
27.908900 0.700400
27.956500 0.684800
28.004000 0.661200
28.051600 0.646000
28.099100 0.631300
28.146700 0.608300
28.194200 0.587300
28.241800 0.580300
28.289300 0.584000
28.336900 0.597800
28.384400 0.603000
28.432000 0.590800
28.479500 0.599800
28.527100 0.732800
28.574600 0.931200
28.622200 1.056200
28.669700 1.079300
28.717300 0.971700
28.764800 0.811200
28.812400 0.774600
28.859900 0.776800
28.907400 0.790100
28.955000 0.804700
29.002500 0.796100
29.050100 0.771900
29.097600 0.734600
29.145200 0.715000
29.192700 0.696000
29.240300 0.667900
29.287800 0.643800
29.335400 0.617300
29.382900 0.614300
29.430500 0.624100
29.478000 0.623700
29.525600 0.605400
29.573100 0.585300
29.620700 0.583100
29.668200 0.554100
29.715800 0.547000
29.763300 0.551100
29.810900 0.544000
29.858400 0.539400
29.906000 0.534600
29.953500 0.525800
30.001100 0.520200
30.048600 0.520500
30.096100 0.525000
30.143700 0.537100
30.191200 0.538500
30.238800 0.525100
30.286300 0.530000
30.333900 0.556700
30.381400 0.522400
30.429000 0.532800
30.476500 0.548100
30.524100 0.559600
30.571600 0.572000
30.619200 0.585100
30.666700 0.604500
30.714300 0.657400
30.761800 0.683800
30.809400 0.756300
30.856900 0.872400
30.904500 0.893400
30.952000 0.914800
30.999600 0.951200
31.047100 0.986400
31.094700 0.990000
31.142200 1.004100
31.189800 1.006000
31.237300 0.992900
31.284800 0.997000
31.332400 0.979400
31.379900 0.916600
31.427500 0.835900
31.475000 0.785600
31.522600 0.753200
31.570100 0.723700
31.617700 0.716700
31.665200 0.728300
31.712800 0.721700
31.760300 0.701600
31.807900 0.677900
31.855400 0.589900
31.903000 0.570800
31.950500 0.561700
31.998100 0.573200
32.045600 0.601900
32.093200 0.619100
32.140700 0.643400
32.188300 0.699700
32.235800 0.712100
32.283400 0.707200
32.330900 0.725000
32.378500 0.702900
32.426000 0.738100
32.473500 0.766700
32.521100 0.720900
32.568600 0.744000
32.616200 0.743800
32.663700 0.746600
32.711300 0.776600
32.758800 0.810000
32.806400 0.827300
32.853900 0.823200
32.901500 0.919700
32.949000 1.044100
32.996600 1.074900
33.044100 0.992000
33.091700 0.966000
33.139200 0.950900
33.186800 0.937300
33.234300 0.940300
33.281900 0.953500
33.329400 1.011200
33.377000 1.101200
33.424500 1.118300
33.472100 1.130300
33.519600 1.102300
33.567200 1.069900
33.614700 1.092300
33.662200 1.096500
33.709800 1.064800
33.757300 1.085900
33.804900 1.078100
33.852400 1.052400
33.900000 1.011500
33.947500 1.011000
33.995100 1.131400
34.042600 1.190600
34.090200 1.174000
34.137700 1.182400
34.185300 1.180300
34.232800 1.127100
34.280400 1.060800
34.327900 1.025400
34.375500 1.024900
34.423000 1.044100
34.470600 1.147800
34.518100 1.172400
34.565700 1.201600
34.613200 1.253600
34.660800 1.272600
34.708300 1.279900
34.755900 1.286400
34.803400 1.147300
34.851000 1.091500
34.898500 1.068600
34.946000 1.065200
34.993600 1.032200
35.041100 1.071600
35.088700 1.056600
35.136200 1.060800
35.183800 1.104000
35.231300 1.178900
35.278900 1.262600
35.326400 1.384800
35.374000 1.630800
35.421500 1.717500
35.469100 1.554300
35.516600 1.545100
35.564200 1.555300
35.611700 1.560200
35.659300 1.618200
35.706800 1.677300
35.754400 1.540500
35.801900 2.180000
35.849500 1.358700
35.897000 1.405600
35.944600 1.467300
35.992100 1.379900
36.039700 1.222200
36.087200 1.113000
36.134700 1.047600
36.182300 0.937200
36.229800 1.007200
36.277400 0.951300
36.324900 0.850700
36.372500 0.765900
36.420000 0.736500
36.467600 0.788000
36.515100 0.783200
36.562700 0.735700
36.610200 0.661300
36.657800 0.578400
36.705300 0.607300
36.752900 0.656300
36.800400 0.773200
36.848000 0.853400
36.895500 0.884800
36.943100 0.947800
36.990600 0.976800
37.038200 0.999300
37.085700 1.077300
37.133300 1.110500
37.180800 1.025400
37.228400 0.943000
37.275900 0.896200
37.323400 0.835100
37.371000 0.849700
37.418500 0.974900
37.466100 1.002700
37.513600 1.007000
37.561200 1.039000
37.608700 1.039400
37.656300 1.051400
37.703800 1.103600
37.751400 1.170800
37.798900 1.219300
37.846500 1.349800
37.894000 0.998900
37.941600 0.840400
37.989100 0.742400
38.036700 0.696700
38.084200 0.719100
38.131800 0.709100
38.179300 0.722600
38.226900 0.742700
38.274400 0.759100
38.322000 0.756200
38.369500 0.753800
38.417100 0.763900
38.464600 0.832400
38.512100 0.921700
38.559700 0.959900
38.607200 1.011000
38.654800 1.053400
38.702300 1.105000
38.749900 1.112800
38.797400 1.128800
38.845000 1.108900
38.892500 1.081800
38.940100 1.076500
38.987600 1.062200
39.035200 1.078700
39.082700 1.104300
39.130300 1.135500
39.177800 1.198200
39.225400 1.187200
39.272900 1.198100
39.320500 1.196900
39.368000 1.184900
39.415600 1.143700
39.463100 1.068200
39.510700 0.939200
39.558200 0.883500
39.605800 0.861600
39.653300 0.834000
39.700800 0.866100
39.748400 0.911900
39.795900 0.943600
39.843500 0.986100
39.891000 0.931100
39.938600 0.933300
39.986100 0.937700
40.033700 0.920700
40.081200 0.956000
40.128800 1.017400
40.176300 1.006900
40.223900 0.923700
40.271400 0.886100
40.319000 0.839900
40.366500 0.789100
40.414100 0.768000
40.461600 0.777700
40.509200 0.811700
40.556700 0.842700
40.604300 0.859500
40.651800 0.896000
40.699400 0.957500
40.746900 0.928200
40.794500 0.864200
40.842000 0.822100
40.889500 0.734900
40.937100 0.676500
40.984600 0.634800
41.032200 0.614000
41.079700 0.602200
41.127300 0.599900
41.174800 0.599600
41.222400 0.602100
41.269900 0.603000
41.317500 0.607900
41.365000 0.619100
41.412600 0.631400
41.460100 0.689100
41.507700 0.685800
41.555200 0.682000
41.602800 0.675200
41.650300 0.676500
41.697900 0.685300
41.745400 0.684400
41.793000 0.695200
41.840500 0.675300
41.888100 0.686900
41.935600 0.687000
41.983200 0.669800
42.030700 0.658600
42.078200 0.672400
42.125800 0.708000
42.173300 0.718700
42.220900 0.725400
42.268400 0.744600
42.316000 0.768600
42.363500 0.782100
42.411100 0.773600
42.458600 0.743900
42.506200 0.704400
42.553700 0.673800
42.601300 0.669100
42.648800 0.663300
42.696400 0.664500
42.743900 0.669400
42.791500 0.658100
42.839000 0.662500
42.886600 0.681800
42.934100 0.718300
42.981700 0.880400
43.029200 0.913400
43.076800 0.948600
43.124300 1.003200
43.171900 0.987700
43.219400 0.956000
43.267000 0.936100
43.314500 0.934700
43.362000 0.890300
43.409600 0.862900
43.457100 0.826800
43.504700 0.814100
43.552200 0.788100
43.599800 0.752800
43.647300 0.715900
43.694900 0.693000
43.742400 0.695200
43.790000 0.698500
43.837500 0.711600
43.885100 0.741800
43.932600 0.784300
43.980200 0.831900
44.027700 0.874300
44.075300 0.908600
44.122800 0.943200
44.170400 1.099900
44.217900 0.966700
44.265500 0.964300
44.313000 0.851700
44.360600 0.827200
44.408100 0.787200
44.455700 0.760500
44.503200 0.774100
44.550700 0.824300
44.598300 0.873100
44.645800 0.903500
44.693400 0.927100
44.740900 0.968600
44.788500 0.969400
44.836000 0.969700
44.883600 0.973200
44.931100 0.967900
44.978700 0.966800
45.026200 0.965600
45.073800 0.930700
45.121300 0.891400
45.168900 0.850700
45.216400 0.827900
45.264000 0.868000
45.311500 0.822200
45.359100 0.848900
45.406600 0.856600
45.454200 0.847200
45.501700 0.857200
45.549300 0.883900
45.596800 0.874500
45.644400 0.871000
45.691900 0.891700
45.739400 0.908100
45.787000 0.947000
45.834500 0.972300
45.882100 0.984000
45.929600 0.998300
45.977200 1.014100
46.024700 1.011500
46.072300 1.004100
46.119800 1.021300
46.167400 1.048400
46.214900 1.090300
46.262500 1.129700
46.310000 1.232400
46.357600 1.181300
46.405100 1.119500
46.452700 1.046300
46.500200 0.993500
46.547800 0.949700
46.595300 0.901800
46.642900 0.853300
46.690400 0.806000
46.738000 0.785700
46.785500 0.789100
46.833100 0.808600
46.880600 0.882700
46.928100 0.998600
46.975700 1.169600
47.023200 1.103600
47.070800 1.108900
47.118300 1.124000
47.165900 1.303300
47.213400 1.133400
47.261000 1.116800
47.308500 1.042800
47.356100 0.972900
47.403600 0.914500
47.451200 0.888400
47.498700 0.898400
47.546300 0.906400
47.593800 0.896600
47.641400 0.875300
47.688900 0.864300
47.736500 0.876200
47.784000 0.873000
47.831600 0.887900
47.879100 0.891200
47.926700 0.856600
47.974200 0.849800
48.021800 0.870000
48.069300 0.921300
48.116800 0.980800
48.164400 1.061600
48.211900 1.140900
48.259500 1.177200
48.307000 1.222700
48.354600 1.235100
48.402100 1.241800
48.449700 1.279600
48.497200 1.187500
48.544800 1.107900
48.592300 1.007700
48.639900 0.949500
48.687400 0.991200
48.735000 1.076500
48.782500 1.130300
48.830100 1.187900
48.877600 1.216400
48.925200 1.231200
48.972700 1.271600
49.020300 1.129700
49.067800 1.099600
49.115400 1.066900
49.162900 1.043600
49.210500 0.960900
49.258000 0.892200
49.305500 0.805700
49.353100 0.728700
49.400600 0.721500
49.448200 0.746000
49.495700 0.813300
49.543300 0.902800
49.590800 0.972600
49.638400 1.052900
49.685900 1.242000
49.733500 1.405500
49.781000 1.412000
49.828600 1.359200
49.876100 1.372100
49.923700 1.337700
49.971200 1.238600
50.018800 0.956600
50.066300 0.838800
50.113900 0.877400
50.161400 0.958600
50.209000 1.085200
50.256500 1.169100
50.304100 1.174900
50.351600 1.074200
50.399200 1.122000
50.446700 1.244400
50.494200 1.278800
50.541800 1.208800
50.589300 1.046900
50.636900 0.998300
50.684400 0.971000
50.732000 0.941100
50.779500 0.910000
50.827100 0.881600
50.874600 0.864000
50.922200 0.833300
50.969700 0.759400
51.017300 0.654100
51.064800 0.530600
51.112400 0.495900
51.159900 0.443700
51.207500 0.406000
51.255000 0.369800
51.302600 0.317300
51.350100 0.307900
51.397700 0.311700
51.445200 0.322800
51.492800 0.301800
51.540300 0.280500
51.587900 0.261000
51.635400 0.239800
51.682900 0.213900
51.730500 0.212400
51.778000 0.203900
51.825600 0.197000
51.873100 0.191400
51.920700 0.186500
51.968200 0.182100
52.015800 0.177100
52.063300 0.188500
52.110900 0.218100
52.158400 0.259300
52.206000 0.311200
52.253500 0.331700
52.301100 0.172400
52.348600 0.074900
52.396200 0.035300
52.443700 0.024200
52.491300 0.017500
52.538800 0.011900
52.586400 0.007200
52.633900 0.003500
52.681500 0.001000
52.729000 0.000000
52.776600 0.000000
52.824100 0.000000
52.871700 0.000000
52.919200 0.000000
52.966700 0.000000
53.014300 0.000000
53.061800 0.000000
53.109400 0.000000
53.156900 0.000000
53.204500 0.000000
53.252000 0.000000
53.299600 0.000000
53.347100 0.000000
53.394700 0.000000
53.442200 0.000000
53.489800 0.000000
53.537300 0.000000
53.584900 0.000000
53.632400 0.000000
53.680000 0.000000
53.727500 0.000000
53.775100 0.000000
53.822600 0.000000
53.870200 0.000000
53.917700 0.000000
53.965300 0.000000
54.012800 0.000000
54.060400 0.000000
54.107900 0.000000
54.155400 0.000000
54.203000 0.000000
54.250500 0.000000
54.298100 0.000000
54.345600 0.000000
54.393200 0.000000
54.440700 0.000000
54.488300 0.000000
54.535800 0.000000
54.583400 0.000000
54.630900 0.000000
54.678500 0.000000
54.726000 0.000000
54.773600 0.000000
54.821100 0.000000
54.868700 0.000000
54.916200 0.000000
54.963800 0.000000
55.011300 0.000000
55.058900 0.000000
55.106400 0.000000
55.154000 0.000000
55.201500 0.000000
55.249100 0.000000
55.296600 0.000000
55.344100 0.000000
55.391700 0.000000
55.439200 0.000000
55.486800 0.000000
55.534300 0.000000
55.581900 0.000000
55.629400 0.000000
55.677000 0.000000
55.724500 0.000000
55.772100 0.000000
55.819600 0.000000
55.867200 0.000000
55.914700 0.000000
55.962300 0.000000
56.009800 0.000000
56.057400 0.000000
56.104900 0.000000
56.152500 0.000000
56.200000 0.000000
56.247600 0.000000
56.295100 0.000000
56.342700 0.000000
56.390200 0.000000
56.437800 0.000000
56.485300 0.000000
56.532800 0.000000
56.580400 0.000000
56.627900 0.000000
56.675500 0.000000
56.723000 0.000000
56.770600 0.000000
56.818100 0.000000
56.865700 0.000000
56.913200 0.000000
56.960800 0.000000
57.008300 0.000000
57.055900 0.000000
e
