set title 'mp-32667 - Density of States'
set xlabel 'Energy (eV)'
set ylabel 'DOS (states/eV)'
set grid
set xrange [-10:10]
set yrange [0:22.550]
set xzeroaxis lt -1
set terminal png size 800,600
set output 'mp-32667_dos_gnuplot.png'
plot '-' using 1:2 with lines title 'DOS'
-16.163800 0.000000
-16.142900 0.000000
-16.122000 0.000000
-16.101200 0.000000
-16.080300 0.000000
-16.059500 0.000000
-16.038600 0.000000
-16.017800 0.000000
-15.996900 0.000000
-15.976100 0.000000
-15.955200 0.000000
-15.934300 0.000000
-15.913500 0.000000
-15.892600 0.000000
-15.871800 0.000000
-15.850900 0.000000
-15.830100 0.000000
-15.809200 0.000000
-15.788400 0.000000
-15.767500 0.000000
-15.746700 0.000000
-15.725800 0.000000
-15.704900 0.000000
-15.684100 0.000000
-15.663200 0.000000
-15.642400 0.000000
-15.621500 0.000000
-15.600700 0.000000
-15.579800 0.000000
-15.559000 0.000000
-15.538100 0.000000
-15.517200 0.000000
-15.496400 0.000000
-15.475500 0.000000
-15.454700 0.000000
-15.433800 0.000000
-15.413000 0.000000
-15.392100 0.000000
-15.371300 0.000000
-15.350400 0.000000
-15.329500 0.000000
-15.308700 0.000000
-15.287800 0.000000
-15.267000 0.000000
-15.246100 0.000000
-15.225300 0.000000
-15.204400 0.000000
-15.183600 0.000000
-15.162700 0.000000
-15.141800 0.000000
-15.121000 0.000000
-15.100100 0.000000
-15.079300 0.000000
-15.058400 0.000000
-15.037600 0.000000
-15.016700 0.000000
-14.995900 0.000000
-14.975000 0.000000
-14.954100 0.000000
-14.933300 0.000000
-14.912400 0.000000
-14.891600 0.000000
-14.870700 0.000000
-14.849900 0.000000
-14.829000 0.000000
-14.808200 0.000000
-14.787300 0.000000
-14.766400 0.000000
-14.745600 0.000000
-14.724700 0.000000
-14.703900 0.000000
-14.683000 0.000000
-14.662200 0.000000
-14.641300 0.000000
-14.620500 0.000000
-14.599600 0.000000
-14.578700 0.000000
-14.557900 0.000000
-14.537000 0.000000
-14.516200 0.000000
-14.495300 0.000000
-14.474500 0.000000
-14.453600 0.000000
-14.432800 0.000000
-14.411900 0.000000
-14.391000 0.000000
-14.370200 0.000000
-14.349300 0.000000
-14.328500 0.000000
-14.307600 0.000000
-14.286800 0.000000
-14.265900 0.000100
-14.245100 0.016500
-14.224200 0.060500
-14.203300 0.132100
-14.182500 0.231500
-14.161600 0.358500
-14.140800 0.506000
-14.119900 0.644400
-14.099100 0.753400
-14.078200 0.832800
-14.057400 0.882700
-14.036500 0.904700
-14.015700 0.918800
-13.994800 0.942400
-13.973900 0.975300
-13.953100 1.017200
-13.932200 1.067400
-13.911400 1.123500
-13.890500 1.185900
-13.869700 1.254800
-13.848800 1.330100
-13.828000 1.410200
-13.807100 1.489500
-13.786200 1.567400
-13.765400 1.640500
-13.744500 1.674800
-13.723700 1.666100
-13.702800 1.650000
-13.682000 1.637000
-13.661100 1.701200
-13.640300 1.797100
-13.619400 1.912300
-13.598500 2.024900
-13.577700 2.116000
-13.556800 2.170300
-13.536000 2.222400
-13.515100 2.272800
-13.494300 2.320200
-13.473400 2.364200
-13.452600 2.403500
-13.431700 2.410400
-13.410800 2.361000
-13.390000 2.268800
-13.369100 2.182000
-13.348300 2.116200
-13.327400 2.184400
-13.306600 2.289000
-13.285700 2.384300
-13.264900 2.471800
-13.244000 2.552200
-13.223100 2.502800
-13.202300 2.451200
-13.181400 2.403500
-13.160600 2.368900
-13.139700 2.375900
-13.118900 2.390100
-13.098000 2.412100
-13.077200 2.445900
-13.056300 2.504700
-13.035400 2.579000
-13.014600 2.806300
-12.993700 3.129700
-12.972900 3.223800
-12.952000 3.284100
-12.931200 3.206400
-12.910300 3.312500
-12.889500 3.234600
-12.868600 3.234600
-12.847700 3.308600
-12.826900 3.392400
-12.806000 3.461700
-12.785200 3.528700
-12.764300 3.575800
-12.743500 3.644500
-12.722600 3.750300
-12.701800 4.074300
-12.680900 4.474900
-12.660000 4.743200
-12.639200 5.362600
-12.618300 5.901700
-12.597500 5.367400
-12.576600 4.775500
-12.555800 3.968900
-12.534900 3.395800
-12.514100 3.145100
-12.493200 2.957700
-12.472300 2.758000
-12.451500 2.569600
-12.430600 2.409500
-12.409800 2.777200
-12.388900 3.328200
-12.368100 4.118700
-12.347200 3.618000
-12.326400 3.772800
-12.305500 3.976400
-12.284700 3.982400
-12.263800 4.008100
-12.242900 4.202800
-12.222100 4.512900
-12.201200 5.011900
-12.180400 5.527700
-12.159500 5.815300
-12.138700 5.932200
-12.117800 5.407000
-12.097000 5.245900
-12.076100 5.184300
-12.055200 5.072600
-12.034400 4.951200
-12.013500 4.850300
-11.992700 4.761800
-11.971800 4.677600
-11.951000 4.657300
-11.930100 4.824100
-11.909300 5.178300
-11.888400 5.281800
-11.867500 5.102400
-11.846700 4.960200
-11.825800 4.825500
-11.805000 4.756000
-11.784100 4.198700
-11.763300 3.822300
-11.742400 3.471300
-11.721600 3.193600
-11.700700 3.097100
-11.679800 3.142000
-11.659000 3.300500
-11.638100 3.490500
-11.617300 3.774100
-11.596400 4.176200
-11.575600 4.590200
-11.554700 4.914800
-11.533900 5.371700
-11.513000 5.555000
-11.492100 5.404100
-11.471300 5.214100
-11.450400 5.103900
-11.429600 5.477800
-11.408700 5.223900
-11.387900 4.989000
-11.367000 4.593600
-11.346200 4.548100
-11.325300 5.617700
-11.304400 8.148800
-11.283600 8.095300
-11.262700 8.591500
-11.241900 8.467500
-11.221000 8.015500
-11.200200 7.198800
-11.179300 6.783200
-11.158500 7.021900
-11.137600 7.893300
-11.116700 6.871200
-11.095900 6.344000
-11.075000 5.808500
-11.054200 6.277000
-11.033300 6.628800
-11.012500 6.703200
-10.991600 6.836900
-10.970800 6.982100
-10.949900 8.425000
-10.929000 8.523700
-10.908200 6.819000
-10.887300 7.090000
-10.866500 7.176100
-10.845600 7.480500
-10.824800 7.775100
-10.803900 7.578500
-10.783100 7.045200
-10.762200 6.614500
-10.741300 6.248000
-10.720500 5.985300
-10.699600 6.386700
-10.678800 7.228400
-10.657900 8.051500
-10.637100 9.046500
-10.616200 10.116100
-10.595400 10.755300
-10.574500 12.096400
-10.553700 12.215800
-10.532800 9.882800
-10.511900 9.384300
-10.491100 10.003200
-10.470200 10.742100
-10.449400 10.049200
-10.428500 10.215100
-10.407700 10.558500
-10.386800 10.611300
-10.366000 12.872400
-10.345100 12.207700
-10.324200 12.642400
-10.303400 14.208600
-10.282500 16.474800
-10.261700 19.019700
-10.240800 24.001800
-10.220000 24.223000
-10.199100 22.939700
-10.178300 23.647800
-10.157400 25.435600
-10.136500 21.414800
-10.115700 20.690300
-10.094800 22.268600
-10.074000 21.621600
-10.053100 12.665300
-10.032300 11.840000
-10.011400 10.307200
-9.990600 5.906300
-9.969700 0.486200
-9.948800 0.000000
-9.928000 0.000000
-9.907100 0.000000
-9.886300 0.000000
-9.865400 0.000000
-9.844600 0.000000
-9.823700 0.000000
-9.802900 0.000000
-9.782000 0.000000
-9.761100 0.000000
-9.740300 0.000000
-9.719400 0.000000
-9.698600 0.000000
-9.677700 0.000000
-9.656900 0.000000
-9.636000 0.000000
-9.615200 0.000000
-9.594300 0.000000
-9.573400 0.000000
-9.552600 0.000000
-9.531700 0.000000
-9.510900 0.000000
-9.490000 0.000000
-9.469200 0.000000
-9.448300 0.000000
-9.427500 0.000000
-9.406600 0.000000
-9.385700 0.000000
-9.364900 0.000000
-9.344000 0.000000
-9.323200 0.000000
-9.302300 0.000000
-9.281500 0.000000
-9.260600 0.000000
-9.239800 0.000000
-9.218900 0.000000
-9.198000 0.000000
-9.177200 0.000000
-9.156300 0.000000
-9.135500 0.000000
-9.114600 0.000000
-9.093800 0.000000
-9.072900 0.000000
-9.052100 0.000000
-9.031200 0.000000
-9.010300 0.000000
-8.989500 0.000000
-8.968600 0.000000
-8.947800 0.000000
-8.926900 0.000000
-8.906100 0.000000
-8.885200 0.000000
-8.864400 0.000000
-8.843500 0.000000
-8.822700 0.000000
-8.801800 0.000000
-8.780900 0.000000
-8.760100 0.000000
-8.739200 0.000000
-8.718400 0.000000
-8.697500 0.000000
-8.676700 0.000000
-8.655800 0.000000
-8.635000 0.000000
-8.614100 0.000000
-8.593200 0.000000
-8.572400 0.000000
-8.551500 0.000000
-8.530700 0.000000
-8.509800 0.000000
-8.489000 0.000000
-8.468100 0.000000
-8.447300 0.000000
-8.426400 0.000000
-8.405500 0.000000
-8.384700 0.000000
-8.363800 0.000000
-8.343000 0.000000
-8.322100 0.000000
-8.301300 0.000000
-8.280400 0.000000
-8.259600 0.000000
-8.238700 0.000000
-8.217800 0.000000
-8.197000 0.000000
-8.176100 0.000000
-8.155300 0.000000
-8.134400 0.000000
-8.113600 0.000000
-8.092700 0.000000
-8.071900 0.000000
-8.051000 0.000000
-8.030100 0.000000
-8.009300 0.000000
-7.988400 0.000000
-7.967600 0.000000
-7.946700 0.000000
-7.925900 0.000000
-7.905000 0.000000
-7.884200 0.000000
-7.863300 0.000000
-7.842400 0.000000
-7.821600 0.000000
-7.800700 0.000000
-7.779900 0.000000
-7.759000 0.000000
-7.738200 0.000000
-7.717300 0.000000
-7.696500 0.000000
-7.675600 0.000000
-7.654700 0.000000
-7.633900 0.000000
-7.613000 0.000000
-7.592200 0.000000
-7.571300 0.000000
-7.550500 0.000000
-7.529600 0.000000
-7.508800 0.000000
-7.487900 0.000000
-7.467000 0.000000
-7.446200 0.000000
-7.425300 0.000000
-7.404500 0.000000
-7.383600 0.000000
-7.362800 0.000000
-7.341900 0.000000
-7.321100 0.000000
-7.300200 0.000000
-7.279300 0.000000
-7.258500 0.000000
-7.237600 0.000000
-7.216800 0.000000
-7.195900 0.000000
-7.175100 0.000000
-7.154200 0.000000
-7.133400 0.000000
-7.112500 0.000000
-7.091700 0.000000
-7.070800 0.000000
-7.049900 0.000000
-7.029100 0.000000
-7.008200 0.000000
-6.987400 0.000000
-6.966500 0.000000
-6.945700 0.000000
-6.924800 0.000000
-6.904000 0.000000
-6.883100 0.000000
-6.862200 0.000000
-6.841400 0.000000
-6.820500 0.000000
-6.799700 0.000000
-6.778800 0.000000
-6.758000 0.000000
-6.737100 0.000000
-6.716300 0.000000
-6.695400 0.000000
-6.674500 0.000000
-6.653700 0.000000
-6.632800 0.000000
-6.612000 0.000000
-6.591100 0.000000
-6.570300 0.000000
-6.549400 0.000000
-6.528600 0.000000
-6.507700 0.000000
-6.486800 0.000000
-6.466000 0.000000
-6.445100 0.000000
-6.424300 0.000000
-6.403400 0.000000
-6.382600 0.000000
-6.361700 0.000000
-6.340900 0.000000
-6.320000 0.000000
-6.299100 0.000000
-6.278300 0.000000
-6.257400 0.000000
-6.236600 0.000000
-6.215700 0.000000
-6.194900 0.000000
-6.174000 0.000000
-6.153200 0.000000
-6.132300 0.000000
-6.111400 0.000000
-6.090600 0.000000
-6.069700 0.000000
-6.048900 0.000000
-6.028000 0.000000
-6.007200 0.000000
-5.986300 0.000000
-5.965500 0.000000
-5.944600 0.000000
-5.923700 0.000000
-5.902900 0.000000
-5.882000 0.000000
-5.861200 0.000000
-5.840300 0.000000
-5.819500 0.000000
-5.798600 0.000000
-5.777800 0.000000
-5.756900 0.000000
-5.736000 0.000000
-5.715200 0.000000
-5.694300 0.000000
-5.673500 0.000000
-5.652600 0.000000
-5.631800 0.000000
-5.610900 0.000000
-5.590100 0.000000
-5.569200 0.000000
-5.548300 0.000000
-5.527500 0.000000
-5.506600 0.000000
-5.485800 0.000000
-5.464900 0.000000
-5.444100 0.000000
-5.423200 0.000000
-5.402400 0.000000
-5.381500 0.000000
-5.360700 0.000000
-5.339800 0.000000
-5.318900 0.000000
-5.298100 0.000000
-5.277200 0.000000
-5.256400 0.000000
-5.235500 0.000000
-5.214700 0.000000
-5.193800 0.000000
-5.173000 0.000000
-5.152100 0.000000
-5.131200 0.000000
-5.110400 0.000000
-5.089500 0.000000
-5.068700 0.000000
-5.047800 0.000000
-5.027000 0.000000
-5.006100 0.000000
-4.985300 0.000000
-4.964400 0.000000
-4.943500 0.000000
-4.922700 0.000000
-4.901800 0.000000
-4.881000 0.000000
-4.860100 0.000000
-4.839300 0.000000
-4.818400 0.000000
-4.797600 0.000000
-4.776700 0.000000
-4.755800 0.000000
-4.735000 0.000000
-4.714100 0.000000
-4.693300 0.000000
-4.672400 0.000000
-4.651600 0.000000
-4.630700 0.000000
-4.609900 0.000000
-4.589000 0.000000
-4.568100 0.000000
-4.547300 0.000000
-4.526400 0.000000
-4.505600 0.000000
-4.484700 0.000000
-4.463900 0.000000
-4.443000 0.000000
-4.422200 0.000000
-4.401300 0.000000
-4.380400 0.000000
-4.359600 0.000000
-4.338700 0.000000
-4.317900 0.000000
-4.297000 0.000000
-4.276200 0.000000
-4.255300 0.000000
-4.234500 0.000000
-4.213600 0.000000
-4.192700 0.000000
-4.171900 0.000000
-4.151000 0.000000
-4.130200 0.000000
-4.109300 0.000000
-4.088500 0.000000
-4.067600 0.000000
-4.046800 0.000000
-4.025900 0.000000
-4.005000 0.000000
-3.984200 0.000000
-3.963300 0.000000
-3.942500 0.000000
-3.921600 0.000000
-3.900800 0.000000
-3.879900 0.000000
-3.859100 0.000000
-3.838200 0.000000
-3.817300 0.000000
-3.796500 0.000000
-3.775600 0.000000
-3.754800 0.000000
-3.733900 0.000000
-3.713100 0.000000
-3.692200 0.000000
-3.671400 0.000000
-3.650500 0.000000
-3.629700 0.000000
-3.608800 0.000000
-3.587900 0.000000
-3.567100 0.000000
-3.546200 0.000000
-3.525400 0.000000
-3.504500 0.000000
-3.483700 0.000000
-3.462800 0.000000
-3.442000 0.000000
-3.421100 0.000000
-3.400200 0.000000
-3.379400 0.000000
-3.358500 0.000000
-3.337700 0.000000
-3.316800 0.000000
-3.296000 0.000000
-3.275100 0.000000
-3.254300 0.000000
-3.233400 0.000000
-3.212500 0.000000
-3.191700 0.000000
-3.170800 0.000000
-3.150000 0.000000
-3.129100 0.000000
-3.108300 0.000000
-3.087400 0.000000
-3.066600 0.000000
-3.045700 0.000000
-3.024800 0.000000
-3.004000 0.000000
-2.983100 0.000000
-2.962300 0.000000
-2.941400 0.000000
-2.920600 0.000000
-2.899700 0.000000
-2.878900 0.000000
-2.858000 0.000000
-2.837100 0.000000
-2.816300 0.000000
-2.795400 0.000000
-2.774600 0.000000
-2.753700 0.000000
-2.732900 0.000000
-2.712000 0.000000
-2.691200 0.000000
-2.670300 0.000000
-2.649400 0.000000
-2.628600 0.000000
-2.607700 0.000000
-2.586900 0.007400
-2.566000 0.153900
-2.545200 0.410600
-2.524300 0.541700
-2.503500 0.690600
-2.482600 0.857300
-2.461700 1.041700
-2.440900 1.276400
-2.420000 1.508200
-2.399200 1.635600
-2.378300 1.750300
-2.357500 1.929500
-2.336600 2.379300
-2.315800 2.882700
-2.294900 3.265600
-2.274000 3.459500
-2.253200 3.446900
-2.232300 3.512900
-2.211500 3.648900
-2.190600 3.814400
-2.169800 4.082900
-2.148900 4.456400
-2.128100 4.803200
-2.107200 4.711000
-2.086300 4.663200
-2.065500 4.636800
-2.044600 4.674400
-2.023800 4.720900
-2.002900 4.747800
-1.982100 4.716500
-1.961200 4.705700
-1.940400 4.644500
-1.919500 4.479300
-1.898700 4.276400
-1.877800 4.212200
-1.856900 4.182800
-1.836100 4.102400
-1.815200 4.037700
-1.794400 4.007500
-1.773500 4.665100
-1.752700 5.155600
-1.731800 5.676400
-1.711000 6.147400
-1.690100 6.343800
-1.669200 6.506300
-1.648400 6.554900
-1.627500 6.647200
-1.606700 6.792400
-1.585800 6.675700
-1.565000 6.496800
-1.544100 6.356200
-1.523300 6.637000
-1.502400 6.339700
-1.481500 5.684800
-1.460700 5.116500
-1.439800 4.672400
-1.419000 4.396300
-1.398100 4.227300
-1.377300 4.149500
-1.356400 4.078800
-1.335600 3.927600
-1.314700 3.637300
-1.293800 3.647900
-1.273000 3.681100
-1.252100 3.867300
-1.231300 3.881700
-1.210400 3.898800
-1.189600 3.901200
-1.168700 3.809800
-1.147900 3.874200
-1.127000 3.945000
-1.106100 3.923500
-1.085300 4.849700
-1.064400 3.668000
-1.043600 3.674900
-1.022700 3.578000
-1.001900 3.486500
-0.981000 3.416700
-0.960200 3.352700
-0.939300 3.256600
-0.918400 3.183700
-0.897600 3.184800
-0.876700 3.541500
-0.855900 2.849800
-0.835000 2.926100
-0.814200 3.130200
-0.793300 3.247400
-0.772500 3.384000
-0.751600 3.534400
-0.730700 3.735300
-0.709900 4.217600
-0.689000 4.855400
-0.668200 5.150400
-0.647300 5.378700
-0.626500 5.544800
-0.605600 5.988500
-0.584800 6.309400
-0.563900 5.974900
-0.543000 4.150100
-0.522200 3.998100
-0.501300 3.854900
-0.480500 3.749100
-0.459600 3.723700
-0.438800 3.992300
-0.417900 4.378900
-0.397100 5.093300
-0.376200 4.900100
-0.355300 4.971700
-0.334500 4.726700
-0.313600 5.450600
-0.292800 7.055900
-0.271900 4.955300
-0.251100 4.101400
-0.230200 3.929400
-0.209400 3.848400
-0.188500 3.836700
-0.167700 3.800000
-0.146800 3.760600
-0.125900 3.642900
-0.105100 3.520700
-0.084200 3.421700
-0.063400 3.305600
-0.042500 3.226500
-0.021700 3.196200
-0.000800 3.174300
0.020000 3.169400
0.040900 3.192100
0.061800 8.248900
0.082600 3.605800
0.103500 3.721800
0.124300 3.845000
0.145200 4.033600
0.166000 4.233900
0.186900 4.270300
0.207700 4.166300
0.228600 3.730500
0.249500 3.555500
0.270300 3.820300
0.291200 4.104700
0.312000 4.352800
0.332900 4.485400
0.353700 4.931800
0.374600 4.736600
0.395400 4.439000
0.416300 4.341700
0.437200 4.928900
0.458000 5.626800
0.478900 6.129600
0.499700 6.504100
0.520600 6.391600
0.541400 7.028800
0.562300 7.267500
0.583100 7.243200
0.604000 7.084300
0.624900 6.797600
0.645700 6.866300
0.666600 6.988700
0.687400 7.117100
0.708300 7.316300
0.729100 7.680600
0.750000 8.132700
0.770800 7.625500
0.791700 7.357600
0.812600 6.891600
0.833400 6.528000
0.854300 6.096300
0.875100 5.691400
0.896000 5.419200
0.916800 5.308600
0.937700 5.375400
0.958500 5.053700
0.979400 4.601800
1.000300 4.030900
1.021100 2.952000
1.042000 2.773800
1.062800 2.977800
1.083700 3.738900
1.104500 4.556400
1.125400 5.305500
1.146200 6.117700
1.167100 6.028800
1.188000 6.738500
1.208800 6.916400
1.229700 6.949800
1.250500 7.039700
1.271400 7.411900
1.292200 8.074900
1.313100 8.829000
1.333900 8.251800
1.354800 8.186100
1.375700 7.727800
1.396500 7.309100
1.417400 7.237800
1.438200 6.742700
1.459100 6.214500
1.479900 6.343700
1.500800 6.652200
1.521600 6.929500
1.542500 6.620900
1.563300 6.795100
1.584200 8.888300
1.605100 12.117800
1.625900 12.520900
1.646800 10.736200
1.667600 9.337700
1.688500 8.600500
1.709300 7.889200
1.730200 7.664400
1.751000 7.492100
1.771900 7.308700
1.792800 7.200800
1.813600 7.273400
1.834500 7.593300
1.855300 8.146300
1.876200 9.279000
1.897000 10.097900
1.917900 8.659100
1.938700 8.207000
1.959600 7.824900
1.980500 7.294800
2.001300 6.983900
2.022200 7.079500
2.043000 7.086700
2.063900 6.862300
2.084700 5.969500
2.105600 5.153300
2.126400 5.074900
2.147300 5.190000
2.168200 5.347200
2.189000 5.704300
2.209900 6.711600
2.230700 7.849700
2.251600 7.014700
2.272400 7.173900
2.293300 8.914700
2.314100 7.918400
2.335000 7.823800
2.355900 7.786800
2.376700 7.654800
2.397600 7.351600
2.418400 8.379000
2.439300 7.648000
2.460100 8.350400
2.481000 9.925900
2.501800 11.399800
2.522700 10.224400
2.543600 9.759400
2.564400 9.193200
2.585300 8.841500
2.606100 8.398300
2.627000 8.141300
2.647800 8.944700
2.668700 9.154800
2.689500 8.012500
2.710400 7.237700
2.731300 6.838000
2.752100 6.644000
2.773000 6.738400
2.793800 6.698300
2.814700 6.663200
2.835500 6.594500
2.856400 6.557800
2.877200 6.436500
2.898100 7.450300
2.919000 7.789900
2.939800 8.138000
2.960700 8.263600
2.981500 8.808900
3.002400 9.480500
3.023200 9.471800
3.044100 9.765500
3.064900 9.512000
3.085800 8.791700
3.106700 8.095000
3.127500 7.337100
3.148400 7.593700
3.169200 11.709000
3.190100 9.180400
3.210900 9.672100
3.231800 9.883700
3.252600 9.540100
3.273500 8.204100
3.294300 7.577500
3.315200 7.489700
3.336100 7.545800
3.356900 7.777400
3.377800 7.804100
3.398600 7.757500
3.419500 7.906500
3.440300 8.555900
3.461200 9.002400
3.482000 8.982100
3.502900 8.206800
3.523800 7.579700
3.544600 7.441100
3.565500 7.471600
3.586300 7.371900
3.607200 7.194300
3.628000 7.506100
3.648900 7.800100
3.669700 8.045500
3.690600 9.236800
3.711500 8.432300
3.732300 8.234800
3.753200 8.552700
3.774000 8.926800
3.794900 9.750400
3.815700 10.481600
3.836600 9.977600
3.857400 10.268600
3.878300 9.738500
3.899200 8.935500
3.920000 8.342400
3.940900 7.960600
3.961700 7.792400
3.982600 7.661500
4.003400 7.722800
4.024300 8.111700
4.045100 7.572500
4.066000 7.712500
4.086900 8.214800
4.107700 8.418200
4.128600 8.456400
4.149400 8.487100
4.170300 8.472800
4.191100 8.148400
4.212000 8.686400
4.232800 9.706200
4.253700 10.418100
4.274600 10.915800
4.295400 11.138400
4.316300 11.812800
4.337100 12.742000
4.358000 10.833600
4.378800 11.431400
4.399700 11.389800
4.420500 11.553300
4.441400 11.424400
4.462300 10.708800
4.483100 10.203900
4.504000 12.110000
4.524800 11.554900
4.545700 12.263100
4.566500 12.525800
4.587400 12.204200
4.608200 10.825200
4.629100 11.639500
4.650000 12.500300
4.670800 15.192500
4.691700 15.671400
4.712500 13.836000
4.733400 15.369100
4.754200 14.525000
4.775100 13.443600
4.795900 12.280300
4.816800 10.332700
4.837700 8.642200
4.858500 8.821800
4.879400 9.133100
4.900200 9.348400
4.921100 9.295600
4.941900 9.369100
4.962800 10.747900
4.983600 11.184000
5.004500 12.563600
5.025300 11.711300
5.046200 12.936300
5.067100 11.030600
5.087900 9.104500
5.108800 8.209300
5.129600 6.985600
5.150500 6.489600
5.171300 6.660800
5.192200 6.890000
5.213000 6.864200
5.233900 6.869900
5.254800 6.899400
5.275600 6.994500
5.296500 6.779100
5.317300 6.759200
5.338200 6.785700
5.359000 6.648200
5.379900 6.660700
5.400700 6.519200
5.421600 7.151100
5.442500 7.956700
5.463300 8.423300
5.484200 9.239800
5.505000 9.829100
5.525900 9.685400
5.546700 9.741100
5.567600 8.913700
5.588400 8.136400
5.609300 5.877600
5.630200 5.666700
5.651000 5.655000
5.671900 5.678500
5.692700 5.916000
5.713600 7.221100
5.734400 8.623000
5.755300 10.432500
5.776100 11.065400
5.797000 11.303600
5.817900 10.963400
5.838700 11.315100
5.859600 11.463900
5.880400 9.711900
5.901300 9.133100
5.922100 7.922900
5.943000 8.338000
5.963800 13.894300
5.984700 10.123700
6.005600 8.892200
6.026400 8.808100
6.047300 8.732300
6.068100 8.729400
6.089000 8.770700
6.109800 8.976100
6.130700 12.105600
6.151500 10.420600
6.172400 9.574400
6.193300 9.642200
6.214100 11.065800
6.235000 11.401800
6.255800 11.756100
6.276700 10.383700
6.297500 9.854100
6.318400 9.115200
6.339200 8.686800
6.360100 8.171700
6.381000 7.446800
6.401800 7.292500
6.422700 7.183700
6.443500 7.105700
6.464400 7.778000
6.485200 8.359500
6.506100 9.730700
6.526900 12.181300
6.547800 11.065200
6.568700 10.473900
6.589500 9.018100
6.610400 8.655300
6.631200 8.231400
6.652100 7.228600
6.672900 6.168300
6.693800 6.093500
6.714600 6.336900
6.735500 8.428400
6.756300 9.550500
6.777200 10.287600
6.798100 10.518200
6.818900 10.466300
6.839800 10.767000
6.860600 10.836200
6.881500 10.293800
6.902300 9.688100
6.923200 9.191100
6.944000 8.984000
6.964900 7.570500
6.985800 5.924500
7.006600 6.378000
7.027500 7.188500
7.048300 8.104300
7.069200 7.592600
7.090000 9.814600
7.110900 13.575800
7.131700 15.170700
7.152600 20.500000
7.173500 16.866900
7.194300 14.302000
7.215200 15.127700
7.236000 13.781400
7.256900 10.502500
7.277700 8.732700
7.298600 7.235400
7.319400 5.916700
7.340300 4.871000
7.361200 3.937600
7.382000 3.155800
7.402900 2.476300
7.423700 1.857800
7.444600 1.207900
7.465400 0.372000
7.486300 0.015400
7.507100 0.000000
7.528000 0.000000
7.548900 0.000000
7.569700 0.000000
7.590600 0.000000
7.611400 0.000000
7.632300 0.000000
7.653100 0.000000
7.674000 0.000000
7.694800 0.000000
7.715700 0.000000
7.736600 0.000000
7.757400 0.000000
7.778300 0.000000
7.799100 0.000000
7.820000 0.000000
7.840800 0.000000
7.861700 0.000000
7.882500 0.000000
7.903400 0.000000
7.924300 0.000000
7.945100 0.000000
7.966000 0.000000
7.986800 0.000000
8.007700 0.000000
8.028500 0.000000
8.049400 0.000000
8.070200 0.000000
8.091100 0.000000
8.112000 0.000000
8.132800 0.000000
8.153700 0.000000
8.174500 0.000000
8.195400 0.000000
8.216200 0.000000
8.237100 0.000000
8.257900 0.000000
8.278800 0.000000
8.299700 0.000000
8.320500 0.000000
8.341400 0.000000
8.362200 0.000000
8.383100 0.000000
8.403900 0.000000
8.424800 0.000000
8.445600 0.000000
8.466500 0.000000
8.487300 0.000000
8.508200 0.000000
8.529100 0.000000
8.549900 0.000000
8.570800 0.000000
8.591600 0.000000
8.612500 0.000000
8.633300 0.000000
8.654200 0.000000
8.675000 0.000000
8.695900 0.000000
8.716800 0.000000
8.737600 0.000000
8.758500 0.000000
8.779300 0.000000
8.800200 0.000000
8.821000 0.000000
8.841900 0.000000
8.862700 0.000000
8.883600 0.000000
8.904500 0.000000
8.925300 0.000000
8.946200 0.000000
8.967000 0.000000
8.987900 0.000000
9.008700 0.000000
9.029600 0.000000
9.050400 0.000000
9.071300 0.000000
9.092200 0.000000
9.113000 0.000000
9.133900 0.000000
9.154700 0.000000
9.175600 0.000000
9.196400 0.000000
9.217300 0.000000
9.238100 0.000000
9.259000 0.000000
9.279900 0.000000
9.300700 0.000000
9.321600 0.000000
9.342400 0.000000
9.363300 0.000000
9.384100 0.000000
9.405000 0.000000
9.425800 0.000000
9.446700 0.000000
9.467600 0.000000
9.488400 0.000000
9.509300 0.000000
9.530100 0.000000
9.551000 0.000000
9.571800 0.000000
9.592700 0.000000
9.613500 0.000000
9.634400 0.000000
9.655300 0.000000
9.676100 0.000000
9.697000 0.000000
9.717800 0.000000
9.738700 0.000000
9.759500 0.000000
9.780400 0.000000
9.801200 0.000000
9.822100 0.000000
9.843000 0.000000
9.863800 0.000000
9.884700 0.000000
9.905500 0.000000
9.926400 0.000000
9.947200 0.000000
9.968100 0.000000
9.988900 0.000000
10.009800 0.000000
10.030700 0.000000
10.051500 0.000000
10.072400 0.000000
10.093200 0.000000
10.114100 0.000000
10.134900 0.000000
10.155800 0.000000
10.176600 0.000000
10.197500 0.000000
10.218300 0.000000
10.239200 0.000000
10.260100 0.000000
10.280900 0.000000
10.301800 0.000000
10.322600 0.000000
10.343500 0.000000
10.364300 0.000000
10.385200 0.000000
10.406000 0.000000
10.426900 0.000000
10.447800 0.000000
10.468600 0.000000
10.489500 0.000000
10.510300 0.000000
10.531200 0.000000
10.552000 0.000000
10.572900 0.000000
10.593700 0.000000
10.614600 0.000000
10.635500 0.000000
10.656300 0.000000
10.677200 0.000000
10.698000 0.000000
10.718900 0.000000
10.739700 0.000000
10.760600 0.000000
10.781400 0.000000
10.802300 0.000000
10.823200 0.000000
10.844000 0.000000
10.864900 0.000000
10.885700 0.000000
10.906600 0.000000
10.927400 0.000000
10.948300 0.000000
10.969100 0.000000
10.990000 0.000000
11.010900 0.000000
11.031700 0.000000
11.052600 0.000000
11.073400 0.000000
11.094300 0.000000
11.115100 0.000000
11.136000 0.000000
11.156800 0.000000
11.177700 0.000000
11.198600 0.000000
11.219400 0.000000
11.240300 0.000000
11.261100 0.000000
11.282000 0.000000
11.302800 0.000000
11.323700 0.000000
11.344500 0.000000
11.365400 0.000000
11.386300 0.000000
11.407100 0.000000
11.428000 0.000000
11.448800 0.000000
11.469700 0.000000
11.490500 0.000000
11.511400 0.000000
11.532200 0.000000
11.553100 0.000000
11.574000 0.000000
11.594800 0.000000
11.615700 0.000000
11.636500 0.000000
11.657400 0.000000
11.678200 0.000000
11.699100 0.000000
11.719900 0.000000
11.740800 0.000000
11.761700 0.000000
11.782500 0.000000
11.803400 0.000000
11.824200 0.000000
11.845100 0.000000
11.865900 0.000000
11.886800 0.000000
11.907600 0.000000
11.928500 0.000000
11.949300 0.000000
11.970200 0.000000
11.991100 0.000000
12.011900 0.000000
12.032800 0.000000
12.053600 0.000000
12.074500 0.000000
12.095300 0.000000
12.116200 0.000000
12.137000 0.000000
12.157900 0.000000
12.178800 0.000000
12.199600 0.000000
12.220500 0.000000
12.241300 0.000000
12.262200 0.000000
12.283000 0.000000
12.303900 0.000000
12.324700 0.000000
12.345600 0.000000
12.366500 0.000000
12.387300 0.000000
12.408200 0.000000
12.429000 0.000000
12.449900 0.000000
12.470700 0.000000
12.491600 0.000000
12.512400 0.000000
12.533300 0.000000
12.554200 0.000000
12.575000 0.000000
12.595900 0.000000
12.616700 0.000000
12.637600 0.000000
12.658400 0.000000
12.679300 0.000000
12.700100 0.000000
12.721000 0.000000
12.741900 0.000000
12.762700 0.000000
12.783600 0.000000
12.804400 0.000000
12.825300 0.000000
12.846100 0.000000
12.867000 0.000100
12.887800 0.000700
12.908700 0.002000
12.929600 0.003900
12.950400 0.006500
12.971300 0.009700
12.992100 0.013600
13.013000 0.018100
13.033800 0.023200
13.054700 0.029000
13.075500 0.035500
13.096400 0.042600
13.117300 0.050300
13.138100 0.058700
13.159000 0.067700
13.179800 0.077300
13.200700 0.087700
13.221500 0.098600
13.242400 0.110200
13.263200 0.122500
13.284100 0.135800
13.305000 0.149900
13.325800 0.164800
13.346700 0.180600
13.367500 0.196400
13.388400 0.211800
13.409200 0.226900
13.430100 0.241300
13.450900 0.255200
13.471800 0.268400
13.492700 0.281100
13.513500 0.293200
13.534400 0.304700
13.555200 0.315600
13.576100 0.326000
13.596900 0.335700
13.617800 0.344800
13.638600 0.353300
13.659500 0.361500
13.680300 0.370000
13.701200 0.378900
13.722100 0.388500
13.742900 0.398900
13.763800 0.410200
13.784600 0.422200
13.805500 0.435200
13.826300 0.448900
13.847200 0.463500
13.868000 0.478900
13.888900 0.495100
13.909800 0.511700
13.930600 0.528600
13.951500 0.546300
13.972300 0.565200
13.993200 0.585100
14.014000 0.606200
14.034900 0.628400
14.055700 0.651800
14.076600 0.676300
14.097500 0.702200
14.118300 0.730200
14.139200 0.760300
14.160000 0.793000
14.180900 0.828500
14.201700 0.866900
14.222600 0.908200
14.243400 0.952500
14.264300 0.999600
14.285200 1.050200
14.306000 1.115500
14.326900 1.199700
14.347700 1.302900
14.368600 1.366100
14.389400 1.395700
14.410300 1.414900
14.431100 1.459200
14.452000 1.555900
14.472900 1.700200
14.493700 1.894500
14.514600 2.092800
14.535400 2.315200
14.556300 2.610900
14.577100 2.896100
14.598000 3.167600
14.618800 3.419400
14.639700 3.610600
14.660600 3.786000
14.681400 3.945900
14.702300 4.074400
14.723100 4.145900
14.744000 4.223900
14.764800 4.333600
14.785700 4.548600
14.806500 4.959600
14.827400 4.422900
14.848300 4.134500
14.869100 4.120200
14.890000 4.109600
14.910800 4.513600
14.931700 4.234100
14.952500 4.256400
14.973400 4.406200
14.994200 4.592100
15.015100 4.729700
15.036000 4.806700
15.056800 4.478900
15.077700 4.491500
15.098500 4.555400
15.119400 4.840300
15.140200 4.951500
15.161100 4.661800
15.181900 5.015200
15.202800 5.677400
15.223700 6.205000
15.244500 6.461700
15.265400 6.892900
15.286200 5.708800
15.307100 5.098700
15.327900 5.140700
15.348800 5.161400
15.369600 5.090100
15.390500 5.383300
15.411300 5.687100
15.432200 6.055300
15.453100 6.554200
15.473900 7.036500
15.494800 7.181500
15.515600 6.835900
15.536500 6.601100
15.557300 6.345600
15.578200 6.389100
15.599000 6.515700
15.619900 5.950900
15.640800 5.485200
15.661600 5.199200
15.682500 5.132000
15.703300 5.105800
15.724200 5.098500
15.745000 5.045700
15.765900 5.008000
15.786700 4.926400
15.807600 4.908400
15.828500 4.853100
15.849300 4.712400
15.870200 4.667100
15.891000 4.753900
15.911900 5.161500
15.932700 5.775100
15.953600 5.612600
15.974400 5.371600
15.995300 5.191000
16.016200 5.107400
16.037000 5.042500
16.057900 4.866500
16.078700 4.689900
16.099600 4.529900
16.120400 4.410000
16.141300 4.909800
16.162100 4.498800
16.183000 4.055300
16.203900 3.881600
16.224700 3.729600
16.245600 3.594200
16.266400 3.489900
16.287300 3.420600
16.308100 3.391600
16.329000 3.679000
16.349800 3.914500
16.370700 3.871300
16.391600 3.768800
16.412400 4.066900
16.433300 3.954800
16.454100 4.199000
16.475000 4.155200
16.495800 4.101600
16.516700 4.151500
16.537500 4.160500
16.558400 4.138100
16.579300 4.138900
16.600100 4.138600
16.621000 4.049700
16.641800 3.977500
16.662700 3.909700
16.683500 3.709900
16.704400 3.809100
16.725200 3.968300
16.746100 4.138300
16.767000 3.395100
16.787800 3.511700
16.808700 3.650900
16.829500 3.381200
16.850400 3.152600
16.871200 2.922200
16.892100 2.938300
16.912900 2.969300
16.933800 3.058400
16.954600 3.215500
16.975500 3.353100
16.996400 3.494500
17.017200 3.299200
17.038100 2.482300
17.058900 2.498500
17.079800 2.045200
17.100600 2.390100
17.121500 2.752000
17.142300 2.931500
17.163200 3.064700
17.184100 3.153200
17.204900 2.996900
17.225800 3.051100
17.246600 3.280600
17.267500 3.578100
17.288300 3.860600
17.309200 4.127000
17.330000 4.802700
17.350900 5.615000
17.371800 6.647200
17.392600 6.438200
17.413500 6.585800
17.434300 7.045300
17.455200 7.160400
17.476000 7.096400
17.496900 7.721900
17.517700 7.105200
17.538600 6.724200
17.559500 6.835200
17.580300 6.827800
17.601200 6.801200
17.622000 7.137500
17.642900 7.394700
17.663700 7.857000
17.684600 7.961800
17.705400 7.794300
17.726300 7.688300
17.747200 7.573700
17.768000 7.296500
17.788900 6.597100
17.809700 6.125900
17.830600 5.549800
17.851400 5.707900
17.872300 5.752300
17.893100 5.663900
17.914000 5.449300
17.934900 5.037600
17.955700 4.769300
17.976600 5.125200
17.997400 5.512200
18.018300 5.880200
18.039100 5.990700
18.060000 6.149700
18.080800 6.744200
18.101700 7.232800
18.122600 7.393100
18.143400 7.475300
18.164300 7.016000
18.185100 6.780000
18.206000 6.653800
18.226800 6.790100
18.247700 6.909600
18.268500 7.185000
18.289400 6.575700
18.310300 6.597500
18.331100 7.100700
18.352000 7.912300
18.372800 9.479600
18.393700 10.027700
18.414500 8.549700
18.435400 5.943200
18.456200 5.169400
18.477100 4.701200
18.498000 4.498500
18.518800 4.479700
18.539700 4.535800
18.560500 4.712200
18.581400 4.911000
18.602200 5.063000
18.623100 5.419700
18.643900 5.730900
18.664800 6.124300
18.685600 6.458100
18.706500 6.722200
18.727400 7.223100
18.748200 7.032800
18.769100 6.415200
18.789900 5.958700
18.810800 5.749000
18.831600 5.562200
18.852500 5.575600
18.873300 5.699600
18.894200 5.856100
18.915100 6.037000
18.935900 6.170800
18.956800 6.338400
18.977600 6.525700
18.998500 6.661700
19.019300 6.721100
19.040200 6.670800
19.061000 6.205300
19.081900 5.899100
19.102800 5.508700
19.123600 5.194600
19.144500 5.059100
19.165300 4.966700
19.186200 4.828100
19.207000 4.808000
19.227900 5.120700
19.248700 5.624800
19.269600 5.944500
19.290500 6.050700
19.311300 6.334600
19.332200 6.580100
19.353000 6.910300
19.373900 7.248000
19.394700 7.667100
19.415600 7.296300
19.436400 7.358000
19.457300 7.099000
19.478200 6.699500
19.499000 6.707000
19.519900 7.098900
19.540700 7.701900
19.561600 8.791800
19.582400 10.038300
19.603300 10.641100
19.624100 11.604400
19.645000 10.976300
19.665900 8.537100
19.686700 8.471300
19.707600 7.949600
19.728400 7.332300
19.749300 6.860700
19.770100 6.737800
19.791000 6.822700
19.811800 6.759800
19.832700 6.929300
19.853600 7.334700
19.874400 7.913500
19.895300 7.644900
19.916100 8.145800
19.937000 8.717700
19.957800 8.685700
19.978700 9.048100
19.999500 9.180600
20.020400 9.390500
20.041300 9.610900
20.062100 9.671100
20.083000 11.676200
20.103800 9.424700
20.124700 7.394100
20.145500 7.634700
20.166400 8.321800
20.187200 9.122800
20.208100 10.728100
20.229000 12.212500
20.249800 19.587600
20.270700 10.565600
20.291500 9.214700
20.312400 8.055100
20.333200 8.217000
20.354100 8.185600
20.374900 9.183300
20.395800 9.083300
20.416600 8.672300
20.437500 7.180300
20.458400 6.904900
20.479200 5.413100
20.500100 5.785400
20.520900 6.896600
20.541800 8.380300
20.562600 9.718500
20.583500 10.414800
20.604300 10.038700
20.625200 8.987200
20.646100 8.240800
20.666900 7.733500
20.687800 8.007100
20.708600 8.460200
20.729500 8.840200
20.750300 9.162200
20.771200 8.846500
20.792000 8.843500
20.812900 8.791100
20.833800 9.102000
20.854600 9.788700
20.875500 10.958300
20.896300 11.382000
20.917200 10.737400
20.938000 10.296700
20.958900 10.460200
20.979700 9.605700
21.000600 6.023400
21.021500 5.222600
21.042300 5.384700
21.063200 5.886600
21.084000 7.284000
21.104900 8.447000
21.125700 8.243900
21.146600 8.891300
21.167400 9.887600
21.188300 9.307400
21.209200 9.084600
21.230000 10.141500
21.250900 9.779300
21.271700 9.903400
21.292600 10.665700
21.313400 11.660200
21.334300 13.140900
21.355100 12.166800
21.376000 11.788000
21.396900 11.251300
21.417700 10.180200
21.438600 9.999900
21.459400 10.282100
21.480300 13.113100
21.501100 13.190600
21.522000 10.932700
21.542800 11.351100
21.563700 10.099000
21.584600 9.540400
21.605400 9.438700
21.626300 9.613800
21.647100 10.530800
21.668000 10.763700
21.688800 11.214600
21.709700 11.667800
21.730500 11.819500
21.751400 11.681000
21.772300 11.212200
21.793100 10.810400
21.814000 10.054100
21.834800 9.078500
21.855700 8.952000
21.876500 10.207500
21.897400 10.207400
21.918200 10.732300
21.939100 10.863000
21.960000 11.519600
21.980800 12.365100
22.001700 12.403700
22.022500 12.478200
22.043400 12.243200
22.064200 11.857700
22.085100 11.859000
22.105900 11.606000
22.126800 11.207600
22.147600 11.125500
22.168500 11.385600
22.189400 10.336700
22.210200 9.656000
22.231100 9.624000
22.251900 10.117100
22.272800 10.470000
22.293600 11.190200
22.314500 11.026800
22.335300 9.976700
22.356200 10.769300
22.377100 11.614700
22.397900 11.692500
22.418800 11.725100
22.439600 11.528800
22.460500 11.691900
22.481300 12.562500
22.502200 12.934800
22.523000 12.672600
22.543900 12.996100
22.564800 12.281600
22.585600 11.534000
22.606500 11.080000
22.627300 10.814900
22.648200 11.084800
22.669000 11.388900
22.689900 12.941000
22.710700 12.637900
22.731600 11.443900
22.752500 11.162400
22.773300 11.301700
22.794200 10.566200
22.815000 9.405100
22.835900 10.760100
22.856700 11.022400
22.877600 12.884900
22.898400 13.438600
22.919300 14.185300
22.940200 12.313500
22.961000 10.671500
22.981900 11.180800
23.002700 11.523100
23.023600 8.992600
23.044400 8.274600
23.065300 7.378600
23.086100 6.221800
23.107000 6.538400
23.127900 6.256900
23.148700 5.381200
23.169600 4.318600
23.190400 3.355400
23.211300 2.975700
23.232100 3.022300
23.253000 3.065600
23.273800 3.079200
23.294700 3.059300
23.315600 3.202000
23.336400 2.826000
23.357300 2.297100
23.378100 1.828400
23.399000 1.487400
23.419800 1.187200
23.440700 0.927900
23.461500 0.716700
23.482400 0.544900
23.503300 0.409300
23.524100 0.309900
23.545000 0.230100
23.565800 0.152900
23.586700 0.087300
23.607500 0.039900
23.628400 0.010900
23.649200 0.000100
23.670100 0.000000
23.691000 0.000000
23.711800 0.000000
23.732700 0.000000
23.753500 0.000000
23.774400 0.000000
23.795200 0.000000
23.816100 0.000000
23.836900 0.000000
23.857800 0.000000
23.878600 0.000000
23.899500 0.000000
23.920400 0.000000
23.941200 0.000000
23.962100 0.000000
23.982900 0.000000
24.003800 0.000000
24.024600 0.000000
24.045500 0.000000
24.066300 0.000000
24.087200 0.000000
24.108100 0.000000
24.128900 0.000000
24.149800 0.000000
24.170600 0.000000
24.191500 0.000000
24.212300 0.000000
24.233200 0.000000
24.254000 0.000000
24.274900 0.000000
24.295800 0.000000
24.316600 0.000000
24.337500 0.000000
24.358300 0.000000
24.379200 0.000000
24.400000 0.000000
24.420900 0.000000
24.441700 0.000000
24.462600 0.000000
24.483500 0.000000
24.504300 0.000000
24.525200 0.000000
24.546000 0.000000
24.566900 0.000000
24.587700 0.000000
24.608600 0.000000
24.629400 0.000000
24.650300 0.000000
24.671200 0.000000
24.692000 0.000000
24.712900 0.000000
24.733700 0.000000
24.754600 0.000000
24.775400 0.000000
24.796300 0.000000
24.817100 0.000000
24.838000 0.000000
24.858900 0.000000
24.879700 0.000000
24.900600 0.000000
24.921400 0.000000
24.942300 0.000000
24.963100 0.000000
24.984000 0.000000
25.004800 0.000000
25.025700 0.000000
25.046600 0.000000
25.067400 0.000000
25.088300 0.000000
25.109100 0.000000
25.130000 0.000000
25.150800 0.000000
25.171700 0.000000
25.192500 0.000000
25.213400 0.000000
25.234300 0.000000
25.255100 0.000000
25.276000 0.000000
25.296800 0.000000
25.317700 0.000000
25.338500 0.000000
25.359400 0.000000
25.380200 0.000000
25.401100 0.000000
25.422000 0.000000
25.442800 0.000000
25.463700 0.000000
25.484500 0.000000
25.505400 0.000000
25.526200 0.000000
25.547100 0.000000
e
