set title 'mp-567534 - Density of States'
set xlabel 'Energy (eV)'
set ylabel 'DOS (states/eV)'
set grid
set xrange [-10:10]
set yrange [0:1134.986]
set xzeroaxis lt -1
set terminal png size 800,600
set output 'mp-567534_dos_gnuplot.png'
plot '-' using 1:2 with lines title 'DOS'
-11.955100 0.000000
-11.942400 0.000000
-11.929700 0.000000
-11.917000 0.000000
-11.904300 0.000000
-11.891600 0.000000
-11.879000 0.000000
-11.866300 0.000000
-11.853600 0.000000
-11.840900 0.000000
-11.828200 0.000000
-11.815500 0.000000
-11.802800 0.000000
-11.790100 0.000000
-11.777400 0.000000
-11.764700 0.000000
-11.752100 0.000000
-11.739400 0.000000
-11.726700 0.000000
-11.714000 0.000000
-11.701300 0.000000
-11.688600 0.000000
-11.675900 0.000000
-11.663200 0.000000
-11.650500 0.000000
-11.637800 0.000000
-11.625200 0.000000
-11.612500 0.000000
-11.599800 0.000000
-11.587100 0.000000
-11.574400 0.000000
-11.561700 0.000000
-11.549000 0.000000
-11.536300 0.000000
-11.523600 0.000000
-11.510900 0.000000
-11.498200 0.000000
-11.485600 0.000000
-11.472900 0.000000
-11.460200 0.000000
-11.447500 0.000000
-11.434800 0.000000
-11.422100 0.000000
-11.409400 0.000000
-11.396700 0.000000
-11.384000 0.000000
-11.371300 0.000000
-11.358700 0.000000
-11.346000 0.000000
-11.333300 0.000000
-11.320600 0.000000
-11.307900 0.000000
-11.295200 0.000000
-11.282500 0.000000
-11.269800 0.000000
-11.257100 0.000000
-11.244400 0.000000
-11.231800 0.000000
-11.219100 0.000000
-11.206400 0.000000
-11.193700 0.000000
-11.181000 0.000000
-11.168300 0.000000
-11.155600 0.000000
-11.142900 0.000000
-11.130200 0.000000
-11.117500 0.000000
-11.104900 0.000000
-11.092200 0.000000
-11.079500 0.000000
-11.066800 0.000000
-11.054100 0.000000
-11.041400 0.000000
-11.028700 0.000000
-11.016000 0.000000
-11.003300 0.000000
-10.990600 0.000000
-10.977900 0.000000
-10.965300 0.000000
-10.952600 0.000000
-10.939900 0.000000
-10.927200 0.000000
-10.914500 0.000000
-10.901800 0.000000
-10.889100 0.000000
-10.876400 0.000000
-10.863700 0.000000
-10.851000 0.000000
-10.838400 0.000000
-10.825700 0.000000
-10.813000 0.000000
-10.800300 0.040300
-10.787600 0.875600
-10.774900 2.217700
-10.762200 4.260900
-10.749500 6.530600
-10.736800 9.618800
-10.724100 13.320100
-10.711500 15.609900
-10.698800 15.780500
-10.686100 15.591300
-10.673400 17.352600
-10.660700 16.167700
-10.648000 15.559900
-10.635300 16.084700
-10.622600 16.609400
-10.609900 17.134100
-10.597200 17.658800
-10.584600 18.183600
-10.571900 18.710400
-10.559200 19.287100
-10.546500 19.900600
-10.533800 20.567100
-10.521100 21.289700
-10.508400 22.086700
-10.495700 22.889600
-10.483000 23.688400
-10.470300 24.481900
-10.457600 25.258600
-10.445000 26.030400
-10.432300 26.802300
-10.419600 27.574200
-10.406900 28.346100
-10.394200 29.117900
-10.381500 29.889800
-10.368800 31.535800
-10.356100 37.314000
-10.343400 49.036600
-10.330700 71.287600
-10.318100 83.748200
-10.305400 115.410000
-10.292700 126.494800
-10.280000 138.268200
-10.267300 152.288600
-10.254600 176.695600
-10.241900 285.145400
-10.229200 394.959800
-10.216500 326.345800
-10.203800 0.000000
-10.191200 0.000000
-10.178500 0.000000
-10.165800 0.000000
-10.153100 0.000000
-10.140400 0.000000
-10.127700 0.000000
-10.115000 0.000000
-10.102300 0.000000
-10.089600 0.000000
-10.076900 0.000000
-10.064300 0.000000
-10.051600 0.000000
-10.038900 0.000000
-10.026200 0.000000
-10.013500 0.000000
-10.000800 0.000000
-9.988100 0.000000
-9.975400 0.000000
-9.962700 0.000000
-9.950000 0.000000
-9.937300 0.000000
-9.924700 0.000000
-9.912000 0.000000
-9.899300 0.000000
-9.886600 0.000000
-9.873900 0.000000
-9.861200 0.000000
-9.848500 0.000000
-9.835800 0.000000
-9.823100 0.000000
-9.810400 0.000000
-9.797800 0.000000
-9.785100 0.000000
-9.772400 0.000000
-9.759700 0.000000
-9.747000 0.000000
-9.734300 0.000000
-9.721600 0.000000
-9.708900 0.000000
-9.696200 0.000000
-9.683500 0.000000
-9.670900 0.000000
-9.658200 0.000000
-9.645500 0.000000
-9.632800 0.000000
-9.620100 0.000000
-9.607400 0.000000
-9.594700 0.000000
-9.582000 0.000000
-9.569300 0.000000
-9.556600 0.000000
-9.544000 0.000000
-9.531300 0.000000
-9.518600 0.000000
-9.505900 0.000000
-9.493200 0.000000
-9.480500 0.000000
-9.467800 0.000000
-9.455100 0.000000
-9.442400 0.000000
-9.429700 0.000000
-9.417000 0.000000
-9.404400 0.000000
-9.391700 0.000000
-9.379000 0.000000
-9.366300 0.000000
-9.353600 0.000000
-9.340900 0.000000
-9.328200 0.000000
-9.315500 0.000000
-9.302800 0.000000
-9.290100 0.000000
-9.277500 0.000000
-9.264800 0.000000
-9.252100 0.000000
-9.239400 0.000000
-9.226700 0.000000
-9.214000 0.000000
-9.201300 0.000000
-9.188600 0.000000
-9.175900 0.000000
-9.163200 0.000000
-9.150600 0.000000
-9.137900 0.000000
-9.125200 0.000000
-9.112500 0.000000
-9.099800 0.000000
-9.087100 0.000000
-9.074400 0.000000
-9.061700 0.000000
-9.049000 0.000000
-9.036300 0.000000
-9.023700 0.000000
-9.011000 0.000000
-8.998300 0.000000
-8.985600 0.000000
-8.972900 0.000000
-8.960200 0.000000
-8.947500 0.000000
-8.934800 0.000000
-8.922100 0.000000
-8.909400 0.000000
-8.896700 0.000000
-8.884100 0.000000
-8.871400 0.000000
-8.858700 0.000000
-8.846000 0.000000
-8.833300 0.000000
-8.820600 0.000000
-8.807900 0.000000
-8.795200 0.000000
-8.782500 0.000000
-8.769800 0.000000
-8.757200 0.000000
-8.744500 0.000000
-8.731800 0.000000
-8.719100 0.000000
-8.706400 0.000000
-8.693700 0.000000
-8.681000 0.000000
-8.668300 0.000000
-8.655600 0.000000
-8.642900 0.000000
-8.630300 0.000000
-8.617600 0.000000
-8.604900 0.000000
-8.592200 0.000000
-8.579500 0.000000
-8.566800 0.000000
-8.554100 0.000000
-8.541400 0.000000
-8.528700 0.000000
-8.516000 0.000000
-8.503400 0.000000
-8.490700 0.000000
-8.478000 0.000000
-8.465300 0.000000
-8.452600 0.000000
-8.439900 0.000000
-8.427200 0.000000
-8.414500 0.000000
-8.401800 0.000000
-8.389100 0.000000
-8.376400 0.000000
-8.363800 0.000000
-8.351100 0.000000
-8.338400 0.000000
-8.325700 0.000000
-8.313000 0.000000
-8.300300 0.000000
-8.287600 0.000000
-8.274900 0.000000
-8.262200 0.000000
-8.249500 0.000000
-8.236900 0.000000
-8.224200 0.000000
-8.211500 0.000000
-8.198800 0.000000
-8.186100 0.000000
-8.173400 0.000000
-8.160700 0.000000
-8.148000 0.000000
-8.135300 0.000000
-8.122600 0.000000
-8.110000 0.000000
-8.097300 0.000000
-8.084600 0.000000
-8.071900 0.000000
-8.059200 0.000000
-8.046500 0.000000
-8.033800 0.000000
-8.021100 0.000000
-8.008400 0.000000
-7.995700 0.000000
-7.983100 0.000000
-7.970400 0.000000
-7.957700 0.000000
-7.945000 0.000000
-7.932300 0.000000
-7.919600 0.000000
-7.906900 0.000000
-7.894200 0.000000
-7.881500 0.000000
-7.868800 0.000000
-7.856100 0.000000
-7.843500 0.000000
-7.830800 0.000000
-7.818100 0.000000
-7.805400 0.000000
-7.792700 0.000000
-7.780000 0.000000
-7.767300 0.000000
-7.754600 0.000000
-7.741900 0.000000
-7.729200 0.000000
-7.716600 0.000000
-7.703900 0.000000
-7.691200 0.000000
-7.678500 0.000000
-7.665800 0.000000
-7.653100 0.000000
-7.640400 0.000000
-7.627700 0.000000
-7.615000 0.000000
-7.602300 0.000000
-7.589700 0.000000
-7.577000 0.000000
-7.564300 0.000000
-7.551600 0.000000
-7.538900 0.000000
-7.526200 0.000000
-7.513500 0.000000
-7.500800 0.000000
-7.488100 0.000000
-7.475400 0.000000
-7.462800 0.000000
-7.450100 0.000000
-7.437400 0.000000
-7.424700 0.000000
-7.412000 0.000000
-7.399300 0.000000
-7.386600 0.000000
-7.373900 0.000000
-7.361200 0.000000
-7.348500 0.000000
-7.335800 0.000000
-7.323200 0.000000
-7.310500 0.000000
-7.297800 0.000000
-7.285100 0.000000
-7.272400 0.000000
-7.259700 0.000000
-7.247000 0.000000
-7.234300 0.000000
-7.221600 0.000000
-7.208900 0.000000
-7.196300 0.000000
-7.183600 0.000000
-7.170900 0.000000
-7.158200 0.000000
-7.145500 0.000000
-7.132800 0.000000
-7.120100 0.000000
-7.107400 0.000000
-7.094700 0.000000
-7.082000 0.000000
-7.069400 0.000000
-7.056700 0.000000
-7.044000 0.000000
-7.031300 0.000000
-7.018600 0.000000
-7.005900 0.000000
-6.993200 0.000000
-6.980500 0.000000
-6.967800 0.000000
-6.955100 0.000000
-6.942500 0.000000
-6.929800 0.000000
-6.917100 0.000000
-6.904400 0.000000
-6.891700 0.000000
-6.879000 0.000000
-6.866300 0.000000
-6.853600 0.000000
-6.840900 0.000000
-6.828200 0.000000
-6.815500 0.000000
-6.802900 0.000000
-6.790200 0.000000
-6.777500 0.000000
-6.764800 0.000000
-6.752100 0.000000
-6.739400 0.000000
-6.726700 0.000000
-6.714000 0.000000
-6.701300 0.000000
-6.688600 0.000000
-6.676000 0.000000
-6.663300 0.000000
-6.650600 0.000000
-6.637900 0.000000
-6.625200 0.000000
-6.612500 0.000000
-6.599800 0.000000
-6.587100 0.000000
-6.574400 0.000000
-6.561700 0.000000
-6.549100 0.000000
-6.536400 0.000000
-6.523700 0.000000
-6.511000 0.000000
-6.498300 148.371800
-6.485600 220.197200
-6.472900 400.130100
-6.460200 293.705000
-6.447500 152.093500
-6.434800 126.736400
-6.422200 120.284400
-6.409500 129.735400
-6.396800 459.590800
-6.384100 315.563200
-6.371400 233.610300
-6.358700 98.533900
-6.346000 160.492900
-6.333300 640.447100
-6.320600 1031.805000
-6.307900 247.873900
-6.295200 989.725600
-6.282600 80.577900
-6.269900 273.740100
-6.257200 126.235500
-6.244500 108.763700
-6.231800 91.291800
-6.219100 193.335200
-6.206400 0.000000
-6.193700 0.000000
-6.181000 0.000000
-6.168300 0.000000
-6.155700 0.000000
-6.143000 0.000000
-6.130300 0.000000
-6.117600 0.000000
-6.104900 0.000000
-6.092200 0.000000
-6.079500 0.000000
-6.066800 0.000000
-6.054100 0.000000
-6.041400 0.000000
-6.028800 0.000000
-6.016100 0.000000
-6.003400 0.000000
-5.990700 0.000000
-5.978000 0.000000
-5.965300 0.000000
-5.952600 0.000000
-5.939900 0.000000
-5.927200 0.000000
-5.914500 0.000000
-5.901900 0.000000
-5.889200 0.000000
-5.876500 0.000000
-5.863800 0.000000
-5.851100 0.000000
-5.838400 0.000000
-5.825700 0.000000
-5.813000 0.000000
-5.800300 0.000000
-5.787600 0.000000
-5.774900 0.000000
-5.762300 0.000000
-5.749600 0.000000
-5.736900 0.000000
-5.724200 0.000000
-5.711500 0.000000
-5.698800 0.000000
-5.686100 0.000000
-5.673400 0.000000
-5.660700 0.000000
-5.648000 0.000000
-5.635400 0.000000
-5.622700 0.000000
-5.610000 0.000000
-5.597300 0.000000
-5.584600 0.000000
-5.571900 0.000000
-5.559200 0.000000
-5.546500 0.000000
-5.533800 0.000000
-5.521100 0.000000
-5.508500 0.000000
-5.495800 0.000000
-5.483100 0.000000
-5.470400 0.000000
-5.457700 0.000000
-5.445000 0.000000
-5.432300 0.000000
-5.419600 0.000000
-5.406900 0.000000
-5.394200 0.000000
-5.381600 0.000000
-5.368900 0.000000
-5.356200 0.000000
-5.343500 0.000000
-5.330800 0.000000
-5.318100 0.000000
-5.305400 0.000000
-5.292700 0.000000
-5.280000 0.000000
-5.267300 0.000000
-5.254600 0.000000
-5.242000 0.000000
-5.229300 0.000000
-5.216600 0.000000
-5.203900 0.000000
-5.191200 0.000000
-5.178500 0.000000
-5.165800 0.000000
-5.153100 0.000000
-5.140400 0.000000
-5.127700 0.000000
-5.115100 0.000000
-5.102400 0.000000
-5.089700 0.000000
-5.077000 0.000000
-5.064300 0.000000
-5.051600 0.000000
-5.038900 0.000000
-5.026200 0.000000
-5.013500 0.000000
-5.000800 0.000000
-4.988200 0.000000
-4.975500 0.000000
-4.962800 0.000000
-4.950100 0.000000
-4.937400 0.000000
-4.924700 0.000000
-4.912000 0.000000
-4.899300 0.000000
-4.886600 0.000000
-4.873900 0.000000
-4.861300 0.000000
-4.848600 0.000000
-4.835900 0.000000
-4.823200 0.000000
-4.810500 0.000000
-4.797800 0.000000
-4.785100 0.000000
-4.772400 0.000000
-4.759700 0.000000
-4.747000 0.000000
-4.734300 0.000000
-4.721700 0.000000
-4.709000 0.000000
-4.696300 0.000000
-4.683600 0.000000
-4.670900 0.000000
-4.658200 0.000000
-4.645500 0.000000
-4.632800 0.000000
-4.620100 0.000000
-4.607400 0.000000
-4.594800 0.000000
-4.582100 0.000000
-4.569400 0.000000
-4.556700 0.000000
-4.544000 0.000000
-4.531300 0.000000
-4.518600 0.000000
-4.505900 0.000000
-4.493200 0.000000
-4.480500 0.000000
-4.467900 0.000000
-4.455200 0.000000
-4.442500 0.000000
-4.429800 0.000000
-4.417100 0.000000
-4.404400 0.000000
-4.391700 0.000000
-4.379000 0.000000
-4.366300 0.000000
-4.353600 0.000000
-4.341000 0.000000
-4.328300 0.000000
-4.315600 0.000000
-4.302900 0.000000
-4.290200 0.000000
-4.277500 0.000000
-4.264800 0.000000
-4.252100 0.000000
-4.239400 0.000000
-4.226700 0.000000
-4.214000 0.000000
-4.201400 0.000000
-4.188700 0.000000
-4.176000 0.000000
-4.163300 0.000000
-4.150600 0.000000
-4.137900 0.000000
-4.125200 0.000000
-4.112500 0.000000
-4.099800 0.000000
-4.087100 0.000000
-4.074500 0.000000
-4.061800 0.000000
-4.049100 0.000000
-4.036400 0.000000
-4.023700 0.000000
-4.011000 0.000000
-3.998300 0.000000
-3.985600 0.000000
-3.972900 0.000000
-3.960200 0.000000
-3.947600 0.000000
-3.934900 0.000000
-3.922200 0.000000
-3.909500 0.000000
-3.896800 0.000000
-3.884100 0.000000
-3.871400 0.000000
-3.858700 0.000000
-3.846000 0.000000
-3.833300 0.000000
-3.820700 0.000000
-3.808000 0.000000
-3.795300 0.000000
-3.782600 0.000000
-3.769900 0.000000
-3.757200 0.000000
-3.744500 0.000000
-3.731800 0.000000
-3.719100 0.000000
-3.706400 0.000000
-3.693700 0.000000
-3.681100 0.000000
-3.668400 0.000000
-3.655700 0.000000
-3.643000 0.000000
-3.630300 0.000000
-3.617600 0.000000
-3.604900 0.000000
-3.592200 0.000000
-3.579500 0.000000
-3.566800 0.000000
-3.554200 0.000000
-3.541500 0.000000
-3.528800 0.000000
-3.516100 0.000000
-3.503400 0.000000
-3.490700 0.000000
-3.478000 0.000000
-3.465300 0.000000
-3.452600 0.000000
-3.439900 0.000000
-3.427300 0.000000
-3.414600 0.000000
-3.401900 0.000000
-3.389200 0.000000
-3.376500 0.000000
-3.363800 0.000000
-3.351100 0.000000
-3.338400 0.000000
-3.325700 0.000000
-3.313000 0.000000
-3.300400 0.000000
-3.287700 0.000000
-3.275000 0.000000
-3.262300 0.000000
-3.249600 0.000000
-3.236900 0.000000
-3.224200 0.000000
-3.211500 0.000000
-3.198800 0.000000
-3.186100 0.000000
-3.173400 0.000000
-3.160800 0.000000
-3.148100 0.000000
-3.135400 0.000000
-3.122700 0.000000
-3.110000 0.000000
-3.097300 0.000000
-3.084600 0.000000
-3.071900 0.000000
-3.059200 0.000000
-3.046500 0.000000
-3.033900 0.000000
-3.021200 0.000000
-3.008500 0.000000
-2.995800 0.000000
-2.983100 0.000000
-2.970400 0.000000
-2.957700 0.000000
-2.945000 0.000000
-2.932300 0.000000
-2.919600 0.000000
-2.907000 0.000000
-2.894300 0.000000
-2.881600 0.000000
-2.868900 0.000000
-2.856200 0.000000
-2.843500 0.000000
-2.830800 0.000000
-2.818100 0.000000
-2.805400 0.000000
-2.792700 0.000000
-2.780100 0.000000
-2.767400 0.000000
-2.754700 0.000000
-2.742000 0.000000
-2.729300 0.000000
-2.716600 0.000000
-2.703900 0.000000
-2.691200 0.000000
-2.678500 0.000000
-2.665800 0.000000
-2.653100 0.000000
-2.640500 0.000000
-2.627800 0.000000
-2.615100 0.000000
-2.602400 0.000000
-2.589700 0.000000
-2.577000 28.616400
-2.564300 10.462900
-2.551600 59.123300
-2.538900 43.934100
-2.526200 48.236700
-2.513600 47.643500
-2.500900 54.231100
-2.488200 57.701300
-2.475500 52.653700
-2.462800 45.116900
-2.450100 41.382200
-2.437400 40.561500
-2.424700 37.127100
-2.412000 31.638300
-2.399300 31.024600
-2.386700 26.695000
-2.374000 26.287500
-2.361300 21.544200
-2.348600 21.446000
-2.335900 21.347800
-2.323200 21.249500
-2.310500 21.576900
-2.297800 22.438300
-2.285100 23.299800
-2.272400 24.161300
-2.259800 36.716400
-2.247100 40.864100
-2.234400 43.467900
-2.221700 54.459300
-2.209000 24.827100
-2.196300 15.022400
-2.183600 15.582300
-2.170900 16.212400
-2.158200 17.012700
-2.145500 23.112800
-2.132800 48.734200
-2.120200 6.853700
-2.107500 6.737200
-2.094800 6.620700
-2.082100 6.504200
-2.069400 6.387700
-2.056700 6.271200
-2.044000 6.154700
-2.031300 6.038200
-2.018600 12.443800
-2.005900 4.061800
-1.993300 1.665900
-1.980600 4.571200
-1.967900 3.393300
-1.955200 2.215400
-1.942500 1.037500
-1.929800 0.000000
-1.917100 0.000000
-1.904400 0.000000
-1.891700 0.000000
-1.879000 0.000000
-1.866400 0.000000
-1.853700 0.000000
-1.841000 0.000000
-1.828300 0.000000
-1.815600 0.000000
-1.802900 0.000000
-1.790200 0.000000
-1.777500 0.000000
-1.764800 0.000000
-1.752100 0.000000
-1.739500 0.000000
-1.726800 0.000000
-1.714100 0.000000
-1.701400 0.000000
-1.688700 0.000000
-1.676000 0.000000
-1.663300 0.000000
-1.650600 0.000000
-1.637900 5.588300
-1.625200 15.555600
-1.612500 12.080700
-1.599900 14.740200
-1.587200 15.778400
-1.574500 12.872600
-1.561800 16.745900
-1.549100 20.065800
-1.536400 22.056900
-1.523700 18.118100
-1.511000 17.390500
-1.498300 18.117200
-1.485600 18.844000
-1.473000 19.570800
-1.460300 20.297600
-1.447600 21.024400
-1.434900 21.751200
-1.422200 22.478000
-1.409500 23.204700
-1.396800 23.931500
-1.384100 24.658300
-1.371400 25.385100
-1.358700 23.121200
-1.346100 84.582300
-1.333400 18.397000
-1.320700 18.713300
-1.308000 19.029600
-1.295300 14.342400
-1.282600 14.452800
-1.269900 14.563200
-1.257200 27.999400
-1.244500 21.753600
-1.231800 19.958300
-1.219200 13.629400
-1.206500 12.122200
-1.193800 10.615000
-1.181100 8.553900
-1.168400 8.450100
-1.155700 8.346300
-1.143000 8.242500
-1.130300 8.138700
-1.117600 8.627600
-1.104900 9.755200
-1.092200 9.782400
-1.079600 10.423900
-1.066900 12.361800
-1.054200 13.132100
-1.041500 13.309800
-1.028800 13.487500
-1.016100 13.665300
-1.003400 13.842900
-0.990700 14.020500
-0.978000 14.198100
-0.965300 14.375800
-0.952700 14.553400
-0.940000 14.719300
-0.927300 14.882700
-0.914600 15.037700
-0.901900 15.190800
-0.889200 15.343900
-0.876500 15.497000
-0.863800 15.650100
-0.851100 15.803200
-0.838400 15.956300
-0.825800 16.109400
-0.813100 16.262400
-0.800400 16.415500
-0.787700 16.568600
-0.775000 16.721700
-0.762300 16.874800
-0.749600 17.545400
-0.736900 17.989800
-0.724200 18.434200
-0.711500 20.028000
-0.698900 21.600100
-0.686200 23.172200
-0.673500 26.087200
-0.660800 27.991600
-0.648100 30.058800
-0.635400 32.797000
-0.622700 33.824900
-0.610000 34.268300
-0.597300 37.526700
-0.584600 38.025500
-0.571900 40.853000
-0.559300 41.557100
-0.546600 39.917800
-0.533900 40.087400
-0.521200 40.231900
-0.508500 38.883200
-0.495800 37.331400
-0.483100 37.057800
-0.470400 36.780400
-0.457700 36.667400
-0.445000 36.656600
-0.432400 37.079500
-0.419700 37.771800
-0.407000 36.613500
-0.394300 37.106000
-0.381600 37.602100
-0.368900 38.211600
-0.356200 38.909000
-0.343500 39.839100
-0.330800 40.769300
-0.318100 40.903400
-0.305500 40.835200
-0.292800 41.429600
-0.280100 42.382700
-0.267400 38.372000
-0.254700 38.223900
-0.242000 38.075800
-0.229300 35.058500
-0.216600 34.572500
-0.203900 31.536300
-0.191200 29.416400
-0.178600 33.822700
-0.165900 27.972100
-0.153200 29.108200
-0.140500 28.090700
-0.127800 27.073200
-0.115100 26.055600
-0.102400 25.038100
-0.089700 24.020600
-0.077000 23.429500
-0.064300 22.421800
-0.051600 21.420300
-0.039000 20.418900
-0.026300 19.710700
-0.013600 19.152100
-0.000900 18.571800
0.011800 18.031800
0.024500 17.530900
0.037200 17.069500
0.049900 16.673200
0.062600 16.319300
0.075300 16.037500
0.087900 15.810700
0.100600 15.583800
0.113300 15.356900
0.126000 15.130100
0.138700 15.828500
0.151400 15.814700
0.164100 15.804800
0.176800 16.036500
0.189500 17.348000
0.202200 18.887700
0.214800 19.464400
0.227500 20.041200
0.240200 20.618000
0.252900 22.109800
0.265600 23.615400
0.278300 25.159600
0.291000 28.630700
0.303700 33.268800
0.316400 36.439800
0.329100 39.270800
0.341700 43.533000
0.354400 49.423800
0.367100 52.553400
0.379800 51.354500
0.392500 50.771500
0.405200 60.512800
0.417900 72.679400
0.430600 66.875000
0.443300 65.086900
0.456000 58.970100
0.468700 56.243300
0.481300 56.007600
0.494000 62.401800
0.506700 57.535400
0.519400 44.417300
0.532100 65.782600
0.544800 57.949000
0.557500 75.327400
0.570200 48.283000
0.582900 41.385300
0.595600 48.995900
0.608200 52.190200
0.620900 57.079300
0.633600 56.921400
0.646300 71.248000
0.659000 69.118600
0.671700 68.372800
0.684400 67.575600
0.697100 61.051800
0.709800 58.067900
0.722500 57.167700
0.735100 63.983500
0.747800 62.102400
0.760500 55.533400
0.773200 57.309900
0.785900 53.916000
0.798600 50.983600
0.811300 48.164700
0.824000 45.986300
0.836700 39.751300
0.849400 34.722300
0.862000 30.975100
0.874700 27.836400
0.887400 24.697600
0.900100 27.939200
0.912800 37.951700
0.925500 22.031200
0.938200 13.212600
0.950900 9.535000
0.963600 41.197100
0.976300 0.000000
0.989000 0.000000
1.001600 0.000000
1.014300 0.000000
1.027000 0.000000
1.039700 0.000000
1.052400 0.000000
1.065100 0.000000
1.077800 0.000000
1.090500 0.000000
1.103200 0.000000
1.115900 0.000000
1.128500 0.000000
1.141200 0.000000
1.153900 0.000000
1.166600 0.000000
1.179300 0.000000
1.192000 0.000000
1.204700 0.000000
1.217400 0.000000
1.230100 0.000000
1.242800 0.000000
1.255400 0.000000
1.268100 0.000000
1.280800 0.000000
1.293500 0.000000
1.306200 0.000000
1.318900 0.000000
1.331600 0.000000
1.344300 0.000000
1.357000 0.000000
1.369700 0.000000
1.382300 0.000000
1.395000 0.000000
1.407700 0.000000
1.420400 0.000000
1.433100 0.000000
1.445800 0.000000
1.458500 0.000000
1.471200 0.000000
1.483900 0.000000
1.496600 0.000000
1.509300 0.000000
1.521900 0.000000
1.534600 0.000000
1.547300 0.000000
1.560000 0.000000
1.572700 0.000000
1.585400 0.000000
1.598100 0.000000
1.610800 0.000000
1.623500 0.000000
1.636200 0.000000
1.648800 0.000000
1.661500 0.000000
1.674200 0.000000
1.686900 0.000000
1.699600 0.000000
1.712300 0.000000
1.725000 0.000000
1.737700 0.000000
1.750400 0.000000
1.763100 0.000000
1.775700 0.000000
1.788400 0.000000
1.801100 0.000000
1.813800 0.000000
1.826500 0.000000
1.839200 0.000000
1.851900 0.000000
1.864600 0.000000
1.877300 0.000000
1.890000 0.000000
1.902600 0.000000
1.915300 0.000000
1.928000 0.000000
1.940700 0.000000
1.953400 0.000000
1.966100 0.000000
1.978800 0.000000
1.991500 0.000000
2.004200 0.000000
2.016900 0.000000
2.029600 0.000000
2.042200 0.000000
2.054900 0.000000
2.067600 0.000000
2.080300 0.000000
2.093000 0.000000
2.105700 0.000000
2.118400 0.000000
2.131100 0.000000
2.143800 0.000000
2.156500 0.000000
2.169100 0.000000
2.181800 0.000000
2.194500 0.000000
2.207200 0.000000
2.219900 0.000000
2.232600 0.000000
2.245300 0.000000
2.258000 0.000000
2.270700 0.000000
2.283400 0.000000
2.296000 0.000000
2.308700 0.000000
2.321400 0.000000
2.334100 0.000000
2.346800 0.000000
2.359500 0.000000
2.372200 0.000000
2.384900 0.000000
2.397600 0.000000
2.410300 0.000000
2.422900 0.000000
2.435600 0.000000
2.448300 0.000000
2.461000 0.000000
2.473700 0.000000
2.486400 0.000000
2.499100 0.000000
2.511800 0.000000
2.524500 0.000000
2.537200 0.000000
2.549900 0.000000
2.562500 0.000000
2.575200 0.000000
2.587900 0.000000
2.600600 0.000000
2.613300 0.000000
2.626000 0.000000
2.638700 0.000000
2.651400 0.000000
2.664100 0.000000
2.676800 0.000000
2.689400 0.000000
2.702100 0.000000
2.714800 0.000000
2.727500 0.000000
2.740200 0.000000
2.752900 0.000000
2.765600 0.000000
2.778300 0.000000
2.791000 0.000000
2.803700 0.000000
2.816300 0.000000
2.829000 0.000000
2.841700 0.000000
2.854400 0.000000
2.867100 0.000000
2.879800 0.000000
2.892500 0.000000
2.905200 0.000000
2.917900 0.000000
2.930600 0.000000
2.943200 0.000000
2.955900 0.000000
2.968600 0.000000
2.981300 0.000000
2.994000 0.000000
3.006700 0.000000
3.019400 0.000000
3.032100 0.000000
3.044800 0.000000
3.057500 0.000000
3.070200 0.000000
3.082800 0.000000
3.095500 0.000000
3.108200 0.000000
3.120900 0.000000
3.133600 0.000000
3.146300 0.000000
3.159000 0.000000
3.171700 0.000000
3.184400 0.000000
3.197100 0.000000
3.209700 0.000000
3.222400 0.000000
3.235100 0.000000
3.247800 0.000000
3.260500 0.000000
3.273200 0.000000
3.285900 0.000000
3.298600 0.000000
3.311300 0.000000
3.324000 0.000000
3.336600 0.000000
3.349300 0.000000
3.362000 0.000000
3.374700 0.000000
3.387400 0.000000
3.400100 0.879500
3.412800 0.921900
3.425500 0.964400
3.438200 1.936000
3.450900 2.960600
3.463500 3.070000
3.476200 3.179400
3.488900 3.288800
3.501600 3.398300
3.514300 4.542700
3.527000 5.747600
3.539700 5.945800
3.552400 6.144100
3.565100 6.342300
3.577800 7.669600
3.590500 9.055800
3.603100 10.486900
3.615800 10.765800
3.628500 11.044600
3.641200 11.323500
3.653900 11.602300
3.666600 11.881100
3.679300 12.160000
3.692000 12.491300
3.704700 12.853200
3.717400 13.312500
3.730000 13.778200
3.742700 14.243800
3.755400 14.757300
3.768100 15.387900
3.780800 16.019600
3.793500 16.661200
3.806200 17.457400
3.818900 18.373500
3.831600 19.345800
3.844300 20.318000
3.856900 21.290200
3.869600 22.262500
3.882300 26.014800
3.895000 26.841400
3.907700 33.765600
3.920400 34.004900
3.933100 33.731300
3.945800 33.457800
3.958500 33.184200
3.971200 42.774900
3.983800 40.009600
3.996500 35.737800
4.009200 31.200800
4.021900 28.160700
4.034600 40.492400
4.047300 43.415900
4.060000 28.703400
4.072700 23.438000
4.085400 22.810700
4.098100 22.186300
4.110800 21.562000
4.123400 20.937700
4.136100 20.313300
4.148800 19.689000
4.161500 19.064700
4.174200 20.918200
4.186900 18.777500
4.199600 16.685800
4.212300 14.708700
4.225000 12.731700
4.237700 10.880000
4.250300 9.592400
4.263000 9.217400
4.275700 16.793100
4.288400 3.500400
4.301100 4.314000
4.313800 5.127700
4.326500 5.941300
4.339200 0.000000
4.351900 0.000000
4.364600 0.000000
4.377200 0.000000
4.389900 0.000000
4.402600 0.000000
4.415300 0.000000
4.428000 0.000000
4.440700 0.000000
4.453400 0.000000
4.466100 0.000000
4.478800 0.000000
4.491500 0.000000
4.504100 0.000000
4.516800 0.000000
4.529500 0.000000
4.542200 0.000000
4.554900 0.000000
4.567600 0.000000
4.580300 0.000000
4.593000 0.000000
4.605700 0.000000
4.618400 0.000000
4.631100 0.000000
4.643700 0.000000
4.656400 0.000000
4.669100 0.000000
4.681800 0.000000
4.694500 0.000000
4.707200 0.000000
4.719900 0.000000
4.732600 0.000000
4.745300 0.000000
4.758000 0.000000
4.770600 0.000000
4.783300 0.000000
4.796000 0.000000
4.808700 0.000000
4.821400 0.000000
4.834100 0.000000
4.846800 0.000000
4.859500 0.000000
4.872200 0.000000
4.884900 0.000000
4.897500 0.000000
4.910200 0.000000
4.922900 0.000000
4.935600 0.000000
4.948300 0.000000
4.961000 0.000000
4.973700 0.000000
4.986400 0.000000
4.999100 0.000000
5.011800 0.000000
5.024400 0.000000
5.037100 0.000000
5.049800 0.000000
5.062500 0.000000
5.075200 0.000000
5.087900 0.000000
5.100600 0.000000
5.113300 0.000000
5.126000 0.000000
5.138700 0.000000
5.151400 0.000000
5.164000 0.000000
5.176700 0.000000
5.189400 0.000000
5.202100 0.000000
5.214800 0.000000
5.227500 0.000000
5.240200 0.000000
5.252900 0.000000
5.265600 0.000000
5.278300 0.000000
5.290900 0.000000
5.303600 0.000000
5.316300 0.000000
5.329000 0.000000
5.341700 0.000000
5.354400 0.000000
5.367100 0.000000
5.379800 0.000000
5.392500 0.000000
5.405200 0.000000
5.417800 0.000000
5.430500 0.000000
5.443200 0.000000
5.455900 0.000000
5.468600 0.000000
5.481300 0.000000
5.494000 0.015800
5.506700 0.087200
5.519400 0.160000
5.532100 0.232800
5.544700 0.305700
5.557400 0.378500
5.570100 0.451300
5.582800 0.524100
5.595500 0.596900
5.608200 0.669700
5.620900 0.742500
5.633600 0.815300
5.646300 0.888100
5.659000 0.960900
5.671700 1.033700
5.684300 1.106500
5.697000 1.179300
5.709700 1.252100
5.722400 1.324900
5.735100 1.397700
5.747800 1.470500
5.760500 1.543400
5.773200 1.616200
5.785900 1.689000
5.798600 1.761800
5.811200 1.834600
5.823900 1.907400
5.836600 1.980200
5.849300 2.053000
5.862000 2.125800
5.874700 2.198600
5.887400 2.271400
5.900100 2.344200
5.912800 2.417000
5.925500 2.489800
5.938100 2.562600
5.950800 2.635400
5.963500 4.332700
5.976200 4.560800
5.988900 4.788800
6.001600 5.855700
6.014300 7.448600
6.027000 8.599000
6.039700 10.081500
6.052400 11.011400
6.065000 10.967600
6.077700 10.923800
6.090400 11.139900
6.103100 11.836200
6.115800 12.746100
6.128500 13.173800
6.141200 13.589100
6.153900 14.004500
6.166600 14.419900
6.179300 14.835200
6.192000 15.250600
6.204600 15.665900
6.217300 16.383000
6.230000 16.927100
6.242700 17.012300
6.255400 17.097400
6.268100 17.182600
6.280800 17.829200
6.293500 17.963700
6.306200 18.098100
6.318900 18.232600
6.331500 18.367000
6.344200 18.501500
6.356900 18.635900
6.369600 18.770300
6.382300 18.904800
6.395000 19.039200
6.407700 19.138700
6.420400 19.061100
6.433100 24.327200
6.445800 23.802300
6.458400 23.277400
6.471100 34.342900
6.483800 30.727700
6.496500 27.312100
6.509200 24.103100
6.521900 21.812400
6.534600 21.235200
6.547300 20.658100
6.560000 20.080900
6.572700 19.503800
6.585300 51.531000
6.598000 16.427800
6.610700 15.989600
6.623400 15.551500
6.636100 15.113400
6.648800 14.675200
6.661500 14.237100
6.674200 12.408200
6.686900 11.108200
6.699600 11.384100
6.712300 11.674700
6.724900 11.963600
6.737600 14.643600
6.750300 14.856100
6.763000 20.056100
6.775700 16.567900
6.788400 15.935800
6.801100 15.303700
6.813800 14.671600
6.826500 14.039500
6.839200 13.407400
6.851800 12.786500
6.864500 12.367100
6.877200 17.621700
6.889900 16.130800
6.902600 14.962200
6.915300 14.619100
6.928000 14.275900
6.940700 14.032300
6.953400 13.470300
6.966100 12.908400
6.978700 12.416200
6.991400 12.248000
7.004100 12.079900
7.016800 11.206900
7.029500 15.376200
7.042200 18.661900
7.054900 17.842200
7.067600 17.022500
7.080300 20.086200
7.093000 21.176700
7.105600 22.272300
7.118300 24.205300
7.131000 30.451900
7.143700 33.078700
7.156400 39.351600
7.169100 39.130500
7.181800 38.909400
7.194500 42.034400
7.207200 31.498300
7.219900 30.877300
7.232600 29.230800
7.245200 27.047200
7.257900 35.565600
7.270600 30.283000
7.283300 35.098200
7.296000 30.267800
7.308700 31.793900
7.321400 33.445200
7.334100 28.093000
7.346800 43.384000
7.359500 23.911300
7.372100 27.264700
7.384800 26.706100
7.397500 27.106900
7.410200 25.819100
7.422900 28.495100
7.435600 31.535100
7.448300 35.188200
7.461000 28.371100
7.473700 30.138300
7.486400 28.744500
7.499000 27.929000
7.511700 26.464300
7.524400 28.187800
7.537100 37.484100
7.549800 27.031100
7.562500 24.085300
7.575200 23.237100
7.587900 22.934200
7.600600 23.692500
7.613300 25.755800
7.625900 28.182600
7.638600 31.785100
7.651300 37.408300
7.664000 43.293700
7.676700 41.152100
7.689400 37.911300
7.702100 39.870900
7.714800 48.041800
7.727500 40.473200
7.740200 55.881100
7.752900 42.862600
7.765500 42.193000
7.778200 49.131000
7.790900 39.546700
7.803600 37.584000
7.816300 33.151600
7.829000 35.458300
7.841700 30.887900
7.854400 28.944300
7.867100 35.359000
7.879800 34.724200
7.892400 33.925900
7.905100 36.500800
7.917800 37.824400
7.930500 31.950000
7.943200 30.371300
7.955900 28.586300
7.968600 26.010900
7.981300 25.006000
7.994000 22.147600
8.006700 27.766100
8.019300 27.714500
8.032000 27.662900
8.044700 27.578800
8.057400 27.294700
8.070100 27.010600
8.082800 29.756500
8.095500 29.432700
8.108200 29.092200
8.120900 28.742300
8.133600 31.760600
8.146200 31.389100
8.158900 30.705100
8.171600 30.050100
8.184300 29.395100
8.197000 28.740100
8.209700 30.429100
8.222400 29.788800
8.235100 28.437000
8.247800 30.449300
8.260500 27.296700
8.273200 30.642700
8.285800 27.885700
8.298500 26.393300
8.311200 26.843800
8.323900 30.054300
8.336600 45.838700
8.349300 18.777600
8.362000 15.954700
8.374700 13.368300
8.387400 13.092800
8.400100 12.817300
8.412700 12.541800
8.425400 12.266300
8.438100 11.990800
8.450800 11.715400
8.463500 11.439900
8.476200 11.164400
8.488900 10.888900
8.501600 10.613400
8.514300 10.337900
8.527000 10.062400
8.539600 9.786900
8.552300 9.511400
8.565000 9.235900
8.577700 8.719700
8.590400 8.252700
8.603100 7.801700
8.615800 10.026200
8.628500 11.568500
8.641200 10.192300
8.653900 8.816800
8.666500 7.135500
8.679200 5.856000
8.691900 5.123700
8.704600 5.268600
8.717300 8.298500
8.730000 12.312000
8.742700 16.325500
8.755400 10.470600
8.768100 12.235300
8.780800 14.000000
8.793500 7.042500
8.806100 7.724200
8.818800 8.354500
8.831500 8.978600
8.844200 9.363400
8.856900 9.676100
8.869600 9.988800
8.882300 10.268700
8.895000 10.743400
8.907700 10.930800
8.920400 11.452500
8.933000 11.168000
8.945700 11.565500
8.958400 12.484100
8.971100 13.539800
8.983800 25.273500
8.996500 15.231000
9.009200 16.228500
9.021900 17.225900
9.034600 18.174000
9.047300 29.612200
9.059900 21.780800
9.072600 22.567800
9.085300 22.545500
9.098000 21.214100
9.110700 20.245600
9.123400 20.175600
9.136100 20.903400
9.148800 24.270400
9.161500 24.204200
9.174200 25.512800
9.186800 26.005400
9.199500 27.263800
9.212200 37.853100
9.224900 28.496500
9.237600 27.279400
9.250300 25.284100
9.263000 22.972900
9.275700 36.328500
9.288400 19.622000
9.301100 19.378800
9.313800 18.220000
9.326400 19.078000
9.339100 19.642400
9.351800 19.256200
9.364500 23.605200
9.377200 23.533400
9.389900 29.001600
9.402600 35.511700
9.415300 31.730500
9.428000 32.971900
9.440700 30.425800
9.453300 33.751600
9.466000 33.326000
9.478700 35.158900
9.491400 30.603700
9.504100 25.143000
9.516800 24.467500
9.529500 24.295800
9.542200 23.876200
9.554900 23.516600
9.567600 23.157000
9.580200 22.797300
9.592900 25.633500
9.605600 24.895500
9.618300 23.953400
9.631000 31.599700
9.643700 45.164000
9.656400 28.814800
9.669100 28.615700
9.681800 29.488500
9.694500 28.811800
9.707100 24.954700
9.719800 24.022500
9.732500 24.330500
9.745200 24.084500
9.757900 23.873300
9.770600 22.084200
9.783300 20.601600
9.796000 21.107900
9.808700 21.640900
9.821400 22.728700
9.834100 24.296000
9.846700 25.872700
9.859400 26.093200
9.872100 27.803900
9.884800 29.676900
9.897500 24.982600
9.910200 24.983400
9.922900 26.156100
9.935600 22.469500
9.948300 24.805000
9.961000 25.117800
9.973600 27.062800
9.986300 26.960400
9.999000 29.844700
10.011700 26.726600
10.024400 22.375800
10.037100 17.883000
10.049800 18.289400
10.062500 19.141700
10.075200 20.073200
10.087900 21.676500
10.100500 28.179500
10.113200 25.889100
10.125900 25.936600
10.138600 19.632200
10.151300 20.266200
10.164000 17.094400
10.176700 20.556600
10.189400 27.064700
10.202100 19.852700
10.214800 19.484600
10.227500 20.131000
10.240100 19.762200
10.252800 19.393400
10.265500 19.317200
10.278200 19.341100
10.290900 18.712400
10.303600 18.695300
10.316300 18.678200
10.329000 19.458700
10.341700 20.159900
10.354400 20.498300
10.367000 21.180500
10.379700 21.638400
10.392400 22.096200
10.405100 22.554000
10.417800 20.311100
10.430500 20.619800
10.443200 20.936500
10.455900 21.253200
10.468600 17.130500
10.481300 17.021500
10.493900 16.920200
10.506600 17.225400
10.519300 17.196100
10.532000 17.166800
10.544700 17.137500
10.557400 17.108200
10.570100 17.097800
10.582800 17.096600
10.595500 17.098000
10.608200 17.119700
10.620800 17.476800
10.633500 17.594800
10.646200 17.713200
10.658900 17.857400
10.671600 17.954100
10.684300 19.097500
10.697000 19.196600
10.709700 18.427600
10.722400 18.533900
10.735100 18.648700
10.747800 17.798800
10.760400 17.921400
10.773100 18.051300
10.785800 18.224000
10.798500 18.410900
10.811200 17.216400
10.823900 17.078800
10.836600 17.050300
10.849300 17.032400
10.862000 14.619100
10.874700 14.604700
10.887300 14.594900
10.900000 14.573500
10.912700 14.506300
10.925400 14.439100
10.938100 14.344500
10.950800 15.801500
10.963500 15.768800
10.976200 15.736200
10.988900 15.703500
11.001600 16.055900
11.014200 16.049800
11.026900 16.065900
11.039600 18.052000
11.052300 19.754800
11.065000 20.009300
11.077700 20.133200
11.090400 20.136400
11.103100 20.141400
11.115800 20.148700
11.128500 20.156000
11.141100 20.163300
11.153800 19.896500
11.166500 19.314300
11.179200 18.681800
11.191900 18.054800
11.204600 17.439900
11.217300 16.932900
11.230000 16.928700
11.242700 16.424700
11.255400 16.021900
11.268100 16.434500
11.280700 16.112100
11.293400 16.689900
11.306100 16.327200
11.318800 15.971800
11.331500 15.616300
11.344200 15.391900
11.356900 15.104100
11.369600 14.852800
11.382300 15.186800
11.395000 14.925000
11.407600 14.663200
11.420300 14.401400
11.433000 14.139600
11.445700 14.660000
11.458400 14.047500
11.471100 13.804500
11.483800 13.561400
11.496500 12.927300
11.509200 12.794200
11.521900 14.098500
11.534500 14.452200
11.547200 14.204500
11.559900 13.956800
11.572600 13.709100
11.585300 13.461400
11.598000 13.233400
11.610700 13.045200
11.623400 12.857100
11.636100 11.996600
11.648800 10.116100
11.661400 9.928200
11.674100 9.740400
11.686800 9.552500
11.699500 9.364600
11.712200 9.176800
11.724900 8.988900
11.737600 8.801000
11.750300 8.613200
11.763000 19.293500
11.775700 10.320700
11.788400 10.144800
11.801000 10.042900
11.813700 9.941000
11.826400 9.839200
11.839100 9.737300
11.851800 10.933200
11.864500 11.757700
11.877200 12.582200
11.889900 12.558600
11.902600 13.750800
11.915300 13.065800
11.927900 10.104600
11.940600 10.743500
11.953300 9.152900
11.966000 5.942400
11.978700 5.972300
11.991400 6.075900
12.004100 6.179600
12.016800 6.283200
12.029500 6.386900
12.042200 6.507500
12.054800 4.436500
12.067500 4.482000
12.080200 4.527500
12.092900 4.573000
12.105600 4.618500
12.118300 4.663900
12.131000 3.053700
12.143700 3.040000
12.156400 3.026400
12.169100 3.012800
12.181700 2.999100
12.194400 2.985500
12.207100 1.505900
12.219800 1.479200
12.232500 1.452400
12.245200 1.425700
12.257900 4.413000
12.270600 12.442500
12.283300 0.000000
12.296000 0.000000
12.308700 0.000000
12.321300 0.000000
12.334000 0.000000
12.346700 0.000000
12.359400 0.000000
12.372100 0.000000
12.384800 0.000000
12.397500 0.000000
12.410200 0.000000
12.422900 0.000000
12.435600 0.000000
12.448200 0.000000
12.460900 0.000000
12.473600 0.000000
12.486300 0.000000
12.499000 0.000000
12.511700 0.000000
12.524400 0.000000
12.537100 0.000000
12.549800 0.000000
12.562500 0.000000
12.575100 0.000000
12.587800 0.000000
12.600500 0.000000
12.613200 0.000000
12.625900 0.000000
12.638600 0.000000
12.651300 0.000000
12.664000 0.000000
12.676700 0.000000
12.689400 0.000000
12.702000 0.000000
12.714700 0.000000
12.727400 0.000000
12.740100 0.000000
12.752800 0.000000
12.765500 0.000000
12.778200 0.000000
12.790900 0.000000
12.803600 0.000000
12.816300 0.000000
12.829000 0.000000
12.841600 0.000000
12.854300 0.000000
12.867000 0.000000
12.879700 0.000000
12.892400 0.000000
12.905100 0.000000
12.917800 0.000000
12.930500 0.000000
12.943200 0.000000
12.955900 0.000000
12.968500 0.000000
12.981200 0.000000
12.993900 0.000000
13.006600 0.000000
13.019300 0.000000
13.032000 0.000000
13.044700 0.000000
13.057400 0.000000
13.070100 0.000000
13.082800 0.000000
13.095400 0.000000
13.108100 0.000000
13.120800 0.000000
13.133500 0.000000
13.146200 0.000000
13.158900 0.000000
13.171600 0.000000
13.184300 0.000000
13.197000 0.000000
13.209700 0.000000
13.222300 0.000000
13.235000 0.000000
13.247700 0.000000
13.260400 0.000000
13.273100 0.000000
13.285800 0.000000
13.298500 0.000000
13.311200 0.000000
13.323900 0.000000
13.336600 0.000000
13.349300 0.000000
13.361900 0.000000
13.374600 0.000000
13.387300 0.000000
13.400000 0.000000
13.412700 0.000000
13.425400 0.000000
e
