set title 'mp-1017552 - Density of States'
set xlabel 'Energy (eV)'
set ylabel 'DOS (states/eV)'
set grid
set xrange [-10:10]
set yrange [0:9.125]
set xzeroaxis lt -1
set terminal png size 800,600
set output 'mp-1017552_dos_gnuplot.png'
plot '-' using 1:2 with lines title 'DOS'
-14.707500 0.000000
-14.689600 0.000000
-14.671800 0.000000
-14.653900 0.000000
-14.636000 0.000000
-14.618200 0.000000
-14.600300 0.000000
-14.582500 0.000000
-14.564600 0.000000
-14.546700 0.000000
-14.528900 0.000000
-14.511000 0.000000
-14.493200 0.000000
-14.475300 0.000000
-14.457400 0.000000
-14.439600 0.000000
-14.421700 0.000000
-14.403900 0.000000
-14.386000 0.000000
-14.368100 0.000000
-14.350300 0.000000
-14.332400 0.000000
-14.314600 0.000000
-14.296700 0.000000
-14.278800 0.000000
-14.261000 0.000000
-14.243100 0.000000
-14.225300 0.000000
-14.207400 0.000000
-14.189500 0.000000
-14.171700 0.000000
-14.153800 0.000000
-14.136000 0.000000
-14.118100 0.000000
-14.100200 0.000000
-14.082400 0.000000
-14.064500 0.000000
-14.046700 0.000000
-14.028800 0.000000
-14.010900 0.000000
-13.993100 0.000000
-13.975200 0.000000
-13.957400 0.000000
-13.939500 0.000000
-13.921600 0.000000
-13.903800 0.000000
-13.885900 0.000000
-13.868100 0.000000
-13.850200 0.000000
-13.832300 0.000000
-13.814500 0.000000
-13.796600 0.000000
-13.778800 0.000000
-13.760900 0.000000
-13.743000 0.000000
-13.725200 0.000000
-13.707300 0.000000
-13.689500 0.000000
-13.671600 0.000000
-13.653700 0.000000
-13.635900 0.000000
-13.618000 0.000000
-13.600200 0.000000
-13.582300 0.000000
-13.564400 0.000000
-13.546600 0.000000
-13.528700 0.000000
-13.510900 0.000000
-13.493000 0.000000
-13.475200 0.000000
-13.457300 0.000000
-13.439400 0.000000
-13.421600 0.000000
-13.403700 0.000000
-13.385900 0.000000
-13.368000 0.000000
-13.350100 0.000000
-13.332300 0.000000
-13.314400 0.000000
-13.296600 0.000000
-13.278700 0.000000
-13.260800 0.000000
-13.243000 0.000000
-13.225100 0.000000
-13.207300 0.000000
-13.189400 0.000000
-13.171500 0.000000
-13.153700 0.000000
-13.135800 0.000000
-13.118000 0.000000
-13.100100 0.000000
-13.082200 0.001500
-13.064400 0.197300
-13.046500 0.336400
-13.028700 0.454300
-13.010800 0.561700
-12.992900 0.674300
-12.975100 0.765300
-12.957200 0.875700
-12.939400 1.101700
-12.921500 1.145600
-12.903600 1.172100
-12.885800 1.186200
-12.867900 1.177500
-12.850100 1.171600
-12.832200 1.192200
-12.814300 1.211400
-12.796500 1.228200
-12.778600 1.230800
-12.760800 1.237700
-12.742900 1.245600
-12.725000 1.259900
-12.707200 1.274500
-12.689300 1.287300
-12.671500 1.298300
-12.653600 1.306500
-12.635700 1.324100
-12.617900 1.341000
-12.600000 1.355400
-12.582200 1.370400
-12.564300 1.386600
-12.546400 1.403000
-12.528600 1.418300
-12.510700 1.434700
-12.492900 1.453600
-12.475000 1.475300
-12.457100 1.497500
-12.439300 1.520100
-12.421400 1.543800
-12.403600 1.569100
-12.385700 1.595500
-12.367800 1.624800
-12.350000 1.656300
-12.332100 1.688800
-12.314300 1.722600
-12.296400 1.758000
-12.278500 1.794900
-12.260700 1.838300
-12.242800 1.890100
-12.225000 1.950700
-12.207100 2.023400
-12.189300 2.104500
-12.171400 2.200100
-12.153500 2.308300
-12.135700 2.431300
-12.117800 2.590700
-12.100000 2.803200
-12.082100 3.092300
-12.064200 5.067400
-12.046400 3.347700
-12.028500 2.858600
-12.010700 2.371800
-11.992800 1.991100
-11.974900 1.960200
-11.957100 1.954600
-11.939200 1.522800
-11.921400 1.478400
-11.903500 1.390600
-11.885600 1.231600
-11.867800 1.072600
-11.849900 0.913600
-11.832100 0.813000
-11.814200 0.804900
-11.796300 0.796700
-11.778500 0.772800
-11.760600 0.000000
-11.742800 0.000000
-11.724900 0.000000
-11.707000 0.000000
-11.689200 0.050200
-11.671300 0.269000
-11.653500 0.426800
-11.635600 7.585400
-11.617700 1.740800
-11.599900 1.931200
-11.582000 2.303700
-11.564200 2.889000
-11.546300 3.503400
-11.528400 4.273300
-11.510600 5.815300
-11.492700 8.061200
-11.474900 11.933400
-11.457000 11.897300
-11.439100 12.665600
-11.421300 8.712700
-11.403400 7.231300
-11.385600 6.318900
-11.367700 5.709900
-11.349800 5.456300
-11.332000 5.476000
-11.314100 0.426300
-11.296300 0.000000
-11.278400 0.000000
-11.260500 0.000000
-11.242700 0.000000
-11.224800 0.000000
-11.207000 0.000000
-11.189100 0.000000
-11.171200 0.000000
-11.153400 0.000000
-11.135500 0.000000
-11.117700 0.000000
-11.099800 0.000000
-11.081900 0.000000
-11.064100 0.000000
-11.046200 0.000000
-11.028400 0.000000
-11.010500 0.000000
-10.992600 0.000000
-10.974800 0.000000
-10.956900 0.000000
-10.939100 0.000000
-10.921200 0.000000
-10.903400 0.000000
-10.885500 0.000000
-10.867600 0.000000
-10.849800 0.000000
-10.831900 0.000000
-10.814100 0.000000
-10.796200 0.000000
-10.778300 0.000000
-10.760500 0.000000
-10.742600 0.000000
-10.724800 0.000000
-10.706900 0.000000
-10.689000 0.000000
-10.671200 0.000000
-10.653300 0.000000
-10.635500 0.000000
-10.617600 0.440900
-10.599700 0.923400
-10.581900 1.302800
-10.564000 1.846500
-10.546200 2.561300
-10.528300 3.563100
-10.510400 5.383700
-10.492600 9.146700
-10.474700 15.423400
-10.456900 13.010600
-10.439000 16.443500
-10.421100 17.884400
-10.403300 23.589900
-10.385400 0.000000
-10.367600 0.000000
-10.349700 0.000000
-10.331800 0.000000
-10.314000 0.000000
-10.296100 0.000000
-10.278300 0.000000
-10.260400 0.000000
-10.242500 0.000000
-10.224700 0.000000
-10.206800 0.000000
-10.189000 0.000000
-10.171100 0.000000
-10.153200 0.000000
-10.135400 0.000000
-10.117500 0.000000
-10.099700 0.000000
-10.081800 0.000000
-10.063900 0.000000
-10.046100 0.000000
-10.028200 0.000000
-10.010400 0.000000
-9.992500 0.000000
-9.974600 0.000000
-9.956800 0.000000
-9.938900 0.000000
-9.921100 0.000000
-9.903200 0.000000
-9.885300 0.000000
-9.867500 0.000000
-9.849600 0.000000
-9.831800 0.000000
-9.813900 0.000000
-9.796000 0.000000
-9.778200 0.000000
-9.760300 0.000000
-9.742500 0.000000
-9.724600 0.000000
-9.706800 0.000000
-9.688900 0.000000
-9.671000 0.000000
-9.653200 0.000000
-9.635300 0.000000
-9.617500 0.000000
-9.599600 0.000000
-9.581700 0.000000
-9.563900 0.000000
-9.546000 0.000000
-9.528200 0.000000
-9.510300 0.000000
-9.492400 0.000000
-9.474600 0.000000
-9.456700 0.000000
-9.438900 0.000000
-9.421000 0.000000
-9.403100 0.000000
-9.385300 0.000000
-9.367400 0.000000
-9.349600 0.000000
-9.331700 0.000000
-9.313800 0.000000
-9.296000 0.000000
-9.278100 0.000000
-9.260300 0.000000
-9.242400 0.000000
-9.224500 0.000000
-9.206700 0.000000
-9.188800 0.000000
-9.171000 0.000000
-9.153100 0.000000
-9.135200 0.000000
-9.117400 0.000000
-9.099500 0.000000
-9.081700 0.000000
-9.063800 0.000000
-9.045900 0.000000
-9.028100 0.000000
-9.010200 0.000000
-8.992400 0.000000
-8.974500 0.000000
-8.956600 0.000000
-8.938800 0.000000
-8.920900 0.000000
-8.903100 0.000000
-8.885200 0.000000
-8.867300 0.000000
-8.849500 0.000000
-8.831600 0.000000
-8.813800 0.000000
-8.795900 0.000000
-8.778000 0.000000
-8.760200 0.000000
-8.742300 0.000000
-8.724500 0.000000
-8.706600 0.000000
-8.688700 0.000000
-8.670900 0.000000
-8.653000 0.000000
-8.635200 0.000000
-8.617300 0.000000
-8.599400 0.000000
-8.581600 0.000000
-8.563700 0.000000
-8.545900 0.000000
-8.528000 0.000000
-8.510100 0.000000
-8.492300 0.000000
-8.474400 0.000000
-8.456600 0.000000
-8.438700 0.000000
-8.420900 0.000000
-8.403000 0.000000
-8.385100 0.000000
-8.367300 0.000000
-8.349400 0.000000
-8.331600 0.000000
-8.313700 0.000000
-8.295800 0.000000
-8.278000 0.000000
-8.260100 0.000000
-8.242300 0.000000
-8.224400 0.000000
-8.206500 0.000000
-8.188700 0.000000
-8.170800 0.000000
-8.153000 0.000000
-8.135100 0.000000
-8.117200 0.000000
-8.099400 0.000000
-8.081500 0.000000
-8.063700 0.000000
-8.045800 0.000000
-8.027900 0.000000
-8.010100 0.000000
-7.992200 0.000000
-7.974400 0.000000
-7.956500 0.000000
-7.938600 0.000000
-7.920800 0.000000
-7.902900 0.000000
-7.885100 0.000000
-7.867200 0.000000
-7.849300 0.000000
-7.831500 0.000000
-7.813600 0.000000
-7.795800 0.000000
-7.777900 0.000000
-7.760000 0.000000
-7.742200 0.000000
-7.724300 0.000000
-7.706500 0.000000
-7.688600 0.000000
-7.670700 0.000000
-7.652900 0.000000
-7.635000 0.000000
-7.617200 0.000000
-7.599300 0.000000
-7.581400 0.000000
-7.563600 0.000000
-7.545700 0.000000
-7.527900 0.000000
-7.510000 0.000000
-7.492100 0.000000
-7.474300 0.000000
-7.456400 0.000000
-7.438600 0.000000
-7.420700 0.000000
-7.402800 0.000000
-7.385000 0.000000
-7.367100 0.000000
-7.349300 0.000000
-7.331400 0.000000
-7.313500 0.000000
-7.295700 0.000000
-7.277800 0.000000
-7.260000 0.000000
-7.242100 0.000000
-7.224200 0.000000
-7.206400 0.000000
-7.188500 0.000000
-7.170700 0.000000
-7.152800 0.000000
-7.135000 0.000000
-7.117100 0.000000
-7.099200 0.000000
-7.081400 0.000000
-7.063500 0.000000
-7.045700 0.000000
-7.027800 0.000000
-7.009900 0.000000
-6.992100 0.000000
-6.974200 0.000000
-6.956400 0.000000
-6.938500 0.000000
-6.920600 0.000000
-6.902800 0.000000
-6.884900 0.000000
-6.867100 0.000000
-6.849200 0.000000
-6.831300 0.000000
-6.813500 0.000000
-6.795600 0.000000
-6.777800 0.000000
-6.759900 0.000000
-6.742000 0.000000
-6.724200 0.000000
-6.706300 0.000000
-6.688500 0.000000
-6.670600 0.000000
-6.652700 0.000000
-6.634900 0.000000
-6.617000 0.000000
-6.599200 0.000000
-6.581300 0.000000
-6.563400 0.000000
-6.545600 0.000000
-6.527700 0.000000
-6.509900 0.000000
-6.492000 0.000000
-6.474100 0.000000
-6.456300 0.000000
-6.438400 0.000000
-6.420600 0.000000
-6.402700 0.000000
-6.384800 0.000000
-6.367000 0.000000
-6.349100 0.000000
-6.331300 0.000000
-6.313400 0.000000
-6.295500 0.000000
-6.277700 0.000000
-6.259800 0.000000
-6.242000 0.000000
-6.224100 0.000000
-6.206200 0.000000
-6.188400 0.000000
-6.170500 0.000000
-6.152700 0.000000
-6.134800 0.000000
-6.116900 0.000000
-6.099100 0.000000
-6.081200 0.000000
-6.063400 0.000000
-6.045500 0.000000
-6.027600 0.000000
-6.009800 0.000000
-5.991900 0.000000
-5.974100 0.000000
-5.956200 0.000000
-5.938300 0.000000
-5.920500 0.000000
-5.902600 0.000000
-5.884800 0.000000
-5.866900 0.000000
-5.849100 0.000000
-5.831200 0.000000
-5.813300 0.000000
-5.795500 0.000000
-5.777600 0.000000
-5.759800 0.000000
-5.741900 0.000000
-5.724000 0.000000
-5.706200 0.000000
-5.688300 0.000000
-5.670500 0.000000
-5.652600 0.000000
-5.634700 0.000000
-5.616900 0.000000
-5.599000 0.000000
-5.581200 0.000000
-5.563300 0.000000
-5.545400 0.000000
-5.527600 0.000000
-5.509700 0.000000
-5.491900 0.000000
-5.474000 0.000000
-5.456100 0.000000
-5.438300 0.000000
-5.420400 0.000000
-5.402600 0.000000
-5.384700 0.000000
-5.366800 0.000000
-5.349000 0.000000
-5.331100 0.000000
-5.313300 0.000000
-5.295400 0.000000
-5.277500 0.000000
-5.259700 0.000000
-5.241800 0.000000
-5.224000 0.000000
-5.206100 0.000000
-5.188200 0.000000
-5.170400 0.000000
-5.152500 0.000000
-5.134700 0.000000
-5.116800 0.000000
-5.098900 0.000000
-5.081100 0.000000
-5.063200 0.000000
-5.045400 0.000000
-5.027500 0.000000
-5.009600 0.000000
-4.991800 0.000000
-4.973900 0.000000
-4.956100 0.031000
-4.938200 0.355900
-4.920300 0.628000
-4.902500 0.824500
-4.884600 1.043600
-4.866800 1.172100
-4.848900 1.364500
-4.831000 1.517700
-4.813200 1.674000
-4.795300 1.854900
-4.777500 2.139400
-4.759600 2.453700
-4.741700 2.863000
-4.723900 2.807000
-4.706000 2.709900
-4.688200 2.737100
-4.670300 2.757100
-4.652400 2.777900
-4.634600 2.780400
-4.616700 2.865600
-4.598900 2.741000
-4.581000 2.752600
-4.563200 2.781400
-4.545300 2.832100
-4.527400 2.921000
-4.509600 3.027400
-4.491700 3.195600
-4.473900 3.466500
-4.456000 3.858900
-4.438100 4.013000
-4.420300 4.118400
-4.402400 3.721000
-4.384600 3.181800
-4.366700 2.538800
-4.348800 2.001900
-4.331000 1.903300
-4.313100 1.887800
-4.295300 2.128100
-4.277400 1.982500
-4.259500 1.941300
-4.241700 1.965300
-4.223800 2.039500
-4.206000 2.224900
-4.188100 2.201700
-4.170200 2.251900
-4.152400 2.334100
-4.134500 2.404600
-4.116700 2.448000
-4.098800 2.431100
-4.080900 2.428600
-4.063100 2.409300
-4.045200 2.388400
-4.027400 2.376200
-4.009500 2.370500
-3.991600 2.375800
-3.973800 2.369200
-3.955900 2.348300
-3.938100 2.316700
-3.920200 2.342900
-3.902300 2.193400
-3.884500 2.105300
-3.866600 2.050700
-3.848800 2.001800
-3.830900 1.959700
-3.813000 1.930000
-3.795200 1.885300
-3.777300 1.826500
-3.759500 1.793800
-3.741600 1.728800
-3.723700 1.733200
-3.705900 1.552200
-3.688000 1.474100
-3.670200 1.409500
-3.652300 1.351800
-3.634400 1.300500
-3.616600 1.253300
-3.598700 1.209500
-3.580900 1.171200
-3.563000 1.133500
-3.545100 1.112000
-3.527300 1.090600
-3.509400 1.068400
-3.491600 1.046000
-3.473700 1.026000
-3.455800 1.007200
-3.438000 0.989200
-3.420100 0.972400
-3.402300 0.956400
-3.384400 0.941000
-3.366500 0.926500
-3.348700 0.912500
-3.330800 0.900400
-3.313000 0.886600
-3.295100 0.875700
-3.277300 0.864700
-3.259400 0.853700
-3.241500 0.842600
-3.223700 0.830500
-3.205800 0.817300
-3.188000 0.805700
-3.170100 0.795100
-3.152200 0.785500
-3.134400 0.776300
-3.116500 0.767900
-3.098700 0.759900
-3.080800 0.753300
-3.062900 0.747700
-3.045100 0.745700
-3.027200 0.739100
-3.009400 0.731000
-2.991500 0.722900
-2.973600 0.714700
-2.955800 0.706300
-2.937900 0.697800
-2.920100 0.689100
-2.902200 0.680900
-2.884300 0.673900
-2.866500 0.667600
-2.848600 0.662900
-2.830800 0.659400
-2.812900 0.656700
-2.795000 0.657700
-2.777200 0.658900
-2.759300 0.650600
-2.741500 0.642400
-2.723600 0.634400
-2.705700 0.626600
-2.687900 0.619200
-2.670000 0.612200
-2.652200 0.607200
-2.634300 0.604400
-2.616400 0.604300
-2.598600 0.607000
-2.580700 0.613700
-2.562900 0.614900
-2.545000 0.602100
-2.527100 0.589400
-2.509300 0.576800
-2.491400 0.564900
-2.473600 0.558300
-2.455700 0.558900
-2.437800 0.578200
-2.420000 0.621000
-2.402100 0.600900
-2.384300 0.570400
-2.366400 0.540300
-2.348500 0.510600
-2.330700 0.595900
-2.312800 0.528400
-2.295000 0.405500
-2.277100 0.260300
-2.259200 0.127400
-2.241400 0.038700
-2.223500 0.000000
-2.205700 0.000000
-2.187800 0.000000
-2.169900 0.000000
-2.152100 0.000000
-2.134200 0.000000
-2.116400 0.000000
-2.098500 0.000000
-2.080600 0.000000
-2.062800 0.000000
-2.044900 0.000000
-2.027100 0.000000
-2.009200 0.000000
-1.991400 0.000000
-1.973500 0.000000
-1.955600 0.000000
-1.937800 0.000000
-1.919900 0.000000
-1.902100 0.000000
-1.884200 0.000000
-1.866300 0.000000
-1.848500 0.000000
-1.830600 0.000000
-1.812800 0.000000
-1.794900 0.000000
-1.777000 0.000000
-1.759200 0.000000
-1.741300 0.000000
-1.723500 0.000000
-1.705600 0.000000
-1.687700 0.000000
-1.669900 0.000000
-1.652000 0.000000
-1.634200 0.000000
-1.616300 0.000000
-1.598400 0.000000
-1.580600 0.000000
-1.562700 0.000000
-1.544900 0.000000
-1.527000 0.000000
-1.509100 0.000000
-1.491300 0.000000
-1.473400 0.000000
-1.455600 0.000000
-1.437700 0.000000
-1.419800 0.000000
-1.402000 0.000000
-1.384100 0.000000
-1.366300 0.000000
-1.348400 0.000000
-1.330500 0.000000
-1.312700 0.000000
-1.294800 0.000000
-1.277000 0.000000
-1.259100 0.000000
-1.241200 0.000000
-1.223400 0.000000
-1.205500 0.000000
-1.187700 0.000000
-1.169800 0.000000
-1.151900 0.000000
-1.134100 0.000000
-1.116200 0.000000
-1.098400 0.000000
-1.080500 0.000000
-1.062600 0.000000
-1.044800 0.000000
-1.026900 0.000000
-1.009100 0.000000
-0.991200 0.000000
-0.973300 0.000000
-0.955500 0.000000
-0.937600 0.000000
-0.919800 0.000000
-0.901900 0.000000
-0.884000 0.000000
-0.866200 0.000000
-0.848300 0.000000
-0.830500 0.000000
-0.812600 0.000000
-0.794700 0.000000
-0.776900 0.000000
-0.759000 0.000000
-0.741200 0.000000
-0.723300 0.000000
-0.705500 0.000000
-0.687600 0.000000
-0.669700 0.000000
-0.651900 0.000000
-0.634000 0.000000
-0.616200 0.000000
-0.598300 0.000000
-0.580400 0.000000
-0.562600 0.000000
-0.544700 0.000000
-0.526900 0.000000
-0.509000 0.000000
-0.491100 0.000000
-0.473300 0.000000
-0.455400 0.000000
-0.437600 0.000000
-0.419700 0.000000
-0.401800 0.000000
-0.384000 0.000000
-0.366100 0.000000
-0.348300 0.000000
-0.330400 0.000000
-0.312500 0.000000
-0.294700 0.000000
-0.276800 0.000000
-0.259000 0.000000
-0.241100 0.000000
-0.223200 0.000000
-0.205400 0.000000
-0.187500 0.000000
-0.169700 0.000000
-0.151800 0.000000
-0.133900 0.000000
-0.116100 0.000000
-0.098200 0.000000
-0.080400 0.000000
-0.062500 0.000000
-0.044600 0.000000
-0.026800 0.000000
-0.008900 0.087600
0.008900 0.180300
0.026800 0.196300
0.044700 0.241000
0.062500 0.287600
0.080400 0.332500
0.098200 0.368100
0.116100 0.403400
0.134000 0.431200
0.151800 0.457400
0.169700 0.491600
0.187500 0.528500
0.205400 0.568300
0.223300 0.615200
0.241100 0.663900
0.259000 0.713000
0.276800 0.760400
0.294700 0.861700
0.312600 1.115800
0.330400 1.451700
0.348300 1.805600
0.366100 2.181700
0.384000 2.685200
0.401900 3.443700
0.419700 3.442500
0.437600 3.232400
0.455400 2.907900
0.473300 2.617700
0.491200 2.373200
0.509000 2.334000
0.526900 2.202500
0.544700 2.095700
0.562600 2.012900
0.580400 1.929800
0.598300 1.943300
0.616200 1.995600
0.634000 2.047300
0.651900 2.099300
0.669700 2.145900
0.687600 2.173600
0.705500 2.206200
0.723300 2.259000
0.741200 2.352300
0.759000 2.448100
0.776900 2.584500
0.794800 2.678600
0.812600 2.752400
0.830500 2.807500
0.848300 2.933200
0.866200 2.994500
0.884100 3.087300
0.901900 3.141900
0.919800 3.126800
0.937600 3.090900
0.955500 3.063900
0.973400 3.027000
0.991200 2.975500
1.009100 2.938100
1.026900 2.921100
1.044800 2.922400
1.062700 2.903900
1.080500 2.855200
1.098400 2.813700
1.116200 2.788300
1.134100 2.778400
1.152000 2.788800
1.169800 2.787600
1.187700 2.793300
1.205500 2.795300
1.223400 2.824700
1.241300 2.863400
1.259100 2.915400
1.277000 2.956700
1.294800 2.967900
1.312700 2.968500
1.330600 2.971400
1.348400 2.961000
1.366300 2.962700
1.384100 2.976800
1.402000 2.988900
1.419900 3.028500
1.437700 3.079100
1.455600 3.048400
1.473400 2.813200
1.491300 2.781900
1.509200 2.747300
1.527000 2.692100
1.544900 2.628800
1.562700 2.555700
1.580600 2.498900
1.598500 2.485700
1.616300 2.442400
1.634200 2.378300
1.652000 2.296600
1.669900 2.215400
1.687800 2.189000
1.705600 2.172800
1.723500 2.181700
1.741300 2.229400
1.759200 2.293500
1.777100 2.375500
1.794900 2.478400
1.812800 2.627500
1.830600 2.868200
1.848500 3.138700
1.866300 3.364100
1.884200 3.478500
1.902100 3.514100
1.919900 3.576200
1.937800 3.737100
1.955600 3.896100
1.973500 4.001400
1.991400 4.204000
2.009200 4.453800
2.027100 4.992000
2.044900 5.490700
2.062800 5.509100
2.080700 5.424400
2.098500 5.084500
2.116400 5.057500
2.134200 5.269000
2.152100 4.979000
2.170000 4.424200
2.187800 3.784400
2.205700 3.589800
2.223500 3.598100
2.241400 3.905100
2.259300 3.800000
2.277100 3.531700
2.295000 3.390100
2.312800 3.285300
2.330700 3.289800
2.348600 3.068900
2.366400 2.896100
2.384300 2.745700
2.402100 2.727900
2.420000 2.818400
2.437900 2.673200
2.455700 2.585700
2.473600 2.670600
2.491400 2.794500
2.509300 2.960600
2.527200 3.116900
2.545000 3.244700
2.562900 3.305600
2.580700 3.376100
2.598600 3.505500
2.616500 3.071600
2.634300 2.933100
2.652200 2.577500
2.670000 2.351900
2.687900 2.273800
2.705800 2.253100
2.723600 2.235600
2.741500 2.277700
2.759300 2.336600
2.777200 2.472400
2.795100 2.626000
2.812900 2.800900
2.830800 2.944900
2.848600 3.015200
2.866500 3.059600
2.884400 3.062600
2.902200 2.944700
2.920100 2.871600
2.937900 2.848300
2.955800 2.848100
2.973700 2.847300
2.991500 2.862800
3.009400 2.872800
3.027200 2.878900
3.045100 2.922400
3.063000 3.006300
3.080800 3.165300
3.098700 3.390600
3.116500 3.601500
3.134400 3.486000
3.152200 3.518500
3.170100 3.511900
3.188000 3.494800
3.205800 3.493600
3.223700 3.478500
3.241500 3.522700
3.259400 3.514200
3.277300 3.549500
3.295100 3.580000
3.313000 3.652900
3.330800 3.662700
3.348700 3.769000
3.366600 3.316700
3.384400 3.301400
3.402300 3.148000
3.420100 2.967600
3.438000 2.824500
3.455900 2.666800
3.473700 2.576600
3.491600 2.506900
3.509400 2.429000
3.527300 2.347900
3.545200 2.271200
3.563000 2.237700
3.580900 2.238800
3.598700 2.292800
3.616600 2.317900
3.634500 2.368300
3.652300 2.826900
3.670200 3.079900
3.688000 3.046000
3.705900 3.134400
3.723800 3.294500
3.741600 5.538700
3.759500 5.437400
3.777300 5.658200
3.795200 5.112500
3.813100 4.798100
3.830900 4.384700
3.848800 4.162800
3.866600 4.004200
3.884500 3.821500
3.902400 3.711500
3.920200 3.684100
3.938100 3.868800
3.955900 4.097700
3.973800 4.209100
3.991700 4.393300
4.009500 4.842500
4.027400 5.784200
4.045200 6.542100
4.063100 6.953500
4.081000 6.854900
4.098800 6.821400
4.116700 6.809800
4.134500 6.834300
4.152400 6.945800
4.170300 6.730000
4.188100 6.364800
4.206000 5.770800
4.223800 4.993900
4.241700 5.053200
4.259600 5.091400
4.277400 5.108600
4.295300 5.253400
4.313100 7.767500
4.331000 8.295900
4.348900 7.398700
4.366700 6.774700
4.384600 5.899500
4.402400 5.515900
4.420300 4.524200
4.438100 3.868100
4.456000 3.359400
4.473900 3.212900
4.491700 3.300800
4.509600 3.592000
4.527400 3.820200
4.545300 4.116500
4.563200 4.183700
4.581000 4.229800
4.598900 4.336800
4.616700 4.403100
4.634600 4.534600
4.652500 4.751600
4.670300 5.363900
4.688200 5.531500
4.706000 5.751700
4.723900 5.469800
4.741800 5.199400
4.759600 4.329500
4.777500 3.618100
4.795300 2.585200
4.813200 2.171000
4.831100 2.012200
4.848900 1.957200
4.866800 1.962800
4.884600 1.942100
4.902500 1.828200
4.920400 1.858800
4.938200 1.833500
4.956100 1.826700
4.973900 1.893900
4.991800 2.012600
5.009700 2.099300
5.027500 2.160200
5.045400 2.221900
5.063200 2.230400
5.081100 2.122900
5.099000 2.205500
5.116800 1.998300
5.134700 2.100700
5.152500 2.149600
5.170400 2.079600
5.188300 1.999300
5.206100 1.979500
5.224000 1.963500
5.241800 1.943900
5.259700 1.949400
5.277600 1.994100
5.295400 2.383600
5.313300 2.652000
5.331100 2.860900
5.349000 3.062900
5.366900 3.469400
5.384700 4.588200
5.402600 5.621400
5.420400 4.466400
5.438300 4.048400
5.456200 3.624500
5.474000 3.358200
5.491900 3.318700
5.509700 2.621700
5.527600 2.355700
5.545500 2.141700
5.563300 1.969600
5.581200 1.816400
5.599000 1.686600
5.616900 1.574500
5.634800 1.477500
5.652600 1.365000
5.670500 1.259200
5.688300 1.173900
5.706200 1.090600
5.724000 1.030200
5.741900 0.984100
5.759800 0.849700
5.777600 0.732100
5.795500 0.635200
5.813300 0.563900
5.831200 0.463200
5.849100 0.145800
5.866900 0.007400
5.884800 0.000000
5.902600 0.000000
5.920500 0.000000
5.938400 0.000000
5.956200 0.000000
5.974100 0.000000
5.991900 0.000000
6.009800 0.000000
6.027700 0.000000
6.045500 0.000000
6.063400 0.000000
6.081200 0.000000
6.099100 0.000000
6.117000 0.000000
6.134800 0.000000
6.152700 0.000000
6.170500 0.000000
6.188400 0.000000
6.206300 0.000000
6.224100 0.000000
6.242000 0.000000
6.259800 0.000000
6.277700 0.000000
6.295600 0.000000
6.313400 0.000000
6.331300 0.000000
6.349100 0.000000
6.367000 0.000000
6.384900 0.000000
6.402700 0.000000
6.420600 0.000000
6.438400 0.000000
6.456300 0.000000
6.474200 0.000000
6.492000 0.000000
6.509900 0.000000
6.527700 0.000000
6.545600 0.000000
6.563500 0.000000
6.581300 0.000000
6.599200 0.000000
6.617000 0.000000
6.634900 0.000000
6.652800 0.000000
6.670600 0.000000
6.688500 0.000000
6.706300 0.000000
6.724200 0.000000
6.742100 0.000000
6.759900 0.000000
6.777800 0.000000
6.795600 0.000000
6.813500 0.000000
6.831400 0.000000
6.849200 0.000000
6.867100 0.000000
6.884900 0.000000
6.902800 0.000000
6.920700 0.000000
6.938500 0.000000
6.956400 0.000000
6.974200 0.000000
6.992100 0.000000
7.009900 0.001200
7.027800 0.005500
7.045700 0.012700
7.063500 0.022900
7.081400 0.035200
7.099200 0.049100
7.117100 0.064400
7.135000 0.081100
7.152800 0.099400
7.170700 0.119100
7.188500 0.137300
7.206400 0.151800
7.224300 0.164700
7.242100 0.177600
7.260000 0.195300
7.277800 0.220300
7.295700 0.252600
7.313600 0.291100
7.331400 0.311700
7.349300 0.327400
7.367100 0.340800
7.385000 0.356700
7.402900 0.379300
7.420700 0.402900
7.438600 0.427100
7.456400 0.453100
7.474300 0.480300
7.492200 0.507100
7.510000 0.532200
7.527900 0.558900
7.545700 0.590400
7.563600 0.623300
7.581500 0.656700
7.599300 0.691300
7.617200 0.732000
7.635000 0.790900
7.652900 0.870300
7.670800 0.928900
7.688600 0.961000
7.706500 0.979300
7.724300 0.988600
7.742200 0.988100
7.760100 0.978700
7.777900 0.962400
7.795800 0.972200
7.813600 0.980900
7.831500 0.988000
7.849400 0.995300
7.867200 1.002700
7.885100 1.010400
7.902900 1.018400
7.920800 1.026800
7.938700 1.035700
7.956500 1.044800
7.974400 1.055500
7.992200 1.068200
8.010100 1.083200
8.028000 1.100800
8.045800 1.125500
8.063700 1.146800
8.081500 1.159400
8.099400 1.173800
8.117300 1.190200
8.135100 1.205200
8.153000 1.217000
8.170800 1.226000
8.188700 1.234300
8.206600 1.248300
8.224400 1.263100
8.242300 1.281200
8.260100 1.302000
8.278000 1.323000
8.295800 1.345400
8.313700 1.370700
8.331600 1.401600
8.349400 1.438300
8.367300 1.507200
8.385100 1.629000
8.403000 1.838000
8.420900 2.094800
8.438700 2.671100
8.456600 2.906500
8.474400 2.587000
8.492300 2.541300
8.510200 2.508500
8.528000 2.399500
8.545900 2.317700
8.563700 2.264900
8.581600 2.252000
8.599500 2.311600
8.617300 2.186100
8.635200 2.058300
8.653000 1.951000
8.670900 1.888400
8.688800 1.862700
8.706600 1.868900
8.724500 1.891100
8.742300 1.873700
8.760200 1.834500
8.778100 1.769500
8.795900 1.721600
8.813800 1.683500
8.831600 1.691500
8.849500 1.689500
8.867400 1.639200
8.885200 1.568800
8.903100 1.478700
8.920900 1.405700
8.938800 1.359500
8.956700 1.338200
8.974500 1.318900
8.992400 1.297800
9.010200 1.287400
9.028100 1.310300
9.046000 1.366700
9.063800 1.413200
9.081700 1.448500
9.099500 1.471900
9.117400 1.507600
9.135300 1.559700
9.153100 1.613100
9.171000 1.704300
9.188800 1.770000
9.206700 1.838700
9.224600 1.897200
9.242400 1.933800
9.260300 1.951400
9.278100 1.943100
9.296000 1.961700
9.313900 2.032400
9.331700 2.119900
9.349600 2.216100
9.367400 2.153800
9.385300 2.022400
9.403200 1.981400
9.421000 1.919800
9.438900 1.857000
9.456700 1.820600
9.474600 1.821900
9.492500 1.846600
9.510300 1.905300
9.528200 1.848500
9.546000 1.723400
9.563900 1.743100
9.581700 1.760500
9.599600 1.773900
9.617500 1.784300
9.635300 1.807700
9.653200 1.834400
9.671000 1.845500
9.688900 1.854500
9.706800 1.861000
9.724600 1.867700
9.742500 1.889500
9.760300 1.903000
9.778200 1.915500
9.796100 1.957500
9.813900 1.935100
9.831800 1.921000
9.849600 1.951600
9.867500 2.069300
9.885400 2.083700
9.903200 2.088900
9.921100 2.206500
9.938900 2.272400
9.956800 2.280700
9.974700 2.310200
9.992500 2.341500
10.010400 2.352900
10.028200 2.353900
10.046100 2.397100
10.064000 2.543000
10.081800 3.010400
10.099700 3.974300
10.117500 4.021400
10.135400 3.795100
10.153300 3.682900
10.171100 3.486400
10.189000 3.358400
10.206800 3.247700
10.224700 3.148400
10.242600 3.036000
10.260400 3.105500
10.278300 3.197500
10.296100 3.292100
10.314000 3.424000
10.331900 3.599500
10.349700 3.823800
10.367600 4.063000
10.385400 4.282200
10.403300 4.499500
10.421200 4.750400
10.439000 4.864500
10.456900 4.967600
10.474700 4.748900
10.492600 4.406200
10.510500 4.220800
10.528300 3.793700
10.546200 3.287100
10.564000 2.709400
10.581900 2.531300
10.599800 2.512000
10.617600 2.598300
10.635500 2.896600
10.653300 3.188600
10.671200 3.050700
10.689100 3.083000
10.706900 3.070700
10.724800 3.105400
10.742600 3.140800
10.760500 3.173100
10.778400 3.228700
10.796200 3.185000
10.814100 3.169700
10.831900 3.202800
10.849800 3.224200
10.867600 3.193300
10.885500 3.179300
10.903400 3.194800
10.921200 3.238200
10.939100 3.282100
10.956900 3.306300
10.974800 3.251200
10.992700 3.181300
11.010500 3.131600
11.028400 3.081900
11.046200 3.052400
11.064100 3.280000
11.082000 3.461800
11.099800 3.413700
11.117700 3.251900
11.135500 3.384600
11.153400 2.943700
11.171300 2.631000
11.189100 2.538300
11.207000 2.388700
11.224800 2.262400
11.242700 2.171700
11.260600 2.548200
11.278400 4.174200
11.296300 5.820800
11.314100 6.059200
11.332000 6.297600
11.349900 6.190200
11.367700 6.030700
11.385600 5.894300
11.403400 5.524700
11.421300 5.351900
11.439200 5.405500
11.457000 5.435200
11.474900 5.352500
11.492700 5.552400
11.510600 6.255900
11.528500 6.136100
11.546300 4.803300
11.564200 4.108000
11.582000 3.616900
11.599900 3.366500
11.617800 3.326300
11.635600 3.396400
11.653500 3.545600
11.671300 3.875600
11.689200 4.333900
11.707100 4.663700
11.724900 4.956100
11.742800 5.170400
11.760600 5.160400
11.778500 4.900000
11.796400 4.596800
11.814200 4.352200
11.832100 4.071800
11.849900 3.911600
11.867800 3.761600
11.885700 3.649200
11.903500 3.561000
11.921400 3.646300
11.939200 3.679600
11.957100 3.640700
11.975000 3.532700
11.992800 3.522400
12.010700 3.491200
12.028500 3.436200
12.046400 3.522800
12.064300 3.475300
12.082100 2.127900
12.100000 1.475000
12.117800 0.290400
12.135700 0.000000
12.153500 0.000000
12.171400 0.000000
12.189300 0.000000
12.207100 0.000000
12.225000 0.000000
12.242800 0.000000
12.260700 0.000000
12.278600 0.000000
12.296400 0.000000
12.314300 0.000000
12.332100 0.000000
12.350000 0.000000
12.367900 0.000000
12.385700 0.000000
12.403600 0.000000
12.421400 0.000000
12.439300 0.000000
12.457200 0.000000
12.475000 0.000000
12.492900 0.000000
12.510700 0.000000
12.528600 0.000000
12.546500 0.000000
12.564300 0.000000
12.582200 0.000000
12.600000 0.000000
12.617900 0.000000
12.635800 0.000000
12.653600 0.000000
12.671500 0.000000
12.689300 0.000000
12.707200 0.000000
12.725100 0.000000
12.742900 0.000000
12.760800 0.000000
12.778600 0.000000
12.796500 0.000000
12.814400 0.000000
12.832200 0.000000
12.850100 0.000000
12.867900 0.000000
12.885800 0.000000
12.903700 0.000000
12.921500 0.000000
12.939400 0.000000
12.957200 0.000000
12.975100 0.000000
12.993000 0.000000
13.010800 0.000000
13.028700 0.000000
13.046500 0.000000
13.064400 0.000000
13.082300 0.000000
13.100100 0.000000
13.118000 0.000000
13.135800 0.000000
13.153700 0.000000
13.171600 0.000000
13.189400 0.000000
13.207300 0.000000
13.225100 0.000000
13.243000 0.000000
13.260900 0.000000
13.278700 0.000000
13.296600 0.000000
13.314400 0.000000
13.332300 0.000000
13.350200 0.018500
13.368000 0.039500
13.385900 0.059400
13.403700 0.078200
13.421600 0.096900
13.439400 0.118400
13.457300 0.142900
13.475200 0.155700
13.493000 0.172100
13.510900 0.194300
13.528700 0.233900
13.546600 0.289300
13.564500 0.380800
13.582300 0.512500
13.600200 0.587800
13.618000 0.690400
13.635900 0.683700
13.653800 0.722600
13.671600 0.746800
13.689500 0.738000
13.707300 0.702900
13.725200 0.711500
13.743100 0.723000
13.760900 0.739000
13.778800 0.759800
13.796600 0.780200
13.814500 0.801000
13.832400 0.812700
13.850200 0.818200
13.868100 0.832100
13.885900 0.847400
13.903800 0.863700
13.921700 0.868900
13.939500 0.863500
13.957400 0.870500
13.975200 0.883800
13.993100 0.907400
14.011000 0.939700
14.028800 1.008600
14.046700 1.068700
14.064500 1.133400
14.082400 1.198800
14.100300 1.256200
14.118100 1.294800
14.136000 1.333800
14.153800 1.378600
14.171700 1.396900
14.189600 1.429900
14.207400 1.476300
14.225300 1.513300
14.243100 1.539100
14.261000 1.548100
14.278900 1.535600
14.296700 1.517300
14.314600 1.515800
14.332400 1.511900
14.350300 1.503900
14.368200 1.498800
14.386000 1.495800
14.403900 1.493300
14.421700 1.487700
14.439600 1.484500
14.457500 1.482100
14.475300 1.479400
14.493200 1.477300
14.511000 1.472800
14.528900 1.470200
14.546800 1.486700
14.564600 1.479900
14.582500 1.478700
14.600300 1.480900
14.618200 1.484100
14.636100 1.489000
14.653900 1.502800
14.671800 1.531700
14.689600 1.557300
14.707500 1.572200
14.725300 1.593100
14.743200 1.625900
14.761100 1.636600
14.778900 1.653600
14.796800 1.669500
14.814600 1.685300
14.832500 1.739400
14.850400 1.769800
14.868200 1.735800
14.886100 1.521200
14.903900 1.249900
14.921800 1.054900
14.939700 0.836300
14.957500 0.712200
14.975400 0.642000
14.993200 0.614000
15.011100 0.589700
15.029000 0.569400
15.046800 0.541000
15.064700 0.511500
15.082500 0.500000
15.100400 0.493000
15.118300 0.490600
15.136100 0.492900
15.154000 0.501300
15.171800 0.515200
15.189700 0.530100
15.207600 0.534500
15.225400 0.532400
15.243300 0.523700
15.261100 0.508400
15.279000 0.491000
15.296900 0.474200
15.314700 0.454200
15.332600 0.432800
15.350400 0.409500
15.368300 0.369200
15.386200 0.346100
15.404000 0.327100
15.421900 0.345800
15.439700 0.374200
15.457600 0.542800
15.475500 0.576500
15.493300 0.615900
15.511200 0.666900
15.529000 0.715200
15.546900 0.746000
15.564800 0.804500
15.582600 0.885700
15.600500 0.973900
15.618300 0.960400
15.636200 0.979000
15.654100 1.011700
15.671900 1.037100
15.689800 1.061600
15.707600 1.084600
15.725500 1.106100
15.743400 1.132300
15.761200 1.158500
15.779100 1.178300
15.796900 1.189600
15.814800 1.202200
15.832700 1.220400
15.850500 1.250300
15.868400 1.291400
15.886200 1.346600
15.904100 1.375200
15.922000 1.409400
15.939800 1.443100
15.957700 1.474300
15.975500 1.502200
15.993400 1.527500
16.011200 1.552400
16.029100 1.578000
16.047000 1.602700
16.064800 1.627800
16.082700 1.652600
16.100500 1.679600
16.118400 1.692600
16.136300 1.709500
16.154100 1.731200
16.172000 1.755700
16.189800 1.799500
16.207700 1.853200
16.225600 1.878100
16.243400 1.912700
16.261300 1.957200
16.279100 2.008500
16.297000 2.068000
16.314900 2.137300
16.332700 2.166900
16.350600 2.189200
16.368400 2.205600
16.386300 2.272300
16.404200 2.388000
16.422000 2.294900
16.439900 2.266000
16.457700 2.230700
16.475600 2.198700
16.493500 2.196800
16.511300 2.198500
16.529200 2.237200
16.547000 2.233800
16.564900 2.175400
16.582800 2.067600
16.600600 1.875500
16.618500 1.794000
16.636300 1.716100
16.654200 1.666700
16.672100 1.580000
16.689900 1.455200
16.707800 1.277100
16.725600 1.216400
16.743500 1.207100
16.761400 1.207500
16.779200 1.280600
16.797100 1.321200
16.814900 1.230300
16.832800 1.216700
16.850700 1.193500
16.868500 1.204400
16.886400 1.119700
16.904200 1.123100
16.922100 1.143600
16.940000 1.214600
16.957800 1.294000
16.975700 1.383700
16.993500 1.468200
17.011400 1.550800
17.029300 1.640600
17.047100 1.740500
17.065000 1.828700
17.082800 2.024800
17.100700 2.171900
17.118600 2.266300
17.136400 2.351400
17.154300 2.351100
17.172100 2.360600
17.190000 2.410900
17.207900 2.472600
17.225700 2.475800
17.243600 2.488900
17.261400 2.507600
17.279300 2.529800
17.297100 2.560300
17.315000 2.592200
17.332900 2.641600
17.350700 2.689900
17.368600 2.762000
17.386400 2.773400
17.404300 2.778500
17.422200 2.772100
17.440000 2.757900
17.457900 2.718800
17.475700 2.655700
17.493600 2.634800
17.511500 2.550300
17.529300 2.344100
17.547200 2.252500
17.565000 2.182700
17.582900 2.115500
17.600800 2.034000
17.618600 1.970400
17.636500 1.914900
17.654300 1.868000
17.672200 1.827500
17.690100 1.791000
17.707900 1.786600
17.725800 1.757200
17.743600 1.699800
17.761500 1.664800
17.779400 1.639100
17.797200 1.618600
17.815100 1.601300
17.832900 1.587100
17.850800 1.575000
17.868700 1.574800
17.886500 1.581800
17.904400 1.592000
17.922200 1.604100
17.940100 1.618100
17.958000 1.633300
17.975800 1.643400
17.993700 1.548100
18.011500 1.554900
18.029400 1.578600
18.047300 1.611800
18.065100 1.666500
18.083000 1.724500
18.100800 1.775300
18.118700 1.821100
18.136600 1.877700
18.154400 1.939500
18.172300 2.006900
18.190100 2.092800
18.208000 2.249700
18.225900 2.469600
18.243700 2.347300
18.261600 2.196400
18.279400 2.108300
18.297300 2.030800
18.315200 1.964500
18.333000 1.905100
18.350900 1.851300
18.368700 1.805100
18.386600 1.781100
18.404500 1.745300
18.422300 1.705800
18.440200 1.664100
18.458000 1.630300
18.475900 1.607100
18.493800 1.585500
18.511600 1.566200
18.529500 1.543300
18.547300 1.513600
18.565200 1.478700
18.583000 1.435400
18.600900 1.385500
18.618800 1.339200
18.636600 1.302800
18.654500 1.269500
18.672300 1.237400
18.690200 1.211400
18.708100 1.177800
18.725900 1.147600
18.743800 1.137100
18.761600 1.135400
18.779500 1.101200
18.797400 1.079200
18.815200 1.044700
18.833100 1.022500
18.850900 0.998400
18.868800 0.973800
18.886700 0.945300
18.904500 0.904700
18.922400 0.871500
18.940200 0.846400
18.958100 0.819700
18.976000 0.763800
18.993800 0.697700
19.011700 0.644000
19.029500 0.570700
19.047400 0.496800
19.065300 0.429800
19.083100 0.369600
19.101000 0.321600
19.118800 0.274200
19.136700 0.234300
19.154600 0.198500
19.172400 0.166300
19.190300 0.137800
19.208100 0.113000
19.226000 0.091900
19.243900 0.074600
19.261700 0.059500
19.279600 0.046100
19.297400 0.034200
19.315300 0.024100
19.333200 0.015500
19.351000 0.008600
19.368900 0.003400
19.386700 0.000000
19.404600 0.000000
19.422500 0.000000
19.440300 0.000000
19.458200 0.000000
19.476000 0.000000
19.493900 0.000000
19.511800 0.000000
19.529600 0.000000
19.547500 0.000000
19.565300 0.000000
19.583200 0.000000
19.601100 0.000000
19.618900 0.000000
19.636800 0.000000
19.654600 0.000000
19.672500 0.000000
19.690400 0.000000
19.708200 0.000000
19.726100 0.000000
19.743900 0.000000
19.761800 0.000000
19.779700 0.000000
19.797500 0.000000
19.815400 0.000000
19.833200 0.000000
19.851100 0.000000
19.868900 0.000000
19.886800 0.000000
19.904700 0.000000
19.922500 0.000000
19.940400 0.000000
19.958200 0.000000
19.976100 0.000000
19.994000 0.000000
20.011800 0.000000
20.029700 0.000000
20.047500 0.000000
20.065400 0.000000
20.083300 0.000000
20.101100 0.000000
20.119000 0.000000
20.136800 0.000000
20.154700 0.000000
20.172600 0.000000
20.190400 0.000000
20.208300 0.000000
20.226100 0.000000
20.244000 0.000000
20.261900 0.000000
20.279700 0.000000
20.297600 0.000000
20.315400 0.000000
20.333300 0.000000
20.351200 0.000000
20.369000 0.000000
20.386900 0.000000
20.404700 0.000000
20.422600 0.000000
20.440500 0.000000
20.458300 0.000000
20.476200 0.000000
20.494000 0.000000
20.511900 0.000000
20.529800 0.000000
20.547600 0.000000
20.565500 0.000000
20.583300 0.000000
20.601200 0.000000
20.619100 0.000000
20.636900 0.000000
20.654800 0.000000
20.672600 0.000000
20.690500 0.000000
20.708400 0.000000
20.726200 0.000000
20.744100 0.000000
20.761900 0.000000
20.779800 0.000000
20.797700 0.000000
20.815500 0.000000
20.833400 0.000000
20.851200 0.000000
20.869100 0.000000
20.887000 0.000000
20.904800 0.000000
20.922700 0.000000
20.940500 0.000000
20.958400 0.000000
20.976300 0.000000
20.994100 0.000000
21.012000 0.000000
e
