set title 'mp-556253 - Density of States'
set xlabel 'Energy (eV)'
set ylabel 'DOS (states/eV)'
set grid
set xrange [-10:10]
set yrange [0:36.756]
set xzeroaxis lt -1
set terminal png size 800,600
set output 'mp-556253_dos_gnuplot.png'
plot '-' using 1:2 with lines title 'DOS'
-23.320200 0.000000
-23.298500 0.000000
-23.276900 0.000000
-23.255300 0.000000
-23.233600 0.000000
-23.212000 0.000000
-23.190300 0.000000
-23.168700 0.000000
-23.147000 0.000000
-23.125400 0.000000
-23.103800 0.000000
-23.082100 0.000000
-23.060500 0.000000
-23.038800 0.000000
-23.017200 0.000000
-22.995500 0.000000
-22.973900 0.000000
-22.952300 0.000000
-22.930600 0.000000
-22.909000 0.000000
-22.887300 0.000000
-22.865700 0.000000
-22.844000 0.000000
-22.822400 0.000000
-22.800800 0.000000
-22.779100 0.000000
-22.757500 0.000000
-22.735800 0.000000
-22.714200 0.000000
-22.692600 0.000000
-22.670900 0.000000
-22.649300 0.000000
-22.627600 0.000000
-22.606000 0.000000
-22.584300 0.000000
-22.562700 0.000000
-22.541100 0.000000
-22.519400 0.000000
-22.497800 0.000000
-22.476100 0.000000
-22.454500 0.000000
-22.432800 0.000000
-22.411200 0.000000
-22.389600 0.000000
-22.367900 0.000000
-22.346300 0.000000
-22.324600 0.000000
-22.303000 0.000000
-22.281400 0.000000
-22.259700 0.000000
-22.238100 0.000000
-22.216400 0.000000
-22.194800 0.000000
-22.173100 0.000000
-22.151500 0.000000
-22.129900 0.000000
-22.108200 0.000000
-22.086600 0.000000
-22.064900 0.000000
-22.043300 0.000000
-22.021600 0.000000
-22.000000 0.000000
-21.978400 0.000000
-21.956700 0.000000
-21.935100 0.000000
-21.913400 0.000000
-21.891800 0.000000
-21.870200 0.000000
-21.848500 0.000000
-21.826900 0.000000
-21.805200 0.000000
-21.783600 0.000000
-21.761900 0.000000
-21.740300 0.000000
-21.718700 0.000000
-21.697000 0.000000
-21.675400 0.000000
-21.653700 0.000000
-21.632100 0.000000
-21.610400 0.000000
-21.588800 0.000000
-21.567200 0.000000
-21.545500 0.000000
-21.523900 0.000000
-21.502200 0.000000
-21.480600 0.000000
-21.458900 0.000000
-21.437300 0.000000
-21.415700 0.000000
-21.394000 0.000000
-21.372400 0.000000
-21.350700 0.003600
-21.329100 0.517800
-21.307500 1.737900
-21.285800 3.162200
-21.264200 4.695200
-21.242500 5.991000
-21.220900 26.500500
-21.199200 14.677400
-21.177600 9.854500
-21.156000 5.881000
-21.134300 24.170200
-21.112700 12.779400
-21.091000 22.542100
-21.069400 34.067800
-21.047700 35.365700
-21.026100 41.517800
-21.004500 38.077600
-20.982800 28.875300
-20.961200 20.586000
-20.939500 24.564700
-20.917900 32.647300
-20.896300 25.187800
-20.874600 12.986400
-20.853000 16.641200
-20.831300 15.321900
-20.809700 17.710500
-20.788000 25.576300
-20.766400 24.483300
-20.744800 16.840200
-20.723100 17.871500
-20.701500 28.760200
-20.679800 28.231200
-20.658200 27.297200
-20.636500 30.934100
-20.614900 39.422300
-20.593300 69.527200
-20.571600 36.019200
-20.550000 45.620400
-20.528300 41.536500
-20.506700 60.176900
-20.485100 80.316100
-20.463400 51.679300
-20.441800 87.038600
-20.420100 62.495200
-20.398500 79.611600
-20.376800 100.538900
-20.355200 77.233800
-20.333600 32.458200
-20.311900 34.688900
-20.290300 12.451500
-20.268600 11.775400
-20.247000 11.778200
-20.225300 11.784200
-20.203700 11.793300
-20.182100 6.175300
-20.160400 0.000000
-20.138800 0.000000
-20.117100 0.000000
-20.095500 0.000000
-20.073800 0.000000
-20.052200 0.000000
-20.030600 0.000000
-20.008900 0.000000
-19.987300 0.000000
-19.965600 0.000000
-19.944000 0.000000
-19.922400 0.000000
-19.900700 0.000000
-19.879100 0.000000
-19.857400 0.000000
-19.835800 0.000000
-19.814100 0.000000
-19.792500 0.000000
-19.770900 0.000000
-19.749200 0.000000
-19.727600 0.000000
-19.705900 0.000000
-19.684300 0.000000
-19.662600 0.000000
-19.641000 0.000000
-19.619400 0.000000
-19.597700 0.000000
-19.576100 0.000000
-19.554400 0.000000
-19.532800 0.000000
-19.511200 0.000000
-19.489500 0.000000
-19.467900 0.000000
-19.446200 0.000000
-19.424600 0.000000
-19.402900 0.000000
-19.381300 0.000000
-19.359700 0.000000
-19.338000 0.000000
-19.316400 0.000000
-19.294700 0.000000
-19.273100 0.000000
-19.251400 0.000000
-19.229800 0.000000
-19.208200 0.000000
-19.186500 0.000000
-19.164900 0.000000
-19.143200 0.000000
-19.121600 0.000000
-19.100000 0.000000
-19.078300 0.000000
-19.056700 0.000000
-19.035000 0.000000
-19.013400 0.000000
-18.991700 0.000000
-18.970100 0.000000
-18.948500 0.000000
-18.926800 0.000000
-18.905200 0.000000
-18.883500 0.000000
-18.861900 0.000000
-18.840200 0.000000
-18.818600 0.000000
-18.797000 0.000000
-18.775300 0.000000
-18.753700 0.000000
-18.732000 0.000000
-18.710400 0.000000
-18.688700 0.000000
-18.667100 0.000000
-18.645500 0.000000
-18.623800 0.000000
-18.602200 0.000000
-18.580500 0.000000
-18.558900 0.000000
-18.537300 0.000000
-18.515600 0.000000
-18.494000 0.000000
-18.472300 0.000000
-18.450700 0.000000
-18.429000 0.000000
-18.407400 0.000000
-18.385800 0.000000
-18.364100 0.000000
-18.342500 0.000000
-18.320800 0.000000
-18.299200 0.000000
-18.277500 0.000000
-18.255900 0.000000
-18.234300 0.000000
-18.212600 0.000000
-18.191000 0.000000
-18.169300 0.000000
-18.147700 0.000000
-18.126100 0.000000
-18.104400 0.000000
-18.082800 0.000000
-18.061100 0.000000
-18.039500 0.000000
-18.017800 0.000000
-17.996200 0.000000
-17.974600 0.000000
-17.952900 0.000000
-17.931300 0.000000
-17.909600 0.000000
-17.888000 0.000000
-17.866300 0.000000
-17.844700 0.000000
-17.823100 0.000000
-17.801400 0.000000
-17.779800 0.000000
-17.758100 0.000000
-17.736500 0.000000
-17.714900 0.000000
-17.693200 0.000000
-17.671600 0.000000
-17.649900 0.000000
-17.628300 0.000000
-17.606600 0.000000
-17.585000 0.000000
-17.563400 0.000000
-17.541700 0.000000
-17.520100 0.000000
-17.498400 0.000000
-17.476800 0.000000
-17.455100 0.000000
-17.433500 0.000000
-17.411900 0.000000
-17.390200 0.000000
-17.368600 0.000000
-17.346900 0.000000
-17.325300 0.000000
-17.303600 0.000000
-17.282000 0.000000
-17.260400 0.000000
-17.238700 0.000000
-17.217100 0.000000
-17.195400 0.000000
-17.173800 0.000000
-17.152200 0.000000
-17.130500 0.000000
-17.108900 0.000000
-17.087200 0.000000
-17.065600 0.000000
-17.043900 0.000000
-17.022300 0.000000
-17.000700 0.000000
-16.979000 0.000000
-16.957400 0.000000
-16.935700 0.000000
-16.914100 0.000000
-16.892400 0.000000
-16.870800 0.000000
-16.849200 0.000000
-16.827500 0.000000
-16.805900 0.000000
-16.784200 0.000000
-16.762600 0.000000
-16.741000 0.000000
-16.719300 0.000000
-16.697700 0.000000
-16.676000 0.000000
-16.654400 0.000000
-16.632700 0.000000
-16.611100 0.000000
-16.589500 0.000000
-16.567800 0.000000
-16.546200 0.000000
-16.524500 0.000000
-16.502900 0.000000
-16.481200 0.000000
-16.459600 0.000000
-16.438000 0.000000
-16.416300 0.000000
-16.394700 0.000000
-16.373000 0.000000
-16.351400 0.000000
-16.329800 0.000000
-16.308100 0.000000
-16.286500 0.000000
-16.264800 0.000000
-16.243200 0.000000
-16.221500 0.000000
-16.199900 0.000000
-16.178300 0.000000
-16.156600 0.000000
-16.135000 0.000000
-16.113300 0.000000
-16.091700 0.000000
-16.070000 0.000000
-16.048400 0.000000
-16.026800 0.000000
-16.005100 0.000000
-15.983500 0.000000
-15.961800 0.000000
-15.940200 0.000000
-15.918600 0.000000
-15.896900 0.000000
-15.875300 0.000000
-15.853600 0.000000
-15.832000 0.000000
-15.810300 0.000000
-15.788700 0.000000
-15.767100 0.000000
-15.745400 0.000000
-15.723800 0.000000
-15.702100 0.000000
-15.680500 0.000000
-15.658800 0.000000
-15.637200 0.000000
-15.615600 0.000000
-15.593900 0.000000
-15.572300 0.000000
-15.550600 0.000000
-15.529000 0.000000
-15.507300 0.000000
-15.485700 0.000000
-15.464100 0.000000
-15.442400 0.000000
-15.420800 0.000000
-15.399100 0.000000
-15.377500 0.000000
-15.355900 0.000000
-15.334200 0.000000
-15.312600 0.000000
-15.290900 0.000000
-15.269300 0.000000
-15.247600 0.000000
-15.226000 0.000000
-15.204400 0.000000
-15.182700 0.000000
-15.161100 0.000000
-15.139400 0.000000
-15.117800 0.000000
-15.096100 0.000000
-15.074500 0.000000
-15.052900 0.000000
-15.031200 0.000000
-15.009600 0.000000
-14.987900 0.000000
-14.966300 0.000000
-14.944700 0.000000
-14.923000 0.000000
-14.901400 0.000000
-14.879700 0.000000
-14.858100 0.000000
-14.836400 0.000000
-14.814800 0.000000
-14.793200 0.000000
-14.771500 0.000000
-14.749900 0.000000
-14.728200 0.009200
-14.706600 0.039000
-14.684900 0.089600
-14.663300 0.160800
-14.641700 0.252700
-14.620000 0.350300
-14.598400 0.444000
-14.576700 0.534500
-14.555100 0.627700
-14.533500 0.725200
-14.511800 0.827000
-14.490200 0.935000
-14.468500 1.060900
-14.446900 1.206700
-14.425200 1.357100
-14.403600 1.481600
-14.382000 1.579700
-14.360300 1.695000
-14.338700 1.836100
-14.317000 1.996900
-14.295400 2.169600
-14.273700 2.349100
-14.252100 2.527700
-14.230500 2.613200
-14.208800 2.705200
-14.187200 2.820400
-14.165500 2.973800
-14.143900 3.168300
-14.122200 3.427000
-14.100600 3.759200
-14.079000 4.195600
-14.057300 4.782300
-14.035700 6.089600
-14.014000 7.418100
-13.992400 15.162900
-13.970800 15.407900
-13.949100 13.192200
-13.927500 8.400300
-13.905800 7.443200
-13.884200 8.774600
-13.862500 11.238300
-13.840900 20.471000
-13.819300 28.178500
-13.797600 12.619500
-13.776000 5.303700
-13.754300 5.948800
-13.732700 10.326700
-13.711000 19.789400
-13.689400 21.011600
-13.667800 16.597800
-13.646100 14.729500
-13.624500 11.606500
-13.602800 11.733200
-13.581200 16.284700
-13.559600 23.281200
-13.537900 12.299200
-13.516300 20.268000
-13.494600 42.881800
-13.473000 18.601100
-13.451300 13.825100
-13.429700 15.272300
-13.408100 12.038300
-13.386400 9.965200
-13.364800 10.442700
-13.343100 11.803000
-13.321500 17.170000
-13.299800 16.833000
-13.278200 18.392200
-13.256600 24.515800
-13.234900 26.919300
-13.213300 24.634100
-13.191600 22.637600
-13.170000 19.936100
-13.148400 23.595000
-13.126700 27.163300
-13.105100 22.704200
-13.083400 17.813100
-13.061800 17.260900
-13.040100 9.065200
-13.018500 3.292000
-12.996900 2.460400
-12.975200 2.010400
-12.953600 1.456500
-12.931900 0.962700
-12.910300 0.547600
-12.888600 0.189300
-12.867000 0.015200
-12.845400 0.000000
-12.823700 0.000000
-12.802100 0.000000
-12.780400 0.000000
-12.758800 0.000000
-12.737100 0.000000
-12.715500 0.000000
-12.693900 0.000000
-12.672200 0.000000
-12.650600 0.000000
-12.628900 0.000000
-12.607300 0.000000
-12.585700 0.000000
-12.564000 0.000000
-12.542400 0.000000
-12.520700 0.000000
-12.499100 0.000000
-12.477400 0.000000
-12.455800 0.000000
-12.434200 0.000000
-12.412500 0.000000
-12.390900 0.000000
-12.369200 0.000000
-12.347600 0.000000
-12.325900 0.000000
-12.304300 0.000000
-12.282700 0.000000
-12.261000 0.000000
-12.239400 0.000000
-12.217700 0.000000
-12.196100 0.000000
-12.174500 0.000000
-12.152800 0.000000
-12.131200 0.000000
-12.109500 0.000000
-12.087900 0.000000
-12.066200 0.000000
-12.044600 0.000000
-12.023000 0.000000
-12.001300 0.000000
-11.979700 0.000000
-11.958000 0.000000
-11.936400 0.000000
-11.914700 0.000000
-11.893100 0.000000
-11.871500 0.000000
-11.849800 0.000000
-11.828200 0.000000
-11.806500 0.000000
-11.784900 0.000000
-11.763300 0.000000
-11.741600 0.000000
-11.720000 0.000000
-11.698300 0.000000
-11.676700 0.000000
-11.655000 0.000000
-11.633400 0.000000
-11.611800 0.000000
-11.590100 0.000000
-11.568500 0.000000
-11.546800 0.000000
-11.525200 0.000000
-11.503500 0.000000
-11.481900 0.000000
-11.460300 0.000000
-11.438600 0.000000
-11.417000 0.000000
-11.395300 0.000000
-11.373700 0.000000
-11.352000 0.000000
-11.330400 0.000000
-11.308800 0.000000
-11.287100 0.000000
-11.265500 0.000000
-11.243800 0.000000
-11.222200 0.000000
-11.200600 0.000000
-11.178900 0.000000
-11.157300 0.000000
-11.135600 0.000000
-11.114000 0.000000
-11.092300 0.000000
-11.070700 0.000000
-11.049100 0.000000
-11.027400 0.000000
-11.005800 0.000000
-10.984100 0.000000
-10.962500 0.000000
-10.940800 0.000000
-10.919200 0.000000
-10.897600 0.000000
-10.875900 0.000000
-10.854300 0.000000
-10.832600 0.000000
-10.811000 0.000000
-10.789400 0.000000
-10.767700 0.000000
-10.746100 0.000000
-10.724400 0.000000
-10.702800 0.000000
-10.681100 0.000000
-10.659500 0.000000
-10.637900 0.000000
-10.616200 0.000000
-10.594600 0.000000
-10.572900 0.000000
-10.551300 0.000000
-10.529600 0.000000
-10.508000 0.000000
-10.486400 0.000000
-10.464700 0.000000
-10.443100 0.000000
-10.421400 0.000000
-10.399800 0.000000
-10.378200 0.000000
-10.356500 0.000000
-10.334900 0.000000
-10.313200 0.000000
-10.291600 0.000000
-10.269900 0.000000
-10.248300 0.000000
-10.226700 0.000000
-10.205000 0.000000
-10.183400 0.000000
-10.161700 0.000000
-10.140100 0.000000
-10.118400 0.000000
-10.096800 0.000000
-10.075200 0.000000
-10.053500 0.000000
-10.031900 0.000000
-10.010200 0.000000
-9.988600 0.000000
-9.966900 0.000000
-9.945300 0.000000
-9.923700 0.000000
-9.902000 0.000000
-9.880400 0.000000
-9.858700 0.000000
-9.837100 0.000000
-9.815500 0.000000
-9.793800 0.000000
-9.772200 0.000000
-9.750500 0.000000
-9.728900 0.000000
-9.707200 0.000000
-9.685600 0.000000
-9.664000 0.000000
-9.642300 0.000000
-9.620700 0.000000
-9.599000 0.000000
-9.577400 0.000000
-9.555700 0.000000
-9.534100 0.000000
-9.512500 0.000000
-9.490800 0.000000
-9.469200 0.000000
-9.447500 0.000000
-9.425900 0.000000
-9.404300 0.000000
-9.382600 0.000000
-9.361000 0.000000
-9.339300 0.000000
-9.317700 0.000000
-9.296000 0.000000
-9.274400 0.000000
-9.252800 0.000000
-9.231100 0.000000
-9.209500 0.000000
-9.187800 0.000000
-9.166200 0.000000
-9.144500 0.000000
-9.122900 0.000000
-9.101300 0.000000
-9.079600 0.000000
-9.058000 0.000000
-9.036300 0.000000
-9.014700 0.000000
-8.993100 0.000000
-8.971400 0.000000
-8.949800 0.000000
-8.928100 0.000000
-8.906500 0.000000
-8.884800 0.000000
-8.863200 0.000000
-8.841600 0.000000
-8.819900 0.000000
-8.798300 0.000000
-8.776600 0.000000
-8.755000 0.000000
-8.733300 0.000000
-8.711700 0.000000
-8.690100 0.000000
-8.668400 0.000000
-8.646800 0.000000
-8.625100 0.000000
-8.603500 0.000000
-8.581800 0.000000
-8.560200 0.000000
-8.538600 0.000000
-8.516900 0.000000
-8.495300 0.000000
-8.473600 0.000000
-8.452000 0.000000
-8.430400 0.000000
-8.408700 0.000000
-8.387100 0.000000
-8.365400 0.000000
-8.343800 0.000000
-8.322100 0.000000
-8.300500 0.000000
-8.278900 0.000000
-8.257200 0.000000
-8.235600 0.000000
-8.213900 0.000000
-8.192300 0.000000
-8.170600 0.000000
-8.149000 0.000000
-8.127400 0.000000
-8.105700 0.000000
-8.084100 0.000000
-8.062400 0.000000
-8.040800 0.000000
-8.019200 0.000000
-7.997500 0.000000
-7.975900 0.000000
-7.954200 0.000000
-7.932600 0.000000
-7.910900 0.000000
-7.889300 0.000000
-7.867700 0.000000
-7.846000 0.000000
-7.824400 0.000000
-7.802700 0.000000
-7.781100 0.000000
-7.759400 0.000000
-7.737800 0.000000
-7.716200 0.000000
-7.694500 0.000000
-7.672900 0.000000
-7.651200 0.000000
-7.629600 0.000000
-7.608000 0.000000
-7.586300 0.000000
-7.564700 0.000000
-7.543000 0.000000
-7.521400 0.000000
-7.499700 0.000000
-7.478100 0.000000
-7.456500 0.000000
-7.434800 0.000000
-7.413200 0.000000
-7.391500 0.000000
-7.369900 0.000000
-7.348200 0.000000
-7.326600 0.000000
-7.305000 0.000000
-7.283300 0.000000
-7.261700 0.000000
-7.240000 0.000000
-7.218400 0.000000
-7.196700 0.000000
-7.175100 0.000000
-7.153500 0.000000
-7.131800 0.000000
-7.110200 0.000000
-7.088500 0.000000
-7.066900 0.000000
-7.045300 0.000000
-7.023600 0.000000
-7.002000 0.000000
-6.980300 0.000000
-6.958700 0.000000
-6.937000 0.000000
-6.915400 0.000000
-6.893800 0.000000
-6.872100 0.000000
-6.850500 0.000000
-6.828800 0.000000
-6.807200 0.000000
-6.785500 0.000000
-6.763900 0.000000
-6.742300 0.000000
-6.720600 0.000000
-6.699000 0.000000
-6.677300 0.000000
-6.655700 0.000000
-6.634100 0.000000
-6.612400 0.000000
-6.590800 0.000000
-6.569100 0.000000
-6.547500 0.000000
-6.525800 0.000000
-6.504200 0.000000
-6.482600 0.000000
-6.460900 0.000000
-6.439300 0.000000
-6.417600 0.000000
-6.396000 0.000000
-6.374300 0.000000
-6.352700 0.000000
-6.331100 0.000000
-6.309400 0.000000
-6.287800 0.000000
-6.266100 0.000000
-6.244500 0.000000
-6.222900 0.000000
-6.201200 0.000000
-6.179600 0.000000
-6.157900 0.000000
-6.136300 0.000000
-6.114600 0.000000
-6.093000 0.000000
-6.071400 0.000000
-6.049700 0.000000
-6.028100 0.000000
-6.006400 0.000000
-5.984800 0.000000
-5.963100 0.000000
-5.941500 0.000000
-5.919900 0.000000
-5.898200 0.000000
-5.876600 0.000000
-5.854900 0.000000
-5.833300 0.000000
-5.811700 0.000000
-5.790000 0.000000
-5.768400 0.000000
-5.746700 0.000000
-5.725100 0.000000
-5.703400 0.000000
-5.681800 0.000000
-5.660200 0.000000
-5.638500 0.000000
-5.616900 0.000000
-5.595200 0.000000
-5.573600 0.000000
-5.551900 0.000000
-5.530300 0.000000
-5.508700 0.000000
-5.487000 0.000000
-5.465400 0.000000
-5.443700 0.000000
-5.422100 0.000000
-5.400400 0.000000
-5.378800 0.000000
-5.357200 0.000000
-5.335500 0.000000
-5.313900 0.000000
-5.292200 0.000000
-5.270600 0.000000
-5.249000 0.000000
-5.227300 0.000000
-5.205700 0.000000
-5.184000 0.000000
-5.162400 0.000000
-5.140700 0.000000
-5.119100 0.000000
-5.097500 0.000000
-5.075800 0.000000
-5.054200 0.000000
-5.032500 0.000000
-5.010900 0.000000
-4.989200 0.000000
-4.967600 0.000000
-4.946000 0.000000
-4.924300 0.000000
-4.902700 0.000000
-4.881000 0.000000
-4.859400 0.000000
-4.837800 0.000000
-4.816100 0.000000
-4.794500 0.000000
-4.772800 0.000000
-4.751200 0.000000
-4.729500 0.000000
-4.707900 0.000000
-4.686300 0.000000
-4.664600 0.000000
-4.643000 0.000000
-4.621300 0.000000
-4.599700 0.000000
-4.578000 0.000000
-4.556400 0.000000
-4.534800 0.000000
-4.513100 0.000000
-4.491500 0.000000
-4.469800 0.000000
-4.448200 0.000000
-4.426600 0.000000
-4.404900 0.000000
-4.383300 0.000000
-4.361600 0.000000
-4.340000 0.000000
-4.318300 0.000000
-4.296700 0.000000
-4.275100 0.000000
-4.253400 0.000000
-4.231800 0.000000
-4.210100 0.000000
-4.188500 0.000000
-4.166800 0.000000
-4.145200 0.000000
-4.123600 0.000000
-4.101900 0.000000
-4.080300 0.000000
-4.058600 0.000000
-4.037000 0.000000
-4.015300 0.000000
-3.993700 0.000000
-3.972100 0.000000
-3.950400 0.000000
-3.928800 0.000000
-3.907100 0.000000
-3.885500 0.000000
-3.863900 0.000000
-3.842200 0.000000
-3.820600 0.000000
-3.798900 0.000000
-3.777300 0.000000
-3.755600 0.000000
-3.734000 0.000000
-3.712400 0.000000
-3.690700 0.000000
-3.669100 0.000000
-3.647400 0.000000
-3.625800 0.000000
-3.604100 0.000000
-3.582500 0.000000
-3.560900 0.000000
-3.539200 0.000000
-3.517600 0.000000
-3.495900 0.000000
-3.474300 0.000000
-3.452700 0.000000
-3.431000 0.000000
-3.409400 0.000000
-3.387700 0.000000
-3.366100 0.000000
-3.344400 0.000000
-3.322800 0.000000
-3.301200 0.000000
-3.279500 0.000000
-3.257900 0.000000
-3.236200 0.000000
-3.214600 0.000000
-3.192900 0.000000
-3.171300 0.000000
-3.149700 0.000000
-3.128000 0.000000
-3.106400 0.000000
-3.084700 0.000000
-3.063100 0.000000
-3.041500 0.000000
-3.019800 0.000000
-2.998200 0.000000
-2.976500 0.000000
-2.954900 0.000000
-2.933200 0.000000
-2.911600 0.000000
-2.890000 0.000000
-2.868300 0.000000
-2.846700 0.000000
-2.825000 0.000000
-2.803400 0.000000
-2.781700 0.000000
-2.760100 0.000000
-2.738500 0.000000
-2.716800 0.000000
-2.695200 0.000000
-2.673500 0.000000
-2.651900 0.000000
-2.630200 0.000000
-2.608600 0.000000
-2.587000 0.000000
-2.565300 0.000000
-2.543700 0.000000
-2.522000 0.000000
-2.500400 0.000000
-2.478800 0.000000
-2.457100 0.000000
-2.435500 0.000000
-2.413800 0.000000
-2.392200 0.000000
-2.370500 0.000000
-2.348900 0.000000
-2.327300 0.000000
-2.305600 0.000000
-2.284000 0.000000
-2.262300 0.000000
-2.240700 0.000000
-2.219000 0.000000
-2.197400 0.000000
-2.175800 0.000000
-2.154100 0.000000
-2.132500 0.000000
-2.110800 0.000000
-2.089200 0.000000
-2.067600 0.000000
-2.045900 0.006100
-2.024300 0.033100
-2.002600 0.098200
-1.981000 0.713100
-1.959300 1.526900
-1.937700 2.363900
-1.916100 2.860200
-1.894400 3.014700
-1.872800 3.109100
-1.851100 3.185400
-1.829500 3.311700
-1.807800 3.573700
-1.786200 3.950000
-1.764600 4.415500
-1.742900 4.979300
-1.721300 5.501500
-1.699600 5.295000
-1.678000 5.159000
-1.656400 5.204600
-1.634700 5.391900
-1.613100 5.730200
-1.591400 6.545400
-1.569800 7.442400
-1.548100 8.251800
-1.526500 10.635900
-1.504900 9.965500
-1.483200 10.076300
-1.461600 10.517100
-1.439900 10.709700
-1.418300 10.539200
-1.396600 8.924200
-1.375000 7.118800
-1.353400 7.956400
-1.331700 9.808300
-1.310100 10.422100
-1.288400 11.309300
-1.266800 11.991100
-1.245100 12.701600
-1.223500 15.093500
-1.201900 17.693800
-1.180200 17.845900
-1.158600 11.028800
-1.136900 8.490900
-1.115300 10.846700
-1.093700 12.749900
-1.072000 15.701900
-1.050400 15.909100
-1.028700 8.284000
-1.007100 4.548500
-0.985400 3.566700
-0.963800 3.935400
-0.942200 8.757500
-0.920500 14.301900
-0.898900 14.633200
-0.877200 14.087200
-0.855600 12.673000
-0.833900 8.984200
-0.812300 9.807300
-0.790700 17.396700
-0.769000 23.775000
-0.747400 18.962500
-0.725700 16.431800
-0.704100 13.899600
-0.682500 13.502100
-0.660800 13.914900
-0.639200 15.807500
-0.617500 19.416000
-0.595900 19.670200
-0.574200 18.010000
-0.552600 16.069500
-0.531000 14.608600
-0.509300 22.848700
-0.487700 22.010700
-0.466000 21.242200
-0.444400 22.144900
-0.422700 17.948200
-0.401100 21.025900
-0.379500 25.417100
-0.357800 22.076200
-0.336200 12.557000
-0.314500 12.126800
-0.292900 14.252800
-0.271300 15.189700
-0.249600 14.471000
-0.228000 15.197200
-0.206300 18.409100
-0.184700 16.757200
-0.163000 17.652100
-0.141400 18.061800
-0.119800 16.681800
-0.098100 16.275800
-0.076500 14.387000
-0.054800 18.718800
-0.033200 16.733500
-0.011500 13.027200
0.010100 13.568200
0.031700 14.763100
0.053400 20.810400
0.075000 18.275300
0.096700 19.030500
0.118300 15.553200
0.140000 14.090800
0.161600 20.224800
0.183200 20.585600
0.204900 19.186500
0.226500 18.848200
0.248200 18.735100
0.269800 10.732100
0.291400 7.437400
0.313100 8.971000
0.334700 13.683700
0.356400 17.673000
0.378000 19.906400
0.399700 18.029000
0.421300 11.345000
0.442900 11.333900
0.464600 13.166100
0.486200 14.604800
0.507900 15.160400
0.529500 16.986900
0.551200 17.580000
0.572800 14.705200
0.594400 14.594300
0.616100 16.122000
0.637700 16.912000
0.659400 16.192800
0.681000 14.394600
0.702600 11.582900
0.724300 11.069200
0.745900 11.660700
0.767600 13.646300
0.789200 14.708700
0.810900 23.801000
0.832500 27.760200
0.854100 14.707200
0.875800 12.757900
0.897400 11.772000
0.919100 14.979600
0.940700 33.414400
0.962400 20.797400
0.984000 10.257600
1.005600 14.434900
1.027300 23.671500
1.048900 21.178600
1.070600 11.199200
1.092200 9.545700
1.113800 20.535400
1.135500 24.632300
1.157100 13.248300
1.178800 21.706200
1.200400 22.335000
1.222100 23.641400
1.243700 13.926100
1.265300 13.658400
1.287000 15.476600
1.308600 19.113300
1.330300 18.893200
1.351900 15.607000
1.373600 15.902700
1.395200 15.110000
1.416800 15.916600
1.438500 16.923400
1.460100 18.599800
1.481800 20.524600
1.503400 17.312300
1.525100 15.377500
1.546700 17.298400
1.568300 23.313400
1.590000 21.812100
1.611600 22.427100
1.633300 22.591600
1.654900 17.729200
1.676500 16.547700
1.698200 15.084200
1.719800 11.750400
1.741500 12.019100
1.763100 10.987400
1.784800 8.189000
1.806400 4.260900
1.828000 2.475600
1.849700 1.265100
1.871300 0.502500
1.893000 0.075200
1.914600 0.000000
1.936300 0.000000
1.957900 0.000000
1.979500 0.000000
2.001200 0.000000
2.022800 0.000000
2.044500 0.000000
2.066100 0.000000
2.087700 0.000000
2.109400 0.000000
2.131000 0.000000
2.152700 0.000000
2.174300 0.000000
2.196000 0.000000
2.217600 0.000000
2.239200 0.000000
2.260900 0.000000
2.282500 0.000000
2.304200 0.000000
2.325800 0.000000
2.347500 0.000000
2.369100 0.000000
2.390700 0.000000
2.412400 0.000000
2.434000 0.000000
2.455700 0.000000
2.477300 0.000000
2.498900 0.000000
2.520600 0.000000
2.542200 0.000000
2.563900 0.000000
2.585500 0.000000
2.607200 0.000000
2.628800 0.000000
2.650400 0.000000
2.672100 0.000000
2.693700 0.000000
2.715400 0.000000
2.737000 0.000000
2.758700 0.000000
2.780300 0.000000
2.801900 0.000000
2.823600 0.000000
2.845200 0.000000
2.866900 0.000000
2.888500 0.000000
2.910200 0.000000
2.931800 0.000000
2.953400 0.000000
2.975100 0.000000
2.996700 0.000000
3.018400 0.000000
3.040000 0.000000
3.061600 0.000000
3.083300 0.000000
3.104900 0.000000
3.126600 0.000000
3.148200 0.000000
3.169900 0.000000
3.191500 0.000000
3.213100 0.000000
3.234800 0.000000
3.256400 0.000000
3.278100 0.000000
3.299700 0.000000
3.321400 0.000000
3.343000 0.000000
3.364600 0.000000
3.386300 0.000000
3.407900 0.000000
3.429600 0.000000
3.451200 0.000000
3.472800 0.000000
3.494500 0.000000
3.516100 0.000000
3.537800 0.000000
3.559400 0.000000
3.581100 0.000000
3.602700 0.000000
3.624300 0.000000
3.646000 0.000000
3.667600 0.000000
3.689300 0.000000
3.710900 0.000000
3.732600 0.000000
3.754200 0.000000
3.775800 0.000000
3.797500 0.000000
3.819100 0.000000
3.840800 0.000000
3.862400 0.000000
3.884000 0.000000
3.905700 0.000000
3.927300 0.000000
3.949000 0.000000
3.970600 0.000000
3.992300 0.000000
4.013900 0.000000
4.035500 0.000000
4.057200 0.000000
4.078800 0.000000
4.100500 0.000000
4.122100 0.000000
4.143800 0.000000
4.165400 0.000000
4.187000 0.000000
4.208700 0.000000
4.230300 0.000000
4.252000 0.000000
4.273600 0.000000
4.295300 0.000000
4.316900 0.000000
4.338500 0.000000
4.360200 0.000000
4.381800 0.000000
4.403500 0.000000
4.425100 0.000000
4.446700 0.000000
4.468400 0.000000
4.490000 0.000000
4.511700 0.000000
4.533300 0.000000
4.555000 0.000000
4.576600 0.000000
4.598200 0.000000
4.619900 0.000000
4.641500 0.000000
4.663200 0.000000
4.684800 0.000000
4.706500 0.000000
4.728100 0.000000
4.749700 0.000000
4.771400 0.000000
4.793000 0.000000
4.814700 0.000000
4.836300 0.000000
4.857900 0.000000
4.879600 0.000000
4.901200 0.000000
4.922900 0.000000
4.944500 0.000000
4.966200 0.000000
4.987800 0.000000
5.009400 0.000000
5.031100 0.000000
5.052700 0.000000
5.074400 0.000000
5.096000 0.000000
5.117700 0.000000
5.139300 0.000000
5.160900 0.000000
5.182600 0.000000
5.204200 0.000000
5.225900 0.000000
5.247500 0.000000
5.269100 0.000000
5.290800 0.000000
5.312400 0.000000
5.334100 0.000000
5.355700 0.000000
5.377400 0.000000
5.399000 0.000000
5.420600 0.000000
5.442300 0.000000
5.463900 0.000000
5.485600 0.000000
5.507200 0.000000
5.528900 0.000000
5.550500 0.000000
5.572100 0.000000
5.593800 0.000000
5.615400 0.000000
5.637100 0.000000
5.658700 0.000000
5.680300 0.000000
5.702000 0.000000
5.723600 0.000000
5.745300 0.000000
5.766900 0.000000
5.788600 0.000000
5.810200 0.000000
5.831800 0.000000
5.853500 0.000000
5.875100 0.000000
5.896800 0.000000
5.918400 0.000000
5.940100 0.000000
5.961700 0.000000
5.983300 0.000000
6.005000 0.000000
6.026600 0.000000
6.048300 0.000000
6.069900 0.000000
6.091600 0.000000
6.113200 0.013300
6.134800 0.067800
6.156500 0.139700
6.178100 0.236300
6.199800 0.361100
6.221400 0.514100
6.243000 0.688600
6.264700 0.850200
6.286300 1.005200
6.308000 1.157500
6.329600 1.306900
6.351300 1.453900
6.372900 1.603300
6.394500 1.757000
6.416200 1.902200
6.437800 2.046400
6.459500 2.191900
6.481100 2.278300
6.502800 2.326900
6.524400 2.365600
6.546000 2.395200
6.567700 2.356400
6.589300 2.298600
6.611000 2.277500
6.632600 2.293100
6.654200 2.340100
6.675900 2.387400
6.697500 2.386100
6.719200 2.378900
6.740800 2.534000
6.762500 2.792200
6.784100 3.046500
6.805700 3.255400
6.827400 3.447200
6.849000 3.755300
6.870700 4.670700
6.892300 5.661600
6.914000 5.916700
6.935600 5.728800
6.957200 5.316200
6.978900 5.048900
7.000500 4.824600
7.022200 4.766100
7.043800 4.752600
7.065400 4.663100
7.087100 4.591400
7.108700 4.488500
7.130400 4.703300
7.152000 5.008100
7.173700 5.467300
7.195300 5.862600
7.216900 6.227300
7.238600 6.563000
7.260200 6.881700
7.281900 7.438700
7.303500 8.612200
7.325200 9.643600
7.346800 9.384100
7.368400 9.473700
7.390100 8.935200
7.411700 7.774700
7.433400 7.142200
7.455000 7.100900
7.476700 7.119200
7.498300 7.003800
7.519900 7.388100
7.541600 7.691400
7.563200 8.954400
7.584900 7.673800
7.606500 7.365500
7.628100 6.650100
7.649800 6.301000
7.671400 6.068900
7.693100 5.948400
7.714700 5.665700
7.736400 4.197000
7.758000 3.637300
7.779600 3.585900
7.801300 3.613900
7.822900 3.709500
7.844600 3.900500
7.866200 4.307500
7.887900 5.044100
7.909500 6.369300
7.931100 7.789100
7.952800 9.243000
7.974400 11.131200
7.996100 12.576300
8.017700 10.658000
8.039300 8.770400
8.061000 5.724700
8.082600 6.046800
8.104300 6.465000
8.125900 8.140000
8.147600 8.752500
8.169200 6.068100
8.190800 3.201100
8.212500 3.695700
8.234100 4.392500
8.255800 5.167100
8.277400 6.233600
8.299100 7.480800
8.320700 9.102000
8.342300 10.359300
8.364000 10.528300
8.385600 10.655100
8.407300 10.578400
8.428900 10.394000
8.450500 11.169300
8.472200 13.683000
8.493800 13.155100
8.515500 13.464000
8.537100 12.911800
8.558800 12.925800
8.580400 12.813300
8.602000 11.175900
8.623700 11.262400
8.645300 11.578100
8.667000 13.504500
8.688600 12.581200
8.710300 12.060100
8.731900 12.066700
8.753500 12.254600
8.775200 13.382500
8.796800 11.973200
8.818500 11.162900
8.840100 9.808800
8.861800 10.492800
8.883400 10.542000
8.905000 10.249400
8.926700 10.611400
8.948300 10.384200
8.970000 10.380400
8.991600 11.809800
9.013200 11.408300
9.034900 12.281500
9.056500 12.556200
9.078200 11.696900
9.099800 9.544600
9.121500 7.987400
9.143100 9.596700
9.164700 9.764700
9.186400 9.977200
9.208000 8.594100
9.229700 6.173600
9.251300 6.025100
9.273000 8.653000
9.294600 11.210100
9.316200 10.551800
9.337900 9.984800
9.359500 8.815900
9.381200 7.255800
9.402800 8.356000
9.424400 10.804000
9.446100 15.161700
9.467700 16.986400
9.489400 16.344100
9.511000 14.391200
9.532700 12.715600
9.554300 11.202000
9.575900 9.839700
9.597600 10.704600
9.619200 15.171100
9.640900 14.653000
9.662500 14.451300
9.684200 13.370800
9.705800 11.454800
9.727400 10.932400
9.749100 11.646200
9.770700 13.328800
9.792400 15.224900
9.814000 18.433000
9.835600 17.748300
9.857300 10.572100
9.878900 10.791500
9.900600 12.873300
9.922200 14.345600
9.943900 14.690900
9.965500 11.034300
9.987100 10.473400
10.008800 10.117500
10.030400 9.971300
10.052100 10.623200
10.073700 10.913800
10.095400 11.806300
10.117000 11.295000
10.138600 10.098500
10.160300 8.954200
10.181900 8.801000
10.203600 7.708500
10.225200 7.756100
10.246900 8.079400
10.268500 8.410800
10.290100 9.054000
10.311800 9.536900
10.333400 10.951700
10.355100 14.271600
10.376700 12.902600
10.398300 12.184500
10.420000 12.904300
10.441600 11.964100
10.463300 11.309700
10.484900 11.040300
10.506600 11.295900
10.528200 11.653600
10.549800 12.004700
10.571500 11.379700
10.593100 10.544700
10.614800 9.649300
10.636400 8.877600
10.658100 9.229600
10.679700 11.761300
10.701300 10.820300
10.723000 10.079300
10.744600 9.783700
10.766300 9.656500
10.787900 9.614600
10.809500 9.643200
10.831200 9.166100
10.852800 8.137300
10.874500 7.584600
10.896100 7.609800
10.917800 7.957800
10.939400 8.680200
10.961000 10.505000
10.982700 11.901200
11.004300 10.366800
11.026000 9.396100
11.047600 9.115800
11.069300 8.821500
11.090900 9.683700
11.112500 11.093900
11.134200 13.715200
11.155800 15.419700
11.177500 15.724200
11.199100 15.421000
11.220700 11.925100
11.242400 11.838800
11.264000 16.507100
11.285700 12.820200
11.307300 11.891800
11.329000 11.533800
11.350600 12.974800
11.372200 13.793600
11.393900 12.990200
11.415500 10.097700
11.437200 8.951400
11.458800 8.920500
11.480500 10.075100
11.502100 10.725300
11.523700 10.817100
11.545400 11.599100
11.567000 12.863800
11.588700 13.554200
11.610300 10.641000
11.632000 9.101200
11.653600 11.854900
11.675200 11.468700
11.696900 11.422100
11.718500 8.311200
11.740200 7.017200
11.761800 6.294300
11.783400 6.220500
11.805100 6.208100
11.826700 6.515700
11.848400 7.712700
11.870000 8.707300
11.891700 9.606400
11.913300 9.773500
11.934900 9.689000
11.956600 8.409600
11.978200 10.887100
11.999900 6.999100
12.021500 6.333800
12.043200 9.262400
12.064800 11.664300
12.086400 14.067900
12.108100 14.425200
12.129700 13.405300
12.151400 11.559900
12.173000 10.243600
12.194600 11.356000
12.216300 12.592900
12.237900 12.326200
12.259600 11.058300
12.281200 11.831800
12.302900 12.514100
12.324500 10.863200
12.346100 8.829400
12.367800 7.529500
12.389400 6.526000
12.411100 6.367500
12.432700 6.515000
12.454400 5.972700
12.476000 6.578200
12.497600 6.799300
12.519300 6.895700
12.540900 7.604300
12.562600 8.974000
12.584200 9.784300
12.605800 9.717600
12.627500 9.624500
12.649100 9.722900
12.670800 8.724900
12.692400 7.489700
12.714100 6.649600
12.735700 6.498600
12.757300 6.457400
12.779000 6.459400
12.800600 6.392900
12.822300 6.273000
12.843900 6.177300
12.865600 7.531400
12.887200 10.621900
12.908800 10.289700
12.930500 7.929800
12.952100 5.894500
12.973800 5.443200
12.995400 5.282300
13.017100 5.319700
13.038700 5.453100
13.060300 5.676600
13.082000 6.032700
13.103600 6.524000
13.125300 7.107300
13.146900 7.520800
13.168500 8.210100
13.190200 9.176400
13.211800 8.961300
13.233500 8.762400
13.255100 8.763300
13.276800 8.719400
13.298400 8.929300
13.320000 8.620200
13.341700 8.375900
13.363300 8.186800
13.385000 7.725900
13.406600 8.514100
13.428300 10.169600
13.449900 10.953100
13.471500 11.088600
13.493200 9.188800
13.514800 8.946000
13.536500 10.240500
13.558100 9.266700
13.579700 8.968900
13.601400 7.418800
13.623000 7.090400
13.644700 7.060200
13.666300 7.451300
13.688000 7.928600
13.709600 8.184600
13.731200 7.658800
13.752900 6.859400
13.774500 6.628800
13.796200 6.449700
13.817800 6.065600
13.839500 5.501300
13.861100 5.202300
13.882700 4.905300
13.904400 4.735200
13.926000 4.641300
13.947700 4.525800
13.969300 4.370200
13.990900 4.204700
14.012600 4.057800
14.034200 3.865900
14.055900 3.769700
14.077500 3.692200
14.099200 3.618900
14.120800 3.570100
14.142400 3.570300
14.164100 3.636800
14.185700 3.762100
14.207400 3.882200
14.229000 3.983900
14.250700 4.211500
14.272300 4.764700
14.293900 4.408000
14.315600 4.435300
14.337200 4.445300
14.358900 4.445400
14.380500 4.444900
14.402200 4.445200
14.423800 4.445800
14.445400 4.446700
14.467100 4.439300
14.488700 4.432600
14.510400 4.421100
14.532000 4.399400
14.553600 4.367700
14.575300 4.335600
14.596900 4.247300
14.618600 4.176200
14.640200 4.141100
14.661900 4.137500
14.683500 4.160400
14.705100 4.244300
14.726800 4.413600
14.748400 4.585700
14.770100 4.742100
14.791700 4.907800
14.813400 5.037400
14.835000 5.159400
14.856600 5.299200
14.878300 5.378200
14.899900 5.140900
14.921600 4.864200
14.943200 4.754000
14.964800 4.748700
14.986500 4.831500
15.008100 4.889000
15.029800 4.912700
15.051400 5.026200
15.073100 5.062700
15.094700 5.115200
15.116300 5.194900
15.138000 5.689900
15.159600 5.466900
15.181300 5.647700
15.202900 5.917800
15.224600 6.225200
15.246200 6.533400
15.267800 6.727800
15.289500 6.509900
15.311100 5.970400
15.332800 5.194100
15.354400 4.448000
15.376000 4.761900
15.397700 5.069900
15.419300 5.295900
15.441000 5.493300
15.462600 5.788200
15.484300 5.880700
15.505900 7.776900
15.527500 7.941900
15.549200 7.751800
15.570800 7.361000
15.592500 6.654600
15.614100 5.831300
15.635800 5.581100
15.657400 5.810600
15.679000 5.572100
15.700700 5.248000
15.722300 4.928000
15.744000 4.595700
15.765600 4.344200
15.787200 4.218200
15.808900 4.295200
15.830500 4.597000
15.852200 5.177800
15.873800 6.245900
15.895500 7.886100
15.917100 10.431400
15.938700 11.262600
15.960400 7.928900
15.982000 6.020300
16.003700 4.308600
16.025300 3.007700
16.047000 2.111400
16.068600 2.414500
16.090200 2.574300
16.111900 2.795300
16.133500 3.052700
16.155200 3.235300
16.176800 3.327400
16.198500 3.383200
16.220100 3.467800
16.241700 3.555800
16.263400 3.652700
16.285000 3.702500
16.306700 3.738000
16.328300 3.760000
16.349900 3.769200
16.371600 3.766000
16.393200 3.840000
16.414900 4.003000
16.436500 4.088700
16.458200 4.119400
16.479800 4.135300
16.501400 4.185100
16.523100 4.288700
16.544700 4.379700
16.566400 4.564300
16.588000 4.792200
16.609700 5.029400
16.631300 4.909900
16.652900 4.916100
16.674600 4.971500
16.696200 5.046700
16.717900 5.153600
16.739500 5.290400
16.761100 5.160400
16.782800 4.896000
16.804400 4.765700
16.826100 4.243100
16.847700 3.808800
16.869400 3.720400
16.891000 3.686800
16.912600 3.793300
16.934300 4.546200
16.955900 4.929100
16.977600 5.037900
16.999200 5.035400
17.020900 4.949300
17.042500 4.712200
17.064100 4.409000
17.085800 4.081200
17.107400 3.790200
17.129100 3.507500
17.150700 3.237800
17.172300 3.054400
17.194000 2.980300
17.215600 3.005100
17.237300 3.019600
17.258900 2.988300
17.280600 2.923500
17.302200 2.910100
17.323800 2.968900
17.345500 2.986100
17.367100 2.949300
17.388800 2.911100
17.410400 2.873800
17.432100 2.824800
17.453700 2.805700
17.475300 2.967900
17.497000 3.060000
17.518600 2.157600
17.540300 1.706000
17.561900 1.569600
17.583600 1.428900
17.605200 1.284600
17.626800 1.144900
17.648500 1.011300
17.670100 0.883100
17.691800 0.757500
17.713400 0.694800
17.735000 0.657000
17.756700 0.619500
17.778300 0.582300
17.800000 0.545200
17.821600 0.507500
17.843300 0.492700
17.864900 0.363500
17.886500 0.254000
17.908200 0.164000
17.929800 0.093600
17.951500 0.042800
17.973100 0.011700
17.994800 0.000100
18.016400 0.000000
18.038000 0.000000
18.059700 0.000000
18.081300 0.000000
18.103000 0.000000
18.124600 0.000000
18.146200 0.000000
18.167900 0.000000
18.189500 0.000000
18.211200 0.000000
18.232800 0.000000
18.254500 0.000000
18.276100 0.000000
18.297700 0.000000
18.319400 0.000000
18.341000 0.000000
18.362700 0.000000
18.384300 0.000000
18.406000 0.000000
18.427600 0.000000
18.449200 0.000000
18.470900 0.000000
18.492500 0.000000
18.514200 0.000000
18.535800 0.000000
18.557400 0.000000
18.579100 0.000000
18.600700 0.000000
18.622400 0.000000
18.644000 0.000000
18.665700 0.000000
18.687300 0.000000
18.708900 0.000000
18.730600 0.000000
18.752200 0.000000
18.773900 0.000000
18.795500 0.000000
18.817200 0.000000
18.838800 0.000000
18.860400 0.000000
18.882100 0.000000
18.903700 0.000000
18.925400 0.000000
18.947000 0.000000
18.968700 0.000000
18.990300 0.000000
19.011900 0.000000
19.033600 0.000000
19.055200 0.000000
19.076900 0.000000
19.098500 0.000000
19.120100 0.000000
19.141800 0.000000
19.163400 0.000000
19.185100 0.000000
19.206700 0.000000
19.228400 0.000000
19.250000 0.000000
19.271600 0.000000
19.293300 0.000000
19.314900 0.000000
19.336600 0.000000
19.358200 0.000000
19.379900 0.000000
19.401500 0.000000
19.423100 0.000000
19.444800 0.000000
19.466400 0.000000
19.488100 0.000000
19.509700 0.000000
19.531300 0.000000
19.553000 0.000000
19.574600 0.000000
19.596300 0.000000
19.617900 0.000000
19.639600 0.000000
19.661200 0.000000
19.682800 0.000000
19.704500 0.000000
19.726100 0.000000
19.747800 0.000000
19.769400 0.000000
19.791100 0.000000
19.812700 0.000000
19.834300 0.000000
19.856000 0.000000
19.877600 0.000000
19.899300 0.000000
19.920900 0.000000
19.942500 0.000000
19.964200 0.000000
e
