set title 'mp-1088 - Density of States'
set xlabel 'Energy (eV)'
set ylabel 'DOS (states/eV)'
set grid
set xrange [-10:10]
set yrange [0:5.349]
set xzeroaxis lt -1
set terminal png size 800,600
set output 'mp-1088_dos_gnuplot.png'
plot '-' using 1:2 with lines title 'DOS'
-21.067400 0.000000
-21.049300 0.000000
-21.031200 0.000000
-21.013100 0.000000
-20.995000 0.000000
-20.976900 0.000000
-20.958700 0.000000
-20.940600 0.000000
-20.922500 0.000000
-20.904400 0.000000
-20.886300 0.000000
-20.868200 0.000000
-20.850100 0.000000
-20.832000 0.000000
-20.813800 0.000000
-20.795700 0.000000
-20.777600 0.000000
-20.759500 0.000000
-20.741400 0.000000
-20.723300 0.000000
-20.705200 0.000000
-20.687100 0.000000
-20.668900 0.000000
-20.650800 0.000000
-20.632700 0.000000
-20.614600 0.000000
-20.596500 0.000000
-20.578400 0.000000
-20.560300 0.000000
-20.542200 0.000000
-20.524000 0.000000
-20.505900 0.000000
-20.487800 0.000000
-20.469700 0.000000
-20.451600 0.000000
-20.433500 0.000000
-20.415400 0.000000
-20.397300 0.000000
-20.379100 0.000000
-20.361000 0.000000
-20.342900 0.000000
-20.324800 0.000000
-20.306700 0.000000
-20.288600 0.000000
-20.270500 0.000000
-20.252400 0.000000
-20.234200 0.000000
-20.216100 0.000000
-20.198000 0.000000
-20.179900 0.000000
-20.161800 0.000000
-20.143700 0.000000
-20.125600 0.000000
-20.107500 0.000000
-20.089300 0.000000
-20.071200 0.000000
-20.053100 0.000000
-20.035000 0.000000
-20.016900 0.000000
-19.998800 0.000000
-19.980700 0.000000
-19.962600 0.000000
-19.944400 0.000000
-19.926300 0.000000
-19.908200 0.000000
-19.890100 0.000000
-19.872000 0.000000
-19.853900 0.000000
-19.835800 0.000000
-19.817600 0.000000
-19.799500 0.000000
-19.781400 0.000000
-19.763300 0.000000
-19.745200 0.000000
-19.727100 0.000000
-19.709000 0.000000
-19.690900 0.000000
-19.672700 0.000000
-19.654600 0.000000
-19.636500 0.000000
-19.618400 0.000000
-19.600300 0.000000
-19.582200 0.000000
-19.564100 0.000000
-19.546000 0.000000
-19.527800 0.000000
-19.509700 0.000000
-19.491600 0.000000
-19.473500 0.000000
-19.455400 0.000000
-19.437300 0.000000
-19.419200 39.807800
-19.401100 59.672900
-19.382900 56.664500
-19.364800 62.058800
-19.346700 0.000000
-19.328600 0.000000
-19.310500 0.000000
-19.292400 0.000000
-19.274300 0.000000
-19.256200 0.000000
-19.238000 0.000000
-19.219900 0.000000
-19.201800 0.000000
-19.183700 0.000000
-19.165600 0.000000
-19.147500 0.000000
-19.129400 0.000000
-19.111300 0.000000
-19.093100 0.000000
-19.075000 0.000000
-19.056900 0.000000
-19.038800 0.000000
-19.020700 0.000000
-19.002600 0.000000
-18.984500 0.000000
-18.966400 0.000000
-18.948200 0.000000
-18.930100 0.000000
-18.912000 0.000000
-18.893900 0.000000
-18.875800 0.000000
-18.857700 0.000000
-18.839600 0.000000
-18.821400 0.000000
-18.803300 0.000000
-18.785200 0.000000
-18.767100 0.000000
-18.749000 0.000000
-18.730900 0.000000
-18.712800 0.000000
-18.694700 0.000000
-18.676500 0.000000
-18.658400 0.000000
-18.640300 0.000000
-18.622200 0.000000
-18.604100 0.000000
-18.586000 0.000000
-18.567900 0.000000
-18.549800 0.000000
-18.531600 0.000000
-18.513500 0.000000
-18.495400 0.000000
-18.477300 0.000000
-18.459200 0.000000
-18.441100 0.000000
-18.423000 0.000000
-18.404900 0.000000
-18.386700 0.000000
-18.368600 0.000000
-18.350500 0.000000
-18.332400 0.000000
-18.314300 0.000000
-18.296200 0.000000
-18.278100 0.000000
-18.260000 0.000000
-18.241800 0.000000
-18.223700 0.000000
-18.205600 0.000000
-18.187500 0.000000
-18.169400 0.000000
-18.151300 0.000000
-18.133200 0.000000
-18.115100 0.000000
-18.096900 0.000000
-18.078800 0.000000
-18.060700 0.000000
-18.042600 0.000000
-18.024500 0.000000
-18.006400 0.000000
-17.988300 0.000000
-17.970200 0.000000
-17.952000 0.000000
-17.933900 0.000000
-17.915800 0.000000
-17.897700 0.000000
-17.879600 0.000000
-17.861500 0.000000
-17.843400 0.000000
-17.825300 0.000000
-17.807100 0.000000
-17.789000 0.000000
-17.770900 0.000000
-17.752800 0.000000
-17.734700 0.000000
-17.716600 0.000000
-17.698500 0.000000
-17.680300 0.000000
-17.662200 0.000000
-17.644100 0.000000
-17.626000 0.000000
-17.607900 0.000000
-17.589800 0.000000
-17.571700 0.000000
-17.553600 0.000000
-17.535400 0.000000
-17.517300 0.000000
-17.499200 0.000000
-17.481100 0.000000
-17.463000 0.000000
-17.444900 0.000000
-17.426800 0.000000
-17.408700 0.000000
-17.390500 0.000000
-17.372400 0.000000
-17.354300 0.000000
-17.336200 0.000000
-17.318100 0.000000
-17.300000 0.000000
-17.281900 0.000000
-17.263800 0.000000
-17.245600 0.000000
-17.227500 0.000000
-17.209400 0.000000
-17.191300 0.000000
-17.173200 0.000000
-17.155100 0.000000
-17.137000 0.000000
-17.118900 0.000000
-17.100700 0.000000
-17.082600 0.000000
-17.064500 0.000000
-17.046400 0.000000
-17.028300 0.000000
-17.010200 0.000000
-16.992100 0.000000
-16.974000 0.000000
-16.955800 0.000000
-16.937700 0.000000
-16.919600 0.000000
-16.901500 0.000000
-16.883400 0.000000
-16.865300 0.000000
-16.847200 0.000000
-16.829100 0.000000
-16.810900 0.000000
-16.792800 0.000000
-16.774700 0.000000
-16.756600 0.000000
-16.738500 0.000000
-16.720400 0.000000
-16.702300 0.000000
-16.684100 0.000000
-16.666000 0.000000
-16.647900 0.000000
-16.629800 0.000000
-16.611700 0.000000
-16.593600 0.000000
-16.575500 0.000000
-16.557400 0.000000
-16.539200 0.000000
-16.521100 0.000000
-16.503000 0.000000
-16.484900 0.000000
-16.466800 0.000000
-16.448700 0.000000
-16.430600 0.000000
-16.412500 0.000000
-16.394300 0.000000
-16.376200 0.000000
-16.358100 0.000000
-16.340000 0.000000
-16.321900 0.000000
-16.303800 0.000000
-16.285700 0.000000
-16.267600 0.000000
-16.249400 0.000000
-16.231300 0.000000
-16.213200 0.000000
-16.195100 0.000000
-16.177000 0.000000
-16.158900 0.000000
-16.140800 0.000000
-16.122700 0.000000
-16.104500 0.000000
-16.086400 0.000000
-16.068300 0.000000
-16.050200 0.000000
-16.032100 0.000000
-16.014000 0.000000
-15.995900 0.000000
-15.977800 0.000000
-15.959600 0.000000
-15.941500 0.000000
-15.923400 0.000000
-15.905300 0.000000
-15.887200 0.000000
-15.869100 0.000000
-15.851000 0.000000
-15.832900 0.000000
-15.814700 0.000000
-15.796600 0.000000
-15.778500 0.000000
-15.760400 0.000000
-15.742300 0.000000
-15.724200 0.000000
-15.706100 0.000000
-15.688000 0.000000
-15.669800 0.000000
-15.651700 0.000000
-15.633600 0.000000
-15.615500 0.000000
-15.597400 0.000000
-15.579300 0.000000
-15.561200 0.000000
-15.543000 0.000000
-15.524900 0.000000
-15.506800 0.000000
-15.488700 0.000000
-15.470600 0.000000
-15.452500 0.000000
-15.434400 0.000000
-15.416300 0.000000
-15.398100 0.000000
-15.380000 0.000000
-15.361900 0.000000
-15.343800 0.000000
-15.325700 0.000000
-15.307600 0.000000
-15.289500 0.000000
-15.271400 0.000000
-15.253200 0.000000
-15.235100 0.000000
-15.217000 0.000000
-15.198900 0.000000
-15.180800 0.000000
-15.162700 0.000000
-15.144600 0.000000
-15.126500 0.000000
-15.108300 0.000000
-15.090200 0.000000
-15.072100 0.000000
-15.054000 0.000000
-15.035900 0.000000
-15.017800 0.000000
-14.999700 0.000000
-14.981600 0.000000
-14.963400 0.000000
-14.945300 0.000000
-14.927200 0.000000
-14.909100 0.000000
-14.891000 0.000000
-14.872900 0.000000
-14.854800 0.000000
-14.836700 0.000000
-14.818500 0.000000
-14.800400 0.000000
-14.782300 0.000000
-14.764200 0.000000
-14.746100 0.000000
-14.728000 0.000000
-14.709900 0.000000
-14.691800 0.000000
-14.673600 0.000000
-14.655500 0.000000
-14.637400 0.000000
-14.619300 0.000000
-14.601200 0.000000
-14.583100 0.000000
-14.565000 0.000000
-14.546800 0.000000
-14.528700 0.000000
-14.510600 0.000000
-14.492500 0.000000
-14.474400 0.000000
-14.456300 0.000000
-14.438200 0.000000
-14.420100 0.000000
-14.401900 0.000000
-14.383800 0.000000
-14.365700 0.000000
-14.347600 0.000000
-14.329500 0.000000
-14.311400 0.000000
-14.293300 0.000000
-14.275200 0.000000
-14.257000 0.000000
-14.238900 0.000000
-14.220800 0.000000
-14.202700 0.000000
-14.184600 0.000000
-14.166500 0.000000
-14.148400 0.000000
-14.130300 0.000000
-14.112100 0.000000
-14.094000 0.000000
-14.075900 0.000000
-14.057800 0.000000
-14.039700 0.000000
-14.021600 0.000000
-14.003500 0.000000
-13.985400 0.000000
-13.967200 0.000000
-13.949100 0.000000
-13.931000 0.000000
-13.912900 0.000000
-13.894800 0.000000
-13.876700 0.000000
-13.858600 0.000000
-13.840500 0.000000
-13.822300 0.000000
-13.804200 0.000000
-13.786100 0.000000
-13.768000 0.000000
-13.749900 0.000000
-13.731800 0.000000
-13.713700 0.000000
-13.695600 0.000000
-13.677400 0.000000
-13.659300 0.000000
-13.641200 0.000000
-13.623100 0.000000
-13.605000 0.000000
-13.586900 0.000000
-13.568800 0.000000
-13.550700 0.000000
-13.532500 0.000000
-13.514400 0.000000
-13.496300 0.000000
-13.478200 0.000000
-13.460100 0.000000
-13.442000 0.000000
-13.423900 0.000000
-13.405700 0.000000
-13.387600 0.000000
-13.369500 0.000000
-13.351400 0.000000
-13.333300 0.000000
-13.315200 0.000000
-13.297100 0.000000
-13.279000 0.000000
-13.260800 0.000000
-13.242700 0.000000
-13.224600 0.000000
-13.206500 0.000000
-13.188400 0.000000
-13.170300 0.000000
-13.152200 0.000000
-13.134100 0.000000
-13.115900 0.000000
-13.097800 0.000000
-13.079700 0.000000
-13.061600 0.000000
-13.043500 0.000000
-13.025400 0.000000
-13.007300 0.000000
-12.989200 0.000000
-12.971000 0.000000
-12.952900 0.000000
-12.934800 0.000000
-12.916700 0.000000
-12.898600 0.000000
-12.880500 0.000000
-12.862400 0.000000
-12.844300 0.000000
-12.826100 0.000000
-12.808000 0.000000
-12.789900 0.000000
-12.771800 0.000000
-12.753700 0.000000
-12.735600 0.000000
-12.717500 0.000000
-12.699400 0.000000
-12.681200 0.000000
-12.663100 0.000000
-12.645000 0.000000
-12.626900 0.000000
-12.608800 0.000000
-12.590700 0.000000
-12.572600 0.000000
-12.554500 0.000000
-12.536300 0.000000
-12.518200 0.000000
-12.500100 0.000000
-12.482000 0.000000
-12.463900 0.000000
-12.445800 0.000000
-12.427700 0.000000
-12.409600 0.000000
-12.391400 0.000000
-12.373300 0.000000
-12.355200 0.000000
-12.337100 0.000000
-12.319000 0.000000
-12.300900 0.000000
-12.282800 0.000000
-12.264600 0.000000
-12.246500 0.000000
-12.228400 0.000000
-12.210300 0.000000
-12.192200 0.000000
-12.174100 0.000000
-12.156000 0.000000
-12.137900 0.000000
-12.119700 0.000000
-12.101600 0.000000
-12.083500 0.000000
-12.065400 0.000000
-12.047300 0.000000
-12.029200 0.000000
-12.011100 0.000000
-11.993000 0.000000
-11.974800 0.000000
-11.956700 0.000000
-11.938600 0.000000
-11.920500 0.000000
-11.902400 0.000000
-11.884300 0.000000
-11.866200 0.000000
-11.848100 50.517800
-11.829900 49.305900
-11.811800 11.231200
-11.793700 35.797200
-11.775600 97.036300
-11.757500 60.787000
-11.739400 24.388500
-11.721300 161.710700
-11.703200 166.790400
-11.685000 94.013300
-11.666900 73.326000
-11.648800 48.994000
-11.630700 53.382400
-11.612600 35.742800
-11.594500 22.290100
-11.576400 19.270000
-11.558300 25.020000
-11.540100 32.751100
-11.522000 38.048000
-11.503900 47.746300
-11.485800 51.526700
-11.467700 99.847800
-11.449600 68.263700
-11.431500 110.540800
-11.413400 118.393400
-11.395200 57.590600
-11.377100 72.243300
-11.359000 80.934800
-11.340900 67.635800
-11.322800 90.736300
-11.304700 51.586600
-11.286600 103.099600
-11.268400 28.160800
-11.250300 0.000000
-11.232200 0.000000
-11.214100 0.000000
-11.196000 0.000000
-11.177900 0.000000
-11.159800 0.000000
-11.141700 0.000000
-11.123500 0.000000
-11.105400 0.000000
-11.087300 0.000000
-11.069200 0.000000
-11.051100 0.000000
-11.033000 0.000000
-11.014900 0.000000
-10.996800 0.000000
-10.978600 0.000000
-10.960500 0.000000
-10.942400 0.000000
-10.924300 0.000000
-10.906200 0.000000
-10.888100 0.000000
-10.870000 0.000000
-10.851900 0.000000
-10.833700 0.000000
-10.815600 0.000000
-10.797500 0.000000
-10.779400 0.000000
-10.761300 0.000000
-10.743200 0.000000
-10.725100 0.000000
-10.707000 0.000000
-10.688800 0.000000
-10.670700 0.000000
-10.652600 0.000000
-10.634500 0.000000
-10.616400 0.000000
-10.598300 0.000000
-10.580200 0.000000
-10.562100 0.000000
-10.543900 0.000000
-10.525800 0.000000
-10.507700 0.000000
-10.489600 0.000000
-10.471500 0.000000
-10.453400 0.000000
-10.435300 0.000000
-10.417200 0.000000
-10.399000 0.000000
-10.380900 0.000000
-10.362800 0.000000
-10.344700 0.000000
-10.326600 0.000000
-10.308500 0.000000
-10.290400 0.000000
-10.272300 0.000000
-10.254100 0.000000
-10.236000 0.000000
-10.217900 0.000000
-10.199800 0.000000
-10.181700 0.000000
-10.163600 0.000000
-10.145500 0.000000
-10.127300 0.000000
-10.109200 0.000000
-10.091100 0.000000
-10.073000 0.000000
-10.054900 0.000000
-10.036800 0.000000
-10.018700 0.000000
-10.000600 0.000000
-9.982400 0.000000
-9.964300 0.000000
-9.946200 0.000000
-9.928100 0.000000
-9.910000 0.000000
-9.891900 0.000000
-9.873800 0.000000
-9.855700 0.000000
-9.837500 0.000000
-9.819400 0.000000
-9.801300 0.000000
-9.783200 0.000000
-9.765100 0.000000
-9.747000 0.000000
-9.728900 0.000000
-9.710800 0.000000
-9.692600 0.000000
-9.674500 0.000000
-9.656400 0.000000
-9.638300 0.000000
-9.620200 0.000000
-9.602100 0.000000
-9.584000 0.000000
-9.565900 0.000000
-9.547700 0.000000
-9.529600 0.000000
-9.511500 0.000000
-9.493400 0.000000
-9.475300 0.000000
-9.457200 0.000000
-9.439100 0.000000
-9.421000 0.000000
-9.402800 0.000000
-9.384700 0.000000
-9.366600 0.000000
-9.348500 0.000000
-9.330400 0.000000
-9.312300 0.000000
-9.294200 0.000000
-9.276100 0.000000
-9.257900 0.000000
-9.239800 0.000000
-9.221700 0.000000
-9.203600 0.000000
-9.185500 0.000000
-9.167400 0.000000
-9.149300 0.000000
-9.131100 0.000000
-9.113000 0.000000
-9.094900 0.000000
-9.076800 0.000000
-9.058700 0.000000
-9.040600 0.000000
-9.022500 0.000000
-9.004400 0.000000
-8.986200 0.000000
-8.968100 0.000000
-8.950000 0.000000
-8.931900 0.000000
-8.913800 0.000000
-8.895700 0.000000
-8.877600 0.000000
-8.859500 0.000000
-8.841300 0.000000
-8.823200 0.000000
-8.805100 0.000000
-8.787000 0.000000
-8.768900 0.000000
-8.750800 0.000000
-8.732700 0.000000
-8.714600 0.000000
-8.696400 0.000000
-8.678300 0.000000
-8.660200 0.000000
-8.642100 0.000000
-8.624000 0.000000
-8.605900 0.000000
-8.587800 0.000000
-8.569700 0.000000
-8.551500 0.000000
-8.533400 0.000000
-8.515300 0.000000
-8.497200 0.000000
-8.479100 0.000000
-8.461000 0.000000
-8.442900 0.000000
-8.424800 0.000000
-8.406600 0.000000
-8.388500 0.000000
-8.370400 0.000000
-8.352300 0.000000
-8.334200 0.000000
-8.316100 0.000000
-8.298000 0.000000
-8.279900 0.000000
-8.261700 0.000000
-8.243600 0.000000
-8.225500 0.000000
-8.207400 0.000000
-8.189300 0.000000
-8.171200 0.000000
-8.153100 0.000000
-8.135000 0.000000
-8.116800 0.000000
-8.098700 0.000000
-8.080600 0.000000
-8.062500 0.000000
-8.044400 0.000000
-8.026300 0.000000
-8.008200 0.000000
-7.990000 0.000000
-7.971900 0.000000
-7.953800 0.000000
-7.935700 0.000000
-7.917600 0.000000
-7.899500 0.000000
-7.881400 0.000000
-7.863300 0.000000
-7.845100 0.000000
-7.827000 0.000000
-7.808900 0.000000
-7.790800 0.000000
-7.772700 0.000000
-7.754600 0.000000
-7.736500 0.000000
-7.718400 0.000000
-7.700200 0.000000
-7.682100 0.000000
-7.664000 0.000000
-7.645900 0.000000
-7.627800 0.000000
-7.609700 0.000000
-7.591600 0.000000
-7.573500 0.000000
-7.555300 0.000000
-7.537200 0.000000
-7.519100 0.000000
-7.501000 0.000000
-7.482900 0.000000
-7.464800 0.000000
-7.446700 0.000000
-7.428600 0.000000
-7.410400 0.000000
-7.392300 0.000000
-7.374200 0.002000
-7.356100 0.036500
-7.338000 0.113900
-7.319900 0.155700
-7.301800 0.165800
-7.283700 0.188500
-7.265500 0.215700
-7.247400 0.242500
-7.229300 0.267900
-7.211200 0.284500
-7.193100 0.293600
-7.175000 0.307900
-7.156900 0.322600
-7.138800 0.339100
-7.120600 0.356300
-7.102500 0.369500
-7.084400 0.384700
-7.066300 0.400500
-7.048200 0.417200
-7.030100 0.431900
-7.012000 0.442500
-6.993800 0.452900
-6.975700 0.465900
-6.957600 0.479200
-6.939500 0.492100
-6.921400 0.504200
-6.903300 0.516100
-6.885200 0.529500
-6.867100 0.543600
-6.848900 0.558400
-6.830800 0.573700
-6.812700 0.589800
-6.794600 0.606600
-6.776500 0.622300
-6.758400 0.637000
-6.740300 0.653100
-6.722200 0.670100
-6.704000 0.689100
-6.685900 0.711400
-6.667800 0.738600
-6.649700 0.798400
-6.631600 0.814200
-6.613500 0.794500
-6.595400 0.795600
-6.577300 0.803600
-6.559100 0.808600
-6.541000 0.812700
-6.522900 0.807300
-6.504800 0.802700
-6.486700 0.806900
-6.468600 0.812200
-6.450500 0.814300
-6.432400 0.815100
-6.414200 0.815800
-6.396100 0.816500
-6.378000 0.816900
-6.359900 0.815000
-6.341800 0.809400
-6.323700 0.810100
-6.305600 0.812300
-6.287500 0.814000
-6.269300 0.815300
-6.251200 0.816500
-6.233100 0.817700
-6.215000 0.820500
-6.196900 0.823400
-6.178800 0.826200
-6.160700 0.827900
-6.142600 0.828300
-6.124400 0.827100
-6.106300 0.826300
-6.088200 0.827600
-6.070100 0.828800
-6.052000 0.829400
-6.033900 0.830300
-6.015800 0.831300
-5.997700 0.832900
-5.979500 0.834900
-5.961400 0.836800
-5.943300 0.838700
-5.925200 0.840800
-5.907100 0.843200
-5.889000 0.845400
-5.870900 0.847400
-5.852700 0.848900
-5.834600 0.849500
-5.816500 0.849200
-5.798400 0.850400
-5.780300 0.852600
-5.762200 0.855100
-5.744100 0.857900
-5.726000 0.860900
-5.707800 0.864300
-5.689700 0.868200
-5.671600 0.872200
-5.653500 0.876200
-5.635400 0.880800
-5.617300 0.886400
-5.599200 0.893000
-5.581100 0.901400
-5.562900 0.912300
-5.544800 0.926600
-5.526700 0.943900
-5.508600 0.963800
-5.490500 1.001100
-5.472400 1.045800
-5.454300 1.084400
-5.436200 1.105100
-5.418000 1.099800
-5.399900 1.091500
-5.381800 1.079500
-5.363700 1.063500
-5.345600 1.045000
-5.327500 1.025900
-5.309400 1.004100
-5.291300 0.980100
-5.273100 0.956500
-5.255000 0.930800
-5.236900 0.900000
-5.218800 0.845800
-5.200700 0.794700
-5.182600 0.762300
-5.164500 0.731800
-5.146400 0.705400
-5.128200 0.681800
-5.110100 0.662500
-5.092000 0.645400
-5.073900 0.628300
-5.055800 0.612800
-5.037700 0.597000
-5.019600 0.579700
-5.001500 0.593800
-4.983300 0.626800
-4.965200 0.658700
-4.947100 0.688400
-4.929000 0.725800
-4.910900 0.774400
-4.892800 0.855400
-4.874700 0.913200
-4.856500 0.997600
-4.838400 1.060000
-4.820300 1.118600
-4.802200 1.153300
-4.784100 1.187400
-4.766000 1.222300
-4.747900 1.247700
-4.729800 1.265500
-4.711600 1.278500
-4.693500 1.304200
-4.675400 1.328900
-4.657300 1.356600
-4.639200 1.388300
-4.621100 1.426000
-4.603000 1.467900
-4.584900 1.491200
-4.566700 1.695100
-4.548600 1.662800
-4.530500 1.654800
-4.512400 1.673300
-4.494300 1.646300
-4.476200 1.647900
-4.458100 1.647300
-4.440000 1.639200
-4.421800 1.636000
-4.403700 1.635000
-4.385600 1.643000
-4.367500 1.667900
-4.349400 1.716700
-4.331300 1.675600
-4.313200 1.631800
-4.295100 1.622900
-4.276900 1.479000
-4.258800 1.409200
-4.240700 1.361300
-4.222600 1.339400
-4.204500 1.303600
-4.186400 1.255400
-4.168300 1.217300
-4.150200 1.186000
-4.132000 1.167200
-4.113900 1.154400
-4.095800 1.141000
-4.077700 1.126800
-4.059600 1.112000
-4.041500 1.097400
-4.023400 1.083700
-4.005300 1.071400
-3.987100 1.059500
-3.969000 1.048500
-3.950900 1.038900
-3.932800 1.029900
-3.914700 1.021300
-3.896600 1.012600
-3.878500 1.003600
-3.860400 0.994200
-3.842200 0.984200
-3.824100 0.973200
-3.806000 0.961700
-3.787900 0.952100
-3.769800 0.942300
-3.751700 0.930200
-3.733600 0.918700
-3.715400 0.909900
-3.697300 0.906600
-3.679200 0.899600
-3.661100 0.890100
-3.643000 0.877500
-3.624900 0.864600
-3.606800 0.853300
-3.588700 0.844000
-3.570500 0.836500
-3.552400 0.829900
-3.534300 0.822900
-3.516200 0.815700
-3.498100 0.807900
-3.480000 0.799200
-3.461900 0.789200
-3.443800 0.778000
-3.425600 0.766700
-3.407500 0.754700
-3.389400 0.742000
-3.371300 0.731300
-3.353200 0.721500
-3.335100 0.724100
-3.317000 0.724500
-3.298900 0.726600
-3.280700 0.718900
-3.262600 0.713100
-3.244500 0.703200
-3.226400 0.672700
-3.208300 0.635300
-3.190200 0.608000
-3.172100 0.587900
-3.154000 0.569200
-3.135800 0.553500
-3.117700 0.538400
-3.099600 0.520000
-3.081500 0.526100
-3.063400 0.568000
-3.045300 0.638500
-3.027200 0.776400
-3.009100 0.741300
-2.990900 0.739400
-2.972800 0.740000
-2.954700 0.733500
-2.936600 0.811500
-2.918500 0.816200
-2.900400 0.827100
-2.882300 0.834700
-2.864200 0.851600
-2.846000 0.861000
-2.827900 0.862700
-2.809800 0.864200
-2.791700 0.870400
-2.773600 0.884900
-2.755500 0.871700
-2.737400 0.882900
-2.719200 0.933200
-2.701100 1.016800
-2.683000 1.127400
-2.664900 1.252900
-2.646800 1.354700
-2.628700 1.522300
-2.610600 1.609500
-2.592500 1.688700
-2.574300 1.762600
-2.556200 1.827700
-2.538100 1.846900
-2.520000 1.819300
-2.501900 1.787600
-2.483800 1.782700
-2.465700 1.760100
-2.447600 1.744400
-2.429400 1.743100
-2.411300 1.751300
-2.393200 1.760500
-2.375100 1.766100
-2.357000 1.765600
-2.338900 1.761200
-2.320800 1.752400
-2.302700 1.735200
-2.284500 1.718800
-2.266400 1.717900
-2.248300 1.722900
-2.230200 1.725800
-2.212100 1.730100
-2.194000 1.726700
-2.175900 1.713500
-2.157800 1.695500
-2.139600 1.660200
-2.121500 1.645100
-2.103400 1.641600
-2.085300 1.688400
-2.067200 1.675800
-2.049100 1.694200
-2.031000 1.707700
-2.012900 1.705100
-1.994700 1.684700
-1.976600 1.668800
-1.958500 1.664900
-1.940400 1.652700
-1.922300 1.603000
-1.904200 1.547600
-1.886100 1.424000
-1.868000 1.333600
-1.849800 1.289400
-1.831700 1.274700
-1.813600 1.274300
-1.795500 1.256000
-1.777400 1.197300
-1.759300 1.148500
-1.741200 1.117300
-1.723100 1.102900
-1.704900 1.086100
-1.686800 1.060100
-1.668700 1.048200
-1.650600 1.044600
-1.632500 1.044800
-1.614400 1.069000
-1.596300 1.080200
-1.578100 1.043000
-1.560000 1.016500
-1.541900 1.104900
-1.523800 1.045500
-1.505700 1.050200
-1.487600 1.109900
-1.469500 1.104800
-1.451400 1.022300
-1.433200 0.942700
-1.415100 0.877500
-1.397000 0.833800
-1.378900 0.801600
-1.360800 0.778000
-1.342700 0.757600
-1.324600 0.743200
-1.306500 0.736100
-1.288300 0.730300
-1.270200 0.725600
-1.252100 0.722000
-1.234000 0.719500
-1.215900 0.718200
-1.197800 0.717800
-1.179700 0.718300
-1.161600 0.719200
-1.143400 0.720300
-1.125300 0.722100
-1.107200 0.726000
-1.089100 0.732000
-1.071000 0.739800
-1.052900 0.748000
-1.034800 0.757500
-1.016700 0.768400
-0.998500 0.780700
-0.980400 0.794400
-0.962300 0.809100
-0.944200 0.825400
-0.926100 0.842700
-0.908000 0.860500
-0.889900 0.878700
-0.871800 0.893200
-0.853600 0.904100
-0.835500 0.926700
-0.817400 0.965900
-0.799300 1.063000
-0.781200 1.234300
-0.763100 1.464500
-0.745000 1.663300
-0.726900 1.789500
-0.708700 1.779100
-0.690600 1.810900
-0.672500 1.827800
-0.654400 1.838400
-0.636300 1.785100
-0.618200 1.776100
-0.600100 1.749500
-0.582000 1.680700
-0.563800 1.610700
-0.545700 1.574500
-0.527600 1.500000
-0.509500 1.449300
-0.491400 1.406100
-0.473300 1.367100
-0.455200 1.344100
-0.437000 1.325200
-0.418900 1.307300
-0.400800 1.291100
-0.382700 1.278100
-0.364600 1.266200
-0.346500 1.260200
-0.328400 1.259700
-0.310300 1.264400
-0.292100 1.260000
-0.274000 1.245800
-0.255900 1.238000
-0.237800 1.242600
-0.219700 1.248400
-0.201600 1.256900
-0.183500 1.268600
-0.165400 1.282300
-0.147200 1.296200
-0.129100 1.307000
-0.111000 1.330000
-0.092900 1.357600
-0.074800 1.385700
-0.056700 1.398200
-0.038600 1.405000
-0.020500 1.421100
-0.002300 1.440100
0.015800 1.467700
0.033900 1.491000
0.052000 1.504200
0.070100 1.517300
0.088200 1.507300
0.106300 1.504900
0.124400 1.516300
0.142600 1.542500
0.160700 1.571500
0.178800 1.610200
0.196900 1.768600
0.215000 1.854300
0.233100 1.846800
0.251200 1.543000
0.269300 1.506800
0.287500 1.467300
0.305600 1.437100
0.323700 1.412200
0.341800 1.390200
0.359900 1.372800
0.378000 1.355000
0.396100 1.340500
0.414200 1.327200
0.432400 1.319300
0.450500 1.323200
0.468600 1.327600
0.486700 1.319700
0.504800 1.318700
0.522900 1.328300
0.541000 1.336000
0.559200 1.341800
0.577300 1.342300
0.595400 1.324500
0.613500 1.316600
0.631600 1.319400
0.649700 1.327100
0.667800 1.333400
0.685900 1.338700
0.704100 1.347700
0.722200 1.396600
0.740300 1.508600
0.758400 1.641800
0.776500 1.782300
0.794600 1.927300
0.812700 2.095000
0.830800 2.306200
0.849000 2.483100
0.867100 2.712700
0.885200 2.882000
0.903300 3.118900
0.921400 3.201600
0.939500 3.219500
0.957600 3.077400
0.975700 2.832200
0.993900 2.665900
1.012000 2.515500
1.030100 2.501200
1.048200 2.533000
1.066300 2.486300
1.084400 2.408300
1.102500 2.390900
1.120600 2.369300
1.138800 2.335700
1.156900 2.265900
1.175000 2.326000
1.193100 2.445100
1.211200 2.550500
1.229300 2.592400
1.247400 2.539500
1.265500 2.499600
1.283700 2.516200
1.301800 2.513100
1.319900 2.489600
1.338000 2.482800
1.356100 2.482400
1.374200 2.496000
1.392300 2.485400
1.410400 2.468200
1.428600 2.457100
1.446700 2.453300
1.464800 2.459900
1.482900 2.465600
1.501000 2.449100
1.519100 2.446000
1.537200 2.408600
1.555300 2.388900
1.573500 2.340500
1.591600 2.329000
1.609700 2.306200
1.627800 2.289000
1.645900 2.280000
1.664000 2.270500
1.682100 2.268200
1.700300 2.269200
1.718400 2.320100
1.736500 2.286100
1.754600 2.253700
1.772700 2.234500
1.790800 2.223900
1.808900 2.202800
1.827000 2.181500
1.845200 2.163100
1.863300 2.149700
1.881400 2.138500
1.899500 2.125600
1.917600 2.115100
1.935700 2.105200
1.953800 2.095700
1.971900 2.090600
1.990100 2.089200
2.008200 2.093000
2.026300 2.084900
2.044400 2.061600
2.062500 2.046900
2.080600 2.028400
2.098700 2.008200
2.116800 1.983700
2.135000 1.968000
2.153100 1.958300
2.171200 1.955600
2.189300 1.955200
2.207400 1.942000
2.225500 1.906900
2.243600 1.879000
2.261700 1.857000
2.279900 1.835600
2.298000 1.814900
2.316100 1.794700
2.334200 1.775400
2.352300 1.750000
2.370400 1.741200
2.388500 1.717900
2.406600 1.681800
2.424800 1.662100
2.442900 1.653600
2.461000 1.646900
2.479100 1.642300
2.497200 1.638300
2.515300 1.636900
2.533400 1.638300
2.551500 1.640900
2.569700 1.640100
2.587800 1.640600
2.605900 1.639400
2.624000 1.634300
2.642100 1.647600
2.660200 1.683700
2.678300 1.708100
2.696500 1.731900
2.714600 1.766600
2.732700 1.747400
2.750800 1.706800
2.768900 1.685200
2.787000 1.663300
2.805100 1.642100
2.823200 1.621200
2.841400 1.599700
2.859500 1.577500
2.877600 1.557500
2.895700 1.546200
2.913800 1.529800
2.931900 1.499900
2.950000 1.462800
2.968100 1.443400
2.986300 1.448700
3.004400 1.453400
3.022500 1.475200
3.040600 1.499000
3.058700 1.481400
3.076800 1.446000
3.094900 1.388400
3.113000 1.347600
3.131200 1.362900
3.149300 1.366400
3.167400 1.348300
3.185500 1.369900
3.203600 1.342900
3.221700 1.294700
3.239800 1.245800
3.257900 1.185500
3.276100 1.114100
3.294200 1.053700
3.312300 0.985600
3.330400 0.926900
3.348500 0.894500
3.366600 0.887700
3.384700 0.888300
3.402800 0.890600
3.421000 0.894000
3.439100 0.897100
3.457200 0.887200
3.475300 0.879900
3.493400 0.873600
3.511500 0.874200
3.529600 0.874100
3.547700 0.875300
3.565900 0.879900
3.584000 0.903900
3.602100 0.917500
3.620200 0.938700
3.638300 0.979300
3.656400 1.024800
3.674500 1.073300
3.692600 1.121400
3.710800 1.190500
3.728900 1.277500
3.747000 1.344600
3.765100 1.353400
3.783200 1.365000
3.801300 1.403800
3.819400 1.351800
3.837600 1.329000
3.855700 1.339900
3.873800 1.372800
3.891900 1.422300
3.910000 1.499100
3.928100 1.554200
3.946200 1.581900
3.964300 1.610100
3.982500 1.636300
4.000600 1.658800
4.018700 1.681100
4.036800 1.711200
4.054900 1.748400
4.073000 1.789600
4.091100 1.843300
4.109200 1.903000
4.127400 1.959200
4.145500 2.011900
4.163600 2.085300
4.181700 2.162700
4.199800 2.245800
4.217900 2.349600
4.236000 2.513900
4.254100 2.776000
4.272300 2.911200
4.290400 3.063200
4.308500 3.222500
4.326600 3.258600
4.344700 3.393600
4.362800 3.447100
4.380900 3.419600
4.399000 3.362200
4.417200 3.427000
4.435300 3.417000
4.453400 3.320200
4.471500 3.127800
4.489600 2.945800
4.507700 2.747700
4.525800 2.540400
4.543900 2.357200
4.562100 2.269900
4.580200 2.149900
4.598300 2.073800
4.616400 1.963500
4.634500 1.882700
4.652600 1.842400
4.670700 1.841100
4.688800 1.845800
4.707000 1.854800
4.725100 1.870700
4.743200 1.889400
4.761300 1.907800
4.779400 1.943500
4.797500 1.998700
4.815600 2.066100
4.833800 2.138100
4.851900 2.219700
4.870000 2.308000
4.888100 2.391300
4.906200 2.454900
4.924300 2.545700
4.942400 2.614200
4.960500 2.641700
4.978700 2.605000
4.996800 2.606300
5.014900 2.588200
5.033000 2.565300
5.051100 2.533700
5.069200 2.503500
5.087300 2.480500
5.105400 2.462100
5.123600 2.448700
5.141700 2.434000
5.159800 2.423900
5.177900 2.438100
5.196000 2.470500
5.214100 2.542700
5.232200 2.594400
5.250300 2.604300
5.268500 2.624600
5.286600 2.664300
5.304700 2.718600
5.322800 2.743600
5.340900 2.797100
5.359000 2.851400
5.377100 2.884800
5.395200 2.914800
5.413400 2.927700
5.431500 2.916800
5.449600 2.823800
5.467700 2.722800
5.485800 2.662800
5.503900 2.642300
5.522000 2.671500
5.540100 2.696000
5.558300 2.797000
5.576400 2.868900
5.594500 2.893900
5.612600 2.959100
5.630700 2.954300
5.648800 2.901100
5.666900 2.843400
5.685000 2.729500
5.703200 2.628100
5.721300 2.645200
5.739400 2.594100
5.757500 2.540100
5.775600 2.501100
5.793700 2.494100
5.811800 2.594100
5.829900 2.610200
5.848100 2.641300
5.866200 2.677100
5.884300 2.687300
5.902400 2.655100
5.920500 2.630300
5.938600 2.642200
5.956700 2.725900
5.974900 2.792400
5.993000 2.785400
6.011100 2.834100
6.029200 2.874100
6.047300 2.854900
6.065400 2.876600
6.083500 2.872500
6.101600 2.850600
6.119800 2.823500
6.137900 2.759300
6.156000 2.715900
6.174100 2.693500
6.192200 2.676800
6.210300 2.680400
6.228400 2.705200
6.246500 2.748300
6.264700 2.797700
6.282800 2.848300
6.300900 2.876700
6.319000 2.915400
6.337100 2.941600
6.355200 2.983400
6.373300 2.972100
6.391400 2.907200
6.409600 2.874300
6.427700 2.862400
6.445800 2.858200
6.463900 2.856700
6.482000 2.838800
6.500100 2.820100
6.518200 2.817700
6.536300 2.799500
6.554500 2.777800
6.572600 2.744100
6.590700 2.640300
6.608800 2.541400
6.626900 2.467100
6.645000 2.462800
6.663100 2.489000
6.681200 2.519900
6.699400 2.521800
6.717500 2.513000
6.735600 2.502200
6.753700 2.524200
6.771800 2.560900
6.789900 2.602600
6.808000 2.646800
6.826100 2.709900
6.844300 2.793600
6.862400 2.897200
6.880500 3.032700
6.898600 3.168300
6.916700 3.285300
6.934800 3.364200
6.952900 3.441600
6.971100 3.440400
6.989200 3.470700
7.007300 3.465500
7.025400 3.479000
7.043500 3.521700
7.061600 3.581000
7.079700 3.712200
7.097800 3.700900
7.116000 3.779100
7.134100 3.809200
7.152200 3.804900
7.170300 3.768100
7.188400 3.724000
7.206500 3.674300
7.224600 3.524200
7.242700 3.264100
7.260900 3.094100
7.279000 2.968800
7.297100 2.864700
7.315200 2.811000
7.333300 2.763800
7.351400 2.730900
7.369500 2.714900
7.387600 2.709200
7.405800 2.710500
7.423900 2.723000
7.442000 2.744100
7.460100 2.776600
7.478200 2.887000
7.496300 3.004800
7.514400 3.014200
7.532500 3.070200
7.550700 3.110400
7.568800 3.106000
7.586900 3.042400
7.605000 3.063000
7.623100 3.158900
7.641200 3.366800
7.659300 3.433600
7.677400 3.451800
7.695600 3.430900
7.713700 3.414900
7.731800 3.385300
7.749900 3.409100
7.768000 3.498400
7.786100 3.567100
7.804200 3.653400
7.822300 3.721900
7.840500 3.813600
7.858600 3.934000
7.876700 4.026800
7.894800 4.191600
7.912900 4.247200
7.931000 4.235500
7.949100 4.201800
7.967200 4.198500
7.985400 4.138900
8.003500 4.018300
8.021600 3.833100
8.039700 3.784500
8.057800 3.781800
8.075900 3.855100
8.094000 3.978000
8.112200 3.987200
8.130300 4.013700
8.148400 4.052800
8.166500 4.040400
8.184600 4.020700
8.202700 3.997500
8.220800 3.974400
8.238900 3.970100
8.257100 4.019600
8.275200 4.062100
8.293300 4.083600
8.311400 4.168900
8.329500 4.159200
8.347600 4.153800
8.365700 4.202600
8.383800 4.403900
8.402000 4.285100
8.420100 4.295100
8.438200 4.082900
8.456300 3.913800
8.474400 3.854700
8.492500 3.840500
8.510600 3.804600
8.528700 3.810100
8.546900 3.841000
8.565000 3.863600
8.583100 3.711000
8.601200 3.615000
8.619300 3.645500
8.637400 3.661900
8.655500 3.654800
8.673600 3.659200
8.691800 3.648300
8.709900 3.580100
8.728000 3.533900
8.746100 3.540700
8.764200 3.552100
8.782300 3.635500
8.800400 3.731500
8.818500 3.653000
8.836700 3.747900
8.854800 3.832600
8.872900 3.878100
8.891000 3.877200
8.909100 3.927600
8.927200 4.063900
8.945300 4.231900
8.963400 4.388700
8.981600 4.863000
8.999700 4.413500
9.017800 4.540100
9.035900 4.647000
9.054000 4.654600
9.072100 4.599300
9.090200 4.575800
9.108300 4.535500
9.126500 4.487200
9.144600 4.451800
9.162700 4.447700
9.180800 4.470000
9.198900 4.498400
9.217000 4.582800
9.235100 4.598400
9.253300 4.548900
9.271400 4.488400
9.289500 4.448200
9.307600 4.376500
9.325700 4.204600
9.343800 4.009200
9.361900 3.945600
9.380000 3.918400
9.398200 3.973400
9.416300 3.730900
9.434400 3.646300
9.452500 3.561800
9.470600 3.392100
9.488700 3.339800
9.506800 3.322200
9.524900 3.332700
9.543100 3.331600
9.561200 3.316200
9.579300 3.341000
9.597400 3.363800
9.615500 3.365600
9.633600 3.356300
9.651700 3.231500
9.669800 3.070400
9.688000 3.029400
9.706100 2.924700
9.724200 2.909500
9.742300 2.944600
9.760400 2.967900
9.778500 3.025900
9.796600 3.094700
9.814700 3.141700
9.832900 3.193600
9.851000 3.289000
9.869100 3.445900
9.887200 3.516600
9.905300 3.669500
9.923400 3.635800
9.941500 3.611600
9.959600 3.617000
9.977800 3.634200
9.995900 3.662700
10.014000 3.737800
10.032100 3.911200
10.050200 4.004600
10.068300 4.078200
10.086400 4.178200
10.104500 4.309900
10.122700 4.240700
10.140800 4.019700
10.158900 3.884900
10.177000 3.807400
10.195100 3.674300
10.213200 3.540800
10.231300 3.437300
10.249500 3.411600
10.267600 3.392600
10.285700 3.291800
10.303800 3.196100
10.321900 3.122500
10.340000 3.055700
10.358100 3.023100
10.376200 2.947500
10.394400 2.893800
10.412500 2.972600
10.430600 2.968500
10.448700 3.012800
10.466800 3.085500
10.484900 3.004800
10.503000 3.002200
10.521100 3.011800
10.539300 3.060200
10.557400 3.017700
10.575500 3.028400
10.593600 2.948500
10.611700 2.855600
10.629800 2.769700
10.647900 2.695300
10.666000 2.609300
10.684200 2.545300
10.702300 2.495300
10.720400 2.465500
10.738500 2.444500
10.756600 2.427300
10.774700 2.427800
10.792800 2.435200
10.810900 2.449200
10.829100 2.455900
10.847200 2.471800
10.865300 2.501000
10.883400 2.539400
10.901500 2.599300
10.919600 2.683300
10.937700 2.759400
10.955800 2.791900
10.974000 2.831700
10.992100 2.802300
11.010200 2.724200
11.028300 2.667500
11.046400 2.640000
11.064500 2.603600
11.082600 2.531100
11.100700 2.456400
11.118900 2.422200
11.137000 2.390400
11.155100 2.163300
11.173200 1.971500
11.191300 1.891600
11.209400 1.853000
11.227500 1.842600
11.245600 1.842100
11.263800 1.869100
11.281900 1.911400
11.300000 1.953800
11.318100 2.105700
11.336200 2.108500
11.354300 2.137000
11.372400 2.182700
11.390600 2.254800
11.408700 2.289700
11.426800 2.317900
11.444900 2.365200
11.463000 2.439600
11.481100 2.567300
11.499200 2.605700
11.517300 2.678000
11.535500 2.787500
11.553600 2.712900
11.571700 2.615600
11.589800 2.458800
11.607900 2.369800
11.626000 2.330500
11.644100 2.306400
11.662200 2.313100
11.680400 2.278200
11.698500 2.274700
11.716600 2.283300
11.734700 2.343600
11.752800 2.412900
11.770900 2.498500
11.789000 2.568800
11.807100 2.531400
11.825300 2.606400
11.843400 2.698000
11.861500 2.863800
11.879600 2.941500
11.897700 3.003400
11.915800 3.063200
11.933900 3.132700
11.952000 3.197200
11.970200 3.307400
11.988300 3.576900
12.006400 3.560200
12.024500 3.520700
12.042600 3.403300
12.060700 3.437300
12.078800 3.610700
12.096900 3.469500
12.115100 3.343000
12.133200 3.331500
12.151300 3.213600
12.169400 3.139700
12.187500 3.054000
12.205600 2.970700
12.223700 2.931000
12.241800 2.925500
12.260000 2.929500
12.278100 2.947300
12.296200 2.945600
12.314300 2.945400
12.332400 2.942300
12.350500 2.951200
12.368600 2.969800
12.386800 3.010900
12.404900 2.986900
12.423000 2.982600
12.441100 3.052700
12.459200 3.067400
12.477300 3.052600
12.495400 3.068000
12.513500 2.922300
12.531700 2.894000
12.549800 2.893000
12.567900 2.881600
12.586000 2.822600
12.604100 2.733800
12.622200 2.673400
12.640300 2.586400
12.658400 2.508700
12.676600 2.453600
12.694700 2.392900
12.712800 2.337700
12.730900 2.303600
12.749000 2.320300
12.767100 2.376900
12.785200 2.411200
12.803300 2.357200
12.821500 2.295900
12.839600 2.242100
12.857700 2.159600
12.875800 1.990900
12.893900 1.759500
12.912000 1.530800
12.930100 1.346000
12.948200 1.186700
12.966400 1.061300
12.984500 0.948900
13.002600 0.855500
13.020700 0.795100
13.038800 0.742600
13.056900 0.691000
13.075000 0.658100
13.093100 0.639700
13.111300 0.612500
13.129400 0.571800
13.147500 0.553200
13.165600 0.502000
13.183700 0.449800
13.201800 0.407900
13.219900 0.384800
13.238000 0.367400
13.256200 0.344900
13.274300 0.316500
13.292400 0.282200
13.310500 0.238800
13.328600 0.189800
13.346700 0.142500
13.364800 0.097500
13.382900 0.050900
13.401100 0.024300
13.419200 0.009200
13.437300 0.003600
13.455400 0.002100
13.473500 0.000900
13.491600 0.000300
13.509700 0.000000
13.527900 0.000000
13.546000 0.000000
13.564100 0.000000
13.582200 0.000000
13.600300 0.000000
13.618400 0.000000
13.636500 0.000000
13.654600 0.000000
13.672800 0.000000
13.690900 0.000000
13.709000 0.000000
13.727100 0.000000
13.745200 0.000000
13.763300 0.000000
13.781400 0.000000
13.799500 0.000000
13.817700 0.000000
13.835800 0.000000
13.853900 0.000000
13.872000 0.000000
13.890100 0.000000
13.908200 0.000000
13.926300 0.000000
13.944400 0.000000
13.962600 0.000000
13.980700 0.000000
13.998800 0.000000
14.016900 0.000000
14.035000 0.000000
14.053100 0.000000
14.071200 0.000000
14.089300 0.000000
14.107500 0.000000
14.125600 0.000000
14.143700 0.000000
14.161800 0.000000
14.179900 0.000000
14.198000 0.000000
14.216100 0.000000
14.234200 0.000000
14.252400 0.000000
14.270500 0.000000
14.288600 0.000000
14.306700 0.000000
14.324800 0.000000
14.342900 0.000000
14.361000 0.000000
14.379100 0.000000
14.397300 0.000000
14.415400 0.000000
14.433500 0.000000
14.451600 0.000000
14.469700 0.000000
14.487800 0.000000
14.505900 0.000000
14.524100 0.000000
14.542200 0.000000
14.560300 0.000000
14.578400 0.000000
14.596500 0.000000
14.614600 0.000000
14.632700 0.000000
14.650800 0.000000
14.669000 0.000000
14.687100 0.000000
14.705200 0.000000
14.723300 0.000000
14.741400 0.000000
14.759500 0.000000
14.777600 0.000000
14.795700 0.000000
14.813900 0.000000
14.832000 0.000000
14.850100 0.000000
14.868200 0.000000
14.886300 0.000000
14.904400 0.000000
14.922500 0.000000
14.940600 0.000000
14.958800 0.000000
14.976900 0.000000
14.995000 0.000000
15.013100 0.000000
15.031200 0.000000
15.049300 0.000000
15.067400 0.000000
15.085500 0.000000
15.103700 0.000000
15.121800 0.000000
15.139900 0.000000
15.158000 0.000000
e
