set title 'mp-2460 - Density of States'
set xlabel 'Energy (eV)'
set ylabel 'DOS (states/eV)'
set grid
set xrange [-10:10]
set yrange [0:35.677]
set xzeroaxis lt -1
set terminal png size 800,600
set output 'mp-2460_dos_gnuplot.png'
plot '-' using 1:2 with lines title 'DOS'
-23.091700 0.000000
-23.065000 0.000000
-23.038300 0.000000
-23.011500 0.000000
-22.984800 0.000000
-22.958000 0.000000
-22.931300 0.000000
-22.904500 0.000000
-22.877800 0.000000
-22.851000 0.000000
-22.824300 0.000000
-22.797500 0.000000
-22.770800 0.000000
-22.744000 0.000000
-22.717300 0.000000
-22.690600 0.000000
-22.663800 0.000000
-22.637100 0.000000
-22.610300 0.000000
-22.583600 0.000000
-22.556800 0.000000
-22.530100 0.000000
-22.503300 0.000000
-22.476600 0.000000
-22.449800 0.000000
-22.423100 0.000000
-22.396300 0.000000
-22.369600 0.000000
-22.342800 0.000000
-22.316100 0.000000
-22.289400 0.000000
-22.262600 0.000000
-22.235900 0.000000
-22.209100 0.000000
-22.182400 0.000000
-22.155600 0.000000
-22.128900 0.000000
-22.102100 0.000000
-22.075400 0.000000
-22.048600 0.000000
-22.021900 0.000000
-21.995100 0.000000
-21.968400 0.000000
-21.941700 0.000000
-21.914900 0.000000
-21.888200 0.000000
-21.861400 0.000000
-21.834700 0.000000
-21.807900 0.000000
-21.781200 0.000000
-21.754400 0.000000
-21.727700 0.000000
-21.700900 0.000000
-21.674200 0.000000
-21.647400 0.000000
-21.620700 0.000000
-21.594000 0.000000
-21.567200 0.000000
-21.540500 0.000000
-21.513700 0.000000
-21.487000 0.000000
-21.460200 0.000000
-21.433500 0.000000
-21.406700 0.000000
-21.380000 0.000000
-21.353200 0.000000
-21.326500 0.000000
-21.299700 0.000000
-21.273000 0.000000
-21.246300 0.000000
-21.219500 0.000000
-21.192800 0.000000
-21.166000 0.000000
-21.139300 0.000000
-21.112500 0.000000
-21.085800 0.000000
-21.059000 0.000000
-21.032300 0.000000
-21.005500 0.000000
-20.978800 0.000000
-20.952000 0.000000
-20.925300 0.000000
-20.898600 0.000000
-20.871800 0.000000
-20.845100 0.000000
-20.818300 0.000000
-20.791600 0.000000
-20.764800 0.000000
-20.738100 0.000000
-20.711300 0.000000
-20.684600 0.000000
-20.657800 0.004100
-20.631100 0.592500
-20.604300 1.893500
-20.577600 3.429400
-20.550900 4.754000
-20.524100 79.209900
-20.497400 14.784800
-20.470600 9.511000
-20.443900 5.508200
-20.417100 20.907000
-20.390400 16.821800
-20.363600 27.816000
-20.336900 23.137100
-20.310100 43.613400
-20.283400 32.120000
-20.256600 27.722200
-20.229900 19.851100
-20.203200 36.031900
-20.176400 25.283900
-20.149700 13.200200
-20.122900 15.362300
-20.096200 14.117800
-20.069400 12.013900
-20.042700 20.527700
-20.015900 26.232300
-19.989200 15.757500
-19.962400 15.533700
-19.935700 27.056300
-19.908900 27.963500
-19.882200 22.638100
-19.855500 44.599200
-19.828700 44.836100
-19.802000 31.867300
-19.775200 54.229500
-19.748500 37.494500
-19.721700 52.434600
-19.695000 61.146700
-19.668200 92.650300
-19.641500 72.648800
-19.614700 104.704400
-19.588000 81.223000
-19.561200 70.576800
-19.534500 34.198300
-19.507800 13.563800
-19.481000 12.609200
-19.454300 12.615700
-19.427500 12.638500
-19.400800 1.495800
-19.374000 0.000000
-19.347300 0.000000
-19.320500 0.000000
-19.293800 0.000000
-19.267000 0.000000
-19.240300 0.000000
-19.213500 0.000000
-19.186800 0.000000
-19.160100 0.000000
-19.133300 0.000000
-19.106600 0.000000
-19.079800 0.000000
-19.053100 0.000000
-19.026300 0.000000
-18.999600 0.000000
-18.972800 0.000000
-18.946100 0.000000
-18.919300 0.000000
-18.892600 0.000000
-18.865800 0.000000
-18.839100 0.000000
-18.812400 0.000000
-18.785600 0.000000
-18.758900 0.000000
-18.732100 0.000000
-18.705400 0.000000
-18.678600 0.000000
-18.651900 0.000000
-18.625100 0.000000
-18.598400 0.000000
-18.571600 0.000000
-18.544900 0.000000
-18.518100 0.000000
-18.491400 0.000000
-18.464700 0.000000
-18.437900 0.000000
-18.411200 0.000000
-18.384400 0.000000
-18.357700 0.000000
-18.330900 0.000000
-18.304200 0.000000
-18.277400 0.000000
-18.250700 0.000000
-18.223900 0.000000
-18.197200 0.000000
-18.170400 0.000000
-18.143700 0.000000
-18.117000 0.000000
-18.090200 0.000000
-18.063500 0.000000
-18.036700 0.000000
-18.010000 0.000000
-17.983200 0.000000
-17.956500 0.000000
-17.929700 0.000000
-17.903000 0.000000
-17.876200 0.000000
-17.849500 0.000000
-17.822700 0.000000
-17.796000 0.000000
-17.769300 0.000000
-17.742500 0.000000
-17.715800 0.000000
-17.689000 0.000000
-17.662300 0.000000
-17.635500 0.000000
-17.608800 0.000000
-17.582000 0.000000
-17.555300 0.000000
-17.528500 0.000000
-17.501800 0.000000
-17.475000 0.000000
-17.448300 0.000000
-17.421600 0.000000
-17.394800 0.000000
-17.368100 0.000000
-17.341300 0.000000
-17.314600 0.000000
-17.287800 0.000000
-17.261100 0.000000
-17.234300 0.000000
-17.207600 0.000000
-17.180800 0.000000
-17.154100 0.000000
-17.127300 0.000000
-17.100600 0.000000
-17.073900 0.000000
-17.047100 0.000000
-17.020400 0.000000
-16.993600 0.000000
-16.966900 0.000000
-16.940100 0.000000
-16.913400 0.000000
-16.886600 0.000000
-16.859900 0.000000
-16.833100 0.000000
-16.806400 0.000000
-16.779600 0.000000
-16.752900 0.000000
-16.726200 0.000000
-16.699400 0.000000
-16.672700 0.000000
-16.645900 0.000000
-16.619200 0.000000
-16.592400 0.000000
-16.565700 0.000000
-16.538900 0.000000
-16.512200 0.000000
-16.485400 0.000000
-16.458700 0.000000
-16.431900 0.000000
-16.405200 0.000000
-16.378400 0.000000
-16.351700 0.000000
-16.325000 0.000000
-16.298200 0.000000
-16.271500 0.000000
-16.244700 0.000000
-16.218000 0.000000
-16.191200 0.000000
-16.164500 0.000000
-16.137700 0.000000
-16.111000 0.000000
-16.084200 0.000000
-16.057500 0.000000
-16.030700 0.000000
-16.004000 0.000000
-15.977300 0.000000
-15.950500 0.000000
-15.923800 0.000000
-15.897000 0.000000
-15.870300 0.000000
-15.843500 0.000000
-15.816800 0.000000
-15.790000 0.000000
-15.763300 0.000000
-15.736500 0.000000
-15.709800 0.000000
-15.683000 0.000000
-15.656300 0.000000
-15.629600 0.000000
-15.602800 0.000000
-15.576100 0.000000
-15.549300 0.000000
-15.522600 0.000000
-15.495800 0.000000
-15.469100 0.000000
-15.442300 0.000000
-15.415600 0.000000
-15.388800 0.000000
-15.362100 0.000000
-15.335300 0.000000
-15.308600 0.000000
-15.281900 0.000000
-15.255100 0.000000
-15.228400 0.000000
-15.201600 0.000000
-15.174900 0.000000
-15.148100 0.000000
-15.121400 0.000000
-15.094600 0.000000
-15.067900 0.000000
-15.041100 0.000000
-15.014400 0.000000
-14.987600 0.000000
-14.960900 0.000000
-14.934200 0.000000
-14.907400 0.000000
-14.880700 0.000000
-14.853900 0.000000
-14.827200 0.000000
-14.800400 0.000000
-14.773700 0.000000
-14.746900 0.000000
-14.720200 0.000000
-14.693400 0.000000
-14.666700 0.000000
-14.639900 0.000000
-14.613200 0.000000
-14.586500 0.000000
-14.559700 0.009800
-14.533000 0.046800
-14.506200 0.111300
-14.479500 0.203500
-14.452700 0.315000
-14.426000 0.422900
-14.399200 0.527400
-14.372500 0.636200
-14.345700 0.751300
-14.319000 0.872600
-14.292200 1.014100
-14.265500 1.183800
-14.238800 1.359200
-14.212000 1.497000
-14.185300 1.628000
-14.158500 1.802500
-14.131800 2.017100
-14.105000 2.271300
-14.078300 2.541200
-14.051500 2.680500
-14.024800 2.868900
-13.998000 3.123700
-13.971300 3.506900
-13.944500 3.954500
-13.917800 4.613500
-13.891100 5.633100
-13.864300 10.193700
-13.837600 16.034800
-13.810800 12.076700
-13.784100 10.230600
-13.757300 8.469000
-13.730600 10.601800
-13.703800 25.290500
-13.677100 24.283200
-13.650300 9.262000
-13.623600 4.963300
-13.596800 5.871600
-13.570100 11.253800
-13.543400 17.143200
-13.516600 20.444800
-13.489900 18.435500
-13.463100 12.208800
-13.436400 12.213800
-13.409600 19.266800
-13.382900 24.072800
-13.356100 22.429400
-13.329400 28.277000
-13.302600 15.326600
-13.275900 13.334000
-13.249100 10.530300
-13.222400 9.536700
-13.195700 10.590200
-13.168900 13.680400
-13.142200 18.911300
-13.115400 18.977900
-13.088700 23.161700
-13.061900 24.888500
-13.035200 23.182600
-13.008400 18.715400
-12.981700 23.668900
-12.954900 22.801500
-12.928200 18.057400
-12.901400 13.687400
-12.874700 15.027500
-12.848000 6.792500
-12.821200 2.421400
-12.794500 1.905000
-12.767700 1.344900
-12.741000 0.871400
-12.714200 0.461000
-12.687500 0.122400
-12.660700 0.000400
-12.634000 0.000000
-12.607200 0.000000
-12.580500 0.000000
-12.553700 0.000000
-12.527000 0.000000
-12.500300 0.000000
-12.473500 0.000000
-12.446800 0.000000
-12.420000 0.000000
-12.393300 0.000000
-12.366500 0.000000
-12.339800 0.000000
-12.313000 0.000000
-12.286300 0.000000
-12.259500 0.000000
-12.232800 0.000000
-12.206000 0.000000
-12.179300 0.000000
-12.152600 0.000000
-12.125800 0.000000
-12.099100 0.000000
-12.072300 0.000000
-12.045600 0.000000
-12.018800 0.000000
-11.992100 0.000000
-11.965300 0.000000
-11.938600 0.000000
-11.911800 0.000000
-11.885100 0.000000
-11.858300 0.000000
-11.831600 0.000000
-11.804900 0.000000
-11.778100 0.000000
-11.751400 0.000000
-11.724600 0.000000
-11.697900 0.000000
-11.671100 0.000000
-11.644400 0.000000
-11.617600 0.000000
-11.590900 0.000000
-11.564100 0.000000
-11.537400 0.000000
-11.510600 0.000000
-11.483900 0.000000
-11.457200 0.000000
-11.430400 0.000000
-11.403700 0.000000
-11.376900 0.000000
-11.350200 0.000000
-11.323400 0.000000
-11.296700 0.000000
-11.269900 0.000000
-11.243200 0.000000
-11.216400 0.000000
-11.189700 0.000000
-11.162900 0.000000
-11.136200 0.000000
-11.109500 0.000000
-11.082700 0.000000
-11.056000 0.000000
-11.029200 0.000000
-11.002500 0.000000
-10.975700 0.000000
-10.949000 0.000000
-10.922200 0.000000
-10.895500 0.000000
-10.868700 0.000000
-10.842000 0.000000
-10.815200 0.000000
-10.788500 0.000000
-10.761700 0.000000
-10.735000 0.000000
-10.708300 0.000000
-10.681500 0.000000
-10.654800 0.000000
-10.628000 0.000000
-10.601300 0.000000
-10.574500 0.000000
-10.547800 0.000000
-10.521000 0.000000
-10.494300 0.000000
-10.467500 0.000000
-10.440800 0.000000
-10.414000 0.000000
-10.387300 0.000000
-10.360600 0.000000
-10.333800 0.000000
-10.307100 0.000000
-10.280300 0.000000
-10.253600 0.000000
-10.226800 0.000000
-10.200100 0.000000
-10.173300 0.000000
-10.146600 0.000000
-10.119800 0.000000
-10.093100 0.000000
-10.066300 0.000000
-10.039600 0.000000
-10.012900 0.000000
-9.986100 0.000000
-9.959400 0.000000
-9.932600 0.000000
-9.905900 0.000000
-9.879100 0.000000
-9.852400 0.000000
-9.825600 0.000000
-9.798900 0.000000
-9.772100 0.000000
-9.745400 0.000000
-9.718600 0.000000
-9.691900 0.000000
-9.665200 0.000000
-9.638400 0.000000
-9.611700 0.000000
-9.584900 0.000000
-9.558200 0.000000
-9.531400 0.000000
-9.504700 0.000000
-9.477900 0.000000
-9.451200 0.000000
-9.424400 0.000000
-9.397700 0.000000
-9.370900 0.000000
-9.344200 0.000000
-9.317500 0.000000
-9.290700 0.000000
-9.264000 0.000000
-9.237200 0.000000
-9.210500 0.000000
-9.183700 0.000000
-9.157000 0.000000
-9.130200 0.000000
-9.103500 0.000000
-9.076700 0.000000
-9.050000 0.000000
-9.023200 0.000000
-8.996500 0.000000
-8.969800 0.000000
-8.943000 0.000000
-8.916300 0.000000
-8.889500 0.000000
-8.862800 0.000000
-8.836000 0.000000
-8.809300 0.000000
-8.782500 0.000000
-8.755800 0.000000
-8.729000 0.000000
-8.702300 0.000000
-8.675500 0.000000
-8.648800 0.000000
-8.622100 0.000000
-8.595300 0.000000
-8.568600 0.000000
-8.541800 0.000000
-8.515100 0.000000
-8.488300 0.000000
-8.461600 0.000000
-8.434800 0.000000
-8.408100 0.000000
-8.381300 0.000000
-8.354600 0.000000
-8.327800 0.000000
-8.301100 0.000000
-8.274400 0.000000
-8.247600 0.000000
-8.220900 0.000000
-8.194100 0.000000
-8.167400 0.000000
-8.140600 0.000000
-8.113900 0.000000
-8.087100 0.000000
-8.060400 0.000000
-8.033600 0.000000
-8.006900 0.000000
-7.980100 0.000000
-7.953400 0.000000
-7.926700 0.000000
-7.899900 0.000000
-7.873200 0.000000
-7.846400 0.000000
-7.819700 0.000000
-7.792900 0.000000
-7.766200 0.000000
-7.739400 0.000000
-7.712700 0.000000
-7.685900 0.000000
-7.659200 0.000000
-7.632400 0.000000
-7.605700 0.000000
-7.579000 0.000000
-7.552200 0.000000
-7.525500 0.000000
-7.498700 0.000000
-7.472000 0.000000
-7.445200 0.000000
-7.418500 0.000000
-7.391700 0.000000
-7.365000 0.000000
-7.338200 0.000000
-7.311500 0.000000
-7.284700 0.000000
-7.258000 0.000000
-7.231300 0.000000
-7.204500 0.000000
-7.177800 0.000000
-7.151000 0.000000
-7.124300 0.000000
-7.097500 0.000000
-7.070800 0.000000
-7.044000 0.000000
-7.017300 0.000000
-6.990500 0.000000
-6.963800 0.000000
-6.937000 0.000000
-6.910300 0.000000
-6.883600 0.000000
-6.856800 0.000000
-6.830100 0.000000
-6.803300 0.000000
-6.776600 0.000000
-6.749800 0.000000
-6.723100 0.000000
-6.696300 0.000000
-6.669600 0.000000
-6.642800 0.000000
-6.616100 0.000000
-6.589300 0.000000
-6.562600 0.000000
-6.535900 0.000000
-6.509100 0.000000
-6.482400 0.000000
-6.455600 0.000000
-6.428900 0.000000
-6.402100 0.000000
-6.375400 0.000000
-6.348600 0.000000
-6.321900 0.000000
-6.295100 0.000000
-6.268400 0.000000
-6.241600 0.000000
-6.214900 0.000000
-6.188200 0.000000
-6.161400 0.000000
-6.134700 0.000000
-6.107900 0.000000
-6.081200 0.000000
-6.054400 0.000000
-6.027700 0.000000
-6.000900 0.000000
-5.974200 0.000000
-5.947400 0.000000
-5.920700 0.000000
-5.893900 0.000000
-5.867200 0.000000
-5.840500 0.000000
-5.813700 0.000000
-5.787000 0.000000
-5.760200 0.000000
-5.733500 0.000000
-5.706700 0.000000
-5.680000 0.000000
-5.653200 0.000000
-5.626500 0.000000
-5.599700 0.000000
-5.573000 0.000000
-5.546200 0.000000
-5.519500 0.000000
-5.492800 0.000000
-5.466000 0.000000
-5.439300 0.000000
-5.412500 0.000000
-5.385800 0.000000
-5.359000 0.000000
-5.332300 0.000000
-5.305500 0.000000
-5.278800 0.000000
-5.252000 0.000000
-5.225300 0.000000
-5.198500 0.000000
-5.171800 0.000000
-5.145000 0.000000
-5.118300 0.000000
-5.091600 0.000000
-5.064800 0.000000
-5.038100 0.000000
-5.011300 0.000000
-4.984600 0.000000
-4.957800 0.000000
-4.931100 0.000000
-4.904300 0.000000
-4.877600 0.000000
-4.850800 0.000000
-4.824100 0.000000
-4.797300 0.000000
-4.770600 0.000000
-4.743900 0.000000
-4.717100 0.000000
-4.690400 0.000000
-4.663600 0.000000
-4.636900 0.000000
-4.610100 0.000000
-4.583400 0.000000
-4.556600 0.000000
-4.529900 0.000000
-4.503100 0.000000
-4.476400 0.000000
-4.449600 0.000000
-4.422900 0.000000
-4.396200 0.000000
-4.369400 0.000000
-4.342700 0.000000
-4.315900 0.000000
-4.289200 0.000000
-4.262400 0.000000
-4.235700 0.000000
-4.208900 0.000000
-4.182200 0.000000
-4.155400 0.000000
-4.128700 0.000000
-4.101900 0.000000
-4.075200 0.000000
-4.048500 0.000000
-4.021700 0.000000
-3.995000 0.000000
-3.968200 0.000000
-3.941500 0.000000
-3.914700 0.000000
-3.888000 0.000000
-3.861200 0.000000
-3.834500 0.000000
-3.807700 0.000000
-3.781000 0.000000
-3.754200 0.000000
-3.727500 0.000000
-3.700800 0.000000
-3.674000 0.000000
-3.647300 0.000000
-3.620500 0.000000
-3.593800 0.000000
-3.567000 0.000000
-3.540300 0.000000
-3.513500 0.000000
-3.486800 0.000000
-3.460000 0.000000
-3.433300 0.000000
-3.406500 0.000000
-3.379800 0.000000
-3.353100 0.000000
-3.326300 0.000000
-3.299600 0.000000
-3.272800 0.000000
-3.246100 0.000000
-3.219300 0.000000
-3.192600 0.000000
-3.165800 0.000000
-3.139100 0.000000
-3.112300 0.000000
-3.085600 0.000000
-3.058800 0.000000
-3.032100 0.000000
-3.005400 0.000000
-2.978600 0.000000
-2.951900 0.000000
-2.925100 0.000000
-2.898400 0.000000
-2.871600 0.000000
-2.844900 0.000000
-2.818100 0.000000
-2.791400 0.000000
-2.764600 0.000000
-2.737900 0.000000
-2.711100 0.000000
-2.684400 0.000000
-2.657700 0.000000
-2.630900 0.000000
-2.604200 0.000000
-2.577400 0.000000
-2.550700 0.000000
-2.523900 0.000000
-2.497200 0.000000
-2.470400 0.000000
-2.443700 0.000000
-2.416900 0.000000
-2.390200 0.000000
-2.363400 0.000000
-2.336700 0.000000
-2.310000 0.000000
-2.283200 0.000000
-2.256500 0.000000
-2.229700 0.000000
-2.203000 0.000000
-2.176200 0.000000
-2.149500 0.000000
-2.122700 0.000000
-2.096000 0.000000
-2.069200 0.000000
-2.042500 0.000000
-2.015700 0.000000
-1.989000 0.000000
-1.962300 0.000000
-1.935500 0.000000
-1.908800 0.000000
-1.882000 0.001100
-1.855300 0.027200
-1.828500 0.114800
-1.801800 0.970400
-1.775000 2.117300
-1.748300 2.871900
-1.721500 3.091800
-1.694800 3.214900
-1.668000 3.323800
-1.641300 3.606900
-1.614600 4.102700
-1.587800 4.725900
-1.561100 5.486800
-1.534300 5.639100
-1.507600 5.399700
-1.480800 5.488400
-1.454100 5.814200
-1.427300 6.909600
-1.400600 8.215400
-1.373800 10.185300
-1.347100 11.223500
-1.320300 11.106100
-1.293600 11.149600
-1.266900 10.582000
-1.240100 8.274600
-1.213400 6.669600
-1.186600 10.705800
-1.159900 10.605900
-1.133100 11.857900
-1.106400 12.586100
-1.079600 15.287000
-1.052900 16.530200
-1.026100 15.979800
-0.999400 8.869700
-0.972600 11.802100
-0.945900 18.891600
-0.919200 14.395900
-0.892400 8.355600
-0.865700 4.598800
-0.838900 4.071800
-0.812200 9.246500
-0.785400 15.900000
-0.758700 15.355100
-0.731900 11.431600
-0.705200 9.755900
-0.678400 12.169100
-0.651700 26.654500
-0.624900 18.477900
-0.598200 14.530000
-0.571500 12.629000
-0.544700 13.818300
-0.518000 15.841700
-0.491200 16.684100
-0.464500 18.863400
-0.437700 18.261600
-0.411000 15.699300
-0.384200 26.166400
-0.357500 24.281400
-0.330700 27.882200
-0.304000 18.528400
-0.277200 21.108600
-0.250500 27.698500
-0.223800 15.378200
-0.197000 11.470400
-0.170300 13.697200
-0.143500 17.630000
-0.116800 13.602300
-0.090000 23.641800
-0.063300 18.418100
-0.036500 18.678700
-0.009800 16.982600
0.017000 16.650000
0.043700 15.246700
0.070500 20.577200
0.097200 14.153700
0.123900 14.728100
0.150700 16.105100
0.177400 18.449500
0.204200 19.031100
0.230900 15.714500
0.257700 17.227600
0.284400 20.505100
0.311200 18.073800
0.337900 20.939800
0.364700 11.204700
0.391400 7.489100
0.418200 11.833200
0.444900 16.519200
0.471700 20.517100
0.498400 18.174100
0.525100 10.641900
0.551900 12.815100
0.578600 14.255200
0.605400 14.698000
0.632100 17.465500
0.658900 16.630800
0.685600 15.615500
0.712400 17.129600
0.739100 17.555100
0.765900 15.478800
0.792600 11.830300
0.819400 10.059600
0.846100 13.174600
0.872800 16.113800
0.899600 26.989300
0.926300 17.064500
0.953100 12.761700
0.979800 12.354200
1.006600 16.525800
1.033300 32.433600
1.060100 14.013000
1.086800 13.372300
1.113600 27.216400
1.140300 17.167200
1.167100 8.273900
1.193800 14.069500
1.220500 26.363600
1.247300 14.296900
1.274000 23.628100
1.300800 22.084600
1.327500 14.467400
1.354300 15.093300
1.381000 18.536900
1.407800 18.857300
1.434500 16.231100
1.461300 16.951400
1.488000 16.173400
1.514800 17.350600
1.541500 20.726200
1.568200 17.814000
1.595000 14.619700
1.621700 13.514500
1.648500 22.871300
1.675200 24.597000
1.702000 23.130900
1.728700 18.896200
1.755500 17.273000
1.782200 14.549100
1.809000 13.505300
1.835700 11.309300
1.862500 5.930100
1.889200 2.866800
1.915900 1.117400
1.942700 0.219100
1.969400 0.000000
1.996200 0.000000
2.022900 0.000000
2.049700 0.000000
2.076400 0.000000
2.103200 0.000000
2.129900 0.000000
2.156700 0.000000
2.183400 0.000000
2.210200 0.000000
2.236900 0.000000
2.263600 0.000000
2.290400 0.000000
2.317100 0.000000
2.343900 0.000000
2.370600 0.000000
2.397400 0.000000
2.424100 0.000000
2.450900 0.000000
2.477600 0.000000
2.504400 0.000000
2.531100 0.000000
2.557900 0.000000
2.584600 0.000000
2.611300 0.000000
2.638100 0.000000
2.664800 0.000000
2.691600 0.000000
2.718300 0.000000
2.745100 0.000000
2.771800 0.000000
2.798600 0.000000
2.825300 0.000000
2.852100 0.000000
2.878800 0.000000
2.905600 0.000000
2.932300 0.000000
2.959000 0.000000
2.985800 0.000000
3.012500 0.000000
3.039300 0.000000
3.066000 0.000000
3.092800 0.000000
3.119500 0.000000
3.146300 0.000000
3.173000 0.000000
3.199800 0.000000
3.226500 0.000000
3.253300 0.000000
3.280000 0.000000
3.306700 0.000000
3.333500 0.000000
3.360200 0.000000
3.387000 0.000000
3.413700 0.000000
3.440500 0.000000
3.467200 0.000000
3.494000 0.000000
3.520700 0.000000
3.547500 0.000000
3.574200 0.000000
3.601000 0.000000
3.627700 0.000000
3.654400 0.000000
3.681200 0.000000
3.707900 0.000000
3.734700 0.000000
3.761400 0.000000
3.788200 0.000000
3.814900 0.000000
3.841700 0.000000
3.868400 0.000000
3.895200 0.000000
3.921900 0.000000
3.948700 0.000000
3.975400 0.000000
4.002100 0.000000
4.028900 0.000000
4.055600 0.000000
4.082400 0.000000
4.109100 0.000000
4.135900 0.000000
4.162600 0.000000
4.189400 0.000000
4.216100 0.000000
4.242900 0.000000
4.269600 0.000000
4.296400 0.000000
4.323100 0.000000
4.349800 0.000000
4.376600 0.000000
4.403300 0.000000
4.430100 0.000000
4.456800 0.000000
4.483600 0.000000
4.510300 0.000000
4.537100 0.000000
4.563800 0.000000
4.590600 0.000000
4.617300 0.000000
4.644100 0.000000
4.670800 0.000000
4.697500 0.000000
4.724300 0.000000
4.751000 0.000000
4.777800 0.000000
4.804500 0.000000
4.831300 0.000000
4.858000 0.000000
4.884800 0.000000
4.911500 0.000000
4.938300 0.000000
4.965000 0.000000
4.991800 0.000000
5.018500 0.000000
5.045200 0.000000
5.072000 0.000000
5.098700 0.000000
5.125500 0.000000
5.152200 0.000000
5.179000 0.000000
5.205700 0.000000
5.232500 0.000000
5.259200 0.000000
5.286000 0.000000
5.312700 0.000000
5.339500 0.000000
5.366200 0.000000
5.392900 0.000000
5.419700 0.000000
5.446400 0.000000
5.473200 0.000000
5.499900 0.000000
5.526700 0.000000
5.553400 0.000000
5.580200 0.000000
5.606900 0.000000
5.633700 0.000000
5.660400 0.000000
5.687200 0.000000
5.713900 0.000000
5.740600 0.000000
5.767400 0.000000
5.794100 0.000000
5.820900 0.000000
5.847600 0.000000
5.874400 0.000000
5.901100 0.000000
5.927900 0.000000
5.954600 0.000000
5.981400 0.000000
6.008100 0.000000
6.034900 0.000000
6.061600 0.000000
6.088400 0.000000
6.115100 0.058500
6.141800 0.150700
6.168600 0.270400
6.195300 0.424100
6.222100 0.639000
6.248800 0.868300
6.275600 1.085100
6.302300 1.295600
6.329100 1.499800
6.355800 1.703900
6.382600 1.908200
6.409300 2.100700
6.436100 2.289100
6.462800 2.376500
6.489500 2.427500
6.516300 2.467400
6.543000 2.390200
6.569800 2.335300
6.596500 2.339400
6.623300 2.393600
6.650000 2.455700
6.676800 2.448500
6.703500 2.471000
6.730300 2.654600
6.757000 2.980800
6.783800 3.251500
6.810500 3.540300
6.837200 4.533700
6.864000 5.713800
6.890700 5.967900
6.917500 5.509200
6.944200 5.153900
6.971000 4.937100
6.997700 4.870600
7.024500 4.786800
7.051200 4.655300
7.078000 4.555700
7.104700 4.918700
7.131500 5.424000
7.158200 5.926000
7.184900 6.371000
7.211700 6.776400
7.238400 7.325700
7.265200 8.260300
7.291900 9.782500
7.318700 9.635700
7.345400 9.431600
7.372200 8.304400
7.398900 7.281900
7.425700 7.045400
7.452400 7.065500
7.479200 7.838700
7.505900 7.953100
7.532600 8.052300
7.559400 7.322300
7.586100 6.609100
7.612900 6.247000
7.639600 5.992700
7.666400 5.798300
7.693100 4.161400
7.719900 3.797700
7.746600 3.706100
7.773400 3.748200
7.800100 3.880700
7.826900 4.314000
7.853600 5.378800
7.880300 7.309200
7.907100 9.537200
7.933800 11.453600
7.960600 12.157300
7.987300 8.154800
8.014100 5.988400
8.040800 6.478100
8.067600 8.138600
8.094300 9.522500
8.121100 5.517900
8.147800 2.396600
8.174600 3.713200
8.201300 5.198100
8.228000 6.644600
8.254800 8.809500
8.281500 10.829600
8.308300 11.188200
8.335000 11.419900
8.361800 11.343300
8.388500 11.636000
8.415300 11.798300
8.442000 12.524800
8.468800 13.924800
8.495500 13.411100
8.522300 13.310600
8.549000 12.361100
8.575700 11.898600
8.602500 14.158000
8.629200 12.435000
8.656000 12.307400
8.682700 12.986400
8.709500 13.508400
8.736200 11.784100
8.763000 10.412400
8.789700 9.788300
8.816500 9.960400
8.843200 10.154000
8.870000 11.471000
8.896700 11.658400
8.923400 12.393800
8.950200 11.423800
8.976900 11.645700
9.003700 11.140300
9.030400 10.624400
9.057200 8.729300
9.083900 9.349500
9.110700 9.194000
9.137400 8.638000
9.164200 6.446700
9.190900 8.314900
9.217700 10.096600
9.244400 9.653700
9.271100 9.602300
9.297900 8.584300
9.324600 8.531700
9.351400 12.097600
9.378100 17.212100
9.404900 17.468200
9.431600 14.998100
9.458400 12.303500
9.485100 10.430200
9.511900 11.362400
9.538600 12.708700
9.565400 14.626700
9.592100 14.956100
9.618800 12.464200
9.645600 11.569500
9.672300 12.792800
9.699100 15.413600
9.725800 17.296400
9.752600 16.197800
9.779300 10.652000
9.806100 12.700200
9.832800 14.635100
9.859600 14.852900
9.886300 10.684200
9.913100 10.232700
9.939800 9.913200
9.966500 11.022400
9.993300 11.478700
10.020000 11.624700
10.046800 10.164800
10.073500 8.233600
10.100300 7.085000
10.127000 8.044900
10.153800 8.707200
10.180500 9.174700
10.207300 9.550800
10.234000 10.888400
10.260800 14.431300
10.287500 12.835200
10.314200 12.316500
10.341000 12.222200
10.367700 11.228400
10.394500 10.717100
10.421200 10.548500
10.448000 11.566000
10.474700 12.184700
10.501500 10.848200
10.528200 9.223600
10.555000 9.081400
10.581700 11.336800
10.608500 11.169300
10.635200 10.018500
10.661900 9.820400
10.688700 9.675000
10.715400 9.268000
10.742200 8.446600
10.768900 7.650900
10.795700 7.828500
10.822400 8.341400
10.849200 10.234100
10.875900 12.615700
10.902700 10.227700
10.929400 8.472500
10.956200 8.255900
10.982900 9.156500
11.009600 10.414100
11.036400 14.741200
11.063100 16.140400
11.089900 16.301600
11.116600 13.941900
11.143400 18.172500
11.170100 13.542900
11.196900 22.097000
11.223600 11.380100
11.250400 13.226300
11.277100 13.168400
11.303900 10.574000
11.330600 9.126800
11.357300 9.158700
11.384100 10.601900
11.410800 11.295800
11.437600 11.359000
11.464300 14.961100
11.491100 12.631500
11.517800 9.897500
11.544600 12.517300
11.571300 11.511500
11.598100 10.902400
11.624800 6.950000
11.651600 6.311400
11.678300 5.925200
11.705000 6.339100
11.731800 6.652000
11.758500 7.304300
11.785300 9.747900
11.812000 10.877400
11.838800 10.236100
11.865500 9.568400
11.892300 7.641600
11.919000 7.743600
11.945800 10.644200
11.972500 14.101000
11.999300 14.330100
12.026000 12.604500
12.052800 10.786500
12.079500 9.943600
12.106200 11.615600
12.133000 13.184100
12.159700 11.638200
12.186500 12.831300
12.213200 11.055900
12.240000 8.616000
12.266700 7.279700
12.293500 6.402000
12.320200 6.586300
12.347000 6.108600
12.373700 6.702100
12.400500 6.866200
12.427200 7.791500
12.453900 9.396100
12.480700 10.160500
12.507400 9.849500
12.534200 9.734000
12.560900 8.016600
12.587700 6.661200
12.614400 6.248900
12.641200 6.265800
12.667900 6.292600
12.694700 6.212000
12.721400 6.005700
12.748200 8.432800
12.774900 8.985000
12.801600 9.188000
12.828400 6.693700
12.855100 5.520800
12.881900 5.248400
12.908600 5.138000
12.935400 5.254700
12.962100 5.642700
12.988900 6.290900
13.015600 7.158500
13.042400 8.188200
13.069100 9.042600
13.095900 9.237000
13.122600 9.308900
13.149300 9.160600
13.176100 9.186300
13.202800 9.051900
13.229600 8.859500
13.256300 9.119600
13.283100 8.840700
13.309800 11.920100
13.336600 13.642200
13.363300 9.688200
13.390100 10.612500
13.416800 8.953100
13.443600 8.489800
13.470300 6.548300
13.497000 6.609200
13.523800 7.276400
13.550500 7.498300
13.577300 7.050900
13.604000 6.453000
13.630800 5.870600
13.657500 5.825500
13.684300 5.899400
13.711000 5.754300
13.737800 5.350300
13.764500 4.782700
13.791300 4.500000
13.818000 4.180100
13.844700 4.082000
13.871500 3.974500
13.898200 3.839600
13.925000 3.714200
13.951700 3.594600
13.978500 3.453600
14.005200 3.408300
14.032000 3.354400
14.058700 3.313400
14.085500 3.323700
14.112200 3.421200
14.139000 3.573000
14.165700 3.718400
14.192400 4.044000
14.219200 4.164300
14.245900 4.187100
14.272700 4.212900
14.299400 4.227500
14.326200 4.231700
14.352900 4.238100
14.379700 4.252000
14.406400 4.266900
14.433200 4.278600
14.459900 4.268500
14.486700 4.253100
14.513400 4.220300
14.540100 4.115300
14.566900 4.029800
14.593600 3.976000
14.620400 3.949600
14.647100 3.974900
14.673900 4.099600
14.700600 4.284200
14.727400 4.497600
14.754100 4.746100
14.780900 4.974400
14.807600 5.101700
14.834400 5.219500
14.861100 5.043700
14.887800 4.733000
14.914600 4.604000
14.941300 4.544100
14.968100 4.627200
14.994800 4.667200
15.021600 4.747200
15.048300 4.757000
15.075100 4.760500
15.101800 5.284200
15.128600 4.662600
15.155300 4.843900
15.182100 5.082600
15.208800 5.407800
15.235500 5.763900
15.262300 6.103800
15.289000 5.865700
15.315800 5.562300
15.342500 5.456700
15.369300 5.516600
15.396000 5.686600
15.422800 5.771900
15.449500 5.838200
15.476300 6.099600
15.503000 7.404100
15.529800 7.820900
15.556500 7.270600
15.583200 6.817200
15.610000 6.103600
15.636700 5.295400
15.663500 4.851400
15.690200 4.652300
15.717000 4.471100
15.743700 4.373400
15.770500 4.324800
15.797200 4.348500
15.824000 4.500900
15.850700 4.882700
15.877500 5.688300
15.904200 6.900300
15.930900 8.231600
15.957700 10.541800
15.984400 6.955800
16.011200 5.704500
16.037900 4.210300
16.064700 3.245400
16.091400 2.804200
16.118200 3.163600
16.144900 3.567500
16.171700 3.862600
16.198400 4.007300
16.225200 4.084400
16.251900 4.137000
16.278600 4.148600
16.305400 4.119700
16.332100 4.135200
16.358900 4.178600
16.385600 4.178800
16.412400 4.240000
16.439100 4.314000
16.465900 4.389100
16.492600 4.707100
16.519400 4.916400
16.546100 5.198100
16.572900 5.538100
16.599600 5.404500
16.626300 5.504900
16.653100 5.609000
16.679800 5.856900
16.706600 5.707400
16.733300 5.232300
16.760100 4.623800
16.786800 4.026000
16.813600 3.942300
16.840300 3.954000
16.867100 4.621700
16.893800 5.310500
16.920600 5.566100
16.947300 5.652000
16.974000 5.587100
17.000800 5.158800
17.027500 4.760300
17.054300 4.426400
17.081000 4.233300
17.107800 4.568300
17.134500 4.746300
17.161300 4.897500
17.188000 5.062000
17.214800 5.324900
17.241500 5.532700
17.268300 5.748400
17.295000 6.329500
17.321700 6.716300
17.348500 6.955100
17.375200 7.405600
17.402000 7.138500
17.428700 6.172600
17.455500 5.588100
17.482200 5.367000
17.509000 4.531100
17.535700 4.287400
17.562500 4.255100
17.589200 4.319900
17.616000 4.431100
17.642700 4.574900
17.669500 4.731000
17.696200 4.947100
17.722900 5.168100
17.749700 5.327000
17.776400 5.506000
17.803200 5.443400
17.829900 5.370700
17.856700 5.346200
17.883400 5.159400
17.910200 5.124200
17.936900 5.210900
17.963700 5.591700
17.990400 5.926600
18.017200 6.274200
18.043900 6.628600
18.070600 7.031100
18.097400 7.407800
18.124100 8.198600
18.150900 8.131500
18.177600 7.656400
18.204400 7.228100
18.231100 6.727300
18.257900 5.888800
18.284600 5.627700
18.311400 5.360000
18.338100 5.271500
18.364900 5.321400
18.391600 5.397900
18.418300 5.422300
18.445100 5.376500
18.471800 5.415100
18.498600 5.517000
18.525300 5.703400
18.552100 6.073700
18.578800 6.310300
18.605600 6.150400
18.632300 6.006200
18.659100 5.858200
18.685800 6.454600
18.712600 6.367300
18.739300 4.992500
18.766000 4.399000
18.792800 4.648700
18.819500 5.082500
18.846300 5.957000
18.873000 9.015500
18.899800 8.651900
18.926500 8.973500
18.953300 7.713100
18.980000 5.189300
19.006800 4.895600
19.033500 5.042500
19.060300 5.402000
19.087000 5.786700
19.113700 6.177100
19.140500 6.318100
19.167200 6.072300
19.194000 5.467500
19.220700 5.145200
19.247500 5.173400
19.274200 5.663800
19.301000 6.856500
19.327700 7.174100
19.354500 5.996400
19.381200 5.461300
19.408000 5.708900
19.434700 6.409000
19.461400 7.655100
19.488200 8.715100
19.514900 8.721500
19.541700 7.734000
19.568400 7.762200
19.595200 7.807500
19.621900 7.677000
19.648700 7.715600
19.675400 8.080100
19.702200 8.342300
19.728900 8.233200
19.755700 7.885500
19.782400 7.456800
19.809100 6.486200
19.835900 6.397600
19.862600 6.786900
19.889400 7.010300
19.916100 7.375000
19.942900 7.625700
19.969600 7.742200
19.996400 7.963300
20.023100 8.041000
20.049900 7.268700
20.076600 7.259600
20.103400 6.854500
20.130100 6.935800
20.156800 6.974300
20.183600 7.038600
20.210300 7.517100
20.237100 7.590500
20.263800 7.426400
20.290600 7.328100
20.317300 7.334400
20.344100 7.092800
20.370800 6.688000
20.397600 6.066100
20.424300 5.386100
20.451100 4.929500
20.477800 5.022000
20.504500 5.300500
20.531300 5.681900
20.558000 6.117100
20.584800 6.503900
20.611500 6.736200
20.638300 7.045700
20.665000 6.483900
20.691800 5.753400
20.718500 5.332200
20.745300 5.066100
20.772000 4.932600
20.798800 5.097000
20.825500 5.774000
20.852200 6.527300
20.879000 6.335400
20.905700 6.356200
20.932500 6.477700
20.959200 5.868800
20.986000 5.767500
21.012700 5.268100
21.039500 5.147800
21.066200 5.404800
21.093000 5.413300
21.119700 5.510100
21.146500 5.702600
21.173200 5.870500
21.199900 5.787200
21.226700 5.917600
21.253400 6.007400
21.280200 6.025700
21.306900 6.409300
21.333700 6.689600
21.360400 6.888100
21.387200 6.831900
21.413900 6.848700
21.440700 7.385300
21.467400 7.242200
21.494200 7.616600
21.520900 7.459500
21.547600 7.571200
21.574400 7.159200
21.601100 6.909600
21.627900 6.702600
21.654600 6.536000
21.681400 6.359900
21.708100 6.568900
21.734900 6.923000
21.761600 6.538300
21.788400 6.475100
21.815100 6.489900
21.841900 6.648500
21.868600 6.800300
21.895300 6.865100
21.922100 6.892700
21.948800 6.880800
21.975600 6.854600
22.002300 6.800900
22.029100 6.986700
22.055800 6.106100
22.082600 5.693600
22.109300 5.671200
22.136100 5.717400
22.162800 5.264100
22.189600 4.926500
22.216300 4.694500
22.243000 4.553200
22.269800 4.527900
22.296500 4.840800
22.323300 5.328300
22.350000 5.732200
22.376800 6.057700
22.403500 6.418800
22.430300 6.953100
22.457000 7.635700
22.483800 7.070900
22.510500 6.743600
22.537300 7.903200
22.564000 7.083600
22.590700 7.278400
22.617500 6.914200
22.644200 6.109500
22.671000 5.404800
22.697700 4.928800
22.724500 4.488300
22.751200 4.471700
22.778000 4.662400
22.804700 4.879200
22.831500 5.034400
22.858200 5.793900
22.885000 6.253500
22.911700 6.274000
22.938400 6.245400
22.965200 6.306300
22.991900 6.462700
23.018700 6.582600
23.045400 6.517000
23.072200 6.277100
23.098900 6.418500
23.125700 5.438900
23.152400 5.437000
23.179200 5.327700
23.205900 4.878300
23.232700 5.124600
23.259400 5.706600
23.286200 5.803400
23.312900 5.829100
23.339600 6.169800
23.366400 6.556000
23.393100 6.734400
23.419900 6.572600
23.446600 6.038700
23.473400 5.079100
23.500100 4.227800
23.526900 4.148100
23.553600 4.385100
23.580400 4.694500
23.607100 5.035000
23.633900 5.330400
23.660600 6.230400
23.687300 6.373100
23.714100 6.661700
23.740800 6.916200
23.767600 7.131200
23.794300 6.918700
23.821100 6.499100
23.847800 6.203400
23.874600 5.947600
23.901300 6.082000
23.928100 6.158600
23.954800 5.501700
23.981600 5.277000
24.008300 5.247500
24.035000 5.483200
24.061800 5.909000
24.088500 6.355000
24.115300 6.880400
24.142000 8.074900
24.168800 6.323200
24.195500 5.882000
24.222300 5.674200
24.249000 5.704400
24.275800 4.903700
24.302500 4.785900
24.329300 5.165600
24.356000 5.685000
24.382700 6.346100
24.409500 6.847400
24.436200 6.322900
24.463000 7.548900
24.489700 6.276500
24.516500 6.676500
24.543200 6.934200
24.570000 7.629000
24.596700 6.624300
24.623500 6.564300
24.650200 6.326500
24.677000 6.586200
24.703700 7.089500
24.730400 7.403600
24.757200 7.420600
24.783900 6.784000
24.810700 6.259000
24.837400 5.984100
24.864200 5.873900
24.890900 5.792300
24.917700 6.871300
24.944400 6.750700
24.971200 6.847300
24.997900 6.750300
25.024700 6.590000
25.051400 6.327600
25.078100 6.297000
25.104900 6.372900
25.131600 6.596200
25.158400 7.085600
25.185100 7.410700
25.211900 7.609400
25.238600 7.501200
25.265400 7.155200
25.292100 6.813400
25.318900 6.577400
25.345600 6.127600
25.372400 5.757900
25.399100 5.480100
25.425800 5.771100
25.452600 6.374000
25.479300 6.445800
25.506100 6.323100
25.532800 6.351800
25.559600 6.786900
25.586300 7.208300
25.613100 7.700700
25.639800 7.953100
25.666600 8.032700
25.693300 7.204300
25.720100 7.504500
25.746800 8.139100
25.773500 8.688800
25.800300 8.146500
25.827000 8.102200
25.853800 7.702400
25.880500 7.312700
25.907300 7.850800
25.934000 7.260700
25.960800 6.631300
25.987500 6.702700
26.014300 7.154300
26.041000 7.492000
26.067800 7.726900
26.094500 8.177700
26.121200 8.515000
26.148000 9.940600
26.174700 8.303300
26.201500 7.345900
26.228200 7.672000
26.255000 8.544800
26.281700 7.984900
26.308500 7.838200
26.335200 7.831200
26.362000 7.767200
26.388700 7.940900
26.415500 8.696700
26.442200 9.068600
26.468900 8.521600
26.495700 7.329100
26.522400 4.968300
26.549200 4.148400
26.575900 3.981000
26.602700 3.990900
26.629400 4.284900
26.656200 4.703900
26.682900 5.713700
26.709700 7.707500
26.736400 9.185700
26.763200 9.577800
26.789900 9.291200
26.816600 8.225100
26.843400 6.908300
26.870100 5.588300
26.896900 3.883200
26.923600 3.481400
26.950400 3.702600
26.977100 4.039200
27.003900 4.404400
27.030600 4.816900
27.057400 5.271500
27.084100 5.754600
27.110900 6.248800
27.137600 6.670000
27.164300 6.398200
27.191100 5.803500
27.217800 5.235900
27.244600 4.741400
27.271300 4.245000
27.298100 3.756900
27.324800 3.276500
27.351600 2.819400
27.378300 2.440700
27.405100 2.208800
27.431800 1.781000
27.458600 1.373400
27.485300 1.132100
27.512000 1.026300
27.538800 0.924000
27.565500 0.826700
27.592300 0.745400
27.619000 0.677000
27.645800 0.603100
27.672500 0.524900
27.699300 0.440600
27.726000 0.322000
27.752800 0.193000
27.779500 0.103700
27.806300 0.058400
27.833000 0.035800
27.859700 0.023100
27.886500 0.013200
27.913200 0.006000
27.940000 0.001600
27.966700 0.000000
27.993500 0.000000
28.020200 0.000000
28.047000 0.000000
28.073700 0.000000
28.100500 0.000000
28.127200 0.000000
28.154000 0.000000
28.180700 0.000000
28.207400 0.000000
28.234200 0.000000
28.260900 0.000000
28.287700 0.000000
28.314400 0.000000
28.341200 0.000000
28.367900 0.000000
28.394700 0.000000
28.421400 0.000000
28.448200 0.000000
28.474900 0.000000
28.501700 0.000000
28.528400 0.000000
28.555100 0.000000
28.581900 0.000000
28.608600 0.000000
28.635400 0.000000
28.662100 0.000000
28.688900 0.000000
28.715600 0.000000
28.742400 0.000000
28.769100 0.000000
28.795900 0.000000
28.822600 0.000000
28.849400 0.000000
28.876100 0.000000
28.902900 0.000000
28.929600 0.000000
28.956300 0.000000
28.983100 0.000000
29.009800 0.000000
29.036600 0.000000
29.063300 0.000000
29.090100 0.000000
29.116800 0.000000
29.143600 0.000000
29.170300 0.000000
29.197100 0.000000
29.223800 0.000000
29.250600 0.000000
29.277300 0.000000
29.304000 0.000000
29.330800 0.000000
29.357500 0.000000
29.384300 0.000000
29.411000 0.000000
29.437800 0.000000
29.464500 0.000000
29.491300 0.000000
29.518000 0.000000
29.544800 0.000000
29.571500 0.000000
29.598300 0.000000
29.625000 0.000000
29.651700 0.000000
29.678500 0.000000
29.705200 0.000000
29.732000 0.000000
29.758700 0.000000
29.785500 0.000000
29.812200 0.000000
29.839000 0.000000
29.865700 0.000000
29.892500 0.000000
29.919200 0.000000
29.946000 0.000000
29.972700 0.000000
29.999400 0.000000
30.026200 0.000000
30.052900 0.000000
30.079700 0.000000
30.106400 0.000000
30.133200 0.000000
30.159900 0.000000
30.186700 0.000000
30.213400 0.000000
30.240200 0.000000
30.266900 0.000000
30.293700 0.000000
30.320400 0.000000
30.347100 0.000000
30.373900 0.000000
30.400600 0.000000
e
