set title 'mp-1079760 - Density of States'
set xlabel 'Energy (eV)'
set ylabel 'DOS (states/eV)'
set grid
set xrange [-10:10]
set yrange [0:36.097]
set xzeroaxis lt -1
set terminal png size 800,600
set output 'mp-1079760_dos_gnuplot.png'
plot '-' using 1:2 with lines title 'DOS'
-13.267600 0.000000
-13.247200 0.000000
-13.226800 0.000000
-13.206400 0.000000
-13.186000 0.000000
-13.165600 0.000000
-13.145200 0.000000
-13.124800 0.000000
-13.104400 0.000000
-13.084000 0.000000
-13.063600 0.000000
-13.043200 0.000000
-13.022800 0.000000
-13.002400 0.000000
-12.982000 0.000000
-12.961600 0.000000
-12.941200 0.000000
-12.920800 0.000000
-12.900400 0.000000
-12.880000 0.000000
-12.859500 0.000000
-12.839100 0.000000
-12.818700 0.000000
-12.798300 0.000000
-12.777900 0.000000
-12.757500 0.000000
-12.737100 0.000000
-12.716700 0.000000
-12.696300 0.000000
-12.675900 0.000000
-12.655500 0.000000
-12.635100 0.000000
-12.614700 0.000000
-12.594300 0.000000
-12.573900 0.000000
-12.553500 0.000000
-12.533100 0.000000
-12.512700 0.000000
-12.492300 0.000000
-12.471900 0.000000
-12.451500 0.000000
-12.431100 0.000000
-12.410600 0.000000
-12.390200 0.000000
-12.369800 0.000000
-12.349400 0.000000
-12.329000 0.000000
-12.308600 0.000000
-12.288200 0.000000
-12.267800 0.000000
-12.247400 0.000000
-12.227000 0.000000
-12.206600 0.000000
-12.186200 0.000000
-12.165800 0.000000
-12.145400 0.000000
-12.125000 0.000000
-12.104600 0.000000
-12.084200 0.000000
-12.063800 0.000000
-12.043400 0.000000
-12.023000 0.000000
-12.002600 0.000000
-11.982200 0.000000
-11.961700 0.000000
-11.941300 0.000000
-11.920900 0.000000
-11.900500 0.000000
-11.880100 0.000000
-11.859700 0.000000
-11.839300 0.000000
-11.818900 0.000000
-11.798500 0.000000
-11.778100 0.000000
-11.757700 0.000000
-11.737300 0.000000
-11.716900 0.000000
-11.696500 0.000000
-11.676100 0.000000
-11.655700 0.000000
-11.635300 0.000000
-11.614900 0.000000
-11.594500 0.000000
-11.574100 0.000000
-11.553700 0.000000
-11.533200 0.000000
-11.512800 0.000000
-11.492400 0.000000
-11.472000 0.000000
-11.451600 0.000000
-11.431200 0.000000
-11.410800 0.005500
-11.390400 0.707000
-11.370000 1.005300
-11.349600 1.423300
-11.329200 1.729300
-11.308800 2.040200
-11.288400 2.369300
-11.268000 2.732300
-11.247600 3.130800
-11.227200 3.544100
-11.206800 4.058200
-11.186400 4.647600
-11.166000 5.413800
-11.145600 6.549900
-11.125200 7.976900
-11.104800 9.318100
-11.084300 9.183800
-11.063900 9.338000
-11.043500 10.124000
-11.023100 8.263400
-11.002700 8.338300
-10.982300 7.908500
-10.961900 8.626300
-10.941500 9.608200
-10.921100 9.023200
-10.900700 9.306500
-10.880300 9.164000
-10.859900 7.248200
-10.839500 5.889800
-10.819100 5.053900
-10.798700 4.392800
-10.778300 3.813000
-10.757900 3.300700
-10.737500 2.836300
-10.717100 2.436700
-10.696700 1.996400
-10.676300 1.578200
-10.655900 1.114300
-10.635400 0.144000
-10.615000 0.000000
-10.594600 0.000000
-10.574200 0.000000
-10.553800 0.000000
-10.533400 0.000000
-10.513000 0.000000
-10.492600 0.000000
-10.472200 0.000000
-10.451800 0.000000
-10.431400 0.000000
-10.411000 0.000000
-10.390600 0.000000
-10.370200 0.000000
-10.349800 0.000000
-10.329400 0.000000
-10.309000 0.000000
-10.288600 0.000000
-10.268200 0.000000
-10.247800 0.000000
-10.227400 0.000000
-10.207000 0.000000
-10.186500 0.000000
-10.166100 0.000000
-10.145700 0.000000
-10.125300 0.000000
-10.104900 0.000000
-10.084500 0.000000
-10.064100 0.000000
-10.043700 0.000000
-10.023300 0.000000
-10.002900 0.000000
-9.982500 0.000000
-9.962100 0.000000
-9.941700 0.000000
-9.921300 0.000000
-9.900900 0.000000
-9.880500 0.000000
-9.860100 0.000000
-9.839700 0.000000
-9.819300 0.000000
-9.798900 0.000000
-9.778500 0.000000
-9.758100 0.000000
-9.737600 0.000000
-9.717200 0.000000
-9.696800 0.000000
-9.676400 0.000000
-9.656000 0.000000
-9.635600 0.000000
-9.615200 0.000000
-9.594800 0.000000
-9.574400 0.000000
-9.554000 0.000000
-9.533600 0.000000
-9.513200 0.000000
-9.492800 0.000000
-9.472400 0.000000
-9.452000 0.000000
-9.431600 0.000000
-9.411200 0.000000
-9.390800 0.000000
-9.370400 0.000000
-9.350000 0.000000
-9.329600 0.000000
-9.309100 0.000000
-9.288700 0.000000
-9.268300 0.000000
-9.247900 0.000000
-9.227500 0.000000
-9.207100 0.000000
-9.186700 0.000000
-9.166300 0.000000
-9.145900 0.000000
-9.125500 0.000000
-9.105100 0.000000
-9.084700 0.000000
-9.064300 0.000000
-9.043900 0.000000
-9.023500 0.000000
-9.003100 0.000000
-8.982700 0.000000
-8.962300 0.000000
-8.941900 0.000000
-8.921500 0.000000
-8.901100 0.000000
-8.880700 0.000000
-8.860200 0.000000
-8.839800 0.000000
-8.819400 0.000000
-8.799000 0.000000
-8.778600 0.000000
-8.758200 0.000000
-8.737800 0.000000
-8.717400 0.000000
-8.697000 0.000000
-8.676600 0.000000
-8.656200 0.000000
-8.635800 0.000000
-8.615400 0.000000
-8.595000 0.000000
-8.574600 0.000000
-8.554200 0.000000
-8.533800 0.000000
-8.513400 0.000000
-8.493000 0.000000
-8.472600 0.000000
-8.452200 0.000000
-8.431800 0.000000
-8.411300 0.000000
-8.390900 0.000000
-8.370500 0.000000
-8.350100 0.000000
-8.329700 0.000000
-8.309300 0.000000
-8.288900 0.000000
-8.268500 0.000000
-8.248100 0.000000
-8.227700 0.000000
-8.207300 0.000000
-8.186900 0.000000
-8.166500 0.000000
-8.146100 0.000000
-8.125700 0.000000
-8.105300 0.000000
-8.084900 0.000000
-8.064500 0.000000
-8.044100 0.000000
-8.023700 0.000000
-8.003300 0.000000
-7.982900 0.000000
-7.962400 0.000000
-7.942000 0.000000
-7.921600 0.000000
-7.901200 0.000000
-7.880800 0.000000
-7.860400 0.000000
-7.840000 0.000000
-7.819600 0.000000
-7.799200 0.000000
-7.778800 0.000000
-7.758400 0.000000
-7.738000 0.000000
-7.717600 0.000000
-7.697200 0.000000
-7.676800 0.000000
-7.656400 0.000000
-7.636000 0.000000
-7.615600 0.000000
-7.595200 0.000000
-7.574800 0.000000
-7.554400 0.000000
-7.534000 0.000000
-7.513500 0.000000
-7.493100 0.000000
-7.472700 0.000000
-7.452300 0.000000
-7.431900 0.000000
-7.411500 0.000000
-7.391100 0.000000
-7.370700 0.000000
-7.350300 0.000000
-7.329900 0.000000
-7.309500 0.000000
-7.289100 0.000000
-7.268700 0.000000
-7.248300 0.000000
-7.227900 0.000000
-7.207500 0.000000
-7.187100 0.000000
-7.166700 0.000000
-7.146300 0.000000
-7.125900 0.000000
-7.105500 0.000000
-7.085000 0.000000
-7.064600 0.000000
-7.044200 0.000000
-7.023800 0.000000
-7.003400 0.000000
-6.983000 0.000000
-6.962600 0.000000
-6.942200 0.000000
-6.921800 0.000000
-6.901400 0.000000
-6.881000 0.000000
-6.860600 0.000000
-6.840200 0.000000
-6.819800 0.000000
-6.799400 0.000000
-6.779000 0.000000
-6.758600 0.000000
-6.738200 0.000000
-6.717800 0.000000
-6.697400 0.000000
-6.677000 0.000000
-6.656600 0.000000
-6.636100 0.000000
-6.615700 0.000000
-6.595300 0.000000
-6.574900 0.000000
-6.554500 0.000000
-6.534100 0.000000
-6.513700 0.000000
-6.493300 0.000000
-6.472900 0.000000
-6.452500 0.000000
-6.432100 0.000000
-6.411700 0.000000
-6.391300 0.000000
-6.370900 0.000000
-6.350500 0.000000
-6.330100 0.000000
-6.309700 0.000000
-6.289300 0.000000
-6.268900 0.000000
-6.248500 0.000000
-6.228100 0.000000
-6.207700 0.000000
-6.187200 0.000000
-6.166800 0.000000
-6.146400 0.000000
-6.126000 0.000000
-6.105600 0.000000
-6.085200 0.000000
-6.064800 0.000000
-6.044400 0.000000
-6.024000 0.000000
-6.003600 0.000000
-5.983200 0.000000
-5.962800 0.000000
-5.942400 0.000000
-5.922000 0.000000
-5.901600 0.000000
-5.881200 0.000000
-5.860800 0.000000
-5.840400 0.000000
-5.820000 0.000000
-5.799600 0.000000
-5.779200 0.000000
-5.758800 0.000000
-5.738300 0.000000
-5.717900 0.000000
-5.697500 0.000000
-5.677100 0.000000
-5.656700 0.000000
-5.636300 0.000000
-5.615900 0.000000
-5.595500 0.000000
-5.575100 0.000000
-5.554700 0.000000
-5.534300 0.000000
-5.513900 0.000000
-5.493500 0.000000
-5.473100 0.000000
-5.452700 0.000000
-5.432300 0.000000
-5.411900 0.000000
-5.391500 0.000000
-5.371100 0.000000
-5.350700 0.000000
-5.330300 0.000000
-5.309800 0.000000
-5.289400 0.000000
-5.269000 0.000000
-5.248600 0.000000
-5.228200 0.000000
-5.207800 0.000000
-5.187400 0.000000
-5.167000 0.000000
-5.146600 0.000000
-5.126200 0.000000
-5.105800 0.000000
-5.085400 0.000000
-5.065000 0.000000
-5.044600 0.000000
-5.024200 0.000000
-5.003800 0.000000
-4.983400 0.000000
-4.963000 0.000000
-4.942600 0.000000
-4.922200 0.000000
-4.901800 0.000000
-4.881400 0.000000
-4.860900 0.000000
-4.840500 0.000000
-4.820100 0.000000
-4.799700 0.000000
-4.779300 0.000000
-4.758900 0.000000
-4.738500 0.000000
-4.718100 0.000000
-4.697700 0.000000
-4.677300 0.000000
-4.656900 0.000000
-4.636500 0.000000
-4.616100 0.000000
-4.595700 0.000000
-4.575300 0.000000
-4.554900 0.000000
-4.534500 0.000000
-4.514100 0.000000
-4.493700 0.000000
-4.473300 0.000000
-4.452900 0.000000
-4.432500 0.000000
-4.412000 0.000000
-4.391600 0.000000
-4.371200 0.000000
-4.350800 0.000000
-4.330400 0.000000
-4.310000 0.000000
-4.289600 0.000000
-4.269200 0.000000
-4.248800 0.000000
-4.228400 0.000000
-4.208000 0.000000
-4.187600 0.000000
-4.167200 0.000000
-4.146800 0.000000
-4.126400 0.000000
-4.106000 0.000000
-4.085600 0.000000
-4.065200 0.000000
-4.044800 0.000000
-4.024400 0.000000
-4.004000 0.000000
-3.983600 0.000000
-3.963100 0.000000
-3.942700 0.000000
-3.922300 0.000000
-3.901900 0.000000
-3.881500 0.000000
-3.861100 0.000000
-3.840700 0.000000
-3.820300 0.000000
-3.799900 0.000000
-3.779500 0.000000
-3.759100 0.000000
-3.738700 0.000000
-3.718300 0.000000
-3.697900 0.000000
-3.677500 0.000000
-3.657100 0.000000
-3.636700 0.000000
-3.616300 0.000000
-3.595900 0.000000
-3.575500 0.000000
-3.555100 0.000000
-3.534700 0.000000
-3.514200 0.000000
-3.493800 0.000000
-3.473400 0.000000
-3.453000 0.000000
-3.432600 0.000000
-3.412200 0.000000
-3.391800 0.000000
-3.371400 0.000000
-3.351000 0.000000
-3.330600 0.000000
-3.310200 0.000000
-3.289800 0.000000
-3.269400 0.000000
-3.249000 0.000000
-3.228600 0.000000
-3.208200 0.000000
-3.187800 0.000000
-3.167400 0.000000
-3.147000 0.000000
-3.126600 0.000000
-3.106200 0.000000
-3.085700 0.000000
-3.065300 0.000000
-3.044900 0.000000
-3.024500 0.000000
-3.004100 0.000000
-2.983700 0.000000
-2.963300 0.000000
-2.942900 0.000000
-2.922500 0.000000
-2.902100 0.000000
-2.881700 0.000000
-2.861300 0.000000
-2.840900 0.000000
-2.820500 0.000000
-2.800100 0.000000
-2.779700 0.000000
-2.759300 0.000000
-2.738900 0.000000
-2.718500 0.000000
-2.698100 0.000000
-2.677700 0.386100
-2.657300 2.336600
-2.636800 6.108700
-2.616400 6.194500
-2.596000 12.054700
-2.575600 11.984600
-2.555200 9.168300
-2.534800 6.623200
-2.514400 5.875800
-2.494000 5.641900
-2.473600 5.572300
-2.453200 5.600500
-2.432800 5.765300
-2.412400 6.683000
-2.392000 6.323200
-2.371600 5.986900
-2.351200 5.363700
-2.330800 6.628200
-2.310400 6.979100
-2.290000 7.585200
-2.269600 7.685700
-2.249200 7.214000
-2.228800 6.981000
-2.208400 7.146800
-2.187900 8.574100
-2.167500 8.681400
-2.147100 9.018600
-2.126700 9.126500
-2.106300 9.061700
-2.085900 9.062100
-2.065500 7.368100
-2.045100 7.228500
-2.024700 7.094900
-2.004300 7.064100
-1.983900 7.023700
-1.963500 6.855100
-1.943100 7.136200
-1.922700 7.306700
-1.902300 8.151500
-1.881900 7.129600
-1.861500 6.365300
-1.841100 10.263000
-1.820700 4.981700
-1.800300 4.676100
-1.779900 4.466700
-1.759500 4.685600
-1.739000 5.720900
-1.718600 5.331800
-1.698200 4.579400
-1.677800 4.240600
-1.657400 3.871900
-1.637000 3.516600
-1.616600 3.205600
-1.596200 3.113800
-1.575800 2.703500
-1.555400 3.065300
-1.535000 3.511700
-1.514600 4.269600
-1.494200 6.650800
-1.473800 6.202400
-1.453400 6.719800
-1.433000 7.387600
-1.412600 8.418200
-1.392200 10.180500
-1.371800 13.977100
-1.351400 12.126900
-1.331000 10.688400
-1.310500 10.130100
-1.290100 10.092100
-1.269700 11.223200
-1.249300 11.457100
-1.228900 11.456800
-1.208500 13.669100
-1.188100 10.269400
-1.167700 9.708300
-1.147300 11.706800
-1.126900 7.894800
-1.106500 6.347100
-1.086100 5.370000
-1.065700 4.648700
-1.045300 3.440200
-1.024900 2.603400
-1.004500 1.941500
-0.984100 1.397300
-0.963700 1.132600
-0.943300 0.975800
-0.922900 0.830800
-0.902500 0.712900
-0.882100 0.631900
-0.861600 0.525200
-0.841200 0.376500
-0.820800 0.173600
-0.800400 0.047600
-0.780000 0.000400
-0.759600 0.000000
-0.739200 0.000000
-0.718800 0.000000
-0.698400 0.000000
-0.678000 0.000000
-0.657600 0.000000
-0.637200 0.000000
-0.616800 0.000000
-0.596400 0.000000
-0.576000 0.000000
-0.555600 0.000000
-0.535200 0.000000
-0.514800 0.000000
-0.494400 0.000000
-0.474000 0.000000
-0.453600 0.000000
-0.433200 0.000000
-0.412700 0.000000
-0.392300 0.000000
-0.371900 0.000000
-0.351500 0.000000
-0.331100 0.000000
-0.310700 0.016200
-0.290300 0.064500
-0.269900 0.140100
-0.249500 0.201500
-0.229100 0.265500
-0.208700 0.552100
-0.188300 1.255600
-0.167900 1.928000
-0.147500 2.518400
-0.127100 3.433800
-0.106700 3.813700
-0.086300 3.659500
-0.065900 4.134400
-0.045500 4.632600
-0.025100 4.581500
-0.004700 4.376300
0.015700 3.684700
0.036200 3.434800
0.056600 4.315700
0.077000 5.029500
0.097400 5.490700
0.117800 5.675500
0.138200 7.261600
0.158600 8.725400
0.179000 9.673100
0.199400 10.586300
0.219800 16.378700
0.240200 14.704300
0.260600 13.644600
0.281000 14.345900
0.301400 17.167800
0.321800 14.491900
0.342200 12.608300
0.362600 11.493400
0.383000 10.630100
0.403400 10.376900
0.423800 10.305000
0.444200 9.750100
0.464600 10.361500
0.485100 13.049500
0.505500 17.733800
0.525900 14.965800
0.546300 12.831400
0.566700 11.050000
0.587100 10.750500
0.607500 11.071000
0.627900 11.021500
0.648300 11.938800
0.668700 13.802900
0.689100 16.969500
0.709500 23.837100
0.729900 15.433500
0.750300 10.274100
0.770700 9.929400
0.791100 9.375600
0.811500 8.015800
0.831900 8.266300
0.852300 9.341200
0.872700 14.405000
0.893100 20.345200
0.913600 16.310300
0.934000 15.204800
0.954400 14.507700
0.974800 22.317900
0.995200 20.572400
1.015600 18.906400
1.036000 18.392200
1.056400 16.161800
1.076800 12.188500
1.097200 17.560000
1.117600 23.487800
1.138000 28.099100
1.158400 13.247100
1.178800 5.538800
1.199200 5.478800
1.219600 11.180700
1.240000 17.829500
1.260400 17.398100
1.280800 14.419400
1.301200 18.372100
1.321600 18.669700
1.342000 19.130100
1.362500 17.781300
1.382900 15.738000
1.403300 13.035300
1.423700 13.254700
1.444100 14.617900
1.464500 18.316800
1.484900 17.857300
1.505300 15.812100
1.525700 13.246600
1.546100 13.241200
1.566500 14.568300
1.586900 13.189400
1.607300 11.053800
1.627700 9.986200
1.648100 10.175100
1.668500 10.898000
1.688900 15.473000
1.709300 32.815800
1.729700 13.405200
1.750100 10.868500
1.770500 11.828400
1.790900 13.868300
1.811400 14.207800
1.831800 13.979900
1.852200 12.931200
1.872600 11.960400
1.893000 11.975500
1.913400 11.953600
1.933800 11.188700
1.954200 10.386100
1.974600 9.869800
1.995000 9.064200
2.015400 9.165000
2.035800 9.830200
2.056200 9.033700
2.076600 9.743000
2.097000 9.366800
2.117400 10.156600
2.137800 11.389500
2.158200 11.344500
2.178600 10.055100
2.199000 9.847100
2.219400 10.641500
2.239800 12.364800
2.260300 17.377300
2.280700 14.766300
2.301100 14.897000
2.321500 16.532900
2.341900 15.769100
2.362300 15.440400
2.382700 14.574900
2.403100 15.915900
2.423500 16.307600
2.443900 19.359700
2.464300 25.111100
2.484700 22.202500
2.505100 20.598500
2.525500 17.012700
2.545900 14.747000
2.566300 14.329700
2.586700 15.210400
2.607100 16.632000
2.627500 16.529900
2.647900 14.416900
2.668300 12.209200
2.688700 17.279200
2.709200 22.868100
2.729600 16.681500
2.750000 15.602000
2.770400 18.205900
2.790800 20.199500
2.811200 14.076100
2.831600 12.333700
2.852000 13.151200
2.872400 10.863400
2.892800 8.693800
2.913200 13.096200
2.933600 15.847900
2.954000 18.772900
2.974400 21.753900
2.994800 23.481400
3.015200 18.040700
3.035600 15.114400
3.056000 15.406700
3.076400 17.331000
3.096800 14.446700
3.117200 16.144400
3.137700 17.531600
3.158100 17.916900
3.178500 15.576800
3.198900 16.081800
3.219300 16.913800
3.239700 19.011500
3.260100 18.849000
3.280500 16.219500
3.300900 10.230500
3.321300 8.865200
3.341700 10.016500
3.362100 12.255200
3.382500 11.598900
3.402900 9.901700
3.423300 9.137900
3.443700 8.931400
3.464100 8.625700
3.484500 6.933800
3.504900 5.180500
3.525300 4.697800
3.545700 4.729400
3.566100 4.752600
3.586600 4.407100
3.607000 4.282200
3.627400 4.203100
3.647800 4.244900
3.668200 4.652600
3.688600 4.629700
3.709000 5.487900
3.729400 7.496200
3.749800 5.102500
3.770200 4.645100
3.790600 4.267200
3.811000 3.506600
3.831400 3.170900
3.851800 2.996000
3.872200 2.842700
3.892600 2.834800
3.913000 2.856200
3.933400 2.947600
3.953800 3.113100
3.974200 3.390800
3.994600 3.757000
4.015000 4.313500
4.035500 4.496900
4.055900 4.407900
4.076300 4.729500
4.096700 4.901400
4.117100 5.125200
4.137500 5.720500
4.157900 4.570700
4.178300 4.566100
4.198700 5.020100
4.219100 4.916400
4.239500 4.729400
4.259900 4.637800
4.280300 4.689900
4.300700 4.771100
4.321100 4.920300
4.341500 4.980400
4.361900 4.867900
4.382300 4.791400
4.402700 4.827800
4.423100 4.824700
4.443500 4.844800
4.463900 5.136800
4.484400 5.229000
4.504800 4.903500
4.525200 4.404200
4.545600 4.029800
4.566000 4.040600
4.586400 3.976600
4.606800 3.781100
4.627200 3.099400
4.647600 2.192100
4.668000 2.185100
4.688400 2.189500
4.708800 2.227100
4.729200 2.318500
4.749600 2.406800
4.770000 2.642500
4.790400 2.945000
4.810800 3.109300
4.831200 3.199700
4.851600 3.427100
4.872000 3.705700
4.892400 3.715200
4.912900 3.760700
4.933300 3.744100
4.953700 3.681700
4.974100 3.597500
4.994500 3.507100
5.014900 3.336300
5.035300 3.137500
5.055700 2.655100
5.076100 1.937800
5.096500 1.733600
5.116900 1.676600
5.137300 1.644800
5.157700 1.618000
5.178100 1.601800
5.198500 1.597300
5.218900 1.540600
5.239300 1.526300
5.259700 1.639500
5.280100 1.792200
5.300500 1.940200
5.320900 2.043800
5.341300 1.958100
5.361800 1.723000
5.382200 1.414400
5.402600 1.280500
5.423000 1.452900
5.443400 1.692000
5.463800 2.003600
5.484200 2.657900
5.504600 4.026100
5.525000 7.711500
5.545400 14.127000
5.565800 9.421700
5.586200 5.973200
5.606600 3.749200
5.627000 3.590500
5.647400 3.478300
5.667800 3.356300
5.688200 3.370300
5.708600 3.916500
5.729000 6.443100
5.749400 8.264700
5.769800 9.138500
5.790200 9.865900
5.810700 10.204200
5.831100 10.627200
5.851500 11.185200
5.871900 11.205600
5.892300 10.220700
5.912700 8.950800
5.933100 8.969300
5.953500 4.667000
5.973900 3.493900
5.994300 2.351400
6.014700 1.969300
6.035100 1.800400
6.055500 1.540200
6.075900 1.371500
6.096300 1.225600
6.116700 1.107000
6.137100 1.031400
6.157500 1.008800
6.177900 1.061000
6.198300 1.070800
6.218700 1.038700
6.239100 1.101700
6.259600 1.220100
6.280000 1.435700
6.300400 1.690700
6.320800 2.546300
6.341200 2.817800
6.361600 2.654500
6.382000 2.391000
6.402400 2.347000
6.422800 2.306300
6.443200 2.234400
6.463600 2.205400
6.484000 2.156800
6.504400 2.113600
6.524800 2.075800
6.545200 2.046600
6.565600 2.030300
6.586000 2.019200
6.606400 2.015300
6.626800 2.033200
6.647200 2.062100
6.667600 2.083300
6.688000 2.086500
6.708500 2.081700
6.728900 2.062300
6.749300 2.102800
6.769700 1.950800
6.790100 1.806900
6.810500 1.678700
6.830900 1.639800
6.851300 1.602400
6.871700 1.566200
6.892100 1.530700
6.912500 1.492700
6.932900 1.451800
6.953300 1.407400
6.973700 1.381300
6.994100 1.360400
7.014500 1.340300
7.034900 1.321000
7.055300 1.302500
7.075700 1.284300
7.096100 1.266400
7.116500 1.249100
7.137000 1.233000
7.157400 1.216200
7.177800 1.197300
7.198200 1.183600
7.218600 1.168100
7.239000 1.161100
7.259400 1.153200
7.279800 1.144200
7.300200 1.134300
7.320600 1.123800
7.341000 1.113600
7.361400 1.109200
7.381800 1.127600
7.402200 1.170200
7.422600 1.238200
7.443000 1.335200
7.463400 1.452400
7.483800 1.543300
7.504200 1.616600
7.524600 1.668200
7.545000 1.719300
7.565400 1.774700
7.585900 1.830900
7.606300 1.890300
7.626700 1.944800
7.647100 1.976600
7.667500 1.997600
7.687900 2.078300
7.708300 2.176600
7.728700 2.271500
7.749100 2.374600
7.769500 2.461000
7.789900 2.520900
7.810300 2.574800
7.830700 2.614900
7.851100 2.634200
7.871500 2.654900
7.891900 2.670300
7.912300 2.722300
7.932700 2.668000
7.953100 2.611400
7.973500 2.519200
7.993900 2.459900
8.014300 2.443500
8.034800 2.463400
8.055200 2.496200
8.075600 2.468600
8.096000 2.476900
8.116400 2.402200
8.136800 2.309300
8.157200 2.203300
8.177600 2.081000
8.198000 1.933900
8.218400 1.779600
8.238800 1.482200
8.259200 1.054000
8.279600 0.771500
8.300000 0.544100
8.320400 0.433900
8.340800 0.309200
8.361200 0.120800
8.381600 0.000000
8.402000 0.000000
8.422400 0.068200
8.442800 0.103100
8.463200 0.140000
8.483700 0.129300
8.504100 0.188600
8.524500 0.304500
8.544900 0.394800
8.565300 0.579800
8.585700 0.856900
8.606100 1.249500
8.626500 1.802100
8.646900 2.334100
8.667300 2.898200
8.687700 3.380700
8.708100 3.720800
8.728500 4.001900
8.748900 4.416900
8.769300 4.782100
8.789700 4.134000
8.810100 3.745200
8.830500 4.003600
8.850900 4.283500
8.871300 3.901700
8.891700 3.535800
8.912200 3.431200
8.932600 3.448900
8.953000 3.387800
8.973400 2.979700
8.993800 2.499300
9.014200 2.089600
9.034600 1.890600
9.055000 1.770300
9.075400 1.672800
9.095800 1.608900
9.116200 1.539200
9.136600 1.519600
9.157000 1.550100
9.177400 1.614400
9.197800 1.700000
9.218200 1.814300
9.238600 1.956900
9.259000 2.086700
9.279400 2.184200
9.299800 2.385600
9.320200 3.437500
9.340600 2.526500
9.361100 2.433600
9.381500 2.391700
9.401900 2.361500
9.422300 2.320000
9.442700 2.242000
9.463100 2.064000
9.483500 1.917500
9.503900 1.786400
9.524300 1.673600
9.544700 1.581800
9.565100 1.503400
9.585500 1.448500
9.605900 1.398400
9.626300 1.352600
9.646700 1.342800
9.667100 1.319500
9.687500 1.310700
9.707900 1.304400
9.728300 1.299200
9.748700 1.295400
9.769100 1.292800
9.789500 1.292000
9.810000 1.294100
9.830400 1.309900
9.850800 1.312200
9.871200 1.319500
9.891600 1.313400
9.912000 1.297300
9.932400 1.289600
9.952800 1.282200
9.973200 1.275300
9.993600 1.268900
10.014000 1.262700
10.034400 1.256600
10.054800 1.250400
10.075200 1.244100
10.095600 1.238300
10.116000 1.235200
10.136400 1.235100
10.156800 1.235900
10.177200 1.239400
10.197600 1.249100
10.218000 1.266900
10.238400 1.292000
10.258900 1.319500
10.279300 1.346900
10.299700 1.377000
10.320100 1.424300
10.340500 1.477100
10.360900 1.505300
10.381300 1.533100
10.401700 1.561100
10.422100 1.589500
10.442500 1.618000
10.462900 1.648100
10.483300 1.678600
10.503700 1.706900
10.524100 1.737600
10.544500 1.770900
10.564900 1.802300
10.585300 1.834100
10.605700 1.877400
10.626100 1.918500
10.646500 1.960100
10.666900 1.998000
10.687300 2.032300
10.707800 2.063500
10.728200 2.090600
10.748600 2.119400
10.769000 2.154700
10.789400 2.191300
10.809800 2.230600
10.830200 2.256900
10.850600 2.280500
10.871000 2.332500
10.891400 2.409100
10.911800 2.502900
10.932200 2.604500
10.952600 2.710700
10.973000 2.822800
10.993400 2.957400
11.013800 3.230600
11.034200 3.890400
11.054600 4.583200
11.075000 4.376200
11.095400 3.910600
11.115800 4.122200
11.136300 3.461700
11.156700 2.913900
11.177100 2.663000
11.197500 2.519200
11.217900 2.413900
11.238300 2.340100
11.258700 2.296700
11.279100 2.241400
11.299500 2.194400
11.319900 2.146700
11.340300 2.098200
11.360700 2.048800
11.381100 1.995300
11.401500 1.900900
11.421900 1.789400
11.442300 1.682500
11.462700 1.564100
11.483100 1.416300
11.503500 1.321000
11.523900 1.271700
11.544300 1.227600
11.564700 1.194600
11.585200 1.168500
11.605600 1.144100
11.626000 1.121500
11.646400 1.100700
11.666800 1.081600
11.687200 1.063300
11.707600 1.045500
11.728000 1.028200
11.748400 1.013400
11.768800 1.000400
11.789200 0.992400
11.809600 1.002200
11.830000 1.013800
11.850400 1.035300
11.870800 1.049800
11.891200 1.066500
11.911600 1.093600
11.932000 1.127200
11.952400 1.158200
11.972800 1.187800
11.993200 1.219900
12.013600 1.250800
12.034100 1.280400
12.054500 1.359800
12.074900 1.401200
12.095300 1.449500
12.115700 1.479800
12.136100 1.512800
12.156500 1.577600
12.176900 1.620400
12.197300 1.691200
12.217700 1.733000
12.238100 1.755900
12.258500 1.765300
12.278900 1.760100
12.299300 1.737000
12.319700 1.723800
12.340100 1.713500
12.360500 1.706500
12.380900 1.703400
12.401300 1.712200
12.421700 1.704600
12.442100 1.599900
12.462500 1.588500
12.483000 1.595200
12.503400 1.611400
12.523800 1.637200
12.544200 1.657400
12.564600 1.672200
12.585000 1.686200
12.605400 1.748200
12.625800 1.850100
12.646200 1.919900
12.666600 1.983000
12.687000 1.831000
12.707400 1.837000
12.727800 1.916700
12.748200 2.397600
12.768600 2.507700
12.789000 2.083800
12.809400 1.879600
12.829800 2.085300
12.850200 2.307200
12.870600 2.548900
12.891000 2.775900
12.911400 2.965800
12.931900 3.120300
12.952300 3.284500
12.972700 3.453900
12.993100 3.602200
13.013500 3.693500
13.033900 3.762100
13.054300 3.807700
13.074700 3.652300
13.095100 3.444700
13.115500 3.498100
13.135900 3.618200
13.156300 3.272600
13.176700 3.042400
13.197100 2.891700
13.217500 2.739200
13.237900 2.581300
13.258300 2.430000
13.278700 2.286600
13.299100 2.148100
13.319500 2.018600
13.339900 1.934100
13.360400 1.869400
13.380800 1.804700
13.401200 1.743100
13.421600 1.688500
13.442000 1.636800
13.462400 1.585700
13.482800 1.537500
13.503200 1.498200
13.523600 1.464700
13.544000 1.492900
13.564400 1.602600
13.584800 1.705100
13.605200 1.782400
13.625600 1.834800
13.646000 1.880600
13.666400 1.933500
13.686800 1.988900
13.707200 2.010700
13.727600 2.029000
13.748000 2.007200
13.768400 1.981100
13.788800 1.963200
13.809300 1.958200
13.829700 1.959200
13.850100 1.957200
13.870500 1.960900
13.890900 1.963400
13.911300 1.975600
13.931700 1.996400
13.952100 2.089400
13.972500 2.174700
13.992900 2.252800
14.013300 2.322500
14.033700 2.368800
14.054100 2.392900
14.074500 2.428200
14.094900 2.464900
14.115300 2.501900
14.135700 2.519000
14.156100 2.756500
14.176500 2.566600
14.196900 2.481700
14.217300 2.410900
14.237700 2.348500
14.258200 2.296700
14.278600 2.236300
14.299000 2.179200
14.319400 2.123000
14.339800 2.047300
14.360200 1.978500
14.380600 1.916300
14.401000 1.871600
14.421400 1.821800
14.441800 1.775200
14.462200 1.727600
14.482600 1.663000
14.503000 1.616100
14.523400 1.591900
14.543800 1.588000
14.564200 1.585100
14.584600 1.581400
14.605000 1.582900
14.625400 1.579500
14.645800 1.561400
14.666200 1.560700
14.686600 1.570600
14.707100 1.593400
14.727500 1.628700
14.747900 1.675900
14.768300 1.933200
14.788700 2.136700
14.809100 2.302500
14.829500 2.418200
14.849900 2.537700
14.870300 2.642000
14.890700 2.874000
14.911100 2.971500
14.931500 2.943100
14.951900 2.885800
14.972300 2.756900
14.992700 2.733500
15.013100 2.746200
15.033500 2.740700
15.053900 2.713400
15.074300 2.740400
15.094700 2.738700
15.115100 2.694300
15.135600 2.721000
15.156000 2.673300
15.176400 2.628100
15.196800 2.500600
15.217200 2.654500
15.237600 2.802800
15.258000 2.646900
15.278400 2.631500
15.298800 2.682600
15.319200 2.773000
15.339600 2.870400
15.360000 2.966200
15.380400 3.042900
15.400800 3.060600
15.421200 3.116800
15.441600 3.248000
15.462000 3.506300
15.482400 3.698300
15.502800 3.761500
15.523200 3.961600
15.543600 3.937200
15.564000 3.736400
15.584500 3.597000
15.604900 4.107500
15.625300 3.822400
15.645700 3.316100
15.666100 3.176700
15.686500 3.371300
15.706900 3.519600
15.727300 3.644900
15.747700 3.795900
15.768100 3.912700
15.788500 4.025300
15.808900 4.155500
15.829300 4.321400
15.849700 4.436800
15.870100 4.603300
15.890500 4.557300
15.910900 4.446000
15.931300 4.388000
15.951700 4.276000
15.972100 4.318200
15.992500 4.409600
16.012900 4.229700
16.033400 4.165900
16.053800 4.074300
16.074200 3.882600
16.094600 3.705600
16.115000 3.658600
16.135400 3.684400
16.155800 3.796300
16.176200 4.000700
16.196600 4.046500
16.217000 4.108600
16.237400 4.084100
16.257800 3.951000
16.278200 3.789000
16.298600 3.662200
16.319000 3.546200
16.339400 4.444700
16.359800 3.526800
16.380200 3.545900
16.400600 3.564900
16.421000 3.594600
16.441400 3.617800
16.461800 3.639700
16.482300 3.680800
16.502700 2.970300
16.523100 2.847200
16.543500 2.745400
16.563900 2.638800
16.584300 2.585400
16.604700 2.556600
16.625100 2.545600
16.645500 2.557800
16.665900 2.557300
16.686300 2.584500
16.706700 2.637200
16.727100 2.705500
16.747500 2.826900
16.767900 3.129400
16.788300 3.283000
16.808700 3.286900
16.829100 3.284600
16.849500 3.276900
16.869900 3.334400
16.890300 3.474300
16.910700 3.665000
16.931200 3.179100
16.951600 3.160900
16.972000 3.186000
16.992400 3.201900
17.012800 3.221600
17.033200 3.258500
17.053600 3.310500
17.074000 3.388000
17.094400 3.469500
17.114800 3.965900
17.135200 3.271100
17.155600 3.284600
17.176000 3.383000
17.196400 3.447300
17.216800 3.514100
17.237200 3.606900
17.257600 3.622700
17.278000 3.621100
17.298400 3.615100
17.318800 3.609100
17.339200 3.612100
17.359700 3.526600
17.380100 3.442400
17.400500 3.353500
17.420900 3.254000
17.441300 3.092900
17.461700 2.910400
17.482100 2.725100
17.502500 2.626500
17.522900 2.527100
17.543300 2.353700
17.563700 2.225800
17.584100 2.259400
17.604500 2.245900
17.624900 2.247600
17.645300 2.272700
17.665700 2.315300
17.686100 2.357500
17.706500 2.415700
17.726900 2.475000
17.747300 2.505900
17.767700 2.530200
17.788100 2.563000
17.808600 2.598200
17.829000 2.630800
17.849400 2.673900
17.869800 2.739200
17.890200 2.816800
17.910600 2.898300
17.931000 2.977500
17.951400 3.060500
17.971800 3.138900
17.992200 3.231400
18.012600 3.324300
18.033000 3.395900
18.053400 3.439600
18.073800 3.456100
18.094200 3.471000
18.114600 3.395400
18.135000 3.117500
18.155400 3.043000
18.175800 2.981700
18.196200 2.929000
18.216600 2.884500
18.237000 2.890500
18.257500 2.881600
18.277900 2.939700
18.298300 3.005300
18.318700 3.002900
18.339100 2.930300
18.359500 2.897000
18.379900 2.876100
18.400300 2.840400
18.420700 2.715600
18.441100 2.599800
18.461500 2.509700
18.481900 2.466100
18.502300 2.448700
18.522700 2.425600
18.543100 2.414900
18.563500 2.452300
18.583900 2.469400
18.604300 2.478000
18.624700 2.511100
18.645100 2.563100
18.665500 2.638500
18.685900 2.726000
18.706400 2.817600
18.726800 2.880600
18.747200 2.952400
18.767600 3.024100
18.788000 3.094300
18.808400 3.229500
18.828800 3.270300
18.849200 3.276100
18.869600 3.233400
18.890000 3.136000
18.910400 2.923200
18.930800 2.932600
18.951200 2.947800
18.971600 2.970200
18.992000 3.004900
19.012400 3.029200
19.032800 3.035700
19.053200 3.053600
19.073600 3.088500
19.094000 3.135900
19.114400 3.235600
19.134900 3.390300
19.155300 3.494200
19.175700 3.550300
19.196100 3.615100
19.216500 3.695000
19.236900 3.910600
19.257300 4.305100
19.277700 4.575600
19.298100 4.340400
19.318500 4.057100
19.338900 4.011100
19.359300 4.093100
19.379700 3.750800
19.400100 3.636800
19.420500 3.568600
19.440900 3.508400
19.461300 3.459800
19.481700 3.381100
19.502100 3.320200
19.522500 3.282900
19.542900 3.255600
19.563300 3.270300
19.583800 3.297200
19.604200 3.299300
19.624600 3.300000
19.645000 3.226200
19.665400 3.109900
19.685800 3.005700
19.706200 2.768000
19.726600 2.557100
19.747000 2.413500
19.767400 2.302000
19.787800 2.315400
19.808200 2.193900
19.828600 2.148200
19.849000 2.352200
19.869400 2.689700
19.889800 3.021100
19.910200 3.221100
19.930600 3.244900
19.951000 3.303800
19.971400 3.426500
19.991800 3.479200
20.012200 3.561300
20.032700 3.543500
20.053100 3.494400
20.073500 3.397300
20.093900 3.349700
20.114300 3.337500
20.134700 3.373600
20.155100 3.645200
20.175500 4.159000
20.195900 4.319800
20.216300 4.466100
20.236700 4.499500
20.257100 4.520200
20.277500 4.535600
20.297900 4.745200
20.318300 4.912700
20.338700 4.538900
20.359100 4.538000
20.379500 4.631100
20.399900 4.652400
20.420300 4.330300
20.440700 4.325400
20.461100 4.332500
20.481600 4.361400
20.502000 4.446800
20.522400 4.437900
20.542800 4.229500
20.563200 4.257800
20.583600 4.812400
20.604000 4.277400
20.624400 4.112000
20.644800 3.849200
20.665200 3.618400
20.685600 3.373500
20.706000 3.139100
20.726400 2.913300
20.746800 2.692200
20.767200 2.544000
20.787600 2.131000
20.808000 1.670000
20.828400 1.310400
20.848800 1.282800
20.869200 1.260800
20.889600 1.289900
20.910000 1.326700
20.930500 1.374000
20.950900 1.435400
20.971300 1.512100
20.991700 1.607800
21.012100 1.726400
21.032500 1.873500
21.052900 2.081200
21.073300 2.363800
21.093700 2.840700
21.114100 3.446800
21.134500 4.151000
21.154900 4.540200
21.175300 4.945800
21.195700 5.508500
21.216100 5.434000
21.236500 5.141200
21.256900 4.877700
21.277300 4.718300
21.297700 4.678600
21.318100 4.628500
21.338500 4.801200
21.359000 4.699700
21.379400 4.571100
21.399800 4.386000
21.420200 4.252900
21.440600 4.011200
21.461000 3.903000
21.481400 3.776400
21.501800 3.647000
21.522200 3.673500
21.542600 3.760500
21.563000 4.036400
21.583400 4.302900
21.603800 4.392100
21.624200 4.452400
21.644600 4.726400
21.665000 4.610600
21.685400 4.536700
21.705800 4.491000
21.726200 4.457200
21.746600 4.394800
21.767000 4.275300
21.787400 3.988300
21.807900 3.883900
21.828300 3.702300
21.848700 3.449600
21.869100 3.232500
21.889500 3.329600
21.909900 3.481900
21.930300 3.747900
21.950700 4.164600
21.971100 4.664500
21.991500 4.513600
22.011900 4.607800
22.032300 4.685400
22.052700 4.767700
22.073100 4.751000
22.093500 4.242900
22.113900 3.818400
22.134300 3.586900
22.154700 3.350800
22.175100 3.000100
22.195500 2.876800
22.215900 2.678700
22.236300 2.639100
22.256800 2.733200
22.277200 2.964000
22.297600 3.180400
22.318000 3.356000
22.338400 3.517000
22.358800 3.712600
22.379200 3.815400
22.399600 3.813800
22.420000 3.770900
22.440400 3.720600
22.460800 3.798700
22.481200 4.127500
22.501600 3.968700
22.522000 3.910500
22.542400 3.967100
22.562800 3.852100
22.583200 3.662600
22.603600 3.459700
22.624000 3.401400
22.644400 3.620700
22.664800 4.384600
22.685200 4.767600
22.705700 4.522500
22.726100 4.483700
22.746500 4.505600
22.766900 4.566100
22.787300 4.665800
22.807700 4.782700
22.828100 4.701500
22.848500 4.524800
22.868900 4.173200
22.889300 3.928400
22.909700 3.932200
22.930100 4.177000
22.950500 4.781300
22.970900 5.518900
22.991300 5.857700
23.011700 6.058000
23.032100 6.028900
23.052500 5.702200
23.072900 5.358100
23.093300 5.099600
23.113700 4.965300
23.134100 4.782300
23.154600 4.706500
23.175000 4.826600
23.195400 4.711300
23.215800 4.549400
23.236200 4.448100
23.256600 3.985400
23.277000 3.818500
23.297400 3.795400
23.317800 3.771000
23.338200 3.783600
23.358600 3.888800
23.379000 3.866700
23.399400 3.703700
23.419800 3.699900
23.440200 3.691900
23.460600 3.742000
23.481000 3.911400
23.501400 4.246200
23.521800 4.432000
23.542200 4.571500
23.562600 5.002000
23.583100 4.717400
23.603500 4.689400
23.623900 4.670000
23.644300 4.539000
23.664700 4.305500
23.685100 4.569600
23.705500 3.808800
23.725900 3.578500
23.746300 3.527000
23.766700 3.502300
23.787100 3.699600
23.807500 4.537200
23.827900 4.166900
23.848300 4.280400
23.868700 4.384800
23.889100 4.566200
23.909500 6.356800
23.929900 5.413300
23.950300 4.992500
23.970700 4.814500
23.991100 4.807900
24.011500 4.782000
24.032000 4.704600
24.052400 4.550900
24.072800 4.803800
24.093200 4.042900
24.113600 3.844100
24.134000 3.663200
24.154400 3.585000
24.174800 3.538000
24.195200 3.555800
24.215600 3.642900
24.236000 3.760800
24.256400 3.792000
24.276800 3.663400
24.297200 3.468700
24.317600 3.258000
24.338000 3.118400
24.358400 2.975300
24.378800 2.851700
24.399200 2.563300
24.419600 2.436500
24.440000 2.287900
24.460400 2.128700
24.480900 2.011500
24.501300 1.995400
24.521700 1.989800
24.542100 1.969600
24.562500 1.998000
24.582900 1.897700
24.603300 1.787200
24.623700 1.700500
24.644100 1.646600
24.664500 1.594300
24.684900 1.541600
24.705300 1.486900
24.725700 1.430200
24.746100 1.371600
24.766500 1.318000
24.786900 1.294900
24.807300 1.251200
24.827700 1.238200
24.848100 1.245700
24.868500 1.199000
24.888900 1.151700
24.909300 1.110100
24.929800 1.069000
24.950200 1.028600
24.970600 0.988900
24.991000 0.950400
25.011400 0.916800
25.031800 0.890800
25.052200 0.870300
25.072600 0.851000
25.093000 0.829500
25.113400 0.805800
25.133800 0.779800
25.154200 0.754000
25.174600 0.727000
25.195000 0.686700
25.215400 0.649500
25.235800 0.615300
25.256200 0.584300
25.276600 0.553400
25.297000 0.526700
25.317400 0.505800
25.337800 0.490800
25.358300 0.481600
25.378700 0.485900
25.399100 0.651800
25.419500 0.642700
25.439900 0.632700
25.460300 0.621700
25.480700 0.608800
25.501100 0.595000
25.521500 0.581700
25.541900 0.569100
25.562300 0.584900
25.582700 0.754900
25.603100 0.876500
25.623500 0.921400
25.643900 0.981500
25.664300 1.829600
25.684700 0.016300
25.705100 0.000000
25.725500 0.000000
25.745900 0.000000
25.766300 0.000000
25.786700 0.000000
25.807200 0.000000
25.827600 0.000000
25.848000 0.000000
25.868400 0.000000
25.888800 0.000000
25.909200 0.000000
25.929600 0.000000
25.950000 0.000000
25.970400 0.000000
25.990800 0.000000
26.011200 0.000000
26.031600 0.000000
26.052000 0.000000
26.072400 0.000000
26.092800 0.000000
26.113200 0.000000
26.133600 0.000000
26.154000 0.000000
26.174400 0.000000
26.194800 0.000000
26.215200 0.000000
26.235600 0.000000
26.256100 0.000000
26.276500 0.000000
26.296900 0.000000
26.317300 0.000000
26.337700 0.000000
26.358100 0.000000
26.378500 0.000000
26.398900 0.000000
26.419300 0.000000
26.439700 0.000000
26.460100 0.000000
26.480500 0.000000
26.500900 0.000000
26.521300 0.000000
26.541700 0.000000
26.562100 0.000000
26.582500 0.000000
26.602900 0.000000
26.623300 0.000000
26.643700 0.000000
26.664100 0.000000
26.684500 0.000000
26.705000 0.000000
26.725400 0.000000
26.745800 0.000000
26.766200 0.000000
26.786600 0.000000
26.807000 0.000000
26.827400 0.000000
26.847800 0.000000
26.868200 0.000000
26.888600 0.000000
26.909000 0.000000
26.929400 0.000000
26.949800 0.000000
26.970200 0.000000
26.990600 0.000000
27.011000 0.000000
27.031400 0.000000
27.051800 0.000000
27.072200 0.000000
27.092600 0.000000
27.113000 0.000000
27.133400 0.000000
27.153900 0.000000
27.174300 0.000000
27.194700 0.000000
27.215100 0.000000
27.235500 0.000000
27.255900 0.000000
27.276300 0.000000
27.296700 0.000000
27.317100 0.000000
27.337500 0.000000
27.357900 0.000000
27.378300 0.000000
27.398700 0.000000
27.419100 0.000000
27.439500 0.000000
27.459900 0.000000
27.480300 0.000000
27.500700 0.000000
27.521100 0.000000
27.541500 0.000000
e
