set title 'mp-634117 - Density of States'
set xlabel 'Energy (eV)'
set ylabel 'DOS (states/eV)'
set grid
set xrange [-10:10]
set yrange [0:21.091]
set xzeroaxis lt -1
set terminal png size 800,600
set output 'mp-634117_dos_gnuplot.png'
plot '-' using 1:2 with lines title 'DOS'
-15.126700 0.000000
-15.109400 0.000000
-15.092100 0.000000
-15.074900 0.000000
-15.057600 0.000000
-15.040300 0.000000
-15.023100 0.000000
-15.005800 0.000000
-14.988500 0.000000
-14.971300 0.000000
-14.954000 0.000000
-14.936700 0.000000
-14.919500 0.000000
-14.902200 0.000000
-14.884900 0.000000
-14.867700 0.000000
-14.850400 0.000000
-14.833100 0.000000
-14.815900 0.000000
-14.798600 0.000000
-14.781300 0.000000
-14.764100 0.000000
-14.746800 0.000000
-14.729600 0.000000
-14.712300 0.000000
-14.695000 0.000000
-14.677800 0.000000
-14.660500 0.000000
-14.643200 0.000000
-14.626000 0.000000
-14.608700 0.000000
-14.591400 0.000000
-14.574200 0.000000
-14.556900 0.000000
-14.539600 0.000000
-14.522400 0.000000
-14.505100 0.000000
-14.487800 0.000000
-14.470600 0.000000
-14.453300 0.000000
-14.436000 0.000000
-14.418800 0.000000
-14.401500 0.000000
-14.384300 0.000000
-14.367000 0.000000
-14.349700 0.000000
-14.332500 0.000000
-14.315200 0.000000
-14.297900 0.000000
-14.280700 0.000000
-14.263400 0.000000
-14.246100 0.000000
-14.228900 0.000000
-14.211600 0.000000
-14.194300 0.000000
-14.177100 0.000000
-14.159800 0.000000
-14.142500 0.000000
-14.125300 0.000000
-14.108000 0.000000
-14.090700 0.000000
-14.073500 0.000000
-14.056200 0.000000
-14.039000 0.000000
-14.021700 0.000000
-14.004400 0.000000
-13.987200 0.000000
-13.969900 0.000000
-13.952600 0.000000
-13.935400 0.000000
-13.918100 0.000000
-13.900800 0.000000
-13.883600 0.000000
-13.866300 0.000000
-13.849000 0.000000
-13.831800 0.000000
-13.814500 0.000000
-13.797200 0.000000
-13.780000 0.000000
-13.762700 0.000000
-13.745400 0.000000
-13.728200 0.000000
-13.710900 0.000000
-13.693600 0.000000
-13.676400 0.000000
-13.659100 0.000000
-13.641900 0.000000
-13.624600 0.000000
-13.607300 0.000000
-13.590100 0.000000
-13.572800 0.000000
-13.555500 0.002300
-13.538300 0.334700
-13.521000 1.229500
-13.503700 2.636000
-13.486500 3.581700
-13.469200 4.041300
-13.451900 4.867600
-13.434700 5.937600
-13.417400 7.369400
-13.400100 9.612700
-13.382900 12.185100
-13.365600 14.340100
-13.348300 15.186400
-13.331100 16.667200
-13.313800 20.142000
-13.296600 24.409100
-13.279300 22.280700
-13.262000 21.155900
-13.244800 20.695400
-13.227500 13.787500
-13.210200 8.795200
-13.193000 1.595400
-13.175700 0.000000
-13.158400 0.000000
-13.141200 0.000000
-13.123900 0.000000
-13.106600 0.000000
-13.089400 0.000000
-13.072100 0.000000
-13.054800 0.000000
-13.037600 0.000000
-13.020300 0.000000
-13.003000 0.000000
-12.985800 0.000000
-12.968500 0.000000
-12.951300 0.000000
-12.934000 0.000000
-12.916700 0.000000
-12.899500 0.000000
-12.882200 0.000000
-12.864900 0.000000
-12.847700 0.000000
-12.830400 0.000000
-12.813100 0.000000
-12.795900 0.000000
-12.778600 0.000000
-12.761300 0.000000
-12.744100 0.000000
-12.726800 0.000000
-12.709500 0.000000
-12.692300 0.000000
-12.675000 0.000000
-12.657700 0.000000
-12.640500 0.000000
-12.623200 0.000000
-12.605900 0.000000
-12.588700 0.000000
-12.571400 0.000000
-12.554200 0.000000
-12.536900 0.000000
-12.519600 0.000000
-12.502400 0.000000
-12.485100 0.000000
-12.467800 0.000000
-12.450600 0.000000
-12.433300 0.000000
-12.416000 0.000000
-12.398800 0.000000
-12.381500 0.000000
-12.364200 0.000000
-12.347000 0.000000
-12.329700 0.000000
-12.312400 0.000000
-12.295200 0.000000
-12.277900 0.000000
-12.260600 0.000000
-12.243400 0.000000
-12.226100 0.000000
-12.208900 0.000000
-12.191600 0.000000
-12.174300 0.000000
-12.157100 0.000000
-12.139800 0.000000
-12.122500 0.000000
-12.105300 0.000000
-12.088000 0.000000
-12.070700 0.000000
-12.053500 0.000000
-12.036200 0.000000
-12.018900 0.000000
-12.001700 0.000000
-11.984400 0.000000
-11.967100 0.000000
-11.949900 0.000000
-11.932600 0.000000
-11.915300 0.000000
-11.898100 0.000000
-11.880800 0.000000
-11.863600 0.000000
-11.846300 0.000000
-11.829000 0.000000
-11.811800 0.000000
-11.794500 0.000000
-11.777200 0.000000
-11.760000 0.000000
-11.742700 0.000000
-11.725400 0.000000
-11.708200 0.000000
-11.690900 0.000000
-11.673600 0.000000
-11.656400 0.000000
-11.639100 0.000000
-11.621800 0.000000
-11.604600 0.000000
-11.587300 0.000000
-11.570000 0.000000
-11.552800 0.000000
-11.535500 0.000000
-11.518300 0.000000
-11.501000 0.000000
-11.483700 0.000000
-11.466500 0.000000
-11.449200 0.000000
-11.431900 0.000000
-11.414700 0.000000
-11.397400 0.000000
-11.380100 0.000000
-11.362900 0.000000
-11.345600 0.000000
-11.328300 0.000000
-11.311100 0.000000
-11.293800 0.000000
-11.276500 0.000000
-11.259300 0.000000
-11.242000 0.000000
-11.224700 0.000000
-11.207500 0.000000
-11.190200 0.000000
-11.172900 0.000000
-11.155700 0.000000
-11.138400 0.000000
-11.121200 0.000000
-11.103900 0.000000
-11.086600 0.000000
-11.069400 0.000000
-11.052100 0.000000
-11.034800 0.000000
-11.017600 0.000000
-11.000300 0.000000
-10.983000 0.000000
-10.965800 0.000000
-10.948500 0.000000
-10.931200 0.000000
-10.914000 0.000000
-10.896700 0.000000
-10.879400 0.000000
-10.862200 0.000000
-10.844900 0.000000
-10.827600 0.000000
-10.810400 0.000000
-10.793100 0.000000
-10.775900 0.000000
-10.758600 0.000000
-10.741300 0.000000
-10.724100 0.000000
-10.706800 0.000000
-10.689500 0.000000
-10.672300 0.000000
-10.655000 0.000000
-10.637700 0.000000
-10.620500 0.000000
-10.603200 0.000000
-10.585900 0.000000
-10.568700 0.000000
-10.551400 0.000000
-10.534100 0.000000
-10.516900 0.000000
-10.499600 0.000000
-10.482300 0.000000
-10.465100 0.000000
-10.447800 0.000000
-10.430600 0.000000
-10.413300 0.000000
-10.396000 0.000000
-10.378800 0.000000
-10.361500 0.000000
-10.344200 0.000000
-10.327000 0.000000
-10.309700 0.000000
-10.292400 0.000000
-10.275200 0.000000
-10.257900 0.000000
-10.240600 0.000000
-10.223400 0.000000
-10.206100 0.000000
-10.188800 0.000000
-10.171600 0.000000
-10.154300 0.000000
-10.137000 0.000000
-10.119800 0.000000
-10.102500 0.000000
-10.085200 0.000000
-10.068000 0.000000
-10.050700 0.000000
-10.033500 0.000000
-10.016200 0.000000
-9.998900 0.000000
-9.981700 0.000000
-9.964400 0.000000
-9.947100 0.000000
-9.929900 0.000000
-9.912600 0.000000
-9.895300 0.000000
-9.878100 0.000000
-9.860800 0.000000
-9.843500 0.000000
-9.826300 0.000000
-9.809000 0.000000
-9.791700 0.000000
-9.774500 0.000000
-9.757200 0.000000
-9.739900 0.000000
-9.722700 0.000000
-9.705400 0.000000
-9.688200 0.000000
-9.670900 0.000000
-9.653600 0.000000
-9.636400 0.000000
-9.619100 0.000000
-9.601800 0.000000
-9.584600 0.000000
-9.567300 0.000000
-9.550000 0.000000
-9.532800 0.000000
-9.515500 0.000000
-9.498200 0.000000
-9.481000 0.000000
-9.463700 0.000000
-9.446400 0.000000
-9.429200 0.000000
-9.411900 0.000000
-9.394600 0.000000
-9.377400 0.000000
-9.360100 0.000000
-9.342900 0.000000
-9.325600 0.000000
-9.308300 0.000000
-9.291100 0.000000
-9.273800 0.000000
-9.256500 0.000000
-9.239300 0.000000
-9.222000 0.000000
-9.204700 0.000000
-9.187500 0.000000
-9.170200 0.000000
-9.152900 0.000000
-9.135700 0.000000
-9.118400 0.000000
-9.101100 0.000000
-9.083900 0.000000
-9.066600 0.000000
-9.049300 0.000000
-9.032100 0.000000
-9.014800 0.000000
-8.997500 0.000000
-8.980300 0.000000
-8.963000 0.000000
-8.945800 0.000000
-8.928500 0.000000
-8.911200 0.000000
-8.894000 0.000000
-8.876700 0.000000
-8.859400 0.000000
-8.842200 0.000000
-8.824900 0.000000
-8.807600 0.000000
-8.790400 0.000000
-8.773100 0.000000
-8.755800 0.000000
-8.738600 0.000000
-8.721300 0.000000
-8.704000 0.000000
-8.686800 0.000000
-8.669500 0.000000
-8.652200 0.000000
-8.635000 0.000000
-8.617700 0.000000
-8.600500 0.000000
-8.583200 0.000000
-8.565900 0.000000
-8.548700 0.000000
-8.531400 0.000000
-8.514100 0.000000
-8.496900 0.000000
-8.479600 0.000000
-8.462300 0.021000
-8.445100 0.126800
-8.427800 0.321800
-8.410500 0.606100
-8.393300 0.979600
-8.376000 1.562900
-8.358700 2.445100
-8.341500 3.033800
-8.324200 3.716600
-8.306900 4.321600
-8.289700 4.899600
-8.272400 5.434800
-8.255200 5.634000
-8.237900 6.734600
-8.220600 7.608800
-8.203400 8.033200
-8.186100 8.192200
-8.168800 7.831500
-8.151600 7.718800
-8.134300 7.853200
-8.117000 8.332800
-8.099800 8.930500
-8.082500 9.416300
-8.065200 9.274900
-8.048000 9.414800
-8.030700 9.772100
-8.013400 10.020800
-7.996200 10.167000
-7.978900 10.541100
-7.961600 12.058300
-7.944400 10.054100
-7.927100 8.486800
-7.909800 6.754600
-7.892600 5.753300
-7.875300 4.988300
-7.858100 3.984600
-7.840800 4.105500
-7.823500 2.196700
-7.806300 0.717700
-7.789000 0.000000
-7.771700 0.000000
-7.754500 0.000000
-7.737200 0.000000
-7.719900 0.000000
-7.702700 0.000000
-7.685400 0.000000
-7.668100 0.000000
-7.650900 0.851100
-7.633600 3.305600
-7.616300 8.153000
-7.599100 10.280800
-7.581800 11.363000
-7.564500 11.463100
-7.547300 15.424100
-7.530000 14.993900
-7.512800 12.631700
-7.495500 13.158300
-7.478200 13.194200
-7.461000 11.910600
-7.443700 9.206100
-7.426400 8.903600
-7.409200 9.206300
-7.391900 9.354600
-7.374600 9.267400
-7.357400 8.911400
-7.340100 8.446000
-7.322800 8.500200
-7.305600 9.310400
-7.288300 10.670200
-7.271000 7.432400
-7.253800 4.183600
-7.236500 1.819300
-7.219200 0.389300
-7.202000 0.012200
-7.184700 0.000000
-7.167500 0.000000
-7.150200 0.000000
-7.132900 0.000000
-7.115700 0.000000
-7.098400 0.000000
-7.081100 0.000000
-7.063900 0.000000
-7.046600 0.000000
-7.029300 0.000000
-7.012100 0.000000
-6.994800 0.000000
-6.977500 0.000000
-6.960300 0.000000
-6.943000 0.000000
-6.925700 0.000000
-6.908500 0.000000
-6.891200 0.000000
-6.873900 0.000000
-6.856700 0.000000
-6.839400 0.000000
-6.822100 0.000000
-6.804900 0.000000
-6.787600 0.000000
-6.770400 0.000000
-6.753100 0.000000
-6.735800 0.000000
-6.718600 0.000000
-6.701300 0.000000
-6.684000 0.000000
-6.666800 0.000000
-6.649500 0.000000
-6.632200 0.000000
-6.615000 0.014200
-6.597700 0.139300
-6.580400 0.332600
-6.563200 0.594300
-6.545900 0.924300
-6.528600 1.301600
-6.511400 1.689300
-6.494100 2.252800
-6.476800 3.742000
-6.459600 4.954900
-6.442300 5.803400
-6.425100 7.141800
-6.407800 7.438400
-6.390500 7.745300
-6.373300 9.040400
-6.356000 10.663400
-6.338700 10.830300
-6.321500 9.813000
-6.304200 9.818200
-6.286900 9.473200
-6.269700 9.143500
-6.252400 8.739900
-6.235100 8.366200
-6.217900 8.170300
-6.200600 7.900100
-6.183300 7.398800
-6.166100 7.070000
-6.148800 6.962600
-6.131500 6.865300
-6.114300 6.744500
-6.097000 6.604000
-6.079800 6.696500
-6.062500 7.391800
-6.045200 6.341900
-6.028000 5.774500
-6.010700 5.290100
-5.993400 4.641800
-5.976200 3.751300
-5.958900 2.520000
-5.941600 1.168600
-5.924400 0.308100
-5.907100 0.041600
-5.889800 1.986200
-5.872600 5.280000
-5.855300 11.171900
-5.838000 14.559400
-5.820800 13.813000
-5.803500 16.236400
-5.786200 18.428200
-5.769000 19.173500
-5.751700 18.064500
-5.734400 16.359400
-5.717200 14.985300
-5.699900 14.555300
-5.682700 12.336600
-5.665400 10.777300
-5.648100 9.006600
-5.630900 8.098100
-5.613600 7.454200
-5.596300 6.379800
-5.579100 5.929300
-5.561800 5.650700
-5.544500 1.518900
-5.527300 0.113500
-5.510000 0.000000
-5.492700 0.000000
-5.475500 0.000000
-5.458200 0.000000
-5.440900 0.000000
-5.423700 0.000000
-5.406400 0.000000
-5.389100 0.000000
-5.371900 0.000000
-5.354600 0.000000
-5.337400 0.000000
-5.320100 0.000000
-5.302800 0.000000
-5.285600 0.000000
-5.268300 0.000000
-5.251000 0.000000
-5.233800 0.000000
-5.216500 0.000000
-5.199200 0.000000
-5.182000 0.000000
-5.164700 0.000000
-5.147400 0.000000
-5.130200 0.000000
-5.112900 0.000000
-5.095600 0.000000
-5.078400 0.000000
-5.061100 0.000000
-5.043800 0.000000
-5.026600 0.000000
-5.009300 0.074200
-4.992100 0.205000
-4.974800 0.358700
-4.957500 0.535300
-4.940300 0.722300
-4.923000 0.922900
-4.905700 1.149400
-4.888500 1.401700
-4.871200 1.682900
-4.853900 2.255600
-4.836700 2.892600
-4.819400 4.204900
-4.802100 4.791700
-4.784900 5.337300
-4.767600 5.830300
-4.750300 6.297700
-4.733100 6.743700
-4.715800 7.207700
-4.698500 7.752200
-4.681300 8.479700
-4.664000 9.548900
-4.646800 10.771000
-4.629500 12.026600
-4.612200 11.923800
-4.595000 11.459000
-4.577700 10.437800
-4.560400 10.095500
-4.543200 9.756800
-4.525900 9.665700
-4.508600 9.462200
-4.491400 9.178400
-4.474100 9.058000
-4.456800 9.722300
-4.439600 9.211100
-4.422300 7.651500
-4.405000 6.420200
-4.387800 4.433700
-4.370500 2.083500
-4.353200 0.000000
-4.336000 0.000000
-4.318700 0.000000
-4.301400 0.000000
-4.284200 0.000000
-4.266900 0.000000
-4.249700 0.000000
-4.232400 0.000000
-4.215100 0.000000
-4.197900 0.000000
-4.180600 0.000000
-4.163300 0.000000
-4.146100 0.000000
-4.128800 0.000000
-4.111500 0.000000
-4.094300 0.000000
-4.077000 0.000000
-4.059700 0.000000
-4.042500 0.000000
-4.025200 0.000000
-4.007900 0.000000
-3.990700 0.000000
-3.973400 0.000000
-3.956100 0.000000
-3.938900 0.000000
-3.921600 0.000000
-3.904400 0.000000
-3.887100 0.000000
-3.869800 0.000000
-3.852600 0.000000
-3.835300 0.000000
-3.818000 0.000000
-3.800800 0.000000
-3.783500 0.000000
-3.766200 0.000000
-3.749000 0.000000
-3.731700 0.000000
-3.714400 0.000000
-3.697200 0.000000
-3.679900 0.000000
-3.662600 0.000000
-3.645400 0.000000
-3.628100 0.000000
-3.610800 0.000000
-3.593600 0.000000
-3.576300 0.000000
-3.559100 0.000000
-3.541800 0.000000
-3.524500 0.000000
-3.507300 0.000000
-3.490000 0.000000
-3.472700 0.000000
-3.455500 0.000000
-3.438200 0.000000
-3.420900 0.000000
-3.403700 0.000000
-3.386400 0.000000
-3.369100 0.000000
-3.351900 0.000000
-3.334600 0.000000
-3.317300 0.000000
-3.300100 0.000000
-3.282800 0.000000
-3.265500 0.000000
-3.248300 0.000000
-3.231000 0.000000
-3.213700 0.000000
-3.196500 0.000000
-3.179200 0.000000
-3.162000 0.000000
-3.144700 0.000000
-3.127400 0.000000
-3.110200 0.000000
-3.092900 0.000000
-3.075600 0.000000
-3.058400 0.000000
-3.041100 0.000000
-3.023800 0.000000
-3.006600 0.000000
-2.989300 0.000000
-2.972000 0.000000
-2.954800 0.000000
-2.937500 0.000000
-2.920200 0.000000
-2.903000 0.000000
-2.885700 0.000000
-2.868400 0.000000
-2.851200 0.000000
-2.833900 0.000000
-2.816700 0.000000
-2.799400 0.000000
-2.782100 0.000000
-2.764900 0.000000
-2.747600 0.000000
-2.730300 0.000000
-2.713100 0.000000
-2.695800 0.000000
-2.678500 0.000000
-2.661300 0.000000
-2.644000 0.000000
-2.626700 0.000000
-2.609500 0.000000
-2.592200 0.000000
-2.574900 0.000000
-2.557700 0.000000
-2.540400 0.000000
-2.523100 0.000000
-2.505900 0.000000
-2.488600 0.000000
-2.471400 0.000000
-2.454100 0.000000
-2.436800 0.000000
-2.419600 0.000000
-2.402300 0.000000
-2.385000 0.000000
-2.367800 0.000000
-2.350500 0.000000
-2.333200 0.000000
-2.316000 0.000000
-2.298700 0.000000
-2.281400 0.000000
-2.264200 0.000000
-2.246900 0.000000
-2.229600 0.000000
-2.212400 0.000000
-2.195100 0.000000
-2.177800 0.000000
-2.160600 0.000000
-2.143300 0.000000
-2.126000 0.000000
-2.108800 0.000000
-2.091500 0.000000
-2.074300 0.000000
-2.057000 0.000000
-2.039700 0.000000
-2.022500 0.000000
-2.005200 0.000000
-1.987900 0.000000
-1.970700 0.000000
-1.953400 0.000000
-1.936100 0.000000
-1.918900 0.000000
-1.901600 0.000000
-1.884300 0.000000
-1.867100 0.000000
-1.849800 0.000000
-1.832500 0.000000
-1.815300 0.000000
-1.798000 0.000000
-1.780700 0.000000
-1.763500 0.000000
-1.746200 0.000000
-1.729000 0.000000
-1.711700 0.000000
-1.694400 0.000000
-1.677200 0.000000
-1.659900 0.000000
-1.642600 0.000000
-1.625400 0.000000
-1.608100 0.000000
-1.590800 0.000000
-1.573600 0.000000
-1.556300 0.000000
-1.539000 0.000000
-1.521800 0.000000
-1.504500 0.000000
-1.487200 0.000000
-1.470000 0.000000
-1.452700 0.000000
-1.435400 0.000000
-1.418200 0.000000
-1.400900 0.000000
-1.383700 0.000000
-1.366400 0.000000
-1.349100 0.000000
-1.331900 0.000000
-1.314600 0.000000
-1.297300 0.000000
-1.280100 0.000000
-1.262800 0.000000
-1.245500 0.000000
-1.228300 0.000000
-1.211000 0.000000
-1.193700 0.000000
-1.176500 0.000000
-1.159200 0.000000
-1.141900 0.000000
-1.124700 0.000000
-1.107400 0.000000
-1.090100 0.000000
-1.072900 0.000000
-1.055600 0.000000
-1.038300 0.000000
-1.021100 0.000000
-1.003800 0.000000
-0.986600 0.000000
-0.969300 0.000000
-0.952000 0.000000
-0.934800 0.000000
-0.917500 0.000000
-0.900200 0.000000
-0.883000 0.000000
-0.865700 0.000000
-0.848400 0.000000
-0.831200 0.000000
-0.813900 0.000000
-0.796600 0.000000
-0.779400 0.000000
-0.762100 0.000000
-0.744800 0.000000
-0.727600 0.000000
-0.710300 0.000000
-0.693000 0.000000
-0.675800 0.000000
-0.658500 0.000000
-0.641300 0.000000
-0.624000 0.000000
-0.606700 0.000000
-0.589500 0.000000
-0.572200 0.000000
-0.554900 0.000000
-0.537700 0.000000
-0.520400 0.000000
-0.503100 0.000000
-0.485900 0.000000
-0.468600 0.000000
-0.451300 0.000000
-0.434100 0.000000
-0.416800 0.000000
-0.399500 0.000000
-0.382300 0.000000
-0.365000 0.000000
-0.347700 0.000000
-0.330500 0.000000
-0.313200 0.000000
-0.296000 0.000000
-0.278700 0.000000
-0.261400 0.000000
-0.244200 0.000000
-0.226900 0.000000
-0.209600 0.000000
-0.192400 0.000000
-0.175100 0.000000
-0.157800 0.000000
-0.140600 0.000000
-0.123300 0.000000
-0.106000 0.000000
-0.088800 0.000000
-0.071500 0.000000
-0.054200 0.000000
-0.037000 0.000000
-0.019700 0.000000
-0.002400 0.000000
0.014800 0.000000
0.032100 0.000000
0.049400 0.000000
0.066600 0.000000
0.083900 0.000000
0.101100 0.000000
0.118400 0.000000
0.135700 0.000000
0.152900 0.000000
0.170200 0.000000
0.187500 0.000000
0.204700 0.000000
0.222000 0.000000
0.239300 0.000000
0.256500 0.000000
0.273800 0.000000
0.291100 0.000000
0.308300 0.000000
0.325600 0.000000
0.342900 0.000000
0.360100 0.000000
0.377400 0.000000
0.394700 0.000000
0.411900 0.000000
0.429200 0.000000
0.446400 0.000000
0.463700 0.000000
0.481000 0.000000
0.498200 0.000000
0.515500 0.000000
0.532800 0.000000
0.550000 0.000000
0.567300 0.000000
0.584600 0.000000
0.601800 0.000000
0.619100 0.000000
0.636400 0.000000
0.653600 0.000000
0.670900 0.000000
0.688200 0.000000
0.705400 0.000000
0.722700 0.000000
0.740000 0.000000
0.757200 0.000000
0.774500 0.000000
0.791700 0.000000
0.809000 0.000000
0.826300 0.000000
0.843500 0.000000
0.860800 0.000000
0.878100 0.000000
0.895300 0.000000
0.912600 0.000000
0.929900 0.005400
0.947100 0.297900
0.964400 1.045700
0.981700 2.056200
0.998900 2.856000
1.016200 4.107800
1.033500 5.634500
1.050700 6.074800
1.068000 6.319500
1.085300 6.513700
1.102500 6.690000
1.119800 6.479900
1.137100 6.634500
1.154300 6.874800
1.171600 7.522300
1.188800 9.557600
1.206100 10.214700
1.223400 10.073900
1.240600 12.071200
1.257900 12.991800
1.275200 12.179100
1.292400 9.564700
1.309700 8.714300
1.327000 7.032100
1.344200 5.826100
1.361500 5.336200
1.378800 4.866100
1.396000 4.487200
1.413300 4.174700
1.430600 3.900900
1.447800 3.634200
1.465100 3.415500
1.482400 3.222100
1.499600 3.022000
1.516900 2.792100
1.534100 2.533000
1.551400 2.293700
1.568700 2.083100
1.585900 1.912800
1.603200 1.759500
1.620500 1.615100
1.637700 1.487500
1.655000 1.392100
1.672300 1.328700
1.689500 1.257800
1.706800 1.179500
1.724100 1.093700
1.741300 1.000400
1.758600 0.899600
1.775900 0.787000
1.793100 0.670500
1.810400 0.555400
1.827700 0.446900
1.844900 0.345500
1.862200 0.253000
1.879400 0.174700
1.896700 0.110800
1.914000 0.061400
1.931200 0.026500
1.948500 0.006000
1.965800 0.000000
1.983000 0.000000
2.000300 0.000000
2.017600 0.000000
2.034800 0.000000
2.052100 0.000000
2.069400 0.000000
2.086600 0.000000
2.103900 0.000000
2.121200 0.000000
2.138400 0.000000
2.155700 0.000000
2.173000 0.000000
2.190200 0.000000
2.207500 0.000000
2.224700 0.000000
2.242000 0.000000
2.259300 0.000000
2.276500 0.000000
2.293800 0.000000
2.311100 0.000000
2.328300 0.000000
2.345600 0.000000
2.362900 0.000000
2.380100 0.000000
2.397400 0.000000
2.414700 0.000000
2.431900 0.000000
2.449200 0.000000
2.466500 0.000000
2.483700 0.000000
2.501000 0.000000
2.518300 0.000000
2.535500 0.000000
2.552800 0.000000
2.570100 0.000000
2.587300 0.000000
2.604600 0.000000
2.621800 0.000000
2.639100 0.000000
2.656400 0.000000
2.673600 0.000000
2.690900 0.000000
2.708200 0.000000
2.725400 0.000000
2.742700 0.000000
2.760000 0.000000
2.777200 0.000000
2.794500 0.000000
2.811800 0.000000
2.829000 0.000000
2.846300 0.000000
2.863600 0.000000
2.880800 0.000000
2.898100 0.000000
2.915400 0.000000
2.932600 0.000000
2.949900 0.000000
2.967100 0.000000
2.984400 0.597200
3.001700 0.962600
3.018900 1.305500
3.036200 1.593500
3.053500 1.316600
3.070700 1.518700
3.088000 1.883000
3.105300 2.362500
3.122500 2.933500
3.139800 3.791600
3.157100 3.733400
3.174300 3.393300
3.191600 3.590300
3.208900 3.807100
3.226100 4.294300
3.243400 4.852800
3.260700 5.342000
3.277900 5.612300
3.295200 6.220100
3.312400 6.620600
3.329700 6.331700
3.347000 6.352200
3.364200 6.431800
3.381500 6.544400
3.398800 6.727100
3.416000 6.944700
3.433300 6.905400
3.450600 6.686300
3.467800 6.513000
3.485100 6.306200
3.502400 6.202900
3.519600 5.861400
3.536900 5.498000
3.554200 5.209300
3.571400 4.857000
3.588700 4.440700
3.606000 4.161600
3.623200 3.972800
3.640500 3.824300
3.657800 3.740900
3.675000 3.724400
3.692300 3.758700
3.709500 3.829700
3.726800 3.889600
3.744100 3.931500
3.761300 3.953300
3.778600 3.866200
3.795900 3.734500
3.813100 3.569200
3.830400 3.290100
3.847700 2.961400
3.864900 2.626000
3.882200 2.287900
3.899500 1.910700
3.916700 1.431700
3.934000 0.985200
3.951300 0.661300
3.968500 0.461900
3.985800 0.379600
4.003100 0.326800
4.020300 0.277900
4.037600 0.233000
4.054800 0.192000
4.072100 0.155000
4.089400 0.122000
4.106600 0.092900
4.123900 0.067800
4.141200 0.046600
4.158400 0.029400
4.175700 0.016100
4.193000 0.006800
4.210200 0.003700
4.227500 0.083000
4.244800 0.267400
4.262000 0.657800
4.279300 0.892700
4.296600 1.074500
4.313800 1.270900
4.331100 1.482100
4.348400 1.714200
4.365600 1.948800
4.382900 2.178700
4.400100 2.426500
4.417400 2.709700
4.434700 3.035000
4.451900 3.466900
4.469200 5.674200
4.486500 6.863400
4.503700 7.075800
4.521000 7.224400
4.538300 6.884600
4.555500 6.621100
4.572800 6.501200
4.590100 6.412300
4.607300 6.329600
4.624600 6.264400
4.641900 6.216900
4.659100 6.182400
4.676400 6.159200
4.693700 6.199700
4.710900 6.332400
4.728200 6.431000
4.745500 6.292300
4.762700 5.939200
4.780000 5.388400
4.797200 4.920600
4.814500 4.835500
4.831800 4.774900
4.849000 4.669200
4.866300 4.490800
4.883600 4.260300
4.900800 4.205600
4.918100 4.070700
4.935400 3.937600
4.952600 3.837100
4.969900 3.752100
4.987200 3.678000
5.004400 3.621400
5.021700 3.552800
5.039000 3.464900
5.056200 3.454400
5.073500 3.524300
5.090800 3.622000
5.108000 3.675900
5.125300 3.683800
5.142500 3.731300
5.159800 3.714800
5.177100 3.477600
5.194300 3.655400
5.211600 3.718200
5.228900 3.641400
5.246100 3.643900
5.263400 3.716800
5.280700 3.833800
5.297900 4.013400
5.315200 4.217500
5.332500 4.457600
5.349700 4.777600
5.367000 5.077300
5.384300 5.356200
5.401500 5.619000
5.418800 5.865200
5.436100 6.074500
5.453300 6.239900
5.470600 6.299900
5.487800 6.329300
5.505100 6.351100
5.522400 6.353400
5.539600 6.474800
5.556900 6.549400
5.574200 6.578200
5.591400 6.429500
5.608700 6.228800
5.626000 5.982600
5.643200 5.753300
5.660500 5.683900
5.677800 5.472000
5.695000 5.305900
5.712300 5.274500
5.729600 5.272400
5.746800 5.299300
5.764100 5.328100
5.781400 5.334100
5.798600 5.354200
5.815900 5.301100
5.833200 4.744700
5.850400 4.262100
5.867700 3.864700
5.884900 3.733400
5.902200 3.811500
5.919500 3.906500
5.936700 3.978200
5.954000 3.938700
5.971300 3.988200
5.988500 4.087600
6.005800 4.131900
6.023100 4.121800
6.040300 4.067600
6.057600 4.046800
6.074900 4.108600
6.092100 4.153000
6.109400 4.198300
6.126700 4.299000
6.143900 4.937500
6.161200 5.269400
6.178500 5.260400
6.195700 5.058000
6.213000 4.473200
6.230200 4.431200
6.247500 4.443100
6.264800 4.469100
6.282000 4.489700
6.299300 4.539900
6.316600 4.603400
6.333800 4.689400
6.351100 4.841500
6.368400 5.070200
6.385600 5.322300
6.402900 5.636300
6.420200 5.841000
6.437400 6.025400
6.454700 6.202500
6.472000 6.382900
6.489200 6.508300
6.506500 6.567600
6.523800 6.563700
6.541000 6.509400
6.558300 5.726000
6.575500 5.250200
6.592800 4.993200
6.610100 4.727200
6.627300 4.493600
6.644600 4.200100
6.661900 3.938900
6.679100 3.737200
6.696400 3.653600
6.713700 3.841800
6.730900 4.043100
6.748200 4.273000
6.765500 4.527700
6.782700 4.860700
6.800000 5.397800
6.817300 5.610000
6.834500 5.869500
6.851800 6.183400
6.869100 6.399700
6.886300 6.790600
6.903600 7.363900
6.920900 7.739600
6.938100 7.611200
6.955400 7.198300
6.972600 6.934100
6.989900 6.603400
7.007200 6.351700
7.024400 6.330900
7.041700 6.419200
7.059000 6.359300
7.076200 6.419400
7.093500 6.468200
7.110800 6.475600
7.128000 6.429400
7.145300 6.348900
7.162600 6.344100
7.179800 6.497000
7.197100 6.424300
7.214400 6.186900
7.231600 6.026900
7.248900 5.824500
7.266200 5.675300
7.283400 5.282600
7.300700 4.780500
7.317900 4.359800
7.335200 4.037400
7.352500 3.888900
7.369700 3.722400
7.387000 3.473500
7.404300 3.177700
7.421500 2.910300
7.438800 2.741800
7.456100 2.586800
7.473300 2.443500
7.490600 2.372400
7.507900 2.441100
7.525100 2.651600
7.542400 2.918900
7.559700 2.566100
7.576900 3.103500
7.594200 5.144100
7.611500 7.159700
7.628700 9.022300
7.646000 7.670200
7.663200 6.906900
7.680500 6.539800
7.697800 6.195500
7.715000 5.950500
7.732300 5.947400
7.749600 6.515300
7.766800 6.720400
7.784100 6.821700
7.801400 6.893700
7.818600 6.856100
7.835900 6.389300
7.853200 5.891800
7.870400 5.490300
7.887700 5.113600
7.905000 4.782300
7.922200 4.549400
7.939500 4.413700
7.956800 4.379700
7.974000 4.387200
7.991300 4.433700
8.008600 4.495900
8.025800 4.568200
8.043100 4.663900
8.060300 4.796000
8.077600 4.936200
8.094900 5.072400
8.112100 5.201400
8.129400 5.250600
8.146700 5.250800
8.163900 5.228700
8.181200 5.233800
8.198500 5.216500
8.215700 5.248900
8.233000 5.306900
8.250300 5.363000
8.267500 5.446700
8.284800 5.574700
8.302100 5.659600
8.319300 5.721100
8.336600 5.774500
8.353900 5.828600
8.371100 5.845400
8.388400 5.807000
8.405600 5.774500
8.422900 5.751200
8.440200 5.773000
8.457400 5.802400
8.474700 5.834500
8.492000 5.864000
8.509200 5.773100
8.526500 5.564700
8.543800 5.318900
8.561000 5.077900
8.578300 4.853100
8.595600 4.647400
8.612800 4.468400
8.630100 4.168100
8.647400 4.121000
8.664600 4.160900
8.681900 4.211800
8.699200 4.317000
8.716400 4.459800
8.733700 4.574800
8.750900 4.659300
8.768200 4.712700
8.785500 4.729500
8.802700 4.673300
8.820000 4.525200
8.837300 4.413400
8.854500 4.307200
8.871800 4.256900
8.889100 4.268600
8.906300 4.239700
8.923600 4.163100
8.940900 4.122700
8.958100 4.130700
8.975400 4.138100
8.992700 4.126000
9.009900 4.068300
9.027200 4.008100
9.044500 3.996200
9.061700 4.050600
9.079000 4.176600
9.096200 4.298400
9.113500 4.397500
9.130800 4.467700
9.148000 4.441100
9.165300 4.436600
9.182600 4.449500
9.199800 4.480000
9.217100 4.489700
9.234400 4.504000
9.251600 4.638200
9.268900 4.691700
9.286200 4.561000
9.303400 4.246500
9.320700 4.055300
9.338000 3.920800
9.355200 3.921000
9.372500 4.012500
9.389800 4.146200
9.407000 4.265400
9.424300 4.396400
9.441600 4.571400
9.458800 4.719300
9.476100 4.845000
9.493300 4.986600
9.510600 5.101100
9.527900 5.209700
9.545100 5.348100
9.562400 5.171500
9.579700 4.971200
9.596900 4.837900
9.614200 4.768800
9.631500 4.792000
9.648700 4.737400
9.666000 4.662300
9.683300 4.523600
9.700500 4.301400
9.717800 4.067500
9.735100 3.925600
9.752300 3.844500
9.769600 3.757700
9.786900 3.662800
9.804100 3.559400
9.821400 3.442800
9.838600 3.390800
9.855900 3.299300
9.873200 3.110200
9.890400 2.964500
9.907700 2.765400
9.925000 2.588600
9.942200 2.438300
9.959500 2.307800
9.976800 2.199200
9.994000 2.112600
10.011300 2.044800
10.028600 1.976500
10.045800 1.965700
10.063100 1.987800
10.080400 2.027000
10.097600 2.083100
10.114900 2.149200
10.132200 2.221600
10.149400 2.188400
10.166700 2.159900
10.183900 2.232500
10.201200 2.326100
10.218500 2.441200
10.235700 2.572900
10.253000 2.703000
10.270300 2.828800
10.287500 2.947900
10.304800 3.059700
10.322100 3.173800
10.339300 3.294200
10.356600 3.421100
10.373900 3.577200
10.391100 3.933600
10.408400 4.574500
10.425700 5.107300
10.442900 5.578900
10.460200 5.539200
10.477500 5.345300
10.494700 5.462100
10.512000 5.615200
10.529300 5.642000
10.546500 5.518200
10.563800 5.237200
10.581000 5.015800
10.598300 4.871200
10.615600 4.811500
10.632800 4.773500
10.650100 4.719200
10.667400 4.648800
10.684600 4.565800
10.701900 4.519300
10.719200 4.569500
10.736400 4.592600
10.753700 4.619200
10.771000 4.881900
10.788200 5.117700
10.805500 6.283500
10.822800 5.378700
10.840000 4.586100
10.857300 4.197400
10.874600 4.126300
10.891800 4.100000
10.909100 4.137700
10.926300 4.220500
10.943600 4.339600
10.960900 4.500500
10.978100 4.711300
10.995400 4.905100
11.012700 5.063500
11.029900 5.220800
11.047200 5.628400
11.064500 5.658400
11.081700 5.381000
11.099000 5.105900
11.116300 5.075000
11.133500 5.020400
11.150800 4.512300
11.168100 4.297700
11.185300 4.195100
11.202600 4.097300
11.219900 4.001500
11.237100 3.907400
11.254400 3.822100
11.271600 3.787400
11.288900 3.830700
11.306200 4.044000
11.323400 4.405600
11.340700 4.636600
11.358000 4.711000
11.375200 4.729000
11.392500 4.765300
11.409800 4.823900
11.427000 4.897000
11.444300 4.943600
11.461600 5.013600
11.478800 5.116300
11.496100 5.161900
11.513400 5.148000
11.530600 5.130800
11.547900 5.108000
11.565200 5.080700
11.582400 5.092700
11.599700 5.135900
11.617000 5.171000
11.634200 5.192800
11.651500 5.200500
11.668700 5.232900
11.686000 5.265200
11.703300 5.294600
11.720500 5.317700
11.737800 5.335000
11.755100 5.356600
11.772300 5.400000
11.789600 5.467300
11.806900 5.508300
11.824100 5.521900
11.841400 5.508200
11.858700 5.461000
11.875900 5.366100
11.893200 5.261800
11.910500 5.206400
11.927700 5.031900
11.945000 4.596400
11.962300 4.073500
11.979500 3.442800
11.996800 2.901100
12.014000 2.430500
12.031300 2.475500
12.048600 2.623100
12.065800 2.780800
12.083100 3.311800
12.100400 3.556900
12.117600 3.805700
12.134900 4.058500
12.152200 4.315400
12.169400 4.576200
12.186700 4.837700
12.204000 5.114100
12.221200 5.434200
12.238500 5.786900
12.255800 7.032500
12.273000 7.814400
12.290300 7.957900
12.307600 7.734700
12.324800 7.260100
12.342100 8.179400
12.359300 8.160300
12.376600 8.253100
12.393900 8.164700
12.411100 8.250600
12.428400 8.358200
12.445700 8.470900
12.462900 9.258700
12.480200 9.200200
12.497500 8.243700
12.514700 7.139600
12.532000 6.614100
12.549300 6.129900
12.566500 5.602500
12.583800 5.031900
12.601100 4.423800
12.618300 3.749400
12.635600 3.086100
12.652900 2.441600
12.670100 2.036500
12.687400 1.899100
12.704700 2.021600
12.721900 2.223300
12.739200 2.451100
12.756400 2.694300
12.773700 2.949500
12.791000 3.219800
12.808200 3.534200
12.825500 4.032200
12.842800 4.430800
12.860000 4.596500
12.877300 4.736300
12.894600 5.050100
12.911800 5.168500
12.929100 5.266000
12.946400 5.323800
12.963600 5.332500
12.980900 5.378500
12.998200 5.493500
13.015400 5.707300
13.032700 5.982000
13.050000 6.320000
13.067200 6.450200
13.084500 6.698700
13.101700 6.730800
13.119000 6.479700
13.136300 6.006700
13.153500 6.319900
13.170800 6.536500
13.188100 6.586100
13.205300 6.468600
13.222600 6.173100
13.239900 5.796500
13.257100 5.584400
13.274400 5.401200
13.291700 5.246900
13.308900 5.252600
13.326200 4.590200
13.343500 4.390200
13.360700 4.205200
13.378000 4.030500
13.395300 3.851700
13.412500 3.685500
13.429800 3.598100
13.447000 3.567100
13.464300 3.559500
13.481600 3.575300
13.498800 3.614500
13.516100 3.671300
13.533400 3.734900
13.550600 3.804600
13.567900 3.926700
13.585200 4.088900
13.602400 4.197000
13.619700 4.261400
13.637000 4.214100
13.654200 4.349000
13.671500 4.675400
13.688800 4.952100
13.706000 5.100200
13.723300 5.157900
13.740600 5.094600
13.757800 4.934900
13.775100 4.726200
13.792400 4.533800
13.809600 4.346400
13.826900 4.111200
13.844100 4.030900
13.861400 4.022600
13.878700 4.236700
13.895900 4.420100
13.913200 4.610300
13.930500 4.843200
13.947700 5.005900
13.965000 5.110400
13.982300 5.212100
13.999500 5.324800
14.016800 5.448000
14.034100 5.540700
14.051300 5.606000
14.068600 5.652100
14.085900 5.679000
14.103100 5.689400
14.120400 5.628500
14.137700 5.499000
14.154900 5.335500
14.172200 5.084800
14.189400 4.457900
14.206700 3.913200
14.224000 3.575400
14.241200 3.293500
14.258500 3.024200
14.275800 2.837700
14.293000 2.685100
14.310300 2.552100
14.327600 2.438700
14.344800 2.344900
14.362100 2.269100
14.379400 2.202800
14.396600 2.144900
14.413900 2.095200
14.431200 2.061600
14.448400 2.116800
14.465700 2.231200
14.483000 2.289900
14.500200 2.376300
14.517500 2.490400
14.534700 2.632100
14.552000 2.807500
14.569300 3.033800
14.586500 3.224800
14.603800 3.399800
14.621100 3.576500
14.638300 3.758400
14.655600 4.173400
14.672900 5.027900
14.690100 5.495300
14.707400 5.830400
14.724700 6.158800
14.741900 6.489100
14.759200 6.795000
14.776500 7.056500
14.793700 7.279600
14.811000 7.285700
14.828300 7.670100
14.845500 6.602700
14.862800 6.201700
14.880000 5.911600
14.897300 5.732000
14.914600 5.662100
14.931800 5.616800
14.949100 5.582800
14.966400 5.559900
14.983600 5.481300
15.000900 5.399400
15.018200 5.315800
15.035400 5.241400
15.052700 5.182100
15.070000 5.136500
15.087200 5.103800
15.104500 5.008100
15.121800 4.741200
15.139000 4.546400
15.156300 4.457000
15.173600 4.447800
15.190800 4.467500
15.208100 4.461300
15.225400 4.303000
15.242600 4.252600
15.259900 4.213200
15.277100 4.194300
15.294400 4.203700
15.311700 4.243400
15.328900 4.343200
15.346200 4.686300
15.363500 4.915100
15.380700 5.026700
15.398000 5.127200
15.415300 5.227400
15.432500 5.328300
15.449800 5.429900
15.467100 5.547800
15.484300 5.733400
15.501600 5.978500
15.518900 6.253700
15.536100 6.557300
15.553400 6.776600
15.570700 6.906700
15.587900 7.227300
15.605200 7.520400
15.622400 7.671100
15.639700 7.654400
15.657000 7.472500
15.674200 7.116600
15.691500 6.804600
15.708800 6.534500
15.726000 6.257400
15.743300 5.971600
15.760600 5.588400
15.777800 5.214900
15.795100 4.864000
15.812400 4.539600
15.829600 4.240600
15.846900 3.963700
15.864200 3.807900
15.881400 3.614900
15.898700 3.364400
15.916000 3.188200
15.933200 3.159200
15.950500 3.349000
15.967700 3.709300
15.985000 4.081800
16.002300 4.405400
16.019500 4.698200
16.036800 4.947000
16.054100 5.166200
16.071300 5.349500
16.088600 5.368600
16.105900 5.359200
16.123100 5.590300
16.140400 5.781400
16.157700 5.891200
16.174900 5.751800
16.192200 6.259100
16.209500 7.089400
16.226700 7.438100
16.244000 7.732700
16.261300 7.163400
16.278500 7.034200
16.295800 6.924300
16.313100 6.812100
16.330300 6.643100
16.347600 6.427400
16.364800 6.374900
16.382100 6.389700
16.399400 6.404500
16.416600 6.401800
16.433900 6.393300
16.451200 6.381100
16.468400 7.893700
16.485700 6.670200
16.503000 5.756900
16.520200 5.080200
16.537500 4.684300
16.554800 4.425800
16.572000 4.028800
16.589300 3.434300
16.606600 2.993700
16.623800 2.680300
16.641100 2.489700
16.658400 2.408400
16.675600 2.394200
16.692900 2.444400
16.710100 2.612200
16.727400 2.871100
16.744700 3.160000
16.761900 3.319400
16.779200 3.363700
16.796500 3.405100
16.813700 3.484300
16.831000 3.546900
16.848300 3.597400
16.865500 3.670900
16.882800 3.768100
16.900100 3.866600
16.917300 3.969900
16.934600 4.097800
16.951900 4.248600
16.969100 4.425700
16.986400 4.632600
17.003700 4.791800
17.020900 5.008100
17.038200 5.252300
17.055400 5.476500
17.072700 5.695300
17.090000 6.071600
17.107200 6.515300
17.124500 6.775200
17.141800 6.786800
17.159000 6.731200
17.176300 6.694700
17.193600 6.588200
17.210800 6.404500
17.228100 6.222900
17.245400 6.196000
17.262600 6.145000
17.279900 6.084000
17.297200 5.991200
17.314400 5.788300
17.331700 5.511800
17.349000 5.234600
17.366200 4.928900
17.383500 4.554700
17.400800 4.224400
17.418000 3.879300
17.435300 3.517500
17.452500 3.155600
17.469800 2.782100
17.487100 2.394800
17.504300 2.099600
17.521600 1.838900
17.538900 1.603300
17.556100 1.395300
17.573400 1.234500
17.590700 1.082400
17.607900 0.939000
17.625200 0.804300
17.642500 0.678200
17.659700 0.560900
17.677000 0.452300
17.694300 0.352300
17.711500 0.261100
17.728800 0.183200
17.746100 0.126800
17.763300 0.081400
17.780600 0.046000
17.797800 0.020600
17.815100 0.005300
17.832400 0.000000
17.849600 0.000000
17.866900 0.000000
17.884200 0.000000
17.901400 0.000000
17.918700 0.000000
17.936000 0.000000
17.953200 0.000000
17.970500 0.000000
17.987800 0.000000
18.005000 0.000000
18.022300 0.000000
18.039600 0.000000
18.056800 0.000000
18.074100 0.000000
18.091400 0.000000
18.108600 0.000000
18.125900 0.000000
18.143100 0.000000
18.160400 0.000000
18.177700 0.000000
18.194900 0.000000
18.212200 0.000000
18.229500 0.000000
18.246700 0.000000
18.264000 0.000000
18.281300 0.000000
18.298500 0.000000
18.315800 0.000000
18.333100 0.000000
18.350300 0.000000
18.367600 0.000000
18.384900 0.000000
18.402100 0.000000
18.419400 0.000000
18.436700 0.000000
18.453900 0.000000
18.471200 0.000000
18.488500 0.000000
18.505700 0.000000
18.523000 0.000000
18.540200 0.000000
18.557500 0.000000
18.574800 0.000000
18.592000 0.000000
18.609300 0.000000
18.626600 0.000000
18.643800 0.000000
18.661100 0.000000
18.678400 0.000000
18.695600 0.000000
18.712900 0.000000
18.730200 0.000000
18.747400 0.000000
18.764700 0.000000
18.782000 0.000000
18.799200 0.000000
18.816500 0.000000
18.833800 0.000000
18.851000 0.000000
18.868300 0.000000
18.885500 0.000000
18.902800 0.000000
18.920100 0.000000
18.937300 0.000000
18.954600 0.000000
18.971900 0.000000
18.989100 0.000000
19.006400 0.000000
19.023700 0.000000
19.040900 0.000000
19.058200 0.000000
19.075500 0.000000
19.092700 0.000000
19.110000 0.000000
19.127300 0.000000
19.144500 0.000000
19.161800 0.000000
19.179100 0.000000
19.196300 0.000000
19.213600 0.000000
19.230800 0.000000
19.248100 0.000000
19.265400 0.000000
19.282600 0.000000
19.299900 0.000000
19.317200 0.000000
19.334400 0.000000
19.351700 0.000000
19.369000 0.000000
19.386200 0.000000
19.403500 0.000000
e
