set title 'mp-11416 - Density of States'
set xlabel 'Energy (eV)'
set ylabel 'DOS (states/eV)'
set grid
set xrange [-10:10]
set yrange [0:113.058]
set xzeroaxis lt -1
set terminal png size 800,600
set output 'mp-11416_dos_gnuplot.png'
plot '-' using 1:2 with lines title 'DOS'
-31.664100 0.000000
-31.636800 0.000000
-31.609400 0.000000
-31.582100 0.000000
-31.554700 0.000000
-31.527400 0.000000
-31.500100 0.000000
-31.472700 0.000000
-31.445400 0.000000
-31.418100 0.000000
-31.390700 0.000000
-31.363400 0.000000
-31.336000 0.000000
-31.308700 0.000000
-31.281400 0.000000
-31.254000 0.000000
-31.226700 0.000000
-31.199400 0.000000
-31.172000 0.000000
-31.144700 0.000000
-31.117300 0.000000
-31.090000 0.000000
-31.062700 0.000000
-31.035300 0.000000
-31.008000 0.000000
-30.980700 0.000000
-30.953300 0.000000
-30.926000 0.000000
-30.898600 0.000000
-30.871300 0.000000
-30.844000 0.000000
-30.816600 0.000000
-30.789300 0.000000
-30.762000 0.000000
-30.734600 0.000000
-30.707300 0.000000
-30.679900 0.000000
-30.652600 0.000000
-30.625300 0.000000
-30.597900 0.000000
-30.570600 0.000000
-30.543300 0.000000
-30.515900 0.000000
-30.488600 0.000000
-30.461200 0.000000
-30.433900 0.000000
-30.406600 0.000000
-30.379200 0.000000
-30.351900 0.000000
-30.324600 0.000000
-30.297200 0.000000
-30.269900 0.000000
-30.242500 0.000000
-30.215200 0.000000
-30.187900 0.000000
-30.160500 0.000000
-30.133200 0.000000
-30.105900 0.000000
-30.078500 0.000000
-30.051200 0.000000
-30.023800 0.000000
-29.996500 0.000000
-29.969200 0.000000
-29.941800 0.000000
-29.914500 0.000000
-29.887200 0.000000
-29.859800 0.000000
-29.832500 0.000000
-29.805100 0.000000
-29.777800 0.000000
-29.750500 0.000000
-29.723100 0.000000
-29.695800 0.000000
-29.668500 0.000000
-29.641100 0.000000
-29.613800 0.000000
-29.586400 0.000000
-29.559100 0.000000
-29.531800 0.000000
-29.504400 0.000000
-29.477100 0.000000
-29.449800 0.000000
-29.422400 0.000000
-29.395100 0.000000
-29.367700 0.000000
-29.340400 0.000000
-29.313100 0.000000
-29.285700 0.000000
-29.258400 0.000000
-29.231100 0.000000
-29.203700 0.000000
-29.176400 73.505400
-29.149000 52.889700
-29.121700 0.000000
-29.094400 0.000000
-29.067000 0.000000
-29.039700 0.000000
-29.012400 0.000000
-28.985000 0.000000
-28.957700 0.000000
-28.930300 0.000000
-28.903000 0.000000
-28.875700 0.000000
-28.848300 0.000000
-28.821000 0.000000
-28.793700 0.000000
-28.766300 0.000000
-28.739000 0.000000
-28.711600 0.000000
-28.684300 0.000000
-28.657000 0.000000
-28.629600 0.000000
-28.602300 0.000000
-28.575000 0.000000
-28.547600 0.000000
-28.520300 0.000000
-28.492900 0.000000
-28.465600 0.000000
-28.438300 0.000000
-28.410900 0.000000
-28.383600 0.000000
-28.356300 0.000000
-28.328900 0.000000
-28.301600 0.000000
-28.274200 0.000000
-28.246900 0.000000
-28.219600 0.000000
-28.192200 0.000000
-28.164900 0.000000
-28.137600 0.000000
-28.110200 0.000000
-28.082900 0.000000
-28.055500 0.000000
-28.028200 0.000000
-28.000900 0.000000
-27.973500 0.000000
-27.946200 0.000000
-27.918900 0.000000
-27.891500 0.000000
-27.864200 0.000000
-27.836800 0.000000
-27.809500 0.000000
-27.782200 0.000000
-27.754800 0.000000
-27.727500 0.000000
-27.700200 0.000000
-27.672800 0.000000
-27.645500 0.000000
-27.618100 0.000000
-27.590800 0.000000
-27.563500 0.000000
-27.536100 0.000000
-27.508800 0.000000
-27.481500 0.000000
-27.454100 0.000000
-27.426800 0.000000
-27.399400 0.000000
-27.372100 0.000000
-27.344800 0.000000
-27.317400 0.000000
-27.290100 0.000000
-27.262800 0.000000
-27.235400 0.000000
-27.208100 0.000000
-27.180700 0.000000
-27.153400 0.000000
-27.126100 0.000000
-27.098700 0.000000
-27.071400 0.000000
-27.044100 0.000000
-27.016700 0.000000
-26.989400 0.000000
-26.962000 0.000000
-26.934700 0.000000
-26.907400 0.000000
-26.880000 0.000000
-26.852700 0.000000
-26.825400 0.000000
-26.798000 0.000000
-26.770700 0.000000
-26.743300 0.000000
-26.716000 0.000000
-26.688700 0.000000
-26.661300 0.000000
-26.634000 0.000000
-26.606700 0.000000
-26.579300 0.000000
-26.552000 0.000000
-26.524600 0.000000
-26.497300 0.000000
-26.470000 0.000000
-26.442600 0.000000
-26.415300 0.000000
-26.388000 0.000000
-26.360600 0.000000
-26.333300 0.000000
-26.305900 0.000000
-26.278600 0.000000
-26.251300 0.000000
-26.223900 0.000000
-26.196600 0.000000
-26.169300 0.000000
-26.141900 0.000000
-26.114600 0.000000
-26.087200 0.000000
-26.059900 0.000000
-26.032600 0.000000
-26.005200 0.000000
-25.977900 0.000000
-25.950600 0.000000
-25.923200 0.000000
-25.895900 0.000000
-25.868500 0.000000
-25.841200 0.000000
-25.813900 0.000000
-25.786500 0.000000
-25.759200 0.000000
-25.731900 0.000000
-25.704500 0.000000
-25.677200 0.000000
-25.649800 0.000000
-25.622500 0.000000
-25.595200 0.000000
-25.567800 0.000000
-25.540500 0.000000
-25.513200 0.000000
-25.485800 0.000000
-25.458500 0.000000
-25.431100 0.000000
-25.403800 0.000000
-25.376500 0.000000
-25.349100 0.000000
-25.321800 0.000000
-25.294500 0.000000
-25.267100 0.000000
-25.239800 0.000000
-25.212400 0.000000
-25.185100 0.000000
-25.157800 0.000000
-25.130400 0.000000
-25.103100 0.000000
-25.075800 0.000000
-25.048400 0.000000
-25.021100 0.000000
-24.993700 0.000000
-24.966400 0.000000
-24.939100 0.000000
-24.911700 0.000000
-24.884400 0.000000
-24.857100 0.000000
-24.829700 0.000000
-24.802400 0.000000
-24.775000 0.000000
-24.747700 0.000000
-24.720400 0.000000
-24.693000 0.000000
-24.665700 0.000000
-24.638400 0.000000
-24.611000 0.000000
-24.583700 0.000000
-24.556300 0.000000
-24.529000 0.000000
-24.501700 0.000000
-24.474300 0.000000
-24.447000 0.000000
-24.419700 0.000000
-24.392300 0.000000
-24.365000 0.000000
-24.337600 0.000000
-24.310300 0.000000
-24.283000 0.000000
-24.255600 0.000000
-24.228300 0.000000
-24.201000 0.000000
-24.173600 0.000000
-24.146300 0.000000
-24.118900 0.000000
-24.091600 0.000000
-24.064300 0.000000
-24.036900 0.000000
-24.009600 0.000000
-23.982300 0.000000
-23.954900 0.000000
-23.927600 0.000000
-23.900200 0.000000
-23.872900 0.000000
-23.845600 0.000000
-23.818200 0.000000
-23.790900 0.000000
-23.763600 0.000000
-23.736200 0.000000
-23.708900 0.000000
-23.681500 0.000000
-23.654200 0.000000
-23.626900 0.000000
-23.599500 0.000000
-23.572200 0.000000
-23.544900 0.000000
-23.517500 0.000000
-23.490200 0.000000
-23.462800 0.000000
-23.435500 0.000000
-23.408200 0.000000
-23.380800 0.000000
-23.353500 0.000000
-23.326200 0.000000
-23.298800 0.000000
-23.271500 0.000000
-23.244100 0.000000
-23.216800 0.000000
-23.189500 0.000000
-23.162100 0.000000
-23.134800 0.000000
-23.107500 0.000000
-23.080100 0.000000
-23.052800 0.000000
-23.025400 0.000000
-22.998100 0.000000
-22.970800 0.000000
-22.943400 0.000000
-22.916100 0.000000
-22.888800 0.000000
-22.861400 0.000000
-22.834100 0.000000
-22.806700 0.000000
-22.779400 0.000000
-22.752100 0.000000
-22.724700 0.000000
-22.697400 0.000000
-22.670100 0.000000
-22.642700 0.000000
-22.615400 0.000000
-22.588000 0.000000
-22.560700 0.000000
-22.533400 0.000000
-22.506000 0.000000
-22.478700 0.000000
-22.451400 0.000000
-22.424000 0.000000
-22.396700 0.000000
-22.369300 0.000000
-22.342000 0.000000
-22.314700 0.000000
-22.287300 0.000000
-22.260000 0.000000
-22.232700 0.000000
-22.205300 0.000000
-22.178000 0.000000
-22.150600 0.000000
-22.123300 0.000000
-22.096000 0.000000
-22.068600 0.000000
-22.041300 0.000000
-22.014000 0.000000
-21.986600 0.000000
-21.959300 0.000000
-21.931900 0.000000
-21.904600 0.000000
-21.877300 0.000000
-21.849900 0.000000
-21.822600 0.000000
-21.795300 0.000000
-21.767900 0.000000
-21.740600 0.000000
-21.713200 0.000000
-21.685900 0.000000
-21.658600 0.000000
-21.631200 0.000000
-21.603900 0.000000
-21.576600 0.000000
-21.549200 0.000000
-21.521900 0.000000
-21.494500 0.000000
-21.467200 0.000000
-21.439900 0.000000
-21.412500 0.000000
-21.385200 0.000000
-21.357900 0.000000
-21.330500 0.000000
-21.303200 0.000000
-21.275800 0.000000
-21.248500 0.000000
-21.221200 0.000000
-21.193800 0.000000
-21.166500 0.000000
-21.139200 0.000000
-21.111800 0.000000
-21.084500 0.000000
-21.057100 0.000000
-21.029800 0.000000
-21.002500 0.000000
-20.975100 0.000000
-20.947800 0.000000
-20.920500 0.000000
-20.893100 0.000000
-20.865800 0.000000
-20.838400 0.000000
-20.811100 0.000000
-20.783800 0.000000
-20.756400 0.000000
-20.729100 0.000000
-20.701800 0.000000
-20.674400 0.000000
-20.647100 0.000000
-20.619700 0.000000
-20.592400 0.000000
-20.565100 0.000000
-20.537700 0.000000
-20.510400 0.000000
-20.483100 0.000000
-20.455700 0.000000
-20.428400 0.000000
-20.401000 0.000000
-20.373700 0.000000
-20.346400 0.000000
-20.319000 0.000000
-20.291700 0.000000
-20.264400 0.000000
-20.237000 0.000000
-20.209700 0.000000
-20.182300 0.000000
-20.155000 0.000000
-20.127700 0.000000
-20.100300 0.000000
-20.073000 0.000000
-20.045700 0.000000
-20.018300 0.000000
-19.991000 0.000000
-19.963600 0.000000
-19.936300 0.000000
-19.909000 0.000000
-19.881600 0.000000
-19.854300 0.000000
-19.827000 0.000000
-19.799600 0.000000
-19.772300 0.000000
-19.744900 0.000000
-19.717600 0.000000
-19.690300 0.000000
-19.662900 0.000000
-19.635600 0.000000
-19.608300 0.000000
-19.580900 0.000000
-19.553600 0.000000
-19.526200 0.000000
-19.498900 0.000000
-19.471600 0.000000
-19.444200 0.000000
-19.416900 0.000000
-19.389600 0.000000
-19.362200 0.000000
-19.334900 0.000000
-19.307500 0.000000
-19.280200 0.000000
-19.252900 0.000000
-19.225500 0.000000
-19.198200 0.000000
-19.170900 0.000000
-19.143500 0.000000
-19.116200 0.000000
-19.088800 0.000000
-19.061500 0.000000
-19.034200 0.000000
-19.006800 0.000000
-18.979500 0.000000
-18.952200 0.000000
-18.924800 0.000000
-18.897500 0.000000
-18.870100 0.000000
-18.842800 0.000000
-18.815500 0.000000
-18.788100 0.000000
-18.760800 0.000000
-18.733500 0.000000
-18.706100 0.000000
-18.678800 0.000000
-18.651400 0.000000
-18.624100 0.000000
-18.596800 0.000000
-18.569400 0.000000
-18.542100 0.000000
-18.514800 0.000000
-18.487400 0.000000
-18.460100 0.000000
-18.432700 0.000000
-18.405400 0.000000
-18.378100 0.000000
-18.350700 0.000000
-18.323400 0.000000
-18.296100 0.000000
-18.268700 0.000000
-18.241400 0.000000
-18.214000 0.000000
-18.186700 0.000000
-18.159400 0.000000
-18.132000 0.000000
-18.104700 0.000000
-18.077400 0.000000
-18.050000 0.000000
-18.022700 0.000000
-17.995300 0.000000
-17.968000 0.000000
-17.940700 0.000000
-17.913300 0.000000
-17.886000 0.000000
-17.858700 0.000000
-17.831300 0.000000
-17.804000 0.000000
-17.776600 0.000000
-17.749300 0.000000
-17.722000 0.000000
-17.694600 0.000000
-17.667300 0.000000
-17.640000 0.000000
-17.612600 0.000000
-17.585300 0.000000
-17.557900 0.000000
-17.530600 0.000000
-17.503300 0.000000
-17.475900 0.000000
-17.448600 0.000000
-17.421300 0.000000
-17.393900 0.000000
-17.366600 0.000000
-17.339200 0.000000
-17.311900 0.000000
-17.284600 0.000000
-17.257200 0.000000
-17.229900 0.000000
-17.202600 0.000000
-17.175200 0.000000
-17.147900 0.000000
-17.120500 0.000000
-17.093200 0.000000
-17.065900 0.000000
-17.038500 0.000000
-17.011200 0.000000
-16.983900 0.000000
-16.956500 0.000000
-16.929200 0.000000
-16.901800 0.000000
-16.874500 0.000000
-16.847200 0.000000
-16.819800 0.000000
-16.792500 0.000000
-16.765200 0.000000
-16.737800 0.000000
-16.710500 0.000000
-16.683100 0.000000
-16.655800 0.000000
-16.628500 0.000000
-16.601100 0.000000
-16.573800 0.000000
-16.546500 0.000000
-16.519100 0.000000
-16.491800 0.000000
-16.464400 0.000000
-16.437100 0.000000
-16.409800 0.000000
-16.382400 0.000000
-16.355100 0.000000
-16.327800 0.000000
-16.300400 0.000000
-16.273100 0.000000
-16.245700 0.000000
-16.218400 0.000000
-16.191100 0.000000
-16.163700 0.000000
-16.136400 0.000000
-16.109100 0.000000
-16.081700 0.000000
-16.054400 0.000000
-16.027000 0.000000
-15.999700 0.000000
-15.972400 0.000000
-15.945000 0.000000
-15.917700 0.000000
-15.890400 0.000000
-15.863000 0.000000
-15.835700 0.000000
-15.808300 0.000000
-15.781000 0.000000
-15.753700 0.000000
-15.726300 0.000000
-15.699000 0.000000
-15.671700 0.000000
-15.644300 0.000000
-15.617000 0.000000
-15.589600 0.000000
-15.562300 0.000000
-15.535000 0.000000
-15.507600 0.000000
-15.480300 0.000000
-15.453000 0.000000
-15.425600 0.000000
-15.398300 0.000000
-15.370900 0.000000
-15.343600 0.000000
-15.316300 0.000000
-15.288900 0.000000
-15.261600 0.000000
-15.234300 0.000000
-15.206900 0.000000
-15.179600 0.000000
-15.152200 0.000000
-15.124900 0.000000
-15.097600 0.000000
-15.070200 0.000000
-15.042900 0.000000
-15.015600 0.000000
-14.988200 0.000000
-14.960900 0.000000
-14.933500 0.000000
-14.906200 0.000000
-14.878900 0.000000
-14.851500 0.000000
-14.824200 0.000000
-14.796900 0.000000
-14.769500 0.000000
-14.742200 0.000000
-14.714800 0.000000
-14.687500 0.000000
-14.660200 0.000000
-14.632800 0.000000
-14.605500 0.000000
-14.578200 0.000000
-14.550800 0.000000
-14.523500 0.000000
-14.496100 0.000000
-14.468800 0.000000
-14.441500 0.000000
-14.414100 0.000000
-14.386800 0.000000
-14.359500 0.000000
-14.332100 0.000000
-14.304800 0.000000
-14.277400 0.000000
-14.250100 0.000000
-14.222800 0.000000
-14.195400 0.000000
-14.168100 0.000000
-14.140800 0.000000
-14.113400 0.000000
-14.086100 0.000000
-14.058700 0.000000
-14.031400 0.000000
-14.004100 0.000000
-13.976700 0.000000
-13.949400 0.000000
-13.922100 0.000000
-13.894700 0.000000
-13.867400 0.000000
-13.840000 0.000000
-13.812700 0.000000
-13.785400 0.000000
-13.758000 0.000000
-13.730700 0.000000
-13.703400 0.000000
-13.676000 0.000000
-13.648700 0.000000
-13.621300 0.000000
-13.594000 0.000000
-13.566700 0.000000
-13.539300 0.000000
-13.512000 0.000000
-13.484700 0.000000
-13.457300 0.000000
-13.430000 0.000000
-13.402600 0.000000
-13.375300 0.000000
-13.348000 0.000000
-13.320600 0.000000
-13.293300 0.000000
-13.266000 0.000000
-13.238600 0.000000
-13.211300 0.000000
-13.183900 0.000000
-13.156600 0.000000
-13.129300 0.000000
-13.101900 0.000000
-13.074600 0.000000
-13.047300 0.000000
-13.019900 0.000000
-12.992600 0.000000
-12.965200 0.000000
-12.937900 0.000000
-12.910600 0.000000
-12.883200 0.000000
-12.855900 0.000000
-12.828600 0.000000
-12.801200 0.000000
-12.773900 0.000000
-12.746500 0.000000
-12.719200 0.000000
-12.691900 0.000000
-12.664500 0.000000
-12.637200 0.000000
-12.609900 0.000000
-12.582500 0.000000
-12.555200 0.000000
-12.527800 0.000000
-12.500500 0.000000
-12.473200 0.000000
-12.445800 0.000000
-12.418500 0.000000
-12.391200 0.000000
-12.363800 0.000000
-12.336500 0.000000
-12.309100 0.000000
-12.281800 0.000000
-12.254500 0.000000
-12.227100 0.000000
-12.199800 0.000000
-12.172500 0.000000
-12.145100 0.000000
-12.117800 0.000000
-12.090400 0.000000
-12.063100 0.000000
-12.035800 0.000000
-12.008400 0.000000
-11.981100 0.000000
-11.953800 0.000000
-11.926400 0.000000
-11.899100 0.000000
-11.871700 0.000000
-11.844400 0.000000
-11.817100 0.000000
-11.789700 0.000000
-11.762400 0.000000
-11.735100 0.000000
-11.707700 0.000000
-11.680400 0.000000
-11.653000 0.000000
-11.625700 0.000000
-11.598400 0.000000
-11.571000 0.000000
-11.543700 0.000000
-11.516400 0.000000
-11.489000 0.000000
-11.461700 0.000000
-11.434300 0.000000
-11.407000 0.000000
-11.379700 0.000000
-11.352300 0.000000
-11.325000 0.000000
-11.297700 0.000000
-11.270300 0.000000
-11.243000 0.000000
-11.215600 0.000000
-11.188300 0.000000
-11.161000 0.000000
-11.133600 0.000000
-11.106300 0.000000
-11.079000 0.000000
-11.051600 0.000000
-11.024300 0.000000
-10.996900 0.000000
-10.969600 0.000000
-10.942300 0.000000
-10.914900 0.000000
-10.887600 0.000000
-10.860300 0.000000
-10.832900 0.000000
-10.805600 0.000000
-10.778200 0.000000
-10.750900 0.000000
-10.723600 0.000000
-10.696200 0.000000
-10.668900 0.000000
-10.641600 0.000000
-10.614200 0.000000
-10.586900 0.000000
-10.559500 0.000000
-10.532200 0.000000
-10.504900 0.000000
-10.477500 0.000000
-10.450200 0.000000
-10.422900 0.000000
-10.395500 0.000000
-10.368200 0.000000
-10.340800 0.000000
-10.313500 0.000000
-10.286200 0.000000
-10.258800 0.000000
-10.231500 0.000000
-10.204200 0.000000
-10.176800 0.000000
-10.149500 0.000000
-10.122100 0.000000
-10.094800 0.000000
-10.067500 0.000000
-10.040100 0.000000
-10.012800 0.000000
-9.985500 0.000000
-9.958100 0.000000
-9.930800 0.000000
-9.903400 4.688100
-9.876100 11.346400
-9.848800 25.791400
-9.821400 55.353600
-9.794100 102.780200
-9.766800 64.990100
-9.739400 69.010000
-9.712100 50.883200
-9.684700 73.482400
-9.657400 36.584700
-9.630100 78.059500
-9.602700 55.814200
-9.575400 36.896700
-9.548100 58.547200
-9.520700 71.125600
-9.493400 52.061300
-9.466000 59.951400
-9.438700 96.506700
-9.411400 35.784500
-9.384000 25.153500
-9.356700 20.242400
-9.329400 6.382700
-9.302000 4.429400
-9.274700 3.672800
-9.247300 4.028400
-9.220000 0.000000
-9.192700 0.000000
-9.165300 0.000000
-9.138000 0.000000
-9.110700 0.000000
-9.083300 0.000000
-9.056000 0.000000
-9.028600 0.000000
-9.001300 0.000000
-8.974000 0.000000
-8.946600 0.000000
-8.919300 0.000000
-8.892000 0.000000
-8.864600 0.000000
-8.837300 0.000000
-8.809900 0.000000
-8.782600 0.000000
-8.755300 0.000000
-8.727900 0.000000
-8.700600 0.000000
-8.673300 0.000000
-8.645900 0.000000
-8.618600 0.000000
-8.591200 0.000000
-8.563900 0.000000
-8.536600 0.000000
-8.509200 0.000000
-8.481900 0.000000
-8.454600 0.000000
-8.427200 0.000000
-8.399900 0.000000
-8.372500 0.000000
-8.345200 0.000000
-8.317900 0.000000
-8.290500 0.000000
-8.263200 0.000000
-8.235900 0.000000
-8.208500 0.000000
-8.181200 0.000000
-8.153800 0.000000
-8.126500 0.000000
-8.099200 0.000000
-8.071800 0.000000
-8.044500 0.000000
-8.017200 0.000000
-7.989800 0.000000
-7.962500 0.000000
-7.935100 0.000000
-7.907800 0.000000
-7.880500 0.000000
-7.853100 0.000000
-7.825800 0.000000
-7.798500 0.000000
-7.771100 0.000000
-7.743800 0.000000
-7.716400 0.000000
-7.689100 0.000000
-7.661800 0.000000
-7.634400 0.000000
-7.607100 0.000000
-7.579800 0.000000
-7.552400 0.000000
-7.525100 0.000000
-7.497700 0.000000
-7.470400 0.000000
-7.443100 0.000000
-7.415700 0.000000
-7.388400 0.000000
-7.361100 0.000000
-7.333700 0.000000
-7.306400 0.000000
-7.279000 0.000000
-7.251700 0.000000
-7.224400 0.000000
-7.197000 0.000000
-7.169700 0.000000
-7.142400 0.000000
-7.115000 0.000000
-7.087700 0.000000
-7.060300 0.000000
-7.033000 0.000000
-7.005700 0.000000
-6.978300 0.000000
-6.951000 0.000000
-6.923700 0.000000
-6.896300 0.000000
-6.869000 0.000000
-6.841600 0.000000
-6.814300 0.000000
-6.787000 0.000000
-6.759600 0.000000
-6.732300 0.000000
-6.705000 0.000000
-6.677600 0.000000
-6.650300 0.000000
-6.622900 0.000000
-6.595600 0.000000
-6.568300 0.000000
-6.540900 0.000000
-6.513600 0.000000
-6.486300 0.000000
-6.458900 0.000000
-6.431600 0.005400
-6.404200 0.046700
-6.376900 0.086200
-6.349600 0.094500
-6.322200 0.113300
-6.294900 0.134600
-6.267600 0.151000
-6.240200 0.157400
-6.212900 0.166600
-6.185500 0.176300
-6.158200 0.188100
-6.130900 0.200200
-6.103500 0.209700
-6.076200 0.220000
-6.048900 0.228600
-6.021500 0.234600
-5.994200 0.241700
-5.966800 0.249000
-5.939500 0.256800
-5.912200 0.265000
-5.884800 0.273300
-5.857500 0.280600
-5.830200 0.288100
-5.802800 0.296200
-5.775500 0.302700
-5.748100 0.308600
-5.720800 0.314600
-5.693500 0.320300
-5.666100 0.326700
-5.638800 0.333400
-5.611500 0.340300
-5.584100 0.346500
-5.556800 0.352500
-5.529400 0.358700
-5.502100 0.364800
-5.474800 0.371100
-5.447400 0.377600
-5.420100 0.383700
-5.392800 0.389200
-5.365400 0.394800
-5.338100 0.400600
-5.310700 0.406300
-5.283400 0.412000
-5.256100 0.417900
-5.228700 0.423400
-5.201400 0.428600
-5.174100 0.434000
-5.146700 0.439700
-5.119400 0.445700
-5.092000 0.451900
-5.064700 0.458000
-5.037400 0.464300
-5.010000 0.470600
-4.982700 0.476000
-4.955400 0.481400
-4.928000 0.487100
-4.900700 0.492900
-4.873300 0.498800
-4.846000 0.504800
-4.818700 0.511000
-4.791300 0.517300
-4.764000 0.523900
-4.736700 0.530900
-4.709300 0.538600
-4.682000 0.547600
-4.654600 0.557900
-4.627300 0.570100
-4.600000 0.584200
-4.572600 0.597900
-4.545300 0.601600
-4.518000 0.601100
-4.490600 0.608300
-4.463300 0.616600
-4.435900 0.600700
-4.408600 0.604800
-4.381300 0.607800
-4.353900 0.611400
-4.326600 0.611200
-4.299300 0.613300
-4.271900 0.621300
-4.244600 0.621200
-4.217200 0.620700
-4.189900 0.618300
-4.162600 0.618200
-4.135200 0.618000
-4.107900 0.617900
-4.080600 0.618500
-4.053200 0.619600
-4.025900 0.621400
-3.998500 0.623900
-3.971200 0.627800
-3.943900 0.636800
-3.916500 0.649100
-3.889200 0.661200
-3.861900 0.670400
-3.834500 0.677900
-3.807200 0.681700
-3.779800 0.682800
-3.752500 0.686400
-3.725200 0.692700
-3.697800 0.707400
-3.670500 0.717100
-3.643200 0.726400
-3.615800 0.734900
-3.588500 0.747500
-3.561100 0.763900
-3.533800 0.778200
-3.506500 0.796700
-3.479100 0.812300
-3.451800 0.823600
-3.424500 0.832100
-3.397100 0.838800
-3.369800 0.846200
-3.342400 0.859500
-3.315100 0.895400
-3.287800 0.908400
-3.260400 0.901400
-3.233100 0.870200
-3.205800 0.847800
-3.178400 0.804600
-3.151100 0.784500
-3.123700 0.770700
-3.096400 0.746800
-3.069100 0.720900
-3.041700 0.708800
-3.014400 0.710300
-2.987100 0.722900
-2.959700 0.743200
-2.932400 0.763000
-2.905000 0.780500
-2.877700 0.794900
-2.850400 0.808400
-2.823000 0.821500
-2.795700 0.840900
-2.768400 0.865900
-2.741000 0.973500
-2.713700 1.031800
-2.686300 1.073700
-2.659000 1.098100
-2.631700 1.112100
-2.604300 1.104900
-2.577000 1.099600
-2.549700 1.091100
-2.522300 1.093300
-2.495000 1.094700
-2.467600 1.090900
-2.440300 1.086800
-2.413000 1.094600
-2.385600 1.098000
-2.358300 1.100500
-2.331000 1.101200
-2.303600 1.100800
-2.276300 1.114000
-2.248900 1.133900
-2.221600 1.218200
-2.194300 1.168600
-2.166900 1.089500
-2.139600 0.971100
-2.112300 0.806500
-2.084900 0.806300
-2.057600 0.802200
-2.030200 0.798100
-2.002900 0.795800
-1.975600 0.793600
-1.948200 0.791500
-1.920900 0.789400
-1.893600 0.785700
-1.866200 0.780300
-1.838900 0.776200
-1.811500 0.772400
-1.784200 0.768500
-1.756900 0.765700
-1.729500 0.764000
-1.702200 0.762200
-1.674900 0.760100
-1.647500 0.764000
-1.620200 0.821600
-1.592800 0.832900
-1.565500 0.840700
-1.538200 0.842600
-1.510800 0.845200
-1.483500 0.845100
-1.456200 0.844400
-1.428800 0.844800
-1.401500 0.846200
-1.374100 0.852200
-1.346800 0.861200
-1.319500 0.871400
-1.292100 0.882200
-1.264800 0.893600
-1.237500 0.894800
-1.210100 0.895200
-1.182800 0.901200
-1.155400 0.906500
-1.128100 0.908200
-1.100800 0.906100
-1.073400 0.910600
-1.046100 0.917200
-1.018800 0.924900
-0.991400 0.933100
-0.964100 0.941700
-0.936700 0.951900
-0.909400 0.963300
-0.882100 0.976300
-0.854700 1.124900
-0.827400 1.129800
-0.800100 1.002800
-0.772700 1.001300
-0.745400 1.358100
-0.718000 1.361800
-0.690700 1.438100
-0.663400 1.479300
-0.636000 1.496700
-0.608700 1.524500
-0.581400 1.577300
-0.554000 1.483200
-0.526700 1.485500
-0.499300 1.378700
-0.472000 1.339800
-0.444700 1.328600
-0.417300 1.315200
-0.390000 1.305300
-0.362700 1.307800
-0.335300 1.307600
-0.308000 1.293600
-0.280600 1.273500
-0.253300 1.263700
-0.226000 1.235700
-0.198600 1.205500
-0.171300 1.201800
-0.144000 1.170200
-0.116600 1.159800
-0.089300 1.143600
-0.061900 1.134800
-0.034600 1.125800
-0.007300 1.117300
0.020100 1.109100
0.047400 1.110800
0.074700 1.102800
0.102100 1.087400
0.129400 1.117300
0.156800 1.095700
0.184100 1.067500
0.211400 1.060700
0.238800 1.056200
0.266100 1.058700
0.293400 1.058900
0.320800 1.056400
0.348100 1.055000
0.375500 1.063500
0.402800 1.068300
0.430100 1.068600
0.457500 1.058700
0.484800 1.065900
0.512100 1.042000
0.539500 1.012400
0.566800 0.989300
0.594200 0.945600
0.621500 0.912700
0.648800 0.863500
0.676200 0.838800
0.703500 0.828400
0.730800 0.810000
0.758200 0.807100
0.785500 0.819600
0.812900 0.811400
0.840200 0.805100
0.867500 0.803900
0.894900 0.801700
0.922200 0.805900
0.949500 0.821200
0.976900 0.855200
1.004200 0.948300
1.031600 1.225000
1.058900 1.168400
1.086200 0.911800
1.113600 0.956600
1.140900 1.043800
1.168200 1.119300
1.195600 1.180300
1.222900 1.230600
1.250300 1.271500
1.277600 1.313300
1.304900 1.354400
1.332300 1.393700
1.359600 1.443700
1.386900 1.499100
1.414300 1.549000
1.441600 1.596200
1.469000 1.645000
1.496300 1.706500
1.523600 1.991900
1.551000 2.076900
1.578300 1.894900
1.605600 1.792600
1.633000 1.692400
1.660300 1.572100
1.687700 1.463700
1.715000 1.407300
1.742300 1.379400
1.769700 1.371000
1.797000 1.361800
1.824300 1.363100
1.851700 1.391400
1.879000 1.412800
1.906400 1.401700
1.933700 1.410000
1.961000 1.399100
1.988400 1.380200
2.015700 1.377900
2.043000 1.407700
2.070400 1.402300
2.097700 1.395200
2.125100 1.437000
2.152400 1.454600
2.179700 1.468600
2.207100 1.490300
2.234400 1.515400
2.261700 1.539500
2.289100 1.592400
2.316400 1.555000
2.343800 1.491600
2.371100 1.485400
2.398400 1.454100
2.425800 1.446700
2.453100 1.447600
2.480400 1.427200
2.507800 1.405700
2.535100 1.407900
2.562500 1.419400
2.589800 1.454300
2.617100 1.514800
2.644500 1.607600
2.671800 1.770500
2.699100 2.040000
2.726500 2.331500
2.753800 2.472200
2.781200 2.510300
2.808500 2.560800
2.835800 2.582700
2.863200 2.602700
2.890500 2.661300
2.917800 2.719200
2.945200 2.806600
2.972500 2.896300
2.999900 2.996200
3.027200 2.959200
3.054500 2.984100
3.081900 3.190200
3.109200 3.723500
3.136500 3.451800
3.163900 3.346900
3.191200 3.210000
3.218600 2.999000
3.245900 2.868000
3.273200 2.820200
3.300600 2.849400
3.327900 2.901600
3.355200 2.902100
3.382600 2.931400
3.409900 2.987600
3.437300 3.026300
3.464600 2.948000
3.491900 2.856600
3.519300 2.813500
3.546600 2.724500
3.573900 2.628000
3.601300 2.580300
3.628600 2.503400
3.656000 2.446900
3.683300 2.432800
3.710600 2.416100
3.738000 2.422000
3.765300 2.419700
3.792600 2.451800
3.820000 2.528900
3.847300 2.610600
3.874700 2.519900
3.902000 2.480000
3.929300 2.461700
3.956700 2.460000
3.984000 2.481800
4.011300 2.500000
4.038700 2.583100
4.066000 2.660500
4.093400 2.681800
4.120700 2.723900
4.148000 2.931000
4.175400 2.985400
4.202700 2.198200
4.230000 1.952000
4.257400 1.830400
4.284700 1.740800
4.312100 1.656300
4.339400 1.595600
4.366700 1.542300
4.394100 1.485100
4.421400 1.445600
4.448700 1.409000
4.476100 1.372000
4.503400 1.339200
4.530800 1.308100
4.558100 1.282000
4.585400 1.259200
4.612800 1.245600
4.640100 1.197100
4.667400 1.168000
4.694800 1.148700
4.722100 1.118200
4.749500 1.095900
4.776800 1.081800
4.804100 1.069400
4.831500 1.058000
4.858800 1.046400
4.886100 1.043000
4.913500 1.046000
4.940800 1.033500
4.968200 1.015900
4.995500 0.989000
5.022800 0.961600
5.050200 0.948900
5.077500 0.945100
5.104800 0.925400
5.132200 0.911900
5.159500 0.907600
5.186900 0.905000
5.214200 0.895900
5.241500 0.873100
5.268900 0.820500
5.296200 0.749000
5.323500 0.734100
5.350900 0.720100
5.378200 0.741000
5.405600 0.809900
5.432900 0.802400
5.460200 0.765700
5.487600 0.729800
5.514900 0.723900
5.542200 0.667200
5.569600 0.697700
5.596900 0.651100
5.624300 0.592400
5.651600 0.554200
5.678900 0.556400
5.706300 0.625600
5.733600 0.694000
5.760900 0.658800
5.788300 0.854500
5.815600 1.000300
5.843000 1.068900
5.870300 0.961400
5.897600 1.000200
5.925000 1.062500
5.952300 1.162500
5.979600 1.274900
6.007000 1.492500
6.034300 1.638500
6.061700 1.737100
6.089000 1.902800
6.116300 2.098100
6.143700 2.186600
6.171000 2.403900
6.198300 2.774000
6.225700 3.231100
6.253000 3.586700
6.280400 3.258400
6.307700 2.911700
6.335000 2.690700
6.362400 2.516000
6.389700 2.387200
6.417000 2.263400
6.444400 2.163000
6.471700 2.084200
6.499100 2.035300
6.526400 2.022100
6.553700 2.062500
6.581100 2.093700
6.608400 2.124900
6.635700 2.198400
6.663100 2.278200
6.690400 2.382900
6.717800 2.531600
6.745100 2.376600
6.772400 2.368900
6.799800 2.500900
6.827100 2.227600
6.854400 2.081100
6.881800 2.142400
6.909100 2.219400
6.936500 2.351200
6.963800 2.496600
6.991100 2.739200
7.018500 3.528300
7.045800 4.129700
7.073100 4.153400
7.100500 3.974000
7.127800 3.944700
7.155200 3.535000
7.182500 2.774500
7.209800 2.650900
7.237200 2.703900
7.264500 2.860800
7.291800 3.286200
7.319200 3.715700
7.346500 4.498600
7.373900 4.235800
7.401200 3.719300
7.428500 3.410500
7.455900 3.252900
7.483200 3.219700
7.510500 3.072900
7.537900 3.148100
7.565200 3.136900
7.592600 2.980600
7.619900 2.998000
7.647200 2.968900
7.674600 2.907200
7.701900 2.809200
7.729200 2.700100
7.756600 2.645600
7.783900 2.581800
7.811300 2.588600
7.838600 2.444100
7.865900 2.293200
7.893300 2.140400
7.920600 2.037900
7.947900 1.989400
7.975300 1.979700
8.002600 1.960800
8.030000 1.983400
8.057300 2.023800
8.084600 2.188100
8.112000 2.062700
8.139300 1.900300
8.166600 1.882300
8.194000 1.959800
8.221300 1.846500
8.248700 1.708200
8.276000 1.724200
8.303300 1.820000
8.330700 1.909800
8.358000 1.979700
8.385300 2.012000
8.412700 2.026400
8.440000 2.023200
8.467400 2.034600
8.494700 2.051800
8.522000 2.083400
8.549400 2.117100
8.576700 2.214400
8.604000 2.253000
8.631400 2.350400
8.658700 2.621200
8.686100 2.771300
8.713400 2.828500
8.740700 2.820700
8.768100 2.800000
8.795400 2.824900
8.822700 2.864600
8.850100 2.959800
8.877400 2.914600
8.904800 2.724000
8.932100 2.450700
8.959400 2.242600
8.986800 2.089900
9.014100 1.966400
9.041400 1.903600
9.068800 1.841800
9.096100 1.782500
9.123500 1.752500
9.150800 1.733400
9.178100 1.708800
9.205500 1.718300
9.232800 1.740000
9.260100 1.801300
9.287500 1.898000
9.314800 1.926600
9.342200 1.927900
9.369500 1.921700
9.396800 1.910200
9.424200 1.842300
9.451500 1.759100
9.478800 1.659000
9.506200 1.794200
9.533500 1.759400
9.560900 1.755400
9.588200 1.745300
9.615500 1.732100
9.642900 1.699800
9.670200 1.686500
9.697500 1.705000
9.724900 1.761600
9.752200 1.785900
9.779600 1.728100
9.806900 1.630400
9.834200 1.607200
9.861600 1.593900
9.888900 1.729900
9.916200 2.089300
9.943600 2.004500
9.970900 2.006200
9.998300 1.991000
10.025600 2.031500
10.052900 2.124300
10.080300 2.083200
10.107600 2.148500
10.134900 2.204800
10.162300 2.280600
10.189600 2.366100
10.217000 2.485700
10.244300 2.587200
10.271600 2.638000
10.299000 2.614400
10.326300 2.491200
10.353600 2.376200
10.381000 2.315500
10.408300 2.247700
10.435700 2.165600
10.463000 2.086200
10.490300 2.055900
10.517700 2.030700
10.545000 2.024800
10.572300 2.024100
10.599700 2.032500
10.627000 2.015200
10.654400 2.006500
10.681700 2.045600
10.709000 2.114000
10.736400 2.211200
10.763700 2.325700
10.791000 2.410400
10.818400 2.497000
10.845700 2.548500
10.873100 2.553700
10.900400 2.511200
10.927700 2.471600
10.955100 2.377900
10.982400 2.266000
11.009700 2.166300
11.037100 2.069300
11.064400 1.981100
11.091800 1.911000
11.119100 1.875200
11.146400 1.813500
11.173800 1.712400
11.201100 1.606100
11.228400 1.506900
11.255800 1.416800
11.283100 1.357500
11.310500 1.319400
11.337800 1.320400
11.365100 1.346600
11.392500 1.388300
11.419800 1.427800
11.447100 1.575200
11.474500 1.645600
11.501800 1.674100
11.529200 1.750300
11.556500 1.816500
11.583800 1.888600
11.611200 1.943400
11.638500 1.977900
11.665800 2.024300
11.693200 2.068700
11.720500 2.070600
11.747900 2.121800
11.775200 2.169700
11.802500 2.182200
11.829900 2.160200
11.857200 2.159900
11.884500 2.147100
11.911900 2.151200
11.939200 2.077100
11.966600 2.011000
11.993900 1.933200
12.021200 1.867200
12.048600 1.819000
12.075900 1.761300
12.103200 1.698500
12.130600 1.667000
12.157900 1.601600
12.185300 1.616800
12.212600 1.660500
12.239900 1.651900
12.267300 1.629900
12.294600 1.624100
12.321900 1.633700
12.349300 1.681300
12.376600 1.736200
12.404000 1.806200
12.431300 1.846900
12.458600 1.871100
12.486000 1.902300
12.513300 1.937100
12.540600 1.985800
12.568000 2.078200
12.595300 2.114700
12.622700 2.143500
12.650000 2.192900
12.677300 2.198200
12.704700 2.178700
12.732000 2.177400
12.759300 2.180800
12.786700 2.178700
12.814000 2.164000
12.841400 2.225300
12.868700 2.267500
12.896000 2.260100
12.923400 2.258200
12.950700 2.265300
12.978000 2.306200
13.005400 2.359000
13.032700 2.483300
13.060100 2.565000
13.087400 2.719900
13.114700 2.719500
13.142100 2.586400
13.169400 2.557600
13.196700 2.541200
13.224100 2.540300
13.251400 2.581700
13.278800 2.512400
13.306100 2.450400
13.333400 2.428800
13.360800 2.454100
13.388100 2.460900
13.415400 2.432700
13.442800 2.385500
13.470100 2.343900
13.497500 2.321900
13.524800 2.316500
13.552100 2.310300
13.579500 2.301500
13.606800 2.305700
13.634100 2.241600
13.661500 2.171700
13.688800 2.063100
13.716200 1.975900
13.743500 1.853300
13.770800 1.763900
13.798200 1.707100
13.825500 1.680700
13.852800 1.714300
13.880200 1.797500
13.907500 1.833700
13.934900 1.915400
13.962200 1.962900
13.989500 1.918300
14.016900 1.918700
14.044200 1.935600
14.071500 1.971500
14.098900 2.037600
14.126200 2.109700
14.153600 2.215800
14.180900 2.369300
14.208200 2.439500
14.235600 2.419200
14.262900 2.379800
14.290200 2.325800
14.317600 2.258800
14.344900 2.209400
14.372300 2.194200
14.399600 2.179600
14.426900 2.122000
14.454300 2.061400
14.481600 2.038500
14.508900 2.026700
14.536300 2.028000
14.563600 2.036500
14.591000 2.075100
14.618300 2.106100
14.645600 2.138000
14.673000 2.166000
14.700300 2.205900
14.727600 2.283600
14.755000 2.267900
14.782300 2.250600
14.809700 2.265400
14.837000 2.250000
14.864300 2.222200
14.891700 2.159300
14.919000 2.141800
14.946300 2.087600
14.973700 1.992800
15.001000 1.920200
15.028400 1.833600
15.055700 1.738400
15.083000 1.632200
15.110400 1.514100
15.137700 1.431500
15.165000 1.384700
15.192400 1.365600
15.219700 1.341700
15.247100 1.307100
15.274400 1.282900
15.301700 1.269800
15.329100 1.307800
15.356400 1.425200
15.383700 1.477400
15.411100 1.505900
15.438400 1.491500
15.465800 1.521700
15.493100 1.636500
15.520400 1.729000
15.547800 1.731300
15.575100 1.713900
15.602400 1.738400
15.629800 1.799400
15.657100 1.876200
15.684500 1.938700
15.711800 2.043900
15.739100 2.043700
15.766500 2.055300
15.793800 2.065400
15.821100 2.049200
15.848500 2.030200
15.875800 1.998400
15.903200 1.971200
15.930500 1.900500
15.957800 1.800200
15.985200 1.709100
16.012500 1.685900
16.039800 1.685400
16.067200 1.683700
16.094500 1.706300
16.121900 1.732300
16.149200 1.719700
16.176500 1.718100
16.203900 1.738400
16.231200 1.738600
16.258500 1.727100
16.285900 1.722700
16.313200 1.681000
16.340600 1.656200
16.367900 1.664300
16.395200 1.665700
16.422600 1.683800
16.449900 1.723100
16.477200 1.765500
16.504600 1.797100
16.531900 1.795300
16.559300 1.769900
16.586600 1.744600
16.613900 1.718500
16.641300 1.683900
16.668600 1.658400
16.695900 1.638700
16.723300 1.629200
16.750600 1.647800
16.778000 1.667400
16.805300 1.664900
16.832600 1.667400
16.860000 1.631300
16.887300 1.633800
16.914600 1.644400
16.942000 1.647400
16.969300 1.666600
16.996700 1.674600
17.024000 1.653100
17.051300 1.630100
17.078700 1.597100
17.106000 1.577500
17.133300 1.597700
17.160700 1.604700
17.188000 1.504500
17.215400 1.480900
17.242700 1.491100
17.270000 1.545400
17.297400 1.591700
17.324700 1.627300
17.352000 1.697300
17.379400 1.779300
17.406700 1.850800
17.434100 1.920600
17.461400 1.909500
17.488700 1.929500
17.516100 1.914500
17.543400 1.906600
17.570700 1.926500
17.598100 1.984500
17.625400 2.086800
17.652800 2.290700
17.680100 2.469000
17.707400 2.686200
17.734800 2.956300
17.762100 3.268400
17.789400 3.882500
17.816800 6.483900
17.844100 61.933500
17.871500 5.997700
17.898800 4.526600
17.926100 3.917800
17.953500 3.465300
17.980800 3.180200
18.008100 3.017300
18.035500 2.848200
18.062800 2.634300
18.090200 2.439100
18.117500 2.265700
18.144800 2.104700
18.172200 1.976200
18.199500 1.887100
18.226800 1.826400
18.254200 1.778900
18.281500 1.727200
18.308900 1.700800
18.336200 1.649600
18.363500 1.565200
18.390900 1.445200
18.418200 1.350300
18.445500 1.286300
18.472900 1.235800
18.500200 1.190500
18.527600 1.148300
18.554900 1.113500
18.582200 1.086600
18.609600 1.084500
18.636900 1.117500
18.664200 1.150200
18.691600 1.176300
18.718900 1.214100
18.746300 1.282700
18.773600 1.458000
18.800900 1.672800
18.828300 1.767500
18.855600 1.998400
18.882900 2.084200
18.910300 2.187000
18.937600 2.338100
18.965000 2.399300
18.992300 2.436600
19.019600 2.416600
19.047000 2.266500
19.074300 2.049800
19.101600 1.882600
19.129000 1.757400
19.156300 1.656700
19.183700 1.610300
19.211000 1.613900
19.238300 1.672300
19.265700 1.849200
19.293000 1.800000
19.320300 1.687500
19.347700 1.673900
19.375000 1.745300
19.402400 1.541200
19.429700 1.281700
19.457000 1.173500
19.484400 1.102000
19.511700 1.020600
19.539000 0.938600
19.566400 0.879300
19.593700 0.846100
19.621100 0.825300
19.648400 0.792500
19.675700 0.810600
19.703100 0.736200
19.730400 0.691300
19.757700 0.612800
19.785100 0.574000
19.812400 0.553300
19.839800 0.523300
19.867100 0.521900
19.894400 0.529500
19.921800 0.550500
19.949100 0.651500
19.976400 0.704300
20.003800 0.690000
20.031100 0.588500
20.058500 0.519300
20.085800 0.434700
20.113100 0.336900
20.140500 0.289300
20.167800 0.249600
20.195100 0.215900
20.222500 0.186500
20.249800 0.139000
20.277200 0.109100
20.304500 0.089300
20.331800 0.070400
20.359200 0.055200
20.386500 0.042200
20.413800 0.021600
20.441200 0.005800
20.468500 0.001900
20.495900 0.000500
20.523200 0.000000
20.550500 0.000000
20.577900 0.000000
20.605200 0.000000
20.632500 0.000000
20.659900 0.000000
20.687200 0.000000
20.714600 0.000000
20.741900 0.000000
20.769200 0.000000
20.796600 0.000000
20.823900 0.000000
20.851200 0.000000
20.878600 0.000000
20.905900 0.000000
20.933300 0.000000
20.960600 0.000000
20.987900 0.000000
21.015300 0.000000
21.042600 0.000000
21.069900 0.000000
21.097300 0.000000
21.124600 0.000000
21.152000 0.000000
21.179300 0.000000
21.206600 0.000000
21.234000 0.000000
21.261300 0.000000
21.288600 0.000000
21.316000 0.000000
21.343300 0.000000
21.370700 0.000000
21.398000 0.000000
21.425300 0.000000
21.452700 0.000000
21.480000 0.000000
21.507300 0.000000
21.534700 0.000000
21.562000 0.000000
21.589400 0.000000
21.616700 0.000000
21.644000 0.000000
21.671400 0.000000
21.698700 0.000000
21.726000 0.000000
21.753400 0.000000
21.780700 0.000000
21.808100 0.000000
21.835400 0.000000
21.862700 0.000000
21.890100 0.000000
21.917400 0.000000
21.944700 0.000000
21.972100 0.000000
21.999400 0.000000
22.026800 0.000000
22.054100 0.000000
22.081400 0.000000
22.108800 0.000000
22.136100 0.000000
22.163400 0.000000
22.190800 0.000000
22.218100 0.000000
22.245500 0.000000
22.272800 0.000000
22.300100 0.000000
22.327500 0.000000
22.354800 0.000000
22.382100 0.000000
22.409500 0.000000
22.436800 0.000000
22.464200 0.000000
22.491500 0.000000
22.518800 0.000000
22.546200 0.000000
22.573500 0.000000
22.600800 0.000000
22.628200 0.000000
22.655500 0.000000
22.682900 0.000000
22.710200 0.000000
22.737500 0.000000
22.764900 0.000000
22.792200 0.000000
22.819500 0.000000
22.846900 0.000000
22.874200 0.000000
22.901600 0.000000
22.928900 0.000000
22.956200 0.000000
22.983600 0.000000
23.010900 0.000000
e
