set title 'mp-706 - Density of States'
set xlabel 'Energy (eV)'
set ylabel 'DOS (states/eV)'
set grid
set xrange [-10:10]
set yrange [0:27.557]
set xzeroaxis lt -1
set terminal png size 800,600
set output 'mp-706_dos_gnuplot.png'
plot '-' using 1:2 with lines title 'DOS'
-24.347300 0.000000
-24.324400 0.000000
-24.301500 0.000000
-24.278600 0.000000
-24.255700 0.000000
-24.232800 0.000000
-24.209900 0.000000
-24.187000 0.000000
-24.164100 0.000000
-24.141200 0.000000
-24.118300 0.000000
-24.095400 0.000000
-24.072500 0.000000
-24.049600 0.000000
-24.026700 0.000000
-24.003800 0.000000
-23.980900 0.000000
-23.958000 0.000000
-23.935100 0.000000
-23.912200 0.000000
-23.889300 0.000000
-23.866400 0.000000
-23.843500 0.000000
-23.820600 0.000000
-23.797700 0.000000
-23.774800 0.000000
-23.751900 0.000000
-23.729100 0.000000
-23.706200 0.000000
-23.683300 0.000000
-23.660400 0.000000
-23.637500 0.000000
-23.614600 0.000000
-23.591700 0.000000
-23.568800 0.000000
-23.545900 0.000000
-23.523000 0.000000
-23.500100 0.000000
-23.477200 0.000000
-23.454300 0.000000
-23.431400 0.000000
-23.408500 0.000000
-23.385600 0.000000
-23.362700 0.000000
-23.339800 0.000000
-23.316900 0.000000
-23.294000 0.000000
-23.271100 0.000000
-23.248200 0.000000
-23.225300 0.000000
-23.202400 0.000000
-23.179500 0.000000
-23.156600 0.000000
-23.133700 0.000000
-23.110900 0.000000
-23.088000 0.000000
-23.065100 0.000000
-23.042200 0.000000
-23.019300 0.000000
-22.996400 0.000000
-22.973500 0.000000
-22.950600 0.000000
-22.927700 0.000000
-22.904800 0.000000
-22.881900 0.000000
-22.859000 0.000000
-22.836100 0.000000
-22.813200 0.000000
-22.790300 0.000000
-22.767400 0.000000
-22.744500 0.000000
-22.721600 0.000000
-22.698700 0.000000
-22.675800 0.000000
-22.652900 0.000000
-22.630000 0.000000
-22.607100 0.000000
-22.584200 0.000000
-22.561300 0.000000
-22.538400 0.000000
-22.515600 0.000000
-22.492700 0.000000
-22.469800 0.000000
-22.446900 0.000000
-22.424000 0.000000
-22.401100 0.000000
-22.378200 0.000000
-22.355300 0.000000
-22.332400 0.000000
-22.309500 0.000000
-22.286600 0.000000
-22.263700 2.481400
-22.240800 7.969500
-22.217900 8.618600
-22.195000 9.645200
-22.172100 11.147500
-22.149200 13.072000
-22.126300 16.261900
-22.103400 15.847200
-22.080500 22.801800
-22.057600 17.525100
-22.034700 15.144200
-22.011800 14.102300
-21.988900 9.151800
-21.966000 0.000000
-21.943100 0.000000
-21.920200 0.000000
-21.897400 0.000000
-21.874500 0.000000
-21.851600 0.000000
-21.828700 0.000000
-21.805800 0.000000
-21.782900 0.000000
-21.760000 0.000000
-21.737100 0.000000
-21.714200 0.000000
-21.691300 0.000000
-21.668400 0.000000
-21.645500 0.000000
-21.622600 0.000000
-21.599700 0.000000
-21.576800 0.000000
-21.553900 0.000000
-21.531000 0.000000
-21.508100 0.000000
-21.485200 0.000000
-21.462300 0.000000
-21.439400 0.000000
-21.416500 0.000000
-21.393600 0.000000
-21.370700 0.000000
-21.347800 0.000000
-21.324900 0.000000
-21.302000 0.000000
-21.279200 0.000000
-21.256300 0.000000
-21.233400 0.000000
-21.210500 0.000000
-21.187600 0.000000
-21.164700 0.000000
-21.141800 0.000000
-21.118900 0.000000
-21.096000 0.000000
-21.073100 0.000000
-21.050200 0.000000
-21.027300 0.000000
-21.004400 0.000000
-20.981500 0.000000
-20.958600 0.000000
-20.935700 0.000000
-20.912800 0.000000
-20.889900 0.000000
-20.867000 0.000000
-20.844100 0.000000
-20.821200 0.000000
-20.798300 0.000000
-20.775400 0.000000
-20.752500 0.000000
-20.729600 0.000000
-20.706700 0.000000
-20.683800 0.000000
-20.661000 0.000000
-20.638100 0.000000
-20.615200 0.000000
-20.592300 0.000000
-20.569400 0.000000
-20.546500 0.000000
-20.523600 0.000000
-20.500700 0.000000
-20.477800 0.000000
-20.454900 0.000000
-20.432000 0.000000
-20.409100 0.000000
-20.386200 0.000000
-20.363300 0.000000
-20.340400 0.000000
-20.317500 0.000000
-20.294600 0.000000
-20.271700 0.000000
-20.248800 0.000000
-20.225900 0.000000
-20.203000 0.000000
-20.180100 0.000000
-20.157200 0.000000
-20.134300 0.000000
-20.111400 0.000000
-20.088500 0.000000
-20.065600 0.000000
-20.042800 0.000000
-20.019900 0.000000
-19.997000 0.000000
-19.974100 0.000000
-19.951200 0.000000
-19.928300 0.000000
-19.905400 0.000000
-19.882500 0.000000
-19.859600 0.000000
-19.836700 0.000000
-19.813800 0.000000
-19.790900 0.000000
-19.768000 0.000000
-19.745100 0.000000
-19.722200 0.000000
-19.699300 0.000000
-19.676400 0.000000
-19.653500 0.000000
-19.630600 0.000000
-19.607700 0.000000
-19.584800 0.000000
-19.561900 0.000000
-19.539000 0.000000
-19.516100 0.000000
-19.493200 0.000000
-19.470300 0.000000
-19.447400 0.000000
-19.424600 0.000000
-19.401700 0.000000
-19.378800 0.000000
-19.355900 0.000000
-19.333000 0.000000
-19.310100 0.000000
-19.287200 0.000000
-19.264300 0.000000
-19.241400 0.000000
-19.218500 0.000000
-19.195600 0.000000
-19.172700 0.000000
-19.149800 0.000000
-19.126900 0.000000
-19.104000 0.000000
-19.081100 0.000000
-19.058200 0.000000
-19.035300 0.000000
-19.012400 0.000000
-18.989500 0.000000
-18.966600 0.000000
-18.943700 0.000000
-18.920800 0.000000
-18.897900 0.000000
-18.875000 0.000000
-18.852100 0.000000
-18.829300 0.000000
-18.806400 0.000000
-18.783500 0.000000
-18.760600 0.000000
-18.737700 0.000000
-18.714800 0.000000
-18.691900 0.000000
-18.669000 0.000000
-18.646100 0.000000
-18.623200 0.000000
-18.600300 0.000000
-18.577400 0.000000
-18.554500 0.000000
-18.531600 0.000000
-18.508700 0.000000
-18.485800 0.000000
-18.462900 0.000000
-18.440000 0.000000
-18.417100 0.000000
-18.394200 0.000000
-18.371300 0.000000
-18.348400 0.000000
-18.325500 0.000000
-18.302600 0.000000
-18.279700 0.000000
-18.256800 0.000000
-18.233900 0.000000
-18.211100 0.000000
-18.188200 0.000000
-18.165300 0.000000
-18.142400 0.000000
-18.119500 0.000000
-18.096600 0.000000
-18.073700 0.000000
-18.050800 0.000000
-18.027900 0.000000
-18.005000 0.000000
-17.982100 0.000000
-17.959200 0.000000
-17.936300 0.000000
-17.913400 0.000000
-17.890500 0.000000
-17.867600 0.000000
-17.844700 0.000000
-17.821800 0.000000
-17.798900 0.000000
-17.776000 0.000000
-17.753100 0.000000
-17.730200 0.000000
-17.707300 0.000000
-17.684400 0.000000
-17.661500 0.000000
-17.638600 0.000000
-17.615700 0.000000
-17.592900 0.000000
-17.570000 0.000000
-17.547100 0.000000
-17.524200 0.000000
-17.501300 0.000000
-17.478400 0.000000
-17.455500 0.000000
-17.432600 0.000000
-17.409700 0.000000
-17.386800 0.000000
-17.363900 0.000000
-17.341000 0.000000
-17.318100 0.000000
-17.295200 0.000000
-17.272300 0.000000
-17.249400 0.000000
-17.226500 0.000000
-17.203600 0.000000
-17.180700 0.000000
-17.157800 0.000000
-17.134900 0.000000
-17.112000 0.000000
-17.089100 0.000000
-17.066200 0.000000
-17.043300 0.000000
-17.020400 0.000000
-16.997500 0.000000
-16.974700 0.000000
-16.951800 0.000000
-16.928900 0.000000
-16.906000 0.000000
-16.883100 0.000000
-16.860200 0.000000
-16.837300 0.000000
-16.814400 0.000000
-16.791500 0.000000
-16.768600 0.000000
-16.745700 0.000000
-16.722800 0.000000
-16.699900 0.000000
-16.677000 0.000000
-16.654100 0.000000
-16.631200 0.000000
-16.608300 0.000000
-16.585400 0.000000
-16.562500 0.000000
-16.539600 0.000000
-16.516700 0.000000
-16.493800 0.000000
-16.470900 0.000000
-16.448000 0.000000
-16.425100 0.000000
-16.402200 0.000000
-16.379300 0.000000
-16.356500 0.000000
-16.333600 0.000000
-16.310700 0.000000
-16.287800 0.000000
-16.264900 0.000000
-16.242000 0.000000
-16.219100 0.000000
-16.196200 0.000000
-16.173300 0.000000
-16.150400 0.000000
-16.127500 0.000000
-16.104600 0.000000
-16.081700 0.000000
-16.058800 0.000000
-16.035900 0.000000
-16.013000 0.000000
-15.990100 0.000000
-15.967200 0.000000
-15.944300 0.000000
-15.921400 0.000000
-15.898500 0.000000
-15.875600 0.000000
-15.852700 0.000000
-15.829800 0.000000
-15.806900 0.000000
-15.784000 0.000000
-15.761200 0.000000
-15.738300 0.000000
-15.715400 0.000000
-15.692500 0.000000
-15.669600 0.000000
-15.646700 0.000000
-15.623800 0.000000
-15.600900 0.000000
-15.578000 0.000000
-15.555100 0.000000
-15.532200 0.000000
-15.509300 0.000000
-15.486400 0.000000
-15.463500 0.000000
-15.440600 0.000000
-15.417700 0.000000
-15.394800 0.000000
-15.371900 0.000000
-15.349000 0.000000
-15.326100 0.000000
-15.303200 0.000000
-15.280300 0.000000
-15.257400 0.000000
-15.234500 0.000000
-15.211600 0.000000
-15.188700 0.000000
-15.165800 0.000000
-15.143000 0.000000
-15.120100 0.000000
-15.097200 0.000000
-15.074300 0.000000
-15.051400 0.000000
-15.028500 0.000000
-15.005600 0.000000
-14.982700 0.000000
-14.959800 0.000000
-14.936900 0.000000
-14.914000 0.000000
-14.891100 0.000000
-14.868200 0.000000
-14.845300 0.000000
-14.822400 0.000000
-14.799500 0.000000
-14.776600 0.000000
-14.753700 0.000000
-14.730800 0.000000
-14.707900 0.000000
-14.685000 0.000000
-14.662100 0.000000
-14.639200 0.000000
-14.616300 0.000000
-14.593400 0.000000
-14.570500 0.000000
-14.547600 0.000000
-14.524800 0.000000
-14.501900 0.000000
-14.479000 0.000000
-14.456100 0.000000
-14.433200 0.000000
-14.410300 0.000000
-14.387400 0.000000
-14.364500 0.000000
-14.341600 0.000000
-14.318700 0.000000
-14.295800 0.000000
-14.272900 0.000000
-14.250000 0.000000
-14.227100 0.000000
-14.204200 0.000000
-14.181300 0.000000
-14.158400 0.000000
-14.135500 0.000000
-14.112600 0.000000
-14.089700 0.000000
-14.066800 0.000000
-14.043900 0.000000
-14.021000 0.000000
-13.998100 0.000000
-13.975200 0.000000
-13.952300 0.000000
-13.929400 0.000000
-13.906600 0.000000
-13.883700 0.000000
-13.860800 0.000000
-13.837900 0.000000
-13.815000 0.000000
-13.792100 0.000000
-13.769200 0.000000
-13.746300 0.000000
-13.723400 0.000000
-13.700500 0.000000
-13.677600 0.000000
-13.654700 0.000000
-13.631800 0.000000
-13.608900 0.000000
-13.586000 0.000000
-13.563100 0.000000
-13.540200 0.000000
-13.517300 0.000000
-13.494400 0.000000
-13.471500 0.000000
-13.448600 0.000000
-13.425700 0.000000
-13.402800 0.000000
-13.379900 0.000000
-13.357000 0.000000
-13.334100 0.000000
-13.311200 0.000000
-13.288400 0.000000
-13.265500 0.000000
-13.242600 0.000000
-13.219700 0.000000
-13.196800 0.000000
-13.173900 0.000000
-13.151000 0.000000
-13.128100 0.000000
-13.105200 0.000000
-13.082300 0.000000
-13.059400 0.000000
-13.036500 0.000000
-13.013600 0.000000
-12.990700 0.000000
-12.967800 0.000000
-12.944900 0.000000
-12.922000 0.000000
-12.899100 0.000000
-12.876200 0.000000
-12.853300 0.000000
-12.830400 0.000000
-12.807500 0.000000
-12.784600 0.000000
-12.761700 0.000000
-12.738800 0.000000
-12.715900 0.000000
-12.693100 0.000000
-12.670200 0.000000
-12.647300 0.000000
-12.624400 0.000000
-12.601500 0.000000
-12.578600 0.000000
-12.555700 0.000000
-12.532800 0.000000
-12.509900 0.000000
-12.487000 0.000000
-12.464100 0.000000
-12.441200 0.000000
-12.418300 0.000000
-12.395400 0.000000
-12.372500 0.000000
-12.349600 0.000000
-12.326700 0.000000
-12.303800 0.000000
-12.280900 0.000000
-12.258000 0.000000
-12.235100 0.000000
-12.212200 0.000000
-12.189300 0.000000
-12.166400 0.000000
-12.143500 0.000000
-12.120600 0.000000
-12.097700 0.000000
-12.074900 0.000000
-12.052000 0.000000
-12.029100 0.000000
-12.006200 0.000000
-11.983300 0.000000
-11.960400 0.000000
-11.937500 0.000000
-11.914600 0.000000
-11.891700 0.000000
-11.868800 0.000000
-11.845900 0.000000
-11.823000 0.000000
-11.800100 0.000000
-11.777200 0.000000
-11.754300 0.000000
-11.731400 0.000000
-11.708500 0.000000
-11.685600 0.000000
-11.662700 0.000000
-11.639800 0.000000
-11.616900 0.000000
-11.594000 0.000000
-11.571100 0.000000
-11.548200 0.000000
-11.525300 0.000000
-11.502400 0.000000
-11.479500 0.000000
-11.456700 0.000000
-11.433800 0.000000
-11.410900 0.000000
-11.388000 0.000000
-11.365100 0.000000
-11.342200 0.000000
-11.319300 0.000000
-11.296400 0.000000
-11.273500 0.000000
-11.250600 0.000000
-11.227700 0.000000
-11.204800 0.000000
-11.181900 0.000000
-11.159000 0.000000
-11.136100 0.000000
-11.113200 0.000000
-11.090300 0.000000
-11.067400 0.000000
-11.044500 0.000000
-11.021600 0.000000
-10.998700 0.000000
-10.975800 0.000000
-10.952900 0.000000
-10.930000 0.000000
-10.907100 0.000000
-10.884200 0.000000
-10.861300 0.000000
-10.838500 0.000000
-10.815600 0.000000
-10.792700 0.000000
-10.769800 0.000000
-10.746900 0.000000
-10.724000 0.000000
-10.701100 0.000000
-10.678200 0.000000
-10.655300 0.000000
-10.632400 0.000000
-10.609500 0.000000
-10.586600 0.000000
-10.563700 0.000000
-10.540800 0.000000
-10.517900 0.000000
-10.495000 0.000000
-10.472100 0.000000
-10.449200 0.000000
-10.426300 0.000000
-10.403400 0.000000
-10.380500 0.000000
-10.357600 0.000000
-10.334700 0.000000
-10.311800 0.000000
-10.288900 0.000000
-10.266000 0.000000
-10.243100 0.000000
-10.220300 0.000000
-10.197400 0.000000
-10.174500 0.000000
-10.151600 0.000000
-10.128700 0.000000
-10.105800 0.000000
-10.082900 0.000000
-10.060000 0.000000
-10.037100 0.000000
-10.014200 0.000000
-9.991300 0.000000
-9.968400 0.000000
-9.945500 0.000000
-9.922600 0.000000
-9.899700 0.000000
-9.876800 0.000000
-9.853900 0.000000
-9.831000 0.000000
-9.808100 0.000000
-9.785200 0.000000
-9.762300 0.000000
-9.739400 0.000000
-9.716500 0.000000
-9.693600 0.000000
-9.670700 0.000000
-9.647800 0.000000
-9.624900 0.000000
-9.602100 0.000000
-9.579200 0.000000
-9.556300 0.000000
-9.533400 0.000000
-9.510500 0.000000
-9.487600 0.000000
-9.464700 0.000000
-9.441800 0.000000
-9.418900 0.000000
-9.396000 0.000000
-9.373100 0.000000
-9.350200 0.000000
-9.327300 0.000000
-9.304400 0.000000
-9.281500 0.000000
-9.258600 0.000000
-9.235700 0.000000
-9.212800 0.000000
-9.189900 0.000000
-9.167000 0.000000
-9.144100 0.000000
-9.121200 0.000000
-9.098300 0.000000
-9.075400 0.000000
-9.052500 0.000000
-9.029600 0.000000
-9.006800 0.000000
-8.983900 0.000000
-8.961000 0.000000
-8.938100 0.000000
-8.915200 0.000000
-8.892300 0.000000
-8.869400 0.000000
-8.846500 0.000000
-8.823600 0.000000
-8.800700 0.000000
-8.777800 0.000000
-8.754900 0.000000
-8.732000 0.000000
-8.709100 0.000000
-8.686200 0.000000
-8.663300 0.000000
-8.640400 0.000000
-8.617500 0.000000
-8.594600 0.000000
-8.571700 0.000000
-8.548800 0.000000
-8.525900 0.000000
-8.503000 0.000000
-8.480100 0.000000
-8.457200 0.000000
-8.434300 0.000000
-8.411400 0.000000
-8.388600 0.000000
-8.365700 0.000000
-8.342800 0.000000
-8.319900 0.000000
-8.297000 0.000000
-8.274100 0.000000
-8.251200 0.000000
-8.228300 0.000000
-8.205400 0.000000
-8.182500 0.000000
-8.159600 0.000000
-8.136700 0.000000
-8.113800 0.000000
-8.090900 0.000000
-8.068000 0.000000
-8.045100 0.000000
-8.022200 0.000000
-7.999300 0.000000
-7.976400 0.000000
-7.953500 0.000000
-7.930600 0.000000
-7.907700 0.000000
-7.884800 0.000000
-7.861900 0.000000
-7.839000 0.000000
-7.816100 0.000000
-7.793200 0.000000
-7.770400 0.000000
-7.747500 0.000000
-7.724600 0.000000
-7.701700 0.000000
-7.678800 0.000000
-7.655900 0.000000
-7.633000 0.000000
-7.610100 0.000000
-7.587200 1.051900
-7.564300 2.550800
-7.541400 4.127100
-7.518500 6.394400
-7.495600 10.668800
-7.472700 23.191600
-7.449800 25.052200
-7.426900 5.492900
-7.404000 0.000000
-7.381100 0.000000
-7.358200 0.000000
-7.335300 0.000000
-7.312400 0.000000
-7.289500 0.000000
-7.266600 0.000000
-7.243700 0.000000
-7.220800 0.000000
-7.197900 0.000000
-7.175000 0.000000
-7.152200 0.000000
-7.129300 0.000000
-7.106400 0.000000
-7.083500 0.000000
-7.060600 0.000000
-7.037700 0.000000
-7.014800 0.000000
-6.991900 0.000000
-6.969000 0.000000
-6.946100 0.000000
-6.923200 0.000000
-6.900300 0.000000
-6.877400 0.000000
-6.854500 0.000000
-6.831600 0.000000
-6.808700 0.000000
-6.785800 0.000000
-6.762900 0.000000
-6.740000 1.375500
-6.717100 2.275500
-6.694200 3.117400
-6.671300 4.027200
-6.648400 5.660300
-6.625500 7.878500
-6.602600 11.072400
-6.579700 10.026400
-6.556800 8.325900
-6.534000 7.038400
-6.511100 6.547600
-6.488200 6.267600
-6.465300 8.752000
-6.442400 9.911600
-6.419500 11.407500
-6.396600 11.464500
-6.373700 11.419400
-6.350800 10.989200
-6.327900 10.388000
-6.305000 7.924400
-6.282100 5.880100
-6.259200 4.514100
-6.236300 3.838300
-6.213400 2.974400
-6.190500 2.332400
-6.167600 1.207200
-6.144700 1.032300
-6.121800 1.192300
-6.098900 1.693700
-6.076000 4.333200
-6.053100 9.583300
-6.030200 11.492700
-6.007300 11.425000
-5.984400 14.064400
-5.961500 10.797000
-5.938700 14.111300
-5.915800 16.272500
-5.892900 18.791100
-5.870000 21.077800
-5.847100 15.017300
-5.824200 14.235400
-5.801300 12.534400
-5.778400 15.677300
-5.755500 15.888100
-5.732600 18.612500
-5.709700 14.507200
-5.686800 13.793600
-5.663900 14.685700
-5.641000 19.167000
-5.618100 18.251200
-5.595200 18.587800
-5.572300 16.233100
-5.549400 17.966200
-5.526500 14.651200
-5.503600 13.040700
-5.480700 11.636300
-5.457800 10.420700
-5.434900 9.876700
-5.412000 10.724800
-5.389100 14.415800
-5.366200 15.543700
-5.343300 15.472700
-5.320500 16.685400
-5.297600 13.932600
-5.274700 15.754100
-5.251800 14.608700
-5.228900 13.074700
-5.206000 13.097900
-5.183100 11.637800
-5.160200 9.745700
-5.137300 8.758300
-5.114400 8.199100
-5.091500 4.561100
-5.068600 0.000000
-5.045700 0.000000
-5.022800 0.000000
-4.999900 0.211400
-4.977000 0.277100
-4.954100 0.386100
-4.931200 0.464800
-4.908300 0.528100
-4.885400 0.618000
-4.862500 0.710200
-4.839600 0.794600
-4.816700 0.888500
-4.793800 0.986200
-4.770900 1.092800
-4.748000 1.215500
-4.725100 1.341600
-4.702300 1.467900
-4.679400 1.636300
-4.656500 1.831300
-4.633600 2.021100
-4.610700 2.314700
-4.587800 2.633700
-4.564900 3.186000
-4.542000 3.964200
-4.519100 4.418300
-4.496200 5.099700
-4.473300 6.273800
-4.450400 5.814600
-4.427500 4.726900
-4.404600 3.533500
-4.381700 4.433100
-4.358800 6.354200
-4.335900 6.508500
-4.313000 6.566600
-4.290100 6.289600
-4.267200 5.980900
-4.244300 5.524000
-4.221400 5.144700
-4.198500 4.866600
-4.175600 4.564700
-4.152700 4.334900
-4.129800 4.172700
-4.106900 4.010100
-4.084100 3.921700
-4.061200 3.854900
-4.038300 3.657300
-4.015400 3.452600
-3.992500 3.278800
-3.969600 3.126900
-3.946700 2.997500
-3.923800 2.898200
-3.900900 2.651800
-3.878000 2.560700
-3.855100 2.735700
-3.832200 2.006300
-3.809300 1.517000
-3.786400 1.254600
-3.763500 1.590100
-3.740600 1.875900
-3.717700 1.869200
-3.694800 1.942400
-3.671900 1.981400
-3.649000 2.083500
-3.626100 2.174900
-3.603200 2.390300
-3.580300 3.232800
-3.557400 3.656800
-3.534500 4.069200
-3.511600 4.585900
-3.488700 5.326600
-3.465900 4.813200
-3.443000 4.780700
-3.420100 5.905800
-3.397200 6.477000
-3.374300 7.646000
-3.351400 7.818000
-3.328500 7.203100
-3.305600 6.680600
-3.282700 6.368900
-3.259800 6.416200
-3.236900 7.279800
-3.214000 6.995700
-3.191100 6.949700
-3.168200 6.901200
-3.145300 6.474300
-3.122400 6.731300
-3.099500 6.178300
-3.076600 6.803600
-3.053700 8.333200
-3.030800 9.937500
-3.007900 14.434400
-2.985000 11.247800
-2.962100 10.648500
-2.939200 10.470200
-2.916300 10.844100
-2.893400 11.506400
-2.870500 12.559400
-2.847700 17.052400
-2.824800 7.364000
-2.801900 5.859400
-2.779000 4.656400
-2.756100 2.309700
-2.733200 2.488300
-2.710300 2.691300
-2.687400 2.897200
-2.664500 3.158500
-2.641600 3.502900
-2.618700 3.956800
-2.595800 4.634900
-2.572900 6.136100
-2.550000 6.853000
-2.527100 7.132100
-2.504200 7.764600
-2.481300 5.243100
-2.458400 3.608200
-2.435500 2.941100
-2.412600 2.598200
-2.389700 2.325600
-2.366800 1.801500
-2.343900 1.477300
-2.321000 1.202700
-2.298100 0.868700
-2.275200 0.595500
-2.252400 0.624300
-2.229500 0.664700
-2.206600 0.707600
-2.183700 0.751900
-2.160800 0.801600
-2.137900 0.865300
-2.115000 0.944800
-2.092100 1.064500
-2.069200 1.195300
-2.046300 1.198500
-2.023400 1.175000
-2.000500 1.242600
-1.977600 1.253700
-1.954700 1.278700
-1.931800 1.335200
-1.908900 1.386700
-1.886000 1.408600
-1.863100 1.445700
-1.840200 1.495500
-1.817300 1.545600
-1.794400 1.593100
-1.771500 1.668200
-1.748600 1.782800
-1.725700 1.885000
-1.702800 1.967000
-1.679900 2.068100
-1.657000 2.167100
-1.634200 2.268700
-1.611300 2.428000
-1.588400 2.756600
-1.565500 3.371300
-1.542600 3.770000
-1.519700 4.237000
-1.496800 6.134900
-1.473900 8.388300
-1.451000 6.272500
-1.428100 1.893800
-1.405200 0.000000
-1.382300 0.000000
-1.359400 0.000000
-1.336500 0.000000
-1.313600 0.000000
-1.290700 0.000000
-1.267800 0.000000
-1.244900 0.000000
-1.222000 0.000000
-1.199100 0.000000
-1.176200 0.000000
-1.153300 0.000000
-1.130400 0.000000
-1.107500 0.000000
-1.084600 0.000000
-1.061700 0.000000
-1.038800 0.000000
-1.016000 0.000000
-0.993100 0.000000
-0.970200 0.000000
-0.947300 0.000000
-0.924400 0.000000
-0.901500 0.000000
-0.878600 0.000000
-0.855700 0.000000
-0.832800 0.000000
-0.809900 0.000000
-0.787000 0.000000
-0.764100 0.000000
-0.741200 0.000000
-0.718300 0.000000
-0.695400 0.000000
-0.672500 0.000000
-0.649600 0.000000
-0.626700 0.000000
-0.603800 0.000000
-0.580900 0.000000
-0.558000 0.000000
-0.535100 0.000000
-0.512200 0.000000
-0.489300 0.000000
-0.466400 0.000000
-0.443500 0.000000
-0.420600 0.000000
-0.397800 0.000000
-0.374900 0.000000
-0.352000 0.000000
-0.329100 0.000000
-0.306200 0.000000
-0.283300 0.000000
-0.260400 0.000000
-0.237500 0.000000
-0.214600 0.000000
-0.191700 0.000000
-0.168800 0.000000
-0.145900 0.000000
-0.123000 0.000000
-0.100100 0.000000
-0.077200 0.000000
-0.054300 0.000000
-0.031400 0.000000
-0.008500 0.000000
0.014400 0.000000
0.037300 0.000000
0.060200 0.000000
0.083100 0.000000
0.106000 0.000000
0.128900 0.000000
0.151800 0.000000
0.174700 0.000000
0.197600 0.000000
0.220400 0.000000
0.243300 0.000000
0.266200 0.000000
0.289100 0.000000
0.312000 0.000000
0.334900 0.000000
0.357800 0.000000
0.380700 0.000000
0.403600 0.010900
0.426500 0.032600
0.449400 0.076600
0.472300 0.065800
0.495200 0.075800
0.518100 0.086100
0.541000 0.096900
0.563900 0.108200
0.586800 0.120300
0.609700 0.133500
0.632600 0.140100
0.655500 0.145300
0.678400 0.150200
0.701300 0.154900
0.724200 0.161000
0.747100 0.168000
0.770000 0.175200
0.792900 0.183200
0.815700 0.191400
0.838600 0.199800
0.861500 0.207400
0.884400 0.213900
0.907300 0.219100
0.930200 0.225500
0.953100 0.232100
0.976000 0.238900
0.998900 0.245800
1.021800 0.252600
1.044700 0.259500
1.067600 0.266500
1.090500 0.273600
1.113400 0.281000
1.136300 0.289100
1.159200 0.297400
1.182100 0.305600
1.205000 0.313500
1.227900 0.321100
1.250800 0.328600
1.273700 0.336000
1.296600 0.343600
1.319500 0.351300
1.342400 0.359100
1.365300 0.367400
1.388200 0.376500
1.411100 0.385600
1.433900 0.394700
1.456800 0.404000
1.479700 0.413800
1.502600 0.423700
1.525500 0.433800
1.548400 0.444500
1.571300 0.455800
1.594200 0.467000
1.617100 0.478600
1.640000 0.490800
1.662900 0.503500
1.685800 0.516400
1.708700 0.529800
1.731600 0.543500
1.754500 0.557500
1.777400 0.571700
1.800300 0.586300
1.823200 0.601400
1.846100 0.616900
1.869000 0.633100
1.891900 0.651300
1.914800 0.673600
1.937700 0.696600
1.960600 0.721200
1.983500 0.747200
2.006400 0.774500
2.029300 0.808900
2.052100 0.852500
2.075000 0.907200
2.097900 0.966800
2.120800 1.032700
2.143700 1.131300
2.166600 1.465000
2.189500 1.474400
2.212400 1.475600
2.235300 1.457100
2.258200 1.485400
2.281100 1.503900
2.304000 1.513200
2.326900 1.514300
2.349800 1.522200
2.372700 1.539800
2.395600 1.562300
2.418500 1.595200
2.441400 1.640500
2.464300 1.689900
2.487200 1.693600
2.510100 1.727800
2.533000 1.737100
2.555900 1.702200
2.578800 1.685800
2.601700 1.678700
2.624600 1.704200
2.647500 1.689400
2.670300 1.663900
2.693200 1.649300
2.716100 1.658700
2.739000 1.713000
2.761900 1.764700
2.784800 1.790500
2.807700 1.831200
2.830600 1.902400
2.853500 1.903000
2.876400 2.128000
2.899300 1.801000
2.922200 1.520600
2.945100 1.173500
2.968000 0.978700
2.990900 0.811300
3.013800 0.532000
3.036700 0.367700
3.059600 0.391300
3.082500 0.420300
3.105400 0.446700
3.128300 0.472000
3.151200 0.498300
3.174100 0.525700
3.197000 0.555700
3.219900 0.589500
3.242800 0.628100
3.265700 0.685200
3.288500 0.740300
3.311400 0.816300
3.334300 0.922600
3.357200 1.009300
3.380100 1.026700
3.403000 1.020700
3.425900 1.054900
3.448800 1.044100
3.471700 0.995300
3.494600 0.972200
3.517500 0.969500
3.540400 0.983100
3.563300 0.983600
3.586200 0.974500
3.609100 0.979500
3.632000 0.994600
3.654900 1.006900
3.677800 1.018000
3.700700 1.031900
3.723600 1.043700
3.746500 1.058400
3.769400 1.080300
3.792300 1.102300
3.815200 1.122400
3.838100 1.139100
3.861000 1.165600
3.883800 1.302800
3.906700 1.426200
3.929600 1.651900
3.952500 1.537300
3.975400 1.461100
3.998300 1.442700
4.021200 1.313100
4.044100 1.188800
4.067000 0.988700
4.089900 0.956500
4.112800 0.960200
4.135700 0.916400
4.158600 0.900300
4.181500 0.978600
4.204400 0.940300
4.227300 0.978800
4.250200 1.019100
4.273100 1.082100
4.296000 1.179600
4.318900 1.104700
4.341800 1.065100
4.364700 0.851900
4.387600 0.838800
4.410500 0.827200
4.433400 0.816000
4.456300 0.805800
4.479200 0.799900
4.502000 0.799700
4.524900 0.802400
4.547800 0.808700
4.570700 0.819800
4.593600 0.845200
4.616500 0.889000
4.639400 1.030800
4.662300 0.795200
4.685200 0.773600
4.708100 0.757500
4.731000 0.734800
4.753900 0.706600
4.776800 0.703400
4.799700 0.721600
4.822600 0.709000
4.845500 0.696000
4.868400 0.685500
4.891300 0.678000
4.914200 0.677500
4.937100 0.681700
4.960000 0.686100
4.982900 0.693000
5.005800 0.704600
5.028700 0.723000
5.051600 0.747200
5.074500 0.781200
5.097400 0.918300
5.120200 0.833900
5.143100 0.846800
5.166000 0.875900
5.188900 0.871400
5.211800 0.894700
5.234700 0.960900
5.257600 0.952900
5.280500 0.952000
5.303400 0.938000
5.326300 0.951000
5.349200 0.969000
5.372100 0.969000
5.395000 0.971400
5.417900 0.990200
5.440800 1.006300
5.463700 1.030900
5.486600 1.040800
5.509500 1.034000
5.532400 1.038200
5.555300 1.055100
5.578200 1.076700
5.601100 1.103900
5.624000 1.137700
5.646900 1.204600
5.669800 1.262100
5.692700 1.314800
5.715600 1.369300
5.738400 1.337200
5.761300 1.305000
5.784200 1.299000
5.807100 1.290600
5.830000 1.289100
5.852900 1.298800
5.875800 1.333100
5.898700 1.338300
5.921600 1.315600
5.944500 1.309300
5.967400 1.292100
5.990300 1.265800
6.013200 1.224800
6.036100 1.204500
6.059000 1.143100
6.081900 0.992800
6.104800 1.021700
6.127700 1.493100
6.150600 1.404200
6.173500 1.457500
6.196400 1.557600
6.219300 1.950900
6.242200 2.116700
6.265100 2.168400
6.288000 2.121100
6.310900 2.074200
6.333800 2.040100
6.356600 2.005400
6.379500 2.027500
6.402400 1.896000
6.425300 1.822500
6.448200 1.593800
6.471100 1.521100
6.494000 1.481600
6.516900 1.473300
6.539800 1.573800
6.562700 1.673600
6.585600 1.784600
6.608500 1.912800
6.631400 2.040700
6.654300 2.064300
6.677200 2.122200
6.700100 2.119400
6.723000 2.160500
6.745900 2.156400
6.768800 2.332500
6.791700 2.849600
6.814600 2.273800
6.837500 2.033600
6.860400 1.857000
6.883300 1.679700
6.906200 1.548100
6.929100 1.410200
6.952000 1.316900
6.974800 1.255300
6.997700 1.267300
7.020600 1.252500
7.043500 1.264000
7.066400 1.287800
7.089300 1.320600
7.112200 1.357100
7.135100 1.407500
7.158000 1.498400
7.180900 1.569800
7.203800 1.683600
7.226700 1.729000
7.249600 1.747600
7.272500 1.827100
7.295400 1.686800
7.318300 1.697300
7.341200 1.715100
7.364100 1.737600
7.387000 1.738600
7.409900 1.714400
7.432800 1.719500
7.455700 1.731100
7.478600 1.756700
7.501500 1.791600
7.524400 1.822200
7.547300 1.833400
7.570100 1.853500
7.593000 1.861700
7.615900 1.865300
7.638800 1.881200
7.661700 1.865300
7.684600 1.896200
7.707500 1.864000
7.730400 1.850800
7.753300 1.846900
7.776200 1.821400
7.799100 1.810200
7.822000 1.818100
7.844900 2.255000
7.867800 2.244600
7.890700 2.256600
7.913600 2.263200
7.936500 2.271400
7.959400 2.293100
7.982300 2.198000
8.005200 2.254200
8.028100 2.318100
8.051000 2.444100
8.073900 2.621000
8.096800 2.711300
8.119700 2.687400
8.142600 2.580400
8.165500 2.520600
8.188300 2.493700
8.211200 2.359000
8.234100 2.287400
8.257000 2.258500
8.279900 2.107800
8.302800 2.132300
8.325700 2.095500
8.348600 2.074900
8.371500 2.112600
8.394400 2.237500
8.417300 2.477300
8.440200 2.817100
8.463100 2.996400
8.486000 2.970300
8.508900 3.037200
8.531800 2.686500
8.554700 2.559600
8.577600 2.478400
8.600500 2.145300
8.623400 1.714800
8.646300 1.457400
8.669200 1.304700
8.692100 1.162600
8.715000 1.135800
8.737900 1.108400
8.760800 1.089200
8.783700 1.059600
8.806500 1.027200
8.829400 0.994300
8.852300 0.960500
8.875200 0.924600
8.898100 0.894400
8.921000 0.878400
8.943900 0.827000
8.966800 0.863900
8.989700 0.810500
9.012600 0.786700
9.035500 0.753100
9.058400 0.716700
9.081300 0.691900
9.104200 0.668300
9.127100 0.650600
9.150000 0.641500
9.172900 0.631600
9.195800 0.624300
9.218700 0.627300
9.241600 0.668100
9.264500 0.680800
9.287400 0.693800
9.310300 0.707700
9.333200 0.722600
9.356100 0.738200
9.379000 0.755500
9.401900 0.778100
9.424700 0.801000
9.447600 0.822500
9.470500 0.841100
9.493400 0.860400
9.516300 0.881300
9.539200 0.921900
9.562100 1.014500
9.585000 1.201900
9.607900 1.133300
9.630800 1.062100
9.653700 1.050900
9.676600 1.050500
9.699500 1.052100
9.722400 1.056600
9.745300 1.080200
9.768200 1.054400
9.791100 1.031100
9.814000 1.011600
9.836900 0.996800
9.859800 0.987500
9.882700 0.982200
9.905600 0.985400
9.928500 0.989200
9.951400 0.993300
9.974300 0.997400
9.997200 1.001700
10.020100 1.006100
10.042900 1.010500
10.065800 1.012800
10.088700 1.011200
10.111600 1.007300
10.134500 1.013800
10.157400 1.021800
10.180300 1.029600
10.203200 1.038000
10.226100 1.049200
10.249000 1.061600
10.271900 1.074600
10.294800 1.090000
10.317700 1.273200
10.340600 1.187400
10.363500 1.205200
10.386400 1.226100
10.409300 1.252800
10.432200 1.268100
10.455100 1.389700
10.478000 1.654200
10.500900 1.278800
10.523800 1.329200
10.546700 1.379000
10.569600 1.407300
10.592500 1.450300
10.615400 1.462900
10.638200 1.471700
10.661100 1.481500
10.684000 1.492800
10.706900 1.519600
10.729800 1.603400
10.752700 1.711300
10.775600 1.800600
10.798500 1.727000
10.821400 1.780300
10.844300 1.900800
10.867200 1.875500
10.890100 2.391500
10.913000 2.619600
10.935900 3.072000
10.958800 2.566700
10.981700 2.040900
11.004600 2.506700
11.027500 2.109300
11.050400 2.009700
11.073300 1.697600
11.096200 1.543700
11.119100 1.195900
11.142000 1.294500
11.164900 1.563300
11.187800 1.329800
11.210700 1.222700
11.233600 1.171200
11.256400 1.064700
11.279300 1.107600
11.302200 1.096200
11.325100 1.113900
11.348000 1.323100
11.370900 1.298100
11.393800 1.271300
11.416700 1.266100
11.439600 1.195200
11.462500 1.164600
11.485400 1.146600
11.508300 1.144500
11.531200 1.157400
11.554100 1.170300
11.577000 1.157200
11.599900 1.159700
11.622800 1.157500
11.645700 1.149300
11.668600 1.137900
11.691500 1.124700
11.714400 1.117100
11.737300 1.114400
11.760200 1.131600
11.783100 1.164000
11.806000 1.250400
11.828900 1.317700
11.851800 1.348900
11.874600 1.369300
11.897500 1.391700
11.920400 1.418200
11.943300 1.466200
11.966200 1.482300
11.989100 1.483100
12.012000 1.489400
12.034900 1.493000
12.057800 1.592200
12.080700 1.855500
12.103600 1.998600
12.126500 2.012200
12.149400 2.005300
12.172300 1.990200
12.195200 1.992500
12.218100 1.978200
12.241000 1.948500
12.263900 1.937900
12.286800 1.919700
12.309700 1.921600
12.332600 1.906000
12.355500 1.878600
12.378400 1.855000
12.401300 1.842500
12.424200 1.841700
12.447100 1.834000
12.470000 1.817800
12.492800 1.783500
12.515700 1.742000
12.538600 1.697500
12.561500 1.655400
12.584400 1.628100
12.607300 1.623600
12.630200 1.651500
12.653100 1.699000
12.676000 1.739700
12.698900 1.784000
12.721800 1.917300
12.744700 1.973600
12.767600 2.868400
12.790500 2.089100
12.813400 2.008200
12.836300 2.012200
12.859200 2.057700
12.882100 2.211300
12.905000 2.431600
12.927900 2.846900
12.950800 2.532100
12.973700 2.263000
12.996600 2.133800
13.019500 2.055700
13.042400 2.010900
13.065300 1.976100
13.088200 1.992600
13.111000 1.999900
13.133900 1.970500
13.156800 1.933900
13.179700 1.931600
13.202600 1.903800
13.225500 1.868600
13.248400 1.852100
13.271300 1.835100
13.294200 1.814100
13.317100 1.789900
13.340000 1.776400
13.362900 1.764500
13.385800 1.753700
13.408700 1.744000
13.431600 1.734900
13.454500 1.731100
13.477400 1.741400
13.500300 1.759900
13.523200 1.787500
13.546100 1.835900
13.569000 1.954700
13.591900 2.430900
13.614800 2.212700
13.637700 2.147800
13.660600 2.001800
13.683500 1.918700
13.706400 1.899500
13.729200 1.897600
13.752100 1.905300
13.775000 1.921600
13.797900 1.948500
13.820800 1.985200
13.843700 2.023800
13.866600 2.028000
13.889500 2.025500
13.912400 2.022200
13.935300 2.036800
13.958200 2.057200
13.981100 2.056100
14.004000 2.018000
14.026900 1.967000
14.049800 1.913900
14.072700 1.805800
14.095600 1.695300
14.118500 1.644700
14.141400 1.613600
14.164300 1.563200
14.187200 1.494600
14.210100 1.398000
14.233000 1.334800
14.255900 1.286000
14.278800 1.252300
14.301700 1.232600
14.324500 1.219700
14.347400 1.217400
14.370300 1.214600
14.393200 1.234000
14.416100 1.314500
14.439000 1.363600
14.461900 1.360000
14.484800 1.366900
14.507700 1.392500
14.530600 1.514700
14.553500 1.720600
14.576400 1.895000
14.599300 1.930300
14.622200 1.786700
14.645100 2.012400
14.668000 1.664500
14.690900 1.526900
14.713800 1.356800
14.736700 1.307800
14.759600 1.317500
14.782500 1.305400
14.805400 1.241300
14.828300 1.178300
14.851200 1.169900
14.874100 1.158300
14.897000 1.172800
14.919900 1.211300
14.942700 1.278300
14.965600 1.417300
14.988500 1.698400
15.011400 1.724200
15.034300 1.698700
15.057200 1.632600
15.080100 1.643200
15.103000 1.633500
15.125900 1.620200
15.148800 1.590200
15.171700 1.577900
15.194600 1.614500
15.217500 1.648300
15.240400 1.648500
15.263300 1.661000
15.286200 1.729600
15.309100 1.816100
15.332000 1.876200
15.354900 1.944000
15.377800 1.997400
15.400700 2.001100
15.423600 1.988600
15.446500 1.959800
15.469400 1.939400
15.492300 1.929200
15.515200 1.960800
15.538100 1.961300
15.560900 1.965000
15.583800 1.987000
15.606700 2.025700
15.629600 2.040300
15.652500 2.147300
15.675400 2.088100
15.698300 2.043300
15.721200 1.967300
15.744100 1.809200
15.767000 1.743000
15.789900 1.702700
15.812800 1.637000
15.835700 1.592800
15.858600 1.581600
15.881500 1.593300
15.904400 1.613500
15.927300 1.728000
15.950200 1.788800
15.973100 1.793400
15.996000 1.731200
16.018900 1.734600
16.041800 1.884800
16.064700 1.947700
16.087600 1.968600
16.110500 2.027500
16.133400 2.074200
16.156300 2.076800
16.179100 2.142200
16.202000 2.237700
16.224900 2.266800
16.247800 2.319400
16.270700 2.574800
16.293600 2.441100
16.316500 2.373300
16.339400 2.307100
16.362300 2.219500
16.385200 2.080800
16.408100 2.018700
16.431000 1.977500
16.453900 1.929400
16.476800 1.877600
16.499700 1.874200
16.522600 1.866000
16.545500 1.834300
16.568400 1.827700
16.591300 1.871200
16.614200 1.873600
16.637100 1.882200
16.660000 1.885300
16.682900 1.878200
16.705800 1.870900
16.728700 1.866000
16.751600 1.891100
16.774500 1.914200
16.797300 1.918300
16.820200 1.920800
16.843100 1.988200
16.866000 2.017800
16.888900 2.013600
16.911800 1.993200
16.934700 2.018700
16.957600 2.015600
16.980500 1.969700
17.003400 1.999900
17.026300 2.075000
17.049200 2.155200
17.072100 2.183800
17.095000 2.194900
17.117900 2.211700
17.140800 2.222100
17.163700 2.244100
17.186600 2.272700
17.209500 2.314700
17.232400 2.368000
17.255300 2.428800
17.278200 2.494000
17.301100 2.558600
17.324000 2.637100
17.346900 2.745200
17.369800 2.841200
17.392600 2.908800
17.415500 2.941400
17.438400 2.817600
17.461300 2.638200
17.484200 2.449800
17.507100 2.280800
17.530000 2.108600
17.552900 1.919800
17.575800 1.819200
17.598700 1.794800
17.621600 1.802700
17.644500 1.836100
17.667400 1.846600
17.690300 1.818800
17.713200 1.802000
17.736100 1.810300
17.759000 1.800100
17.781900 1.801800
17.804800 1.808800
17.827700 1.806800
17.850600 1.769900
17.873500 1.730600
17.896400 1.687100
17.919300 1.559100
17.942200 1.501700
17.965100 1.435200
17.988000 1.323700
18.010800 1.227000
18.033700 1.146700
18.056600 1.068400
18.079500 0.996000
18.102400 0.929500
18.125300 0.875300
18.148200 0.829700
18.171100 0.793500
18.194000 0.759700
18.216900 0.743200
18.239800 0.721500
18.262700 0.698700
18.285600 0.689300
18.308500 0.687200
18.331400 0.657900
18.354300 0.634100
18.377200 0.594300
18.400100 0.551000
18.423000 0.536600
18.445900 0.533600
18.468800 0.533500
18.491700 0.547800
18.514600 0.566800
18.537500 0.580400
18.560400 0.586100
18.583300 0.577000
18.606200 0.559400
18.629000 0.546200
18.651900 0.535900
18.674800 0.529100
18.697700 0.523000
18.720600 0.516900
18.743500 0.513300
18.766400 0.502900
18.789300 0.484000
18.812200 0.469100
18.835100 0.451200
18.858000 0.461100
18.880900 0.452400
18.903800 0.410900
18.926700 0.379400
18.949600 0.359500
18.972500 0.338500
18.995400 0.319800
19.018300 0.300800
19.041200 0.279200
19.064100 0.263700
19.087000 0.268300
19.109900 0.250600
19.132800 0.192200
19.155700 0.148900
19.178600 0.117200
19.201500 0.091500
19.224400 0.071100
19.247200 0.052800
19.270100 0.035600
19.293000 0.020100
19.315900 0.009600
19.338800 0.003400
19.361700 0.000000
19.384600 0.000000
19.407500 0.000000
19.430400 0.000000
19.453300 0.000000
19.476200 0.000000
19.499100 0.000000
19.522000 0.000000
19.544900 0.000000
19.567800 0.000000
19.590700 0.000000
19.613600 0.000000
19.636500 0.000000
19.659400 0.000000
19.682300 0.000000
19.705200 0.000000
19.728100 0.000000
19.751000 0.000000
19.773900 0.000000
19.796800 0.000000
19.819700 0.000000
19.842600 0.000000
19.865400 0.000000
19.888300 0.000000
19.911200 0.000000
19.934100 0.000000
19.957000 0.000000
19.979900 0.000000
20.002800 0.000000
20.025700 0.000000
20.048600 0.000000
20.071500 0.000000
20.094400 0.000000
20.117300 0.000000
20.140200 0.000000
20.163100 0.000000
20.186000 0.000000
20.208900 0.000000
20.231800 0.000000
20.254700 0.000000
20.277600 0.000000
20.300500 0.000000
20.323400 0.000000
20.346300 0.000000
20.369200 0.000000
20.392100 0.000000
20.415000 0.000000
20.437900 0.000000
20.460700 0.000000
20.483600 0.000000
20.506500 0.000000
20.529400 0.000000
20.552300 0.000000
20.575200 0.000000
20.598100 0.000000
20.621000 0.000000
20.643900 0.000000
20.666800 0.000000
20.689700 0.000000
20.712600 0.000000
20.735500 0.000000
20.758400 0.000000
20.781300 0.000000
20.804200 0.000000
20.827100 0.000000
20.850000 0.000000
20.872900 0.000000
20.895800 0.000000
20.918700 0.000000
20.941600 0.000000
20.964500 0.000000
20.987400 0.000000
21.010300 0.000000
21.033200 0.000000
21.056100 0.000000
21.078900 0.000000
21.101800 0.000000
21.124700 0.000000
21.147600 0.000000
21.170500 0.000000
21.193400 0.000000
21.216300 0.000000
21.239200 0.000000
21.262100 0.000000
21.285000 0.000000
21.307900 0.000000
21.330800 0.000000
21.353700 0.000000
21.376600 0.000000
21.399500 0.000000
21.422400 0.000000
21.445300 0.000000
e
