set title 'mp-32 - Density of States'
set xlabel 'Energy (eV)'
set ylabel 'DOS (states/eV)'
set grid
set xrange [-10:10]
set yrange [0:2.487]
set xzeroaxis lt -1
set terminal png size 800,600
set output 'mp-32_dos_gnuplot.png'
plot '-' using 1:2 with lines title 'DOS'
-24.383300 0.000000
-24.360200 0.000000
-24.337100 0.000000
-24.314000 0.000000
-24.290900 0.000000
-24.267800 0.000000
-24.244800 0.000000
-24.221700 0.000000
-24.198600 0.000000
-24.175500 0.000000
-24.152400 0.000000
-24.129300 0.000000
-24.106200 0.000000
-24.083100 0.000000
-24.060000 0.000000
-24.036900 0.000000
-24.013800 0.000000
-23.990700 0.000000
-23.967600 0.000000
-23.944500 0.000000
-23.921400 0.000000
-23.898300 0.000000
-23.875300 0.000000
-23.852200 0.000000
-23.829100 0.000000
-23.806000 0.000000
-23.782900 0.000000
-23.759800 0.000000
-23.736700 0.000000
-23.713600 0.000000
-23.690500 0.000000
-23.667400 0.000000
-23.644300 0.000000
-23.621200 0.000000
-23.598100 0.000000
-23.575000 0.000000
-23.551900 0.000000
-23.528800 0.000000
-23.505700 0.000000
-23.482700 0.000000
-23.459600 0.000000
-23.436500 0.000000
-23.413400 0.000000
-23.390300 0.000000
-23.367200 0.000000
-23.344100 0.000000
-23.321000 0.000000
-23.297900 0.000000
-23.274800 0.000000
-23.251700 0.000000
-23.228600 0.000000
-23.205500 0.000000
-23.182400 0.000000
-23.159300 0.000000
-23.136200 0.000000
-23.113100 0.000000
-23.090100 0.000000
-23.067000 0.000000
-23.043900 0.000000
-23.020800 0.000000
-22.997700 0.000000
-22.974600 0.000000
-22.951500 0.000000
-22.928400 0.000000
-22.905300 0.000000
-22.882200 0.000000
-22.859100 0.000000
-22.836000 0.000000
-22.812900 0.000000
-22.789800 0.000000
-22.766700 0.000000
-22.743600 0.000000
-22.720500 0.000000
-22.697500 0.000000
-22.674400 0.000000
-22.651300 0.000000
-22.628200 0.000000
-22.605100 0.000000
-22.582000 0.000000
-22.558900 0.000000
-22.535800 0.000000
-22.512700 0.000000
-22.489600 0.000000
-22.466500 0.000000
-22.443400 0.000000
-22.420300 0.000000
-22.397200 0.000000
-22.374100 0.000000
-22.351000 0.000000
-22.328000 0.000000
-22.304900 0.000000
-22.281800 134.679600
-22.258700 82.622900
-22.235600 24.047400
-22.212500 36.247000
-22.189400 51.326900
-22.166300 70.244400
-22.143200 61.773000
-22.120100 19.953900
-22.097000 56.834600
-22.073900 59.461600
-22.050800 91.358100
-22.027700 31.026100
-22.004600 20.363600
-21.981500 160.182700
-21.958400 0.000000
-21.935400 0.000000
-21.912300 0.000000
-21.889200 0.000000
-21.866100 0.000000
-21.843000 0.000000
-21.819900 0.000000
-21.796800 0.000000
-21.773700 0.000000
-21.750600 0.000000
-21.727500 0.000000
-21.704400 0.000000
-21.681300 0.000000
-21.658200 0.000000
-21.635100 0.000000
-21.612000 0.000000
-21.588900 0.000000
-21.565800 0.000000
-21.542800 0.000000
-21.519700 0.000000
-21.496600 0.000000
-21.473500 0.000000
-21.450400 0.000000
-21.427300 0.000000
-21.404200 0.000000
-21.381100 0.000000
-21.358000 0.000000
-21.334900 0.000000
-21.311800 0.000000
-21.288700 0.000000
-21.265600 0.000000
-21.242500 0.000000
-21.219400 0.000000
-21.196300 0.000000
-21.173200 0.000000
-21.150200 0.000000
-21.127100 0.000000
-21.104000 0.000000
-21.080900 0.000000
-21.057800 0.000000
-21.034700 0.000000
-21.011600 0.000000
-20.988500 0.000000
-20.965400 0.000000
-20.942300 0.000000
-20.919200 0.000000
-20.896100 0.000000
-20.873000 0.000000
-20.849900 0.000000
-20.826800 0.000000
-20.803700 0.000000
-20.780700 0.000000
-20.757600 0.000000
-20.734500 0.000000
-20.711400 0.000000
-20.688300 0.000000
-20.665200 0.000000
-20.642100 0.000000
-20.619000 0.000000
-20.595900 0.000000
-20.572800 0.000000
-20.549700 0.000000
-20.526600 0.000000
-20.503500 0.000000
-20.480400 0.000000
-20.457300 0.000000
-20.434200 0.000000
-20.411100 0.000000
-20.388100 0.000000
-20.365000 0.000000
-20.341900 0.000000
-20.318800 0.000000
-20.295700 0.000000
-20.272600 0.000000
-20.249500 0.000000
-20.226400 0.000000
-20.203300 0.000000
-20.180200 0.000000
-20.157100 0.000000
-20.134000 0.000000
-20.110900 0.000000
-20.087800 0.000000
-20.064700 0.000000
-20.041600 0.000000
-20.018500 0.000000
-19.995500 0.000000
-19.972400 0.000000
-19.949300 0.000000
-19.926200 0.000000
-19.903100 0.000000
-19.880000 0.000000
-19.856900 0.000000
-19.833800 0.000000
-19.810700 0.000000
-19.787600 0.000000
-19.764500 0.000000
-19.741400 0.000000
-19.718300 0.000000
-19.695200 0.000000
-19.672100 0.000000
-19.649000 0.000000
-19.625900 0.000000
-19.602900 0.000000
-19.579800 0.000000
-19.556700 0.000000
-19.533600 0.000000
-19.510500 0.000000
-19.487400 0.000000
-19.464300 0.000000
-19.441200 0.000000
-19.418100 0.000000
-19.395000 0.000000
-19.371900 0.000000
-19.348800 0.000000
-19.325700 0.000000
-19.302600 0.000000
-19.279500 0.000000
-19.256400 0.000000
-19.233400 0.000000
-19.210300 0.000000
-19.187200 0.000000
-19.164100 0.000000
-19.141000 0.000000
-19.117900 0.000000
-19.094800 0.000000
-19.071700 0.000000
-19.048600 0.000000
-19.025500 0.000000
-19.002400 0.000000
-18.979300 0.000000
-18.956200 0.000000
-18.933100 0.000000
-18.910000 0.000000
-18.886900 0.000000
-18.863800 0.000000
-18.840800 0.000000
-18.817700 0.000000
-18.794600 0.000000
-18.771500 0.000000
-18.748400 0.000000
-18.725300 0.000000
-18.702200 0.000000
-18.679100 0.000000
-18.656000 0.000000
-18.632900 0.000000
-18.609800 0.000000
-18.586700 0.000000
-18.563600 0.000000
-18.540500 0.000000
-18.517400 0.000000
-18.494300 0.000000
-18.471200 0.000000
-18.448200 0.000000
-18.425100 0.000000
-18.402000 0.000000
-18.378900 0.000000
-18.355800 0.000000
-18.332700 0.000000
-18.309600 0.000000
-18.286500 0.000000
-18.263400 0.000000
-18.240300 0.000000
-18.217200 0.000000
-18.194100 0.000000
-18.171000 0.000000
-18.147900 0.000000
-18.124800 0.000000
-18.101700 0.000000
-18.078700 0.000000
-18.055600 0.000000
-18.032500 0.000000
-18.009400 0.000000
-17.986300 0.000000
-17.963200 0.000000
-17.940100 0.000000
-17.917000 0.000000
-17.893900 0.000000
-17.870800 0.000000
-17.847700 0.000000
-17.824600 0.000000
-17.801500 0.000000
-17.778400 0.000000
-17.755300 0.000000
-17.732200 0.000000
-17.709100 0.000000
-17.686100 0.000000
-17.663000 0.000000
-17.639900 0.000000
-17.616800 0.000000
-17.593700 0.000000
-17.570600 0.000000
-17.547500 0.000000
-17.524400 0.000000
-17.501300 0.000000
-17.478200 0.000000
-17.455100 0.000000
-17.432000 0.000000
-17.408900 0.000000
-17.385800 0.000000
-17.362700 0.000000
-17.339600 0.000000
-17.316500 0.000000
-17.293500 0.000000
-17.270400 0.000000
-17.247300 0.000000
-17.224200 0.000000
-17.201100 0.000000
-17.178000 0.000000
-17.154900 0.000000
-17.131800 0.000000
-17.108700 0.000000
-17.085600 0.000000
-17.062500 0.000000
-17.039400 0.000000
-17.016300 0.000000
-16.993200 0.000000
-16.970100 0.000000
-16.947000 0.000000
-16.923900 0.000000
-16.900900 0.000000
-16.877800 0.000000
-16.854700 0.000000
-16.831600 0.000000
-16.808500 0.000000
-16.785400 0.000000
-16.762300 0.000000
-16.739200 0.000000
-16.716100 0.000000
-16.693000 0.000000
-16.669900 0.000000
-16.646800 0.000000
-16.623700 0.000000
-16.600600 0.000000
-16.577500 0.000000
-16.554400 0.000000
-16.531400 0.000000
-16.508300 0.000000
-16.485200 0.000000
-16.462100 0.000000
-16.439000 0.000000
-16.415900 0.000000
-16.392800 0.000000
-16.369700 0.000000
-16.346600 0.000000
-16.323500 0.000000
-16.300400 0.000000
-16.277300 0.000000
-16.254200 0.000000
-16.231100 0.000000
-16.208000 0.000000
-16.184900 0.000000
-16.161800 0.000000
-16.138800 0.000000
-16.115700 0.000000
-16.092600 0.000000
-16.069500 0.000000
-16.046400 0.000000
-16.023300 0.000000
-16.000200 0.000000
-15.977100 0.000000
-15.954000 0.000000
-15.930900 0.000000
-15.907800 0.000000
-15.884700 0.000000
-15.861600 0.000000
-15.838500 0.000000
-15.815400 0.000000
-15.792300 0.000000
-15.769200 0.000000
-15.746200 0.000000
-15.723100 0.000000
-15.700000 0.000000
-15.676900 0.000000
-15.653800 0.000000
-15.630700 0.000000
-15.607600 0.000000
-15.584500 0.000000
-15.561400 0.000000
-15.538300 0.000000
-15.515200 0.000000
-15.492100 0.000000
-15.469000 0.000000
-15.445900 0.000000
-15.422800 0.000000
-15.399700 0.000000
-15.376600 0.000000
-15.353600 0.000000
-15.330500 0.000000
-15.307400 0.000000
-15.284300 0.000000
-15.261200 0.000000
-15.238100 0.000000
-15.215000 0.000000
-15.191900 0.000000
-15.168800 0.000000
-15.145700 0.000000
-15.122600 0.000000
-15.099500 0.000000
-15.076400 0.000000
-15.053300 0.000000
-15.030200 0.000000
-15.007100 0.000000
-14.984100 0.000000
-14.961000 0.000000
-14.937900 0.000000
-14.914800 0.000000
-14.891700 0.000000
-14.868600 0.000000
-14.845500 0.000000
-14.822400 0.000000
-14.799300 0.000000
-14.776200 0.000000
-14.753100 0.000000
-14.730000 0.000000
-14.706900 0.000000
-14.683800 0.000000
-14.660700 0.000000
-14.637600 0.000000
-14.614500 0.000000
-14.591500 0.000000
-14.568400 0.000000
-14.545300 0.000000
-14.522200 0.000000
-14.499100 0.000000
-14.476000 0.000000
-14.452900 0.000000
-14.429800 0.000000
-14.406700 0.000000
-14.383600 0.000000
-14.360500 0.000000
-14.337400 0.000000
-14.314300 0.000000
-14.291200 0.000000
-14.268100 0.000000
-14.245000 0.000000
-14.221900 0.000000
-14.198900 0.000000
-14.175800 0.000000
-14.152700 0.000000
-14.129600 0.000000
-14.106500 0.000000
-14.083400 0.000000
-14.060300 0.000000
-14.037200 0.000000
-14.014100 0.000000
-13.991000 0.000000
-13.967900 0.000000
-13.944800 0.000000
-13.921700 0.000000
-13.898600 0.000000
-13.875500 0.000000
-13.852400 0.000000
-13.829300 0.000000
-13.806300 0.000000
-13.783200 0.000000
-13.760100 0.000000
-13.737000 0.000000
-13.713900 0.000000
-13.690800 0.000000
-13.667700 0.000000
-13.644600 0.000000
-13.621500 0.000000
-13.598400 0.000000
-13.575300 0.000000
-13.552200 0.000000
-13.529100 0.000000
-13.506000 0.000000
-13.482900 0.000000
-13.459800 0.000000
-13.436800 0.000000
-13.413700 0.000000
-13.390600 0.000000
-13.367500 0.000000
-13.344400 0.000000
-13.321300 0.000000
-13.298200 0.000000
-13.275100 0.000000
-13.252000 0.000000
-13.228900 0.000000
-13.205800 0.000000
-13.182700 0.000000
-13.159600 0.000000
-13.136500 0.000000
-13.113400 0.000000
-13.090300 0.000000
-13.067200 0.000000
-13.044200 0.000000
-13.021100 0.000000
-12.998000 0.000000
-12.974900 0.000000
-12.951800 0.000000
-12.928700 0.000000
-12.905600 0.000000
-12.882500 0.000000
-12.859400 0.000000
-12.836300 0.000000
-12.813200 0.000000
-12.790100 0.000000
-12.767000 0.000000
-12.743900 0.000000
-12.720800 0.000000
-12.697700 0.000000
-12.674600 0.000000
-12.651600 0.000000
-12.628500 0.000000
-12.605400 0.000000
-12.582300 0.000000
-12.559200 0.000000
-12.536100 0.000000
-12.513000 0.000000
-12.489900 0.000000
-12.466800 0.000000
-12.443700 0.000000
-12.420600 0.000000
-12.397500 0.000000
-12.374400 0.000000
-12.351300 0.000000
-12.328200 0.000000
-12.305100 0.000000
-12.282100 0.000000
-12.259000 0.000000
-12.235900 0.000000
-12.212800 0.000000
-12.189700 0.000000
-12.166600 0.000000
-12.143500 0.000000
-12.120400 0.000000
-12.097300 0.000000
-12.074200 0.000000
-12.051100 0.000000
-12.028000 0.000000
-12.004900 0.000000
-11.981800 0.000000
-11.958700 0.000000
-11.935600 0.000000
-11.912500 0.000000
-11.889500 0.000000
-11.866400 0.000000
-11.843300 0.000000
-11.820200 0.000000
-11.797100 0.000000
-11.774000 0.000000
-11.750900 0.000000
-11.727800 0.000000
-11.704700 0.000000
-11.681600 0.000000
-11.658500 0.000000
-11.635400 0.000000
-11.612300 0.000000
-11.589200 0.000000
-11.566100 0.000000
-11.543000 0.000000
-11.519900 0.000000
-11.496900 0.000000
-11.473800 0.000000
-11.450700 0.000000
-11.427600 0.000000
-11.404500 0.000000
-11.381400 0.000000
-11.358300 0.000000
-11.335200 0.000000
-11.312100 0.000000
-11.289000 0.000000
-11.265900 0.000000
-11.242800 0.000000
-11.219700 0.000000
-11.196600 0.000000
-11.173500 0.000000
-11.150400 0.000000
-11.127300 0.000000
-11.104300 0.000000
-11.081200 0.000000
-11.058100 0.000000
-11.035000 0.000000
-11.011900 0.000000
-10.988800 0.000000
-10.965700 0.000000
-10.942600 0.000000
-10.919500 0.000000
-10.896400 0.000000
-10.873300 0.000000
-10.850200 0.000000
-10.827100 0.000000
-10.804000 0.000000
-10.780900 0.000000
-10.757800 0.000000
-10.734800 0.000000
-10.711700 0.000000
-10.688600 0.000000
-10.665500 0.000000
-10.642400 0.000000
-10.619300 0.000000
-10.596200 0.000000
-10.573100 0.000000
-10.550000 0.000000
-10.526900 0.000000
-10.503800 0.000000
-10.480700 0.000000
-10.457600 0.000000
-10.434500 0.000000
-10.411400 0.000000
-10.388300 0.000000
-10.365200 0.000000
-10.342200 0.000000
-10.319100 0.000000
-10.296000 0.000000
-10.272900 0.000000
-10.249800 0.000000
-10.226700 0.000000
-10.203600 0.000000
-10.180500 0.000000
-10.157400 0.000000
-10.134300 0.000000
-10.111200 0.000000
-10.088100 0.000000
-10.065000 0.000000
-10.041900 0.000000
-10.018800 0.000000
-9.995700 0.000000
-9.972600 0.000000
-9.949600 0.000000
-9.926500 0.000000
-9.903400 0.000000
-9.880300 0.000000
-9.857200 0.000000
-9.834100 0.000000
-9.811000 0.000000
-9.787900 0.008500
-9.764800 0.070600
-9.741700 0.083100
-9.718600 0.104300
-9.695500 0.127500
-9.672400 0.146200
-9.649300 0.151700
-9.626200 0.163600
-9.603100 0.176900
-9.580000 0.190600
-9.557000 0.204700
-9.533900 0.212700
-9.510800 0.221100
-9.487700 0.229200
-9.464600 0.237300
-9.441500 0.246400
-9.418400 0.256600
-9.395300 0.266900
-9.372200 0.277300
-9.349100 0.284900
-9.326000 0.290000
-9.302900 0.297200
-9.279800 0.304500
-9.256700 0.311800
-9.233600 0.319200
-9.210500 0.327200
-9.187500 0.335500
-9.164400 0.343900
-9.141300 0.352400
-9.118200 0.358800
-9.095100 0.365000
-9.072000 0.371000
-9.048900 0.377100
-9.025800 0.383800
-9.002700 0.390800
-8.979600 0.397900
-8.956500 0.405000
-8.933400 0.412100
-8.910300 0.419500
-8.887200 0.427100
-8.864100 0.434800
-8.841000 0.441600
-8.817900 0.447400
-8.794900 0.453900
-8.771800 0.460400
-8.748700 0.466900
-8.725600 0.473500
-8.702500 0.480500
-8.679400 0.487700
-8.656300 0.495100
-8.633200 0.502500
-8.610100 0.510000
-8.587000 0.517700
-8.563900 0.525500
-8.540800 0.533500
-8.517700 0.540500
-8.494600 0.547700
-8.471500 0.555000
-8.448400 0.562700
-8.425300 0.570600
-8.402300 0.578800
-8.379200 0.587100
-8.356100 0.595600
-8.333000 0.604600
-8.309900 0.613800
-8.286800 0.623300
-8.263700 0.633000
-8.240600 0.643000
-8.217500 0.653200
-8.194400 0.663700
-8.171300 0.674200
-8.148200 0.685500
-8.125100 0.697300
-8.102000 0.709800
-8.078900 0.723400
-8.055800 0.737900
-8.032700 0.753300
-8.009700 0.769400
-7.986600 0.788000
-7.963500 0.809700
-7.940400 0.834100
-7.917300 0.861300
-7.894200 0.891900
-7.871100 0.950600
-7.848000 1.017500
-7.824900 1.024700
-7.801800 1.009300
-7.778700 1.066200
-7.755600 1.037600
-7.732500 1.008400
-7.709400 0.994900
-7.686300 0.992900
-7.663200 0.982200
-7.640200 0.969900
-7.617100 0.956200
-7.594000 0.941200
-7.570900 0.931700
-7.547800 0.916800
-7.524700 0.913900
-7.501600 0.910000
-7.478500 0.905000
-7.455400 0.895900
-7.432300 0.879800
-7.409200 0.863100
-7.386100 0.851300
-7.363000 0.843200
-7.339900 0.833000
-7.316800 0.823100
-7.293700 0.813900
-7.270600 0.805600
-7.247600 0.796900
-7.224500 0.786900
-7.201400 0.775700
-7.178300 0.763200
-7.155200 0.750600
-7.132100 0.737100
-7.109000 0.728100
-7.085900 0.719100
-7.062800 0.709800
-7.039700 0.700300
-7.016600 0.690500
-6.993500 0.680500
-6.970400 0.670300
-6.947300 0.659700
-6.924200 0.647800
-6.901100 0.634400
-6.878000 0.622400
-6.855000 0.611800
-6.831900 0.600200
-6.808800 0.587700
-6.785700 0.575700
-6.762600 0.565600
-6.739500 0.555600
-6.716400 0.545400
-6.693300 0.535100
-6.670200 0.524700
-6.647100 0.514400
-6.624000 0.504100
-6.600900 0.489400
-6.577800 0.475300
-6.554700 0.463600
-6.531600 0.453100
-6.508500 0.431900
-6.485500 0.457700
-6.462400 0.433100
-6.439300 0.410800
-6.416200 0.390800
-6.393100 0.368800
-6.370000 0.352100
-6.346900 0.340100
-6.323800 0.319000
-6.300700 0.355900
-6.277600 0.257200
-6.254500 0.147000
-6.231400 0.080700
-6.208300 0.039800
-6.185200 0.017200
-6.162100 0.005200
-6.139000 0.000000
-6.115900 0.000000
-6.092900 0.000000
-6.069800 0.002900
-6.046700 0.008100
-6.023600 0.015000
-6.000500 0.026400
-5.977400 0.041500
-5.954300 0.058400
-5.931200 0.077100
-5.908100 0.105600
-5.885000 0.137200
-5.861900 0.170100
-5.838800 0.204200
-5.815700 0.288400
-5.792600 0.358900
-5.769500 0.414800
-5.746400 0.353900
-5.723300 0.347300
-5.700300 0.357400
-5.677200 0.381000
-5.654100 0.409000
-5.631000 0.384800
-5.607900 0.403200
-5.584800 0.426200
-5.561700 0.437500
-5.538600 0.449800
-5.515500 0.463200
-5.492400 0.474600
-5.469300 0.486400
-5.446200 0.497900
-5.423100 0.508900
-5.400000 0.519900
-5.376900 0.530600
-5.353800 0.541100
-5.330700 0.551500
-5.307700 0.562500
-5.284600 0.577700
-5.261500 0.591800
-5.238400 0.603600
-5.215300 0.617900
-5.192200 0.634800
-5.169100 0.654400
-5.146000 0.670500
-5.122900 0.686100
-5.099800 0.701400
-5.076700 0.716500
-5.053600 0.730400
-5.030500 0.742500
-5.007400 0.771000
-4.984300 0.811000
-4.961200 0.833000
-4.938200 0.850500
-4.915100 0.871100
-4.892000 0.907500
-4.868900 0.952700
-4.845800 1.025700
-4.822700 1.135000
-4.799600 1.239100
-4.776500 1.589600
-4.753400 1.615800
-4.730300 1.259200
-4.707200 1.139700
-4.684100 1.046100
-4.661000 0.978000
-4.637900 0.929000
-4.614800 0.888300
-4.591700 0.853300
-4.568600 0.823700
-4.545600 0.797000
-4.522500 0.773100
-4.499400 0.751400
-4.476300 0.731100
-4.453200 0.712100
-4.430100 0.694700
-4.407000 0.678200
-4.383900 0.662800
-4.360800 0.648100
-4.337700 0.633900
-4.314600 0.620300
-4.291500 0.607000
-4.268400 0.594200
-4.245300 0.581100
-4.222200 0.568500
-4.199100 0.556600
-4.176000 0.545400
-4.153000 0.534300
-4.129900 0.523800
-4.106800 0.515900
-4.083700 0.508300
-4.060600 0.500700
-4.037500 0.493300
-4.014400 0.486000
-3.991300 0.478800
-3.968200 0.471700
-3.945100 0.464700
-3.922000 0.457800
-3.898900 0.451000
-3.875800 0.444000
-3.852700 0.437000
-3.829600 0.430100
-3.806500 0.423300
-3.783400 0.416700
-3.760400 0.410200
-3.737300 0.403800
-3.714200 0.397300
-3.691100 0.390700
-3.668000 0.383300
-3.644900 0.376400
-3.621800 0.370600
-3.598700 0.365700
-3.575600 0.361400
-3.552500 0.357200
-3.529400 0.353000
-3.506300 0.348800
-3.483200 0.344600
-3.460100 0.340400
-3.437000 0.336100
-3.413900 0.331900
-3.390900 0.327700
-3.367800 0.323600
-3.344700 0.319400
-3.321600 0.315300
-3.298500 0.311200
-3.275400 0.307000
-3.252300 0.302900
-3.229200 0.298700
-3.206100 0.294300
-3.183000 0.289700
-3.159900 0.285000
-3.136800 0.280600
-3.113700 0.276300
-3.090600 0.272100
-3.067500 0.268100
-3.044400 0.262500
-3.021300 0.259400
-2.998300 0.256700
-2.975200 0.254000
-2.952100 0.251300
-2.929000 0.248600
-2.905900 0.245900
-2.882800 0.243200
-2.859700 0.240600
-2.836600 0.237900
-2.813500 0.235200
-2.790400 0.232500
-2.767300 0.229700
-2.744200 0.226900
-2.721100 0.224000
-2.698000 0.220900
-2.674900 0.217900
-2.651800 0.214900
-2.628700 0.212000
-2.605700 0.209100
-2.582600 0.206200
-2.559500 0.203300
-2.536400 0.200500
-2.513300 0.197600
-2.490200 0.194500
-2.467100 0.190700
-2.444000 0.187100
-2.420900 0.184100
-2.397800 0.181500
-2.374700 0.179300
-2.351600 0.177400
-2.328500 0.175600
-2.305400 0.173700
-2.282300 0.171900
-2.259200 0.170000
-2.236100 0.168000
-2.213100 0.166100
-2.190000 0.164200
-2.166900 0.162400
-2.143800 0.160500
-2.120700 0.158600
-2.097600 0.156700
-2.074500 0.154800
-2.051400 0.152900
-2.028300 0.151000
-2.005200 0.149000
-1.982100 0.147000
-1.959000 0.145000
-1.935900 0.142900
-1.912800 0.140600
-1.889700 0.138200
-1.866600 0.135800
-1.843600 0.133500
-1.820500 0.131300
-1.797400 0.129200
-1.774300 0.127100
-1.751200 0.125100
-1.728100 0.122300
-1.705000 0.119800
-1.681900 0.118500
-1.658800 0.117300
-1.635700 0.116100
-1.612600 0.114800
-1.589500 0.163800
-1.566400 0.449000
-1.543300 0.530600
-1.520200 0.633100
-1.497100 0.731900
-1.474000 0.856500
-1.451000 0.975100
-1.427900 1.081700
-1.404800 1.192000
-1.381700 1.567200
-1.358600 1.483600
-1.335500 1.489100
-1.312400 1.490400
-1.289300 1.488100
-1.266200 1.453800
-1.243100 1.893700
-1.220000 1.319900
-1.196900 1.270900
-1.173800 1.237600
-1.150700 1.216900
-1.127600 1.203800
-1.104500 1.196900
-1.081400 1.256300
-1.058400 1.160100
-1.035300 1.131100
-1.012200 1.118800
-0.989100 1.102800
-0.966000 1.082200
-0.942900 1.062700
-0.919800 1.047400
-0.896700 1.092500
-0.873600 1.094800
-0.850500 1.113200
-0.827400 1.177400
-0.804300 1.105900
-0.781200 1.153800
-0.758100 1.185700
-0.735000 1.135300
-0.711900 1.145700
-0.688800 1.157600
-0.665800 1.168700
-0.642700 1.216600
-0.619600 1.198300
-0.596500 1.197500
-0.573400 1.203200
-0.550300 1.213100
-0.527200 1.228600
-0.504100 1.245800
-0.481000 1.347700
-0.457900 1.334200
-0.434800 1.390300
-0.411700 1.449200
-0.388600 1.421600
-0.365500 1.482000
-0.342400 1.575800
-0.319300 1.776300
-0.296300 1.614400
-0.273200 1.610400
-0.250100 1.642100
-0.227000 1.574700
-0.203900 1.560600
-0.180800 1.560700
-0.157700 1.561400
-0.134600 1.559500
-0.111500 1.550200
-0.088400 1.546200
-0.065300 1.545100
-0.042200 1.540100
-0.019100 1.530700
0.004000 1.516900
0.027100 1.506800
0.050200 1.494600
0.073300 1.484500
0.096300 1.477200
0.119400 1.471600
0.142500 1.472700
0.165600 1.471500
0.188700 1.466400
0.211800 1.459000
0.234900 1.450200
0.258000 1.440100
0.281100 1.429900
0.304200 1.419100
0.327300 1.407600
0.350400 1.397300
0.373500 1.388700
0.396600 1.381200
0.419700 1.374500
0.442800 1.367500
0.465900 1.361600
0.488900 1.358700
0.512000 1.354300
0.535100 1.346500
0.558200 1.339100
0.581300 1.333000
0.604400 1.326400
0.627500 1.316100
0.650600 1.308300
0.673700 1.301700
0.696800 1.296200
0.719900 1.290500
0.743000 1.284700
0.766100 1.279400
0.789200 1.280300
0.812300 1.279800
0.835400 1.273200
0.858400 1.264400
0.881500 1.254300
0.904600 1.242800
0.927700 1.232600
0.950800 1.224200
0.973900 1.218900
0.997000 1.214700
1.020100 1.210900
1.043200 1.206700
1.066300 1.199200
1.089400 1.192000
1.112500 1.185400
1.135600 1.188200
1.158700 1.191700
1.181800 1.183100
1.204900 1.131500
1.228000 1.046000
1.251000 0.982900
1.274100 0.908600
1.297200 0.863100
1.320300 0.827500
1.343400 0.793300
1.366500 0.759600
1.389600 0.726200
1.412700 0.694500
1.435800 0.672400
1.458900 0.649900
1.482000 0.626500
1.505100 0.601700
1.528200 0.575800
1.551300 0.556600
1.574400 0.535100
1.597500 0.514700
1.620600 0.497700
1.643600 0.482300
1.666700 0.467900
1.689800 0.454200
1.712900 0.439200
1.736000 0.424200
1.759100 0.409000
1.782200 0.393900
1.805300 0.378900
1.828400 0.364500
1.851500 0.350700
1.874600 0.337400
1.897700 0.324400
1.920800 0.311900
1.943900 0.299700
1.967000 0.287800
1.990100 0.276300
2.013200 0.265200
2.036200 0.254200
2.059300 0.242900
2.082400 0.241500
2.105500 0.228900
2.128600 0.215800
2.151700 0.202900
2.174800 0.190700
2.197900 0.179000
2.221000 0.168000
2.244100 0.157300
2.267200 0.146200
2.290300 0.133500
2.313400 0.118200
2.336500 0.103000
2.359600 0.091500
2.382700 0.082700
2.405700 0.076600
2.428800 0.073300
2.451900 0.072600
2.475000 0.031100
2.498100 0.014000
2.521200 0.003600
2.544300 0.000000
2.567400 0.000000
2.590500 0.000000
2.613600 0.001300
2.636700 0.003700
2.659800 0.007100
2.682900 0.011100
2.706000 0.015600
2.729100 0.020500
2.752200 0.026000
2.775300 0.031900
2.798300 0.038200
2.821400 0.044800
2.844500 0.051700
2.867600 0.059000
2.890700 0.066600
2.913800 0.074600
2.936900 0.082800
2.960000 0.091400
2.983100 0.100200
3.006200 0.109300
3.029300 0.118700
3.052400 0.124800
3.075500 0.130300
3.098600 0.137300
3.121700 0.144700
3.144800 0.152300
3.167900 0.160500
3.190900 0.169200
3.214000 0.185800
3.237100 0.213000
3.260200 0.246200
3.283300 0.286700
3.306400 0.329400
3.329500 0.368600
3.352600 0.408000
3.375700 0.445900
3.398800 0.481800
3.421900 0.516700
3.445000 0.548900
3.468100 0.578000
3.491200 0.605500
3.514300 0.639100
3.537400 0.676500
3.560500 0.713900
3.583500 0.750800
3.606600 0.787600
3.629700 0.823900
3.652800 0.859000
3.675900 0.892200
3.699000 0.921500
3.722100 0.946700
3.745200 0.972900
3.768300 0.998800
3.791400 1.028100
3.814500 1.059500
3.837600 1.093200
3.860700 1.126700
3.883800 1.161100
3.906900 1.197200
3.930000 1.235000
3.953000 1.274300
3.976100 1.315100
3.999200 1.358300
4.022300 1.409800
4.045400 1.476500
4.068500 1.562400
4.091600 1.662100
4.114700 1.790600
4.137800 1.877600
4.160900 1.941800
4.184000 1.982700
4.207100 2.018600
4.230200 2.061700
4.253300 2.050900
4.276400 2.014900
4.299500 1.961300
4.322600 1.893000
4.345600 1.819500
4.368700 1.792000
4.391800 1.736400
4.414900 1.623400
4.438000 1.495900
4.461100 1.422300
4.484200 1.345500
4.507300 1.270400
4.530400 1.210900
4.553500 1.165600
4.576600 1.124100
4.599700 1.086400
4.622800 1.047500
4.645900 1.006000
4.669000 0.990400
4.692100 0.979400
4.715200 0.974200
4.738200 0.970500
4.761300 0.966900
4.784400 0.965900
4.807500 0.974500
4.830600 0.978900
4.853700 0.976900
4.876800 0.942700
4.899900 0.937300
4.923000 0.928800
4.946100 0.924100
4.969200 0.930700
4.992300 0.936700
5.015400 0.946300
5.038500 1.004300
5.061600 1.023600
5.084700 1.057500
5.107800 1.080400
5.130800 1.119500
5.153900 1.202100
5.177000 1.327800
5.200100 1.264900
5.223200 1.134700
5.246300 1.059900
5.269400 0.975300
5.292500 0.924600
5.315600 0.920700
5.338700 0.918400
5.361800 0.924100
5.384900 0.932300
5.408000 0.939300
5.431100 0.945700
5.454200 0.947400
5.477300 0.947700
5.500300 0.945000
5.523400 0.939200
5.546500 0.945600
5.569600 1.002800
5.592700 1.020400
5.615800 1.012700
5.638900 0.987200
5.662000 0.946700
5.685100 0.915700
5.708200 0.904400
5.731300 0.901800
5.754400 0.907700
5.777500 0.922000
5.800600 0.945800
5.823700 0.978000
5.846800 1.013500
5.869900 1.051300
5.892900 1.091300
5.916000 1.141800
5.939100 1.220800
5.962200 1.470300
5.985300 1.699400
6.008400 1.900300
6.031500 2.165600
6.054600 2.260800
6.077700 1.949700
6.100800 1.904500
6.123900 1.896500
6.147000 1.890100
6.170100 1.885500
6.193200 1.879800
6.216300 1.869600
6.239400 1.905200
6.262500 1.667600
6.285500 1.410600
6.308600 1.411100
6.331700 1.426200
6.354800 1.411100
6.377900 1.369500
6.401000 1.312700
6.424100 1.284400
6.447200 1.267600
6.470300 1.267100
6.493400 1.267200
6.516500 1.267900
6.539600 1.211500
6.562700 1.193800
6.585800 1.176600
6.608900 1.158900
6.632000 1.140600
6.655000 1.122000
6.678100 1.102600
6.701200 1.077900
6.724300 1.051400
6.747400 1.026900
6.770500 1.003500
6.793600 0.983100
6.816700 0.962900
6.839800 0.948200
6.862900 0.939200
6.886000 0.937900
6.909100 0.946600
6.932200 0.965500
6.955300 0.996500
6.978400 1.035100
7.001500 1.076500
7.024600 1.125400
7.047600 1.198800
7.070700 1.291300
7.093800 1.382900
7.116900 1.473600
7.140000 1.554200
7.163100 1.619100
7.186200 1.652500
7.209300 1.664000
7.232400 1.673000
7.255500 1.673000
7.278600 1.669800
7.301700 1.660600
7.324800 1.706300
7.347900 1.740900
7.371000 1.625500
7.394100 1.582100
7.417200 1.578400
7.440200 1.572600
7.463300 1.554000
7.486400 1.561100
7.509500 1.538100
7.532600 1.446800
7.555700 1.387500
7.578800 1.372600
7.601900 1.368100
7.625000 1.367200
7.648100 1.376400
7.671200 1.397200
7.694300 1.403500
7.717400 1.383700
7.740500 1.344600
7.763600 1.345000
7.786700 1.363300
7.809800 1.374100
7.832800 1.421500
7.855900 1.414900
7.879000 1.366100
7.902100 1.302700
7.925200 1.247600
7.948300 1.218600
7.971400 1.205900
7.994500 1.184300
8.017600 1.123700
8.040700 1.089400
8.063800 1.076700
8.086900 1.062900
8.110000 1.048700
8.133100 1.035800
8.156200 1.024800
8.179300 1.013900
8.202300 1.003400
8.225400 0.997900
8.248500 1.002600
8.271600 1.051600
8.294700 1.058500
8.317800 1.052400
8.340900 1.057300
8.364000 1.072700
8.387100 1.070000
8.410200 1.056500
8.433300 1.024700
8.456400 0.977900
8.479500 0.921400
8.502600 0.903700
8.525700 0.905400
8.548800 0.908900
8.571900 0.914100
8.594900 0.913200
8.618000 0.911500
8.641100 0.933100
8.664200 0.973200
8.687300 1.021100
8.710400 1.072100
8.733500 1.124800
8.756600 1.179500
8.779700 1.236700
8.802800 1.375800
8.825900 1.383900
8.849000 1.391900
8.872100 1.374700
8.895200 1.341400
8.918300 1.308800
8.941400 1.267600
8.964500 1.221900
8.987500 1.181700
9.010600 1.147400
9.033700 1.119400
9.056800 1.098000
9.079900 1.063000
9.103000 1.025400
9.126100 0.991400
9.149200 0.962500
9.172300 0.937200
9.195400 0.915700
9.218500 0.898000
9.241600 0.881300
9.264700 0.865600
9.287800 0.871700
9.310900 0.880800
9.334000 0.875300
9.357100 0.858100
9.380100 0.858100
9.403200 0.858200
9.426300 0.858400
9.449400 0.861500
9.472500 0.865800
9.495600 0.871100
9.518700 0.876300
9.541800 0.889800
9.564900 0.914200
9.588000 0.898100
9.611100 0.884200
9.634200 0.872700
9.657300 0.868500
9.680400 0.888000
9.703500 0.933500
9.726600 0.980600
9.749600 1.001400
9.772700 0.995800
9.795800 1.006100
9.818900 1.039600
9.842000 1.126900
9.865100 1.268700
9.888200 1.412400
9.911300 1.193800
9.934400 1.122400
9.957500 1.081400
9.980600 1.086600
10.003700 1.039600
10.026800 1.010700
10.049900 1.048100
10.073000 1.047900
10.096100 0.995100
10.119200 0.976100
10.142200 0.994600
10.165300 1.011000
10.188400 1.029300
10.211500 1.049500
10.234600 1.071500
10.257700 1.094900
10.280800 1.104100
10.303900 1.125500
10.327000 1.204600
10.350100 1.232300
10.373200 1.238700
10.396300 1.241300
10.419400 1.235600
10.442500 1.226200
10.465600 1.214600
10.488700 1.197000
10.511800 1.182800
10.534800 1.181200
10.557900 1.187600
10.581000 1.200400
10.604100 1.212100
10.627200 1.220200
10.650300 1.228000
10.673400 1.237100
10.696500 1.247800
10.719600 1.257800
10.742700 1.264900
10.765800 1.252700
10.788900 1.239900
10.812000 1.231600
10.835100 1.231000
10.858200 1.235600
10.881300 1.244100
10.904400 1.251700
10.927400 1.261000
10.950500 1.271800
10.973600 1.289600
10.996700 1.326500
11.019800 1.384100
11.042900 1.429800
11.066000 1.451900
11.089100 1.472400
11.112200 1.492100
11.135300 1.505600
11.158400 1.570300
11.181500 1.623000
11.204600 1.633600
11.227700 1.649700
11.250800 1.665400
11.273900 1.673000
11.296900 1.677200
11.320000 1.672400
11.343100 1.672100
11.366200 1.664500
11.389300 1.649800
11.412400 1.625300
11.435500 1.592900
11.458600 1.560500
11.481700 1.517100
11.504800 1.458500
11.527900 1.457000
11.551000 1.444800
11.574100 1.434900
11.597200 1.427500
11.620300 1.423100
11.643400 1.420000
11.666500 1.414700
11.689500 1.407800
11.712600 1.401800
11.735700 1.394500
11.758800 1.386700
11.781900 1.381800
11.805000 1.377800
11.828100 1.375300
11.851200 1.374200
11.874300 1.373900
11.897400 1.374100
11.920500 1.375900
11.943600 1.378800
11.966700 1.382100
11.989800 1.385600
12.012900 1.383400
12.036000 1.376500
12.059100 1.380500
12.082100 1.367300
12.105200 1.355700
12.128300 1.346200
12.151400 1.338400
12.174500 1.332300
12.197600 1.328200
12.220700 1.326000
12.243800 1.327700
12.266900 1.328700
12.290000 1.334400
12.313100 1.353900
12.336200 1.328400
12.359300 1.237600
12.382400 1.229300
12.405500 1.220900
12.428600 1.210800
12.451600 1.224300
12.474700 1.244500
12.497800 1.271200
12.520900 1.297300
12.544000 1.387600
12.567100 1.711800
12.590200 1.311000
12.613300 1.280700
12.636400 1.243700
12.659500 1.226900
12.682600 1.225200
12.705700 1.224800
12.728800 1.222900
12.751900 1.224800
12.775000 1.222400
12.798100 1.214000
12.821200 1.194000
12.844200 1.190000
12.867300 1.197200
12.890400 1.208800
12.913500 1.224000
12.936600 1.245200
12.959700 1.274400
12.982800 1.309300
13.005900 1.340900
13.029000 1.543500
13.052100 1.615700
13.075200 1.586700
13.098300 1.562400
13.121400 1.582400
13.144500 1.641500
13.167600 1.652000
13.190700 1.650100
13.213800 1.636500
13.236800 1.632700
13.259900 1.627400
13.283000 1.631500
13.306100 1.640900
13.329200 1.638700
13.352300 1.637000
13.375400 1.653500
13.398500 1.691000
13.421600 1.783200
13.444700 1.937100
13.467800 2.087100
13.490900 2.899900
13.514000 2.180900
13.537100 2.010300
13.560200 1.856900
13.583300 1.702900
13.606400 1.561400
13.629400 1.505200
13.652500 1.404800
13.675600 1.310800
13.698700 1.224100
13.721800 1.146600
13.744900 1.113400
13.768000 1.110100
13.791100 1.123900
13.814200 1.133400
13.837300 1.132600
13.860400 1.121800
13.883500 1.116700
13.906600 1.099200
13.929700 1.180800
13.952800 1.129200
13.975900 1.116100
13.998900 1.128600
14.022000 1.147100
14.045100 1.170900
14.068200 1.205300
14.091300 1.249200
14.114400 1.277900
14.137500 1.323600
14.160600 1.390700
14.183700 1.454500
14.206800 1.521600
14.229900 1.574800
14.253000 1.633300
14.276100 1.693100
14.299200 1.733000
14.322300 1.778800
14.345400 1.828300
14.368500 1.879800
14.391500 2.092700
14.414600 1.883800
14.437700 1.929100
14.460800 1.920400
14.483900 1.853700
14.507000 1.790100
14.530100 1.760500
14.553200 1.749700
14.576300 1.773500
14.599400 1.837700
14.622500 1.915800
14.645600 1.992000
14.668700 2.071100
14.691800 2.074800
14.714900 2.120100
14.738000 2.142400
14.761100 2.042800
14.784100 1.912500
14.807200 1.527400
14.830300 1.439000
14.853400 1.380900
14.876500 1.372400
14.899600 1.327200
14.922700 1.282000
14.945800 1.255200
14.968900 1.242600
14.992000 1.249900
15.015100 1.270400
15.038200 1.257500
15.061300 1.244300
15.084400 1.246100
15.107500 1.247200
15.130600 1.238600
15.153700 1.239700
15.176700 1.225700
15.199800 1.210600
15.222900 1.207100
15.246000 1.236100
15.269100 1.194600
15.292200 1.171700
15.315300 1.164100
15.338400 1.182600
15.361500 1.206600
15.384600 1.220400
15.407700 1.204600
15.430800 1.209700
15.453900 1.217900
15.477000 1.264500
15.500100 1.222600
15.523200 1.196600
15.546200 1.195600
15.569300 1.210000
15.592400 1.242400
15.615500 1.278600
15.638600 1.370900
15.661700 1.393600
15.684800 1.409400
15.707900 1.429800
15.731000 1.481300
15.754100 1.571400
15.777200 1.619700
15.800300 1.654900
15.823400 1.674600
15.846500 1.683800
15.869600 1.683800
15.892700 1.722100
15.915800 1.627700
15.938800 1.582800
15.961900 1.441500
15.985000 1.409400
16.008100 1.385400
16.031200 1.371600
16.054300 1.357200
16.077400 1.339300
16.100500 1.346400
16.123600 1.370000
16.146700 1.407800
16.169800 1.414500
16.192900 1.412400
16.216000 1.405000
16.239100 1.390400
16.262200 1.380300
16.285300 1.374700
16.308400 1.371600
16.331400 1.370600
16.354500 1.374300
16.377600 1.383900
16.400700 1.393900
16.423800 1.403700
16.446900 1.417900
16.470000 1.432500
16.493100 1.442700
16.516200 1.519100
16.539300 1.461300
16.562400 1.461900
16.585500 1.204500
16.608600 1.150700
16.631700 1.102200
16.654800 1.056900
16.677900 1.017100
16.701000 0.978600
16.724000 0.944300
16.747100 0.913700
16.770200 0.886400
16.793300 0.862900
16.816400 0.844100
16.839500 0.825900
16.862600 0.809200
16.885700 0.794000
16.908800 0.780200
16.931900 0.788400
16.955000 0.784100
16.978100 0.758400
17.001200 0.741500
17.024300 0.734100
17.047400 0.740000
17.070500 0.761300
17.093500 0.790400
17.116600 0.818300
17.139700 0.864000
17.162800 0.917700
17.185900 0.981900
17.209000 1.079400
17.232100 1.201900
17.255200 1.354500
17.278300 1.446900
17.301400 1.508700
17.324500 1.594200
17.347600 1.684600
17.370700 1.776400
17.393800 1.890800
17.416900 1.986800
17.440000 1.999700
17.463100 1.957100
17.486100 1.902400
17.509200 1.818300
17.532300 1.687900
17.555400 1.664600
17.578500 1.648900
17.601600 1.632500
17.624700 1.667100
17.647800 1.688500
17.670900 1.697500
17.694000 1.702100
17.717100 1.714100
17.740200 1.734800
17.763300 1.750600
17.786400 1.760600
17.809500 1.764700
17.832600 1.760400
17.855700 1.754500
17.878700 1.730600
17.901800 1.720700
17.924900 1.720100
17.948000 1.792800
17.971100 1.798100
17.994200 1.588600
18.017300 1.443300
18.040400 1.336800
18.063500 1.207700
18.086600 1.076600
18.109700 1.033300
18.132800 1.063500
18.155900 1.084400
18.179000 0.989700
18.202100 0.915400
18.225200 0.885300
18.248200 0.895600
18.271300 0.894400
18.294400 0.884400
18.317500 0.867400
18.340600 0.871000
18.363700 0.875300
18.386800 0.880000
18.409900 0.885200
18.433000 0.890900
18.456100 0.947500
18.479200 1.029800
18.502300 1.072400
18.525400 1.070300
18.548500 1.081300
18.571600 1.048900
18.594700 1.012700
18.617800 0.951900
18.640800 0.816000
18.663900 0.732100
18.687000 0.666700
18.710100 0.607500
18.733200 0.560900
18.756300 0.510400
18.779400 0.484800
18.802500 0.460100
18.825600 0.431400
18.848700 0.401000
18.871800 0.370100
18.894900 0.341300
18.918000 0.314700
18.941100 0.290500
18.964200 0.268900
18.987300 0.250000
19.010400 0.233600
19.033400 0.218000
19.056500 0.203100
19.079600 0.188800
19.102700 0.175000
19.125800 0.161300
19.148900 0.147400
19.172000 0.137300
19.195100 0.127800
19.218200 0.118500
19.241300 0.109600
19.264400 0.100500
19.287500 0.091000
19.310600 0.081100
19.333700 0.070800
19.356800 0.060100
19.379900 0.049100
19.403000 0.037600
19.426000 0.025700
19.449100 0.013400
19.472200 0.005600
19.495300 0.004500
19.518400 0.003600
19.541500 0.002700
19.564600 0.002000
19.587700 0.001400
19.610800 0.000900
19.633900 0.000500
19.657000 0.000200
19.680100 0.000100
19.703200 0.000000
19.726300 0.000000
19.749400 0.000000
19.772500 0.000000
19.795500 0.000000
19.818600 0.000000
19.841700 0.000000
19.864800 0.000000
19.887900 0.000000
19.911000 0.000000
19.934100 0.000000
19.957200 0.000000
19.980300 0.000000
20.003400 0.000000
20.026500 0.000000
20.049600 0.000000
20.072700 0.000000
20.095800 0.000000
20.118900 0.000000
20.142000 0.000000
20.165100 0.000000
20.188100 0.000000
20.211200 0.000000
20.234300 0.000000
20.257400 0.000000
20.280500 0.000000
20.303600 0.000000
20.326700 0.000000
20.349800 0.000000
20.372900 0.000000
20.396000 0.000000
20.419100 0.000000
20.442200 0.000000
20.465300 0.000000
20.488400 0.000000
20.511500 0.000000
20.534600 0.000000
20.557700 0.000000
20.580700 0.000000
20.603800 0.000000
20.626900 0.000000
20.650000 0.000000
20.673100 0.000000
20.696200 0.000000
20.719300 0.000000
20.742400 0.000000
20.765500 0.000000
20.788600 0.000000
20.811700 0.000000
20.834800 0.000000
20.857900 0.000000
20.881000 0.000000
20.904100 0.000000
20.927200 0.000000
20.950300 0.000000
20.973300 0.000000
20.996400 0.000000
21.019500 0.000000
21.042600 0.000000
21.065700 0.000000
21.088800 0.000000
21.111900 0.000000
21.135000 0.000000
21.158100 0.000000
21.181200 0.000000
21.204300 0.000000
21.227400 0.000000
21.250500 0.000000
21.273600 0.000000
21.296700 0.000000
21.319800 0.000000
21.342800 0.000000
21.365900 0.000000
21.389000 0.000000
21.412100 0.000000
21.435200 0.000000
21.458300 0.000000
21.481400 0.000000
21.504500 0.000000
21.527600 0.000000
21.550700 0.000000
21.573800 0.000000
21.596900 0.000000
21.620000 0.000000
21.643100 0.000000
21.666200 0.000000
21.689300 0.000000
21.712400 0.000000
21.735400 0.000000
21.758500 0.000000
21.781600 0.000000
21.804700 0.000000
e
