set title 'mp-1215274 - Density of States'
set xlabel 'Energy (eV)'
set ylabel 'DOS (states/eV)'
set grid
set xrange [-10:10]
set yrange [0:8.605]
set xzeroaxis lt -1
set terminal png size 800,600
set output 'mp-1215274_dos_gnuplot.png'
plot '-' using 1:2 with lines title 'DOS'
-48.490600 0.000000
-48.438700 0.000000
-48.386900 0.000000
-48.335000 0.000000
-48.283200 0.000000
-48.231400 0.000000
-48.179500 0.000000
-48.127700 0.000000
-48.075800 0.000000
-48.024000 0.000000
-47.972200 0.000000
-47.920300 0.000000
-47.868500 0.000000
-47.816600 0.000000
-47.764800 0.000000
-47.713000 0.000000
-47.661100 0.000000
-47.609300 0.000000
-47.557400 0.000000
-47.505600 0.000000
-47.453800 0.000000
-47.401900 0.000000
-47.350100 0.000000
-47.298200 0.000000
-47.246400 0.000000
-47.194500 0.000000
-47.142700 0.000000
-47.090900 0.000000
-47.039000 0.000000
-46.987200 0.000000
-46.935300 0.000000
-46.883500 0.000000
-46.831700 0.000000
-46.779800 0.000000
-46.728000 0.000000
-46.676100 0.000000
-46.624300 0.000000
-46.572500 0.000000
-46.520600 0.000000
-46.468800 0.000000
-46.416900 0.000000
-46.365100 0.000000
-46.313300 0.000000
-46.261400 0.000000
-46.209600 0.000000
-46.157700 0.000000
-46.105900 0.000000
-46.054100 0.000000
-46.002200 0.000000
-45.950400 0.000000
-45.898500 0.000000
-45.846700 0.000000
-45.794900 0.000000
-45.743000 0.000000
-45.691200 0.000000
-45.639300 0.000000
-45.587500 0.000000
-45.535600 0.000000
-45.483800 0.000000
-45.432000 0.000000
-45.380100 0.000000
-45.328300 0.000000
-45.276400 0.000000
-45.224600 0.000000
-45.172800 0.000000
-45.120900 0.000000
-45.069100 0.000000
-45.017200 0.000000
-44.965400 0.000000
-44.913600 0.000000
-44.861700 0.000000
-44.809900 0.000000
-44.758000 0.000000
-44.706200 0.000000
-44.654400 0.000000
-44.602500 0.000000
-44.550700 0.000000
-44.498800 0.000000
-44.447000 0.000000
-44.395200 0.000000
-44.343300 0.000000
-44.291500 0.000000
-44.239600 0.000000
-44.187800 0.000000
-44.136000 0.000000
-44.084100 0.000000
-44.032300 0.000000
-43.980400 0.000000
-43.928600 0.000000
-43.876800 0.000000
-43.824900 0.000000
-43.773100 10.098700
-43.721200 16.972700
-43.669400 12.435200
-43.617500 0.000000
-43.565700 0.000000
-43.513900 0.000000
-43.462000 0.000000
-43.410200 0.000000
-43.358300 0.000000
-43.306500 0.000000
-43.254700 0.000000
-43.202800 0.000000
-43.151000 0.000000
-43.099100 0.000000
-43.047300 0.000000
-42.995500 0.000000
-42.943600 0.000000
-42.891800 0.000000
-42.839900 0.000000
-42.788100 0.000000
-42.736300 0.000000
-42.684400 0.000000
-42.632600 0.000000
-42.580700 0.000000
-42.528900 0.000000
-42.477100 0.000000
-42.425200 0.000000
-42.373400 0.000000
-42.321500 0.000000
-42.269700 0.000000
-42.217900 0.000000
-42.166000 0.000000
-42.114200 0.000000
-42.062300 0.000000
-42.010500 0.000000
-41.958600 0.000000
-41.906800 0.000000
-41.855000 0.000000
-41.803100 0.000000
-41.751300 0.000000
-41.699400 0.000000
-41.647600 0.000000
-41.595800 0.000000
-41.543900 0.000000
-41.492100 0.000000
-41.440200 0.000000
-41.388400 0.000000
-41.336600 0.000000
-41.284700 0.000000
-41.232900 0.000000
-41.181000 0.000000
-41.129200 0.000000
-41.077400 0.000000
-41.025500 0.000000
-40.973700 0.000000
-40.921800 0.000000
-40.870000 0.000000
-40.818200 0.000000
-40.766300 0.000000
-40.714500 0.000000
-40.662600 0.000000
-40.610800 0.000000
-40.559000 0.000000
-40.507100 0.000000
-40.455300 0.000000
-40.403400 0.000000
-40.351600 0.000000
-40.299700 0.000000
-40.247900 0.000000
-40.196100 0.000000
-40.144200 0.000000
-40.092400 0.000000
-40.040500 0.000000
-39.988700 0.000000
-39.936900 0.000000
-39.885000 0.000000
-39.833200 0.000000
-39.781300 0.000000
-39.729500 0.000000
-39.677700 0.000000
-39.625800 0.000000
-39.574000 0.000000
-39.522100 0.000000
-39.470300 0.000000
-39.418500 0.000000
-39.366600 0.000000
-39.314800 0.000000
-39.262900 0.000000
-39.211100 0.000000
-39.159300 0.000000
-39.107400 0.000000
-39.055600 0.000000
-39.003700 0.000000
-38.951900 0.000000
-38.900100 0.000000
-38.848200 0.000000
-38.796400 0.000000
-38.744500 0.000000
-38.692700 0.000000
-38.640800 0.000000
-38.589000 0.000000
-38.537200 0.000000
-38.485300 0.000000
-38.433500 0.000000
-38.381600 0.000000
-38.329800 0.000000
-38.278000 0.000000
-38.226100 0.000000
-38.174300 0.000000
-38.122400 0.000000
-38.070600 0.000000
-38.018800 0.000000
-37.966900 0.000000
-37.915100 0.000000
-37.863200 0.000000
-37.811400 0.000000
-37.759600 0.000000
-37.707700 0.000000
-37.655900 0.000000
-37.604000 0.000000
-37.552200 0.000000
-37.500400 0.000000
-37.448500 0.000000
-37.396700 0.000000
-37.344800 0.000000
-37.293000 0.000000
-37.241200 0.000000
-37.189300 0.000000
-37.137500 0.000000
-37.085600 0.000000
-37.033800 0.000000
-36.981900 0.000000
-36.930100 0.000000
-36.878300 0.000000
-36.826400 0.000000
-36.774600 0.000000
-36.722700 0.000000
-36.670900 0.000000
-36.619100 0.000000
-36.567200 0.000000
-36.515400 0.000000
-36.463500 0.000000
-36.411700 0.000000
-36.359900 0.000000
-36.308000 0.000000
-36.256200 0.000000
-36.204300 0.000000
-36.152500 0.000000
-36.100700 0.000000
-36.048800 0.000000
-35.997000 0.000000
-35.945100 0.000000
-35.893300 0.000000
-35.841500 0.000000
-35.789600 0.000000
-35.737800 0.000000
-35.685900 0.000000
-35.634100 0.000000
-35.582300 0.000000
-35.530400 0.000000
-35.478600 0.000000
-35.426700 0.000000
-35.374900 0.000000
-35.323100 0.000000
-35.271200 0.000000
-35.219400 0.000000
-35.167500 0.000000
-35.115700 0.000000
-35.063800 0.000000
-35.012000 0.000000
-34.960200 0.000000
-34.908300 0.000000
-34.856500 0.000000
-34.804600 0.000000
-34.752800 0.000000
-34.701000 0.000000
-34.649100 0.000000
-34.597300 0.000000
-34.545400 0.000000
-34.493600 0.000000
-34.441800 0.000000
-34.389900 0.000000
-34.338100 0.000000
-34.286200 0.000000
-34.234400 0.000000
-34.182600 0.000000
-34.130700 0.000000
-34.078900 0.000000
-34.027000 0.000000
-33.975200 0.000000
-33.923400 0.000000
-33.871500 0.000000
-33.819700 0.000000
-33.767800 0.000000
-33.716000 0.000000
-33.664200 0.000000
-33.612300 0.000000
-33.560500 0.000000
-33.508600 0.000000
-33.456800 0.000000
-33.404900 0.000000
-33.353100 0.000000
-33.301300 0.000000
-33.249400 0.000000
-33.197600 0.000000
-33.145700 0.000000
-33.093900 0.000000
-33.042100 0.000000
-32.990200 0.000000
-32.938400 0.000000
-32.886500 0.000000
-32.834700 0.000000
-32.782900 0.000000
-32.731000 0.000000
-32.679200 0.000000
-32.627300 0.000000
-32.575500 0.000000
-32.523700 0.000000
-32.471800 0.000000
-32.420000 0.000000
-32.368100 0.000000
-32.316300 0.000000
-32.264500 0.000000
-32.212600 0.000000
-32.160800 0.000000
-32.108900 0.000000
-32.057100 0.000000
-32.005300 0.000000
-31.953400 0.000000
-31.901600 0.000000
-31.849700 0.000000
-31.797900 0.000000
-31.746000 0.000000
-31.694200 0.000000
-31.642400 0.000000
-31.590500 0.000000
-31.538700 0.000000
-31.486800 0.000000
-31.435000 0.000000
-31.383200 0.000000
-31.331300 0.000000
-31.279500 0.000000
-31.227600 0.000000
-31.175800 0.000000
-31.124000 0.000000
-31.072100 0.000000
-31.020300 0.000000
-30.968400 0.000000
-30.916600 0.000000
-30.864800 0.000000
-30.812900 0.000000
-30.761100 0.000000
-30.709200 0.000000
-30.657400 0.000000
-30.605600 0.000000
-30.553700 0.000000
-30.501900 0.000000
-30.450000 0.000000
-30.398200 0.000000
-30.346400 0.000000
-30.294500 0.000000
-30.242700 0.000000
-30.190800 0.000000
-30.139000 0.000000
-30.087100 0.000000
-30.035300 0.000000
-29.983500 0.000000
-29.931600 0.000000
-29.879800 0.000000
-29.827900 0.000000
-29.776100 0.000000
-29.724300 0.000000
-29.672400 0.000000
-29.620600 0.000000
-29.568700 0.000000
-29.516900 0.000000
-29.465100 0.000000
-29.413200 0.000000
-29.361400 0.000000
-29.309500 0.000000
-29.257700 0.000000
-29.205900 0.000000
-29.154000 0.000000
-29.102200 0.000000
-29.050300 0.000000
-28.998500 0.000000
-28.946700 0.000000
-28.894800 0.000000
-28.843000 0.000000
-28.791100 0.000000
-28.739300 0.000000
-28.687500 0.000000
-28.635600 0.000000
-28.583800 0.000000
-28.531900 0.000000
-28.480100 0.000000
-28.428200 0.000000
-28.376400 0.000000
-28.324600 0.000000
-28.272700 0.000000
-28.220900 0.000000
-28.169000 0.000000
-28.117200 0.000000
-28.065400 0.000000
-28.013500 0.000000
-27.961700 0.000000
-27.909800 0.000000
-27.858000 0.000000
-27.806200 0.000000
-27.754300 0.000000
-27.702500 0.000000
-27.650600 0.000000
-27.598800 0.000000
-27.547000 0.000000
-27.495100 0.000000
-27.443300 0.000000
-27.391400 0.000000
-27.339600 0.000000
-27.287800 0.000000
-27.235900 0.000000
-27.184100 0.000000
-27.132200 0.000000
-27.080400 0.000000
-27.028600 0.000000
-26.976700 0.000000
-26.924900 0.000000
-26.873000 0.000000
-26.821200 0.000000
-26.769400 0.000000
-26.717500 0.000000
-26.665700 0.000000
-26.613800 0.000000
-26.562000 0.000000
-26.510100 0.000000
-26.458300 0.000000
-26.406500 0.000000
-26.354600 0.000000
-26.302800 0.000000
-26.250900 0.000000
-26.199100 0.000000
-26.147300 0.000000
-26.095400 0.000000
-26.043600 0.000000
-25.991700 0.000000
-25.939900 0.000000
-25.888100 0.000000
-25.836200 0.000000
-25.784400 0.000000
-25.732500 0.000000
-25.680700 0.000000
-25.628900 0.000000
-25.577000 0.000000
-25.525200 0.000000
-25.473300 0.000000
-25.421500 0.000000
-25.369700 0.000000
-25.317800 0.000000
-25.266000 0.000000
-25.214100 0.000000
-25.162300 0.000000
-25.110500 0.000000
-25.058600 0.000000
-25.006800 0.000000
-24.954900 0.000000
-24.903100 0.000000
-24.851200 0.000000
-24.799400 0.000000
-24.747600 0.000000
-24.695700 0.000000
-24.643900 0.000000
-24.592000 0.000000
-24.540200 0.000000
-24.488400 0.000000
-24.436500 0.000000
-24.384700 0.000000
-24.332800 0.000000
-24.281000 0.000000
-24.229200 0.000000
-24.177300 0.000000
-24.125500 0.000000
-24.073600 0.000000
-24.021800 0.000000
-23.970000 0.000000
-23.918100 0.000000
-23.866300 0.000000
-23.814400 0.000000
-23.762600 0.000000
-23.710800 0.000000
-23.658900 0.000000
-23.607100 0.000000
-23.555200 0.000000
-23.503400 0.000000
-23.451600 0.000000
-23.399700 0.000000
-23.347900 0.000000
-23.296000 0.000000
-23.244200 0.000000
-23.192300 0.000000
-23.140500 0.000000
-23.088700 0.000000
-23.036800 0.000000
-22.985000 0.000000
-22.933100 0.000000
-22.881300 0.000000
-22.829500 0.000000
-22.777600 0.000000
-22.725800 0.000000
-22.673900 0.000000
-22.622100 0.000000
-22.570300 0.000000
-22.518400 0.000000
-22.466600 0.000000
-22.414700 0.000000
-22.362900 0.000000
-22.311100 0.000000
-22.259200 0.000000
-22.207400 0.913000
-22.155500 5.737600
-22.103700 10.303400
-22.051900 5.454500
-22.000000 9.003600
-21.948200 16.706900
-21.896300 17.368600
-21.844500 9.720500
-21.792700 4.199300
-21.740800 3.641200
-21.689000 5.736000
-21.637100 4.217800
-21.585300 5.637000
-21.533400 6.244200
-21.481600 7.535700
-21.429800 0.000000
-21.377900 0.000000
-21.326100 0.000000
-21.274200 0.000000
-21.222400 0.000000
-21.170600 0.000000
-21.118700 0.000000
-21.066900 0.000000
-21.015000 0.000000
-20.963200 0.000000
-20.911400 0.000000
-20.859500 0.000000
-20.807700 0.000000
-20.755800 0.000000
-20.704000 0.000000
-20.652200 0.000000
-20.600300 0.000000
-20.548500 0.000000
-20.496600 0.000000
-20.444800 0.000000
-20.393000 0.000000
-20.341100 0.000000
-20.289300 0.000000
-20.237400 0.000000
-20.185600 0.000000
-20.133800 0.000000
-20.081900 0.000000
-20.030100 0.000000
-19.978200 0.000000
-19.926400 0.000000
-19.874500 0.000000
-19.822700 0.000000
-19.770900 0.000000
-19.719000 0.000000
-19.667200 0.000000
-19.615300 0.000000
-19.563500 0.000000
-19.511700 0.000000
-19.459800 0.000000
-19.408000 0.000000
-19.356100 0.000000
-19.304300 0.000000
-19.252500 0.000000
-19.200600 0.000000
-19.148800 0.000000
-19.096900 0.000000
-19.045100 0.000000
-18.993300 0.000000
-18.941400 0.000000
-18.889600 0.000000
-18.837700 0.000000
-18.785900 0.000000
-18.734100 0.000000
-18.682200 0.000000
-18.630400 0.000000
-18.578500 0.000000
-18.526700 0.000000
-18.474900 0.000000
-18.423000 0.000000
-18.371200 0.000000
-18.319300 0.000000
-18.267500 0.000000
-18.215700 0.000000
-18.163800 0.000000
-18.112000 0.000000
-18.060100 0.000000
-18.008300 0.000000
-17.956400 0.000000
-17.904600 0.000000
-17.852800 0.000000
-17.800900 0.000000
-17.749100 0.000000
-17.697200 0.000000
-17.645400 0.000000
-17.593600 0.000000
-17.541700 0.000000
-17.489900 0.000000
-17.438000 0.000000
-17.386200 0.000000
-17.334400 0.000000
-17.282500 0.000000
-17.230700 0.000000
-17.178800 0.000000
-17.127000 0.000000
-17.075200 0.000000
-17.023300 0.000000
-16.971500 0.000000
-16.919600 0.000000
-16.867800 0.000000
-16.816000 0.000000
-16.764100 0.000000
-16.712300 0.000000
-16.660400 0.000000
-16.608600 0.000000
-16.556800 0.000000
-16.504900 0.000000
-16.453100 0.000000
-16.401200 0.000000
-16.349400 0.000000
-16.297500 0.000000
-16.245700 0.000000
-16.193900 0.000000
-16.142000 0.000000
-16.090200 0.000000
-16.038300 0.000000
-15.986500 0.000000
-15.934700 0.000000
-15.882800 0.000000
-15.831000 0.000000
-15.779100 0.000000
-15.727300 0.000000
-15.675500 0.000000
-15.623600 0.000000
-15.571800 0.000000
-15.519900 0.000000
-15.468100 0.000000
-15.416300 0.000000
-15.364400 0.000000
-15.312600 0.000000
-15.260700 0.000000
-15.208900 0.000000
-15.157100 0.000000
-15.105200 0.000000
-15.053400 0.000000
-15.001500 0.000000
-14.949700 0.000000
-14.897900 0.000000
-14.846000 0.000000
-14.794200 0.000000
-14.742300 0.000000
-14.690500 0.000000
-14.638600 0.000000
-14.586800 0.000000
-14.535000 0.000000
-14.483100 0.000000
-14.431300 0.000000
-14.379400 0.000000
-14.327600 0.000000
-14.275800 0.000000
-14.223900 0.000000
-14.172100 0.000000
-14.120200 0.000000
-14.068400 0.000000
-14.016600 0.000000
-13.964700 0.000000
-13.912900 0.000000
-13.861000 0.000000
-13.809200 0.000000
-13.757400 0.000000
-13.705500 0.000000
-13.653700 0.000000
-13.601800 0.000000
-13.550000 0.000000
-13.498200 0.000000
-13.446300 0.000000
-13.394500 0.000000
-13.342600 0.000000
-13.290800 0.000000
-13.239000 0.000000
-13.187100 0.000000
-13.135300 0.000000
-13.083400 0.000000
-13.031600 0.000000
-12.979700 0.000000
-12.927900 0.000000
-12.876100 0.000000
-12.824200 0.000000
-12.772400 0.000000
-12.720500 0.000000
-12.668700 0.000000
-12.616900 0.000000
-12.565000 0.000000
-12.513200 0.000000
-12.461300 0.000000
-12.409500 0.000000
-12.357700 0.000000
-12.305800 0.000000
-12.254000 0.000000
-12.202100 0.000000
-12.150300 0.000000
-12.098500 0.000000
-12.046600 0.000000
-11.994800 0.000000
-11.942900 0.000000
-11.891100 0.000000
-11.839300 0.000000
-11.787400 0.000000
-11.735600 0.000000
-11.683700 0.000000
-11.631900 0.000000
-11.580100 0.000000
-11.528200 0.000000
-11.476400 0.000000
-11.424500 0.000000
-11.372700 0.000000
-11.320800 0.000000
-11.269000 0.000000
-11.217200 0.000000
-11.165300 0.000000
-11.113500 0.000000
-11.061600 0.000000
-11.009800 0.000000
-10.958000 0.000000
-10.906100 0.000000
-10.854300 0.000000
-10.802400 0.000000
-10.750600 0.000000
-10.698800 0.000000
-10.646900 0.000000
-10.595100 0.000000
-10.543200 0.000000
-10.491400 0.000000
-10.439600 0.000000
-10.387700 0.000000
-10.335900 0.000000
-10.284000 0.000000
-10.232200 0.000000
-10.180400 0.000000
-10.128500 0.000000
-10.076700 0.000000
-10.024800 0.000000
-9.973000 0.000000
-9.921200 0.000000
-9.869300 0.000000
-9.817500 0.000000
-9.765600 0.000000
-9.713800 0.000000
-9.661900 0.000000
-9.610100 0.000000
-9.558300 0.000000
-9.506400 0.000000
-9.454600 0.000000
-9.402700 0.000000
-9.350900 0.000000
-9.299100 0.000000
-9.247200 0.000000
-9.195400 0.000000
-9.143500 0.000000
-9.091700 0.000000
-9.039900 0.000000
-8.988000 0.000000
-8.936200 0.000000
-8.884300 0.000000
-8.832500 0.000000
-8.780700 0.000000
-8.728800 0.000000
-8.677000 0.000000
-8.625100 0.000000
-8.573300 0.000000
-8.521500 0.000000
-8.469600 0.000000
-8.417800 0.000000
-8.365900 0.000000
-8.314100 0.000000
-8.262300 0.000000
-8.210400 0.000000
-8.158600 0.000000
-8.106700 0.000000
-8.054900 0.000000
-8.003100 0.000000
-7.951200 0.000000
-7.899400 0.000000
-7.847500 0.000000
-7.795700 0.000000
-7.743800 0.000000
-7.692000 0.000000
-7.640200 0.000000
-7.588300 0.000000
-7.536500 0.000000
-7.484600 0.000000
-7.432800 0.000000
-7.381000 0.000000
-7.329100 0.000000
-7.277300 0.000000
-7.225400 0.000000
-7.173600 0.000000
-7.121800 0.000000
-7.069900 0.000000
-7.018100 0.000000
-6.966200 0.000000
-6.914400 0.000000
-6.862600 0.000000
-6.810700 0.000000
-6.758900 0.000000
-6.707000 0.000000
-6.655200 0.000000
-6.603400 0.000000
-6.551500 0.000000
-6.499700 0.000000
-6.447800 0.000000
-6.396000 0.000000
-6.344200 0.000000
-6.292300 0.000000
-6.240500 0.000000
-6.188600 0.000000
-6.136800 0.000000
-6.084900 0.000000
-6.033100 0.000000
-5.981300 0.000000
-5.929400 0.000000
-5.877600 0.000000
-5.825700 0.000000
-5.773900 0.000000
-5.722100 0.000000
-5.670200 0.000000
-5.618400 0.000000
-5.566500 0.000000
-5.514700 0.000000
-5.462900 0.000000
-5.411000 0.000000
-5.359200 0.000000
-5.307300 0.000000
-5.255500 0.000000
-5.203700 0.000000
-5.151800 0.000000
-5.100000 0.000000
-5.048100 0.000000
-4.996300 0.000000
-4.944500 0.000000
-4.892600 0.000000
-4.840800 0.000000
-4.788900 0.000000
-4.737100 0.000000
-4.685300 0.000000
-4.633400 0.000000
-4.581600 0.000000
-4.529700 0.000000
-4.477900 0.000000
-4.426000 0.000000
-4.374200 0.000000
-4.322400 0.000000
-4.270500 0.000000
-4.218700 0.000000
-4.166800 0.000000
-4.115000 0.000000
-4.063200 0.000000
-4.011300 0.000000
-3.959500 0.000000
-3.907600 0.000000
-3.855800 0.000000
-3.804000 0.000000
-3.752100 0.000000
-3.700300 0.000000
-3.648400 0.000000
-3.596600 0.000000
-3.544800 0.000000
-3.492900 0.000000
-3.441100 0.000000
-3.389200 0.000000
-3.337400 0.000000
-3.285600 0.000000
-3.233700 0.000000
-3.181900 0.000000
-3.130000 0.000000
-3.078200 0.000000
-3.026400 0.000000
-2.974500 0.000000
-2.922700 0.000000
-2.870800 0.000000
-2.819000 0.000300
-2.767100 0.015600
-2.715300 0.049400
-2.663500 0.066900
-2.611600 0.071300
-2.559800 0.083400
-2.507900 0.099100
-2.456100 0.113800
-2.404300 0.120800
-2.352400 0.127300
-2.300600 0.137100
-2.248700 0.147200
-2.196900 0.157100
-2.145100 0.167400
-2.093200 0.179700
-2.041400 0.191300
-1.989500 0.201600
-1.937700 0.212500
-1.885900 0.223700
-1.834000 0.234800
-1.782200 0.249200
-1.730300 0.265000
-1.678500 0.280700
-1.626700 0.298400
-1.574800 0.320700
-1.523000 0.344000
-1.471100 0.372900
-1.419300 0.405500
-1.367500 0.461800
-1.315600 0.498800
-1.263800 0.519400
-1.211900 0.564700
-1.160100 0.616500
-1.108200 0.683800
-1.056400 1.120100
-1.004600 1.610000
-0.952700 1.375000
-0.900900 1.274500
-0.849000 1.325900
-0.797200 1.382900
-0.745400 1.482400
-0.693500 1.949200
-0.641700 2.316500
-0.589800 2.721400
-0.538000 3.174600
-0.486200 4.037400
-0.434300 4.485100
-0.382500 5.799400
-0.330600 5.333700
-0.278800 5.097700
-0.227000 5.331900
-0.175100 5.440200
-0.123300 5.437000
-0.071400 5.748100
-0.019600 6.601600
0.032200 5.913100
0.084100 4.341800
0.135900 4.083200
0.187800 4.843500
0.239600 5.019300
0.291400 4.923500
0.343300 4.304800
0.395100 4.375400
0.447000 3.670700
0.498800 4.125100
0.550600 4.830000
0.602500 5.213600
0.654300 5.993700
0.706200 5.752200
0.758000 5.625500
0.809900 5.469400
0.861700 7.046000
0.913500 7.822800
0.965400 7.160100
1.017200 4.436800
1.069100 3.275600
1.120900 3.242900
1.172700 3.064900
1.224600 2.133000
1.276400 1.803300
1.328300 1.684200
1.380100 1.606900
1.431900 1.525100
1.483800 1.460200
1.535600 1.479200
1.587500 1.411400
1.639300 1.010400
1.691100 0.719800
1.743000 0.702900
1.794800 0.698500
1.846700 0.697800
1.898500 0.695300
1.950300 0.701500
2.002200 0.690100
2.054000 0.687300
2.105900 0.682100
2.157700 0.685200
2.209500 0.698000
2.261400 0.713500
2.313200 0.718300
2.365100 0.662600
2.416900 0.598300
2.468800 0.541500
2.520600 0.547700
2.572400 0.554300
2.624300 0.576900
2.676100 0.619300
2.728000 0.625800
2.779800 0.648500
2.831600 0.689300
2.883500 0.738200
2.935300 0.739400
2.987200 0.770000
3.039000 0.795700
3.090800 0.827500
3.142700 0.830300
3.194500 0.849200
3.246400 0.869300
3.298200 0.889100
3.350000 0.856900
3.401900 0.828400
3.453700 0.832100
3.505600 0.856200
3.557400 0.931900
3.609200 0.959600
3.661100 0.992100
3.712900 1.013400
3.764800 1.029700
3.816600 1.108300
3.868400 1.183500
3.920300 1.271500
3.972100 1.387700
4.024000 1.550700
4.075800 1.631700
4.127700 1.682100
4.179500 1.764400
4.231300 1.838900
4.283200 1.791100
4.335000 1.732200
4.386900 1.685700
4.438700 1.706500
4.490500 1.780100
4.542400 1.792100
4.594200 1.835600
4.646100 1.981900
4.697900 2.148900
4.749700 2.038400
4.801600 1.907700
4.853400 1.923400
4.905300 1.949800
4.957100 1.994000
5.008900 2.055200
5.060800 2.221900
5.112600 2.385800
5.164500 2.294200
5.216300 2.140900
5.268100 2.165300
5.320000 2.167000
5.371800 2.226000
5.423700 2.142200
5.475500 2.151400
5.527300 2.093300
5.579200 1.926800
5.631000 1.804500
5.682900 1.614100
5.734700 1.522500
5.786600 1.469600
5.838400 1.450700
5.890200 1.356200
5.942100 1.704700
5.993900 1.903300
6.045800 1.614900
6.097600 1.507500
6.149400 1.390300
6.201300 1.316400
6.253100 1.296800
6.305000 1.283700
6.356800 1.250400
6.408600 1.219500
6.460500 1.185500
6.512300 1.167900
6.564200 1.134600
6.616000 1.083800
6.667800 1.134500
6.719700 1.220500
6.771500 0.913600
6.823400 0.872300
6.875200 0.515200
6.927000 0.432600
6.978900 0.425600
7.030700 0.688300
7.082600 0.930000
7.134400 1.124300
7.186200 1.450200
7.238100 1.735100
7.289900 1.804800
7.341800 1.787200
7.393600 1.695200
7.445500 1.730700
7.497300 1.788800
7.549100 1.839800
7.601000 1.960500
7.652800 1.960900
7.704700 2.060000
7.756500 2.103500
7.808300 2.161600
7.860200 2.268700
7.912000 2.651800
7.963900 2.859000
8.015700 3.079800
8.067500 3.572300
8.119400 2.674100
8.171200 2.643900
8.223100 2.755800
8.274900 2.704300
8.326700 2.688000
8.378600 2.753600
8.430400 2.741800
8.482300 2.651600
8.534100 2.561900
8.585900 2.428900
8.637800 2.260500
8.689600 2.105300
8.741500 1.833100
8.793300 1.633400
8.845100 1.453200
8.897000 1.263600
8.948800 1.066000
9.000700 1.036500
9.052500 1.005200
9.104300 0.948900
9.156200 0.919300
9.208000 0.930900
9.259900 0.931700
9.311700 0.991500
9.363600 1.058300
9.415400 1.206800
9.467200 1.163200
9.519100 1.037200
9.570900 0.827400
9.622800 0.705200
9.674600 0.633000
9.726400 0.590100
9.778300 0.566300
9.830100 0.552100
9.882000 0.540600
9.933800 0.532800
9.985600 0.579900
10.037500 0.617000
10.089300 0.637400
10.141200 0.651300
10.193000 0.666100
10.244800 0.684600
10.296700 0.728100
10.348500 0.774600
10.400400 0.822900
10.452200 0.881400
10.504000 0.931700
10.555900 1.011200
10.607700 1.074300
10.659600 1.110300
10.711400 1.114100
10.763200 1.160600
10.815100 1.275800
10.866900 1.494600
10.918800 1.619100
10.970600 1.639000
11.022500 1.582200
11.074300 1.668700
11.126100 1.605900
11.178000 1.291900
11.229800 1.184300
11.281700 1.107400
11.333500 1.060300
11.385300 1.003500
11.437200 0.979600
11.489000 0.960100
11.540900 0.933800
11.592700 0.952900
11.644500 1.172400
11.696400 1.151900
11.748200 1.085600
11.800100 1.046100
11.851900 1.011300
11.903700 0.976700
11.955600 0.956500
12.007400 0.931400
12.059300 0.906700
12.111100 0.885100
12.162900 0.867100
12.214800 0.851800
12.266600 0.834800
12.318500 0.810000
12.370300 0.777300
12.422100 0.746100
12.474000 0.722300
12.525800 0.697200
12.577700 0.671900
12.629500 0.646600
12.681400 0.614500
12.733200 0.599200
12.785000 0.557900
12.836900 0.520300
12.888700 0.500100
12.940600 0.483700
12.992400 0.465000
13.044200 0.446100
13.096100 0.425400
13.147900 0.407100
13.199800 0.394400
13.251600 0.388500
13.303400 0.387100
13.355300 0.389700
13.407100 0.397700
13.459000 0.454300
13.510800 0.485600
13.562600 0.498900
13.614500 0.525100
13.666300 0.554500
13.718200 0.577200
13.770000 0.596300
13.821800 0.620500
13.873700 0.666100
13.925500 0.765000
13.977400 0.933000
14.029200 1.005200
14.081000 0.942600
14.132900 0.932000
14.184700 0.921000
14.236600 0.886400
14.288400 0.860500
14.340300 0.862700
14.392100 0.862100
14.443900 0.860500
14.495800 0.872100
14.547600 0.894000
14.599500 0.913200
14.651300 0.935200
14.703100 0.939900
14.755000 0.950700
14.806800 0.995500
14.858700 0.953900
14.910500 0.920200
14.962300 0.912800
15.014200 0.910300
15.066000 0.906600
15.117900 0.898000
15.169700 0.897300
15.221500 0.962900
15.273400 1.042500
15.325200 1.102400
15.377100 1.173100
15.428900 1.216300
15.480700 1.136100
15.532600 1.118700
15.584400 1.117300
15.636300 1.112100
15.688100 1.123100
15.739900 1.153300
15.791800 1.159900
15.843600 1.284000
15.895500 1.324700
15.947300 1.276600
15.999200 1.226700
16.051000 1.175100
16.102800 1.137500
16.154700 1.113800
16.206500 1.094800
16.258400 1.076300
16.310200 1.083700
16.362000 1.125900
16.413900 1.145800
16.465700 1.158300
16.517600 1.162800
16.569400 1.170900
16.621200 1.200700
16.673100 1.238500
16.724900 1.271100
16.776800 1.264900
16.828600 1.264200
16.880400 1.266900
16.932300 1.275400
16.984100 1.274000
17.036000 1.244100
17.087800 1.222600
17.139600 1.215500
17.191500 1.223600
17.243300 1.248200
17.295200 1.274800
17.347000 1.256100
17.398800 1.270500
17.450700 1.251300
17.502500 1.277600
17.554400 1.293800
17.606200 1.312300
17.658000 1.377200
17.709900 1.494300
17.761700 1.590100
17.813600 1.592000
17.865400 1.586200
17.917300 1.555400
17.969100 1.532000
18.020900 1.519100
18.072800 1.550700
18.124600 1.578400
18.176500 1.578800
18.228300 1.638600
18.280100 1.576500
18.332000 1.579800
18.383800 1.596700
18.435700 1.635000
18.487500 1.629500
18.539300 1.608000
18.591200 1.588300
18.643000 1.599200
18.694900 1.611400
18.746700 1.669600
18.798500 1.776300
18.850400 1.852600
18.902200 1.828700
18.954100 1.890800
19.005900 1.912600
19.057700 1.880800
19.109600 1.725100
19.161400 1.653500
19.213300 1.556300
19.265100 1.522100
19.316900 1.567300
19.368800 1.700100
19.420600 1.836700
19.472500 1.808100
19.524300 1.767600
19.576200 1.758800
19.628000 1.764800
19.679800 1.760500
19.731700 1.698800
19.783500 1.608600
19.835400 1.554200
19.887200 1.501400
19.939000 1.445600
19.990900 1.469400
20.042700 1.411100
20.094600 1.405200
20.146400 1.395700
20.198200 1.397500
20.250100 1.183300
20.301900 1.084000
20.353800 1.067500
20.405600 1.063200
20.457400 1.078800
20.509300 1.111300
20.561100 1.161100
20.613000 1.203000
20.664800 1.305300
20.716600 1.290500
20.768500 1.283600
20.820300 1.243500
20.872200 1.177600
20.924000 1.085200
20.975800 1.009200
21.027700 1.039700
21.079500 0.929300
21.131400 0.846500
21.183200 0.765100
21.235100 0.928800
21.286900 0.710300
21.338700 0.705200
21.390600 0.698700
21.442400 0.730800
21.494300 0.771200
21.546100 0.848000
21.597900 0.895800
21.649800 0.967400
21.701600 1.014000
21.753500 1.074000
21.805300 1.126900
21.857100 1.186800
21.909000 1.257100
21.960800 1.350200
22.012700 1.483500
22.064500 1.562300
22.116300 1.560100
22.168200 1.548200
22.220000 1.480000
22.271900 1.413400
22.323700 1.306600
22.375500 1.264000
22.427400 1.381000
22.479200 1.596600
22.531100 1.814300
22.582900 1.870800
22.634700 1.654500
22.686600 1.532600
22.738400 1.466700
22.790300 1.481000
22.842100 1.422200
22.894000 1.387700
22.945800 1.378000
22.997600 1.422700
23.049500 1.440700
23.101300 1.458700
23.153200 1.495100
23.205000 1.549900
23.256800 1.623400
23.308700 1.776300
23.360500 1.875400
23.412400 1.924100
23.464200 1.798500
23.516000 1.823800
23.567900 1.722000
23.619700 1.664200
23.671600 1.681600
23.723400 1.741800
23.775200 1.985600
23.827100 1.814200
23.878900 1.706000
23.930800 1.693200
23.982600 1.611600
24.034400 1.516900
24.086300 1.424500
24.138100 1.342800
24.190000 1.277900
24.241800 1.261000
24.293600 1.206600
24.345500 1.089500
24.397300 0.977300
24.449200 0.899100
24.501000 0.817500
24.552900 0.746600
24.604700 0.719900
24.656500 0.682000
24.708400 0.637900
24.760200 0.606800
24.812100 0.577900
24.863900 0.564900
24.915700 0.564900
24.967600 0.579600
25.019400 0.618700
25.071300 0.652000
25.123100 0.717400
25.174900 0.785800
25.226800 0.936800
25.278600 1.096500
25.330500 1.157200
25.382300 1.283500
25.434100 1.365700
25.486000 1.421600
25.537800 1.384700
25.589700 1.319000
25.641500 1.304000
25.693300 1.238700
25.745200 1.236800
25.797000 1.137000
25.848900 1.130400
25.900700 1.120600
25.952500 1.156100
26.004400 1.127800
26.056200 1.141500
26.108100 1.168000
26.159900 1.205300
26.211700 1.282200
26.263600 1.322800
26.315400 1.361800
26.367300 1.398000
26.419100 1.433300
26.471000 1.468100
26.522800 1.487100
26.574600 1.442400
26.626500 1.432400
26.678300 1.434000
26.730200 1.466700
26.782000 1.485300
26.833800 1.513000
26.885700 1.520400
26.937500 1.577400
26.989400 1.587500
27.041200 1.505300
27.093000 1.483700
27.144900 1.434200
27.196700 1.394000
27.248600 1.354800
27.300400 1.307500
27.352200 1.251600
27.404100 1.215900
27.455900 1.178900
27.507800 1.178800
27.559600 1.192100
27.611400 1.228800
27.663300 1.258900
27.715100 1.279900
27.767000 1.281400
27.818800 1.314000
27.870600 1.364300
27.922500 1.376500
27.974300 1.397500
28.026200 1.425900
28.078000 1.501700
28.129900 1.555900
28.181700 1.611700
28.233500 1.663300
28.285400 1.700600
28.337200 1.744500
28.389100 1.799700
28.440900 1.754500
28.492700 1.693800
28.544600 1.676500
28.596400 1.706100
28.648300 1.734300
28.700100 1.718000
28.751900 1.719800
28.803800 1.710000
28.855600 1.690700
28.907500 1.697900
28.959300 1.759600
29.011100 1.906200
29.063000 2.265700
29.114800 2.548300
29.166700 2.511600
29.218500 2.348700
29.270300 2.043800
29.322200 1.854800
29.374000 1.738100
29.425900 1.647100
29.477700 1.588000
29.529500 1.551100
29.581400 1.533000
29.633200 1.682300
29.685100 1.900200
29.736900 2.147300
29.788800 2.419900
29.840600 2.372600
29.892400 2.373500
29.944300 2.292700
29.996100 2.140400
30.048000 2.010700
30.099800 1.873600
30.151600 1.786500
30.203500 1.751400
30.255300 1.731800
30.307200 1.713200
30.359000 1.702400
30.410800 1.785500
30.462700 1.889700
30.514500 1.955300
30.566400 1.997100
30.618200 2.085700
30.670000 2.224400
30.721900 2.273900
30.773700 2.299900
30.825600 2.288700
30.877400 2.154200
30.929200 2.039900
30.981100 2.068500
31.032900 2.072100
31.084800 2.168000
31.136600 2.216200
31.188400 2.232400
31.240300 1.924600
31.292100 1.701600
31.344000 1.478700
31.395800 1.404300
31.447700 1.330000
31.499500 1.266500
31.551300 1.247500
31.603200 1.208900
31.655000 1.201700
31.706900 1.235800
31.758700 1.280700
31.810500 1.347100
31.862400 1.428100
31.914200 1.504300
31.966100 1.625900
32.017900 1.669200
32.069700 1.759700
32.121600 1.845100
32.173400 1.900700
32.225300 2.099800
32.277100 2.052400
32.328900 2.001500
32.380800 1.963600
32.432600 1.902900
32.484500 1.827500
32.536300 1.710100
32.588100 1.627200
32.640000 1.557500
32.691800 1.516000
32.743700 1.494900
32.795500 1.463100
32.847300 1.412900
32.899200 1.371000
32.951000 1.331600
33.002900 1.293500
33.054700 1.282900
33.106600 1.305300
33.158400 1.348000
33.210200 1.385600
33.262100 1.463600
33.313900 1.574600
33.365800 1.784300
33.417600 1.718000
33.469400 1.750000
33.521300 1.777900
33.573100 1.845100
33.625000 1.851800
33.676800 1.894800
33.728600 1.980400
33.780500 1.969500
33.832300 1.976500
33.884200 1.913700
33.936000 1.831800
33.987800 1.740100
34.039700 1.673700
34.091500 1.590700
34.143400 1.529000
34.195200 1.471700
34.247000 1.429400
34.298900 1.405300
34.350700 1.392900
34.402600 1.445300
34.454400 1.437700
34.506200 1.413800
34.558100 1.470400
34.609900 1.508400
34.661800 1.578800
34.713600 1.676400
34.765400 1.652900
34.817300 1.633700
34.869100 1.616400
34.921000 1.589300
34.972800 1.554200
35.024700 1.542700
35.076500 1.581700
35.128300 1.673300
35.180200 1.726600
35.232000 1.708800
35.283900 1.575900
35.335700 1.583900
35.387500 1.583900
35.439400 1.610600
35.491200 1.599000
35.543100 1.599500
35.594900 1.651100
35.646700 1.708900
35.698600 1.737800
35.750400 1.787500
35.802300 1.805900
35.854100 1.778600
35.905900 1.738800
35.957800 1.750000
36.009600 1.747000
36.061500 1.600400
36.113300 1.495600
36.165100 1.480700
36.217000 1.496300
36.268800 1.574700
36.320700 1.709300
36.372500 1.984300
36.424300 2.026900
36.476200 2.024200
36.528000 2.038700
36.579900 2.028500
36.631700 2.018300
36.683600 2.034800
36.735400 2.036000
36.787200 1.983800
36.839100 1.971700
36.890900 2.018200
36.942800 2.110000
36.994600 2.133700
37.046400 2.067000
37.098300 1.968600
37.150100 1.790600
37.202000 1.666600
37.253800 1.660500
37.305600 1.646500
37.357500 1.600800
37.409300 1.589500
37.461200 1.638800
37.513000 1.724400
37.564800 1.827700
37.616700 2.001600
37.668500 2.164200
37.720400 2.231600
37.772200 2.261500
37.824000 2.272100
37.875900 2.263000
37.927700 2.401800
37.979600 2.388600
38.031400 2.235900
38.083200 2.062100
38.135100 1.989700
38.186900 1.938700
38.238800 1.929700
38.290600 1.917600
38.342500 1.906900
38.394300 1.942700
38.446100 1.958000
38.498000 1.946300
38.549800 1.930500
38.601700 1.883300
38.653500 1.873500
38.705300 1.883100
38.757200 1.926600
38.809000 2.020900
38.860900 2.099800
38.912700 2.156000
38.964500 2.196900
39.016400 2.147700
39.068200 2.137100
39.120100 2.111700
39.171900 2.104000
39.223700 2.063600
39.275600 2.034600
39.327400 2.055300
39.379300 2.039600
39.431100 1.996900
39.482900 1.918100
39.534800 1.904300
39.586600 1.813100
39.638500 1.777900
39.690300 1.762700
39.742100 1.772400
39.794000 1.802100
39.845800 1.822500
39.897700 1.929200
39.949500 2.056400
40.001400 2.112100
40.053200 2.132100
40.105000 2.109800
40.156900 2.008000
40.208700 1.819400
40.260600 1.663300
40.312400 1.600700
40.364200 1.614900
40.416100 1.664900
40.467900 1.712300
40.519800 1.793400
40.571600 1.926200
40.623400 2.095200
40.675300 2.254900
40.727100 2.225000
40.779000 2.139900
40.830800 2.059800
40.882600 1.927500
40.934500 1.847600
40.986300 1.784600
41.038200 1.740000
41.090000 1.719900
41.141800 1.621400
41.193700 1.574300
41.245500 1.552300
41.297400 1.633700
41.349200 1.710800
41.401000 1.696300
41.452900 1.670500
41.504700 1.720000
41.556600 1.746000
41.608400 1.718500
41.660300 1.720400
41.712100 1.813600
41.763900 2.018500
41.815800 2.033100
41.867600 2.020400
41.919500 2.017200
41.971300 2.014900
42.023100 2.014100
42.075000 2.045200
42.126800 2.045400
42.178700 1.972400
42.230500 1.977700
42.282300 2.054900
42.334200 2.006500
42.386000 1.985100
42.437900 2.105300
42.489700 2.194300
42.541500 2.267200
42.593400 2.531500
42.645200 2.665400
42.697100 2.631500
42.748900 2.628000
42.800700 2.575000
42.852600 2.507400
42.904400 2.456500
42.956300 2.347300
43.008100 2.261900
43.059900 2.245100
43.111800 2.385700
43.163600 2.249700
43.215500 2.233600
43.267300 2.185100
43.319100 2.188200
43.371000 2.266400
43.422800 2.391300
43.474700 2.544500
43.526500 2.479700
43.578400 2.407300
43.630200 2.376400
43.682000 2.386400
43.733900 2.435000
43.785700 2.416400
43.837600 2.547800
43.889400 2.648100
43.941200 2.732500
43.993100 2.733600
44.044900 2.821500
44.096800 2.776200
44.148600 2.921200
44.200400 3.010900
44.252300 3.051100
44.304100 3.150600
44.356000 2.961300
44.407800 2.715000
44.459600 2.599200
44.511500 2.669400
44.563300 3.102500
44.615200 3.258200
44.667000 2.694200
44.718800 2.698900
44.770700 2.760000
44.822500 2.915000
44.874400 3.017600
44.926200 3.144600
44.978000 3.448900
45.029900 3.578300
45.081700 3.148100
45.133600 2.939700
45.185400 3.023100
45.237300 2.937100
45.289100 2.603600
45.340900 2.464700
45.392800 2.617400
45.444600 2.711900
45.496500 2.699500
45.548300 2.567600
45.600100 2.568300
45.652000 2.506100
45.703800 2.566300
45.755700 2.607600
45.807500 2.856900
45.859300 3.078700
45.911200 3.332200
45.963000 3.483500
46.014900 3.948100
46.066700 3.859100
46.118500 3.789300
46.170400 3.709900
46.222200 3.482400
46.274100 3.224300
46.325900 3.035500
46.377700 3.223900
46.429600 3.397700
46.481400 3.858400
46.533300 4.243300
46.585100 3.995000
46.636900 3.542200
46.688800 3.417300
46.740600 3.262500
46.792500 3.191100
46.844300 3.116400
46.896200 3.028500
46.948000 2.998000
46.999800 3.055700
47.051700 2.925500
47.103500 2.699800
47.155400 2.535000
47.207200 2.420900
47.259000 2.241200
47.310900 2.192600
47.362700 2.206100
47.414600 2.237500
47.466400 2.325700
47.518200 2.312200
47.570100 2.397000
47.621900 2.495100
47.673800 2.520600
47.725600 2.466400
47.777400 2.385000
47.829300 2.271400
47.881100 2.146000
47.933000 2.039700
47.984800 1.947400
48.036600 1.877700
48.088500 1.779100
48.140300 1.668500
48.192200 1.590400
48.244000 1.536600
48.295800 1.496900
48.347700 1.476900
48.399500 1.485400
48.451400 1.482500
48.503200 1.464800
48.555100 1.484600
48.606900 1.485200
48.658700 1.392200
48.710600 1.371200
48.762400 1.428700
48.814300 1.346800
48.866100 1.285300
48.917900 1.300300
48.969800 1.339000
49.021600 1.332000
49.073500 1.278700
49.125300 1.230400
49.177100 1.190800
49.229000 1.156400
49.280800 1.080300
49.332700 1.008200
49.384500 0.956000
49.436300 0.909500
49.488200 0.786000
49.540000 0.678200
49.591900 0.578700
49.643700 0.547500
49.695500 0.520200
49.747400 0.488600
49.799200 0.458500
49.851100 0.426300
49.902900 0.393700
49.954700 0.352700
50.006600 0.323100
50.058400 0.222800
50.110300 0.154000
50.162100 0.114800
50.214000 0.092700
50.265800 0.072700
50.317600 0.067900
50.369500 0.032600
50.421300 0.002100
50.473200 0.000000
50.525000 0.000000
50.576800 0.000000
50.628700 0.000000
50.680500 0.000000
50.732400 0.000000
50.784200 0.000000
50.836000 0.000000
50.887900 0.000000
50.939700 0.000000
50.991600 0.000000
51.043400 0.000000
51.095200 0.000000
51.147100 0.000000
51.198900 0.000000
51.250800 0.000000
51.302600 0.000000
51.354400 0.000000
51.406300 0.000000
51.458100 0.000000
51.510000 0.000000
51.561800 0.000000
51.613600 0.000000
51.665500 0.000000
51.717300 0.000000
51.769200 0.000000
51.821000 0.000000
51.872800 0.000000
51.924700 0.000000
51.976500 0.000000
52.028400 0.000000
52.080200 0.000000
52.132100 0.000000
52.183900 0.000000
52.235700 0.000000
52.287600 0.000000
52.339400 0.000000
52.391300 0.000000
52.443100 0.000000
52.494900 0.000000
52.546800 0.000000
52.598600 0.000000
52.650500 0.000000
52.702300 0.000000
52.754100 0.000000
52.806000 0.000000
52.857800 0.000000
52.909700 0.000000
52.961500 0.000000
53.013300 0.000000
53.065200 0.000000
53.117000 0.000000
53.168900 0.000000
53.220700 0.000000
53.272500 0.000000
53.324400 0.000000
53.376200 0.000000
53.428100 0.000000
53.479900 0.000000
53.531700 0.000000
53.583600 0.000000
53.635400 0.000000
53.687300 0.000000
53.739100 0.000000
53.791000 0.000000
53.842800 0.000000
53.894600 0.000000
53.946500 0.000000
53.998300 0.000000
54.050200 0.000000
54.102000 0.000000
54.153800 0.000000
54.205700 0.000000
54.257500 0.000000
54.309400 0.000000
54.361200 0.000000
54.413000 0.000000
54.464900 0.000000
54.516700 0.000000
54.568600 0.000000
54.620400 0.000000
54.672200 0.000000
54.724100 0.000000
54.775900 0.000000
54.827800 0.000000
54.879600 0.000000
54.931400 0.000000
54.983300 0.000000
55.035100 0.000000
55.087000 0.000000
55.138800 0.000000
55.190600 0.000000
e
