set title 'mp-7135 - Density of States'
set xlabel 'Energy (eV)'
set ylabel 'DOS (states/eV)'
set grid
set xrange [-10:10]
set yrange [0:14.431]
set xzeroaxis lt -1
set terminal png size 800,600
set output 'mp-7135_dos_gnuplot.png'
plot '-' using 1:2 with lines title 'DOS'
-18.710400 0.000000
-18.692900 0.000000
-18.675400 0.000000
-18.657900 0.000000
-18.640400 0.000000
-18.622900 0.000000
-18.605400 0.000000
-18.587900 0.000000
-18.570400 0.000000
-18.552900 0.000000
-18.535400 0.000000
-18.517900 0.000000
-18.500400 0.000000
-18.482900 0.000000
-18.465400 0.000000
-18.447900 0.000000
-18.430400 0.000000
-18.412900 0.000000
-18.395400 0.000000
-18.377800 0.000000
-18.360300 0.000000
-18.342800 0.000000
-18.325300 0.000000
-18.307800 0.000000
-18.290300 0.000000
-18.272800 0.000000
-18.255300 0.000000
-18.237800 0.000000
-18.220300 0.000000
-18.202800 0.000000
-18.185300 0.000000
-18.167800 0.000000
-18.150300 0.000000
-18.132800 0.000000
-18.115300 0.000000
-18.097800 0.000000
-18.080300 0.000000
-18.062800 0.000000
-18.045200 0.000000
-18.027700 0.000000
-18.010200 0.000000
-17.992700 0.000000
-17.975200 0.000000
-17.957700 0.000000
-17.940200 0.000000
-17.922700 0.000000
-17.905200 0.000000
-17.887700 0.000000
-17.870200 0.000000
-17.852700 0.000000
-17.835200 0.000000
-17.817700 0.000000
-17.800200 0.000000
-17.782700 0.000000
-17.765200 0.000000
-17.747700 0.000000
-17.730200 0.000000
-17.712600 0.000000
-17.695100 0.000000
-17.677600 0.000000
-17.660100 0.000000
-17.642600 0.000000
-17.625100 0.000000
-17.607600 0.000000
-17.590100 0.000000
-17.572600 0.000000
-17.555100 0.000000
-17.537600 0.000000
-17.520100 0.000000
-17.502600 0.000000
-17.485100 0.000000
-17.467600 0.000000
-17.450100 0.000000
-17.432600 0.000000
-17.415100 0.000000
-17.397600 0.000000
-17.380000 0.000000
-17.362500 0.000000
-17.345000 0.000000
-17.327500 0.000000
-17.310000 0.000000
-17.292500 0.000000
-17.275000 0.000000
-17.257500 0.000000
-17.240000 0.000000
-17.222500 0.000000
-17.205000 0.000000
-17.187500 0.000000
-17.170000 0.000000
-17.152500 0.000000
-17.135000 0.000000
-17.117500 2.065500
-17.100000 21.729600
-17.082500 26.505600
-17.065000 32.820900
-17.047500 31.741200
-17.029900 40.211000
-17.012400 39.347700
-16.994900 30.289000
-16.977400 28.141500
-16.959900 44.230200
-16.942400 64.916400
-16.924900 92.237100
-16.907400 38.182500
-16.889900 32.411100
-16.872400 39.835000
-16.854900 50.917500
-16.837400 17.414800
-16.819900 0.000000
-16.802400 0.000000
-16.784900 0.000000
-16.767400 0.000000
-16.749900 0.000000
-16.732400 0.000000
-16.714900 0.000000
-16.697300 0.000000
-16.679800 0.000000
-16.662300 0.000000
-16.644800 0.000000
-16.627300 0.000000
-16.609800 0.000000
-16.592300 0.000000
-16.574800 0.000000
-16.557300 0.000000
-16.539800 0.000000
-16.522300 0.000000
-16.504800 0.000000
-16.487300 0.000000
-16.469800 0.000000
-16.452300 0.000000
-16.434800 0.000000
-16.417300 0.000000
-16.399800 0.000000
-16.382300 0.000000
-16.364700 0.000000
-16.347200 0.000000
-16.329700 0.000000
-16.312200 0.000000
-16.294700 0.000000
-16.277200 0.000000
-16.259700 0.000000
-16.242200 0.000000
-16.224700 0.000000
-16.207200 0.000000
-16.189700 0.000000
-16.172200 0.000000
-16.154700 0.000000
-16.137200 0.000000
-16.119700 0.000000
-16.102200 0.000000
-16.084700 0.000000
-16.067200 0.000000
-16.049700 0.000000
-16.032100 0.000000
-16.014600 0.000000
-15.997100 0.000000
-15.979600 0.000000
-15.962100 0.000000
-15.944600 0.000000
-15.927100 0.000000
-15.909600 0.000000
-15.892100 0.000000
-15.874600 0.000000
-15.857100 0.000000
-15.839600 0.000000
-15.822100 0.000000
-15.804600 0.000000
-15.787100 0.000000
-15.769600 0.000000
-15.752100 0.000000
-15.734600 0.000000
-15.717100 0.000000
-15.699500 0.000000
-15.682000 0.000000
-15.664500 0.000000
-15.647000 0.000000
-15.629500 0.000000
-15.612000 0.000000
-15.594500 0.000000
-15.577000 0.000000
-15.559500 0.000000
-15.542000 0.000000
-15.524500 0.000000
-15.507000 0.000000
-15.489500 0.000000
-15.472000 0.000000
-15.454500 0.000000
-15.437000 0.000000
-15.419500 0.000000
-15.402000 0.000000
-15.384500 0.000000
-15.366900 0.000000
-15.349400 0.000000
-15.331900 0.000000
-15.314400 0.000000
-15.296900 0.000000
-15.279400 0.000000
-15.261900 0.000000
-15.244400 0.000000
-15.226900 0.000000
-15.209400 0.000000
-15.191900 0.000000
-15.174400 0.000000
-15.156900 0.000000
-15.139400 0.000000
-15.121900 0.000000
-15.104400 0.000000
-15.086900 0.000000
-15.069400 0.000000
-15.051900 0.000000
-15.034300 0.000000
-15.016800 0.000000
-14.999300 0.000000
-14.981800 0.000000
-14.964300 0.000000
-14.946800 0.000000
-14.929300 0.000000
-14.911800 0.000000
-14.894300 0.000000
-14.876800 0.000000
-14.859300 0.000000
-14.841800 0.000000
-14.824300 0.000000
-14.806800 0.000000
-14.789300 0.000000
-14.771800 0.000000
-14.754300 0.000000
-14.736800 0.000000
-14.719300 0.000000
-14.701800 0.000000
-14.684200 0.000000
-14.666700 0.000000
-14.649200 0.000000
-14.631700 0.000000
-14.614200 0.000000
-14.596700 0.000000
-14.579200 0.000000
-14.561700 0.000000
-14.544200 0.000000
-14.526700 0.000000
-14.509200 0.000000
-14.491700 0.000000
-14.474200 0.000000
-14.456700 0.000000
-14.439200 0.000000
-14.421700 0.000000
-14.404200 0.000000
-14.386700 0.000000
-14.369200 0.000000
-14.351600 0.000000
-14.334100 0.000000
-14.316600 0.000000
-14.299100 0.000000
-14.281600 0.000000
-14.264100 0.000000
-14.246600 0.000000
-14.229100 0.000000
-14.211600 0.000000
-14.194100 0.000000
-14.176600 0.000000
-14.159100 0.000000
-14.141600 0.000000
-14.124100 0.000000
-14.106600 0.000000
-14.089100 0.000000
-14.071600 0.000000
-14.054100 0.000000
-14.036600 0.000000
-14.019000 0.000000
-14.001500 0.000000
-13.984000 0.000000
-13.966500 0.000000
-13.949000 0.000000
-13.931500 0.000000
-13.914000 0.000000
-13.896500 0.000000
-13.879000 0.000000
-13.861500 0.000000
-13.844000 0.000000
-13.826500 0.000000
-13.809000 0.000000
-13.791500 0.000000
-13.774000 0.000000
-13.756500 0.000000
-13.739000 0.000000
-13.721500 0.000000
-13.704000 0.000000
-13.686400 0.000000
-13.668900 0.000000
-13.651400 0.000000
-13.633900 0.000000
-13.616400 0.000000
-13.598900 0.000000
-13.581400 0.000000
-13.563900 0.000000
-13.546400 0.000000
-13.528900 0.000000
-13.511400 0.000000
-13.493900 0.000000
-13.476400 0.000000
-13.458900 0.000000
-13.441400 0.000000
-13.423900 0.000000
-13.406400 0.000000
-13.388900 0.000000
-13.371400 0.000000
-13.353800 0.000000
-13.336300 0.000000
-13.318800 0.000000
-13.301300 0.000000
-13.283800 0.000000
-13.266300 0.000000
-13.248800 0.000000
-13.231300 0.000000
-13.213800 0.000000
-13.196300 0.000000
-13.178800 0.000000
-13.161300 0.000000
-13.143800 0.000000
-13.126300 0.000000
-13.108800 0.000000
-13.091300 0.000000
-13.073800 0.000000
-13.056300 0.000000
-13.038800 0.000000
-13.021200 0.000000
-13.003700 0.000000
-12.986200 0.000000
-12.968700 0.000000
-12.951200 0.000000
-12.933700 0.000000
-12.916200 0.000000
-12.898700 0.000000
-12.881200 0.000000
-12.863700 0.000000
-12.846200 0.000000
-12.828700 0.000000
-12.811200 0.000000
-12.793700 0.000000
-12.776200 0.000000
-12.758700 0.000000
-12.741200 0.000000
-12.723700 0.000000
-12.706200 0.000000
-12.688600 0.000000
-12.671100 0.000000
-12.653600 0.000000
-12.636100 0.000000
-12.618600 0.000000
-12.601100 0.000000
-12.583600 0.000000
-12.566100 0.000000
-12.548600 0.000000
-12.531100 0.000000
-12.513600 0.000000
-12.496100 0.000000
-12.478600 0.000000
-12.461100 0.000000
-12.443600 0.000000
-12.426100 0.000000
-12.408600 0.000000
-12.391100 0.000000
-12.373600 0.000000
-12.356100 0.000000
-12.338500 0.000000
-12.321000 0.000000
-12.303500 0.000000
-12.286000 0.000000
-12.268500 0.000000
-12.251000 0.000000
-12.233500 0.000000
-12.216000 0.000000
-12.198500 0.000000
-12.181000 0.000000
-12.163500 0.000000
-12.146000 0.000000
-12.128500 0.000000
-12.111000 0.000000
-12.093500 0.000000
-12.076000 0.000000
-12.058500 0.000000
-12.041000 0.000000
-12.023500 0.000000
-12.005900 0.000000
-11.988400 0.000000
-11.970900 0.000000
-11.953400 0.000000
-11.935900 0.000000
-11.918400 0.000000
-11.900900 0.000000
-11.883400 0.000000
-11.865900 0.000000
-11.848400 0.000000
-11.830900 0.000000
-11.813400 0.000000
-11.795900 0.000000
-11.778400 0.000000
-11.760900 0.000000
-11.743400 0.000000
-11.725900 0.000000
-11.708400 0.000000
-11.690900 0.000000
-11.673300 0.000000
-11.655800 0.000000
-11.638300 0.000000
-11.620800 0.000000
-11.603300 0.000000
-11.585800 0.000000
-11.568300 0.000000
-11.550800 0.000000
-11.533300 0.000000
-11.515800 0.000000
-11.498300 0.000000
-11.480800 0.000000
-11.463300 0.000000
-11.445800 0.000000
-11.428300 0.000000
-11.410800 0.000000
-11.393300 0.000000
-11.375800 0.000000
-11.358300 0.000000
-11.340700 0.000000
-11.323200 0.000000
-11.305700 0.000000
-11.288200 0.000000
-11.270700 0.000000
-11.253200 0.000000
-11.235700 0.000000
-11.218200 0.000000
-11.200700 0.000000
-11.183200 0.000000
-11.165700 0.000000
-11.148200 0.000000
-11.130700 0.000000
-11.113200 0.000000
-11.095700 0.000000
-11.078200 0.000000
-11.060700 0.000000
-11.043200 0.000000
-11.025700 0.000000
-11.008100 0.000000
-10.990600 0.000000
-10.973100 0.000000
-10.955600 0.000000
-10.938100 0.000000
-10.920600 0.000000
-10.903100 0.000000
-10.885600 0.000000
-10.868100 0.000000
-10.850600 0.000000
-10.833100 0.000000
-10.815600 0.000000
-10.798100 0.000000
-10.780600 0.000000
-10.763100 0.000000
-10.745600 0.000000
-10.728100 0.000000
-10.710600 0.000000
-10.693100 0.000000
-10.675500 0.000000
-10.658000 0.000000
-10.640500 0.000000
-10.623000 0.000000
-10.605500 0.000000
-10.588000 0.000000
-10.570500 0.000000
-10.553000 0.000000
-10.535500 0.000000
-10.518000 0.000000
-10.500500 0.000000
-10.483000 0.000000
-10.465500 0.000000
-10.448000 0.000000
-10.430500 0.000000
-10.413000 0.000000
-10.395500 0.000000
-10.378000 0.000000
-10.360500 0.000000
-10.342900 0.000000
-10.325400 0.000000
-10.307900 0.000000
-10.290400 0.000000
-10.272900 0.000000
-10.255400 0.000000
-10.237900 0.000000
-10.220400 0.000000
-10.202900 0.000000
-10.185400 0.000000
-10.167900 0.000000
-10.150400 0.000000
-10.132900 0.000000
-10.115400 0.000000
-10.097900 0.000000
-10.080400 0.000000
-10.062900 0.000000
-10.045400 0.000000
-10.027900 0.000000
-10.010400 0.000000
-9.992800 0.000000
-9.975300 0.000000
-9.957800 0.000000
-9.940300 0.000000
-9.922800 0.000000
-9.905300 0.000000
-9.887800 0.000000
-9.870300 0.000000
-9.852800 0.000000
-9.835300 0.000000
-9.817800 0.000000
-9.800300 0.000000
-9.782800 0.000000
-9.765300 0.000000
-9.747800 0.000000
-9.730300 0.000000
-9.712800 0.000000
-9.695300 0.000000
-9.677800 0.000000
-9.660200 0.000000
-9.642700 0.000000
-9.625200 0.000000
-9.607700 0.000000
-9.590200 0.000000
-9.572700 0.000000
-9.555200 0.000000
-9.537700 0.000000
-9.520200 0.000000
-9.502700 0.000000
-9.485200 0.000000
-9.467700 0.000000
-9.450200 0.000000
-9.432700 0.000000
-9.415200 0.000000
-9.397700 0.000000
-9.380200 0.000000
-9.362700 0.000000
-9.345200 0.000000
-9.327600 0.000000
-9.310100 0.000000
-9.292600 0.000000
-9.275100 0.030200
-9.257600 0.209500
-9.240100 0.396100
-9.222600 0.483900
-9.205100 0.608500
-9.187600 0.805800
-9.170100 0.860800
-9.152600 0.840000
-9.135100 0.846000
-9.117600 0.855500
-9.100100 0.860200
-9.082600 0.841600
-9.065100 0.826700
-9.047600 0.841000
-9.030100 0.858700
-9.012600 0.879800
-8.995000 0.887900
-8.977500 0.884900
-8.960000 0.883300
-8.942500 0.870500
-8.925000 0.859500
-8.907500 0.861500
-8.890000 0.866300
-8.872500 0.873800
-8.855000 0.883700
-8.837500 0.897000
-8.820000 0.910700
-8.802500 0.921900
-8.785000 0.920200
-8.767500 0.914400
-8.750000 0.903500
-8.732500 0.896600
-8.715000 0.898500
-8.697500 0.902100
-8.680000 0.906800
-8.662400 0.912400
-8.644900 0.919300
-8.627400 0.926300
-8.609900 0.933300
-8.592400 0.940300
-8.574900 0.947700
-8.557400 0.958000
-8.539900 0.960600
-8.522400 0.958200
-8.504900 0.951000
-8.487400 0.949300
-8.469900 0.950300
-8.452400 0.951600
-8.434900 0.953900
-8.417400 0.957300
-8.399900 0.961100
-8.382400 0.966500
-8.364900 0.973500
-8.347400 0.982100
-8.329800 0.990400
-8.312300 0.998300
-8.294800 1.005900
-8.277300 1.013400
-8.259800 1.020500
-8.242300 1.019200
-8.224800 1.012400
-8.207300 1.009400
-8.189800 1.009400
-8.172300 1.013700
-8.154800 1.021300
-8.137300 1.026800
-8.119800 1.032500
-8.102300 1.038200
-8.084800 1.043900
-8.067300 1.049500
-8.049800 1.055200
-8.032300 1.060800
-8.014800 1.066500
-7.997300 1.072200
-7.979700 1.079000
-7.962200 1.089600
-7.944700 1.102100
-7.927200 1.114100
-7.909700 1.115900
-7.892200 1.113200
-7.874700 1.116000
-7.857200 1.119000
-7.839700 1.122800
-7.822200 1.127600
-7.804700 1.132400
-7.787200 1.137300
-7.769700 1.142100
-7.752200 1.159500
-7.734700 1.173400
-7.717200 1.183700
-7.699700 1.194000
-7.682200 1.204300
-7.664700 1.214500
-7.647100 1.224500
-7.629600 1.233400
-7.612100 1.242200
-7.594600 1.251000
-7.577100 1.261300
-7.559600 1.281800
-7.542100 1.295300
-7.524600 1.312400
-7.507100 1.324800
-7.489600 1.336100
-7.472100 1.347900
-7.454600 1.359800
-7.437100 1.371800
-7.419600 1.384000
-7.402100 1.396300
-7.384600 1.434400
-7.367100 1.477700
-7.349600 1.585300
-7.332100 1.770600
-7.314500 1.830800
-7.297000 1.914600
-7.279500 2.022500
-7.262000 2.123800
-7.244500 2.255200
-7.227000 2.403600
-7.209500 2.559500
-7.192000 2.704100
-7.174500 2.848500
-7.157000 3.042100
-7.139500 3.950400
-7.122000 3.422100
-7.104500 3.279700
-7.087000 3.117200
-7.069500 3.090300
-7.052000 3.167600
-7.034500 2.927600
-7.017000 2.912400
-6.999500 2.899700
-6.981900 2.885000
-6.964400 2.859700
-6.946900 2.832900
-6.929400 2.818600
-6.911900 2.823700
-6.894400 2.856500
-6.876900 2.885200
-6.859400 2.924800
-6.841900 2.963100
-6.824400 2.940200
-6.806900 3.429700
-6.789400 4.111200
-6.771900 5.907100
-6.754400 5.662100
-6.736900 4.380400
-6.719400 3.394400
-6.701900 2.353900
-6.684400 1.699800
-6.666900 1.150900
-6.649300 0.488000
-6.631800 0.241900
-6.614300 1.432500
-6.596800 3.491400
-6.579300 5.602300
-6.561800 13.021600
-6.544300 11.386700
-6.526800 8.792500
-6.509300 8.520000
-6.491800 7.970300
-6.474300 7.924500
-6.456800 7.928300
-6.439300 8.029200
-6.421800 8.547200
-6.404300 8.885900
-6.386800 9.375400
-6.369300 10.276000
-6.351800 12.708300
-6.334300 13.118900
-6.316700 11.832400
-6.299200 10.405000
-6.281700 7.582900
-6.264200 8.578500
-6.246700 1.983500
-6.229200 1.167400
-6.211700 1.115500
-6.194200 1.063500
-6.176700 1.011600
-6.159200 0.959600
-6.141700 0.890300
-6.124200 0.868900
-6.106700 0.847500
-6.089200 0.826000
-6.071700 0.804600
-6.054200 0.783200
-6.036700 0.761500
-6.019200 0.738500
-6.001700 0.715400
-5.984100 0.692400
-5.966600 0.662600
-5.949100 0.631600
-5.931600 0.617600
-5.914100 0.604100
-5.896600 0.597800
-5.879100 0.591500
-5.861600 0.585200
-5.844100 0.578800
-5.826600 0.572500
-5.809100 0.566200
-5.791600 0.559800
-5.774100 0.553500
-5.756600 0.547200
-5.739100 0.519500
-5.721600 0.518800
-5.704100 0.518200
-5.686600 0.517500
-5.669100 0.516900
-5.651600 0.516300
-5.634000 0.516800
-5.616500 0.526300
-5.599000 0.533300
-5.581500 0.520300
-5.564000 0.507300
-5.546500 0.494300
-5.529000 0.481300
-5.511500 0.468300
-5.494000 0.463100
-5.476500 0.458400
-5.459000 0.453600
-5.441500 0.448800
-5.424000 0.444100
-5.406500 0.439300
-5.389000 0.434600
-5.371500 0.429800
-5.354000 0.424900
-5.336500 0.449400
-5.319000 0.474000
-5.301400 0.464000
-5.283900 0.444900
-5.266400 0.425700
-5.248900 0.406600
-5.231400 0.387500
-5.213900 0.368300
-5.196400 0.349200
-5.178900 0.366200
-5.161400 0.411900
-5.143900 0.457600
-5.126400 0.476300
-5.108900 0.347700
-5.091400 0.219000
-5.073900 0.090400
-5.056400 0.000000
-5.038900 0.000000
-5.021400 0.000000
-5.003900 0.000000
-4.986400 0.000000
-4.968800 0.000000
-4.951300 0.000000
-4.933800 0.000000
-4.916300 0.000000
-4.898800 0.000000
-4.881300 0.000000
-4.863800 0.000000
-4.846300 0.000000
-4.828800 0.000000
-4.811300 0.000000
-4.793800 0.000000
-4.776300 0.000000
-4.758800 0.000000
-4.741300 0.000000
-4.723800 0.000000
-4.706300 0.000000
-4.688800 0.000000
-4.671300 0.000000
-4.653800 0.000000
-4.636200 0.000000
-4.618700 0.000000
-4.601200 0.000000
-4.583700 0.000000
-4.566200 0.000000
-4.548700 0.000000
-4.531200 0.000000
-4.513700 0.000000
-4.496200 0.000000
-4.478700 0.000000
-4.461200 0.000000
-4.443700 0.000000
-4.426200 0.000000
-4.408700 0.000000
-4.391200 0.000000
-4.373700 0.000000
-4.356200 0.000000
-4.338700 0.000000
-4.321200 0.000000
-4.303600 0.000000
-4.286100 0.000000
-4.268600 0.000000
-4.251100 0.000000
-4.233600 0.000000
-4.216100 0.000000
-4.198600 0.000000
-4.181100 0.000000
-4.163600 0.000000
-4.146100 0.000000
-4.128600 0.000000
-4.111100 0.000000
-4.093600 0.000000
-4.076100 0.000000
-4.058600 0.000000
-4.041100 0.000000
-4.023600 0.000000
-4.006100 0.000000
-3.988600 0.000000
-3.971000 0.000000
-3.953500 0.000000
-3.936000 0.000000
-3.918500 0.000000
-3.901000 0.000000
-3.883500 0.000000
-3.866000 0.000000
-3.848500 0.000000
-3.831000 0.000000
-3.813500 0.000000
-3.796000 0.000000
-3.778500 0.000000
-3.761000 0.000000
-3.743500 0.000000
-3.726000 0.000000
-3.708500 0.000000
-3.691000 0.000000
-3.673500 0.000000
-3.656000 0.000000
-3.638400 0.000000
-3.620900 0.000000
-3.603400 0.000000
-3.585900 0.000000
-3.568400 0.000000
-3.550900 0.000000
-3.533400 0.000000
-3.515900 0.000000
-3.498400 0.000000
-3.480900 0.000000
-3.463400 0.000000
-3.445900 0.000000
-3.428400 0.000000
-3.410900 0.000000
-3.393400 0.000000
-3.375900 0.000000
-3.358400 0.000000
-3.340900 0.000000
-3.323400 0.000000
-3.305900 0.000000
-3.288300 0.000000
-3.270800 0.000000
-3.253300 0.000000
-3.235800 0.000000
-3.218300 0.000000
-3.200800 0.000000
-3.183300 0.000000
-3.165800 0.000000
-3.148300 0.000000
-3.130800 0.000000
-3.113300 0.000000
-3.095800 0.000000
-3.078300 0.000000
-3.060800 0.000000
-3.043300 0.000000
-3.025800 0.000000
-3.008300 0.000000
-2.990800 0.000000
-2.973300 0.000000
-2.955700 0.000000
-2.938200 0.000000
-2.920700 0.000000
-2.903200 0.000000
-2.885700 0.000000
-2.868200 0.000000
-2.850700 0.000000
-2.833200 0.000000
-2.815700 0.000000
-2.798200 0.000000
-2.780700 0.000000
-2.763200 0.000000
-2.745700 0.000000
-2.728200 0.000000
-2.710700 0.000000
-2.693200 0.000000
-2.675700 0.000000
-2.658200 0.000000
-2.640700 0.000000
-2.623100 0.000000
-2.605600 0.000000
-2.588100 0.000000
-2.570600 0.000000
-2.553100 0.000000
-2.535600 0.000000
-2.518100 0.000000
-2.500600 0.000000
-2.483100 0.000000
-2.465600 0.000000
-2.448100 0.000000
-2.430600 0.000000
-2.413100 0.000000
-2.395600 0.000000
-2.378100 0.000000
-2.360600 0.000000
-2.343100 0.000000
-2.325600 0.000000
-2.308100 0.000000
-2.290500 0.000000
-2.273000 0.000000
-2.255500 0.000000
-2.238000 0.000000
-2.220500 0.000000
-2.203000 0.000000
-2.185500 0.000000
-2.168000 0.000000
-2.150500 0.000000
-2.133000 0.000000
-2.115500 0.000000
-2.098000 0.000000
-2.080500 0.000000
-2.063000 0.000000
-2.045500 0.000000
-2.028000 0.000000
-2.010500 0.000000
-1.993000 0.000000
-1.975500 0.000000
-1.957900 0.000000
-1.940400 0.000000
-1.922900 0.000000
-1.905400 0.000000
-1.887900 0.000000
-1.870400 0.000000
-1.852900 0.000000
-1.835400 0.000000
-1.817900 0.000000
-1.800400 0.000000
-1.782900 0.000000
-1.765400 0.000000
-1.747900 0.000000
-1.730400 0.000000
-1.712900 0.000000
-1.695400 0.000000
-1.677900 0.000000
-1.660400 0.000000
-1.642900 0.000000
-1.625300 0.000000
-1.607800 0.000000
-1.590300 0.000000
-1.572800 0.000000
-1.555300 0.000000
-1.537800 0.000000
-1.520300 0.000000
-1.502800 0.000000
-1.485300 0.000000
-1.467800 0.000000
-1.450300 0.000000
-1.432800 0.000000
-1.415300 0.000000
-1.397800 0.000000
-1.380300 0.000000
-1.362800 0.000000
-1.345300 0.000000
-1.327800 0.000000
-1.310300 0.000000
-1.292700 0.000000
-1.275200 0.000000
-1.257700 0.000000
-1.240200 0.000000
-1.222700 0.000000
-1.205200 0.000000
-1.187700 0.000000
-1.170200 0.000000
-1.152700 0.000000
-1.135200 0.000000
-1.117700 0.000000
-1.100200 0.000000
-1.082700 0.000000
-1.065200 0.000000
-1.047700 0.000000
-1.030200 0.000000
-1.012700 0.000000
-0.995200 0.000000
-0.977700 0.000000
-0.960200 0.028900
-0.942600 0.136800
-0.925100 0.278200
-0.907600 0.456200
-0.890100 0.490600
-0.872600 0.573000
-0.855100 0.647100
-0.837600 0.735700
-0.820100 0.834400
-0.802600 0.955700
-0.785100 1.049300
-0.767600 1.107000
-0.750100 1.072200
-0.732600 1.049900
-0.715100 1.106100
-0.697600 1.136400
-0.680100 1.122000
-0.662600 1.053600
-0.645100 1.050900
-0.627600 1.046200
-0.610000 1.044500
-0.592500 1.046400
-0.575000 1.047300
-0.557500 1.051000
-0.540000 1.066100
-0.522500 1.075300
-0.505000 1.064400
-0.487500 1.053300
-0.470000 1.065100
-0.452500 1.067000
-0.435000 1.067300
-0.417500 1.066500
-0.400000 1.063600
-0.382500 1.060900
-0.365000 1.061900
-0.347500 1.063600
-0.330000 1.065900
-0.312500 1.071700
-0.295000 1.073800
-0.277400 1.068800
-0.259900 1.059500
-0.242400 1.055400
-0.224900 1.057500
-0.207400 1.065000
-0.189900 1.076200
-0.172400 1.087800
-0.154900 1.100400
-0.137400 1.108900
-0.119900 1.116200
-0.102400 1.122100
-0.084900 1.127100
-0.067400 1.132100
-0.049900 1.136100
-0.032400 1.142000
-0.014900 1.152300
0.002600 1.167700
0.020100 1.183600
0.037600 1.194600
0.055200 1.209100
0.072700 1.225300
0.090200 1.243400
0.107700 1.265600
0.125200 1.401200
0.142700 1.601800
0.160200 1.849000
0.177700 2.099800
0.195200 2.337300
0.212700 2.540900
0.230200 2.829800
0.247700 3.224600
0.265200 3.769800
0.282700 3.963200
0.300200 3.777500
0.317700 3.858800
0.335200 3.919600
0.352700 5.633400
0.370200 5.506000
0.387800 3.223300
0.405300 2.863300
0.422800 2.770300
0.440300 2.676700
0.457800 2.687700
0.475300 2.670700
0.492800 2.656100
0.510300 2.676700
0.527800 2.758500
0.545300 2.900100
0.562800 3.081900
0.580300 3.312500
0.597800 3.564500
0.615300 3.549000
0.632800 3.561400
0.650300 3.606400
0.667800 3.764200
0.685300 3.929200
0.702800 4.142100
0.720400 4.288700
0.737900 4.209600
0.755400 3.871400
0.772900 3.759800
0.790400 3.773800
0.807900 3.956800
0.825400 3.372900
0.842900 3.231900
0.860400 3.644200
0.877900 3.182800
0.895400 3.077400
0.912900 2.806800
0.930400 2.710400
0.947900 2.577800
0.965400 2.480500
0.982900 2.415100
1.000400 2.406900
1.017900 2.441100
1.035400 2.518600
1.053000 2.635300
1.070500 2.632300
1.088000 2.528700
1.105500 2.684900
1.123000 3.042900
1.140500 3.451700
1.158000 3.786600
1.175500 3.983400
1.193000 4.215600
1.210500 4.380000
1.228000 4.472100
1.245500 4.571500
1.263000 4.622000
1.280500 4.724200
1.298000 4.780100
1.315500 4.876700
1.333000 5.093100
1.350500 5.420300
1.368000 5.969100
1.385500 7.173200
1.403100 5.594400
1.420600 4.688000
1.438100 3.801200
1.455600 3.389800
1.473100 3.283100
1.490600 3.182100
1.508100 3.065900
1.525600 2.959200
1.543100 2.738400
1.560600 2.676700
1.578100 2.682900
1.595600 2.734000
1.613100 2.784500
1.630600 2.879900
1.648100 3.414300
1.665600 3.688700
1.683100 3.494600
1.700600 3.625100
1.718100 3.860600
1.735700 4.096700
1.753200 4.199800
1.770700 4.349800
1.788200 4.471400
1.805700 4.659300
1.823200 4.757600
1.840700 4.864600
1.858200 5.080100
1.875700 5.474800
1.893200 6.048700
1.910700 6.259100
1.928200 6.504500
1.945700 6.548600
1.963200 6.455300
1.980700 6.395600
1.998200 6.533900
2.015700 6.678700
2.033200 6.798500
2.050700 6.872100
2.068300 6.219100
2.085800 6.167700
2.103300 5.742300
2.120800 4.998600
2.138300 4.833500
2.155800 4.721700
2.173300 4.517900
2.190800 4.444400
2.208300 4.406900
2.225800 4.429700
2.243300 4.471600
2.260800 5.165500
2.278300 5.157500
2.295800 5.194600
2.313300 5.465700
2.330800 5.559000
2.348300 5.596900
2.365800 5.614200
2.383300 5.929200
2.400900 5.601700
2.418400 5.096400
2.435900 4.714700
2.453400 4.468700
2.470900 4.375700
2.488400 4.309000
2.505900 4.509200
2.523400 4.547400
2.540900 4.655800
2.558400 5.145800
2.575900 5.774500
2.593400 6.038400
2.610900 6.696000
2.628400 6.891800
2.645900 7.008000
2.663400 6.081500
2.680900 4.188400
2.698400 4.069900
2.715900 4.334100
2.733500 4.761600
2.751000 5.630000
2.768500 6.323100
2.786000 6.947300
2.803500 7.370000
2.821000 7.758500
2.838500 8.024800
2.856000 7.859100
2.873500 7.798100
2.891000 7.670700
2.908500 7.380800
2.926000 7.287400
2.943500 7.387000
2.961000 7.559100
2.978500 8.052800
2.996000 8.420800
3.013500 8.313400
3.031000 8.089100
3.048500 7.805400
3.066100 7.955300
3.083600 7.640300
3.101100 6.206600
3.118600 5.291200
3.136100 4.579500
3.153600 4.467600
3.171100 4.374100
3.188600 4.296000
3.206100 4.093800
3.223600 4.034500
3.241100 4.089200
3.258600 4.419400
3.276100 4.189000
3.293600 4.270100
3.311100 4.818700
3.328600 5.257200
3.346100 5.675400
3.363600 6.089800
3.381100 6.634000
3.398700 7.259900
3.416200 7.794700
3.433700 8.181100
3.451200 7.603500
3.468700 8.099900
3.486200 8.759200
3.503700 7.975400
3.521200 7.208800
3.538700 6.915500
3.556200 6.723900
3.573700 5.563400
3.591200 5.247100
3.608700 4.878400
3.626200 4.633000
3.643700 4.651000
3.661200 4.584200
3.678700 4.526400
3.696200 4.500700
3.713700 4.524800
3.731200 4.520300
3.748800 4.525700
3.766300 4.546800
3.783800 4.611600
3.801300 4.775200
3.818800 4.869200
3.836300 4.820800
3.853800 4.760900
3.871300 4.562100
3.888800 4.250500
3.906300 4.033600
3.923800 3.742700
3.941300 3.248800
3.958800 2.569400
3.976300 2.030700
3.993800 2.031800
4.011300 2.080600
4.028800 2.158500
4.046300 2.296400
4.063800 2.435200
4.081400 2.578100
4.098900 2.813300
4.116400 2.921600
4.133900 3.142800
4.151400 3.249500
4.168900 3.304700
4.186400 3.288200
4.203900 3.283500
4.221400 3.269400
4.238900 3.260900
4.256400 3.212400
4.273900 3.338100
4.291400 3.318600
4.308900 3.230600
4.326400 2.956200
4.343900 2.548300
4.361400 2.278100
4.378900 2.126300
4.396400 2.057800
4.414000 2.009300
4.431500 1.964400
4.449000 1.914100
4.466500 1.856100
4.484000 1.811900
4.501500 1.765900
4.519000 1.740500
4.536500 1.714300
4.554000 1.684000
4.571500 1.652300
4.589000 1.622000
4.606500 1.595300
4.624000 1.573000
4.641500 1.551100
4.659000 1.533600
4.676500 1.552000
4.694000 1.526100
4.711500 1.488800
4.729000 1.458100
4.746600 1.432500
4.764100 1.402900
4.781600 1.358500
4.799100 1.297700
4.816600 1.233500
4.834100 1.151600
4.851600 0.986900
4.869100 0.982800
4.886600 0.978900
4.904100 0.975100
4.921600 0.971500
4.939100 0.968100
4.956600 0.964700
4.974100 0.961200
4.991600 0.957500
5.009100 0.952800
5.026600 0.947000
5.044100 0.940000
5.061600 0.930500
5.079200 0.919000
5.096700 0.905300
5.114200 0.891200
5.131700 0.883300
5.149200 0.881200
5.166700 0.880700
5.184200 0.880300
5.201700 0.879900
5.219200 0.879700
5.236700 0.879600
5.254200 0.879900
5.271700 0.880200
5.289200 0.880600
5.306700 0.881000
5.324200 0.881500
5.341700 0.882000
5.359200 0.882400
5.376700 0.882600
5.394200 0.882600
5.411800 0.882600
5.429300 0.880900
5.446800 0.878300
5.464300 0.876200
5.481800 0.874600
5.499300 0.874900
5.516800 0.875500
5.534300 0.876000
5.551800 0.876600
5.569300 0.877200
5.586800 0.877800
5.604300 0.884800
5.621800 0.891600
5.639300 0.899000
5.656800 0.904200
5.674300 0.908700
5.691800 0.913500
5.709300 0.920200
5.726800 0.929000
5.744300 0.939900
5.761900 0.952200
5.779400 0.967200
5.796900 0.984000
5.814400 1.002700
5.831900 1.020300
5.849400 1.033800
5.866900 1.043200
5.884400 1.048400
5.901900 1.049800
5.919400 1.050500
5.936900 1.050900
5.954400 1.050800
5.971900 1.050300
5.989400 1.049800
6.006900 1.050700
6.024400 1.051300
6.041900 1.046000
6.059400 1.034600
6.076900 1.018200
6.094500 1.057100
6.112000 1.050900
6.129500 1.059600
6.147000 1.090100
6.164500 1.123000
6.182000 1.153400
6.199500 1.196700
6.217000 1.227400
6.234500 1.251200
6.252000 1.276500
6.269500 1.282300
6.287000 1.288900
6.304500 1.296600
6.322000 1.307500
6.339500 1.298400
6.357000 1.318700
6.374500 1.337400
6.392000 1.354200
6.409500 1.376500
6.427100 1.415600
6.444600 1.554200
6.462100 1.896900
6.479600 1.857300
6.497100 1.838900
6.514600 1.875900
6.532100 1.871400
6.549600 1.790500
6.567100 1.702500
6.584600 1.581400
6.602100 1.496000
6.619600 1.454600
6.637100 1.452000
6.654600 1.446500
6.672100 1.443300
6.689600 1.420900
6.707100 1.529800
6.724600 1.438700
6.742100 1.316500
6.759700 1.291300
6.777200 1.280500
6.794700 1.270800
6.812200 1.262600
6.829700 1.254900
6.847200 1.247600
6.864700 1.240300
6.882200 1.233000
6.899700 1.225600
6.917200 1.220300
6.934700 1.367500
6.952200 1.186500
6.969700 1.178400
6.987200 1.170600
7.004700 1.163300
7.022200 1.156500
7.039700 1.150200
7.057200 1.144200
7.074700 1.138300
7.092300 1.132300
7.109800 1.126500
7.127300 1.120800
7.144800 1.115200
7.162300 1.109800
7.179800 1.101800
7.197300 1.096900
7.214800 1.092000
7.232300 1.087300
7.249800 1.082600
7.267300 1.077900
7.284800 1.073300
7.302300 1.068700
7.319800 1.064100
7.337300 1.062600
7.354800 1.066100
7.372300 1.069800
7.389800 1.073800
7.407300 1.496900
7.424900 1.413300
7.442400 1.412100
7.459900 1.407200
7.477400 1.423800
7.494900 1.439700
7.512400 1.413500
7.529900 1.417600
7.547400 1.426500
7.564900 1.446100
7.582400 1.859300
7.599900 1.738900
7.617400 1.535200
7.634900 1.540600
7.652400 1.551500
7.669900 1.571000
7.687400 2.022600
7.704900 1.957000
7.722400 1.872400
7.739900 1.791900
7.757500 1.715000
7.775000 1.643600
7.792500 1.578100
7.810000 1.519600
7.827500 1.596700
7.845000 1.635200
7.862500 1.617700
7.880000 1.601800
7.897500 1.463400
7.915000 1.549600
7.932500 1.868200
7.950000 2.302000
7.967500 2.689200
7.985000 2.882700
8.002500 2.966100
8.020000 3.028700
8.037500 3.068900
8.055000 3.168700
8.072500 3.325000
8.090000 3.540500
8.107600 3.618700
8.125100 3.633600
8.142600 3.576900
8.160100 3.490600
8.177600 3.516900
8.195100 3.639300
8.212600 3.877100
8.230100 3.916000
8.247600 4.248200
8.265100 4.768000
8.282600 5.397700
8.300100 6.173600
8.317600 7.153200
8.335100 7.463200
8.352600 7.678000
8.370100 7.752900
8.387600 7.797600
8.405100 7.966500
8.422600 7.674800
8.440200 7.189800
8.457700 7.226600
8.475200 7.360700
8.492700 7.569600
8.510200 7.916400
8.527700 8.565000
8.545200 8.506600
8.562700 7.618200
8.580200 6.209100
8.597700 5.292700
8.615200 4.722900
8.632700 4.509200
8.650200 4.304300
8.667700 4.134800
8.685200 4.129200
8.702700 3.988100
8.720200 4.009900
8.737700 3.884500
8.755200 3.930500
8.772800 3.894700
8.790300 3.936800
8.807800 4.061400
8.825300 4.583200
8.842800 4.141800
8.860300 4.016800
8.877800 3.943200
8.895300 4.064400
8.912800 4.089100
8.930300 4.077300
8.947800 4.100800
8.965300 4.170400
8.982800 4.427900
9.000300 4.435200
9.017800 4.536800
9.035300 4.704800
9.052800 4.914500
9.070300 5.151000
9.087800 5.341000
9.105400 5.361600
9.122900 5.370300
9.140400 5.450900
9.157900 5.498000
9.175400 5.492700
9.192900 5.520300
9.210400 5.750500
9.227900 5.834300
9.245400 5.908600
9.262900 6.020800
9.280400 6.140900
9.297900 6.541800
9.315400 6.978800
9.332900 7.122300
9.350400 6.385500
9.367900 6.519200
9.385400 6.539700
9.402900 6.662800
9.420400 6.793400
9.438000 6.757900
9.455500 6.645100
9.473000 6.332500
9.490500 5.880100
9.508000 5.692900
9.525500 6.100700
9.543000 6.739100
9.560500 7.320600
9.578000 7.161500
9.595500 6.937400
9.613000 6.220000
9.630500 5.591700
9.648000 5.440100
9.665500 5.319000
9.683000 5.309100
9.700500 5.267400
9.718000 5.242200
9.735500 5.073500
9.753000 5.022400
9.770600 4.980700
9.788100 4.954500
9.805600 4.908100
9.823100 4.919200
9.840600 4.570800
9.858100 4.443200
9.875600 4.329000
9.893100 4.409300
9.910600 4.255900
9.928100 4.173600
9.945600 4.176900
9.963100 4.193000
9.980600 4.166300
9.998100 4.102100
10.015600 4.096300
10.033100 4.219500
10.050600 4.437600
10.068100 4.651200
10.085600 5.119500
10.103200 5.491000
10.120700 5.840500
10.138200 5.657600
10.155700 5.939600
10.173200 5.826500
10.190700 6.900600
10.208200 6.127700
10.225700 5.740700
10.243200 5.529100
10.260700 5.524300
10.278200 5.596700
10.295700 5.586400
10.313200 5.622400
10.330700 5.752800
10.348200 5.806400
10.365700 6.028200
10.383200 6.459300
10.400700 7.177300
10.418200 8.144500
10.435700 8.668600
10.453300 8.646300
10.470800 8.260100
10.488300 8.248700
10.505800 8.167900
10.523300 7.981400
10.540800 8.191100
10.558300 8.186400
10.575800 8.960800
10.593300 9.669200
10.610800 8.386400
10.628300 7.567200
10.645800 7.073300
10.663300 6.516600
10.680800 6.065900
10.698300 5.624200
10.715800 5.230100
10.733300 5.072700
10.750800 4.996500
10.768300 4.896900
10.785900 4.894600
10.803400 4.831100
10.820900 4.743500
10.838400 4.615500
10.855900 4.550800
10.873400 4.523600
10.890900 4.495800
10.908400 4.518300
10.925900 4.514400
10.943400 4.470700
10.960900 4.488500
10.978400 4.517900
10.995900 4.603600
11.013400 5.290400
11.030900 4.727100
11.048400 4.345700
11.065900 4.441900
11.083400 4.351900
11.100900 4.403800
11.118500 4.360400
11.136000 4.456700
11.153500 4.658900
11.171000 4.903000
11.188500 5.024200
11.206000 5.162200
11.223500 5.345600
11.241000 5.313100
11.258500 5.313200
11.276000 5.306900
11.293500 5.290100
11.311000 5.206700
11.328500 5.122400
11.346000 4.853600
11.363500 4.752900
11.381000 4.746500
11.398500 4.871000
11.416000 4.996600
11.433500 4.566400
11.451100 4.465500
11.468600 4.333100
11.486100 4.389200
11.503600 4.460100
11.521100 4.498900
11.538600 4.524400
11.556100 4.526800
11.573600 4.391200
11.591100 4.453500
11.608600 4.420300
11.626100 4.342000
11.643600 4.209900
11.661100 4.076900
11.678600 3.924100
11.696100 3.686200
11.713600 3.627400
11.731100 3.525400
11.748600 3.523000
11.766100 3.426200
11.783700 3.353600
11.801200 3.323300
11.818700 3.254400
11.836200 3.177200
11.853700 3.119800
11.871200 3.081600
11.888700 3.109700
11.906200 2.995400
11.923700 2.912200
11.941200 2.784800
11.958700 2.715300
11.976200 2.665200
11.993700 2.642200
12.011200 2.641900
12.028700 2.604600
12.046200 2.637800
12.063700 2.637300
12.081200 2.502800
12.098700 2.523000
12.116300 2.602900
12.133800 2.791800
12.151300 3.005800
12.168800 3.132300
12.186300 3.158600
12.203800 3.198900
12.221300 3.197100
12.238800 2.584100
12.256300 2.111900
12.273800 2.023800
12.291300 1.939500
12.308800 1.867300
12.326300 1.801700
12.343800 1.715800
12.361300 1.661000
12.378800 1.597600
12.396300 1.558900
12.413800 1.523500
12.431300 1.492000
12.448900 1.461200
12.466400 1.430700
12.483900 1.403900
12.501400 1.382400
12.518900 1.359800
12.536400 1.336600
12.553900 1.310300
12.571400 1.290700
12.588900 1.260600
12.606400 1.246900
12.623900 1.254800
12.641400 1.268100
12.658900 1.291900
12.676400 1.332300
12.693900 1.353300
12.711400 1.367600
12.728900 1.393900
12.746400 1.428200
12.763900 1.473300
12.781400 1.532100
12.799000 1.595800
12.816500 1.661300
12.834000 1.735400
12.851500 1.822800
12.869000 1.920100
12.886500 2.022100
12.904000 2.137800
12.921500 2.186100
12.939000 2.283200
12.956500 2.494300
12.974000 2.610600
12.991500 2.611000
13.009000 2.583200
13.026500 2.533700
13.044000 2.453200
13.061500 2.354500
13.079000 2.286300
13.096500 2.200500
13.114000 2.029400
13.131600 1.941100
13.149100 1.900600
13.166600 1.884200
13.184100 1.871700
13.201600 1.897100
13.219100 2.235400
13.236600 2.475300
13.254100 2.419100
13.271600 2.245800
13.289100 2.086100
13.306600 2.112700
13.324100 2.208300
13.341600 2.354200
13.359100 2.481800
13.376600 2.572900
13.394100 2.673600
13.411600 2.771600
13.429100 2.875300
13.446600 2.990900
13.464200 3.142500
13.481700 3.342800
13.499200 3.350100
13.516700 3.591700
13.534200 3.686100
13.551700 3.753200
13.569200 3.821600
13.586700 3.867000
13.604200 3.921600
13.621700 3.896100
13.639200 3.868300
13.656700 3.786000
13.674200 3.657200
13.691700 3.524200
13.709200 3.390900
13.726700 3.254500
13.744200 3.119200
13.761700 3.038800
13.779200 3.008000
13.796800 3.033700
13.814300 3.073300
13.831800 3.110200
13.849300 3.135700
13.866800 3.121100
13.884300 3.104500
13.901800 3.100100
13.919300 3.144200
13.936800 3.616800
13.954300 3.925000
13.971800 4.226100
13.989300 4.225000
14.006800 4.118600
14.024300 3.874100
14.041800 3.809100
14.059300 3.827700
14.076800 3.646300
14.094300 3.487200
14.111800 3.354600
14.129400 3.272000
14.146900 3.258100
14.164400 3.298500
14.181900 3.291100
14.199400 3.236700
14.216900 3.160800
14.234400 3.065800
14.251900 2.713000
14.269400 2.047300
14.286900 1.588500
14.304400 1.223800
14.321900 1.008100
14.339400 0.840700
14.356900 0.725700
14.374400 0.631000
14.391900 0.553300
14.409400 0.483600
14.426900 0.403600
14.444400 0.386400
14.462000 0.248900
14.479500 0.220600
14.497000 0.194300
14.514500 0.180600
14.532000 0.167500
14.549500 0.154700
14.567000 0.142200
14.584500 0.130100
14.602000 0.118400
14.619500 0.107100
14.637000 0.096100
14.654500 0.085400
14.672000 0.075100
14.689500 0.065200
14.707000 0.347100
14.724500 0.000000
14.742000 0.000000
14.759500 0.000000
14.777000 0.000000
14.794600 0.000000
14.812100 0.000000
14.829600 0.000000
14.847100 0.000000
14.864600 0.000000
14.882100 0.000000
14.899600 0.000000
14.917100 0.000000
14.934600 0.000000
14.952100 0.000000
14.969600 0.000000
14.987100 0.000000
15.004600 0.000000
15.022100 0.000000
15.039600 0.000000
15.057100 0.000000
15.074600 0.000000
15.092100 0.000000
15.109600 0.000000
15.127100 0.000000
15.144700 0.000000
15.162200 0.000000
15.179700 0.000000
15.197200 0.000000
15.214700 0.000000
15.232200 0.000000
15.249700 0.000000
15.267200 0.000000
15.284700 0.000000
15.302200 0.000000
15.319700 0.000000
15.337200 0.000000
15.354700 0.000000
15.372200 0.000000
15.389700 0.000000
15.407200 0.000000
15.424700 0.000000
15.442200 0.000000
15.459700 0.000000
15.477300 0.000000
15.494800 0.000000
15.512300 0.000000
15.529800 0.000000
15.547300 0.000000
15.564800 0.000000
15.582300 0.000000
15.599800 0.000000
15.617300 0.000000
15.634800 0.000000
15.652300 0.000000
15.669800 0.000000
15.687300 0.000000
15.704800 0.000000
15.722300 0.000000
15.739800 0.000000
15.757300 0.000000
15.774800 0.000000
15.792300 0.000000
15.809900 0.000000
15.827400 0.000000
15.844900 0.000000
15.862400 0.000000
15.879900 0.000000
15.897400 0.000000
15.914900 0.000000
15.932400 0.000000
15.949900 0.000000
15.967400 0.000000
15.984900 0.000000
16.002400 0.000000
16.019900 0.000000
16.037400 0.000000
16.054900 0.000000
16.072400 0.000000
16.089900 0.000000
16.107400 0.000000
16.124900 0.000000
16.142500 0.000000
16.160000 0.000000
16.177500 0.000000
16.195000 0.000000
16.212500 0.000000
16.230000 0.000000
16.247500 0.000000
16.265000 0.000000
16.282500 0.000000
16.300000 0.000000
e
