set title 'mp-25199 - Density of States'
set xlabel 'Energy (eV)'
set ylabel 'DOS (states/eV)'
set grid
set xrange [-10:10]
set yrange [0:5.417]
set xzeroaxis lt -1
set terminal png size 800,600
set output 'mp-25199_dos_gnuplot.png'
plot '-' using 1:2 with lines title 'DOS'
-42.865200 0.000000
-42.814300 0.000000
-42.763500 0.000000
-42.712700 0.000000
-42.661900 0.000000
-42.611100 0.000000
-42.560200 0.000000
-42.509400 0.000000
-42.458600 0.000000
-42.407800 0.000000
-42.356900 0.000000
-42.306100 0.000000
-42.255300 0.000000
-42.204500 0.000000
-42.153700 0.000000
-42.102800 0.000000
-42.052000 0.000000
-42.001200 0.000000
-41.950400 0.000000
-41.899600 0.000000
-41.848700 0.000000
-41.797900 0.000000
-41.747100 0.000000
-41.696300 0.000000
-41.645500 0.000000
-41.594600 0.000000
-41.543800 0.000000
-41.493000 0.000000
-41.442200 0.000000
-41.391400 0.000000
-41.340500 0.000000
-41.289700 0.000000
-41.238900 0.000000
-41.188100 0.000000
-41.137200 0.000000
-41.086400 0.000000
-41.035600 0.000000
-40.984800 0.000000
-40.934000 0.000000
-40.883100 0.000000
-40.832300 0.000000
-40.781500 0.000000
-40.730700 0.000000
-40.679900 0.000000
-40.629000 0.000000
-40.578200 0.000000
-40.527400 0.000000
-40.476600 0.000000
-40.425800 0.000000
-40.374900 0.000000
-40.324100 0.000000
-40.273300 0.000000
-40.222500 0.000000
-40.171700 0.000000
-40.120800 0.000000
-40.070000 0.000000
-40.019200 0.000000
-39.968400 0.000000
-39.917600 0.000000
-39.866700 0.000000
-39.815900 0.000000
-39.765100 0.000000
-39.714300 0.000000
-39.663400 0.000000
-39.612600 0.000000
-39.561800 0.000000
-39.511000 0.000000
-39.460200 0.000000
-39.409300 0.000000
-39.358500 0.000000
-39.307700 0.000000
-39.256900 0.000000
-39.206100 0.000000
-39.155200 0.000000
-39.104400 0.000000
-39.053600 0.000000
-39.002800 0.000000
-38.952000 0.000000
-38.901100 0.000000
-38.850300 0.000000
-38.799500 0.000000
-38.748700 0.000000
-38.697900 0.000000
-38.647000 0.000000
-38.596200 0.000000
-38.545400 0.000000
-38.494600 0.000000
-38.443700 0.000000
-38.392900 0.000000
-38.342100 0.000000
-38.291300 0.000000
-38.240500 10.074500
-38.189600 8.785800
-38.138800 3.183100
-38.088000 4.307300
-38.037200 7.124800
-37.986400 9.311800
-37.935500 0.000000
-37.884700 0.000000
-37.833900 0.000000
-37.783100 0.000000
-37.732300 0.000000
-37.681400 0.000000
-37.630600 0.000000
-37.579800 0.000000
-37.529000 0.000000
-37.478200 0.000000
-37.427300 0.000000
-37.376500 0.000000
-37.325700 0.000000
-37.274900 0.000000
-37.224100 0.000000
-37.173200 0.000000
-37.122400 0.000000
-37.071600 0.000000
-37.020800 0.000000
-36.969900 0.000000
-36.919100 0.000000
-36.868300 0.000000
-36.817500 0.000000
-36.766700 0.000000
-36.715800 0.000000
-36.665000 0.000000
-36.614200 0.000000
-36.563400 0.000000
-36.512600 0.000000
-36.461700 0.000000
-36.410900 0.000000
-36.360100 0.000000
-36.309300 0.000000
-36.258500 0.000000
-36.207600 0.000000
-36.156800 0.000000
-36.106000 0.000000
-36.055200 0.000000
-36.004400 0.000000
-35.953500 0.000000
-35.902700 0.000000
-35.851900 0.000000
-35.801100 0.000000
-35.750200 0.000000
-35.699400 0.000000
-35.648600 0.000000
-35.597800 0.000000
-35.547000 0.000000
-35.496100 0.000000
-35.445300 0.000000
-35.394500 0.000000
-35.343700 0.000000
-35.292900 0.000000
-35.242000 0.000000
-35.191200 0.000000
-35.140400 0.000000
-35.089600 0.000000
-35.038800 0.000000
-34.987900 0.000000
-34.937100 0.000000
-34.886300 0.000000
-34.835500 0.000000
-34.784700 0.000000
-34.733800 0.000000
-34.683000 0.000000
-34.632200 0.000000
-34.581400 0.000000
-34.530600 0.000000
-34.479700 0.000000
-34.428900 0.000000
-34.378100 0.000000
-34.327300 0.000000
-34.276400 0.000000
-34.225600 0.000000
-34.174800 0.000000
-34.124000 0.000000
-34.073200 0.000000
-34.022300 0.000000
-33.971500 0.000000
-33.920700 0.000000
-33.869900 0.000000
-33.819100 0.000000
-33.768200 0.000000
-33.717400 0.000000
-33.666600 0.000000
-33.615800 0.000000
-33.565000 0.000000
-33.514100 0.000000
-33.463300 0.000000
-33.412500 0.000000
-33.361700 0.000000
-33.310900 0.000000
-33.260000 0.000000
-33.209200 0.000000
-33.158400 0.000000
-33.107600 0.000000
-33.056700 0.000000
-33.005900 0.000000
-32.955100 0.000000
-32.904300 0.000000
-32.853500 0.000000
-32.802600 0.000000
-32.751800 0.000000
-32.701000 0.000000
-32.650200 0.000000
-32.599400 0.000000
-32.548500 0.000000
-32.497700 0.000000
-32.446900 0.000000
-32.396100 0.000000
-32.345300 0.000000
-32.294400 0.000000
-32.243600 0.000000
-32.192800 0.000000
-32.142000 0.000000
-32.091200 0.000000
-32.040300 0.000000
-31.989500 0.000000
-31.938700 0.000000
-31.887900 0.000000
-31.837100 0.000000
-31.786200 0.000000
-31.735400 0.000000
-31.684600 0.000000
-31.633800 0.000000
-31.582900 0.000000
-31.532100 0.000000
-31.481300 0.000000
-31.430500 0.000000
-31.379700 0.000000
-31.328800 0.000000
-31.278000 0.000000
-31.227200 0.000000
-31.176400 0.000000
-31.125600 0.000000
-31.074700 0.000000
-31.023900 0.000000
-30.973100 0.000000
-30.922300 0.000000
-30.871500 0.000000
-30.820600 0.000000
-30.769800 0.000000
-30.719000 0.000000
-30.668200 0.000000
-30.617400 0.000000
-30.566500 0.000000
-30.515700 0.000000
-30.464900 0.000000
-30.414100 0.000000
-30.363200 0.000000
-30.312400 0.000000
-30.261600 0.000000
-30.210800 0.000000
-30.160000 0.000000
-30.109100 0.000000
-30.058300 0.000000
-30.007500 0.000000
-29.956700 0.000000
-29.905900 0.000000
-29.855000 0.000000
-29.804200 0.000000
-29.753400 0.000000
-29.702600 0.000000
-29.651800 0.000000
-29.600900 0.000000
-29.550100 0.000000
-29.499300 0.000000
-29.448500 0.000000
-29.397700 0.000000
-29.346800 0.000000
-29.296000 0.000000
-29.245200 0.000000
-29.194400 0.000000
-29.143600 0.000000
-29.092700 0.000000
-29.041900 0.000000
-28.991100 0.000000
-28.940300 0.000000
-28.889400 0.000000
-28.838600 0.000000
-28.787800 0.000000
-28.737000 0.000000
-28.686200 0.000000
-28.635300 0.000000
-28.584500 0.000000
-28.533700 0.000000
-28.482900 0.000000
-28.432100 0.000000
-28.381200 0.000000
-28.330400 0.000000
-28.279600 0.000000
-28.228800 0.000000
-28.178000 0.000000
-28.127100 0.000000
-28.076300 0.000000
-28.025500 0.000000
-27.974700 0.000000
-27.923900 0.000000
-27.873000 0.000000
-27.822200 0.000000
-27.771400 0.000000
-27.720600 0.000000
-27.669700 0.000000
-27.618900 0.000000
-27.568100 0.000000
-27.517300 0.000000
-27.466500 0.000000
-27.415600 0.000000
-27.364800 0.000000
-27.314000 0.000000
-27.263200 0.000000
-27.212400 0.000000
-27.161500 0.000000
-27.110700 0.000000
-27.059900 0.000000
-27.009100 0.000000
-26.958300 0.000000
-26.907400 0.000000
-26.856600 0.000000
-26.805800 0.000000
-26.755000 0.000000
-26.704200 0.000000
-26.653300 0.000000
-26.602500 0.000000
-26.551700 0.000000
-26.500900 0.000000
-26.450100 0.000000
-26.399200 0.000000
-26.348400 0.000000
-26.297600 0.000000
-26.246800 0.000000
-26.195900 0.000000
-26.145100 0.000000
-26.094300 0.000000
-26.043500 0.000000
-25.992700 0.000000
-25.941800 0.000000
-25.891000 0.000000
-25.840200 0.000000
-25.789400 0.000000
-25.738600 0.000000
-25.687700 0.000000
-25.636900 0.000000
-25.586100 0.000000
-25.535300 0.000000
-25.484500 0.000000
-25.433600 0.000000
-25.382800 0.000000
-25.332000 0.000000
-25.281200 0.000000
-25.230400 0.000000
-25.179500 0.000000
-25.128700 0.000000
-25.077900 0.000000
-25.027100 0.000000
-24.976200 0.000000
-24.925400 0.000000
-24.874600 0.000000
-24.823800 0.000000
-24.773000 0.000000
-24.722100 0.000000
-24.671300 0.000000
-24.620500 0.000000
-24.569700 0.000000
-24.518900 0.000000
-24.468000 0.000000
-24.417200 0.000000
-24.366400 0.000000
-24.315600 0.000000
-24.264800 0.000000
-24.213900 0.000000
-24.163100 0.000000
-24.112300 0.000000
-24.061500 0.000000
-24.010700 0.000000
-23.959800 0.000000
-23.909000 0.000000
-23.858200 0.000000
-23.807400 0.000000
-23.756600 0.000000
-23.705700 0.000000
-23.654900 0.000000
-23.604100 0.000000
-23.553300 0.000000
-23.502400 0.000000
-23.451600 0.000000
-23.400800 0.000000
-23.350000 0.000000
-23.299200 0.000000
-23.248300 0.000000
-23.197500 0.000000
-23.146700 0.000000
-23.095900 0.000000
-23.045100 0.000000
-22.994200 0.000000
-22.943400 0.000000
-22.892600 0.000000
-22.841800 0.000000
-22.791000 0.000000
-22.740100 0.000000
-22.689300 0.000000
-22.638500 0.000000
-22.587700 0.000000
-22.536900 0.000000
-22.486000 0.000000
-22.435200 0.000000
-22.384400 0.000000
-22.333600 0.000000
-22.282700 0.000000
-22.231900 0.000000
-22.181100 0.000000
-22.130300 0.000000
-22.079500 0.000000
-22.028600 0.000000
-21.977800 0.000000
-21.927000 0.000000
-21.876200 0.000000
-21.825400 0.000000
-21.774500 0.000000
-21.723700 0.000000
-21.672900 0.000000
-21.622100 0.000000
-21.571300 0.000000
-21.520400 0.000000
-21.469600 0.000000
-21.418800 0.000000
-21.368000 0.000000
-21.317200 0.000000
-21.266300 0.000000
-21.215500 0.000000
-21.164700 0.000000
-21.113900 0.000000
-21.063100 0.000000
-21.012200 0.000000
-20.961400 0.000000
-20.910600 0.000000
-20.859800 0.000000
-20.808900 0.000000
-20.758100 0.000000
-20.707300 0.000000
-20.656500 0.000000
-20.605700 0.000000
-20.554800 0.000000
-20.504000 0.000000
-20.453200 0.000000
-20.402400 0.000000
-20.351600 0.000000
-20.300700 0.000000
-20.249900 0.000000
-20.199100 0.000000
-20.148300 0.000000
-20.097500 0.000000
-20.046600 0.000000
-19.995800 0.000000
-19.945000 0.000000
-19.894200 0.000000
-19.843400 0.000000
-19.792500 0.000000
-19.741700 0.000000
-19.690900 0.000000
-19.640100 0.000000
-19.589200 0.000000
-19.538400 0.000000
-19.487600 0.000000
-19.436800 0.000000
-19.386000 0.000000
-19.335100 0.000000
-19.284300 0.000000
-19.233500 0.000000
-19.182700 0.000000
-19.131900 0.000000
-19.081000 0.000000
-19.030200 0.000000
-18.979400 0.000000
-18.928600 0.000000
-18.877800 0.000000
-18.826900 0.000000
-18.776100 0.000000
-18.725300 0.000000
-18.674500 0.000000
-18.623700 0.000000
-18.572800 0.000000
-18.522000 0.000000
-18.471200 0.000000
-18.420400 0.000000
-18.369500 0.000000
-18.318700 0.000000
-18.267900 0.000000
-18.217100 0.000000
-18.166300 0.000000
-18.115400 0.000000
-18.064600 0.000000
-18.013800 0.000000
-17.963000 0.000000
-17.912200 0.000000
-17.861300 0.000000
-17.810500 0.000000
-17.759700 0.000000
-17.708900 0.000000
-17.658100 0.000000
-17.607200 0.000000
-17.556400 0.000000
-17.505600 0.000000
-17.454800 0.000000
-17.404000 0.000000
-17.353100 0.000000
-17.302300 0.000000
-17.251500 0.029400
-17.200700 0.215700
-17.149900 0.332300
-17.099000 0.323300
-17.048200 0.343200
-16.997400 0.336300
-16.946600 0.347200
-16.895700 0.367000
-16.844900 0.379200
-16.794100 0.386900
-16.743300 0.400400
-16.692500 0.417200
-16.641600 0.434700
-16.590800 0.457000
-16.540000 0.484000
-16.489200 0.510400
-16.438400 0.537800
-16.387500 0.566200
-16.336700 0.622500
-16.285900 0.708200
-16.235100 0.795200
-16.184300 0.900000
-16.133400 1.070500
-16.082600 2.120000
-16.031800 1.866500
-15.981000 1.398800
-15.930200 1.285200
-15.879300 1.034000
-15.828500 0.000000
-15.777700 3.507000
-15.726900 6.041000
-15.676000 3.111800
-15.625200 1.506600
-15.574400 1.220400
-15.523600 1.055600
-15.472800 0.945400
-15.421900 0.826900
-15.371100 0.424200
-15.320300 0.138200
-15.269500 0.000000
-15.218700 0.000000
-15.167800 0.000000
-15.117000 0.000000
-15.066200 0.000000
-15.015400 0.000000
-14.964600 0.000000
-14.913700 0.000000
-14.862900 0.000000
-14.812100 0.000000
-14.761300 0.000000
-14.710500 0.000000
-14.659600 0.000000
-14.608800 0.000000
-14.558000 0.000000
-14.507200 0.000000
-14.456400 0.000000
-14.405500 0.000000
-14.354700 0.000000
-14.303900 0.000000
-14.253100 0.000000
-14.202200 0.000000
-14.151400 0.000000
-14.100600 0.000000
-14.049800 0.000000
-13.999000 0.000000
-13.948100 0.000000
-13.897300 0.000000
-13.846500 0.000000
-13.795700 0.000000
-13.744900 0.000000
-13.694000 0.000000
-13.643200 0.000000
-13.592400 0.000000
-13.541600 0.000000
-13.490800 0.000000
-13.439900 0.000000
-13.389100 0.000000
-13.338300 0.000000
-13.287500 0.000000
-13.236700 0.000000
-13.185800 0.000000
-13.135000 0.000000
-13.084200 0.000000
-13.033400 0.000000
-12.982500 0.000000
-12.931700 0.000000
-12.880900 0.000000
-12.830100 0.000000
-12.779300 0.000000
-12.728400 0.000000
-12.677600 0.000000
-12.626800 0.000000
-12.576000 0.000000
-12.525200 0.000000
-12.474300 0.000000
-12.423500 0.000000
-12.372700 0.000000
-12.321900 0.000000
-12.271100 0.000000
-12.220200 0.000000
-12.169400 0.000000
-12.118600 0.000000
-12.067800 0.000000
-12.017000 0.000000
-11.966100 0.000000
-11.915300 0.000000
-11.864500 0.000000
-11.813700 0.000000
-11.762900 0.000000
-11.712000 0.000000
-11.661200 0.000000
-11.610400 0.000000
-11.559600 0.000000
-11.508700 0.000000
-11.457900 0.000000
-11.407100 0.000000
-11.356300 0.000000
-11.305500 0.000000
-11.254600 0.000000
-11.203800 0.000000
-11.153000 0.000000
-11.102200 0.000000
-11.051400 0.000000
-11.000500 0.000000
-10.949700 0.000000
-10.898900 0.000000
-10.848100 0.000000
-10.797300 0.000000
-10.746400 0.000000
-10.695600 0.000000
-10.644800 0.000000
-10.594000 0.000000
-10.543200 0.000000
-10.492300 0.000000
-10.441500 0.000000
-10.390700 0.000000
-10.339900 0.000000
-10.289000 0.000000
-10.238200 0.000000
-10.187400 0.000000
-10.136600 0.000000
-10.085800 0.000000
-10.034900 0.000000
-9.984100 0.000000
-9.933300 0.000000
-9.882500 0.000000
-9.831700 0.000000
-9.780800 0.000000
-9.730000 0.000000
-9.679200 0.000000
-9.628400 0.000000
-9.577600 0.000000
-9.526700 0.000000
-9.475900 0.000000
-9.425100 0.000000
-9.374300 0.000000
-9.323500 0.000000
-9.272600 0.000000
-9.221800 0.000000
-9.171000 0.000000
-9.120200 0.000000
-9.069400 0.000000
-9.018500 0.000000
-8.967700 0.000000
-8.916900 0.000000
-8.866100 0.000000
-8.815200 0.000000
-8.764400 0.000000
-8.713600 0.000000
-8.662800 0.000000
-8.612000 0.000000
-8.561100 0.000000
-8.510300 0.000000
-8.459500 0.000000
-8.408700 0.000000
-8.357900 0.000000
-8.307000 0.000000
-8.256200 0.000000
-8.205400 0.000000
-8.154600 0.000000
-8.103800 0.000000
-8.052900 0.000000
-8.002100 0.000000
-7.951300 0.000000
-7.900500 0.000000
-7.849700 0.000000
-7.798800 0.000000
-7.748000 0.000000
-7.697200 0.000000
-7.646400 0.000000
-7.595500 0.000000
-7.544700 0.000000
-7.493900 0.000000
-7.443100 0.000000
-7.392300 0.000000
-7.341400 0.000000
-7.290600 0.000000
-7.239800 0.000000
-7.189000 0.000000
-7.138200 0.000000
-7.087300 0.000000
-7.036500 0.000000
-6.985700 0.000000
-6.934900 0.000000
-6.884100 0.000000
-6.833200 0.000000
-6.782400 0.000000
-6.731600 0.000000
-6.680800 0.000000
-6.630000 0.000000
-6.579100 0.000000
-6.528300 0.000000
-6.477500 0.000000
-6.426700 0.000000
-6.375900 0.000000
-6.325000 0.000000
-6.274200 0.000000
-6.223400 0.000000
-6.172600 0.000000
-6.121700 0.000000
-6.070900 0.000000
-6.020100 0.000000
-5.969300 0.000000
-5.918500 0.000000
-5.867600 0.000000
-5.816800 0.000000
-5.766000 0.000000
-5.715200 0.000000
-5.664400 0.000000
-5.613500 0.000000
-5.562700 0.000000
-5.511900 0.000000
-5.461100 0.000000
-5.410300 0.000000
-5.359400 0.000000
-5.308600 0.000000
-5.257800 0.000000
-5.207000 0.000000
-5.156200 0.000000
-5.105300 0.000000
-5.054500 0.000000
-5.003700 0.000000
-4.952900 0.000000
-4.902000 0.000000
-4.851200 0.000000
-4.800400 0.000000
-4.749600 0.000000
-4.698800 0.000000
-4.647900 0.000000
-4.597100 0.024600
-4.546300 0.174500
-4.495500 0.334400
-4.444700 0.461200
-4.393800 0.567300
-4.343000 0.537900
-4.292200 0.576500
-4.241400 0.604600
-4.190600 0.626000
-4.139700 0.646700
-4.088900 0.666100
-4.038100 0.696900
-3.987300 0.738800
-3.936500 0.809600
-3.885600 0.929500
-3.834800 1.128100
-3.784000 1.307800
-3.733200 1.810900
-3.682400 1.671200
-3.631500 1.205400
-3.580700 1.343800
-3.529900 2.048200
-3.479100 1.973100
-3.428200 1.353600
-3.377400 0.935800
-3.326600 1.186900
-3.275800 1.258700
-3.225000 1.359300
-3.174100 1.392200
-3.123300 1.603100
-3.072500 1.835000
-3.021700 2.155300
-2.970900 2.207600
-2.920000 1.704900
-2.869200 1.489200
-2.818400 1.269600
-2.767600 1.190800
-2.716800 1.317200
-2.665900 1.508800
-2.615100 2.316900
-2.564300 1.397600
-2.513500 1.244600
-2.462700 1.291400
-2.411800 1.358400
-2.361000 1.758300
-2.310200 1.479600
-2.259400 1.011300
-2.208500 0.820500
-2.157700 0.613800
-2.106900 0.470800
-2.056100 0.352200
-2.005300 0.290900
-1.954400 0.280100
-1.903600 0.429200
-1.852800 0.544400
-1.802000 0.612800
-1.751200 0.703400
-1.700300 1.400900
-1.649500 2.895900
-1.598700 2.385600
-1.547900 2.510900
-1.497100 2.152200
-1.446200 1.888900
-1.395400 1.859900
-1.344600 2.097700
-1.293800 2.293000
-1.243000 2.661700
-1.192100 2.949500
-1.141300 2.752400
-1.090500 2.760000
-1.039700 2.147400
-0.988900 0.460500
-0.938000 0.422700
-0.887200 0.345900
-0.836400 0.343500
-0.785600 0.394300
-0.734700 0.447800
-0.683900 0.484500
-0.633100 0.511900
-0.582300 0.551100
-0.531500 0.587600
-0.480600 0.606200
-0.429800 0.650900
-0.379000 0.721600
-0.328200 1.009200
-0.277400 1.028000
-0.226500 1.043700
-0.175700 1.094500
-0.124900 1.227800
-0.074100 1.082900
-0.023300 0.960900
0.027600 0.903600
0.078400 0.880400
0.129200 0.879000
0.180000 0.941000
0.230800 1.055600
0.281700 1.256900
0.332500 1.523300
0.383300 0.992300
0.434100 0.808500
0.485000 0.732100
0.535800 0.682800
0.586600 0.281800
0.637400 0.000000
0.688200 0.000000
0.739100 0.032000
0.789900 0.067100
0.840700 0.102200
0.891500 0.137300
0.942300 0.172400
0.993200 0.231800
1.044000 0.274500
1.094800 0.293900
1.145600 0.313300
1.196400 0.369900
1.247300 0.464500
1.298100 0.524000
1.348900 0.578700
1.399700 0.820800
1.450500 0.930000
1.501400 1.149300
1.552200 1.405700
1.603000 1.666800
1.653800 1.989200
1.704600 3.155200
1.755500 2.731000
1.806300 2.177400
1.857100 2.459800
1.907900 2.511800
1.958800 2.174500
2.009600 1.791900
2.060400 1.629600
2.111200 1.528700
2.162000 1.468100
2.212900 1.257800
2.263700 1.485600
2.314500 2.861600
2.365300 0.634600
2.416100 0.000000
2.467000 0.000000
2.517800 0.000000
2.568600 0.000000
2.619400 0.000000
2.670200 0.530100
2.721100 0.751900
2.771900 0.766400
2.822700 0.790500
2.873500 1.077900
2.924300 1.502800
2.975200 1.066300
3.026000 0.914200
3.076800 0.812000
3.127600 0.732400
3.178500 0.663200
3.229300 0.620400
3.280100 0.595400
3.330900 0.573700
3.381700 0.554500
3.432600 0.540500
3.483400 0.539600
3.534200 0.533000
3.585000 0.518200
3.635800 0.511000
3.686700 0.512500
3.737500 0.561900
3.788300 0.553300
3.839100 0.541400
3.889900 0.588800
3.940800 0.674900
3.991600 0.738100
4.042400 1.243800
4.093200 0.000000
4.144000 0.000000
4.194900 0.000000
4.245700 0.000000
4.296500 0.000000
4.347300 0.000000
4.398100 0.000000
4.449000 0.000000
4.499800 0.000000
4.550600 0.000000
4.601400 0.000000
4.652300 0.000000
4.703100 0.000000
4.753900 0.000000
4.804700 0.000000
4.855500 0.000000
4.906400 0.000000
4.957200 0.000000
5.008000 0.121800
5.058800 0.479900
5.109600 0.774800
5.160500 1.223800
5.211300 1.550200
5.262100 3.351700
5.312900 4.924100
5.363700 4.649700
5.414600 3.386900
5.465400 1.633900
5.516200 1.654600
5.567000 1.519400
5.617800 1.513400
5.668700 1.555000
5.719500 1.736100
5.770300 2.920800
5.821100 2.305600
5.872000 0.989500
5.922800 0.835400
5.973600 0.701100
6.024400 0.689400
6.075200 0.591700
6.126100 0.582700
6.176900 0.000000
6.227700 0.000000
6.278500 0.000000
6.329300 0.000000
6.380200 0.000000
6.431000 0.000000
6.481800 0.000000
6.532600 0.000000
6.583400 0.000000
6.634300 0.000000
6.685100 0.000000
6.735900 0.000000
6.786700 0.000000
6.837500 0.000000
6.888400 0.000000
6.939200 0.000000
6.990000 0.000000
7.040800 0.000000
7.091600 0.000000
7.142500 0.000000
7.193300 0.000000
7.244100 0.000000
7.294900 0.000000
7.345800 0.000000
7.396600 0.000000
7.447400 0.000000
7.498200 0.000000
7.549000 0.000000
7.599900 0.000000
7.650700 0.000000
7.701500 0.000000
7.752300 0.000000
7.803100 0.000000
7.854000 0.000000
7.904800 0.000000
7.955600 0.000000
8.006400 0.002100
8.057200 0.007300
8.108100 0.014500
8.158900 0.022700
8.209700 0.024100
8.260500 0.025900
8.311300 0.029200
8.362200 0.032200
8.413000 0.034700
8.463800 0.037800
8.514600 0.041000
8.565500 0.044200
8.616300 0.047200
8.667100 0.049700
8.717900 0.051900
8.768700 0.054200
8.819600 0.056800
8.870400 0.059500
8.921200 0.062300
8.972000 0.065100
9.022800 0.068100
9.073700 0.071000
9.124500 0.074100
9.175300 0.077200
9.226100 0.080400
9.276900 0.083500
9.327800 0.086600
9.378600 0.089900
9.429400 0.093300
9.480200 0.097000
9.531000 0.100700
9.581900 0.104500
9.632700 0.108400
9.683500 0.112400
9.734300 0.116500
9.785100 0.121000
9.836000 0.128300
9.886800 0.135300
9.937600 0.140400
9.988400 0.143600
10.039300 0.145100
10.090100 0.149100
10.140900 0.153400
10.191700 0.157500
10.242500 0.161700
10.293400 0.165100
10.344200 0.168200
10.395000 0.171900
10.445800 0.176300
10.496600 0.184400
10.547500 0.193700
10.598300 0.201000
10.649100 0.207200
10.699900 0.213500
10.750700 0.220200
10.801600 0.227100
10.852400 0.234700
10.903200 0.243200
10.954000 0.251300
11.004800 0.259400
11.055700 0.267300
11.106500 0.274000
11.157300 0.281800
11.208100 0.289900
11.259000 0.298400
11.309800 0.307500
11.360600 0.317300
11.411400 0.328000
11.462200 0.340200
11.513100 0.353800
11.563900 0.366100
11.614700 0.376800
11.665500 0.382700
11.716300 0.381600
11.767200 0.389200
11.818000 0.396800
11.868800 0.404100
11.919600 0.410900
11.970400 0.416000
12.021300 0.422800
12.072100 0.430900
12.122900 0.470600
12.173700 0.447900
12.224500 0.438600
12.275400 0.439500
12.326200 0.440000
12.377000 0.438900
12.427800 0.439300
12.478600 0.441200
12.529500 0.443700
12.580300 0.450600
12.631100 0.459700
12.681900 0.481000
12.732800 0.468400
12.783600 0.427500
12.834400 0.411600
12.885200 0.401200
12.936000 0.392100
12.986900 0.383700
13.037700 0.376600
13.088500 0.373900
13.139300 0.437100
13.190100 0.492200
13.241000 0.532800
13.291800 0.515500
13.342600 0.515100
13.393400 0.520100
13.444200 0.528100
13.495100 0.555900
13.545900 0.521700
13.596700 0.506600
13.647500 0.502800
13.698300 0.501700
13.749200 0.491100
13.800000 0.487300
13.850800 0.502100
13.901600 0.489500
13.952500 0.438800
14.003300 0.455000
14.054100 0.508800
14.104900 0.487300
14.155700 0.492600
14.206600 0.507700
14.257400 0.533900
14.308200 0.518600
14.359000 0.525500
14.409800 0.542500
14.460700 0.557400
14.511500 0.562600
14.562300 0.532000
14.613100 0.487300
14.663900 0.444300
14.714800 0.426500
14.765600 0.433800
14.816400 0.431500
14.867200 0.388400
14.918000 0.378600
14.968900 0.309600
15.019700 0.276500
15.070500 0.334400
15.121300 0.409100
15.172100 0.521900
15.223000 0.711100
15.273800 1.067500
15.324600 1.248100
15.375400 1.331200
15.426300 1.539000
15.477100 1.411900
15.527900 1.264900
15.578700 0.989300
15.629500 0.669800
15.680400 0.611000
15.731200 0.652100
15.782000 0.795700
15.832800 1.092600
15.883600 1.373000
15.934500 1.515600
15.985300 1.330200
16.036100 1.165600
16.086900 1.073500
16.137700 0.896900
16.188600 0.773900
16.239400 0.684800
16.290200 0.628100
16.341000 0.600900
16.391800 0.599200
16.442700 0.632800
16.493500 0.610700
16.544300 0.554600
16.595100 0.535600
16.646000 0.524500
16.696800 0.510300
16.747600 0.487500
16.798400 0.497100
16.849200 0.639900
16.900100 0.573300
16.950900 0.624500
17.001700 0.598400
17.052500 0.619900
17.103300 0.638900
17.154200 0.718000
17.205000 0.768600
17.255800 0.741700
17.306600 0.744300
17.357400 0.736100
17.408300 0.733800
17.459100 0.741200
17.509900 0.732000
17.560700 0.718400
17.611500 0.716900
17.662400 0.713200
17.713200 0.714800
17.764000 0.711500
17.814800 0.723600
17.865600 0.725100
17.916500 0.688900
17.967300 0.646900
18.018100 0.626800
18.068900 0.612800
18.119800 0.601800
18.170600 0.561500
18.221400 0.510400
18.272200 0.470700
18.323000 0.434300
18.373900 0.387000
18.424700 0.340100
18.475500 0.319700
18.526300 0.511800
18.577100 0.876600
18.628000 0.567000
18.678800 0.538400
18.729600 0.525500
18.780400 0.508100
18.831200 0.499600
18.882100 0.497200
18.932900 0.478300
18.983700 0.457700
19.034500 0.443400
19.085300 0.432300
19.136200 0.423400
19.187000 0.416200
19.237800 0.410300
19.288600 0.404800
19.339500 0.399900
19.390300 0.394400
19.441100 0.388900
19.491900 0.383400
19.542700 0.377900
19.593600 0.372700
19.644400 0.367300
19.695200 0.361700
19.746000 0.355000
19.796800 0.350000
19.847700 0.346000
19.898500 0.343000
19.949300 0.342300
20.000100 0.341300
20.050900 0.339600
20.101800 0.337400
20.152600 0.334400
20.203400 0.330600
20.254200 0.326500
20.305000 0.322600
20.355900 0.316900
20.406700 0.311200
20.457500 0.321600
20.508300 0.342600
20.559100 0.371200
20.610000 0.402500
20.660800 0.381300
20.711600 0.380500
20.762400 0.384300
20.813300 0.392600
20.864100 0.410200
20.914900 0.559900
20.965700 0.577000
21.016500 0.583500
21.067400 0.581400
21.118200 0.581000
21.169000 0.603900
21.219800 0.630700
21.270600 0.648900
21.321500 0.683400
21.372300 0.755800
21.423100 0.837200
21.473900 0.905500
21.524700 0.908600
21.575600 0.903700
21.626400 0.850400
21.677200 0.821300
21.728000 0.831600
21.778800 0.920700
21.829700 1.089500
21.880500 1.271400
21.931300 1.302400
21.982100 1.189000
22.033000 1.068500
22.083800 1.048600
22.134600 1.126500
22.185400 1.266200
22.236200 1.378200
22.287100 1.393300
22.337900 0.987600
22.388700 0.998200
22.439500 0.932100
22.490300 0.901700
22.541200 0.884200
22.592000 0.896600
22.642800 0.895700
22.693600 0.871000
22.744400 0.837000
22.795300 0.828200
22.846100 0.823800
22.896900 0.767400
22.947700 0.767000
22.998500 0.679800
23.049400 0.580700
23.100200 0.601800
23.151000 0.669900
23.201800 0.740400
23.252600 0.777000
23.303500 0.751700
23.354300 0.746600
23.405100 0.714600
23.455900 0.708200
23.506800 0.730400
23.557600 0.702700
23.608400 0.680500
23.659200 0.682200
23.710000 0.740600
23.760900 0.792600
23.811700 0.812100
23.862500 0.789400
23.913300 0.756100
23.964100 0.720100
24.015000 0.692000
24.065800 0.667400
24.116600 0.653700
24.167400 0.610100
24.218200 0.598000
24.269100 0.586500
24.319900 0.569200
24.370700 0.554400
24.421500 0.558800
24.472300 0.563400
24.523200 0.555700
24.574000 0.546400
24.624800 0.542100
24.675600 0.576700
24.726500 0.580400
24.777300 0.559600
24.828100 0.552700
24.878900 0.554000
24.929700 0.556900
24.980600 0.585600
25.031400 0.588200
25.082200 0.579900
25.133000 0.575500
25.183800 0.581100
25.234700 0.594600
25.285500 0.598100
25.336300 0.582200
25.387100 0.504400
25.437900 0.474300
25.488800 0.455000
25.539600 0.424600
25.590400 0.388800
25.641200 0.388100
25.692000 0.401800
25.742900 0.415000
25.793700 0.428000
25.844500 0.442300
25.895300 0.459600
25.946200 0.482300
25.997000 0.507300
26.047800 0.536300
26.098600 0.565800
26.149400 0.599500
26.200300 0.644300
26.251100 0.704700
26.301900 0.739300
26.352700 0.760500
26.403500 0.708600
26.454400 0.676100
26.505200 0.628500
26.556000 0.591800
26.606800 0.574000
26.657600 0.564700
26.708500 0.542700
26.759300 0.539100
26.810100 0.571000
26.860900 0.559300
26.911700 0.513100
26.962600 0.523700
27.013400 0.501800
27.064200 0.491000
27.115000 0.488500
27.165800 0.492900
27.216700 0.494100
27.267500 0.504200
27.318300 0.587800
27.369100 0.568900
27.420000 0.582400
27.470800 0.602000
27.521600 0.674100
27.572400 0.713300
27.623200 0.751700
27.674100 0.805000
27.724900 0.873000
27.775700 0.911000
27.826500 0.903400
27.877300 0.834000
27.928200 0.783400
27.979000 0.711800
28.029800 0.705500
28.080600 0.711100
28.131400 0.727000
28.182300 0.768800
28.233100 0.869300
28.283900 1.134600
28.334700 2.402700
28.385500 1.742800
28.436400 1.371600
28.487200 1.121500
28.538000 0.937000
28.588800 0.839700
28.639700 0.780900
28.690500 0.724500
28.741300 0.691700
28.792100 0.669000
28.842900 0.655900
28.893800 0.661600
28.944600 0.691800
28.995400 0.735600
29.046200 0.707600
29.097000 0.780000
29.147900 0.794200
29.198700 0.786500
29.249500 0.792100
29.300300 0.801300
29.351100 0.802900
29.402000 0.759000
29.452800 0.747400
29.503600 0.737600
29.554400 0.729800
29.605200 0.703100
29.656100 0.674700
29.706900 0.660200
29.757700 0.650900
29.808500 0.635800
29.859300 0.624000
29.910200 0.619600
29.961000 0.614100
30.011800 0.609700
30.062600 0.604600
30.113500 0.590100
30.164300 0.586500
30.215100 0.601600
30.265900 0.611100
30.316700 0.615200
30.367600 0.590800
30.418400 0.576700
30.469200 0.573800
30.520000 0.577500
30.570800 0.596500
30.621700 0.591600
30.672500 0.594500
30.723300 0.604500
30.774100 0.590400
30.824900 0.589200
30.875800 0.571200
30.926600 0.576700
30.977400 0.595200
31.028200 0.555800
31.079000 0.564400
31.129900 0.589000
31.180700 0.578400
31.231500 0.591000
31.282300 0.618000
31.333200 0.621600
31.384000 0.629700
31.434800 0.657800
31.485600 0.659600
31.536400 0.686400
31.587300 0.726200
31.638100 0.804400
31.688900 0.829300
31.739700 1.040000
31.790500 1.212300
31.841400 1.365500
31.892200 1.438300
31.943000 1.395100
31.993800 1.223000
32.044600 0.887300
32.095500 0.720200
32.146300 0.676000
32.197100 0.675500
32.247900 0.719600
32.298700 0.783400
32.349600 0.837700
32.400400 0.839500
32.451200 0.867200
32.502000 0.957000
32.552800 1.038800
32.603700 1.140200
32.654500 1.117900
32.705300 1.037900
32.756100 0.991200
32.807000 0.943400
32.857800 0.888800
32.908600 0.861200
32.959400 0.876500
33.010200 0.887300
33.061100 0.946100
33.111900 1.053300
33.162700 1.247700
33.213500 1.463900
33.264300 1.430000
33.315200 1.335900
33.366000 1.249500
33.416800 1.110800
33.467600 1.043800
33.518400 1.040800
33.569300 0.991100
33.620100 0.929900
33.670900 0.809700
33.721700 0.752800
33.772500 0.739300
33.823400 0.744300
33.874200 0.714500
33.925000 0.664100
33.975800 0.646200
34.026700 0.653900
34.077500 0.624100
34.128300 0.625100
34.179100 0.632900
34.229900 0.633500
34.280800 0.640000
34.331600 0.660300
34.382400 0.694400
34.433200 0.880600
34.484000 1.061300
34.534900 1.210800
34.585700 1.190100
34.636500 1.197300
34.687300 1.113100
34.738100 0.996700
34.789000 0.985200
34.839800 0.962600
34.890600 1.019100
34.941400 0.949400
34.992200 0.988200
35.043100 0.940000
35.093900 0.922600
35.144700 0.904100
35.195500 0.887700
35.246300 0.869000
35.297200 0.885900
35.348000 0.930600
35.398800 0.931500
35.449600 0.876000
35.500500 0.864000
35.551300 0.926900
35.602100 0.931500
35.652900 0.957600
35.703700 0.984100
35.754600 1.023700
35.805400 1.060100
35.856200 1.041200
35.907000 1.004000
35.957800 1.040600
36.008700 1.047300
36.059500 1.076500
36.110300 0.935000
36.161100 0.886800
36.211900 0.833200
36.262800 0.774700
36.313600 0.724400
36.364400 0.716000
36.415200 0.799800
36.466000 0.766700
36.516900 0.693900
36.567700 0.677400
36.618500 0.690800
36.669300 0.703100
36.720200 0.675200
36.771000 0.670800
36.821800 0.692700
36.872600 0.725900
36.923400 0.777100
36.974300 0.853200
37.025100 0.898400
37.075900 0.879600
37.126700 0.874600
37.177500 0.830400
37.228400 0.806700
37.279200 0.801000
37.330000 0.887900
37.380800 1.018200
37.431600 1.011800
37.482500 0.961100
37.533300 0.947700
37.584100 0.949600
37.634900 0.973500
37.685700 0.999500
37.736600 0.986000
37.787400 0.975300
37.838200 0.919900
37.889000 0.919200
37.939800 0.920200
37.990700 0.912000
38.041500 0.899600
38.092300 0.912800
38.143100 0.888600
38.194000 0.818300
38.244800 0.764800
38.295600 0.725600
38.346400 0.728500
38.397200 0.746800
38.448100 0.773900
38.498900 0.823000
38.549700 0.875100
38.600500 0.944000
38.651300 1.052800
38.702200 0.942500
38.753000 0.941400
38.803800 0.939900
38.854600 0.956700
38.905400 0.993300
38.956300 1.036100
39.007100 0.979400
39.057900 0.901900
39.108700 0.851800
39.159500 0.840000
39.210400 0.837500
39.261200 0.897000
39.312000 0.909700
39.362800 0.889400
39.413700 0.912000
39.464500 0.976700
39.515300 1.012200
39.566100 1.023200
39.616900 0.995700
39.667800 0.968100
39.718600 0.999100
39.769400 0.896200
39.820200 0.862300
39.871000 0.850900
39.921900 0.844100
39.972700 0.854900
40.023500 0.907100
40.074300 0.941900
40.125100 0.914700
40.176000 0.908200
40.226800 0.884100
40.277600 0.865700
40.328400 0.860100
40.379200 0.866600
40.430100 0.881900
40.480900 0.941500
40.531700 0.910000
40.582500 0.906900
40.633300 0.942300
40.684200 0.994300
40.735000 0.832900
40.785800 0.729200
40.836600 0.690100
40.887500 0.652600
40.938300 0.627500
40.989100 0.621100
41.039900 0.607800
41.090700 0.610700
41.141600 0.622400
41.192400 0.648700
41.243200 0.645100
41.294000 0.645300
41.344800 0.658400
41.395700 0.675700
41.446500 0.699400
41.497300 0.741400
41.548100 0.804200
41.598900 0.786700
41.649800 0.769000
41.700600 0.746300
41.751400 0.731600
41.802200 0.700100
41.853000 0.677100
41.903900 0.634300
41.954700 0.689000
42.005500 0.665800
42.056300 0.684400
42.107200 0.726100
42.158000 0.795100
42.208800 0.848300
42.259600 0.965900
42.310400 0.878300
42.361300 0.872500
42.412100 0.880000
42.462900 0.900000
42.513700 0.837200
42.564500 0.774800
42.615400 0.705800
42.666200 0.676700
42.717000 0.659000
42.767800 0.636100
42.818600 0.635600
42.869500 0.578800
42.920300 0.562800
42.971100 0.552100
43.021900 0.533900
43.072700 0.538500
43.123600 0.592700
43.174400 0.611500
43.225200 0.669900
43.276000 0.734200
43.326800 0.768400
43.377700 0.813000
43.428500 0.893700
43.479300 1.011300
43.530100 1.108100
43.581000 1.057400
43.631800 1.032800
43.682600 1.053400
43.733400 0.983400
43.784200 0.937400
43.835100 0.873100
43.885900 0.859200
43.936700 0.905000
43.987500 0.946400
44.038300 0.923800
44.089200 0.911100
44.140000 0.922200
44.190800 0.932600
44.241600 0.962200
44.292400 1.011000
44.343300 1.063100
44.394100 1.097400
44.444900 1.105300
44.495700 1.129800
44.546500 1.214200
44.597400 1.212100
44.648200 1.196500
44.699000 1.206700
44.749800 1.183600
44.800700 1.173600
44.851500 1.130900
44.902300 1.074700
44.953100 1.064700
45.003900 1.168100
45.054800 1.490600
45.105600 1.701400
45.156400 1.608400
45.207200 1.408600
45.258000 1.251300
45.308900 1.098900
45.359700 1.092500
45.410500 1.245000
45.461300 1.150000
45.512100 1.219500
45.563000 1.360700
45.613800 1.326500
45.664600 1.312000
45.715400 1.255700
45.766200 1.145700
45.817100 1.079800
45.867900 0.999700
45.918700 0.949000
45.969500 0.950200
46.020300 1.024200
46.071200 1.099600
46.122000 1.100400
46.172800 1.176700
46.223600 1.207000
46.274500 1.215300
46.325300 1.147500
46.376100 1.092600
46.426900 1.085000
46.477700 1.057000
46.528600 1.046800
46.579400 1.095700
46.630200 1.170400
46.681000 1.220000
46.731800 1.178700
46.782700 1.100100
46.833500 1.092900
46.884300 1.055300
46.935100 1.055400
46.985900 1.071700
47.036800 1.091100
47.087600 1.057400
47.138400 0.915300
47.189200 0.952000
47.240000 1.245800
47.290900 1.336700
47.341700 1.321600
47.392500 1.314300
47.443300 1.348000
47.494200 1.399500
47.545000 1.489500
47.595800 1.466400
47.646600 1.161200
47.697400 1.088700
47.748300 1.020900
47.799100 1.002200
47.849900 1.064200
47.900700 1.092900
47.951500 1.112800
48.002400 1.136000
48.053200 1.205700
48.104000 1.223500
48.154800 1.113600
48.205600 1.079000
48.256500 1.043100
48.307300 0.917700
48.358100 0.826500
48.408900 0.769800
48.459700 0.740900
48.510600 0.781300
48.561400 0.802800
48.612200 0.835400
48.663000 0.855200
48.713800 0.926500
48.764700 1.004900
48.815500 1.065900
48.866300 1.108100
48.917100 1.141900
48.968000 1.206900
49.018800 1.185600
49.069600 1.140000
49.120400 1.085900
49.171200 1.046600
49.222100 0.998000
49.272900 0.925300
49.323700 0.876300
49.374500 0.870000
49.425300 0.909900
49.476200 0.888100
49.527000 0.961600
49.577800 1.057900
49.628600 1.041400
49.679400 1.043200
49.730300 0.994000
49.781100 0.963700
49.831900 0.941900
49.882700 0.976200
49.933500 0.949300
49.984400 0.938400
50.035200 0.935500
50.086000 0.890200
50.136800 0.830200
50.187700 0.740300
50.238500 0.687100
50.289300 0.648100
50.340100 0.622600
50.390900 0.585500
50.441800 0.557600
50.492600 0.550900
50.543400 0.565400
50.594200 0.536800
50.645000 0.474200
50.695900 0.408200
50.746700 0.357100
50.797500 0.326300
50.848300 0.299300
50.899100 0.274600
50.950000 0.253500
51.000800 0.258700
51.051600 0.260700
51.102400 0.267100
51.153200 0.269100
51.204100 0.329000
51.254900 0.274300
51.305700 0.241300
51.356500 0.223400
51.407300 0.195000
51.458200 0.160100
51.509000 0.138500
51.559800 0.118500
51.610600 0.099000
51.661500 0.082600
51.712300 0.076700
51.763100 0.074200
51.813900 0.072500
51.864700 0.070900
51.915600 0.069900
51.966400 0.068800
52.017200 0.066900
52.068000 0.064800
52.118800 0.062700
52.169700 0.060000
52.220500 0.055200
52.271300 0.052900
52.322100 0.048800
52.372900 0.041600
52.423800 0.036600
52.474600 0.031900
52.525400 0.028000
52.576200 0.025400
52.627000 0.023000
52.677900 0.020800
52.728700 0.018800
52.779500 0.017100
52.830300 0.015600
52.881200 0.014200
52.932000 0.012800
52.982800 0.011300
53.033600 0.009900
53.084400 0.008500
53.135300 0.007100
53.186100 0.005700
53.236900 0.004300
53.287700 0.003100
53.338500 0.002100
53.389400 0.001400
53.440200 0.000900
53.491000 0.000500
53.541800 0.000100
53.592600 0.000000
53.643500 0.000000
53.694300 0.000000
53.745100 0.000000
53.795900 0.000000
53.846700 0.000000
53.897600 0.000000
53.948400 0.000000
53.999200 0.000000
54.050000 0.000000
54.100800 0.000000
54.151700 0.000000
54.202500 0.000000
54.253300 0.000000
54.304100 0.000000
54.355000 0.000000
54.405800 0.000000
54.456600 0.000000
54.507400 0.000000
54.558200 0.000000
54.609100 0.000000
54.659900 0.000000
54.710700 0.000000
54.761500 0.000000
54.812300 0.000000
54.863200 0.000000
54.914000 0.000000
54.964800 0.000000
55.015600 0.000000
55.066400 0.000000
55.117300 0.000000
55.168100 0.000000
55.218900 0.000000
55.269700 0.000000
55.320500 0.000000
55.371400 0.000000
55.422200 0.000000
55.473000 0.000000
55.523800 0.000000
55.574700 0.000000
55.625500 0.000000
55.676300 0.000000
55.727100 0.000000
55.777900 0.000000
55.828800 0.000000
55.879600 0.000000
55.930400 0.000000
55.981200 0.000000
56.032000 0.000000
56.082900 0.000000
56.133700 0.000000
56.184500 0.000000
56.235300 0.000000
56.286100 0.000000
56.337000 0.000000
56.387800 0.000000
56.438600 0.000000
56.489400 0.000000
56.540200 0.000000
56.591100 0.000000
56.641900 0.000000
56.692700 0.000000
56.743500 0.000000
56.794300 0.000000
56.845200 0.000000
56.896000 0.000000
56.946800 0.000000
56.997600 0.000000
57.048500 0.000000
57.099300 0.000000
57.150100 0.000000
57.200900 0.000000
57.251700 0.000000
57.302600 0.000000
57.353400 0.000000
57.404200 0.000000
57.455000 0.000000
57.505800 0.000000
57.556700 0.000000
57.607500 0.000000
57.658300 0.000000
57.709100 0.000000
57.759900 0.000000
57.810800 0.000000
57.861600 0.000000
57.912400 0.000000
57.963200 0.000000
58.014000 0.000000
58.064900 0.000000
58.115700 0.000000
58.166500 0.000000
58.217300 0.000000
58.268200 0.000000
58.319000 0.000000
58.369800 0.000000
58.420600 0.000000
58.471400 0.000000
58.522300 0.000000
58.573100 0.000000
58.623900 0.000000
58.674700 0.000000
58.725500 0.000000
58.776400 0.000000
e
