set title 'mp-1087486 - Density of States'
set xlabel 'Energy (eV)'
set ylabel 'DOS (states/eV)'
set grid
set xrange [-10:10]
set yrange [0:36.963]
set xzeroaxis lt -1
set terminal png size 800,600
set output 'mp-1087486_dos_gnuplot.png'
plot '-' using 1:2 with lines title 'DOS'
-14.585100 0.000000
-14.567800 0.000000
-14.550500 0.000000
-14.533300 0.000000
-14.516000 0.000000
-14.498700 0.000000
-14.481400 0.000000
-14.464200 0.000000
-14.446900 0.000000
-14.429600 0.000000
-14.412400 0.000000
-14.395100 0.000000
-14.377800 0.000000
-14.360500 0.000000
-14.343300 0.000000
-14.326000 0.000000
-14.308700 0.000000
-14.291400 0.000000
-14.274200 0.000000
-14.256900 0.000000
-14.239600 0.000000
-14.222400 0.000000
-14.205100 0.000000
-14.187800 0.000000
-14.170500 0.000000
-14.153300 0.000000
-14.136000 0.000000
-14.118700 0.000000
-14.101500 0.000000
-14.084200 0.000000
-14.066900 0.000000
-14.049600 0.000000
-14.032400 0.000000
-14.015100 0.000000
-13.997800 0.000000
-13.980600 0.000000
-13.963300 0.000000
-13.946000 0.000000
-13.928700 0.000000
-13.911500 0.000000
-13.894200 0.000000
-13.876900 0.000000
-13.859700 0.000000
-13.842400 0.000000
-13.825100 0.000000
-13.807800 0.000000
-13.790600 0.000000
-13.773300 0.000000
-13.756000 0.000000
-13.738800 0.000000
-13.721500 0.000000
-13.704200 0.000000
-13.686900 0.000000
-13.669700 0.000000
-13.652400 0.000000
-13.635100 0.000000
-13.617900 0.000000
-13.600600 0.000000
-13.583300 0.000000
-13.566000 0.000000
-13.548800 0.000000
-13.531500 0.000000
-13.514200 0.000000
-13.497000 0.000000
-13.479700 0.000000
-13.462400 0.000000
-13.445100 0.000000
-13.427900 0.000000
-13.410600 0.000000
-13.393300 0.000000
-13.376100 0.000000
-13.358800 0.000000
-13.341500 0.000000
-13.324200 0.000000
-13.307000 0.000000
-13.289700 0.000000
-13.272400 0.000000
-13.255100 0.000000
-13.237900 0.000000
-13.220600 0.000000
-13.203300 0.000000
-13.186100 0.000000
-13.168800 0.000000
-13.151500 0.000000
-13.134200 0.000000
-13.117000 0.000000
-13.099700 0.000000
-13.082400 0.000000
-13.065200 0.000000
-13.047900 0.000000
-13.030600 0.000000
-13.013300 196.135100
-12.996100 17.318900
-12.978800 17.330200
-12.961500 27.423200
-12.944300 51.063200
-12.927000 148.836100
-12.909700 424.362900
-12.892400 348.564600
-12.875200 281.985400
-12.857900 187.775100
-12.840600 42.236500
-12.823400 356.822200
-12.806100 175.545100
-12.788800 77.415100
-12.771500 328.469700
-12.754300 0.000000
-12.737000 0.000000
-12.719700 0.000000
-12.702500 0.000000
-12.685200 0.000000
-12.667900 0.000000
-12.650600 0.000000
-12.633400 0.000000
-12.616100 0.000000
-12.598800 0.000000
-12.581600 0.000000
-12.564300 0.000000
-12.547000 0.000000
-12.529700 0.000000
-12.512500 0.000000
-12.495200 0.000000
-12.477900 0.000000
-12.460700 0.000000
-12.443400 0.000000
-12.426100 0.000000
-12.408800 0.000000
-12.391600 0.000000
-12.374300 0.000000
-12.357000 0.000000
-12.339700 0.000000
-12.322500 0.000000
-12.305200 0.000000
-12.287900 0.000000
-12.270700 0.000000
-12.253400 0.000000
-12.236100 0.000000
-12.218800 0.000000
-12.201600 0.000000
-12.184300 0.000000
-12.167000 0.000000
-12.149800 0.000000
-12.132500 0.000000
-12.115200 0.000000
-12.097900 0.000000
-12.080700 0.000000
-12.063400 0.000000
-12.046100 0.000000
-12.028900 0.000000
-12.011600 0.000000
-11.994300 0.000000
-11.977000 0.000000
-11.959800 0.000000
-11.942500 0.000000
-11.925200 0.000000
-11.908000 0.000000
-11.890700 0.000000
-11.873400 0.000000
-11.856100 0.000000
-11.838900 0.000000
-11.821600 0.000000
-11.804300 0.000000
-11.787100 0.000000
-11.769800 0.000000
-11.752500 0.000000
-11.735200 0.000000
-11.718000 0.000000
-11.700700 0.000000
-11.683400 0.000000
-11.666200 0.000000
-11.648900 0.000000
-11.631600 0.000000
-11.614300 0.000000
-11.597100 0.000000
-11.579800 0.000000
-11.562500 0.000000
-11.545300 0.000000
-11.528000 0.000000
-11.510700 0.000000
-11.493400 0.000000
-11.476200 0.000000
-11.458900 0.000000
-11.441600 0.000000
-11.424300 0.000000
-11.407100 0.000000
-11.389800 0.000000
-11.372500 0.000000
-11.355300 0.000000
-11.338000 0.000000
-11.320700 0.000000
-11.303400 0.000000
-11.286200 0.000000
-11.268900 0.000000
-11.251600 0.000000
-11.234400 0.000000
-11.217100 0.000000
-11.199800 0.000000
-11.182500 0.000000
-11.165300 0.000000
-11.148000 0.000000
-11.130700 0.000000
-11.113500 0.000000
-11.096200 0.000000
-11.078900 0.000000
-11.061600 0.000000
-11.044400 0.000000
-11.027100 0.000000
-11.009800 0.000000
-10.992600 0.000000
-10.975300 0.000000
-10.958000 0.000000
-10.940700 0.000000
-10.923500 0.000000
-10.906200 0.000000
-10.888900 0.000000
-10.871700 0.000000
-10.854400 0.000000
-10.837100 0.000000
-10.819800 0.000000
-10.802600 0.000000
-10.785300 0.000000
-10.768000 0.000000
-10.750800 0.000000
-10.733500 0.000000
-10.716200 0.000000
-10.698900 0.000000
-10.681700 0.000000
-10.664400 0.000000
-10.647100 0.000000
-10.629900 0.000000
-10.612600 0.000000
-10.595300 0.000000
-10.578000 0.000000
-10.560800 0.000000
-10.543500 0.000000
-10.526200 0.000000
-10.508900 0.000000
-10.491700 0.000000
-10.474400 0.000000
-10.457100 0.000000
-10.439900 0.000000
-10.422600 0.000000
-10.405300 0.000000
-10.388000 0.000000
-10.370800 0.000000
-10.353500 0.000000
-10.336200 0.000000
-10.319000 0.000000
-10.301700 0.000000
-10.284400 0.000000
-10.267100 0.000000
-10.249900 0.000000
-10.232600 0.000000
-10.215300 0.000000
-10.198100 0.000000
-10.180800 0.000000
-10.163500 0.000000
-10.146200 0.000000
-10.129000 0.000000
-10.111700 0.000000
-10.094400 0.000000
-10.077200 0.000000
-10.059900 0.000000
-10.042600 0.000000
-10.025300 0.000000
-10.008100 0.000000
-9.990800 0.000000
-9.973500 0.000000
-9.956300 0.000000
-9.939000 0.000000
-9.921700 0.000000
-9.904400 0.000000
-9.887200 0.000000
-9.869900 0.000000
-9.852600 0.000000
-9.835400 0.000000
-9.818100 0.000000
-9.800800 0.000000
-9.783500 0.000000
-9.766300 0.000000
-9.749000 0.000000
-9.731700 0.000000
-9.714500 0.000000
-9.697200 0.000000
-9.679900 0.000000
-9.662600 0.000000
-9.645400 0.000000
-9.628100 0.000000
-9.610800 0.000000
-9.593500 0.000000
-9.576300 0.000000
-9.559000 0.000000
-9.541700 0.000000
-9.524500 0.000000
-9.507200 0.000000
-9.489900 0.000000
-9.472600 0.000000
-9.455400 0.000000
-9.438100 0.000000
-9.420800 0.000000
-9.403600 0.000000
-9.386300 0.000000
-9.369000 0.000000
-9.351700 0.000000
-9.334500 0.000000
-9.317200 0.000000
-9.299900 0.000000
-9.282700 0.001000
-9.265400 0.046000
-9.248100 0.158300
-9.230800 0.337900
-9.213600 0.584400
-9.196300 0.855000
-9.179000 1.120800
-9.161800 1.381800
-9.144500 1.638700
-9.127200 1.854800
-9.109900 2.017100
-9.092700 2.125600
-9.075400 2.185600
-9.058100 2.228700
-9.040900 2.269100
-9.023600 2.311900
-9.006300 2.360400
-8.989000 2.416400
-8.971800 2.471800
-8.954500 2.497300
-8.937200 2.490300
-8.920000 2.449500
-8.902700 2.423800
-8.885400 2.502300
-8.868100 2.599900
-8.850900 2.720400
-8.833600 2.878800
-8.816300 3.080600
-8.799100 3.325700
-8.781800 3.611500
-8.764500 3.873800
-8.747200 4.116000
-8.730000 4.341300
-8.712700 4.452000
-8.695400 4.437900
-8.678100 4.372100
-8.660900 4.273300
-8.643600 4.144500
-8.626300 3.985900
-8.609100 3.819400
-8.591800 3.711600
-8.574500 3.656800
-8.557200 3.604300
-8.540000 3.545200
-8.522700 3.479800
-8.505400 3.408100
-8.488200 3.332200
-8.470900 3.288300
-8.453600 3.309400
-8.436300 3.395400
-8.419100 3.528500
-8.401800 3.670900
-8.384500 3.830800
-8.367300 3.959000
-8.350000 4.040200
-8.332700 4.080800
-8.315400 4.113900
-8.298200 4.145500
-8.280900 4.183700
-8.263600 5.294100
-8.246400 6.190100
-8.229100 6.075800
-8.211800 5.967300
-8.194500 5.513300
-8.177300 5.163200
-8.160000 5.422600
-8.142700 5.711800
-8.125500 5.998100
-8.108200 6.327600
-8.090900 6.258800
-8.073600 6.089700
-8.056400 5.894300
-8.039100 5.877000
-8.021800 5.929200
-8.004600 6.005300
-7.987300 8.198600
-7.970000 11.444400
-7.952700 9.632100
-7.935500 8.830300
-7.918200 8.022500
-7.900900 10.575900
-7.883700 13.371400
-7.866400 20.331600
-7.849100 7.023000
-7.831800 6.040000
-7.814600 5.687700
-7.797300 5.493700
-7.780000 5.491900
-7.762700 6.268700
-7.745500 8.025400
-7.728200 33.603000
-7.710900 17.410600
-7.693700 5.488900
-7.676400 2.972000
-7.659100 1.065600
-7.641800 0.028500
-7.624600 0.000000
-7.607300 0.000000
-7.590000 0.000000
-7.572800 0.000000
-7.555500 0.000000
-7.538200 0.000000
-7.520900 0.000000
-7.503700 0.000000
-7.486400 0.000000
-7.469100 0.000000
-7.451900 0.000000
-7.434600 0.000000
-7.417300 0.000000
-7.400000 0.000000
-7.382800 0.000000
-7.365500 0.000000
-7.348200 0.000000
-7.331000 0.000000
-7.313700 0.000000
-7.296400 0.000000
-7.279100 0.000000
-7.261900 0.000000
-7.244600 0.000000
-7.227300 0.000000
-7.210100 0.000000
-7.192800 0.000000
-7.175500 0.000000
-7.158200 0.000000
-7.141000 0.000000
-7.123700 0.000000
-7.106400 0.000000
-7.089200 0.000000
-7.071900 0.000000
-7.054600 0.000000
-7.037300 0.000000
-7.020100 0.000000
-7.002800 0.000000
-6.985500 0.000000
-6.968300 0.000000
-6.951000 0.000000
-6.933700 0.000000
-6.916400 0.000000
-6.899200 0.000000
-6.881900 0.000000
-6.864600 0.000000
-6.847300 0.000000
-6.830100 0.000000
-6.812800 0.000000
-6.795500 0.000000
-6.778300 0.000000
-6.761000 0.000000
-6.743700 0.000000
-6.726400 0.000000
-6.709200 0.000000
-6.691900 0.000000
-6.674600 0.000000
-6.657400 0.000000
-6.640100 0.000000
-6.622800 0.000000
-6.605500 0.000000
-6.588300 0.000000
-6.571000 0.000000
-6.553700 0.000000
-6.536500 0.000000
-6.519200 0.000000
-6.501900 0.000000
-6.484600 0.000000
-6.467400 0.000000
-6.450100 0.000000
-6.432800 0.000000
-6.415600 0.000000
-6.398300 0.000000
-6.381000 0.000000
-6.363700 0.000000
-6.346500 0.000000
-6.329200 0.000000
-6.311900 0.000000
-6.294700 0.000000
-6.277400 0.000000
-6.260100 0.000000
-6.242800 0.000000
-6.225600 0.000000
-6.208300 0.000000
-6.191000 0.000000
-6.173800 0.000000
-6.156500 0.000000
-6.139200 0.000000
-6.121900 0.000000
-6.104700 0.000000
-6.087400 0.000000
-6.070100 0.000000
-6.052900 0.000000
-6.035600 0.000000
-6.018300 0.000000
-6.001000 0.000000
-5.983800 0.000000
-5.966500 0.000000
-5.949200 0.000000
-5.931900 0.000000
-5.914700 0.000000
-5.897400 0.000000
-5.880100 0.000000
-5.862900 0.000000
-5.845600 0.000000
-5.828300 0.000000
-5.811000 0.000000
-5.793800 0.000000
-5.776500 0.000000
-5.759200 0.000000
-5.742000 0.000000
-5.724700 0.000000
-5.707400 0.000000
-5.690100 0.000000
-5.672900 0.000000
-5.655600 0.000000
-5.638300 0.000000
-5.621100 0.000000
-5.603800 0.000000
-5.586500 0.000000
-5.569200 0.000000
-5.552000 0.000000
-5.534700 0.000000
-5.517400 0.000000
-5.500200 0.000000
-5.482900 0.000000
-5.465600 0.000000
-5.448300 0.000000
-5.431100 0.000000
-5.413800 0.000000
-5.396500 0.000000
-5.379300 0.000000
-5.362000 0.000000
-5.344700 0.000000
-5.327400 0.000000
-5.310200 0.000000
-5.292900 0.000000
-5.275600 0.000000
-5.258400 0.000000
-5.241100 0.000000
-5.223800 0.000000
-5.206500 0.000000
-5.189300 0.000000
-5.172000 0.000000
-5.154700 0.000000
-5.137500 0.000000
-5.120200 0.000000
-5.102900 0.000000
-5.085600 0.000000
-5.068400 0.000000
-5.051100 0.000000
-5.033800 0.000000
-5.016500 0.000000
-4.999300 0.000000
-4.982000 0.000000
-4.964700 0.000000
-4.947500 0.000000
-4.930200 0.000000
-4.912900 0.000000
-4.895600 0.000000
-4.878400 0.000000
-4.861100 0.000000
-4.843800 0.000000
-4.826600 0.000000
-4.809300 0.000000
-4.792000 0.000000
-4.774700 0.000000
-4.757500 0.000000
-4.740200 0.000000
-4.722900 0.000000
-4.705700 0.000000
-4.688400 0.000000
-4.671100 0.000000
-4.653800 0.000000
-4.636600 0.000000
-4.619300 0.000000
-4.602000 0.000000
-4.584800 0.000000
-4.567500 0.000000
-4.550200 0.000000
-4.532900 0.000000
-4.515700 0.000000
-4.498400 0.000000
-4.481100 0.000000
-4.463900 0.000000
-4.446600 0.000000
-4.429300 0.000000
-4.412000 0.000000
-4.394800 0.000000
-4.377500 0.000000
-4.360200 0.000000
-4.343000 0.328800
-4.325700 1.351000
-4.308400 3.672200
-4.291100 7.191700
-4.273900 11.127200
-4.256600 13.795300
-4.239300 15.453400
-4.222100 15.149500
-4.204800 13.094300
-4.187500 10.342000
-4.170200 8.942100
-4.153000 8.063600
-4.135700 7.054000
-4.118400 5.540600
-4.101100 5.735800
-4.083900 5.507100
-4.066600 5.400000
-4.049300 5.515100
-4.032100 6.033400
-4.014800 6.843500
-3.997500 7.614800
-3.980200 8.130200
-3.963000 8.469200
-3.945700 8.806200
-3.928400 8.508900
-3.911200 7.992500
-3.893900 7.405100
-3.876600 6.886200
-3.859300 6.366600
-3.842100 5.829100
-3.824800 5.694900
-3.807500 5.796800
-3.790300 6.044900
-3.773000 6.350900
-3.755700 6.575400
-3.738400 5.850000
-3.721200 5.472900
-3.703900 5.503400
-3.686600 5.527500
-3.669400 5.545400
-3.652100 5.556900
-3.634800 5.639600
-3.617500 6.309400
-3.600300 5.124100
-3.583000 5.191600
-3.565700 5.273600
-3.548500 5.310600
-3.531200 5.360500
-3.513900 5.355700
-3.496600 5.297900
-3.479400 5.196600
-3.462100 5.066000
-3.444800 4.934300
-3.427600 4.789500
-3.410300 4.646000
-3.393000 4.501200
-3.375700 4.286900
-3.358500 3.754900
-3.341200 3.531300
-3.323900 3.322100
-3.306700 3.142000
-3.289400 2.986000
-3.272100 2.821000
-3.254800 2.634800
-3.237600 2.429400
-3.220300 2.240000
-3.203000 2.078700
-3.185700 1.954300
-3.168500 1.870600
-3.151200 1.827700
-3.133900 1.825200
-3.116700 1.837600
-3.099400 1.846700
-3.082100 1.852500
-3.064800 1.855000
-3.047600 1.854100
-3.030300 1.849900
-3.013000 1.842900
-2.995800 1.834400
-2.978500 1.824500
-2.961200 1.811500
-2.943900 1.791600
-2.926700 1.763800
-2.909400 1.728100
-2.892100 1.685800
-2.874900 1.637400
-2.857600 1.582800
-2.840300 1.522100
-2.823000 1.455300
-2.805800 1.385700
-2.788500 1.319300
-2.771200 1.256500
-2.754000 1.199200
-2.736700 1.147700
-2.719400 1.101900
-2.702100 1.061800
-2.684900 1.022100
-2.667600 0.977900
-2.650300 0.929100
-2.633100 0.875700
-2.615800 0.816600
-2.598500 0.734500
-2.581200 0.652700
-2.564000 0.574800
-2.546700 0.500600
-2.529400 0.430200
-2.512200 0.363600
-2.494900 0.300800
-2.477600 0.242100
-2.460300 0.189500
-2.443100 0.143300
-2.425800 0.103600
-2.408500 0.070300
-2.391300 0.043400
-2.374000 0.023000
-2.356700 0.009000
-2.339400 0.001500
-2.322200 0.000000
-2.304900 0.000000
-2.287600 0.000000
-2.270300 0.000000
-2.253100 0.000000
-2.235800 0.000000
-2.218500 0.000000
-2.201300 0.000000
-2.184000 0.000000
-2.166700 0.000000
-2.149400 0.000000
-2.132200 0.000000
-2.114900 0.000000
-2.097600 0.000000
-2.080400 0.000000
-2.063100 0.000000
-2.045800 0.000000
-2.028500 0.000000
-2.011300 0.000000
-1.994000 0.000000
-1.976700 0.000000
-1.959500 0.000000
-1.942200 0.000000
-1.924900 0.000000
-1.907600 0.000000
-1.890400 0.000000
-1.873100 0.000000
-1.855800 0.000000
-1.838600 0.000000
-1.821300 0.000000
-1.804000 0.000000
-1.786700 0.000000
-1.769500 0.000000
-1.752200 0.000000
-1.734900 0.000000
-1.717700 0.000000
-1.700400 0.000000
-1.683100 0.000000
-1.665800 0.000000
-1.648600 0.000000
-1.631300 0.000000
-1.614000 0.000000
-1.596800 0.000000
-1.579500 0.000000
-1.562200 0.000000
-1.544900 0.000000
-1.527700 0.000000
-1.510400 0.000000
-1.493100 0.000000
-1.475900 0.000000
-1.458600 0.000000
-1.441300 0.000000
-1.424000 0.000000
-1.406800 0.000000
-1.389500 0.000000
-1.372200 0.000000
-1.354900 0.000000
-1.337700 0.000000
-1.320400 0.000000
-1.303100 0.000000
-1.285900 0.000000
-1.268600 0.000000
-1.251300 0.000000
-1.234000 0.000000
-1.216800 0.000000
-1.199500 0.000000
-1.182200 0.000000
-1.165000 0.000000
-1.147700 0.000000
-1.130400 0.000000
-1.113100 0.000000
-1.095900 0.000000
-1.078600 0.000000
-1.061300 0.000000
-1.044100 0.000000
-1.026800 0.000000
-1.009500 0.000000
-0.992200 0.000000
-0.975000 0.000000
-0.957700 0.000000
-0.940400 0.000000
-0.923200 0.000000
-0.905900 0.000000
-0.888600 0.000000
-0.871300 0.000000
-0.854100 0.000000
-0.836800 0.000000
-0.819500 0.000000
-0.802300 0.000000
-0.785000 0.000000
-0.767700 0.000000
-0.750400 0.000000
-0.733200 0.000000
-0.715900 0.000000
-0.698600 0.000000
-0.681400 0.000000
-0.664100 0.000000
-0.646800 0.000000
-0.629500 0.000000
-0.612300 0.000100
-0.595000 0.016200
-0.577700 0.061300
-0.560500 0.124800
-0.543200 0.188600
-0.525900 0.252200
-0.508600 0.315800
-0.491400 0.379200
-0.474100 0.436000
-0.456800 0.479900
-0.439500 0.514400
-0.422300 0.548300
-0.405000 0.581900
-0.387700 0.615400
-0.370500 0.648700
-0.353200 0.681900
-0.335900 0.714800
-0.318600 0.747600
-0.301400 0.780100
-0.284100 0.812500
-0.266800 0.844800
-0.249600 0.876800
-0.232300 0.908700
-0.215000 0.940300
-0.197700 0.971800
-0.180500 1.003100
-0.163200 1.278000
-0.145900 1.672600
-0.128700 1.868700
-0.111400 2.030600
-0.094100 2.162200
-0.076800 2.265000
-0.059600 2.339100
-0.042300 2.478900
-0.025000 2.648200
-0.007800 2.834800
0.009500 3.041400
0.026800 3.269100
0.044100 3.517800
0.061300 3.787500
0.078600 4.078200
0.095900 4.386100
0.113100 4.658800
0.130400 4.937300
0.147700 5.217900
0.165000 5.470900
0.182200 5.687800
0.199500 5.868000
0.216800 6.034300
0.234000 6.264500
0.251300 6.460100
0.268600 6.647100
0.285900 6.859100
0.303100 7.009500
0.320400 7.651400
0.337700 8.423100
0.354900 7.225500
0.372200 6.697100
0.389500 6.178600
0.406800 5.929100
0.424000 5.954300
0.441300 5.992400
0.458600 6.011800
0.475900 5.955400
0.493100 5.860500
0.510400 5.697900
0.527700 5.519000
0.544900 5.321600
0.562200 5.363200
0.579500 5.442500
0.596800 5.416000
0.614000 5.207400
0.631300 5.001500
0.648600 4.808000
0.665800 5.141700
0.683100 5.386300
0.700400 5.235200
0.717700 5.012600
0.734900 4.970200
0.752200 5.047800
0.769500 5.151500
0.786700 5.286700
0.804000 5.458100
0.821300 5.730000
0.838600 6.051100
0.855800 6.441300
0.873100 6.960200
0.890400 8.373700
0.907600 7.806400
0.924900 7.083600
0.942200 6.257900
0.959500 5.825100
0.976700 6.037100
0.994000 6.206700
1.011300 6.368700
1.028500 6.456400
1.045800 6.463500
1.063100 6.504800
1.080400 6.578300
1.097600 6.807300
1.114900 6.990300
1.132200 7.221500
1.149400 7.505500
1.166700 7.615300
1.184000 7.528500
1.201300 7.437400
1.218500 7.293000
1.235800 7.013700
1.253100 7.030200
1.270300 7.227900
1.287600 7.136000
1.304900 6.936100
1.322200 6.698700
1.339400 6.536900
1.356700 6.456200
1.374000 6.348100
1.391300 6.228800
1.408500 6.121800
1.425800 6.140200
1.443100 6.157200
1.460300 6.261500
1.477600 7.083300
1.494900 7.606300
1.512200 7.544700
1.529400 7.525100
1.546700 7.547700
1.564000 7.621600
1.581200 7.789800
1.598500 7.988700
1.615800 8.173100
1.633100 8.148400
1.650300 8.011800
1.667600 8.064900
1.684900 8.340300
1.702100 8.512400
1.719400 8.851000
1.736700 9.416600
1.754000 10.068900
1.771200 10.199700
1.788500 10.356500
1.805800 10.653600
1.823000 10.997600
1.840300 11.388600
1.857600 11.986800
1.874900 12.639000
1.892100 12.384600
1.909400 12.341700
1.926700 12.372200
1.943900 12.080600
1.961200 11.338000
1.978500 10.622000
1.995800 10.284100
2.013000 10.452100
2.030300 10.800000
2.047600 10.813800
2.064800 10.543900
2.082100 10.648200
2.099400 10.482500
2.116700 9.759800
2.133900 9.629400
2.151200 9.642800
2.168500 9.500900
2.185700 9.206700
2.203000 9.011900
2.220300 8.827400
2.237600 8.648800
2.254800 8.360000
2.272100 8.138300
2.289400 7.706100
2.306700 7.050900
2.323900 6.621100
2.341200 6.210400
2.358500 5.926800
2.375700 5.750200
2.393000 5.592200
2.410300 5.561200
2.427600 5.704800
2.444800 5.947600
2.462100 6.211500
2.479400 6.464900
2.496600 6.607200
2.513900 6.462300
2.531200 6.254800
2.548500 6.074400
2.565700 5.846800
2.583000 5.629900
2.600300 5.428300
2.617500 5.159400
2.634800 5.113300
2.652100 5.544400
2.669400 6.348700
2.686600 7.056300
2.703900 7.574100
2.721200 7.801700
2.738400 7.924100
2.755700 8.159500
2.773000 8.128400
2.790300 8.809200
2.807500 9.869000
2.824800 10.409700
2.842100 10.473800
2.859300 10.034800
2.876600 9.610900
2.893900 9.339700
2.911200 8.666700
2.928400 8.042000
2.945700 7.639900
2.963000 7.229300
2.980200 7.100200
2.997500 7.070700
3.014800 6.963500
3.032100 6.744500
3.049300 6.224000
3.066600 5.760900
3.083900 5.359700
3.101100 5.186800
3.118400 5.028100
3.135700 4.871800
3.153000 4.717800
3.170200 4.557900
3.187500 4.385400
3.204800 4.200200
3.222100 3.971400
3.239300 3.639200
3.256600 3.140500
3.273900 2.631700
3.291100 2.246500
3.308400 1.914500
3.325700 1.526900
3.343000 1.145700
3.360200 0.780100
3.377500 0.463100
3.394800 0.228100
3.412000 0.075400
3.429300 0.005100
3.446600 0.000000
3.463900 0.000000
3.481100 0.000000
3.498400 0.000000
3.515700 0.000000
3.532900 0.000000
3.550200 0.000000
3.567500 0.000000
3.584800 0.000000
3.602000 0.000000
3.619300 0.000000
3.636600 0.000000
3.653800 0.000000
3.671100 0.000000
3.688400 0.000000
3.705700 0.000000
3.722900 0.000000
3.740200 0.000000
3.757500 0.000000
3.774700 0.000000
3.792000 0.000000
3.809300 0.000000
3.826600 0.000000
3.843800 0.000000
3.861100 0.000000
3.878400 0.000000
3.895600 0.000000
3.912900 0.000000
3.930200 0.000000
3.947500 0.000000
3.964700 0.000000
3.982000 0.000000
3.999300 0.000000
4.016500 0.000000
4.033800 0.000000
4.051100 0.000000
4.068400 0.000000
4.085600 0.000000
4.102900 0.000000
4.120200 0.000000
4.137500 0.000000
4.154700 0.000000
4.172000 0.000000
4.189300 0.000000
4.206500 0.000000
4.223800 0.000000
4.241100 0.000000
4.258400 0.000000
4.275600 0.000000
4.292900 0.000000
4.310200 0.000000
4.327400 0.000000
4.344700 0.000000
4.362000 0.000000
4.379300 0.000000
4.396500 0.000000
4.413800 0.000000
4.431100 0.000000
4.448300 0.000000
4.465600 0.000000
4.482900 0.000000
4.500200 0.000000
4.517400 0.000000
4.534700 0.000000
4.552000 0.000000
4.569200 0.000000
4.586500 0.000000
4.603800 0.000000
4.621100 0.000000
4.638300 0.000000
4.655600 0.000000
4.672900 0.000000
4.690100 0.001100
4.707400 0.005300
4.724700 0.012900
4.742000 0.023700
4.759200 0.037800
4.776500 0.053300
4.793800 0.068700
4.811000 0.084200
4.828300 0.099700
4.845600 0.115200
4.862900 0.151800
4.880100 0.218700
4.897400 0.291400
4.914700 0.369900
4.931900 0.454100
4.949200 0.544000
4.966500 0.639700
4.983800 0.741100
5.001000 0.848300
5.018300 0.961300
5.035600 1.016300
5.052900 1.059700
5.070100 1.108500
5.087400 1.154500
5.104700 1.197600
5.121900 1.306000
5.139200 1.459600
5.156500 1.636200
5.173800 1.838500
5.191000 2.036100
5.208300 2.203900
5.225600 2.373900
5.242800 2.576300
5.260100 2.790700
5.277400 3.007600
5.294700 3.225300
5.311900 3.442300
5.329200 3.652400
5.346500 3.816400
5.363700 4.011100
5.381000 4.316900
5.398300 4.904700
5.415600 5.770200
5.432800 6.580800
5.450100 7.250000
5.467400 6.761500
5.484600 6.263800
5.501900 5.911900
5.519200 5.574400
5.536500 5.245200
5.553700 4.924500
5.571000 4.614200
5.588300 4.299300
5.605500 3.952600
5.622800 3.693400
5.640100 3.589900
5.657400 3.652100
5.674600 3.840100
5.691900 4.047800
5.709200 4.235000
5.726400 4.395700
5.743700 4.539900
5.761000 4.669300
5.778300 4.784000
5.795500 4.884300
5.812800 4.996500
5.830100 5.128200
5.847300 5.270700
5.864600 5.423800
5.881900 5.563200
5.899200 5.565400
5.916400 5.448100
5.933700 5.324100
5.951000 5.118900
5.968300 4.832400
5.985500 4.561100
6.002800 4.333700
6.020100 4.173500
6.037300 4.076200
6.054600 4.038300
6.071900 4.068700
6.089200 4.191200
6.106400 4.411900
6.123700 4.698900
6.141000 4.971900
6.158200 5.245700
6.175500 5.507900
6.192800 5.743800
6.210100 5.935000
6.227300 6.090700
6.244600 6.339300
6.261900 6.654700
6.279100 6.816300
6.296400 6.910800
6.313700 7.131800
6.331000 7.220300
6.348200 6.845200
6.365500 6.496800
6.382800 6.174100
6.400000 5.994900
6.417300 5.709700
6.434600 4.811400
6.451900 4.601900
6.469100 4.495600
6.486400 4.554200
6.503700 4.718800
6.520900 4.976600
6.538200 5.241300
6.555500 5.312800
6.572800 5.224500
6.590000 5.113700
6.607300 4.978600
6.624600 4.819200
6.641800 4.635500
6.659100 4.692000
6.676400 4.711100
6.693700 4.628700
6.710900 4.756800
6.728200 4.917300
6.745500 5.095900
6.762700 5.582100
6.780000 6.093000
6.797300 6.620300
6.814600 7.336300
6.831800 8.112400
6.849100 8.628100
6.866400 9.047500
6.883700 9.549800
6.900900 9.650100
6.918200 8.998600
6.935500 8.747200
6.952700 8.547800
6.970000 8.053300
6.987300 7.294300
7.004600 6.669100
7.021800 6.166300
7.039100 5.890400
7.056400 5.936000
7.073600 6.072300
7.090900 6.310100
7.108200 6.652100
7.125500 7.125700
7.142700 7.455200
7.160000 7.578900
7.177300 7.473100
7.194500 6.781400
7.211800 6.060500
7.229100 5.487300
7.246400 5.319900
7.263600 5.389300
7.280900 5.522700
7.298200 5.631500
7.315400 5.587700
7.332700 5.478100
7.350000 5.389500
7.367300 5.319400
7.384500 5.262900
7.401800 5.219800
7.419100 5.187900
7.436300 5.155200
7.453600 5.122900
7.470900 5.093200
7.488200 5.067400
7.505400 5.046600
7.522700 5.096900
7.540000 5.184700
7.557200 5.282600
7.574500 5.464800
7.591800 5.668600
7.609100 5.818500
7.626300 6.053000
7.643600 6.360800
7.660900 6.717500
7.678100 7.083000
7.695400 7.519400
7.712700 7.902200
7.730000 8.185200
7.747200 8.368600
7.764500 8.452200
7.781800 8.538100
7.799100 8.922000
7.816300 9.517200
7.833600 10.117500
7.850900 10.493600
7.868100 10.821700
7.885400 11.117000
7.902700 10.359800
7.920000 10.229300
7.937200 9.425900
7.954500 8.547900
7.971800 7.684800
7.989000 7.438900
8.006300 7.467600
8.023600 7.500400
8.040900 7.501000
8.058100 7.494200
8.075400 7.495800
8.092700 7.527300
8.109900 7.654800
8.127200 7.885600
8.144500 8.214300
8.161800 7.439200
8.179000 7.685000
8.196300 8.156900
8.213600 8.637000
8.230800 8.578900
8.248100 8.484700
8.265400 8.279600
8.282700 8.140800
8.299900 8.365200
8.317200 8.621900
8.334500 8.650200
8.351700 8.368700
8.369000 7.827300
8.386300 7.321900
8.403600 6.891500
8.420800 6.501100
8.438100 6.154400
8.455400 5.860400
8.472600 5.740500
8.489900 5.162800
8.507200 5.247000
8.524500 5.501800
8.541700 6.137800
8.559000 6.462000
8.576300 6.502500
8.593500 6.420600
8.610800 6.279500
8.628100 6.094100
8.645400 5.761400
8.662600 5.624700
8.679900 5.578400
8.697200 5.576000
8.714500 5.586400
8.731700 5.592300
8.749000 5.593600
8.766300 5.590300
8.783500 5.585300
8.800800 5.581400
8.818100 5.464800
8.835400 5.284400
8.852600 5.036500
8.869900 4.725700
8.887200 4.482300
8.904400 4.184600
8.921700 3.839400
8.939000 3.461900
8.956300 3.105200
8.973500 2.894000
8.990800 2.780400
9.008100 2.671500
9.025300 2.565600
9.042600 2.463900
9.059900 2.366600
9.077200 2.273700
9.094400 2.185300
9.111700 1.809500
9.129000 1.683000
9.146200 1.594000
9.163500 1.542600
9.180800 1.522900
9.198100 1.507000
9.215300 1.494600
9.232600 1.473300
9.249900 1.399300
9.267100 1.318800
9.284400 1.231500
9.301700 1.135800
9.319000 1.062700
9.336200 1.016900
9.353500 0.970500
9.370800 0.931900
9.388000 0.919200
9.405300 0.910200
9.422600 0.905000
9.439900 0.904600
9.457100 0.920200
9.474400 0.944700
9.491700 0.973500
9.508900 1.006700
9.526200 1.044400
9.543500 1.069500
9.560800 1.080700
9.578000 1.092300
9.595300 1.104400
9.612600 1.116800
9.629900 1.116500
9.647100 1.094200
9.664400 1.049900
9.681700 0.998500
9.698900 0.976000
9.716200 0.984100
9.733500 1.022600
9.750800 1.073000
9.768000 1.124800
9.785300 1.177900
9.802600 1.240100
9.819800 1.347500
9.837100 1.462700
9.854400 1.724100
9.871700 2.143100
9.888900 2.576400
9.906200 2.757900
9.923500 3.008800
9.940700 3.241100
9.958000 3.419600
9.975300 3.500400
9.992600 3.643600
10.009800 3.801600
10.027100 3.961400
10.044400 4.123100
10.061600 4.286300
10.078900 4.441400
10.096200 4.600800
10.113500 4.787000
10.130700 4.981800
10.148000 5.186400
10.165300 5.386800
10.182500 5.572900
10.199800 5.745800
10.217100 5.910600
10.234400 6.069700
10.251600 6.212700
10.268900 6.308300
10.286200 6.360800
10.303400 6.363000
10.320700 6.184300
10.338000 5.962400
10.355300 5.653200
10.372500 5.257400
10.389800 4.776200
10.407100 3.999600
10.424300 3.331200
10.441600 3.269600
10.458900 3.232900
10.476200 3.221000
10.493400 3.234400
10.510700 3.273800
10.528000 3.441200
10.545300 3.796800
10.562500 4.206200
10.579800 4.552600
10.597100 5.178600
10.614300 5.742900
10.631600 6.547800
10.648900 7.374400
10.666200 7.856800
10.683400 7.768900
10.700700 7.431200
10.718000 7.222600
10.735200 7.144100
10.752500 5.557100
10.769800 4.985300
10.787100 4.395800
10.804300 4.172800
10.821600 3.956900
10.838900 3.747300
10.856100 3.546200
10.873400 3.355400
10.890700 3.354400
10.908000 3.458000
10.925200 3.659100
10.942500 3.956400
10.959800 4.361100
10.977000 4.860800
10.994300 5.272700
11.011600 5.532000
11.028900 5.645900
11.046100 5.700200
11.063400 5.640200
11.080700 5.512800
11.097900 5.443600
11.115200 5.469200
11.132500 5.485800
11.149800 5.481200
11.167000 5.437700
11.184300 5.388900
11.201600 5.337900
11.218800 5.289800
11.236100 5.253500
11.253400 5.230200
11.270700 5.211800
11.287900 5.163700
11.305200 5.087600
11.322500 5.077300
11.339700 5.061900
11.357000 5.043900
11.374300 5.023400
11.391600 4.930200
11.408800 4.726000
11.426100 4.227700
11.443400 3.289300
11.460700 2.386900
11.477900 2.033700
11.495200 1.860800
11.512500 1.879400
11.529700 2.026000
11.547000 2.251600
11.564300 2.552800
11.581600 2.899900
11.598800 3.282400
11.616100 3.700300
11.633400 4.096900
11.650600 4.344100
11.667900 4.439700
11.685200 4.522500
11.702500 4.576000
11.719700 4.522300
11.737000 4.404200
11.754300 4.281000
11.771500 4.754400
11.788800 4.033200
11.806100 3.583700
11.823400 3.390900
11.840600 3.319800
11.857900 3.308200
11.875200 3.271300
11.892400 3.217300
11.909700 3.214000
11.927000 3.263700
11.944300 3.366300
11.961500 3.526600
11.978800 4.347200
11.996100 4.809800
12.013300 5.010300
12.030600 5.698300
12.047900 5.575800
12.065200 5.497600
12.082400 5.624600
12.099700 5.885900
12.117000 6.092000
12.134200 6.385300
12.151500 6.706500
12.168800 7.031500
12.186100 7.307900
12.203300 6.913200
12.220600 6.893700
12.237900 7.065200
12.255100 7.262800
12.272400 7.469300
12.289700 7.725000
12.307000 7.910100
12.324200 7.996200
12.341500 7.945600
12.358800 7.839600
12.376100 7.716500
12.393300 7.551600
12.410600 7.330300
12.427900 7.055300
12.445100 6.803100
12.462400 6.754400
12.479700 6.907700
12.497000 7.259100
12.514200 7.857700
12.531500 8.708900
12.548800 9.778500
12.566000 10.773300
12.583300 11.491500
12.600600 11.114100
12.617900 10.277200
12.635100 9.307000
12.652400 8.375100
12.669700 7.398900
12.686900 6.363700
12.704200 5.647600
12.721500 5.022600
12.738800 4.367800
12.756000 3.870200
12.773300 3.565200
12.790600 3.397600
12.807800 3.460000
12.825100 3.750400
12.842400 4.150400
12.859700 4.643000
12.876900 5.172700
12.894200 5.721900
12.911500 6.288000
12.928700 6.997500
12.946000 7.932100
12.963300 8.392400
12.980600 8.722400
12.997800 8.495100
13.015100 7.757600
13.032400 7.017100
13.049600 6.329800
13.066900 5.987500
13.084200 5.896600
13.101500 5.611900
13.118700 5.335500
13.136000 5.085900
13.153300 4.952300
13.170500 4.972400
13.187800 6.976000
13.205100 5.588500
13.222400 5.469900
13.239600 5.760500
13.256900 6.159500
13.274200 6.604400
13.291500 6.975600
13.308700 7.227000
13.326000 7.359000
13.343300 7.385800
13.360500 7.465500
13.377800 7.572100
13.395100 7.662400
13.412400 7.698400
13.429600 7.644600
13.446900 8.415200
13.464200 8.319100
13.481400 7.832800
13.498700 7.716800
13.516000 7.507300
13.533300 7.245000
13.550500 6.807700
13.567800 6.362600
13.585100 5.892800
13.602300 5.702800
13.619600 5.621000
13.636900 5.143800
13.654200 4.580800
13.671400 4.437000
13.688700 4.322400
13.706000 4.303500
13.723200 4.459300
13.740500 4.906000
13.757800 5.359500
13.775100 5.733100
13.792300 6.020400
13.809600 6.402900
13.826900 7.430700
13.844100 6.440000
13.861400 6.336300
13.878700 6.358600
13.896000 6.371300
13.913200 6.367800
13.930500 6.376200
13.947800 6.375300
13.965000 6.343000
13.982300 6.322600
13.999600 6.361800
14.016900 6.448000
14.034100 6.574600
14.051400 6.718300
14.068700 6.859100
14.085900 6.957000
14.103200 7.008500
14.120500 7.016000
14.137800 7.117400
14.155000 7.362300
14.172300 8.110100
14.189600 8.619500
14.206900 8.215600
14.224100 8.174500
14.241400 8.118000
14.258700 8.115800
14.275900 8.149700
14.293200 8.154000
14.310500 8.119800
14.327800 8.048300
14.345000 7.963700
14.362300 7.898500
14.379600 6.654600
14.396800 6.584900
14.414100 6.569000
14.431400 6.543100
14.448700 6.603100
14.465900 6.747800
14.483200 6.916000
14.500500 7.082000
14.517700 7.245000
14.535000 7.396800
14.552300 7.561500
14.569600 7.791400
14.586800 8.073700
14.604100 8.982000
14.621400 9.209900
14.638600 9.848600
14.655900 8.773200
14.673200 8.429500
14.690500 8.187200
14.707700 7.579500
14.725000 6.604500
14.742300 6.298400
14.759500 6.157100
14.776800 6.238600
14.794100 6.334300
14.811400 6.457000
14.828600 6.594000
14.845900 6.739500
14.863200 6.893600
14.880400 7.058900
14.897700 7.230900
14.915000 7.680800
14.932300 8.699100
14.949500 9.147200
14.966800 8.609400
14.984100 8.289100
15.001300 8.053900
15.018600 8.222500
15.035900 8.235600
15.053200 8.031300
15.070400 8.508800
15.087700 8.337300
15.105000 8.077400
15.122300 7.579600
15.139500 7.967700
15.156800 8.856000
15.174100 9.864100
15.191300 9.519300
15.208600 8.500300
15.225900 8.409900
15.243200 8.342500
15.260400 8.301700
15.277700 8.062300
15.295000 7.975200
15.312200 8.021200
15.329500 8.056900
15.346800 8.073800
15.364100 8.191800
15.381300 8.397200
15.398600 8.599900
15.415900 8.783200
15.433100 8.942100
15.450400 9.070200
15.467700 9.125400
15.485000 9.088300
15.502200 9.024000
15.519500 8.945800
15.536800 8.825600
15.554000 8.611200
15.571300 8.452400
15.588600 8.351800
15.605900 8.366900
15.623100 8.932400
15.640400 9.485100
15.657700 10.026300
15.674900 10.637900
15.692200 11.170500
15.709500 11.569600
15.726800 11.814900
15.744000 11.430700
15.761300 10.879400
15.778600 9.938400
15.795800 9.032100
15.813100 8.384600
15.830400 7.942100
15.847700 7.772500
15.864900 7.746900
15.882200 7.764400
15.899500 7.782400
15.916700 7.812900
15.934000 7.857200
15.951300 7.904400
15.968600 7.941700
15.985800 7.958100
16.003100 7.952000
16.020400 8.263200
16.037700 8.252600
16.054900 8.467500
16.072200 8.795200
16.089500 8.907200
16.106700 8.902300
16.124000 9.012900
16.141300 9.161700
16.158600 8.555100
16.175800 7.745600
16.193100 7.620000
16.210400 7.812300
16.227600 7.913000
16.244900 8.342400
16.262200 10.276100
16.279500 9.984500
16.296700 9.218100
16.314000 7.957900
16.331300 5.387700
16.348500 5.578700
16.365800 5.842800
16.383100 6.178300
16.400400 6.462100
16.417600 8.018200
16.434900 13.058200
16.452200 11.615500
16.469400 9.934300
16.486700 9.576700
16.504000 9.049400
16.521300 9.048700
16.538500 9.104600
16.555800 8.624400
16.573100 8.111500
16.590300 7.447700
16.607600 6.864700
16.624900 6.619500
16.642200 6.598000
16.659400 7.642300
16.676700 7.846600
16.694000 8.081300
16.711200 8.159100
16.728500 8.344000
16.745800 8.661300
16.763100 9.047400
16.780300 9.504100
16.797600 9.777300
16.814900 9.191900
16.832100 8.417000
16.849400 7.339200
16.866700 7.300300
16.884000 7.965000
16.901200 6.114100
16.918500 6.294600
16.935800 6.471900
16.953100 6.601000
16.970300 6.701300
16.987600 6.801900
17.004900 6.904900
17.022100 7.003200
17.039400 7.041800
17.056700 7.019400
17.074000 6.989900
17.091200 7.072600
17.108500 7.170600
17.125800 7.283600
17.143000 7.414300
17.160300 7.565000
17.177600 7.094600
17.194900 6.910600
17.212100 6.888900
17.229400 6.893800
17.246700 6.925300
17.263900 6.993000
17.281200 7.136600
17.298500 7.548600
17.315800 8.085500
17.333000 8.715700
17.350300 9.240400
17.367600 9.551800
17.384800 11.880100
17.402100 11.410600
17.419400 10.898100
17.436700 9.836500
17.453900 6.444300
17.471200 6.546000
17.488500 6.712800
17.505700 7.130000
17.523000 8.604400
17.540300 11.945600
17.557600 14.088800
17.574800 6.860300
17.592100 5.255700
17.609400 5.595700
17.626600 5.929900
17.643900 6.232300
17.661200 6.493600
17.678500 6.713700
17.695700 9.703700
17.713000 9.497700
17.730300 8.274600
17.747500 7.110100
17.764800 5.863100
17.782100 3.919400
17.799400 3.077300
17.816600 2.863800
17.833900 3.234700
17.851200 3.742700
17.868500 4.219600
17.885700 4.654200
17.903000 5.035900
17.920300 5.293200
17.937500 5.392100
17.954800 5.420700
17.972100 5.502700
17.989400 5.601800
18.006600 5.702600
18.023900 5.780000
18.041200 5.851100
18.058400 5.968100
18.075700 6.045000
18.093000 6.056200
18.110300 5.455200
18.127500 3.791600
18.144800 4.006000
18.162100 5.433600
18.179300 5.340900
18.196600 4.506600
18.213900 3.792600
18.231200 3.168600
18.248400 2.647100
18.265700 2.155900
18.283000 1.710900
18.300200 1.312200
18.317500 0.959800
18.334800 0.653700
18.352100 0.393800
18.369300 0.180200
18.386600 0.012900
18.403900 0.000000
18.421100 0.000000
18.438400 0.000000
18.455700 0.000000
18.473000 0.000000
18.490200 0.000000
18.507500 0.000000
18.524800 0.000000
18.542000 0.000000
18.559300 0.000000
18.576600 0.000000
18.593900 0.000000
18.611100 0.000000
18.628400 0.000000
18.645700 0.000000
18.662900 0.000000
18.680200 0.000000
18.697500 0.000000
18.714800 0.000000
18.732000 0.000000
18.749300 0.000000
18.766600 0.000000
18.783900 0.000000
18.801100 0.000000
18.818400 0.000000
18.835700 0.000000
18.852900 0.000000
18.870200 0.000000
18.887500 0.000000
18.904800 0.000000
18.922000 0.000000
18.939300 0.000000
18.956600 0.000000
18.973800 0.000000
18.991100 0.000000
19.008400 0.000000
19.025700 0.000000
19.042900 0.000000
19.060200 0.000000
19.077500 0.000000
19.094700 0.000000
19.112000 0.000000
19.129300 0.000000
19.146600 0.000000
19.163800 0.000000
19.181100 0.000000
19.198400 0.000000
19.215600 0.000000
19.232900 0.000000
19.250200 0.000000
19.267500 0.000000
19.284700 0.000000
19.302000 0.000000
19.319300 0.000000
19.336500 0.000000
19.353800 0.000000
19.371100 0.000000
19.388400 0.000000
19.405600 0.000000
19.422900 0.000000
19.440200 0.000000
19.457400 0.000000
19.474700 0.000000
19.492000 0.000000
19.509300 0.000000
19.526500 0.000000
19.543800 0.000000
19.561100 0.000000
19.578300 0.000000
19.595600 0.000000
19.612900 0.000000
19.630200 0.000000
19.647400 0.000000
19.664700 0.000000
19.682000 0.000000
19.699300 0.000000
19.716500 0.000000
19.733800 0.000000
19.751100 0.000000
19.768300 0.000000
19.785600 0.000000
19.802900 0.000000
19.820200 0.000000
19.837400 0.000000
19.854700 0.000000
19.872000 0.000000
19.889200 0.000000
19.906500 0.000000
19.923800 0.000000
19.941100 0.000000
19.958300 0.000000
e
