set title 'mp-1012435 - Density of States'
set xlabel 'Energy (eV)'
set ylabel 'DOS (states/eV)'
set grid
set xrange [-10:10]
set yrange [0:12.775]
set xzeroaxis lt -1
set terminal png size 800,600
set output 'mp-1012435_dos_gnuplot.png'
plot '-' using 1:2 with lines title 'DOS'
-13.950900 0.000000
-13.930600 0.000000
-13.910200 0.000000
-13.889800 0.000000
-13.869400 0.000000
-13.849000 0.000000
-13.828700 0.000000
-13.808300 0.000000
-13.787900 0.000000
-13.767500 0.000000
-13.747100 0.000000
-13.726800 0.000000
-13.706400 0.000000
-13.686000 0.000000
-13.665600 0.000000
-13.645200 0.000000
-13.624900 0.000000
-13.604500 0.000000
-13.584100 0.000000
-13.563700 0.000000
-13.543300 0.000000
-13.523000 0.000000
-13.502600 0.000000
-13.482200 0.000000
-13.461800 0.000000
-13.441400 0.000000
-13.421100 0.000000
-13.400700 0.000000
-13.380300 0.000000
-13.359900 0.000000
-13.339500 0.000000
-13.319200 0.000000
-13.298800 0.000000
-13.278400 0.000000
-13.258000 0.000000
-13.237600 0.000000
-13.217300 0.000000
-13.196900 0.000000
-13.176500 0.000000
-13.156100 0.000000
-13.135700 0.000000
-13.115400 0.000000
-13.095000 0.000000
-13.074600 0.000000
-13.054200 0.000000
-13.033800 0.000000
-13.013500 0.000000
-12.993100 0.000000
-12.972700 0.000000
-12.952300 0.000000
-12.931900 0.000000
-12.911600 0.000000
-12.891200 0.000000
-12.870800 0.000000
-12.850400 0.000000
-12.830000 0.000000
-12.809700 0.000000
-12.789300 0.000000
-12.768900 0.000000
-12.748500 0.000000
-12.728100 0.000000
-12.707800 0.000000
-12.687400 0.000000
-12.667000 0.000000
-12.646600 0.000000
-12.626200 0.000000
-12.605900 0.000000
-12.585500 0.000000
-12.565100 0.000000
-12.544700 0.000000
-12.524300 0.000000
-12.504000 0.000000
-12.483600 0.000000
-12.463200 0.000000
-12.442800 0.000000
-12.422400 0.000000
-12.402100 0.000000
-12.381700 0.000000
-12.361300 0.000000
-12.340900 0.000000
-12.320500 0.000000
-12.300200 0.000000
-12.279800 0.000000
-12.259400 0.000000
-12.239000 0.000000
-12.218600 0.000000
-12.198300 0.000000
-12.177900 0.000000
-12.157500 0.000000
-12.137100 0.000000
-12.116700 0.000000
-12.096400 3.738800
-12.076000 42.681400
-12.055600 48.049900
-12.035200 112.169500
-12.014800 94.411600
-11.994500 233.507200
-11.974100 174.046900
-11.953700 176.152000
-11.933300 40.411100
-11.912900 38.558400
-11.892600 0.000000
-11.872200 0.000000
-11.851800 0.000000
-11.831400 0.000000
-11.811000 0.000000
-11.790700 0.000000
-11.770300 0.000000
-11.749900 0.000000
-11.729500 0.000000
-11.709100 0.000000
-11.688800 0.000000
-11.668400 0.000000
-11.648000 0.000000
-11.627600 0.000000
-11.607200 0.000000
-11.586900 0.000000
-11.566500 0.000000
-11.546100 0.000000
-11.525700 0.000000
-11.505300 0.000000
-11.485000 0.000000
-11.464600 0.000000
-11.444200 0.000000
-11.423800 0.000000
-11.403400 0.000000
-11.383100 0.000000
-11.362700 0.000000
-11.342300 0.000000
-11.321900 0.000000
-11.301500 0.000000
-11.281200 0.000000
-11.260800 0.000000
-11.240400 0.000000
-11.220000 0.000000
-11.199600 0.000000
-11.179200 0.000000
-11.158900 0.000000
-11.138500 0.000000
-11.118100 0.000000
-11.097700 0.000000
-11.077300 0.000000
-11.057000 0.000000
-11.036600 0.000000
-11.016200 0.000000
-10.995800 0.000000
-10.975400 0.000000
-10.955100 0.000000
-10.934700 0.000000
-10.914300 0.000000
-10.893900 0.000000
-10.873500 0.000000
-10.853200 0.000000
-10.832800 0.000000
-10.812400 0.000000
-10.792000 0.000000
-10.771600 0.000000
-10.751300 0.000000
-10.730900 0.000000
-10.710500 0.000000
-10.690100 0.000000
-10.669700 0.000000
-10.649400 0.000000
-10.629000 0.000000
-10.608600 0.000000
-10.588200 0.000000
-10.567800 0.000000
-10.547500 0.000000
-10.527100 0.000000
-10.506700 0.000000
-10.486300 0.000000
-10.465900 0.000000
-10.445600 0.000000
-10.425200 0.000000
-10.404800 0.000000
-10.384400 0.000000
-10.364000 0.000000
-10.343700 0.000000
-10.323300 0.000000
-10.302900 0.000000
-10.282500 0.000000
-10.262100 0.000000
-10.241800 0.000000
-10.221400 0.000000
-10.201000 0.000000
-10.180600 0.000000
-10.160200 0.000000
-10.139900 0.000000
-10.119500 0.000000
-10.099100 0.000000
-10.078700 0.000000
-10.058300 0.000000
-10.038000 0.000000
-10.017600 0.000000
-9.997200 0.000000
-9.976800 0.000000
-9.956400 0.000000
-9.936100 0.000000
-9.915700 0.000000
-9.895300 0.000000
-9.874900 0.000000
-9.854500 0.000000
-9.834200 0.000000
-9.813800 0.000000
-9.793400 0.000000
-9.773000 0.000000
-9.752600 0.000000
-9.732300 0.000000
-9.711900 0.000000
-9.691500 0.000000
-9.671100 0.000000
-9.650700 0.000000
-9.630400 0.000000
-9.610000 0.000000
-9.589600 0.000000
-9.569200 0.000000
-9.548800 0.000000
-9.528500 0.000000
-9.508100 0.000000
-9.487700 0.000000
-9.467300 0.000000
-9.446900 0.000000
-9.426600 0.000000
-9.406200 0.000000
-9.385800 0.000000
-9.365400 0.000000
-9.345000 0.000000
-9.324700 0.000000
-9.304300 0.000000
-9.283900 0.000000
-9.263500 0.000000
-9.243100 0.000000
-9.222800 0.000000
-9.202400 0.000000
-9.182000 0.000000
-9.161600 0.000000
-9.141200 0.000000
-9.120900 0.000000
-9.100500 0.000000
-9.080100 0.000000
-9.059700 0.000000
-9.039300 0.000000
-9.019000 0.000000
-8.998600 0.000000
-8.978200 0.000000
-8.957800 0.000000
-8.937400 0.000000
-8.917100 0.000000
-8.896700 0.000000
-8.876300 0.000000
-8.855900 0.000000
-8.835500 0.000000
-8.815200 0.000000
-8.794800 0.000000
-8.774400 0.000000
-8.754000 0.000000
-8.733600 0.000000
-8.713300 0.000000
-8.692900 0.000000
-8.672500 0.000000
-8.652100 0.000000
-8.631700 0.000000
-8.611400 0.000000
-8.591000 0.000000
-8.570600 0.000000
-8.550200 0.000000
-8.529800 0.000000
-8.509500 0.000000
-8.489100 0.000000
-8.468700 0.000000
-8.448300 0.000000
-8.427900 0.000000
-8.407600 0.000000
-8.387200 0.000000
-8.366800 0.000000
-8.346400 0.000000
-8.326000 0.000000
-8.305700 0.000000
-8.285300 0.011100
-8.264900 0.046300
-8.244500 0.105400
-8.224100 0.188600
-8.203800 0.294100
-8.183400 0.411200
-8.163000 0.538300
-8.142600 0.634800
-8.122200 0.673600
-8.101900 0.699600
-8.081500 0.712500
-8.061100 0.717700
-8.040700 0.769400
-8.020300 0.822200
-8.000000 0.876100
-7.979600 0.931100
-7.959200 0.986900
-7.938800 1.042400
-7.918400 1.097300
-7.898100 1.151500
-7.877700 1.205200
-7.857300 1.258100
-7.836900 1.308300
-7.816500 1.361700
-7.796200 1.420100
-7.775800 1.475800
-7.755400 1.531200
-7.735000 1.586900
-7.714600 1.644300
-7.694300 1.704400
-7.673900 1.767200
-7.653500 1.837700
-7.633100 1.920600
-7.612700 2.015700
-7.592400 2.123100
-7.572000 2.242600
-7.551600 2.382100
-7.531200 2.533400
-7.510800 2.657800
-7.490400 2.761100
-7.470100 2.843300
-7.449700 2.904600
-7.429300 2.945400
-7.408900 2.965800
-7.388500 3.052200
-7.368200 3.173100
-7.347800 3.314100
-7.327400 3.464600
-7.307000 3.623400
-7.286600 3.799800
-7.266300 3.994300
-7.245900 4.329400
-7.225500 4.789800
-7.205100 5.154600
-7.184700 5.338400
-7.164400 5.502200
-7.144000 5.632700
-7.123600 5.730000
-7.103200 5.795500
-7.082800 5.872200
-7.062500 6.089900
-7.042100 6.797500
-7.021700 7.833300
-7.001300 6.704500
-6.980900 7.402800
-6.960600 7.953800
-6.940200 7.701800
-6.919800 4.909000
-6.899400 3.655800
-6.879000 3.064300
-6.858700 0.000000
-6.838300 0.000000
-6.817900 0.000000
-6.797500 0.000000
-6.777100 0.000000
-6.756800 0.000000
-6.736400 0.000000
-6.716000 0.000000
-6.695600 0.000000
-6.675200 0.000000
-6.654900 0.000000
-6.634500 0.000000
-6.614100 0.000000
-6.593700 0.000000
-6.573300 0.000000
-6.553000 0.000000
-6.532600 0.000000
-6.512200 0.000000
-6.491800 0.000000
-6.471400 0.000000
-6.451100 0.000000
-6.430700 0.000000
-6.410300 0.000000
-6.389900 0.000000
-6.369500 0.000000
-6.349200 0.000000
-6.328800 0.000000
-6.308400 0.000000
-6.288000 0.000000
-6.267600 0.000000
-6.247300 0.000000
-6.226900 0.000000
-6.206500 0.000000
-6.186100 0.000000
-6.165700 0.000000
-6.145400 0.000000
-6.125000 0.000000
-6.104600 0.000000
-6.084200 0.000000
-6.063800 0.000000
-6.043500 0.000000
-6.023100 0.000000
-6.002700 0.000000
-5.982300 0.000000
-5.961900 0.000000
-5.941600 0.000000
-5.921200 0.000000
-5.900800 0.000000
-5.880400 0.000000
-5.860000 0.000000
-5.839700 0.000000
-5.819300 0.000000
-5.798900 0.000000
-5.778500 0.000000
-5.758100 0.000000
-5.737800 0.000000
-5.717400 0.000000
-5.697000 0.000000
-5.676600 0.000000
-5.656200 0.000000
-5.635900 0.000000
-5.615500 0.000000
-5.595100 0.000000
-5.574700 0.000000
-5.554300 0.000000
-5.534000 0.000000
-5.513600 0.000000
-5.493200 0.000000
-5.472800 0.000000
-5.452400 0.000000
-5.432100 0.000000
-5.411700 0.000000
-5.391300 0.000000
-5.370900 0.000000
-5.350500 0.000000
-5.330200 0.000000
-5.309800 0.000000
-5.289400 0.000000
-5.269000 0.000000
-5.248600 0.000000
-5.228300 0.000000
-5.207900 0.000000
-5.187500 0.000000
-5.167100 0.000000
-5.146700 0.000000
-5.126400 0.000000
-5.106000 0.000000
-5.085600 0.000000
-5.065200 0.000000
-5.044800 0.000000
-5.024500 0.000000
-5.004100 0.000000
-4.983700 0.000000
-4.963300 0.000000
-4.942900 0.000000
-4.922600 0.000000
-4.902200 0.000000
-4.881800 0.000000
-4.861400 0.000000
-4.841000 0.000000
-4.820700 0.000000
-4.800300 0.000000
-4.779900 0.000000
-4.759500 0.000000
-4.739100 0.000000
-4.718800 0.000000
-4.698400 0.000000
-4.678000 0.000000
-4.657600 0.000000
-4.637200 0.000000
-4.616900 0.000000
-4.596500 0.000000
-4.576100 0.000000
-4.555700 0.000000
-4.535300 0.000000
-4.515000 0.000000
-4.494600 0.000000
-4.474200 0.000000
-4.453800 0.000000
-4.433400 0.000000
-4.413100 0.000000
-4.392700 0.000000
-4.372300 0.000000
-4.351900 0.000000
-4.331500 0.000000
-4.311200 0.000000
-4.290800 0.000000
-4.270400 0.000000
-4.250000 0.000000
-4.229600 0.000000
-4.209300 0.000000
-4.188900 0.000000
-4.168500 0.000000
-4.148100 0.000000
-4.127700 0.000000
-4.107400 0.000000
-4.087000 0.000000
-4.066600 0.000000
-4.046200 0.000000
-4.025800 0.000000
-4.005500 0.000000
-3.985100 0.000000
-3.964700 0.000000
-3.944300 0.000000
-3.923900 0.000000
-3.903600 0.000000
-3.883200 0.000000
-3.862800 0.000000
-3.842400 0.000000
-3.822000 0.000000
-3.801700 0.000000
-3.781300 0.000000
-3.760900 0.000000
-3.740500 0.000000
-3.720100 0.000000
-3.699700 0.000000
-3.679400 0.000000
-3.659000 0.000000
-3.638600 0.000000
-3.618200 0.000000
-3.597800 0.281900
-3.577500 0.567300
-3.557100 0.788300
-3.536700 0.944900
-3.516300 1.098800
-3.495900 1.311300
-3.475600 1.232200
-3.455200 1.303000
-3.434800 1.537100
-3.414400 1.820600
-3.394000 2.139700
-3.373700 2.490800
-3.353300 2.757300
-3.332900 2.805200
-3.312500 2.794700
-3.292100 2.839200
-3.271800 2.986200
-3.251400 3.135900
-3.231000 3.288100
-3.210600 3.434900
-3.190200 3.573400
-3.169900 3.900400
-3.149500 4.426100
-3.129100 4.908900
-3.108700 4.868000
-3.088300 4.963900
-3.068000 4.987900
-3.047600 4.939300
-3.027200 4.818000
-3.006800 4.624100
-2.986400 4.344600
-2.966100 3.909900
-2.945700 3.667500
-2.925300 3.598700
-2.904900 3.598200
-2.884500 3.610100
-2.864200 3.634200
-2.843800 3.670500
-2.823400 3.719200
-2.803000 4.346700
-2.782600 5.199500
-2.762300 5.685700
-2.741900 5.938400
-2.721500 5.835200
-2.701100 5.748400
-2.680700 5.407200
-2.660400 4.305100
-2.640000 3.662600
-2.619600 3.168000
-2.599200 2.728300
-2.578800 2.327800
-2.558500 1.968300
-2.538100 1.675800
-2.517700 1.424300
-2.497300 1.176100
-2.476900 0.856000
-2.456600 0.798900
-2.436200 0.764300
-2.415800 0.737300
-2.395400 0.710900
-2.375000 0.685000
-2.354700 0.659600
-2.334300 0.634800
-2.313900 0.610500
-2.293500 0.586700
-2.273100 0.563500
-2.252800 0.540800
-2.232400 0.518600
-2.212000 0.497000
-2.191600 0.475900
-2.171200 0.455300
-2.150900 0.435300
-2.130500 0.415800
-2.110100 0.396800
-2.089700 0.378400
-2.069300 0.366100
-2.049000 0.365400
-2.028600 0.362500
-2.008200 0.357300
-1.987800 0.349800
-1.967400 0.340000
-1.947100 0.328000
-1.926700 0.313700
-1.906300 0.297200
-1.885900 0.278400
-1.865500 0.241200
-1.845200 0.192800
-1.824800 0.168900
-1.804400 0.147300
-1.784000 0.127100
-1.763600 0.108500
-1.743300 0.091300
-1.722900 0.075600
-1.702500 0.061400
-1.682100 0.048600
-1.661700 0.037400
-1.641400 0.027600
-1.621000 0.019300
-1.600600 0.012500
-1.580200 0.007100
-1.559800 0.003300
-1.539500 0.000900
-1.519100 0.000000
-1.498700 0.000000
-1.478300 0.000000
-1.457900 0.000000
-1.437600 0.000000
-1.417200 0.000000
-1.396800 0.000000
-1.376400 0.000000
-1.356000 0.000000
-1.335700 0.000000
-1.315300 0.000000
-1.294900 0.000000
-1.274500 0.000000
-1.254100 0.000000
-1.233800 0.000000
-1.213400 0.000000
-1.193000 0.000000
-1.172600 0.000000
-1.152200 0.000000
-1.131900 0.000000
-1.111500 0.000000
-1.091100 0.000000
-1.070700 0.000000
-1.050300 0.000000
-1.030000 0.000000
-1.009600 0.000000
-0.989200 0.000000
-0.968800 0.000000
-0.948400 0.000000
-0.928100 0.000000
-0.907700 0.000000
-0.887300 0.000000
-0.866900 0.000000
-0.846500 0.000000
-0.826200 0.000000
-0.805800 0.000000
-0.785400 0.000000
-0.765000 0.000000
-0.744600 0.000000
-0.724300 0.000000
-0.703900 0.000000
-0.683500 0.000000
-0.663100 0.000000
-0.642700 0.000000
-0.622400 0.000000
-0.602000 0.000000
-0.581600 0.000000
-0.561200 0.000000
-0.540800 0.000000
-0.520500 0.000000
-0.500100 0.000000
-0.479700 0.000000
-0.459300 0.000000
-0.438900 0.000000
-0.418600 0.000000
-0.398200 0.000000
-0.377800 0.000000
-0.357400 0.000000
-0.337000 0.000000
-0.316700 0.000000
-0.296300 0.000000
-0.275900 0.000000
-0.255500 0.000000
-0.235100 0.000000
-0.214800 0.000000
-0.194400 0.000000
-0.174000 0.000000
-0.153600 0.000000
-0.133200 0.000000
-0.112900 0.000000
-0.092500 0.000000
-0.072100 0.000000
-0.051700 0.000000
-0.031300 0.000000
-0.010900 0.000000
0.009400 0.000000
0.029800 0.000000
0.050200 0.000000
0.070600 0.000000
0.091000 0.000000
0.111300 0.000000
0.131700 0.000000
0.152100 0.000000
0.172500 0.000000
0.192900 0.000000
0.213200 0.000000
0.233600 0.000000
0.254000 0.000000
0.274400 0.000000
0.294800 0.000000
0.315100 0.000000
0.335500 0.000000
0.355900 0.000000
0.376300 0.000000
0.396700 0.000000
0.417000 0.000000
0.437400 0.000000
0.457800 0.000000
0.478200 0.000000
0.498600 0.000000
0.518900 0.000000
0.539300 0.000000
0.559700 0.000000
0.580100 0.000000
0.600500 0.000000
0.620800 0.000000
0.641200 0.000000
0.661600 0.040100
0.682000 0.096200
0.702400 0.162700
0.722700 0.239600
0.743100 0.326800
0.763500 0.424300
0.783900 0.532200
0.804300 0.650500
0.824600 0.779100
0.845000 1.006400
0.865400 1.247500
0.885800 1.480100
0.906200 1.704300
0.926500 1.920000
0.946900 2.127300
0.967300 2.743100
0.987700 3.157100
1.008100 3.630300
1.028400 4.162700
1.048800 5.648700
1.069200 4.004600
1.089600 3.403100
1.110000 3.004300
1.130300 2.812500
1.150700 2.821000
1.171100 3.007100
1.191500 3.372800
1.211900 3.760100
1.232200 3.876800
1.252600 3.855700
1.273000 3.774700
1.293400 3.639300
1.313800 3.312800
1.334100 3.337200
1.354500 3.338200
1.374900 3.331200
1.395300 3.318600
1.415700 3.300300
1.436000 3.276500
1.456400 3.252100
1.476800 3.249200
1.497200 3.244400
1.517600 3.591600
1.537900 3.694800
1.558300 3.790000
1.578700 3.625600
1.599100 3.612100
1.619500 3.114300
1.639800 2.822300
1.660200 2.616300
1.680600 2.496400
1.701000 2.423800
1.721400 2.361700
1.741700 2.317400
1.762100 2.317900
1.782500 2.334700
1.802900 2.358800
1.823300 2.390300
1.843600 2.429100
1.864000 2.475300
1.884400 2.528800
1.904800 2.589700
1.925200 2.657900
1.945500 2.733500
1.965900 2.816500
1.986300 2.914800
2.006700 3.252600
2.027100 3.607800
2.047400 3.881800
2.067800 4.038600
2.088200 4.105500
2.108600 4.168800
2.129000 4.228600
2.149300 4.285500
2.169700 4.355700
2.190100 4.560900
2.210500 4.755600
2.230900 4.966100
2.251200 5.185600
2.271600 5.355400
2.292000 5.508600
2.312400 5.627300
2.332800 5.700400
2.353100 5.750500
2.373500 5.777900
2.393900 5.782800
2.414300 5.775000
2.434700 5.773500
2.455000 5.780000
2.475400 5.799400
2.495800 5.088500
2.516200 5.017800
2.536600 4.859200
2.556900 4.588800
2.577300 4.291600
2.597700 4.211200
2.618100 4.122600
2.638500 4.025800
2.658800 3.920800
2.679200 3.813900
2.699600 3.763900
2.720000 3.720900
2.740400 3.685200
2.760700 3.658400
2.781100 3.640400
2.801500 3.762400
2.821900 3.863800
2.842300 3.974100
2.862600 4.043200
2.883000 4.095000
2.903400 4.167600
2.923800 4.254900
2.944200 4.356800
2.964500 4.473200
2.984900 4.589500
3.005300 4.639700
3.025700 4.624800
3.046100 4.554000
3.066400 4.456900
3.086800 4.314300
3.107200 4.126200
3.127600 3.929000
3.148000 3.771200
3.168300 3.607600
3.188700 3.440100
3.209100 3.266100
3.229500 3.102800
3.249900 3.280200
3.270200 3.496800
3.290600 2.998000
3.311000 2.582300
3.331400 2.785500
3.351800 2.457000
3.372100 2.364600
3.392500 2.378900
3.412900 2.420000
3.433300 2.454200
3.453700 2.475800
3.474000 2.484800
3.494400 2.481200
3.514800 2.463700
3.535200 2.422600
3.555600 2.368200
3.575900 2.308700
3.596300 2.311200
3.616700 2.327900
3.637100 2.338600
3.657500 2.359200
3.677800 2.396400
3.698200 2.483700
3.718600 2.628100
3.739000 2.813800
3.759400 3.000400
3.779800 3.185800
3.800100 3.370000
3.820500 3.553000
3.840900 3.734600
3.861300 3.911500
3.881700 4.079200
3.902000 4.205600
3.922400 4.275700
3.942800 4.079200
3.963200 3.791600
3.983600 3.477200
4.003900 3.169400
4.024300 2.880900
4.044700 2.611600
4.065100 2.210000
4.085500 2.037600
4.105800 1.882500
4.126200 1.729600
4.146600 1.586600
4.167000 1.505400
4.187400 1.410400
4.207700 1.320900
4.228100 1.238200
4.248500 1.162200
4.268900 1.092800
4.289300 1.030200
4.309600 0.974400
4.330000 0.925200
4.350400 0.882600
4.370800 0.844800
4.391200 0.805700
4.411500 0.726400
4.431900 0.658400
4.452300 0.601700
4.472700 0.556200
4.493100 0.473100
4.513400 0.361500
4.533800 0.268200
4.554200 0.193200
4.574600 0.136600
4.595000 0.098200
4.615300 0.077000
4.635700 0.060200
4.656100 0.044300
4.676500 0.000000
4.696900 0.000000
4.717200 0.000000
4.737600 0.000000
4.758000 0.000000
4.778400 0.000000
4.798800 0.000000
4.819100 0.000000
4.839500 0.000000
4.859900 0.000000
4.880300 0.000000
4.900700 0.000000
4.921000 0.000000
4.941400 0.000000
4.961800 0.000000
4.982200 0.000000
5.002600 0.000000
5.022900 0.000000
5.043300 0.000000
5.063700 0.000000
5.084100 0.000000
5.104500 0.000000
5.124800 0.000000
5.145200 0.000000
5.165600 0.000000
5.186000 0.000000
5.206400 0.000000
5.226700 0.000000
5.247100 0.000000
5.267500 0.000000
5.287900 0.000000
5.308300 0.000000
5.328600 0.000000
5.349000 0.000000
5.369400 0.000000
5.389800 0.000000
5.410200 0.000000
5.430500 0.000000
5.450900 0.001600
5.471300 0.008500
5.491700 0.016000
5.512100 0.024200
5.532400 0.033000
5.552800 0.042400
5.573200 0.052500
5.593600 0.063200
5.614000 0.074500
5.634300 0.086500
5.654700 0.099100
5.675100 0.112400
5.695500 0.126300
5.715900 0.140800
5.736200 0.156000
5.756600 0.171800
5.777000 0.188300
5.797400 0.205300
5.817800 0.223100
5.838100 0.241400
5.858500 0.260400
5.878900 0.280100
5.899300 0.301600
5.919700 0.325200
5.940000 0.350900
5.960400 0.378900
5.980800 0.411400
6.001200 0.448600
6.021600 0.490600
6.041900 0.537400
6.062300 0.589000
6.082700 0.645400
6.103100 0.732200
6.123500 0.850100
6.143800 0.958100
6.164200 1.236500
6.184600 1.401000
6.205000 1.543500
6.225400 1.686000
6.245700 1.828400
6.266100 1.965100
6.286500 2.091600
6.306900 2.208000
6.327300 2.313800
6.347600 2.406800
6.368000 2.486700
6.388400 2.553400
6.408800 2.606800
6.429200 2.636700
6.449500 3.697500
6.469900 2.711400
6.490300 2.661800
6.510700 2.627600
6.531100 2.591900
6.551400 2.554500
6.571800 2.515600
6.592200 2.475100
6.612600 2.433000
6.633000 2.389400
6.653300 2.344200
6.673700 2.297400
6.694100 2.249000
6.714500 2.199100
6.734900 2.147600
6.755200 2.094500
6.775600 2.041400
6.796000 1.989200
6.816400 1.938000
6.836800 1.887800
6.857100 1.838600
6.877500 1.790300
6.897900 1.770800
6.918300 1.759700
6.938700 1.756900
6.959000 1.764300
6.979400 1.780300
6.999800 1.799700
7.020200 1.822600
7.040600 1.848900
7.060900 1.878600
7.081300 1.913800
7.101700 1.973900
7.122100 2.063600
7.142500 2.209000
7.162800 2.507400
7.183200 2.728700
7.203600 2.866000
7.224000 2.915100
7.244400 2.877100
7.264700 2.887500
7.285100 2.968200
7.305500 3.043800
7.325900 3.114400
7.346300 3.165100
7.366600 3.218200
7.387000 3.353500
7.407400 3.547700
7.427800 3.802300
7.448200 4.117300
7.468600 5.487500
7.488900 4.791200
7.509300 4.110300
7.529700 3.441300
7.550100 2.783400
7.570500 2.136700
7.590800 1.732300
7.611200 1.506500
7.631600 1.386400
7.652000 1.233700
7.672400 1.051200
7.692700 0.867900
7.713100 0.703000
7.733500 0.553600
7.753900 0.435900
7.774300 0.670200
7.794600 1.365100
7.815000 2.054300
7.835400 2.501800
7.855800 2.557000
7.876200 2.990900
7.896500 3.364400
7.916900 3.635700
7.937300 3.842400
7.957700 4.017900
7.978100 4.204700
7.998400 4.402900
8.018800 5.843700
8.039200 4.418600
8.059600 4.344600
8.080000 4.438000
8.100300 4.575300
8.120700 4.675800
8.141100 4.664600
8.161500 4.610800
8.181900 4.743300
8.202200 4.984700
8.222600 5.273400
8.243000 5.634200
8.263400 6.060800
8.283800 6.553300
8.304100 8.057500
8.324500 10.962600
8.344900 11.613300
8.365300 9.893200
8.385700 8.013800
8.406000 6.008800
8.426400 5.579600
8.446800 5.204500
8.467200 4.876000
8.487600 4.971100
8.507900 4.744200
8.528300 4.544800
8.548700 4.807200
8.569100 4.511600
8.589500 2.485000
8.609800 2.291600
8.630200 2.245800
8.650600 2.391000
8.671000 2.554300
8.691400 2.358300
8.711700 2.188300
8.732100 2.424400
8.752500 2.684500
8.772900 2.964100
8.793300 3.243500
8.813600 3.520600
8.834000 3.795400
8.854400 4.914800
8.874800 5.404600
8.895200 5.372200
8.915500 5.561400
8.935900 5.722600
8.956300 5.815100
8.976700 5.838200
8.997100 4.695600
9.017400 4.505500
9.037800 4.313400
9.058200 4.119200
9.078600 3.923100
9.099000 3.724900
9.119300 3.542500
9.139700 3.399300
9.160100 3.327200
9.180500 3.209600
9.200900 3.099200
9.221200 3.023700
9.241600 2.975600
9.262000 3.053400
9.282400 3.021700
9.302800 2.992900
9.323100 2.933200
9.343500 2.846300
9.363900 2.787100
9.384300 2.757900
9.404700 2.833300
9.425000 2.951900
9.445400 3.088800
9.465800 3.244000
9.486200 3.417500
9.506600 3.627900
9.526900 3.993300
9.547300 4.272000
9.567700 4.561300
9.588100 4.888100
9.608500 4.257900
9.628800 2.291100
9.649200 1.336400
9.669600 1.010600
9.690000 0.849100
9.710400 0.772300
9.730700 0.698900
9.751100 0.628800
9.771500 0.562200
9.791900 0.498900
9.812300 0.439000
9.832600 0.382500
9.853000 0.329300
9.873400 0.279500
9.893800 0.233100
9.914200 0.190000
9.934500 0.150400
9.954900 0.114100
9.975300 0.081200
9.995700 0.051600
10.016100 0.025400
10.036400 0.002700
10.056800 0.000000
10.077200 0.000000
10.097600 0.000000
10.118000 0.000000
10.138300 0.000000
10.158700 0.000000
10.179100 0.000000
10.199500 0.000000
10.219900 0.000000
10.240200 0.000000
10.260600 0.000000
10.281000 0.000000
10.301400 0.000000
10.321800 0.000000
10.342100 0.000000
10.362500 0.000000
10.382900 0.000000
10.403300 0.000000
10.423700 0.000000
10.444000 0.000000
10.464400 0.000000
10.484800 0.000000
10.505200 0.000000
10.525600 0.000000
10.545900 0.000000
10.566300 0.000000
10.586700 0.000000
10.607100 0.000000
10.627500 0.000000
10.647800 0.000000
10.668200 0.000000
10.688600 0.004100
10.709000 0.031300
10.729400 0.083800
10.749700 0.161600
10.770100 0.264800
10.790500 0.393300
10.810900 0.532500
10.831300 0.635400
10.851600 0.749400
10.872000 0.874800
10.892400 1.011300
10.912800 1.157700
10.933200 1.307800
10.953500 1.460800
10.973900 1.616700
10.994300 1.775600
11.014700 1.937500
11.035100 2.097100
11.055400 2.249500
11.075800 2.392500
11.096200 2.465400
11.116600 2.487100
11.137000 2.500100
11.157300 2.504300
11.177700 2.499700
11.198100 2.486400
11.218500 2.464200
11.238900 2.410300
11.259300 2.322900
11.279600 2.319000
11.300000 2.278900
11.320400 2.243400
11.340800 2.212600
11.361200 2.186400
11.381500 2.251900
11.401900 2.222600
11.422300 2.196500
11.442700 2.173400
11.463100 2.153300
11.483400 2.136100
11.503800 2.114800
11.524200 2.083900
11.544600 2.031400
11.565000 1.955600
11.585300 1.860300
11.605700 1.721000
11.626100 1.708500
11.646500 1.696200
11.666900 1.684000
11.687200 1.672000
11.707600 1.660200
11.728000 1.648400
11.748400 1.636900
11.768800 1.625500
11.789100 1.614900
11.809500 1.605300
11.829900 1.595100
11.850300 1.584400
11.870700 1.573200
11.891000 1.570100
11.911400 1.577500
11.931800 1.585900
11.952200 1.597300
11.972600 1.611900
11.992900 1.629600
12.013300 1.650400
12.033700 1.672800
12.054100 1.696300
12.074500 1.721700
12.094800 1.748900
12.115200 1.778100
12.135600 1.809100
12.156000 1.842100
12.176400 1.877300
12.196700 1.912700
12.217100 1.958200
12.237500 2.035800
12.257900 2.194800
12.278300 2.344600
12.298600 2.477500
12.319000 2.593400
12.339400 2.718800
12.359800 2.823800
12.380200 2.900900
12.400500 2.934300
12.420900 2.942500
12.441300 2.925500
12.461700 2.883300
12.482100 2.814500
12.502400 2.708000
12.522800 2.561500
12.543200 2.322700
12.563600 1.836100
12.584000 1.774100
12.604300 1.759700
12.624700 1.838500
12.645100 2.044100
12.665500 1.958100
12.685900 1.837400
12.706200 1.688700
12.726600 1.513000
12.747000 1.190100
12.767400 1.125800
12.787800 1.066500
12.808100 1.012200
12.828500 0.962900
12.848900 0.911900
12.869300 0.838600
12.889700 0.767000
12.910000 0.697200
12.930400 0.674100
12.950800 0.664700
12.971200 0.663700
12.991600 0.671300
13.011900 0.686400
13.032300 0.692700
13.052700 0.663500
13.073100 0.652300
13.093500 0.658900
13.113800 0.683500
13.134200 0.723900
13.154600 0.773800
13.175000 0.833100
13.195400 0.902600
13.215700 0.980100
13.236100 1.064000
13.256500 1.154700
13.276900 1.252000
13.297300 1.356000
13.317600 1.466700
13.338000 1.584100
13.358400 1.898000
13.378800 2.201800
13.399200 2.471300
13.419500 2.716500
13.439900 3.036300
13.460300 3.561600
13.480700 3.730300
13.501100 3.703400
13.521400 3.644200
13.541800 3.539500
13.562200 3.322800
13.582600 3.108400
13.603000 2.970000
13.623300 3.045600
13.643700 3.193800
13.664100 3.455800
13.684500 3.824700
13.704900 4.040500
13.725200 4.037900
13.745600 4.089100
13.766000 3.975500
13.786400 3.862400
13.806800 3.775000
13.827100 3.713200
13.847500 3.667900
13.867900 3.623400
13.888300 3.579300
13.908700 3.535800
13.929000 3.492600
13.949400 3.449900
13.969800 3.407700
13.990200 3.364700
14.010600 3.319200
14.030900 3.280500
14.051300 3.246900
14.071700 3.217300
14.092100 3.191800
14.112500 3.170500
14.132800 3.155700
14.153200 3.149000
14.173600 3.150600
14.194000 3.160600
14.214400 3.177600
14.234700 3.200900
14.255100 3.229300
14.275500 3.256800
14.295900 3.292200
14.316300 3.345200
14.336600 3.359900
14.357000 3.376300
14.377400 3.454500
14.397800 3.576900
14.418200 3.774700
14.438500 4.046200
14.458900 4.390600
14.479300 4.232300
14.499700 4.495000
14.520100 4.505500
14.540400 4.439600
14.560800 4.294800
14.581200 4.068500
14.601600 3.860300
14.622000 3.665700
14.642300 3.457500
14.662700 3.254400
14.683100 2.944900
14.703500 2.891200
14.723900 2.843700
14.744200 2.805700
14.764600 2.769800
14.785000 2.884400
14.805400 2.919500
14.825800 2.962100
14.846100 3.012400
14.866500 3.070600
14.886900 3.134400
14.907300 3.201000
14.927700 3.284000
14.948100 3.375200
14.968400 3.476200
14.988800 3.590400
15.009200 3.717700
15.029600 3.758300
15.050000 3.846000
15.070300 3.950400
15.090700 4.876800
15.111100 4.587800
15.131500 4.527300
15.151900 4.832500
15.172200 5.388900
15.192600 5.562800
15.213000 4.987500
15.233400 4.405200
15.253800 3.815900
15.274100 3.284100
15.294500 3.000500
15.314900 2.993300
15.335300 2.988900
15.355700 2.987100
15.376000 3.116300
15.396400 3.331300
15.416800 3.649600
15.437200 3.909400
15.457600 4.259100
15.477900 4.603000
15.498300 4.941000
15.518700 5.273300
15.539100 5.599900
15.559500 5.921100
15.579800 7.224400
15.600200 7.223800
15.620600 6.620100
15.641000 5.942400
15.661400 4.889100
15.681700 3.977600
15.702100 2.935600
15.722500 2.790500
15.742900 2.584000
15.763300 2.466900
15.783600 2.432300
15.804000 2.701100
15.824400 2.977000
15.844800 3.244200
15.865200 3.458300
15.885500 3.562600
15.905900 3.756800
15.926300 3.980200
15.946700 4.251000
15.967100 4.570200
15.987400 4.968100
16.007800 5.293900
16.028200 5.555700
16.048600 5.786900
16.069000 5.989900
16.089300 6.164400
16.109700 6.310600
16.130100 7.554800
16.150500 7.566800
16.170900 6.730000
16.191200 6.583500
16.211600 6.369700
16.232000 5.878300
16.252400 5.350300
16.272800 4.766900
16.293100 4.325100
16.313500 3.908800
16.333900 3.518500
16.354300 3.311700
16.374700 3.220500
16.395000 3.138000
16.415400 3.057900
16.435800 2.987600
16.456200 2.930000
16.476600 2.885200
16.496900 2.852400
16.517300 2.825200
16.537700 2.801000
16.558100 2.940100
16.578500 3.088400
16.598800 3.118000
16.619200 2.971500
16.639600 3.132800
16.660000 3.254200
16.680400 3.318800
16.700700 3.321900
16.721100 3.258200
16.741500 3.279100
16.761900 3.360700
16.782300 3.555500
16.802600 3.744300
16.823000 3.927400
16.843400 3.990900
16.863800 3.951000
16.884200 3.912300
16.904500 3.876300
16.924900 3.848300
16.945300 3.830000
16.965700 3.806900
16.986100 3.837900
17.006400 3.939200
17.026800 4.099400
17.047200 4.289200
17.067600 4.640800
17.088000 4.813900
17.108300 4.924400
17.128700 4.948200
17.149100 4.980600
17.169500 4.877500
17.189900 4.727500
17.210200 4.591900
17.230600 4.430400
17.251000 4.240900
17.271400 4.029500
17.291800 3.876500
17.312100 3.884800
17.332500 3.893500
17.352900 3.901400
17.373300 3.921000
17.393700 3.999600
17.414000 3.997000
17.434400 3.966500
17.454800 3.930100
17.475200 3.887800
17.495600 3.839300
17.515900 3.802400
17.536300 3.798800
17.556700 4.073500
17.577100 4.356500
17.597500 4.549700
17.617800 4.724700
17.638200 4.889200
17.658600 5.034500
17.679000 5.111200
17.699400 5.497300
17.719700 5.534500
17.740100 5.501700
17.760500 5.399000
17.780900 4.970300
17.801300 4.815300
17.821600 4.606000
17.842000 4.390600
17.862400 4.147200
17.882800 3.922500
17.903200 3.775300
17.923500 3.783500
17.943900 3.740800
17.964300 3.683400
17.984700 3.607900
18.005100 3.919100
18.025400 3.765600
18.045800 3.644000
18.066200 3.537700
18.086600 3.445000
18.107000 3.365200
18.127300 3.277400
18.147700 3.197100
18.168100 3.123700
18.188500 3.057200
18.208900 2.997600
18.229200 3.355200
18.249600 3.538000
18.270000 3.396800
18.290400 2.892400
18.310800 2.593800
18.331100 2.469300
18.351500 2.472500
18.371900 2.502400
18.392300 2.530300
18.412700 2.678900
18.433000 2.699100
18.453400 2.717200
18.473800 2.733500
18.494200 2.758800
18.514600 2.776000
18.534900 2.797100
18.555300 2.801000
18.575700 2.795700
18.596100 2.786200
18.616500 2.772800
18.636800 2.755300
18.657200 2.733700
18.677600 2.525100
18.698000 2.176700
18.718400 2.115200
18.738800 2.059000
18.759100 2.008300
18.779500 1.963000
18.799900 2.070800
18.820300 1.931300
18.840700 1.809600
18.861000 1.705900
18.881400 1.620000
18.901800 1.551900
18.922200 1.473300
18.942600 1.600500
18.962900 1.689800
18.983300 1.772200
19.003700 1.864600
19.024100 1.973100
19.044500 2.098500
19.064800 2.240900
19.085200 2.639300
19.105600 2.894800
19.126000 3.171400
19.146400 3.469300
19.166700 3.792200
19.187100 4.150600
19.207500 4.568500
19.227900 5.055200
19.248300 5.322100
19.268600 5.872700
19.289000 6.264500
19.309400 6.470700
19.329800 5.671800
19.350200 4.678500
19.370500 3.979300
19.390900 4.068300
19.411300 4.126500
19.431700 3.483800
19.452100 3.476300
19.472400 3.474500
19.492800 3.478300
19.513200 3.487700
19.533600 3.503200
19.554000 3.525600
19.574300 3.529300
19.594700 3.462400
19.615100 3.420200
19.635500 3.425700
19.655900 3.388700
19.676200 3.349100
19.696600 3.306900
19.717000 3.216200
19.737400 3.096800
19.757800 2.906800
19.778100 2.630100
19.798500 2.429300
19.818900 2.387900
19.839300 2.393400
19.859700 2.404000
19.880000 2.420300
19.900400 2.575300
19.920800 2.874800
19.941200 3.263400
19.961600 3.625300
19.981900 3.956700
20.002300 4.257400
20.022700 4.527500
20.043100 4.766900
20.063500 5.049400
20.083800 5.259700
20.104200 5.404900
20.124600 5.480400
20.145000 5.523600
20.165400 5.612000
20.185700 5.733400
20.206100 5.812500
20.226500 5.881600
20.246900 5.855700
20.267300 5.788600
20.287600 5.680200
20.308000 5.460700
20.328400 5.141700
20.348800 5.089200
20.369200 4.825900
20.389500 4.610200
20.409900 4.367700
20.430300 4.085900
20.450700 3.824800
20.471100 3.762400
20.491400 3.526700
20.511800 3.497500
20.532200 3.754100
20.552600 4.246600
20.573000 4.381700
20.593300 6.525700
20.613700 3.853900
20.634100 3.859500
20.654500 3.944000
20.674900 3.971600
20.695200 4.041400
20.715600 4.193100
20.736000 4.415100
20.756400 4.666200
20.776800 4.677900
20.797100 4.477800
20.817500 4.378100
20.837900 4.299900
20.858300 4.237500
20.878700 4.190800
20.899000 4.159800
20.919400 4.144600
20.939800 4.145100
20.960200 4.013100
20.980600 3.909700
21.000900 3.946100
21.021300 3.956900
21.041700 4.104700
21.062100 4.038100
21.082500 3.947800
21.102800 3.833900
21.123200 4.450800
21.143600 4.655600
21.164000 4.112900
21.184400 3.914600
21.204700 3.569700
21.225100 3.562700
21.245500 3.565100
21.265900 3.576700
21.286300 3.591600
21.306600 3.583600
21.327000 3.620800
21.347400 3.664400
21.367800 3.787800
21.388200 4.045300
21.408500 4.439200
21.428900 5.555100
21.449300 5.308500
21.469700 4.171000
21.490100 3.755400
21.510400 3.719200
21.530800 3.885100
21.551200 4.082900
21.571600 4.322300
21.592000 4.624300
21.612300 4.941700
21.632700 5.369600
21.653100 5.654300
21.673500 5.826400
21.693900 5.768300
21.714200 5.819100
21.734600 5.734300
21.755000 5.735500
21.775400 5.722700
21.795800 5.391100
21.816100 5.349500
21.836500 5.394800
21.856900 5.526800
21.877300 5.161700
21.897700 4.798100
21.918000 4.690400
21.938400 4.643100
21.958800 4.488400
21.979200 4.302000
21.999600 4.265200
22.019900 4.092300
22.040300 3.903900
22.060700 3.792000
22.081100 3.739300
22.101500 3.688600
22.121800 3.639900
22.142200 3.593200
22.162600 3.548500
22.183000 3.358600
22.203400 3.277000
22.223700 3.216300
22.244100 3.177600
22.264500 3.156300
22.284900 3.149300
22.305300 3.148600
22.325600 3.168200
22.346000 3.210800
22.366400 3.276400
22.386800 3.341200
22.407200 3.401700
22.427500 3.463700
22.447900 3.516300
22.468300 3.556100
22.488700 3.837200
22.509100 4.278500
22.529500 4.648800
22.549800 4.797800
22.570200 4.787500
22.590600 4.836500
22.611000 4.574000
22.631400 4.343300
22.651700 4.583300
22.672100 5.687100
22.692500 4.593900
22.712900 4.479200
22.733300 4.408900
22.753600 4.381800
22.774000 4.397500
22.794400 4.456000
22.814800 4.363500
22.835200 4.501500
22.855500 4.641800
22.875900 4.781600
22.896300 4.915800
22.916700 5.131100
22.937100 5.595600
22.957400 5.244100
22.977800 4.845800
22.998200 4.543300
23.018600 4.786700
23.039000 4.970000
23.059300 4.971400
23.079700 4.852800
23.100100 4.705400
23.120500 4.529700
23.140900 4.348500
23.161200 4.281300
23.181600 3.328300
23.202000 3.200000
23.222400 3.066100
23.242800 2.927800
23.263100 2.761000
23.283500 2.486100
23.303900 2.359100
23.324300 2.248500
23.344700 2.154400
23.365000 2.019400
23.385400 2.169800
23.405800 2.060900
23.426200 1.963700
23.446600 1.825400
23.466900 1.692600
23.487300 1.524900
23.507700 1.476400
23.528100 1.385300
23.548500 1.273800
23.568800 1.149200
23.589200 1.011600
23.609600 0.900300
23.630000 0.791700
23.650400 0.676800
23.670700 0.479900
23.691100 0.435200
23.711500 0.389100
23.731900 0.344200
23.752300 0.316800
23.772600 0.290300
23.793000 0.264700
23.813400 0.240200
23.833800 0.217100
23.854200 0.195500
23.874500 0.175500
23.894900 0.156900
23.915300 0.139800
23.935700 0.124300
23.956100 0.110200
23.976400 0.097700
23.996800 0.086600
24.017200 0.077100
24.037600 0.069000
24.058000 0.062500
24.078300 0.057400
24.098700 0.053400
24.119100 0.049900
24.139500 0.046900
24.159900 0.044500
24.180200 0.042200
24.200600 0.040100
24.221000 0.037900
24.241400 0.035900
24.261800 0.033800
24.282100 0.031900
24.302500 0.030000
24.322900 0.028100
24.343300 0.026400
24.363700 0.024600
24.384000 0.023000
24.404400 0.021400
24.424800 0.019800
24.445200 0.018300
24.465600 0.016900
24.485900 0.015500
24.506300 0.014200
24.526700 0.013000
24.547100 0.011800
24.567500 0.010600
24.587800 0.009500
24.608200 0.008500
24.628600 0.007500
24.649000 0.006600
24.669400 0.005800
24.689700 0.005000
24.710100 0.004300
24.730500 0.003600
24.750900 0.003000
24.771300 0.002400
24.791600 0.001900
24.812000 0.001500
24.832400 0.001100
24.852800 0.000800
24.873200 0.000500
24.893500 0.000300
24.913900 0.000100
24.934300 0.000000
24.954700 0.000000
24.975100 0.000000
24.995400 0.000000
25.015800 0.000000
25.036200 0.000000
25.056600 0.000000
25.077000 0.000000
25.097300 0.000000
25.117700 0.000000
25.138100 0.000000
25.158500 0.000000
25.178900 0.000000
25.199200 0.000000
25.219600 0.000000
25.240000 0.000000
25.260400 0.000000
25.280800 0.000000
25.301100 0.000000
25.321500 0.000000
25.341900 0.000000
25.362300 0.000000
25.382700 0.000000
25.403000 0.000000
25.423400 0.000000
25.443800 0.000000
25.464200 0.000000
25.484600 0.000000
25.504900 0.000000
25.525300 0.000000
25.545700 0.000000
25.566100 0.000000
25.586500 0.000000
25.606800 0.000000
25.627200 0.000000
25.647600 0.000000
25.668000 0.000000
25.688400 0.000000
25.708700 0.000000
25.729100 0.000000
25.749500 0.000000
25.769900 0.000000
25.790300 0.000000
25.810600 0.000000
25.831000 0.000000
25.851400 0.000000
25.871800 0.000000
25.892200 0.000000
25.912500 0.000000
25.932900 0.000000
25.953300 0.000000
25.973700 0.000000
25.994100 0.000000
26.014400 0.000000
26.034800 0.000000
26.055200 0.000000
26.075600 0.000000
26.096000 0.000000
26.116300 0.000000
26.136700 0.000000
26.157100 0.000000
26.177500 0.000000
26.197900 0.000000
26.218300 0.000000
26.238600 0.000000
26.259000 0.000000
26.279400 0.000000
26.299800 0.000000
26.320200 0.000000
26.340500 0.000000
26.360900 0.000000
26.381300 0.000000
26.401700 0.000000
26.422100 0.000000
26.442400 0.000000
26.462800 0.000000
26.483200 0.000000
26.503600 0.000000
26.524000 0.000000
26.544300 0.000000
26.564700 0.000000
26.585100 0.000000
26.605500 0.000000
26.625900 0.000000
26.646200 0.000000
26.666600 0.000000
26.687000 0.000000
26.707400 0.000000
26.727800 0.000000
26.748100 0.000000
26.768500 0.000000
26.788900 0.000000
26.809300 0.000000
e
