set title 'mp-6922 - Density of States'
set xlabel 'Energy (eV)'
set ylabel 'DOS (states/eV)'
set grid
set xrange [-10:10]
set yrange [0:22.001]
set xzeroaxis lt -1
set terminal png size 800,600
set output 'mp-6922_dos_gnuplot.png'
plot '-' using 1:2 with lines title 'DOS'
-21.556300 0.000000
-21.527600 0.000000
-21.498900 0.000000
-21.470300 0.000000
-21.441600 0.000000
-21.412900 0.000000
-21.384300 0.000000
-21.355600 0.000000
-21.326900 0.000000
-21.298200 0.000000
-21.269600 0.000000
-21.240900 0.000000
-21.212200 0.000000
-21.183600 0.000000
-21.154900 0.000000
-21.126200 0.000000
-21.097600 0.000000
-21.068900 0.000000
-21.040200 0.000000
-21.011600 0.000000
-20.982900 0.000000
-20.954200 0.000000
-20.925500 0.000000
-20.896900 0.000000
-20.868200 0.000000
-20.839500 0.000000
-20.810900 0.000000
-20.782200 0.000000
-20.753500 0.000000
-20.724900 0.000000
-20.696200 0.000000
-20.667500 0.000000
-20.638800 0.000000
-20.610200 0.000000
-20.581500 0.000000
-20.552800 0.000000
-20.524200 0.000000
-20.495500 0.000000
-20.466800 0.000000
-20.438200 0.000000
-20.409500 0.000000
-20.380800 0.000000
-20.352100 0.000000
-20.323500 0.000000
-20.294800 0.000000
-20.266100 0.000000
-20.237500 0.000000
-20.208800 0.000000
-20.180100 0.000000
-20.151500 0.000000
-20.122800 0.000000
-20.094100 0.000000
-20.065500 0.000000
-20.036800 0.000000
-20.008100 0.000000
-19.979400 0.000000
-19.950800 0.000000
-19.922100 0.000000
-19.893400 0.000000
-19.864800 0.000000
-19.836100 0.000000
-19.807400 0.000000
-19.778800 0.000000
-19.750100 0.000000
-19.721400 0.000000
-19.692700 0.000000
-19.664100 0.000000
-19.635400 0.000000
-19.606700 0.000000
-19.578100 0.000000
-19.549400 0.000000
-19.520700 0.000000
-19.492100 0.000000
-19.463400 0.000000
-19.434700 0.000000
-19.406000 0.000000
-19.377400 0.000000
-19.348700 0.000000
-19.320000 0.000000
-19.291400 0.000000
-19.262700 0.000000
-19.234000 0.000000
-19.205400 0.000000
-19.176700 0.000000
-19.148000 0.000000
-19.119400 0.000000
-19.090700 0.000000
-19.062000 0.000000
-19.033300 0.000000
-19.004700 0.000000
-18.976000 0.000000
-18.947300 0.000900
-18.918700 0.133700
-18.890000 0.491100
-18.861300 1.058100
-18.832700 1.515100
-18.804000 1.661600
-18.775300 1.784700
-18.746600 2.107500
-18.718000 2.459500
-18.689300 2.840700
-18.660600 3.537300
-18.632000 4.411400
-18.603300 5.284500
-18.574600 7.139700
-18.546000 8.471000
-18.517300 9.284600
-18.488600 11.858500
-18.459900 3.788900
-18.431300 0.000000
-18.402600 0.000000
-18.373900 0.000000
-18.345300 0.574500
-18.316600 1.847200
-18.287900 1.237400
-18.259300 1.508500
-18.230600 1.812700
-18.201900 2.150000
-18.173300 2.578100
-18.144600 4.460600
-18.115900 8.075200
-18.087200 9.600100
-18.058600 10.086800
-18.029900 8.502200
-18.001200 3.965500
-17.972600 2.821100
-17.943900 1.961000
-17.915200 1.480900
-17.886600 1.286800
-17.857900 1.111500
-17.829200 0.947700
-17.800500 0.795400
-17.771900 0.654500
-17.743200 0.525100
-17.714500 0.407300
-17.685900 0.300900
-17.657200 1.080100
-17.628500 1.673000
-17.599900 2.528200
-17.571200 4.987100
-17.542500 11.729800
-17.513800 13.113400
-17.485200 5.519200
-17.456500 4.279800
-17.427800 3.534600
-17.399200 2.979400
-17.370500 2.583500
-17.341800 2.232200
-17.313200 1.925500
-17.284500 1.723900
-17.255800 1.579900
-17.227200 1.426500
-17.198500 1.263500
-17.169800 1.091100
-17.141100 0.889900
-17.112500 0.819000
-17.083800 0.624000
-17.055100 0.451400
-17.026500 0.301100
-16.997800 0.173400
-16.969100 0.068000
-16.940500 152.318400
-16.911800 0.000000
-16.883100 0.000000
-16.854400 0.000000
-16.825800 0.000000
-16.797100 0.000000
-16.768400 0.000000
-16.739800 0.000000
-16.711100 0.000000
-16.682400 0.000000
-16.653800 0.000000
-16.625100 0.000000
-16.596400 0.000000
-16.567700 0.000000
-16.539100 0.000000
-16.510400 0.000000
-16.481700 0.000000
-16.453100 0.000000
-16.424400 0.000000
-16.395700 0.000000
-16.367100 0.000000
-16.338400 0.000000
-16.309700 0.000000
-16.281000 0.000000
-16.252400 0.000000
-16.223700 0.000000
-16.195000 0.000000
-16.166400 0.000000
-16.137700 0.000000
-16.109000 0.000000
-16.080400 0.000000
-16.051700 0.000000
-16.023000 0.000000
-15.994400 0.000000
-15.965700 0.000000
-15.937000 0.000000
-15.908300 0.000000
-15.879700 0.000000
-15.851000 0.000000
-15.822300 0.000000
-15.793700 0.000000
-15.765000 0.000000
-15.736300 0.000000
-15.707700 0.000000
-15.679000 0.000000
-15.650300 0.000000
-15.621600 0.000000
-15.593000 0.000000
-15.564300 0.000000
-15.535600 0.000000
-15.507000 0.000000
-15.478300 0.000000
-15.449600 0.000000
-15.421000 0.000000
-15.392300 0.000000
-15.363600 0.000000
-15.334900 0.000000
-15.306300 0.000000
-15.277600 0.000000
-15.248900 0.000000
-15.220300 0.000000
-15.191600 0.000000
-15.162900 0.000000
-15.134300 0.000000
-15.105600 0.000000
-15.076900 0.000000
-15.048300 0.000000
-15.019600 0.000000
-14.990900 0.000000
-14.962200 0.000000
-14.933600 0.000000
-14.904900 0.000000
-14.876200 0.000000
-14.847600 0.000000
-14.818900 0.000000
-14.790200 0.000000
-14.761600 0.000000
-14.732900 0.000000
-14.704200 0.000000
-14.675500 0.000000
-14.646900 0.000000
-14.618200 0.000000
-14.589500 0.000000
-14.560900 0.000000
-14.532200 0.000000
-14.503500 0.000000
-14.474900 0.000000
-14.446200 0.000000
-14.417500 0.000000
-14.388800 0.000000
-14.360200 0.000000
-14.331500 0.000000
-14.302800 0.000000
-14.274200 0.000000
-14.245500 0.000000
-14.216800 0.000000
-14.188200 0.000000
-14.159500 0.000000
-14.130800 0.000000
-14.102200 0.000000
-14.073500 0.000000
-14.044800 0.000000
-14.016100 0.000000
-13.987500 0.000000
-13.958800 0.000000
-13.930100 0.000000
-13.901500 0.000000
-13.872800 0.000000
-13.844100 0.000000
-13.815500 0.000000
-13.786800 0.000000
-13.758100 0.000000
-13.729400 0.000000
-13.700800 0.000000
-13.672100 0.000000
-13.643400 0.000000
-13.614800 0.000000
-13.586100 0.000000
-13.557400 0.000000
-13.528800 0.000000
-13.500100 0.000000
-13.471400 0.000000
-13.442700 0.000000
-13.414100 0.000000
-13.385400 0.000000
-13.356700 0.000000
-13.328100 0.000000
-13.299400 0.000000
-13.270700 0.000000
-13.242100 0.000000
-13.213400 0.000000
-13.184700 0.000000
-13.156100 0.000000
-13.127400 0.000000
-13.098700 0.000000
-13.070000 0.000000
-13.041400 0.000000
-13.012700 0.000000
-12.984000 0.000000
-12.955400 0.000000
-12.926700 0.000000
-12.898000 0.000000
-12.869400 0.000000
-12.840700 0.000000
-12.812000 0.000000
-12.783300 0.000000
-12.754700 0.000000
-12.726000 0.000000
-12.697300 0.000000
-12.668700 0.000000
-12.640000 0.000000
-12.611300 0.000000
-12.582700 0.000000
-12.554000 0.000000
-12.525300 0.000000
-12.496600 0.000000
-12.468000 0.000000
-12.439300 0.000000
-12.410600 0.000000
-12.382000 0.000000
-12.353300 0.000000
-12.324600 0.000000
-12.296000 0.000000
-12.267300 0.000000
-12.238600 0.000000
-12.210000 0.000000
-12.181300 0.000000
-12.152600 0.000000
-12.123900 0.000000
-12.095300 0.000000
-12.066600 0.000000
-12.037900 0.000000
-12.009300 0.000000
-11.980600 0.000000
-11.951900 0.000000
-11.923300 0.000000
-11.894600 0.000000
-11.865900 0.000000
-11.837200 0.000000
-11.808600 0.000000
-11.779900 0.000000
-11.751200 0.000000
-11.722600 0.000000
-11.693900 0.000000
-11.665200 0.000000
-11.636600 0.000000
-11.607900 0.000000
-11.579200 0.000000
-11.550500 0.000000
-11.521900 0.000000
-11.493200 0.000000
-11.464500 0.000000
-11.435900 0.000000
-11.407200 0.000000
-11.378500 0.000000
-11.349900 0.000000
-11.321200 0.000000
-11.292500 0.000000
-11.263900 0.000000
-11.235200 0.000000
-11.206500 0.000000
-11.177800 0.000000
-11.149200 0.000000
-11.120500 0.000000
-11.091800 0.000000
-11.063200 0.000000
-11.034500 0.000000
-11.005800 0.000000
-10.977200 0.000000
-10.948500 0.000000
-10.919800 0.000000
-10.891100 0.000000
-10.862500 0.000000
-10.833800 0.000000
-10.805100 0.000000
-10.776500 0.000000
-10.747800 0.000000
-10.719100 0.000000
-10.690500 0.000000
-10.661800 0.000000
-10.633100 0.000000
-10.604400 0.000000
-10.575800 0.000000
-10.547100 0.000000
-10.518400 0.000000
-10.489800 0.000000
-10.461100 0.000000
-10.432400 0.000000
-10.403800 0.000000
-10.375100 0.000000
-10.346400 0.000000
-10.317700 0.000000
-10.289100 0.000000
-10.260400 0.000000
-10.231700 0.000000
-10.203100 0.000000
-10.174400 0.000000
-10.145700 0.000000
-10.117100 0.000000
-10.088400 0.000000
-10.059700 0.000000
-10.031100 0.000000
-10.002400 0.000000
-9.973700 0.000000
-9.945000 0.000000
-9.916400 0.000000
-9.887700 0.000000
-9.859000 0.000000
-9.830400 0.000000
-9.801700 0.000000
-9.773000 0.000000
-9.744400 0.000000
-9.715700 0.000000
-9.687000 0.000000
-9.658300 0.000000
-9.629700 0.000000
-9.601000 0.000000
-9.572300 0.000000
-9.543700 0.000000
-9.515000 0.000000
-9.486300 0.000000
-9.457700 0.000000
-9.429000 0.000000
-9.400300 0.000000
-9.371600 0.000000
-9.343000 0.000000
-9.314300 0.000000
-9.285600 0.000000
-9.257000 0.015700
-9.228300 0.052300
-9.199600 0.094000
-9.171000 0.140700
-9.142300 0.192500
-9.113600 0.249300
-9.085000 0.311200
-9.056300 0.378200
-9.027600 0.450200
-8.998900 0.527200
-8.970300 0.473600
-8.941600 0.528000
-8.912900 0.582700
-8.884300 0.637600
-8.855600 0.692500
-8.826900 0.745700
-8.798300 0.796900
-8.769600 0.846100
-8.740900 0.893300
-8.712200 0.938500
-8.683600 0.981600
-8.654900 1.030700
-8.626200 1.131900
-8.597600 1.243000
-8.568900 1.364200
-8.540200 1.495400
-8.511600 1.636600
-8.482900 1.790900
-8.454200 1.999300
-8.425500 2.258400
-8.396900 2.568000
-8.368200 3.709700
-8.339500 7.032400
-8.310900 11.968200
-8.282200 7.184200
-8.253500 3.298300
-8.224900 2.131600
-8.196200 1.669800
-8.167500 1.357000
-8.138900 1.133500
-8.110200 0.935400
-8.081500 0.762100
-8.052800 0.613500
-8.024200 0.489600
-7.995500 0.390400
-7.966800 0.076000
-7.938200 0.099700
-7.909500 0.126600
-7.880800 0.153000
-7.852200 0.179100
-7.823500 0.207100
-7.794800 0.237100
-7.766100 0.269100
-7.737500 0.303000
-7.708800 0.338900
-7.680100 0.376800
-7.651500 0.416600
-7.622800 0.458400
-7.594100 0.502200
-7.565500 0.547900
-7.536800 0.595600
-7.508100 0.645300
-7.479400 0.696900
-7.450800 0.750500
-7.422100 0.807300
-7.393400 0.936600
-7.364800 1.178700
-7.336100 1.600400
-7.307400 2.089600
-7.278800 2.335900
-7.250100 2.393700
-7.221400 3.987500
-7.192800 4.250000
-7.164100 4.424400
-7.135400 4.510700
-7.106700 4.509000
-7.078100 4.419200
-7.049400 4.241300
-7.020700 3.174000
-6.992100 2.815300
-6.963400 2.210700
-6.934700 1.729900
-6.906100 1.107200
-6.877400 0.980300
-6.848700 0.918100
-6.820000 0.858200
-6.791400 0.800600
-6.762700 0.745100
-6.734000 0.691900
-6.705400 0.640800
-6.676700 0.591900
-6.648000 0.545200
-6.619400 0.500700
-6.590700 0.656200
-6.562000 0.533900
-6.533300 0.417900
-6.504700 0.308300
-6.476000 0.205000
-6.447300 0.108100
-6.418700 0.017500
-6.390000 0.946900
-6.361300 1.323900
-6.332700 1.733700
-6.304000 2.176200
-6.275300 2.651400
-6.246700 3.159400
-6.218000 2.302100
-6.189300 2.410100
-6.160600 2.515900
-6.132000 2.619500
-6.103300 2.720900
-6.074600 2.577600
-6.046000 2.566600
-6.017300 2.537800
-5.988600 2.491100
-5.960000 2.410700
-5.931300 2.330000
-5.902600 2.231800
-5.873900 2.122700
-5.845300 2.068200
-5.816600 2.005100
-5.787900 1.933400
-5.759300 1.853200
-5.730600 1.764400
-5.701900 1.667000
-5.673300 1.568400
-5.644600 1.491600
-5.615900 1.410900
-5.587200 1.319000
-5.558600 1.221300
-5.529900 1.148300
-5.501200 1.081800
-5.472600 1.007900
-5.443900 0.926800
-5.415200 1.049600
-5.386600 1.359700
-5.357900 1.903000
-5.329200 2.905600
-5.300500 8.466600
-5.271900 10.334100
-5.243200 12.437700
-5.214500 12.068500
-5.185900 9.453600
-5.157200 8.289400
-5.128500 9.226000
-5.099900 7.359600
-5.071200 4.552900
-5.042500 4.743300
-5.013900 4.940700
-4.985200 5.127300
-4.956500 5.302600
-4.927800 5.521600
-4.899200 7.467300
-4.870500 5.685200
-4.841800 4.755300
-4.813200 3.766400
-4.784500 1.978200
-4.755800 0.350700
-4.727200 0.457400
-4.698500 2.878600
-4.669800 5.745000
-4.641100 6.944600
-4.612500 7.654000
-4.583800 7.656100
-4.555100 7.343600
-4.526500 6.540700
-4.497800 5.688200
-4.469100 4.920500
-4.440500 4.419300
-4.411800 3.452600
-4.383100 2.294300
-4.354400 1.284200
-4.325800 0.542600
-4.297100 0.000000
-4.268400 0.000000
-4.239800 0.000000
-4.211100 0.000000
-4.182400 0.000000
-4.153800 0.000000
-4.125100 0.000000
-4.096400 0.000000
-4.067800 0.000000
-4.039100 0.000000
-4.010400 0.000000
-3.981700 0.000000
-3.953100 0.000000
-3.924400 0.000000
-3.895700 0.000000
-3.867100 0.000000
-3.838400 0.000000
-3.809700 0.000000
-3.781100 0.000000
-3.752400 0.000000
-3.723700 0.000000
-3.695000 0.000000
-3.666400 0.000000
-3.637700 0.000000
-3.609000 0.000000
-3.580400 0.000000
-3.551700 0.000000
-3.523000 0.000000
-3.494400 0.000000
-3.465700 0.000000
-3.437000 0.000000
-3.408300 0.000000
-3.379700 0.000000
-3.351000 0.000000
-3.322300 0.000000
-3.293700 0.000000
-3.265000 0.000000
-3.236300 0.000000
-3.207700 0.000000
-3.179000 0.000000
-3.150300 0.000000
-3.121700 0.000000
-3.093000 0.000000
-3.064300 0.000000
-3.035600 0.000000
-3.007000 0.000000
-2.978300 0.000000
-2.949600 0.000000
-2.921000 0.000000
-2.892300 0.000000
-2.863600 0.000000
-2.835000 0.000000
-2.806300 3.198000
-2.777600 8.274600
-2.748900 11.458600
-2.720300 12.502800
-2.691600 13.773000
-2.662900 11.031400
-2.634300 7.794300
-2.605600 10.864800
-2.576900 11.036300
-2.548300 11.388300
-2.519600 8.891700
-2.490900 6.500400
-2.462200 5.548300
-2.433600 5.522200
-2.404900 6.533800
-2.376200 1.631600
-2.347600 1.255500
-2.318900 1.159000
-2.290200 5.206100
-2.261600 6.276500
-2.232900 8.004600
-2.204200 10.188600
-2.175600 13.259700
-2.146900 12.708000
-2.118200 8.919100
-2.089500 4.936100
-2.060900 0.154900
-2.032200 0.869800
-2.003500 2.366300
-1.974900 5.957400
-1.946200 11.059500
-1.917500 16.155200
-1.888900 11.951700
-1.860200 6.416200
-1.831500 10.729700
-1.802800 10.546500
-1.774200 16.507900
-1.745500 17.012500
-1.716800 20.000700
-1.688200 4.482000
-1.659500 1.145700
-1.630800 2.535200
-1.602200 3.789800
-1.573500 4.389700
-1.544800 4.263100
-1.516100 4.782900
-1.487500 5.412500
-1.458800 6.165900
-1.430100 8.300900
-1.401500 12.619500
-1.372800 9.485900
-1.344100 6.305600
-1.315500 15.865100
-1.286800 10.274000
-1.258100 10.105000
-1.229500 9.226300
-1.200800 7.587700
-1.172100 6.355500
-1.143400 5.161900
-1.114800 5.755100
-1.086100 5.777900
-1.057400 6.092100
-1.028800 6.700800
-1.000100 7.561900
-0.971400 9.092800
-0.942800 9.363000
-0.914100 7.404400
-0.885400 6.465700
-0.856700 5.103100
-0.828100 3.756900
-0.799400 3.157900
-0.770700 2.844600
-0.742100 2.899600
-0.713400 3.483300
-0.684700 5.268400
-0.656100 7.262700
-0.627400 9.444900
-0.598700 11.305800
-0.570000 7.081900
-0.541400 5.614200
-0.512700 5.046900
-0.484000 5.379200
-0.455400 7.037400
-0.426700 10.090600
-0.398000 10.071200
-0.369400 9.368700
-0.340700 5.979700
-0.312000 3.514300
-0.283400 4.596100
-0.254700 6.271100
-0.226000 6.319600
-0.197300 6.210500
-0.168700 6.066000
-0.140000 6.020000
-0.111300 6.658100
-0.082700 8.973300
-0.054000 11.036700
-0.025300 12.000900
0.003300 8.491800
0.032000 5.206800
0.060700 4.593500
0.089400 5.077100
0.118000 5.073500
0.146700 6.437200
0.175400 7.403600
0.204000 9.829100
0.232700 13.388600
0.261400 14.352800
0.290000 4.625500
0.318700 0.629000
0.347400 0.000000
0.376100 0.000000
0.404700 0.000000
0.433400 0.000000
0.462100 0.000000
0.490700 0.000000
0.519400 0.000000
0.548100 0.000000
0.576700 0.000000
0.605400 0.000000
0.634100 0.000000
0.662800 0.000000
0.691400 0.000000
0.720100 0.000000
0.748800 0.000000
0.777400 0.000000
0.806100 0.000000
0.834800 0.000000
0.863400 0.000000
0.892100 0.000000
0.920800 0.000000
0.949400 0.000000
0.978100 0.000000
1.006800 0.000000
1.035500 0.000000
1.064100 0.000000
1.092800 0.000000
1.121500 0.000000
1.150100 0.000000
1.178800 0.000000
1.207500 0.000000
1.236100 0.000000
1.264800 0.000000
1.293500 0.000000
1.322200 0.000000
1.350800 0.000000
1.379500 0.000000
1.408200 0.000000
1.436800 0.000000
1.465500 0.000000
1.494200 0.000000
1.522800 0.000000
1.551500 0.000000
1.580200 0.000000
1.608900 0.000000
1.637500 0.000000
1.666200 0.000000
1.694900 0.000000
1.723500 0.000000
1.752200 0.000000
1.780900 0.000000
1.809500 0.000000
1.838200 0.000000
1.866900 0.000000
1.895500 0.000000
1.924200 0.000000
1.952900 0.000000
1.981600 0.000000
2.010200 0.000000
2.038900 0.000000
2.067600 0.000000
2.096200 0.000000
2.124900 0.000000
2.153600 0.000000
2.182200 0.000000
2.210900 0.000000
2.239600 0.000000
2.268300 0.000000
2.296900 0.000000
2.325600 0.000000
2.354300 0.000000
2.382900 0.000000
2.411600 0.000000
2.440300 0.000000
2.468900 0.000000
2.497600 0.000000
2.526300 0.000000
2.555000 0.000000
2.583600 0.000000
2.612300 0.000000
2.641000 0.000000
2.669600 0.000000
2.698300 0.000000
2.727000 0.000000
2.755600 0.000000
2.784300 0.000000
2.813000 0.000000
2.841600 0.000000
2.870300 0.000000
2.899000 0.000000
2.927700 0.000000
2.956300 0.000000
2.985000 0.000000
3.013700 0.000000
3.042300 0.000000
3.071000 0.000000
3.099700 0.000000
3.128300 0.000000
3.157000 0.000000
3.185700 0.000000
3.214400 0.000000
3.243000 0.000000
3.271700 0.000000
3.300400 0.000000
3.329000 0.000000
3.357700 0.000000
3.386400 0.000000
3.415000 0.000000
3.443700 0.000000
3.472400 0.000000
3.501100 0.000000
3.529700 0.000000
3.558400 0.000000
3.587100 0.000000
3.615700 0.000000
3.644400 0.000000
3.673100 0.000000
3.701700 0.000000
3.730400 0.000000
3.759100 0.000000
3.787700 0.000000
3.816400 0.000000
3.845100 0.000000
3.873800 0.000000
3.902400 0.000000
3.931100 0.000000
3.959800 0.000000
3.988400 0.000000
4.017100 0.000000
4.045800 0.000000
4.074400 0.000000
4.103100 0.000000
4.131800 0.000000
4.160500 0.000000
4.189100 0.000000
4.217800 0.000000
4.246500 0.000000
4.275100 0.000000
4.303800 0.000000
4.332500 0.000000
4.361100 0.000000
4.389800 0.000000
4.418500 0.000000
4.447200 0.000000
4.475800 0.000000
4.504500 0.000000
4.533200 0.000000
4.561800 0.000000
4.590500 0.000000
4.619200 0.000000
4.647800 0.000000
4.676500 0.000000
4.705200 0.000000
4.733800 0.000000
4.762500 0.000000
4.791200 0.000000
4.819900 0.000000
4.848500 0.000000
4.877200 0.000000
4.905900 0.000000
4.934500 0.000000
4.963200 0.000000
4.991900 0.000000
5.020500 0.000000
5.049200 0.000000
5.077900 0.000000
5.106600 0.000000
5.135200 0.000000
5.163900 0.000000
5.192600 0.000000
5.221200 0.000000
5.249900 0.000000
5.278600 0.000000
5.307200 0.000000
5.335900 0.000000
5.364600 0.000000
5.393300 0.000000
5.421900 0.000000
5.450600 0.000000
5.479300 0.000000
5.507900 0.000000
5.536600 0.000000
5.565300 0.000000
5.593900 0.000000
5.622600 0.000000
5.651300 0.000000
5.679900 0.000000
5.708600 0.000000
5.737300 0.000000
5.766000 0.000000
5.794600 0.000000
5.823300 0.000000
5.852000 0.000000
5.880600 0.000000
5.909300 0.000800
5.938000 0.003100
5.966600 0.007100
5.995300 0.012700
6.024000 0.019800
6.052700 0.028600
6.081300 0.039000
6.110000 0.051000
6.138700 0.064600
6.167300 0.079800
6.196000 0.096600
6.224700 0.115000
6.253300 0.135000
6.282000 0.156600
6.310700 0.179800
6.339400 0.204600
6.368000 0.230900
6.396700 0.258800
6.425400 0.285500
6.454000 0.298100
6.482700 0.309800
6.511400 0.320300
6.540000 0.329700
6.568700 0.338100
6.597400 0.345400
6.626100 0.351600
6.654700 0.356800
6.683400 0.360800
6.712100 0.363800
6.740700 0.375500
6.769400 0.389600
6.798100 0.403900
6.826700 0.418500
6.855400 0.433200
6.884100 0.448200
6.912700 0.463400
6.941400 0.478800
6.970100 0.494300
6.998800 0.510100
7.027400 0.526100
7.056100 0.542300
7.084800 0.558800
7.113400 0.575400
7.142100 0.592200
7.170800 0.621800
7.199400 0.659600
7.228100 0.696100
7.256800 0.731200
7.285500 0.765000
7.314100 0.797900
7.342800 0.830800
7.371500 0.863600
7.400100 0.896500
7.428800 0.929300
7.457500 0.962100
7.486100 0.995000
7.514800 0.939800
7.543500 0.967800
7.572200 0.996600
7.600800 1.060000
7.629500 1.126800
7.658200 1.188400
7.686800 1.244900
7.715500 1.296100
7.744200 1.342100
7.772800 1.381600
7.801500 1.394500
7.830200 1.405000
7.858800 1.413300
7.887500 1.419200
7.916200 1.422800
7.944900 1.424100
7.973500 1.423100
8.002200 1.419800
8.030900 1.414100
8.059500 1.406200
8.088200 1.419800
8.116900 1.445000
8.145500 1.468300
8.174200 1.489600
8.202900 1.508900
8.231600 1.526200
8.260200 1.806400
8.288900 2.215300
8.317600 2.084000
8.346200 1.910500
8.374900 1.649400
8.403600 1.450300
8.432200 1.275800
8.460900 1.125900
8.489600 1.000600
8.518300 0.415600
8.546900 0.457700
8.575600 0.502500
8.604300 0.550100
8.632900 0.600600
8.661600 0.653800
8.690300 0.709900
8.718900 0.768800
8.747600 0.830400
8.776300 0.900700
8.804900 0.992800
8.833600 1.093900
8.862300 2.154300
8.891000 3.697100
8.919600 4.540800
8.948300 5.583800
8.977000 6.443300
9.005600 7.398800
9.034300 8.930600
9.063000 9.089900
9.091600 6.415300
9.120300 4.343300
9.149000 2.924900
9.177700 2.358900
9.206300 2.276400
9.235000 2.868100
9.263700 3.192000
9.292300 2.680100
9.321000 2.692900
9.349700 2.944800
9.378300 3.354300
9.407000 3.921500
9.435700 5.310800
9.464400 6.061400
9.493000 6.596800
9.521700 8.200100
9.550400 8.882300
9.579000 7.226200
9.607700 6.071500
9.636400 5.104300
9.665000 4.557900
9.693700 4.144200
9.722400 3.835200
9.751000 4.409400
9.779700 6.471100
9.808400 14.696800
9.837100 12.713700
9.865700 7.278400
9.894400 1.490000
9.923100 2.593300
9.951700 3.695900
9.980400 4.651600
10.009100 5.812600
10.037700 6.998700
10.066400 9.223000
10.095100 9.131000
10.123800 12.412300
10.152400 8.124600
10.181100 2.366000
10.209800 0.336800
10.238400 0.299300
10.267100 0.275100
10.295800 0.719000
10.324400 1.564300
10.353100 3.447700
10.381800 8.370600
10.410500 9.808900
10.439100 10.414900
10.467800 8.671200
10.496500 6.933800
10.525100 7.148400
10.553800 6.229700
10.582500 5.496100
10.611100 1.728200
10.639800 2.109600
10.668500 3.347600
10.697100 4.850100
10.725800 6.266300
10.754500 7.596000
10.783200 7.118300
10.811800 6.506500
10.840500 6.035800
10.869200 5.816300
10.897800 4.954000
10.926500 3.152000
10.955200 2.738600
10.983800 1.962000
11.012500 1.673700
11.041200 1.623100
11.069900 1.785600
11.098500 1.951500
11.127200 2.120600
11.155900 2.292900
11.184500 2.468600
11.213200 2.647400
11.241900 3.767000
11.270500 3.154900
11.299200 2.885700
11.327900 2.961700
11.356600 3.054800
11.385200 3.164900
11.413900 3.292100
11.442600 3.436400
11.471200 3.381600
11.499900 3.523500
11.528600 3.659000
11.557200 3.647500
11.585900 3.420700
11.614600 3.371000
11.643300 3.299300
11.671900 3.170300
11.700600 3.096700
11.729300 3.031600
11.757900 3.073100
11.786600 3.795800
11.815300 4.362500
11.843900 4.378100
11.872600 4.449600
11.901300 4.642500
11.929900 4.831900
11.958600 4.175900
11.987300 4.245200
12.016000 4.748300
12.044600 4.983700
12.073300 5.258200
12.102000 5.634900
12.130600 6.297800
12.159300 4.875000
12.188000 4.851000
12.216600 5.034100
12.245300 5.268900
12.274000 8.313500
12.302700 7.128100
12.331300 16.877500
12.360000 6.696800
12.388700 6.644900
12.417300 6.459400
12.446000 6.336100
12.474700 6.457900
12.503300 6.571300
12.532000 6.449000
12.560700 6.123800
12.589400 5.020900
12.618000 4.895700
12.646700 4.806000
12.675400 4.747500
12.704000 4.719700
12.732700 4.696000
12.761400 3.725300
12.790000 3.590700
12.818700 3.467300
12.847400 3.388200
12.876000 3.313000
12.904700 3.241700
12.933400 3.469900
12.962100 4.667300
12.990700 5.816600
13.019400 6.941000
13.048100 7.613700
13.076700 6.785000
13.105400 7.399400
13.134100 7.321300
13.162700 8.127000
13.191400 8.140100
13.220100 7.119300
13.248800 6.069700
13.277400 4.946200
13.306100 4.440900
13.334800 4.109200
13.363400 3.765300
13.392100 3.699200
13.420800 3.543100
13.449400 3.146600
13.478100 3.234000
13.506800 2.916900
13.535500 4.930300
13.564100 3.190300
13.592800 3.233500
13.621500 3.366200
13.650100 3.650500
13.678800 5.000400
13.707500 6.567900
13.736100 9.528000
13.764800 9.002800
13.793500 8.079000
13.822100 7.345700
13.850800 6.375800
13.879500 5.106200
13.908200 5.534100
13.936800 1.272300
13.965500 1.090800
13.994200 1.019100
14.022800 0.984600
14.051500 0.971200
14.080200 0.948300
14.108800 0.915900
14.137500 0.874100
14.166200 0.822800
14.194900 0.918300
14.223500 1.129800
14.252200 1.542900
14.280900 2.083400
14.309500 2.855500
14.338200 3.851100
14.366900 4.220900
14.395500 4.295100
14.424200 4.937700
14.452900 5.485500
14.481600 6.117500
14.510200 5.133100
14.538900 4.659000
14.567600 4.048900
14.596200 3.575000
14.624900 3.237200
14.653600 3.046100
14.682200 3.009200
14.710900 3.114600
14.739600 3.202300
14.768200 3.345400
14.796900 3.948300
14.825600 4.144900
14.854300 4.406800
14.882900 5.678300
14.911600 5.880000
14.940300 5.789900
14.968900 5.323500
14.997600 5.464600
15.026300 5.609900
15.054900 6.371700
15.083600 5.261800
15.112300 4.773100
15.141000 5.344600
15.169600 6.011800
15.198300 7.718200
15.227000 8.489200
15.255600 7.849800
15.284300 6.604900
15.313000 5.436200
15.341600 5.531200
15.370300 5.986000
15.399000 5.744800
15.427700 6.611700
15.456300 7.238800
15.485000 7.169900
15.513700 4.740500
15.542300 4.054900
15.571000 3.868900
15.599700 3.831300
15.628300 3.790200
15.657000 3.744200
15.685700 3.693200
15.714300 4.981200
15.743000 2.379700
15.771700 2.395300
15.800400 2.460400
15.829000 2.527100
15.857700 2.590300
15.886400 2.687600
15.915000 2.733000
15.943700 3.582600
15.972400 3.593900
16.001000 3.569700
16.029700 3.470100
16.058400 3.342800
16.087100 3.226500
16.115700 3.121400
16.144400 3.027800
16.173100 2.735600
16.201700 2.805900
16.230400 2.882700
16.259100 2.973100
16.287700 3.065300
16.316400 3.159100
16.345100 3.264700
16.373800 3.402300
16.402400 3.572700
16.431100 3.775800
16.459800 5.406200
16.488400 4.375400
16.517100 3.173800
16.545800 2.835700
16.574400 0.885900
16.603100 1.135400
16.631800 1.388400
16.660400 1.657400
16.689100 1.942500
16.717800 2.243500
16.746500 3.128700
16.775100 7.448700
16.803800 7.793100
16.832500 7.912400
16.861100 6.391400
16.889800 5.208800
16.918500 3.948300
16.947100 3.311900
16.975800 2.780800
17.004500 2.357700
17.033200 2.035200
17.061800 1.813100
17.090500 1.947900
17.119200 2.243000
17.147800 3.348500
17.176500 4.369500
17.205200 5.830800
17.233800 6.493700
17.262500 5.258400
17.291200 5.709400
17.319900 6.480300
17.348500 7.098700
17.377200 8.510400
17.405900 6.980200
17.434500 5.404200
17.463200 4.832600
17.491900 4.860000
17.520500 4.460500
17.549200 4.890100
17.577900 5.459900
17.606600 6.167000
17.635200 6.962900
17.663900 6.987200
17.692600 6.395500
17.721200 5.679400
17.749900 4.657500
17.778600 5.119600
17.807200 5.641100
17.835900 4.303700
17.864600 3.131000
17.893200 2.271000
17.921900 2.102700
17.950600 2.393500
17.979300 2.711200
18.007900 4.060500
18.036600 5.079300
18.065300 5.351000
18.093900 5.503300
18.122600 5.524300
18.151300 5.219100
18.179900 2.760100
18.208600 1.945700
18.237300 1.860900
18.266000 1.778300
18.294600 1.694400
18.323300 1.609300
18.352000 1.522800
18.380600 2.154700
18.409300 2.615500
18.438000 4.447500
18.466600 4.058800
18.495300 4.329800
18.524000 5.062100
18.552700 8.091500
18.581300 6.549700
18.610000 6.289100
18.638700 4.085800
18.667300 3.075900
18.696000 2.949100
18.724700 2.900700
18.753300 3.073000
18.782000 3.545100
18.810700 4.033600
18.839300 4.755800
18.868000 9.848800
18.896700 5.536500
18.925400 5.095000
18.954000 4.679100
18.982700 4.329400
19.011400 3.983300
19.040000 3.640800
19.068700 3.302000
19.097400 3.002700
19.126000 2.787600
19.154700 2.653400
19.183400 2.476600
19.212100 2.323600
19.240700 2.186300
19.269400 2.054600
19.298100 1.928300
19.326700 1.807500
19.355400 1.692300
19.384100 1.582500
19.412700 1.429000
19.441400 1.210400
19.470100 0.994300
19.498800 0.654300
19.527400 0.587800
19.556100 0.535200
19.584800 1.018400
19.613400 1.884100
19.642100 1.601100
19.670800 1.815200
19.699400 2.061700
19.728100 2.340400
19.756800 2.651400
19.785400 2.994700
19.814100 3.370200
19.842800 3.781500
19.871500 4.251400
19.900100 4.964500
19.928800 5.566700
19.957500 5.973500
19.986100 5.689800
20.014800 5.404800
20.043500 4.434600
20.072100 2.795400
20.100800 2.586900
20.129500 2.439100
20.158200 2.337300
20.186800 2.209400
20.215500 1.879500
20.244200 1.609300
20.272800 2.107600
20.301500 2.677000
20.330200 3.276900
20.358800 3.907400
20.387500 4.568400
20.416200 5.259800
20.444900 5.895200
20.473500 7.075300
20.502200 4.294100
20.530900 3.913400
20.559500 3.550200
20.588200 3.204400
20.616900 2.876100
20.645500 2.565300
20.674200 2.271900
20.702900 1.995900
20.731500 1.716500
20.760200 1.697500
20.788900 1.351400
20.817600 3.132600
20.846200 4.993700
20.874900 6.951600
20.903600 5.653300
20.932200 5.420700
20.960900 6.381800
20.989600 5.499900
21.018200 5.186300
21.046900 4.952500
21.075600 4.853400
21.104300 4.810200
21.132900 4.775800
21.161600 4.573000
21.190300 4.385700
21.218900 4.257700
21.247600 4.189000
21.276300 4.170700
21.304900 4.585800
21.333600 5.183900
21.362300 3.969200
21.391000 3.980400
21.419600 4.028700
21.448300 4.262100
21.477000 4.352800
21.505600 4.731100
21.534300 5.251300
21.563000 5.442200
21.591600 3.320200
21.620300 2.568500
21.649000 1.957800
21.677600 1.192500
21.706300 1.018300
21.735000 0.890000
21.763700 1.077000
21.792300 1.366400
21.821000 1.953100
21.849700 7.520400
21.878300 8.302300
21.907000 6.532900
21.935700 5.086500
21.964300 5.450400
21.993000 5.819500
22.021700 6.215400
22.050400 6.638300
22.079000 8.144300
22.107700 7.784800
22.136400 7.161700
22.165000 6.236800
22.193700 6.033400
22.222400 5.364500
22.251000 5.022500
22.279700 5.379700
22.308400 5.705700
22.337100 4.829500
22.365700 4.964600
22.394400 5.099600
22.423100 5.034400
22.451700 4.561400
22.480400 4.303400
22.509100 4.125900
22.537700 3.440700
22.566400 3.154700
22.595100 2.915500
22.623700 2.984200
22.652400 3.148500
22.681100 3.113800
22.709800 3.184900
22.738400 3.284900
22.767100 3.478900
22.795800 3.643000
22.824400 4.464200
22.853100 5.388000
22.881800 3.611900
22.910400 3.654700
22.939100 3.729700
22.967800 3.816300
22.996500 4.008800
23.025100 4.190400
23.053800 4.478400
23.082500 4.639300
23.111100 4.618500
23.139800 4.595400
23.168500 4.569800
23.197100 4.541900
23.225800 4.267400
23.254500 6.704500
23.283200 6.551000
23.311800 6.273500
23.340500 6.396400
23.369200 6.472600
23.397800 6.577400
23.426500 7.509700
23.455200 7.568600
23.483800 7.125800
23.512500 6.577400
23.541200 5.704500
23.569900 5.835300
23.598500 5.344600
23.627200 5.264900
23.655900 5.276600
23.684500 5.319200
23.713200 5.532700
23.741900 5.717900
23.770500 5.942800
23.799200 5.899300
23.827900 5.757500
23.856500 5.563500
23.885200 6.535800
23.913900 5.490400
23.942600 6.182000
23.971200 6.024500
23.999900 4.678800
24.028600 4.151700
24.057200 4.273100
24.085900 4.448800
24.114600 4.589000
24.143200 4.488000
24.171900 4.480600
24.200600 4.477200
24.229300 4.563500
24.257900 4.278400
24.286600 3.598500
24.315300 4.083100
24.343900 5.638600
24.372600 6.539900
24.401300 8.631900
24.429900 6.384600
24.458600 4.531000
24.487300 3.897900
24.516000 3.817900
24.544600 3.819400
24.573300 3.902300
24.602000 4.066700
24.630600 4.311100
24.659300 4.537000
24.688000 5.421400
24.716600 6.094600
24.745300 6.324900
24.774000 5.040000
24.802600 3.602100
24.831300 4.372200
24.860000 6.936500
24.888700 3.787400
24.917300 3.961100
24.946000 4.068900
24.974700 4.110800
25.003300 4.086800
25.032000 5.426500
25.060700 5.430000
25.089300 5.214400
25.118000 4.923600
25.146700 5.212000
25.175400 5.064800
25.204000 4.921900
25.232700 4.730200
25.261400 3.485200
25.290000 2.981200
25.318700 2.726900
25.347400 2.415300
25.376000 2.734400
25.404700 3.085300
25.433400 3.509800
25.462100 3.563400
25.490700 3.552000
25.519400 3.516000
25.548100 3.510100
25.576700 3.591500
25.605400 3.961700
25.634100 4.494500
25.662700 6.068400
25.691400 7.357900
25.720100 8.378400
25.748700 6.565300
25.777400 5.392600
25.806100 4.580600
25.834800 4.143600
25.863400 4.049000
25.892100 4.081700
25.920800 4.600600
25.949400 5.003100
25.978100 5.322100
26.006800 5.588800
26.035400 5.484000
26.064100 5.390400
26.092800 7.125200
26.121500 5.535000
26.150100 5.352500
26.178800 5.320500
26.207500 4.803000
26.236100 4.426100
26.264800 4.102100
26.293500 3.757600
26.322100 3.713700
26.350800 3.696000
26.379500 4.267800
26.408200 4.654800
26.436800 5.013000
26.465500 4.907900
26.494200 6.357700
26.522800 4.658200
26.551500 4.068800
26.580200 4.091600
26.608800 4.062300
26.637500 4.167400
26.666200 4.170800
26.694800 5.079000
26.723500 5.343900
26.752200 5.140300
26.780900 4.914400
26.809500 4.374700
26.838200 4.254900
26.866900 4.118400
26.895500 3.990300
26.924200 5.867100
26.952900 6.357500
26.981500 4.314300
27.010200 3.053400
27.038900 2.296600
27.067600 1.788400
27.096200 1.031200
27.124900 1.399700
27.153600 1.961100
27.182200 3.650500
27.210900 3.997800
27.239600 4.852000
27.268200 4.579400
27.296900 4.288100
27.325600 3.623300
27.354300 3.658300
27.382900 3.797800
27.411600 4.128900
27.440300 4.702600
27.468900 6.103700
27.497600 5.450400
27.526300 5.576000
27.554900 5.695000
27.583600 8.722500
27.612300 6.097100
27.640900 5.671600
27.669600 5.650900
27.698300 5.508200
27.727000 5.381400
27.755600 4.766800
27.784300 4.379200
27.813000 4.605100
27.841600 4.656000
27.870300 4.386900
27.899000 3.963100
27.927600 3.621100
27.956300 4.148500
27.985000 4.064800
28.013700 3.600500
28.042300 3.915500
28.071000 4.343700
28.099700 4.457600
28.128300 4.589700
28.157000 4.740100
28.185700 4.913800
28.214300 5.085300
28.243000 5.499300
28.271700 7.706200
28.300400 10.365200
28.329000 4.878500
28.357700 4.122400
28.386400 5.953100
28.415000 3.609600
28.443700 3.363100
28.472400 2.519700
28.501000 2.518000
28.529700 2.790100
28.558400 3.183600
28.587100 3.558200
28.615700 3.904200
28.644400 4.216700
28.673100 4.533500
28.701700 4.923700
28.730400 5.298900
28.759100 5.694500
28.787700 6.108300
28.816400 7.990700
28.845100 5.798700
28.873700 3.146300
28.902400 3.226900
28.931100 3.436500
28.959800 4.136000
28.988400 4.817400
29.017100 7.492800
29.045800 7.757200
29.074400 7.235300
29.103100 6.690700
29.131800 5.766900
29.160400 5.076000
29.189100 4.470600
29.217800 4.049600
29.246500 3.627000
29.275100 3.477400
29.303800 3.342800
29.332500 3.238800
29.361100 3.873800
29.389800 6.008200
29.418500 4.820200
29.447100 4.940100
29.475800 4.956400
29.504500 6.891200
29.533200 4.625800
29.561800 4.989200
29.590500 4.966300
29.619200 4.598600
29.647800 3.541700
29.676500 3.120200
29.705200 2.818700
29.733800 2.620600
29.762500 2.508900
29.791200 2.460300
29.819800 2.443800
29.848500 2.461900
29.877200 2.511300
29.905900 3.124000
29.934500 3.436000
29.963200 3.698900
29.991900 4.161800
30.020500 4.905300
30.049200 5.411500
30.077900 5.882600
30.106500 6.330700
30.135200 6.433200
30.163900 5.275900
30.192600 5.011800
30.221200 5.026200
30.249900 4.940400
30.278600 4.840600
30.307200 4.790800
30.335900 4.750800
30.364600 4.734100
30.393200 5.245100
30.421900 5.826000
30.450600 5.637500
30.479300 5.540400
30.507900 5.023700
30.536600 4.740900
30.565300 4.745900
30.593900 4.600700
30.622600 4.528800
30.651300 4.586300
30.679900 6.306100
30.708600 4.385000
30.737300 4.071000
30.765900 6.361200
30.794600 6.656100
30.823300 6.184400
30.852000 6.014100
30.880600 6.022500
30.909300 6.000400
30.938000 5.977700
30.966600 5.915800
30.995300 4.608700
31.024000 4.340800
31.052600 4.197900
31.081300 4.111000
31.110000 4.191700
31.138700 4.297700
31.167300 4.622500
31.196000 3.748600
31.224700 3.752800
31.253300 3.780900
31.282000 3.832800
31.310700 3.862200
31.339300 6.975600
31.368000 7.278000
31.396700 7.574200
31.425400 6.194100
31.454000 4.688400
31.482700 5.054300
31.511400 5.051600
31.540000 5.102600
31.568700 5.323500
31.597400 5.583900
31.626000 5.659900
31.654700 7.126000
31.683400 8.680800
31.712000 7.704100
31.740700 6.140500
31.769400 6.073300
31.798100 6.088100
31.826700 6.519500
31.855400 7.316500
31.884100 6.368400
31.912700 5.642600
31.941400 5.855800
31.970100 5.938200
31.998700 6.158900
32.027400 6.432900
32.056100 6.533400
32.084800 6.666400
32.113400 6.606300
32.142100 5.947500
32.170800 5.845600
32.199400 5.660300
32.228100 5.491600
32.256800 5.243700
32.285400 5.134000
32.314100 5.171100
32.342800 5.297000
32.371500 5.196900
32.400100 4.962300
32.428800 4.465800
32.457500 4.101600
32.486100 3.255000
32.514800 2.983900
32.543500 2.746400
32.572100 2.514300
32.600800 2.289800
32.629500 2.072900
32.658100 1.833000
32.686800 1.516400
32.715500 1.415700
32.744200 1.322300
32.772800 1.235800
32.801500 1.156200
32.830200 1.081100
32.858800 1.001800
32.887500 0.912500
32.916200 0.815700
32.944800 0.711600
32.973500 0.570600
33.002200 0.461400
33.030900 0.379600
33.059500 0.294400
33.088200 0.205900
33.116900 0.113900
33.145500 0.038100
33.174200 0.002600
33.202900 0.000000
33.231500 0.000000
33.260200 0.000000
33.288900 0.000000
33.317600 0.000000
33.346200 0.000000
33.374900 0.000000
33.403600 0.000000
33.432200 0.000000
33.460900 0.000000
33.489600 0.000000
33.518200 0.000000
33.546900 0.000000
33.575600 0.000000
33.604200 0.000000
33.632900 0.000000
33.661600 0.000000
33.690300 0.000000
33.718900 0.000000
33.747600 0.000000
33.776300 0.000000
33.804900 0.000000
33.833600 0.000000
33.862300 0.000000
33.890900 0.000000
33.919600 0.000000
33.948300 0.000000
33.977000 0.000000
34.005600 0.000000
34.034300 0.000000
34.063000 0.000000
34.091600 0.000000
34.120300 0.000000
34.149000 0.000000
34.177600 0.000000
34.206300 0.000000
34.235000 0.000000
34.263700 0.000000
34.292300 0.000000
34.321000 0.000000
34.349700 0.000000
34.378300 0.000000
34.407000 0.000000
34.435700 0.000000
34.464300 0.000000
34.493000 0.000000
34.521700 0.000000
34.550400 0.000000
34.579000 0.000000
34.607700 0.000000
34.636400 0.000000
34.665000 0.000000
34.693700 0.000000
34.722400 0.000000
34.751000 0.000000
34.779700 0.000000
34.808400 0.000000
34.837000 0.000000
34.865700 0.000000
34.894400 0.000000
34.923100 0.000000
34.951700 0.000000
34.980400 0.000000
35.009100 0.000000
35.037700 0.000000
35.066400 0.000000
35.095100 0.000000
35.123700 0.000000
35.152400 0.000000
35.181100 0.000000
35.209800 0.000000
35.238400 0.000000
35.267100 0.000000
35.295800 0.000000
35.324400 0.000000
35.353100 0.000000
35.381800 0.000000
35.410400 0.000000
35.439100 0.000000
35.467800 0.000000
35.496500 0.000000
35.525100 0.000000
35.553800 0.000000
35.582500 0.000000
35.611100 0.000000
35.639800 0.000000
35.668500 0.000000
35.697100 0.000000
35.725800 0.000000
35.754500 0.000000
35.783100 0.000000
e
