set title 'mp-1391 - Density of States'
set xlabel 'Energy (eV)'
set ylabel 'DOS (states/eV)'
set grid
set xrange [-10:10]
set yrange [0:14.017]
set xzeroaxis lt -1
set terminal png size 800,600
set output 'mp-1391_dos_gnuplot.png'
plot '-' using 1:2 with lines title 'DOS'
-22.840400 0.000000
-22.816700 0.000000
-22.793100 0.000000
-22.769400 0.000000
-22.745700 0.000000
-22.722100 0.000000
-22.698400 0.000000
-22.674800 0.000000
-22.651100 0.000000
-22.627400 0.000000
-22.603800 0.000000
-22.580100 0.000000
-22.556400 0.000000
-22.532800 0.000000
-22.509100 0.000000
-22.485400 0.000000
-22.461800 0.000000
-22.438100 0.000000
-22.414500 0.000000
-22.390800 0.000000
-22.367100 0.000000
-22.343500 0.000000
-22.319800 0.000000
-22.296100 0.000000
-22.272500 0.000000
-22.248800 0.000000
-22.225100 0.000000
-22.201500 0.000000
-22.177800 0.000000
-22.154200 0.000000
-22.130500 0.000000
-22.106800 0.000000
-22.083200 0.000000
-22.059500 0.000000
-22.035800 0.000000
-22.012200 0.000000
-21.988500 0.000000
-21.964800 0.000000
-21.941200 0.000000
-21.917500 0.000000
-21.893900 0.000000
-21.870200 0.000000
-21.846500 0.000000
-21.822900 0.000000
-21.799200 0.000000
-21.775500 0.000000
-21.751900 0.000000
-21.728200 0.000000
-21.704500 0.000000
-21.680900 0.000000
-21.657200 0.000000
-21.633600 0.000000
-21.609900 0.000000
-21.586200 0.000000
-21.562600 0.000000
-21.538900 0.000000
-21.515200 0.000000
-21.491600 0.000000
-21.467900 0.000000
-21.444200 0.000000
-21.420600 0.000000
-21.396900 0.000000
-21.373300 0.000000
-21.349600 0.000000
-21.325900 0.000000
-21.302300 0.000000
-21.278600 0.000000
-21.254900 0.000000
-21.231300 0.000000
-21.207600 0.000000
-21.183900 0.000000
-21.160300 0.000000
-21.136600 0.000000
-21.113000 0.000000
-21.089300 0.000000
-21.065600 0.000000
-21.042000 0.000000
-21.018300 0.000000
-20.994600 0.000000
-20.971000 0.000000
-20.947300 0.000000
-20.923600 0.000000
-20.900000 0.000000
-20.876300 0.000000
-20.852700 0.000000
-20.829000 0.000000
-20.805300 0.000000
-20.781700 0.000000
-20.758000 0.000000
-20.734300 0.000000
-20.710700 0.000000
-20.687000 0.959300
-20.663300 3.181300
-20.639700 3.475700
-20.616000 3.776600
-20.592400 4.143800
-20.568700 4.564400
-20.545000 5.163900
-20.521400 6.027800
-20.497700 7.285000
-20.474000 9.298800
-20.450400 15.001000
-20.426700 14.900400
-20.403000 0.000000
-20.379400 0.000000
-20.355700 0.000000
-20.332100 0.000000
-20.308400 0.000000
-20.284700 0.000000
-20.261100 0.000000
-20.237400 0.000000
-20.213700 0.000000
-20.190100 0.000000
-20.166400 0.000000
-20.142700 0.000000
-20.119100 0.000000
-20.095400 0.000000
-20.071800 0.000000
-20.048100 0.000000
-20.024400 0.000000
-20.000800 0.000000
-19.977100 0.000000
-19.953400 0.000000
-19.929800 0.000000
-19.906100 0.000000
-19.882400 0.000000
-19.858800 0.000000
-19.835100 0.000000
-19.811500 0.000000
-19.787800 0.000000
-19.764100 0.000000
-19.740500 0.000000
-19.716800 0.000000
-19.693100 0.000000
-19.669500 0.000000
-19.645800 0.000000
-19.622100 0.000000
-19.598500 0.000000
-19.574800 0.000000
-19.551200 0.000000
-19.527500 0.000000
-19.503800 0.000000
-19.480200 0.000000
-19.456500 0.000000
-19.432800 0.000000
-19.409200 0.000000
-19.385500 0.000000
-19.361800 0.000000
-19.338200 0.000000
-19.314500 0.000000
-19.290900 0.000000
-19.267200 0.000000
-19.243500 0.000000
-19.219900 0.000000
-19.196200 0.000000
-19.172500 0.000000
-19.148900 0.000000
-19.125200 0.000000
-19.101500 0.000000
-19.077900 0.000000
-19.054200 0.000000
-19.030600 0.000000
-19.006900 0.000000
-18.983200 0.000000
-18.959600 0.000000
-18.935900 0.000000
-18.912200 0.000000
-18.888600 0.000000
-18.864900 0.000000
-18.841200 0.000000
-18.817600 0.000000
-18.793900 0.000000
-18.770300 0.000000
-18.746600 0.000000
-18.722900 0.000000
-18.699300 0.000000
-18.675600 0.000000
-18.651900 0.000000
-18.628300 0.000000
-18.604600 0.000000
-18.580900 0.000000
-18.557300 0.000000
-18.533600 0.000000
-18.510000 0.000000
-18.486300 0.000000
-18.462600 0.000000
-18.439000 0.000000
-18.415300 0.000000
-18.391600 0.000000
-18.368000 0.000000
-18.344300 0.000000
-18.320600 0.000000
-18.297000 0.000000
-18.273300 0.000000
-18.249700 0.000000
-18.226000 0.000000
-18.202300 0.000000
-18.178700 0.000000
-18.155000 0.000000
-18.131300 0.000000
-18.107700 0.000000
-18.084000 0.000000
-18.060300 0.000000
-18.036700 0.000000
-18.013000 0.000000
-17.989400 0.000000
-17.965700 0.000000
-17.942000 0.000000
-17.918400 0.000000
-17.894700 0.000000
-17.871000 0.000000
-17.847400 0.000000
-17.823700 0.000000
-17.800000 0.000000
-17.776400 0.000000
-17.752700 0.000000
-17.729100 0.000000
-17.705400 0.000000
-17.681700 0.000000
-17.658100 0.000000
-17.634400 0.000000
-17.610700 0.000000
-17.587100 0.000000
-17.563400 0.000000
-17.539700 0.000000
-17.516100 0.000000
-17.492400 0.000000
-17.468800 0.000000
-17.445100 0.000000
-17.421400 0.000000
-17.397800 0.000000
-17.374100 0.000000
-17.350400 0.000000
-17.326800 0.000000
-17.303100 0.000000
-17.279400 0.000000
-17.255800 0.000000
-17.232100 0.000000
-17.208500 0.000000
-17.184800 0.000000
-17.161100 0.000000
-17.137500 0.000000
-17.113800 0.000000
-17.090100 0.000000
-17.066500 0.000000
-17.042800 0.000000
-17.019100 0.000000
-16.995500 0.000000
-16.971800 0.000000
-16.948200 0.000000
-16.924500 0.000000
-16.900800 0.000000
-16.877200 0.000000
-16.853500 0.000000
-16.829800 0.000000
-16.806200 0.000000
-16.782500 0.000000
-16.758800 0.000000
-16.735200 0.000000
-16.711500 0.000000
-16.687900 0.000000
-16.664200 0.000000
-16.640500 0.000000
-16.616900 0.000000
-16.593200 0.000000
-16.569500 0.000000
-16.545900 0.000000
-16.522200 0.000000
-16.498500 0.000000
-16.474900 0.000000
-16.451200 0.000000
-16.427600 0.000000
-16.403900 0.000000
-16.380200 0.000000
-16.356600 0.000000
-16.332900 0.000000
-16.309200 0.000000
-16.285600 0.000000
-16.261900 0.000000
-16.238200 0.000000
-16.214600 0.000000
-16.190900 0.000000
-16.167300 0.000000
-16.143600 0.000000
-16.119900 0.000000
-16.096300 0.000000
-16.072600 0.000000
-16.048900 0.000000
-16.025300 0.000000
-16.001600 0.000000
-15.977900 0.000000
-15.954300 0.000000
-15.930600 0.000000
-15.907000 0.000000
-15.883300 0.000000
-15.859600 0.000000
-15.836000 0.000000
-15.812300 0.000000
-15.788600 0.000000
-15.765000 0.000000
-15.741300 0.000000
-15.717600 0.000000
-15.694000 0.000000
-15.670300 0.000000
-15.646700 0.000000
-15.623000 0.000000
-15.599300 0.000000
-15.575700 0.000000
-15.552000 0.000000
-15.528300 0.000000
-15.504700 0.000000
-15.481000 0.000000
-15.457300 0.000000
-15.433700 0.000000
-15.410000 0.000000
-15.386400 0.000000
-15.362700 0.000000
-15.339000 0.000000
-15.315400 0.000000
-15.291700 0.000000
-15.268000 0.000000
-15.244400 0.000000
-15.220700 0.000000
-15.197000 0.000000
-15.173400 0.000000
-15.149700 0.000000
-15.126100 0.000000
-15.102400 0.000000
-15.078700 0.000000
-15.055100 0.000000
-15.031400 0.000000
-15.007700 0.000000
-14.984100 0.000000
-14.960400 0.000000
-14.936700 0.000000
-14.913100 0.000000
-14.889400 0.000000
-14.865800 0.000000
-14.842100 0.000000
-14.818400 0.000000
-14.794800 0.000000
-14.771100 0.000000
-14.747400 0.000000
-14.723800 0.000000
-14.700100 0.000000
-14.676400 0.000000
-14.652800 0.000000
-14.629100 0.000000
-14.605500 0.000000
-14.581800 0.000000
-14.558100 0.000000
-14.534500 0.000000
-14.510800 0.000000
-14.487100 0.000000
-14.463500 0.000000
-14.439800 0.000000
-14.416100 0.000000
-14.392500 0.000000
-14.368800 0.000000
-14.345200 0.000000
-14.321500 0.000000
-14.297800 0.000000
-14.274200 0.000000
-14.250500 0.000000
-14.226800 0.000000
-14.203200 0.000000
-14.179500 0.000000
-14.155900 0.000000
-14.132200 0.000000
-14.108500 0.000000
-14.084900 0.000000
-14.061200 0.000000
-14.037500 0.000000
-14.013900 0.000000
-13.990200 0.000000
-13.966500 0.000000
-13.942900 0.000000
-13.919200 0.000000
-13.895600 0.000000
-13.871900 0.000000
-13.848200 0.000000
-13.824600 0.000000
-13.800900 0.000000
-13.777200 0.000000
-13.753600 0.000000
-13.729900 0.000000
-13.706200 0.000000
-13.682600 0.000000
-13.658900 0.000000
-13.635300 0.000000
-13.611600 0.000000
-13.587900 0.000000
-13.564300 0.000000
-13.540600 0.000000
-13.516900 0.000000
-13.493300 0.000000
-13.469600 0.000000
-13.445900 0.000000
-13.422300 0.000000
-13.398600 0.000000
-13.375000 0.000000
-13.351300 0.000000
-13.327600 0.000000
-13.304000 0.000000
-13.280300 0.000000
-13.256600 0.000000
-13.233000 0.000000
-13.209300 0.000000
-13.185600 0.000000
-13.162000 0.000000
-13.138300 0.000000
-13.114700 0.000000
-13.091000 0.000000
-13.067300 0.000000
-13.043700 0.000000
-13.020000 0.000000
-12.996300 0.000000
-12.972700 0.000000
-12.949000 0.000000
-12.925300 0.000000
-12.901700 0.000000
-12.878000 0.000000
-12.854400 0.000000
-12.830700 0.000000
-12.807000 0.000000
-12.783400 0.000000
-12.759700 0.000000
-12.736000 0.000000
-12.712400 0.000000
-12.688700 0.000000
-12.665000 0.000000
-12.641400 0.000000
-12.617700 0.000000
-12.594100 0.000000
-12.570400 0.000000
-12.546700 0.000000
-12.523100 0.000000
-12.499400 0.000000
-12.475700 0.000000
-12.452100 0.000000
-12.428400 0.000000
-12.404700 0.000000
-12.381100 0.000000
-12.357400 0.000000
-12.333800 0.000000
-12.310100 0.000000
-12.286400 0.000000
-12.262800 0.000000
-12.239100 0.000000
-12.215400 0.000000
-12.191800 0.000000
-12.168100 0.000000
-12.144400 0.000000
-12.120800 0.000000
-12.097100 0.000000
-12.073500 0.000000
-12.049800 0.000000
-12.026100 0.000000
-12.002500 0.000000
-11.978800 0.000000
-11.955100 0.000000
-11.931500 0.000000
-11.907800 0.000000
-11.884100 0.000000
-11.860500 0.000000
-11.836800 0.000000
-11.813200 0.000000
-11.789500 0.000000
-11.765800 0.000000
-11.742200 0.000000
-11.718500 0.000000
-11.694800 0.000000
-11.671200 0.000000
-11.647500 0.000000
-11.623800 0.000000
-11.600200 0.000000
-11.576500 0.000000
-11.552900 0.000000
-11.529200 0.000000
-11.505500 0.000000
-11.481900 0.000000
-11.458200 0.000000
-11.434500 0.000000
-11.410900 0.000000
-11.387200 0.000000
-11.363500 0.000000
-11.339900 0.000000
-11.316200 0.000000
-11.292600 0.000000
-11.268900 0.000000
-11.245200 0.000000
-11.221600 0.000000
-11.197900 0.000000
-11.174200 0.000000
-11.150600 0.000000
-11.126900 0.000000
-11.103200 0.000000
-11.079600 0.000000
-11.055900 0.000000
-11.032300 0.000000
-11.008600 0.000000
-10.984900 0.000000
-10.961300 0.000000
-10.937600 0.000000
-10.913900 0.000000
-10.890300 0.000000
-10.866600 0.000000
-10.842900 0.000000
-10.819300 0.000000
-10.795600 0.000000
-10.772000 0.000000
-10.748300 0.000000
-10.724600 0.000000
-10.701000 0.000000
-10.677300 0.000000
-10.653600 0.000000
-10.630000 0.000000
-10.606300 0.000000
-10.582600 0.000000
-10.559000 0.000000
-10.535300 0.000000
-10.511700 0.000000
-10.488000 0.000000
-10.464300 0.000000
-10.440700 0.000000
-10.417000 0.000000
-10.393300 0.000000
-10.369700 0.000000
-10.346000 0.000000
-10.322300 0.000000
-10.298700 0.000000
-10.275000 0.000000
-10.251400 0.000000
-10.227700 0.000000
-10.204000 0.000000
-10.180400 0.000000
-10.156700 0.000000
-10.133000 0.000000
-10.109400 0.000000
-10.085700 0.000000
-10.062000 0.000000
-10.038400 0.000000
-10.014700 0.000000
-9.991100 0.000000
-9.967400 0.000000
-9.943700 0.000000
-9.920100 0.000000
-9.896400 0.000000
-9.872700 0.000000
-9.849100 0.000000
-9.825400 0.000000
-9.801700 0.000000
-9.778100 0.000000
-9.754400 0.000000
-9.730800 0.000000
-9.707100 0.000000
-9.683400 0.000000
-9.659800 0.000000
-9.636100 0.000000
-9.612400 0.000000
-9.588800 0.000000
-9.565100 0.000000
-9.541400 0.000000
-9.517800 0.000000
-9.494100 0.000000
-9.470500 0.000000
-9.446800 0.000000
-9.423100 0.000000
-9.399500 0.000000
-9.375800 0.000000
-9.352100 0.000000
-9.328500 0.000000
-9.304800 0.000000
-9.281100 0.000000
-9.257500 0.000000
-9.233800 0.000000
-9.210200 0.000000
-9.186500 0.000000
-9.162800 0.000000
-9.139200 0.000000
-9.115500 0.000000
-9.091800 0.000000
-9.068200 0.000000
-9.044500 0.000000
-9.020800 0.000000
-8.997200 0.000000
-8.973500 0.000000
-8.949900 0.000000
-8.926200 0.000000
-8.902500 0.000000
-8.878900 0.000000
-8.855200 0.000000
-8.831500 0.000000
-8.807900 0.000000
-8.784200 0.000000
-8.760500 0.000000
-8.736900 0.000000
-8.713200 0.000000
-8.689600 0.000000
-8.665900 0.000000
-8.642200 0.000000
-8.618600 0.000000
-8.594900 0.000000
-8.571200 0.000000
-8.547600 0.000000
-8.523900 0.000000
-8.500200 0.000000
-8.476600 0.000000
-8.452900 0.000000
-8.429300 0.000000
-8.405600 0.000000
-8.381900 0.000000
-8.358300 0.000000
-8.334600 0.000000
-8.310900 0.000000
-8.287300 0.000000
-8.263600 0.000000
-8.239900 0.000000
-8.216300 0.000000
-8.192600 0.000000
-8.169000 0.000000
-8.145300 0.000000
-8.121600 0.000000
-8.098000 0.000000
-8.074300 0.000000
-8.050600 0.000000
-8.027000 0.000000
-8.003300 0.000000
-7.979600 0.000000
-7.956000 0.000000
-7.932300 0.000000
-7.908700 0.000000
-7.885000 0.000000
-7.861300 0.000000
-7.837700 0.000000
-7.814000 0.000000
-7.790300 0.000000
-7.766700 0.000000
-7.743000 0.000000
-7.719300 0.000000
-7.695700 0.000000
-7.672000 0.000000
-7.648400 0.000000
-7.624700 0.000000
-7.601000 0.000000
-7.577400 0.000000
-7.553700 0.000000
-7.530000 0.000000
-7.506400 0.000000
-7.482700 0.000000
-7.459000 0.000000
-7.435400 0.000000
-7.411700 0.000000
-7.388100 0.000000
-7.364400 0.000000
-7.340700 0.000000
-7.317100 0.000000
-7.293400 0.000000
-7.269700 0.000000
-7.246100 0.000000
-7.222400 0.000000
-7.198700 0.000000
-7.175100 0.000000
-7.151400 0.000000
-7.127800 0.000000
-7.104100 0.000000
-7.080400 0.000000
-7.056800 0.000000
-7.033100 0.000000
-7.009400 0.000000
-6.985800 0.000000
-6.962100 0.000000
-6.938400 0.000000
-6.914800 0.000000
-6.891100 0.000000
-6.867500 0.000000
-6.843800 0.000000
-6.820100 0.000000
-6.796500 0.000000
-6.772800 0.000000
-6.749100 0.000000
-6.725500 0.000000
-6.701800 0.000000
-6.678100 0.000000
-6.654500 0.000000
-6.630800 0.000000
-6.607200 0.000000
-6.583500 0.000000
-6.559800 0.000000
-6.536200 0.000000
-6.512500 0.000000
-6.488800 0.000000
-6.465200 0.000000
-6.441500 0.000000
-6.417800 0.000000
-6.394200 0.000000
-6.370500 0.000000
-6.346900 0.000000
-6.323200 0.000000
-6.299500 0.000000
-6.275900 0.000000
-6.252200 0.000000
-6.228500 0.000000
-6.204900 0.000000
-6.181200 0.000000
-6.157500 0.000000
-6.133900 0.000000
-6.110200 0.000000
-6.086600 0.000000
-6.062900 0.000000
-6.039200 0.000000
-6.015600 0.000000
-5.991900 0.000000
-5.968200 0.000000
-5.944600 0.000000
-5.920900 0.000000
-5.897200 0.000000
-5.873600 0.000000
-5.849900 0.000000
-5.826300 0.000000
-5.802600 0.000000
-5.778900 0.000000
-5.755300 0.000000
-5.731600 0.000000
-5.707900 0.000000
-5.684300 0.000000
-5.660600 0.000000
-5.636900 0.000000
-5.613300 0.000000
-5.589600 0.000000
-5.566000 0.000000
-5.542300 0.000000
-5.518600 0.000000
-5.495000 0.000000
-5.471300 0.000000
-5.447600 0.000000
-5.424000 0.000000
-5.400300 0.000000
-5.376600 0.000000
-5.353000 0.000000
-5.329300 0.000000
-5.305700 0.000000
-5.282000 0.000000
-5.258300 0.000000
-5.234700 0.000000
-5.211000 0.000000
-5.187300 0.000000
-5.163700 0.000000
-5.140000 0.000000
-5.116300 0.000000
-5.092700 0.000000
-5.069000 0.000000
-5.045400 0.000000
-5.021700 0.000000
-4.998000 0.000000
-4.974400 0.000000
-4.950700 0.000000
-4.927000 0.000000
-4.903400 0.000000
-4.879700 0.000000
-4.856000 0.000000
-4.832400 0.000000
-4.808700 0.000000
-4.785100 0.000000
-4.761400 0.000000
-4.737700 0.000000
-4.714100 0.000000
-4.690400 0.000000
-4.666700 0.038600
-4.643100 0.073200
-4.619400 0.101400
-4.595800 0.122400
-4.572100 0.141000
-4.548400 0.160600
-4.524800 0.174600
-4.501100 0.190500
-4.477400 0.206300
-4.453800 0.223200
-4.430100 0.241200
-4.406400 0.257000
-4.382800 0.272500
-4.359100 0.290400
-4.335500 0.309100
-4.311800 0.328200
-4.288100 0.348000
-4.264500 0.368500
-4.240800 0.392700
-4.217100 0.417800
-4.193500 0.443800
-4.169800 0.471500
-4.146100 0.513900
-4.122500 0.559800
-4.098800 0.613800
-4.075200 0.664300
-4.051500 0.688200
-4.027800 0.717400
-4.004200 0.753300
-3.980500 0.806500
-3.956800 1.193900
-3.933200 1.604200
-3.909500 2.497200
-3.885800 3.479300
-3.862200 4.013300
-3.838500 5.139500
-3.814900 5.835500
-3.791200 6.364400
-3.767500 7.050100
-3.743900 8.052900
-3.720200 8.909400
-3.696500 9.902200
-3.672900 11.181600
-3.649200 8.962700
-3.625500 5.074200
-3.601900 4.067200
-3.578200 3.895700
-3.554600 3.875900
-3.530900 3.909500
-3.507200 4.220700
-3.483600 4.482000
-3.459900 4.189800
-3.436200 3.660200
-3.412600 2.623000
-3.388900 2.241400
-3.365200 2.002700
-3.341600 1.801200
-3.317900 1.717300
-3.294300 1.698600
-3.270600 1.720200
-3.246900 1.753000
-3.223300 1.918100
-3.199600 2.083200
-3.175900 1.974700
-3.152300 1.859100
-3.128600 1.808300
-3.104900 1.888000
-3.081300 2.230300
-3.057600 2.759200
-3.034000 3.108300
-3.010300 3.367300
-2.986600 3.634900
-2.963000 3.953400
-2.939300 4.242300
-2.915600 4.962000
-2.892000 5.312200
-2.868300 5.407500
-2.844600 5.851900
-2.821000 5.854600
-2.797300 4.990000
-2.773700 4.421200
-2.750000 4.117200
-2.726300 5.949500
-2.702700 6.069000
-2.679000 7.670700
-2.655300 10.495000
-2.631700 9.792500
-2.608000 10.158300
-2.584300 7.925300
-2.560700 10.037100
-2.537000 12.742300
-2.513400 9.435300
-2.489700 8.377900
-2.466000 9.200400
-2.442400 9.926400
-2.418700 11.950500
-2.395000 9.740400
-2.371400 8.179400
-2.347700 7.685100
-2.324000 8.256300
-2.300400 8.659600
-2.276700 6.084100
-2.253100 5.180800
-2.229400 5.130500
-2.205700 5.838200
-2.182100 6.851000
-2.158400 7.290300
-2.134700 6.365100
-2.111100 5.843300
-2.087400 6.157900
-2.063700 5.488800
-2.040100 5.097600
-2.016400 5.183600
-1.992800 4.942300
-1.969100 4.436100
-1.945400 4.697500
-1.921800 5.222800
-1.898100 5.143500
-1.874400 3.747600
-1.850800 3.632200
-1.827100 3.848600
-1.803400 4.961600
-1.779800 7.635400
-1.756100 6.894500
-1.732500 8.294300
-1.708800 8.280300
-1.685100 8.309600
-1.661500 7.938600
-1.637800 8.322500
-1.614100 9.106800
-1.590500 10.558200
-1.566800 9.792900
-1.543100 8.829700
-1.519500 6.777900
-1.495800 6.064200
-1.472200 5.492200
-1.448500 6.048600
-1.424800 7.011800
-1.401200 6.976100
-1.377500 7.020000
-1.353800 7.137600
-1.330200 7.961300
-1.306500 7.918600
-1.282800 8.485400
-1.259200 9.224500
-1.235500 9.796700
-1.211900 9.856600
-1.188200 9.085800
-1.164500 9.190000
-1.140900 8.258500
-1.117200 8.318100
-1.093500 8.525700
-1.069900 8.412700
-1.046200 8.615200
-1.022500 8.699700
-0.998900 9.298600
-0.975200 9.122600
-0.951600 8.300300
-0.927900 7.694900
-0.904200 7.465000
-0.880600 7.422600
-0.856900 7.638800
-0.833200 7.714200
-0.809600 7.851800
-0.785900 7.868400
-0.762200 7.865000
-0.738600 7.938200
-0.714900 7.761200
-0.691300 7.451400
-0.667600 8.272300
-0.643900 8.454900
-0.620300 7.910800
-0.596600 8.683500
-0.572900 7.627700
-0.549300 6.713700
-0.525600 6.096200
-0.501900 5.984200
-0.478300 6.131500
-0.454600 6.889500
-0.431000 7.113900
-0.407300 7.029800
-0.383600 6.687200
-0.360000 6.751800
-0.336300 6.871400
-0.312600 7.199800
-0.289000 7.584600
-0.265300 6.710000
-0.241600 7.273800
-0.218000 7.237700
-0.194300 7.527600
-0.170700 6.703400
-0.147000 4.595600
-0.123300 5.135300
-0.099700 5.286300
-0.076000 5.575300
-0.052300 5.503500
-0.028700 5.777800
-0.005000 5.404100
0.018700 4.962000
0.042300 4.820000
0.066000 4.224800
0.089600 3.270600
0.113300 2.798100
0.137000 2.316000
0.160600 1.700800
0.184300 1.189000
0.208000 1.093500
0.231600 1.017000
0.255300 0.948300
0.279000 0.869000
0.302600 0.799800
0.326300 0.744700
0.349900 0.661000
0.373600 0.608800
0.397300 0.458600
0.420900 0.386400
0.444600 0.386500
0.468300 0.387000
0.491900 0.387700
0.515600 0.388200
0.539300 0.389500
0.562900 0.390900
0.586600 0.392200
0.610200 0.393300
0.633900 0.394300
0.657600 0.395200
0.681200 0.396200
0.704900 0.397200
0.728600 0.398200
0.752200 0.399100
0.775900 0.400000
0.799600 0.400900
0.823200 0.401200
0.846900 0.402000
0.870500 0.403500
0.894200 0.404900
0.917900 0.406100
0.941500 0.406600
0.965200 0.406500
0.988900 0.406500
1.012500 0.406500
1.036200 0.406400
1.059900 0.406200
1.083500 0.405900
1.107200 0.405500
1.130800 0.405000
1.154500 0.403400
1.178200 0.402700
1.201800 0.402500
1.225500 0.402400
1.249200 0.402200
1.272800 0.402000
1.296500 0.401800
1.320200 0.401700
1.343800 0.401500
1.367500 0.401100
1.391100 0.400600
1.414800 0.400000
1.438500 0.399400
1.462100 0.398700
1.485800 0.396800
1.509500 0.394800
1.533100 0.393800
1.556800 0.393000
1.580500 0.392500
1.604100 0.392300
1.627800 0.391900
1.651400 0.391000
1.675100 0.390000
1.698800 0.389000
1.722400 0.388100
1.746100 0.387100
1.769800 0.386100
1.793400 0.385000
1.817100 0.383800
1.840800 0.382600
1.864400 0.381200
1.888100 0.378100
1.911700 0.375800
1.935400 0.374200
1.959100 0.373100
1.982700 0.372000
2.006400 0.371000
2.030100 0.370200
2.053700 0.369600
2.077400 0.369000
2.101100 0.368500
2.124700 0.367900
2.148400 0.367400
2.172000 0.366900
2.195700 0.368200
2.219400 0.373900
2.243000 0.380500
2.266700 0.387800
2.290400 0.385000
2.314000 0.386600
2.337700 0.388400
2.361400 0.389300
2.385000 0.390400
2.408700 0.392400
2.432300 0.394600
2.456000 0.396600
2.479700 0.399000
2.503300 0.400900
2.527000 0.402700
2.550700 0.404400
2.574300 0.405900
2.598000 0.407400
2.621700 0.409000
2.645300 0.411000
2.669000 0.413000
2.692600 0.415000
2.716300 0.417000
2.740000 0.419000
2.763600 0.421000
2.787300 0.423000
2.811000 0.424800
2.834600 0.426800
2.858300 0.428800
2.882000 0.430800
2.905600 0.432800
2.929300 0.434600
2.952900 0.435800
2.976600 0.437400
3.000300 0.439600
3.023900 0.442100
3.047600 0.444700
3.071300 0.447400
3.094900 0.450300
3.118600 0.453500
3.142300 0.456700
3.165900 0.459900
3.189600 0.463200
3.213200 0.466700
3.236900 0.470300
3.260600 0.474400
3.284200 0.479300
3.307900 0.484900
3.331600 0.490900
3.355200 0.496600
3.378900 0.501800
3.402600 0.506500
3.426200 0.510600
3.449900 0.514500
3.473500 0.518100
3.497200 0.521300
3.520900 0.524200
3.544500 0.526900
3.568200 0.531200
3.591900 0.540300
3.615500 0.553500
3.639200 0.572500
3.662900 0.560500
3.686500 0.557100
3.710200 0.556900
3.733800 0.556600
3.757500 0.556300
3.781200 0.555900
3.804800 0.557500
3.828500 0.559600
3.852200 0.561700
3.875800 0.563600
3.899500 0.564800
3.923200 0.567100
3.946800 0.569800
3.970500 0.570000
3.994100 0.567500
4.017800 0.562000
4.041500 0.548000
4.065100 0.534800
4.088800 0.511400
4.112500 0.505800
4.136100 0.500900
4.159800 0.497000
4.183500 0.493900
4.207100 0.491800
4.230800 0.491100
4.254400 0.490200
4.278100 0.492200
4.301800 0.502500
4.325400 0.517500
4.349100 0.521400
4.372800 0.516700
4.396400 0.511400
4.420100 0.509400
4.443800 0.513600
4.467400 0.523800
4.491100 0.561800
4.514700 0.541800
4.538400 0.525600
4.562100 0.517000
4.585700 0.520300
4.609400 0.529500
4.633100 0.550500
4.656700 0.578100
4.680400 0.610000
4.704100 0.640800
4.727700 0.665000
4.751400 0.683200
4.775000 0.696800
4.798700 0.708600
4.822400 0.718900
4.846000 0.727900
4.869700 0.735700
4.893400 0.744800
4.917000 0.762600
4.940700 0.779700
4.964300 0.794300
4.988000 0.804800
5.011700 0.818600
5.035300 0.825400
5.059000 0.829900
5.082700 0.833200
5.106300 0.837800
5.130000 0.844700
5.153700 0.857000
5.177300 0.874100
5.201000 0.900500
5.224600 0.933700
5.248300 0.965000
5.272000 0.977400
5.295600 1.132700
5.319300 1.024800
5.343000 0.940500
5.366600 0.952600
5.390300 0.963800
5.414000 0.972900
5.437600 0.979300
5.461300 0.985000
5.484900 1.007900
5.508600 1.020000
5.532300 1.032000
5.555900 1.020000
5.579600 0.999600
5.603300 0.976300
5.626900 0.962400
5.650600 0.957200
5.674300 0.954200
5.697900 0.936500
5.721600 0.897100
5.745200 0.887600
5.768900 0.880400
5.792600 0.873600
5.816200 0.865900
5.839900 0.857700
5.863600 0.850300
5.887200 0.843300
5.910900 0.836300
5.934600 0.830100
5.958200 0.823000
5.981900 0.816200
6.005500 0.811700
6.029200 0.809700
6.052900 0.810700
6.076500 0.813700
6.100200 0.819300
6.123900 0.826700
6.147500 0.828400
6.171200 0.832900
6.194900 0.841500
6.218500 0.855700
6.242200 0.866900
6.265800 0.874400
6.289500 0.871600
6.313200 0.835200
6.336800 0.791500
6.360500 0.740700
6.384200 0.659000
6.407800 0.570700
6.431500 0.543500
6.455200 0.526100
6.478800 0.514500
6.502500 0.501100
6.526100 0.489100
6.549800 0.477800
6.573500 0.466800
6.597100 0.457700
6.620800 0.449000
6.644500 0.441000
6.668100 0.432800
6.691800 0.424000
6.715500 0.414800
6.739100 0.416300
6.762800 0.423700
6.786400 0.388600
6.810100 0.360700
6.833800 0.343500
6.857400 0.334100
6.881100 0.327700
6.904800 0.320200
6.928400 0.305500
6.952100 0.287800
6.975800 0.267500
6.999400 0.254200
7.023100 0.244300
7.046700 0.239800
7.070400 0.238600
7.094100 0.241000
7.117700 0.258500
7.141400 0.285700
7.165100 0.323300
7.188700 0.367800
7.212400 0.382300
7.236100 0.381500
7.259700 0.373900
7.283400 0.381400
7.307000 0.382900
7.330700 0.374200
7.354400 0.371800
7.378000 0.385800
7.401700 0.406800
7.425400 0.431500
7.449000 0.469600
7.472700 0.522100
7.496400 0.577000
7.520000 0.586700
7.543700 0.601400
7.567300 0.611800
7.591000 0.624500
7.614700 0.657300
7.638300 0.687100
7.662000 0.715800
7.685700 0.732000
7.709300 0.747000
7.733000 0.761100
7.756700 0.776700
7.780300 0.799500
7.804000 0.824000
7.827600 0.848500
7.851300 0.875200
7.875000 0.909900
7.898600 0.993700
7.922300 1.058800
7.946000 1.163300
7.969600 1.210500
7.993300 1.228800
8.017000 1.234600
8.040600 1.231200
8.064300 1.222800
8.087900 1.211300
8.111600 1.177000
8.135300 1.161900
8.158900 1.148200
8.182600 1.130300
8.206300 1.116200
8.229900 1.091000
8.253600 1.027800
8.277300 0.960300
8.300900 0.913700
8.324600 0.875100
8.348200 0.844800
8.371900 0.818900
8.395600 0.796300
8.419200 0.776400
8.442900 0.758000
8.466600 0.741500
8.490200 0.726900
8.513900 0.724200
8.537600 0.737900
8.561200 0.740900
8.584900 0.733800
8.608500 0.729600
8.632200 0.723200
8.655900 0.714300
8.679500 0.674700
8.703200 0.626700
8.726900 0.610700
8.750500 0.631600
8.774200 0.657500
8.797900 0.691500
8.821500 0.746200
8.845200 0.804100
8.868800 0.880700
8.892500 0.958000
8.916200 1.035800
8.939800 1.107700
8.963500 1.160000
8.987200 1.168900
9.010800 1.179100
9.034500 1.172000
9.058200 1.164900
9.081800 1.156200
9.105500 1.138300
9.129100 1.121900
9.152800 1.100500
9.176500 1.076600
9.200100 1.041000
9.223800 1.025400
9.247500 1.015500
9.271100 1.000100
9.294800 0.982700
9.318500 0.971100
9.342100 0.961600
9.365800 0.957000
9.389400 0.953400
9.413100 0.956300
9.436800 0.983200
9.460400 0.973600
9.484100 0.958700
9.507800 0.942400
9.531400 0.916900
9.555100 0.889600
9.578800 0.870200
9.602400 0.863400
9.626100 0.859800
9.649700 0.858200
9.673400 0.856400
9.697100 0.854000
9.720700 0.855100
9.744400 0.872600
9.768100 0.897300
9.791700 0.931900
9.815400 0.972100
9.839100 1.027700
9.862700 1.062300
9.886400 1.111600
9.910000 1.152800
9.933700 1.198100
9.957400 1.219000
9.981000 1.219800
10.004700 1.199000
10.028400 1.188300
10.052000 1.195100
10.075700 1.209000
10.099400 1.230100
10.123000 1.259600
10.146700 1.297900
10.170300 1.320700
10.194000 1.318500
10.217700 1.311000
10.241300 1.301200
10.265000 1.328300
10.288700 1.267600
10.312300 1.253900
10.336000 1.239800
10.359700 1.222200
10.383300 1.204000
10.407000 1.187000
10.430600 1.175900
10.454300 1.151400
10.478000 1.118100
10.501600 1.090400
10.525300 1.067500
10.549000 1.047700
10.572600 1.033700
10.596300 1.022700
10.620000 1.015400
10.643600 1.014600
10.667300 1.016800
10.690900 1.046300
10.714600 1.101800
10.738300 1.054200
10.761900 1.057100
10.785600 1.038500
10.809300 1.017500
10.832900 0.993900
10.856600 0.967600
10.880300 0.941800
10.903900 0.926300
10.927600 0.916200
10.951200 0.904900
10.974900 0.893400
10.998600 0.887000
11.022200 0.882900
11.045900 0.880800
11.069600 0.880400
11.093200 0.866700
11.116900 0.832100
11.140600 0.820800
11.164200 0.813900
11.187900 0.807400
11.211500 0.801300
11.235200 0.807800
11.258900 0.849200
11.282500 0.899600
11.306200 0.932900
11.329900 0.972700
11.353500 1.013700
11.377200 1.049000
11.400900 1.080500
11.424500 1.109300
11.448200 1.132600
11.471800 1.141400
11.495500 1.127600
11.519200 1.097800
11.542800 1.063100
11.566500 1.032100
11.590200 0.963700
11.613800 0.921800
11.637500 0.901200
11.661200 0.886200
11.684800 0.889000
11.708500 0.903900
11.732100 0.922700
11.755800 0.946900
11.779500 0.972600
11.803100 0.986500
11.826800 1.024800
11.850500 1.041300
11.874100 1.066900
11.897800 1.104500
11.921500 1.171900
11.945100 1.196200
11.968800 1.184500
11.992400 1.188400
12.016100 1.222200
12.039800 1.264700
12.063400 1.307400
12.087100 1.425000
12.110800 1.501900
12.134400 1.510700
12.158100 1.485700
12.181800 1.534500
12.205400 1.540800
12.229100 1.557200
12.252700 1.572000
12.276400 1.524900
12.300100 1.416300
12.323700 1.361500
12.347400 1.323600
12.371100 1.283300
12.394700 1.245800
12.418400 1.219700
12.442100 1.201300
12.465700 1.187900
12.489400 1.173700
12.513000 1.158000
12.536700 1.146900
12.560400 1.141800
12.584000 1.157300
12.607700 1.201900
12.631400 1.200700
12.655000 1.198900
12.678700 1.205900
12.702400 1.204700
12.726000 1.173200
12.749700 1.128900
12.773300 1.159400
12.797000 1.180900
12.820700 1.175200
12.844300 1.142100
12.868000 1.125100
12.891700 1.119000
12.915300 1.103100
12.939000 1.089400
12.962700 1.084800
12.986300 1.071700
13.010000 1.041400
13.033600 1.041600
13.057300 1.037800
13.081000 1.047200
13.104600 1.064500
13.128300 1.083000
13.152000 1.104600
13.175600 1.123500
13.199300 1.146700
13.223000 1.171000
13.246600 1.177200
13.270300 1.177900
13.293900 1.179600
13.317600 1.186400
13.341300 1.198500
13.364900 1.210500
13.388600 1.220600
13.412300 1.211000
13.435900 1.254700
13.459600 1.309400
13.483300 1.300600
13.506900 1.275900
13.530600 1.276500
13.554200 1.278000
13.577900 1.279400
13.601600 1.291700
13.625200 1.338200
13.648900 1.393700
13.672600 1.426800
13.696200 1.444100
13.719900 1.462800
13.743600 1.464100
13.767200 1.428800
13.790900 1.424000
13.814500 1.426800
13.838200 1.421500
13.861900 1.415600
13.885500 1.403800
13.909200 1.392000
13.932900 1.388100
13.956500 1.387400
13.980200 1.377800
14.003900 1.376800
14.027500 1.357000
14.051200 1.338400
14.074800 1.326400
14.098500 1.322800
14.122200 1.320500
14.145800 1.316800
14.169500 1.310100
14.193200 1.300000
14.216800 1.295400
14.240500 1.290400
14.264100 1.285400
14.287800 1.278200
14.311500 1.270900
14.335100 1.267900
14.358800 1.272000
14.382500 1.281800
14.406100 1.294500
14.429800 1.303300
14.453500 1.312300
14.477100 1.316400
14.500800 1.311600
14.524400 1.312200
14.548100 1.319400
14.571800 1.320200
14.595400 1.314100
14.619100 1.312700
14.642800 1.308400
14.666400 1.310100
14.690100 1.314200
14.713800 1.320800
14.737400 1.329800
14.761100 1.304300
14.784700 1.265200
14.808400 1.239800
14.832100 1.222900
14.855700 1.212600
14.879400 1.206000
14.903100 1.194400
14.926700 1.174900
14.950400 1.167400
14.974100 1.160700
14.997700 1.150600
15.021400 1.142200
15.045000 1.134400
15.068700 1.126800
15.092400 1.119100
15.116000 1.110900
15.139700 1.110700
15.163400 1.097100
15.187000 1.084100
15.210700 1.076300
15.234400 1.069100
15.258000 1.062500
15.281700 1.056300
15.305300 1.050400
15.329000 1.044600
15.352700 1.039000
15.376300 1.033900
15.400000 1.028900
15.423700 1.025900
15.447300 1.023100
15.471000 1.018200
15.494700 1.013300
15.518300 1.009800
15.542000 1.001800
15.565600 0.991500
15.589300 0.981200
15.613000 0.970800
15.636600 0.960900
15.660300 0.952000
15.684000 0.947300
15.707600 0.941800
15.731300 0.930400
15.755000 0.923000
15.778600 0.918200
15.802300 0.914300
15.825900 0.917200
15.849600 0.918800
15.873300 0.919800
15.896900 0.915200
15.920600 0.913300
15.944300 0.919900
15.967900 0.920400
15.991600 0.911200
16.015300 0.903500
16.038900 0.898100
16.062600 0.894100
16.086200 0.893000
16.109900 0.892100
16.133600 0.892900
16.157200 0.895200
16.180900 0.899500
16.204600 0.904600
16.228200 0.910100
16.251900 0.915500
16.275600 0.923300
16.299200 0.935200
16.322900 0.945800
16.346500 0.966700
16.370200 0.987800
16.393900 1.009800
16.417500 1.027600
16.441200 1.057200
16.464900 1.088300
16.488500 1.187400
16.512200 1.354100
16.535900 1.270300
16.559500 1.207700
16.583200 1.173800
16.606800 1.153900
16.630500 1.120600
16.654200 1.093200
16.677800 1.069100
16.701500 1.048800
16.725200 1.032500
16.748800 1.019100
16.772500 1.008900
16.796200 0.999100
16.819800 0.990600
16.843500 0.983400
16.867100 0.972400
16.890800 0.959800
16.914500 0.951000
16.938100 0.937400
16.961800 0.930000
16.985500 0.924200
17.009100 0.918500
17.032800 0.912500
17.056500 0.906200
17.080100 0.900600
17.103800 0.896800
17.127400 0.895100
17.151100 0.891900
17.174800 0.886800
17.198400 0.880200
17.222100 0.874000
17.245800 0.867100
17.269400 0.860800
17.293100 0.854800
17.316800 0.848600
17.340400 0.840400
17.364100 0.824200
17.387700 0.810400
17.411400 0.796900
17.435100 0.781500
17.458700 0.763900
17.482400 0.750700
17.506100 0.738100
17.529700 0.725800
17.553400 0.713600
17.577100 0.704300
17.600700 0.700800
17.624400 0.703300
17.648000 0.711200
17.671700 0.724000
17.695400 0.804500
17.719000 0.953600
17.742700 1.156100
17.766400 1.109400
17.790000 1.139900
17.813700 1.168100
17.837400 1.172900
17.861000 1.172900
17.884700 1.204800
17.908300 1.254800
17.932000 1.280000
17.955700 1.299900
17.979300 1.339300
18.003000 1.398700
18.026700 1.450100
18.050300 1.493500
18.074000 1.524800
18.097700 1.571300
18.121300 1.620300
18.145000 1.670500
18.168600 1.722100
18.192300 1.753100
18.216000 1.752800
18.239600 1.758200
18.263300 1.760100
18.287000 1.761500
18.310600 1.796800
18.334300 1.794400
18.358000 1.799900
18.381600 1.816000
18.405300 1.858900
18.428900 1.928800
18.452600 2.026400
18.476300 2.093300
18.499900 2.144600
18.523600 2.198100
18.547300 2.267100
18.570900 2.402100
18.594600 2.451100
18.618300 2.535900
18.641900 2.541700
18.665600 2.527700
18.689200 2.540100
18.712900 2.564300
18.736600 2.589600
18.760200 2.624100
18.783900 2.679600
18.807600 2.746300
18.831200 2.756000
18.854900 2.756200
18.878600 2.735600
18.902200 2.682300
18.925900 2.614500
18.949500 2.615400
18.973200 2.668800
18.996900 2.490100
19.020500 2.389800
19.044200 2.083600
19.067900 1.867300
19.091500 1.739800
19.115200 1.631600
19.138900 1.550600
19.162500 1.503900
19.186200 1.453700
19.209800 1.426200
19.233500 1.372600
19.257200 1.361800
19.280800 1.363500
19.304500 1.377000
19.328200 1.389700
19.351800 1.400300
19.375500 1.405300
19.399200 1.409000
19.422800 1.416000
19.446500 1.416800
19.470100 1.412900
19.493800 1.404800
19.517500 1.387400
19.541100 1.359000
19.564800 1.344500
19.588500 1.337200
19.612100 1.337800
19.635800 1.345000
19.659500 1.342600
19.683100 1.361500
19.706800 1.351800
19.730400 1.341200
19.754100 1.336100
19.777800 1.327500
19.801400 1.370500
19.825100 1.334500
19.848800 1.325700
19.872400 1.336400
19.896100 1.418700
19.919800 1.424400
19.943400 1.394300
19.967100 1.381800
19.990700 1.380600
20.014400 1.370800
20.038100 1.325800
20.061700 1.282400
20.085400 1.264900
20.109100 1.260100
20.132700 1.265800
20.156400 1.264600
20.180100 1.219600
20.203700 1.158300
20.227400 1.109400
20.251000 1.068900
20.274700 1.037400
20.298400 1.014500
20.322000 1.023100
20.345700 1.160900
20.369400 1.104600
20.393000 1.091300
20.416700 1.087000
20.440400 1.087200
20.464000 1.056000
20.487700 1.010600
20.511300 0.965000
20.535000 0.911100
20.558700 0.853400
20.582300 0.790700
20.606000 0.745300
20.629700 0.711700
20.653300 0.682000
20.677000 0.653100
20.700700 0.628900
20.724300 0.618400
20.748000 0.614400
20.771600 0.609400
20.795300 0.600800
20.819000 0.581900
20.842600 0.563300
20.866300 0.543400
20.890000 0.522800
20.913600 0.499200
20.937300 0.472100
20.961000 0.442000
20.984600 0.413300
21.008300 0.386900
21.031900 0.361700
21.055600 0.337300
21.079300 0.313200
21.102900 0.290500
21.126600 0.270300
21.150300 0.252600
21.173900 0.236500
21.197600 0.220500
21.221300 0.204800
21.244900 0.189300
21.268600 0.174600
21.292200 0.160900
21.315900 0.148900
21.339600 0.138400
21.363200 0.127800
21.386900 0.115700
21.410600 0.100700
21.434200 0.093000
21.457900 0.089600
21.481600 0.086400
21.505200 0.083200
21.528900 0.079700
21.552500 0.075700
21.576200 0.070500
21.599900 0.065400
21.623500 0.060500
21.647200 0.055900
21.670900 0.051400
21.694500 0.047100
21.718200 0.043200
21.741900 0.039500
21.765500 0.036200
21.789200 0.033200
21.812800 0.030200
21.836500 0.027400
21.860200 0.024600
21.883800 0.021900
21.907500 0.019200
21.931200 0.016600
21.954800 0.014300
21.978500 0.012200
22.002200 0.010500
22.025800 0.009100
22.049500 0.007800
22.073100 0.006500
22.096800 0.005400
22.120500 0.004400
22.144100 0.003500
22.167800 0.002700
22.191500 0.002000
22.215100 0.001400
22.238800 0.000900
22.262500 0.000500
22.286100 0.000200
22.309800 0.000100
22.333400 0.000000
22.357100 0.000000
22.380800 0.000000
22.404400 0.000000
22.428100 0.000000
22.451800 0.000000
22.475400 0.000000
22.499100 0.000000
22.522800 0.000000
22.546400 0.000000
22.570100 0.000000
22.593700 0.000000
22.617400 0.000000
22.641100 0.000000
22.664700 0.000000
22.688400 0.000000
22.712100 0.000000
22.735700 0.000000
22.759400 0.000000
22.783100 0.000000
22.806700 0.000000
22.830400 0.000000
22.854000 0.000000
22.877700 0.000000
22.901400 0.000000
22.925000 0.000000
22.948700 0.000000
22.972400 0.000000
22.996000 0.000000
23.019700 0.000000
23.043400 0.000000
23.067000 0.000000
23.090700 0.000000
23.114300 0.000000
23.138000 0.000000
23.161700 0.000000
23.185300 0.000000
23.209000 0.000000
23.232700 0.000000
23.256300 0.000000
23.280000 0.000000
23.303700 0.000000
23.327300 0.000000
23.351000 0.000000
23.374600 0.000000
23.398300 0.000000
23.422000 0.000000
23.445600 0.000000
23.469300 0.000000
23.493000 0.000000
23.516600 0.000000
23.540300 0.000000
23.564000 0.000000
23.587600 0.000000
23.611300 0.000000
23.634900 0.000000
23.658600 0.000000
23.682300 0.000000
23.705900 0.000000
23.729600 0.000000
23.753300 0.000000
23.776900 0.000000
23.800600 0.000000
23.824200 0.000000
23.847900 0.000000
23.871600 0.000000
23.895200 0.000000
23.918900 0.000000
23.942600 0.000000
23.966200 0.000000
23.989900 0.000000
24.013600 0.000000
24.037200 0.000000
24.060900 0.000000
24.084500 0.000000
24.108200 0.000000
24.131900 0.000000
24.155500 0.000000
24.179200 0.000000
24.202900 0.000000
24.226500 0.000000
24.250200 0.000000
24.273900 0.000000
24.297500 0.000000
24.321200 0.000000
24.344800 0.000000
24.368500 0.000000
24.392200 0.000000
24.415800 0.000000
24.439500 0.000000
24.463200 0.000000
24.486800 0.000000
e
