set title 'mp-1077716 - Density of States'
set xlabel 'Energy (eV)'
set ylabel 'DOS (states/eV)'
set grid
set xrange [-10:10]
set yrange [0:20.901]
set xzeroaxis lt -1
set terminal png size 800,600
set output 'mp-1077716_dos_gnuplot.png'
plot '-' using 1:2 with lines title 'DOS'
-17.616900 0.000000
-17.596000 0.000000
-17.575100 0.000000
-17.554200 0.000000
-17.533300 0.000000
-17.512400 0.000000
-17.491500 0.000000
-17.470600 0.000000
-17.449700 0.000000
-17.428800 0.000000
-17.407900 0.000000
-17.387000 0.000000
-17.366100 0.000000
-17.345200 0.000000
-17.324300 0.000000
-17.303400 0.000000
-17.282600 0.000000
-17.261700 0.000000
-17.240800 0.000000
-17.219900 0.000000
-17.199000 0.000000
-17.178100 0.000000
-17.157200 0.000000
-17.136300 0.000000
-17.115400 0.000000
-17.094500 0.000000
-17.073600 0.000000
-17.052700 0.000000
-17.031800 0.000000
-17.010900 0.000000
-16.990000 0.000000
-16.969100 0.000000
-16.948200 0.000000
-16.927300 0.000000
-16.906400 0.000000
-16.885500 0.000000
-16.864600 0.000000
-16.843700 0.000000
-16.822800 0.000000
-16.801900 0.000000
-16.781000 0.000000
-16.760100 0.000000
-16.739200 0.000000
-16.718300 0.000000
-16.697400 0.000000
-16.676500 0.000000
-16.655600 0.000000
-16.634700 0.000000
-16.613800 0.000000
-16.593000 0.000000
-16.572100 0.000000
-16.551200 0.000000
-16.530300 0.000000
-16.509400 0.000000
-16.488500 0.000000
-16.467600 0.000000
-16.446700 0.000000
-16.425800 0.000000
-16.404900 0.000000
-16.384000 0.000000
-16.363100 0.000000
-16.342200 0.000000
-16.321300 0.000000
-16.300400 0.000000
-16.279500 0.000000
-16.258600 0.000000
-16.237700 0.000000
-16.216800 0.000000
-16.195900 0.000000
-16.175000 0.000000
-16.154100 0.000000
-16.133200 0.000000
-16.112300 0.000000
-16.091400 0.000000
-16.070500 0.000000
-16.049600 0.000000
-16.028700 0.000000
-16.007800 0.000000
-15.986900 0.000000
-15.966000 0.000000
-15.945100 0.000000
-15.924300 0.000000
-15.903400 0.000000
-15.882500 0.000000
-15.861600 0.000000
-15.840700 0.000000
-15.819800 0.000000
-15.798900 0.000000
-15.778000 0.000000
-15.757100 0.000000
-15.736200 0.000000
-15.715300 0.001000
-15.694400 0.137900
-15.673500 0.244400
-15.652600 0.297100
-15.631700 0.388900
-15.610800 0.432700
-15.589900 0.473700
-15.569000 0.524700
-15.548100 0.578500
-15.527200 0.638800
-15.506300 0.678900
-15.485400 0.717400
-15.464500 0.765600
-15.443600 0.814300
-15.422700 0.868800
-15.401800 0.926700
-15.380900 0.978600
-15.360000 1.028700
-15.339100 1.078900
-15.318200 1.136600
-15.297300 1.205600
-15.276400 1.272900
-15.255500 1.345100
-15.234700 1.424500
-15.213800 1.509200
-15.192900 1.589300
-15.172000 1.701900
-15.151100 1.808000
-15.130200 1.943400
-15.109300 2.119200
-15.088400 3.354500
-15.067500 2.693900
-15.046600 2.569700
-15.025700 2.473600
-15.004800 2.478900
-14.983900 2.543400
-14.963000 2.638300
-14.942100 2.711800
-14.921200 2.888200
-14.900300 3.126200
-14.879400 3.035000
-14.858500 3.075500
-14.837600 3.083400
-14.816700 3.153700
-14.795800 3.226100
-14.774900 3.302300
-14.754000 3.395200
-14.733100 3.491600
-14.712200 3.627000
-14.691300 3.760200
-14.670400 3.938800
-14.649500 4.220600
-14.628600 4.499600
-14.607700 5.349400
-14.586800 5.412900
-14.565900 5.422900
-14.545100 5.684300
-14.524200 6.058100
-14.503300 5.980600
-14.482400 6.354100
-14.461500 7.002000
-14.440600 9.895000
-14.419700 9.583200
-14.398800 5.739500
-14.377900 4.683400
-14.357000 5.121000
-14.336100 3.418500
-14.315200 1.311200
-14.294300 0.038200
-14.273400 0.110900
-14.252500 1.508800
-14.231600 3.313900
-14.210700 6.360600
-14.189800 13.392800
-14.168900 18.489700
-14.148000 21.477100
-14.127100 16.045000
-14.106200 9.964600
-14.085300 8.722700
-14.064400 8.244900
-14.043500 8.695400
-14.022600 10.562300
-14.001700 8.629300
-13.980800 7.247600
-13.959900 6.912300
-13.939000 6.356600
-13.918100 5.941800
-13.897200 5.622800
-13.876300 5.319000
-13.855500 5.101500
-13.834600 4.874800
-13.813700 3.653600
-13.792800 2.888000
-13.771900 2.209600
-13.751000 1.648100
-13.730100 1.046700
-13.709200 0.138400
-13.688300 0.000000
-13.667400 0.000000
-13.646500 0.000000
-13.625600 0.000000
-13.604700 0.000000
-13.583800 0.000000
-13.562900 0.000000
-13.542000 0.000000
-13.521100 0.000000
-13.500200 0.000000
-13.479300 0.000000
-13.458400 0.000000
-13.437500 0.000000
-13.416600 0.000000
-13.395700 0.000000
-13.374800 0.000000
-13.353900 0.000000
-13.333000 0.000000
-13.312100 0.000000
-13.291200 0.000000
-13.270300 0.000000
-13.249400 0.000000
-13.228500 0.000000
-13.207600 0.000000
-13.186800 0.000000
-13.165900 0.000000
-13.145000 0.000000
-13.124100 0.000000
-13.103200 0.000000
-13.082300 0.000000
-13.061400 0.000000
-13.040500 0.000000
-13.019600 0.000000
-12.998700 0.000000
-12.977800 0.000000
-12.956900 0.000000
-12.936000 0.000000
-12.915100 0.000000
-12.894200 0.000000
-12.873300 0.000000
-12.852400 0.000000
-12.831500 0.000000
-12.810600 0.000000
-12.789700 0.000000
-12.768800 0.000000
-12.747900 0.000000
-12.727000 0.000000
-12.706100 0.000000
-12.685200 0.000000
-12.664300 0.000000
-12.643400 0.000000
-12.622500 0.000000
-12.601600 0.000000
-12.580700 0.000000
-12.559800 0.000000
-12.538900 0.000000
-12.518000 0.000000
-12.497200 0.000000
-12.476300 0.000000
-12.455400 0.000000
-12.434500 0.000000
-12.413600 0.000000
-12.392700 0.000000
-12.371800 0.000000
-12.350900 0.000000
-12.330000 0.000000
-12.309100 0.000000
-12.288200 0.000000
-12.267300 0.000000
-12.246400 0.000000
-12.225500 0.000000
-12.204600 0.000000
-12.183700 0.000000
-12.162800 0.000000
-12.141900 0.000000
-12.121000 0.000000
-12.100100 0.000000
-12.079200 0.000000
-12.058300 0.000000
-12.037400 0.000000
-12.016500 0.000000
-11.995600 0.000000
-11.974700 0.000000
-11.953800 0.000000
-11.932900 0.000000
-11.912000 0.000000
-11.891100 0.000000
-11.870200 0.000000
-11.849300 0.000000
-11.828400 0.000000
-11.807600 0.000000
-11.786700 0.000000
-11.765800 0.000000
-11.744900 0.000000
-11.724000 0.000000
-11.703100 0.000000
-11.682200 0.000000
-11.661300 0.000000
-11.640400 0.000000
-11.619500 0.000000
-11.598600 0.000000
-11.577700 0.000000
-11.556800 0.000000
-11.535900 0.000000
-11.515000 0.000000
-11.494100 0.000000
-11.473200 0.000000
-11.452300 0.000000
-11.431400 0.000000
-11.410500 0.000000
-11.389600 0.000000
-11.368700 0.000000
-11.347800 0.000000
-11.326900 0.000000
-11.306000 0.000000
-11.285100 0.000000
-11.264200 0.000000
-11.243300 0.000000
-11.222400 0.000000
-11.201500 0.000000
-11.180600 0.000000
-11.159700 0.000000
-11.138800 0.000000
-11.118000 0.000000
-11.097100 0.000000
-11.076200 0.000000
-11.055300 0.000000
-11.034400 0.000000
-11.013500 0.000000
-10.992600 0.000000
-10.971700 0.000000
-10.950800 0.000000
-10.929900 0.000000
-10.909000 0.000000
-10.888100 0.000000
-10.867200 0.000000
-10.846300 0.000000
-10.825400 0.000000
-10.804500 0.000000
-10.783600 0.000000
-10.762700 0.000000
-10.741800 0.000000
-10.720900 0.000000
-10.700000 0.000000
-10.679100 0.000000
-10.658200 0.000000
-10.637300 0.000000
-10.616400 0.000000
-10.595500 0.000000
-10.574600 0.000000
-10.553700 0.000000
-10.532800 0.000000
-10.511900 0.000000
-10.491000 0.000000
-10.470100 0.000000
-10.449300 0.000000
-10.428400 0.000000
-10.407500 0.000000
-10.386600 0.000000
-10.365700 0.000000
-10.344800 0.000000
-10.323900 0.000000
-10.303000 0.000000
-10.282100 0.000000
-10.261200 0.000000
-10.240300 0.000000
-10.219400 0.000000
-10.198500 0.000000
-10.177600 0.000000
-10.156700 0.000000
-10.135800 0.000000
-10.114900 0.000000
-10.094000 0.000000
-10.073100 0.000000
-10.052200 0.000000
-10.031300 0.000000
-10.010400 0.000000
-9.989500 0.000000
-9.968600 0.000000
-9.947700 0.000000
-9.926800 0.000000
-9.905900 0.000000
-9.885000 0.000000
-9.864100 0.000000
-9.843200 0.000000
-9.822300 0.000000
-9.801400 0.000000
-9.780500 0.000000
-9.759700 0.000000
-9.738800 0.000000
-9.717900 0.000000
-9.697000 0.000000
-9.676100 0.000000
-9.655200 0.000000
-9.634300 0.000000
-9.613400 0.000000
-9.592500 0.000000
-9.571600 0.000000
-9.550700 0.000000
-9.529800 0.000000
-9.508900 0.000000
-9.488000 0.000000
-9.467100 0.000000
-9.446200 0.000000
-9.425300 0.000000
-9.404400 0.000000
-9.383500 0.000000
-9.362600 0.000000
-9.341700 0.000000
-9.320800 0.000000
-9.299900 0.000000
-9.279000 0.000000
-9.258100 0.000000
-9.237200 0.000000
-9.216300 0.000000
-9.195400 0.000000
-9.174500 0.000000
-9.153600 0.000000
-9.132700 0.000000
-9.111800 0.000000
-9.090900 0.000000
-9.070100 0.000000
-9.049200 0.000000
-9.028300 0.000000
-9.007400 0.000000
-8.986500 0.000000
-8.965600 0.000000
-8.944700 0.000000
-8.923800 0.000000
-8.902900 0.000000
-8.882000 0.000000
-8.861100 0.000000
-8.840200 0.000000
-8.819300 0.000000
-8.798400 0.000000
-8.777500 0.000000
-8.756600 0.000000
-8.735700 0.000000
-8.714800 0.000000
-8.693900 0.000000
-8.673000 0.000000
-8.652100 0.000000
-8.631200 0.000000
-8.610300 0.000000
-8.589400 0.000000
-8.568500 0.000000
-8.547600 0.000000
-8.526700 0.000000
-8.505800 0.000000
-8.484900 0.000000
-8.464000 0.000000
-8.443100 0.000000
-8.422200 0.000000
-8.401400 0.000000
-8.380500 0.000000
-8.359600 0.000000
-8.338700 0.000000
-8.317800 0.000000
-8.296900 0.000000
-8.276000 0.000000
-8.255100 0.000000
-8.234200 0.000000
-8.213300 0.000000
-8.192400 0.000000
-8.171500 0.000000
-8.150600 0.000000
-8.129700 0.000000
-8.108800 0.000000
-8.087900 0.000000
-8.067000 0.000000
-8.046100 0.000000
-8.025200 0.000000
-8.004300 0.000000
-7.983400 0.000000
-7.962500 0.000000
-7.941600 0.000000
-7.920700 0.000000
-7.899800 0.000000
-7.878900 0.000000
-7.858000 0.000000
-7.837100 0.000000
-7.816200 0.000000
-7.795300 0.000000
-7.774400 0.000000
-7.753500 0.000000
-7.732600 0.000000
-7.711800 0.000000
-7.690900 0.000000
-7.670000 0.000000
-7.649100 0.000000
-7.628200 0.000000
-7.607300 0.000000
-7.586400 0.000000
-7.565500 0.000000
-7.544600 0.000000
-7.523700 0.000000
-7.502800 0.000000
-7.481900 0.000000
-7.461000 0.000000
-7.440100 0.000000
-7.419200 0.000000
-7.398300 0.000000
-7.377400 0.000000
-7.356500 0.000000
-7.335600 0.000000
-7.314700 0.000000
-7.293800 0.000000
-7.272900 0.000000
-7.252000 0.000000
-7.231100 0.000000
-7.210200 0.000000
-7.189300 0.000000
-7.168400 0.000000
-7.147500 0.000000
-7.126600 0.000000
-7.105700 0.000000
-7.084800 0.000000
-7.063900 0.000000
-7.043000 0.000000
-7.022200 0.000000
-7.001300 0.000000
-6.980400 0.000000
-6.959500 0.000000
-6.938600 0.000000
-6.917700 0.000000
-6.896800 0.000000
-6.875900 0.000000
-6.855000 0.000000
-6.834100 0.000000
-6.813200 0.000000
-6.792300 0.000000
-6.771400 0.000000
-6.750500 0.000000
-6.729600 0.000000
-6.708700 0.000000
-6.687800 0.000000
-6.666900 0.000000
-6.646000 0.000000
-6.625100 0.000000
-6.604200 0.000000
-6.583300 0.000000
-6.562400 0.000000
-6.541500 0.000000
-6.520600 0.000000
-6.499700 0.000000
-6.478800 0.000000
-6.457900 0.000000
-6.437000 0.000000
-6.416100 0.000000
-6.395200 0.000000
-6.374300 0.000000
-6.353400 0.000000
-6.332600 0.000000
-6.311700 0.000000
-6.290800 0.000000
-6.269900 0.000000
-6.249000 0.000000
-6.228100 0.000000
-6.207200 0.000000
-6.186300 0.000000
-6.165400 0.000000
-6.144500 0.000000
-6.123600 0.000000
-6.102700 0.000000
-6.081800 0.000000
-6.060900 0.000000
-6.040000 0.000000
-6.019100 0.000000
-5.998200 0.000000
-5.977300 0.000000
-5.956400 0.000000
-5.935500 0.000000
-5.914600 0.000000
-5.893700 0.000000
-5.872800 0.000000
-5.851900 0.000000
-5.831000 0.000000
-5.810100 0.000000
-5.789200 0.000000
-5.768300 0.000000
-5.747400 0.000000
-5.726500 0.000000
-5.705600 0.000000
-5.684700 0.000000
-5.663900 0.000000
-5.643000 0.000000
-5.622100 0.000000
-5.601200 0.000000
-5.580300 0.000000
-5.559400 0.000000
-5.538500 0.000000
-5.517600 0.000000
-5.496700 0.000000
-5.475800 0.000000
-5.454900 0.000000
-5.434000 0.000000
-5.413100 0.000000
-5.392200 0.000000
-5.371300 0.000000
-5.350400 0.000000
-5.329500 0.000000
-5.308600 0.000000
-5.287700 0.000000
-5.266800 0.000000
-5.245900 0.000000
-5.225000 0.000000
-5.204100 0.000000
-5.183200 0.000000
-5.162300 0.000000
-5.141400 0.000000
-5.120500 0.000000
-5.099600 0.000000
-5.078700 0.000000
-5.057800 0.000000
-5.036900 0.000000
-5.016000 0.000000
-4.995100 0.000000
-4.974300 0.000000
-4.953400 0.000000
-4.932500 0.000000
-4.911600 0.000000
-4.890700 0.000000
-4.869800 0.000000
-4.848900 0.000000
-4.828000 0.000000
-4.807100 0.000000
-4.786200 0.000000
-4.765300 0.000000
-4.744400 0.000000
-4.723500 0.000000
-4.702600 0.000000
-4.681700 0.000000
-4.660800 0.000000
-4.639900 0.000000
-4.619000 0.000000
-4.598100 0.004000
-4.577200 0.033000
-4.556300 0.084000
-4.535400 0.159400
-4.514500 0.194700
-4.493600 0.703600
-4.472700 1.254500
-4.451800 1.382100
-4.430900 1.202000
-4.410000 1.295900
-4.389100 1.391500
-4.368200 1.415900
-4.347300 1.405000
-4.326400 1.446800
-4.305500 1.440500
-4.284700 1.464100
-4.263800 1.488500
-4.242900 1.488800
-4.222000 1.479900
-4.201100 1.497000
-4.180200 1.520000
-4.159300 1.544000
-4.138400 1.569100
-4.117500 1.593100
-4.096600 1.599600
-4.075700 1.611100
-4.054800 1.619700
-4.033900 1.624100
-4.013000 1.636100
-3.992100 1.653500
-3.971200 1.672800
-3.950300 1.693000
-3.929400 1.714400
-3.908500 1.739800
-3.887600 1.766800
-3.866700 1.794400
-3.845800 1.820100
-3.824900 1.836600
-3.804000 1.856100
-3.783100 1.879800
-3.762200 1.904400
-3.741300 1.933200
-3.720400 1.964900
-3.699500 1.995300
-3.678600 2.028600
-3.657700 2.064700
-3.636800 2.103700
-3.615900 2.147000
-3.595100 2.192200
-3.574200 2.237900
-3.553300 2.293700
-3.532400 2.372700
-3.511500 2.454100
-3.490600 2.537100
-3.469700 2.627300
-3.448800 2.725300
-3.427900 2.837100
-3.407000 2.990300
-3.386100 3.696300
-3.365200 5.379300
-3.344300 5.416200
-3.323400 6.416400
-3.302500 6.807200
-3.281600 7.559800
-3.260700 6.141900
-3.239800 4.504300
-3.218900 4.331600
-3.198000 4.453000
-3.177100 4.441300
-3.156200 4.840200
-3.135300 4.789100
-3.114400 4.948700
-3.093500 4.594300
-3.072600 6.087700
-3.051700 6.244300
-3.030800 6.635700
-3.009900 7.948900
-2.989000 7.402600
-2.968100 6.933000
-2.947200 7.699600
-2.926400 13.600300
-2.905500 19.000500
-2.884600 10.339500
-2.863700 10.474000
-2.842800 9.118500
-2.821900 7.952200
-2.801000 8.028500
-2.780100 7.192100
-2.759200 7.410100
-2.738300 7.655200
-2.717400 6.936200
-2.696500 6.432100
-2.675600 5.606600
-2.654700 5.120800
-2.633800 4.967900
-2.612900 4.250200
-2.592000 3.665400
-2.571100 3.282600
-2.550200 2.979100
-2.529300 2.699300
-2.508400 2.412200
-2.487500 2.359200
-2.466600 2.372100
-2.445700 2.287400
-2.424800 2.102900
-2.403900 1.668900
-2.383000 1.330500
-2.362100 1.274800
-2.341200 1.354400
-2.320300 1.523700
-2.299400 1.604200
-2.278500 1.732700
-2.257600 1.778900
-2.236800 1.960500
-2.215900 2.268700
-2.195000 2.517600
-2.174100 2.622000
-2.153200 2.682400
-2.132300 2.609800
-2.111400 2.665200
-2.090500 2.787800
-2.069600 2.947800
-2.048700 3.143300
-2.027800 3.291600
-2.006900 3.463200
-1.986000 3.419000
-1.965100 3.312800
-1.944200 3.237400
-1.923300 3.200800
-1.902400 3.145900
-1.881500 2.987800
-1.860600 2.812700
-1.839700 2.726900
-1.818800 2.718700
-1.797900 2.647900
-1.777000 2.649300
-1.756100 2.690500
-1.735200 2.774200
-1.714300 2.901100
-1.693400 3.082200
-1.672500 3.500500
-1.651600 3.725400
-1.630700 3.833900
-1.609800 3.951300
-1.588900 3.990600
-1.568000 3.972200
-1.547200 3.657200
-1.526300 3.440200
-1.505400 3.345600
-1.484500 3.272200
-1.463600 3.309600
-1.442700 3.354200
-1.421800 3.387200
-1.400900 3.348700
-1.380000 3.299800
-1.359100 3.232600
-1.338200 3.150200
-1.317300 3.085200
-1.296400 3.062200
-1.275500 3.088400
-1.254600 3.031900
-1.233700 3.071200
-1.212800 3.093900
-1.191900 3.169200
-1.171000 3.205600
-1.150100 3.250500
-1.129200 3.292700
-1.108300 3.371900
-1.087400 3.445900
-1.066500 3.535200
-1.045600 3.537400
-1.024700 3.490300
-1.003800 3.455300
-0.982900 3.435000
-0.962000 3.416600
-0.941100 3.431000
-0.920200 3.493500
-0.899300 3.705900
-0.878400 4.255800
-0.857600 5.092700
-0.836700 4.743200
-0.815800 6.415100
-0.794900 6.688600
-0.774000 6.227200
-0.753100 5.817600
-0.732200 5.675700
-0.711300 5.707400
-0.690400 5.664900
-0.669500 5.683500
-0.648600 5.634900
-0.627700 5.618700
-0.606800 5.389700
-0.585900 5.380800
-0.565000 5.376400
-0.544100 5.642000
-0.523200 5.805800
-0.502300 5.906500
-0.481400 5.824000
-0.460500 6.054600
-0.439600 6.464600
-0.418700 6.753000
-0.397800 6.330500
-0.376900 5.980300
-0.356000 5.510200
-0.335100 5.185400
-0.314200 4.782000
-0.293300 4.637400
-0.272400 4.733900
-0.251500 4.956400
-0.230600 5.263500
-0.209700 5.574400
-0.188900 5.647200
-0.168000 5.953700
-0.147100 6.117600
-0.126200 6.389200
-0.105300 6.026700
-0.084400 5.550700
-0.063500 5.190000
-0.042600 5.315200
-0.021700 5.019900
-0.000800 4.876400
0.020100 4.886700
0.041000 4.839800
0.061900 4.900600
0.082800 4.885800
0.103700 5.025100
0.124600 5.087700
0.145500 5.095800
0.166400 5.068700
0.187300 5.055600
0.208200 5.203100
0.229100 5.153400
0.250000 4.989700
0.270900 4.798300
0.291800 4.512900
0.312700 4.504700
0.333600 4.324300
0.354500 4.296100
0.375400 3.915700
0.396300 3.775400
0.417200 3.604300
0.438100 3.280000
0.459000 3.511600
0.479900 3.922100
0.500700 4.098300
0.521600 4.621700
0.542500 4.225000
0.563400 3.925500
0.584300 3.881300
0.605200 3.936700
0.626100 3.844200
0.647000 3.607200
0.667900 3.341700
0.688800 3.255900
0.709700 3.086700
0.730600 3.004900
0.751500 2.976000
0.772400 2.986900
0.793300 3.169800
0.814200 3.508100
0.835100 3.316600
0.856000 3.098500
0.876900 2.963900
0.897800 2.982900
0.918700 3.095500
0.939600 3.196200
0.960500 3.258700
0.981400 3.487900
1.002300 3.747300
1.023200 3.936600
1.044100 3.830200
1.065000 4.217200
1.085900 4.181100
1.106800 4.044200
1.127700 3.919800
1.148600 3.992900
1.169500 3.923400
1.190300 3.987200
1.211200 4.032600
1.232100 3.965400
1.253000 4.041700
1.273900 4.198000
1.294800 4.442500
1.315700 5.216000
1.336600 5.552200
1.357500 5.497800
1.378400 4.969400
1.399300 4.114200
1.420200 4.042400
1.441100 4.126900
1.462000 4.480300
1.482900 5.232300
1.503800 5.964300
1.524700 5.974600
1.545600 7.038900
1.566500 5.189400
1.587400 4.667900
1.608300 4.637900
1.629200 4.900600
1.650100 5.459600
1.671000 5.595300
1.691900 6.022700
1.712800 5.826300
1.733700 5.623900
1.754600 5.628300
1.775500 5.451000
1.796400 5.245200
1.817300 5.016000
1.838200 4.722700
1.859100 4.531000
1.879900 4.352000
1.900800 4.174700
1.921700 4.174500
1.942600 4.189700
1.963500 4.190000
1.984400 4.186300
2.005300 4.213800
2.026200 3.879500
2.047100 3.935100
2.068000 4.370400
2.088900 5.101100
2.109800 5.802600
2.130700 6.385900
2.151600 6.091400
2.172500 5.970500
2.193400 6.053200
2.214300 5.950500
2.235200 5.874900
2.256100 5.865400
2.277000 5.895800
2.297900 5.957800
2.318800 5.970100
2.339700 5.994100
2.360600 6.055900
2.381500 6.136000
2.402400 6.338000
2.423300 6.609800
2.444200 6.819300
2.465100 6.892800
2.486000 6.874500
2.506900 7.004200
2.527800 6.858300
2.548600 7.034600
2.569500 6.832300
2.590400 6.462300
2.611300 6.737000
2.632200 6.060700
2.653100 5.086700
2.674000 4.371700
2.694900 4.023900
2.715800 4.025300
2.736700 4.320400
2.757600 4.631700
2.778500 4.385200
2.799400 3.988200
2.820300 3.640400
2.841200 3.469900
2.862100 3.543700
2.883000 3.925800
2.903900 3.731000
2.924800 3.673200
2.945700 2.916100
2.966600 2.638200
2.987500 2.335700
3.008400 2.200600
3.029300 2.115900
3.050200 2.064500
3.071100 2.065100
3.092000 2.072200
3.112900 1.976400
3.133800 1.950400
3.154700 1.918000
3.175600 1.898000
3.196500 1.884600
3.217400 1.856900
3.238200 1.832300
3.259100 1.788800
3.280000 1.765800
3.300900 1.715300
3.321800 1.540200
3.342700 1.494100
3.363600 1.500300
3.384500 1.460500
3.405400 1.436400
3.426300 1.427800
3.447200 1.480300
3.468100 1.559800
3.489000 1.556800
3.509900 1.710600
3.530800 1.858700
3.551700 1.930500
3.572600 1.942300
3.593500 1.994600
3.614400 2.165600
3.635300 2.276400
3.656200 2.360400
3.677100 2.449700
3.698000 2.578800
3.718900 2.759300
3.739800 3.056400
3.760700 3.648400
3.781600 4.356300
3.802500 4.746100
3.823400 4.482200
3.844300 4.039800
3.865200 3.880000
3.886100 4.062500
3.907000 3.977500
3.927800 3.943200
3.948700 3.962600
3.969600 3.945000
3.990500 3.915800
4.011400 3.864400
4.032300 3.880900
4.053200 3.908900
4.074100 3.960600
4.095000 4.029700
4.115900 4.151300
4.136800 4.399900
4.157700 5.241300
4.178600 5.174100
4.199500 5.654400
4.220400 6.045300
4.241300 6.304900
4.262200 6.334400
4.283100 6.333000
4.304000 6.359300
4.324900 4.856500
4.345800 3.342500
4.366700 2.606500
4.387600 2.127200
4.408500 1.654000
4.429400 1.653900
4.450300 3.035100
4.471200 3.375900
4.492100 3.868500
4.513000 4.087000
4.533900 3.960400
4.554800 2.965300
4.575700 1.991200
4.596600 1.696400
4.617400 1.374300
4.638300 1.159000
4.659200 1.108200
4.680100 1.091500
4.701000 1.180100
4.721900 1.442600
4.742800 1.759900
4.763700 1.768600
4.784600 1.606800
4.805500 1.525000
4.826400 1.493600
4.847300 1.416100
4.868200 1.347400
4.889100 1.345300
4.910000 1.356500
4.930900 1.369600
4.951800 1.384200
4.972700 1.401400
4.993600 1.420200
5.014500 1.436300
5.035400 1.448000
5.056300 1.463700
5.077200 1.483900
5.098100 1.508700
5.119000 1.535300
5.139900 1.564700
5.160800 1.596400
5.181700 1.630300
5.202600 1.665300
5.223500 1.701600
5.244400 1.740300
5.265300 1.782700
5.286100 1.833000
5.307000 1.915400
5.327900 2.005900
5.348800 2.104700
5.369700 2.195900
5.390600 2.373100
5.411500 2.445100
5.432400 2.458600
5.453300 2.464700
5.474200 2.392600
5.495100 2.348900
5.516000 2.267800
5.536900 2.177900
5.557800 2.048400
5.578700 2.020400
5.599600 1.979800
5.620500 1.924100
5.641400 1.913500
5.662300 1.929500
5.683200 2.043400
5.704100 2.059400
5.725000 2.006300
5.745900 1.896800
5.766800 1.881500
5.787700 1.887800
5.808600 1.899600
5.829500 1.893500
5.850400 1.909300
5.871300 1.929600
5.892200 1.953400
5.913100 1.993900
5.934000 2.067700
5.954900 2.028500
5.975700 2.005800
5.996600 2.043000
6.017500 2.074800
6.038400 2.044500
6.059300 2.074500
6.080200 2.019200
6.101100 1.982800
6.122000 1.962800
6.142900 1.940200
6.163800 2.029100
6.184700 2.068400
6.205600 2.053800
6.226500 2.085800
6.247400 1.905400
6.268300 1.763300
6.289200 1.645800
6.310100 1.586400
6.331000 1.549300
6.351900 1.541500
6.372800 1.585400
6.393700 1.635300
6.414600 1.677800
6.435500 1.732700
6.456400 1.790700
6.477300 1.855600
6.498200 1.929800
6.519100 2.036500
6.540000 2.136300
6.560900 2.260900
6.581800 2.468800
6.602700 2.694800
6.623600 2.690600
6.644500 2.665200
6.665300 2.640900
6.686200 2.623900
6.707100 2.642800
6.728000 2.691600
6.748900 2.491800
6.769800 2.538800
6.790700 2.605300
6.811600 2.649100
6.832500 2.685200
6.853400 2.700600
6.874300 2.771200
6.895200 3.070800
6.916100 2.952700
6.937000 3.115500
6.957900 3.222500
6.978800 3.326600
6.999700 3.438000
7.020600 3.742100
7.041500 3.599000
7.062400 3.398800
7.083300 3.343100
7.104200 3.325500
7.125100 3.434200
7.146000 3.579500
7.166900 3.785900
7.187800 3.724200
7.208700 3.517600
7.229600 3.349100
7.250500 3.274500
7.271400 3.212000
7.292300 3.162000
7.313200 3.108400
7.334100 3.089000
7.354900 3.078600
7.375800 3.086200
7.396700 3.274600
7.417600 3.176700
7.438500 2.921600
7.459400 2.465700
7.480300 2.016400
7.501200 1.998000
7.522100 2.033200
7.543000 2.083800
7.563900 2.155600
7.584800 2.235300
7.605700 2.346700
7.626600 2.470100
7.647500 2.641200
7.668400 2.912300
7.689300 3.304000
7.710200 3.737900
7.731100 3.918000
7.752000 3.669700
7.772900 3.302500
7.793800 2.860000
7.814700 2.273300
7.835600 1.622400
7.856500 1.277800
7.877400 0.835600
7.898300 0.799700
7.919200 0.759500
7.940100 0.694700
7.961000 0.648400
7.981900 0.617600
8.002800 0.584100
8.023600 0.552600
8.044500 0.523700
8.065400 0.496300
8.086300 0.476100
8.107200 0.465500
8.128100 0.460100
8.149000 0.433700
8.169900 0.403600
8.190800 0.382400
8.211700 0.369000
8.232600 0.356900
8.253500 0.345400
8.274400 0.333900
8.295300 0.321700
8.316200 0.351500
8.337100 0.398900
8.358000 0.381900
8.378900 0.370200
8.399800 0.376100
8.420700 0.355300
8.441600 0.327700
8.462500 0.076100
8.483400 0.000100
8.504300 0.000000
8.525200 0.000000
8.546100 0.000000
8.567000 0.000000
8.587900 0.000000
8.608800 0.000000
8.629700 0.000000
8.650600 0.004200
8.671500 0.149400
8.692400 0.207400
8.713200 0.104400
8.734100 0.106900
8.755000 0.110900
8.775900 0.113900
8.796800 0.115900
8.817700 0.116900
8.838600 0.115800
8.859500 0.111900
8.880400 0.107000
8.901300 0.104000
8.922200 0.103200
8.943100 0.104500
8.964000 0.106600
8.984900 0.108700
9.005800 0.110700
9.026700 0.112800
9.047600 0.114900
9.068500 0.117000
9.089400 0.119100
9.110300 0.121200
9.131200 0.123400
9.152100 0.125800
9.173000 0.128400
9.193900 0.131200
9.214800 0.134100
9.235700 0.136800
9.256600 0.139100
9.277500 0.141100
9.298400 0.142800
9.319300 0.144600
9.340200 0.146600
9.361100 0.148700
9.382000 0.150900
9.402800 0.153200
9.423700 0.155500
9.444600 0.157800
9.465500 0.160100
9.486400 0.162400
9.507300 0.164600
9.528200 0.167000
9.549100 0.169500
9.570000 0.172200
9.590900 0.174900
9.611800 0.177900
9.632700 0.180700
9.653600 0.183600
9.674500 0.186500
9.695400 0.189500
9.716300 0.192500
9.737200 0.195500
9.758100 0.198500
9.779000 0.201500
9.799900 0.204400
9.820800 0.207100
9.841700 0.209700
9.862600 0.212200
9.883500 0.214800
9.904400 0.217500
9.925300 0.220200
9.946200 0.223000
9.967100 0.225900
9.988000 0.228900
10.008900 0.232000
10.029800 0.235000
10.050700 0.238200
10.071600 0.241400
10.092400 0.244700
10.113300 0.247900
10.134200 0.251200
10.155100 0.254600
10.176000 0.257900
10.196900 0.261300
10.217800 0.264700
10.238700 0.268100
10.259600 0.271500
10.280500 0.275000
10.301400 0.278400
10.322300 0.281900
10.343200 0.285300
10.364100 0.288800
10.385000 0.292300
10.405900 0.296100
10.426800 0.300000
10.447700 0.303900
10.468600 0.307700
10.489500 0.311500
10.510400 0.315300
10.531300 0.319200
10.552200 0.323300
10.573100 0.327400
10.594000 0.331600
10.614900 0.335800
10.635800 0.339900
10.656700 0.344200
10.677600 0.348400
10.698500 0.352600
10.719400 0.356800
10.740300 0.361100
10.761100 0.365300
10.782000 0.369600
10.802900 0.373800
10.823800 0.378100
10.844700 0.382500
10.865600 0.387100
10.886500 0.391800
10.907400 0.396800
10.928300 0.401700
10.949200 0.406700
10.970100 0.411700
10.991000 0.420900
11.011900 0.445100
11.032800 0.468200
11.053700 0.490000
11.074600 0.492900
11.095500 0.487800
11.116400 0.482900
11.137300 0.482500
11.158200 0.487200
11.179100 0.491700
11.200000 0.496000
11.220900 0.500100
11.241800 0.504000
11.262700 0.506400
11.283600 0.504800
11.304500 0.503100
11.325400 0.504600
11.346300 0.507200
11.367200 0.509800
11.388100 0.512100
11.409000 0.514400
11.429900 0.516600
11.450700 0.518800
11.471600 0.521400
11.492500 0.524300
11.513400 0.527800
11.534300 0.531100
11.555200 0.533100
11.576100 0.534200
11.597000 0.562700
11.617900 0.594100
11.638800 0.625200
11.659700 0.630100
11.680600 0.628800
11.701500 0.628300
11.722400 0.638800
11.743300 0.652000
11.764200 0.663800
11.785100 0.676200
11.806000 0.687700
11.826900 0.696800
11.847800 0.702300
11.868700 0.710500
11.889600 0.720300
11.910500 0.730500
11.931400 0.740800
11.952300 0.751500
11.973200 0.762800
11.994100 0.774100
12.015000 0.785800
12.035900 0.798500
12.056800 0.809700
12.077700 0.820900
12.098600 0.832300
12.119500 0.842700
12.140300 0.854000
12.161200 0.866500
12.182100 0.879200
12.203000 0.895000
12.223900 0.910700
12.244800 0.927300
12.265700 0.943700
12.286600 0.961600
12.307500 0.978100
12.328400 0.995100
12.349300 1.013000
12.370200 1.031100
12.391100 1.050000
12.412000 1.072400
12.432900 1.094700
12.453800 1.117400
12.474700 1.139400
12.495600 1.161400
12.516500 1.183900
12.537400 1.206800
12.558300 1.232000
12.579200 1.332100
12.600100 1.325600
12.621000 1.397600
12.641900 1.446300
12.662800 1.521900
12.683700 1.576500
12.704600 1.620400
12.725500 1.663900
12.746400 1.706100
12.767300 1.697400
12.788200 1.646300
12.809000 1.611200
12.829900 1.586700
12.850800 1.606600
12.871700 1.619400
12.892600 1.619600
12.913500 1.619500
12.934400 1.657400
12.955300 1.705200
12.976200 1.679500
12.997100 1.691100
13.018000 1.705000
13.038900 1.713500
13.059800 1.727200
13.080700 1.744200
13.101600 1.770500
13.122500 1.796700
13.143400 1.792000
13.164300 1.793100
13.185200 1.836100
13.206100 1.949900
13.227000 2.035900
13.247900 2.219000
13.268800 2.066500
13.289700 1.831800
13.310600 1.765800
13.331500 1.712100
13.352400 1.666400
13.373300 1.653000
13.394200 1.668400
13.415100 1.674900
13.436000 1.743400
13.456900 1.925000
13.477800 2.015100
13.498600 2.086200
13.519500 2.053900
13.540400 1.992300
13.561300 1.974600
13.582200 1.984600
13.603100 1.999100
13.624000 2.012200
13.644900 2.027400
13.665800 2.037100
13.686700 2.050500
13.707600 2.074400
13.728500 2.119100
13.749400 2.133400
13.770300 2.171000
13.791200 2.181900
13.812100 2.277000
13.833000 2.466100
13.853900 2.374000
13.874800 2.375300
13.895700 2.384400
13.916600 2.375800
13.937500 2.320900
13.958400 2.308200
13.979300 2.288300
14.000200 2.304600
14.021100 2.147800
14.042000 2.033300
14.062900 1.918200
14.083800 1.817900
14.104700 1.767500
14.125600 1.733900
14.146500 1.717300
14.167400 1.726600
14.188200 1.723000
14.209100 1.880300
14.230000 1.859700
14.250900 2.239700
14.271800 2.151300
14.292700 2.667300
14.313600 2.672100
14.334500 2.784500
14.355400 2.964700
14.376300 2.630600
14.397200 2.605400
14.418100 2.619300
14.439000 2.632900
14.459900 2.603500
14.480800 2.634800
14.501700 2.611100
14.522600 2.578600
14.543500 2.585400
14.564400 2.668300
14.585300 2.741600
14.606200 2.719800
14.627100 2.730600
14.648000 2.770700
14.668900 2.811700
14.689800 2.865800
14.710700 2.934100
14.731600 3.011600
14.752500 3.139800
14.773400 3.257000
14.794300 3.412900
14.815200 3.613500
14.836100 3.850600
14.857000 4.464000
14.877800 5.165400
14.898700 4.263600
14.919600 3.781000
14.940500 3.877300
14.961400 3.650300
14.982300 3.595500
15.003200 3.439300
15.024100 2.829300
15.045000 2.453300
15.065900 2.361300
15.086800 1.887800
15.107700 1.782800
15.128600 1.684100
15.149500 1.571400
15.170400 1.467200
15.191300 1.402200
15.212200 1.315200
15.233100 1.274800
15.254000 1.205400
15.274900 1.173300
15.295800 1.135100
15.316700 1.016300
15.337600 0.941000
15.358500 0.886700
15.379400 0.848100
15.400300 0.808000
15.421200 0.770600
15.442100 0.829500
15.463000 0.669600
15.483900 0.603100
15.504800 0.566900
15.525700 0.558900
15.546500 0.570900
15.567400 0.600700
15.588300 0.618500
15.609200 0.633500
15.630100 0.650300
15.651000 0.666600
15.671900 0.678400
15.692800 0.670200
15.713700 0.680600
15.734600 0.693200
15.755500 0.741000
15.776400 0.749700
15.797300 0.725700
15.818200 0.708400
15.839100 0.710600
15.860000 0.718300
15.880900 0.723300
15.901800 0.730100
15.922700 0.756100
15.943600 0.771000
15.964500 0.785900
15.985400 0.910800
16.006300 0.995100
16.027200 0.999400
16.048100 0.949300
16.069000 0.915800
16.089900 0.910600
16.110800 0.909200
16.131700 0.906800
16.152600 0.879400
16.173500 0.832300
16.194400 0.941500
16.215300 1.099300
16.236100 1.157200
16.257000 1.234500
16.277900 1.229500
16.298800 1.228400
16.319700 1.260100
16.340600 1.259700
16.361500 1.253700
16.382400 1.294000
16.403300 1.310700
16.424200 1.334600
16.445100 1.359000
16.466000 1.384900
16.486900 1.364500
16.507800 1.394400
16.528700 1.419900
16.549600 1.457900
16.570500 1.473600
16.591400 1.480200
16.612300 1.474500
16.633200 1.492300
16.654100 1.506600
16.675000 1.517300
16.695900 1.536200
16.716800 1.552700
16.737700 1.569200
16.758600 1.553900
16.779500 1.540500
16.800400 1.533700
16.821300 1.531600
16.842200 1.533200
16.863100 1.535100
16.884000 1.539700
16.904900 1.544100
16.925700 1.541100
16.946600 1.548700
16.967500 1.562700
16.988400 1.578000
17.009300 1.591300
17.030200 1.608000
17.051100 1.626800
17.072000 1.648200
17.092900 1.671100
17.113800 1.694600
17.134700 1.718800
17.155600 1.751700
17.176500 1.794300
17.197400 1.831900
17.218300 1.896800
17.239200 1.959200
17.260100 2.045700
17.281000 2.144300
17.301900 2.260600
17.322800 2.441600
17.343700 2.587900
17.364600 2.876300
17.385500 3.487500
17.406400 3.741900
17.427300 3.187600
17.448200 3.192400
17.469100 3.512200
17.490000 3.891100
17.510900 3.599200
17.531800 3.562600
17.552700 3.067200
17.573600 2.799900
17.594500 2.752900
17.615300 2.852500
17.636200 2.845900
17.657100 2.233700
17.678000 2.323000
17.698900 2.507100
17.719800 3.985200
17.740700 3.604900
17.761600 3.590300
17.782500 3.489300
17.803400 3.503900
17.824300 3.581300
17.845200 3.784800
17.866100 3.144000
17.887000 3.017400
17.907900 2.882600
17.928800 2.774900
17.949700 2.542100
17.970600 2.291200
17.991500 2.162400
18.012400 2.020800
18.033300 1.635300
18.054200 1.257500
18.075100 1.030900
18.096000 1.129600
18.116900 1.182500
18.137800 1.237800
18.158700 1.338700
18.179600 1.411100
18.200500 1.433400
18.221400 1.446500
18.242300 1.457900
18.263200 1.490600
18.284000 1.545900
18.304900 1.610500
18.325800 1.667300
18.346700 1.759200
18.367600 1.839900
18.388500 2.037100
18.409400 2.408200
18.430300 2.721400
18.451200 2.972200
18.472100 2.968100
18.493000 2.963100
18.513900 3.081000
18.534800 3.283300
18.555700 3.806200
18.576600 3.879400
18.597500 4.126400
18.618400 4.083400
18.639300 4.057100
18.660200 4.376600
18.681100 4.247500
18.702000 4.040700
18.722900 3.670500
18.743800 3.185500
18.764700 2.804300
18.785600 2.581500
18.806500 2.381400
18.827400 2.219600
18.848300 2.206700
18.869200 2.148500
18.890100 2.152100
18.911000 2.237300
18.931900 2.777100
18.952800 3.223600
18.973600 3.301200
18.994500 3.061100
19.015400 2.924000
19.036300 2.810800
19.057200 2.535100
19.078100 2.495100
19.099000 2.500700
19.119900 2.505900
19.140800 2.656700
19.161700 2.953100
19.182600 3.202600
19.203500 3.140700
19.224400 3.131800
19.245300 3.099600
19.266200 3.108900
19.287100 3.059700
19.308000 2.935700
19.328900 2.915000
19.349800 2.838000
19.370700 2.722000
19.391600 2.846000
19.412500 2.740800
19.433400 2.730000
19.454300 2.699800
19.475200 2.752100
19.496100 2.650100
19.517000 2.700400
19.537900 2.674900
19.558800 2.687600
19.579700 2.705300
19.600600 2.711400
19.621500 2.714600
19.642400 2.836700
19.663200 2.877100
19.684100 2.804700
19.705000 2.796700
19.725900 2.848700
19.746800 2.901200
19.767700 2.814100
19.788600 2.816500
19.809500 2.801600
19.830400 2.781000
19.851300 2.749100
19.872200 2.715900
19.893100 2.693100
19.914000 2.676700
19.934900 2.664600
19.955800 2.669400
19.976700 2.712100
19.997600 2.756500
20.018500 2.731100
20.039400 2.687400
20.060300 2.637700
20.081200 2.576100
20.102100 2.511800
20.123000 2.495000
20.143900 2.465200
20.164800 2.374700
20.185700 2.307200
20.206600 2.240200
20.227500 2.171200
20.248400 2.107700
20.269300 2.048500
20.290200 1.991700
20.311100 1.933300
20.332000 1.870600
20.352800 1.813600
20.373700 1.768300
20.394600 1.736900
20.415500 1.714100
20.436400 1.702500
20.457300 1.695400
20.478200 1.696900
20.499100 1.682100
20.520000 1.660200
20.540900 1.615000
20.561800 1.555900
20.582700 1.541900
20.603600 1.534500
20.624500 1.523700
20.645400 1.460300
20.666300 1.415900
20.687200 1.383800
20.708100 1.353200
20.729000 1.324400
20.749900 1.300100
20.770800 1.277100
20.791700 1.253400
20.812600 1.231400
20.833500 1.216100
20.854400 1.201100
20.875300 1.187000
20.896200 1.174900
20.917100 1.163600
20.938000 1.157800
20.958900 1.147700
20.979800 1.135000
21.000700 1.122700
21.021500 1.108700
21.042400 1.095900
21.063300 1.083600
21.084200 1.071500
21.105100 1.063200
21.126000 1.054400
21.146900 1.040700
21.167800 1.026400
21.188700 1.015400
21.209600 1.003000
21.230500 0.994100
21.251400 0.984500
21.272300 0.975900
21.293200 0.967200
21.314100 0.960400
21.335000 0.952800
21.355900 0.941900
21.376800 0.925400
21.397700 0.910200
21.418600 0.898200
21.439500 0.885100
21.460400 0.882600
21.481300 0.861200
21.502200 0.837200
21.523100 0.812300
21.544000 0.788900
21.564900 0.772200
21.585800 0.748800
21.606700 0.726100
21.627600 0.686900
21.648500 0.649400
21.669400 0.626500
21.690300 0.600200
21.711100 0.576800
21.732000 0.561100
21.752900 0.548300
21.773800 0.531400
21.794700 0.516300
21.815600 0.515700
21.836500 0.494400
21.857400 0.489400
21.878300 0.476500
21.899200 0.478200
21.920100 0.456900
21.941000 0.423900
21.961900 0.368300
21.982800 0.290900
22.003700 0.232500
22.024600 0.204500
22.045500 0.180200
22.066400 0.159200
22.087300 0.137900
22.108200 0.116200
22.129100 0.094000
22.150000 0.071600
22.170900 0.051300
22.191800 0.032100
22.212700 0.018200
22.233600 0.008300
22.254500 0.002300
22.275400 0.000000
22.296300 0.000000
22.317200 0.000000
22.338100 0.000000
22.359000 0.000000
22.379900 0.000000
22.400700 0.000000
22.421600 0.000000
22.442500 0.000000
22.463400 0.000000
22.484300 0.000000
22.505200 0.000000
22.526100 0.000000
22.547000 0.000000
22.567900 0.000000
22.588800 0.000000
22.609700 0.000000
22.630600 0.000000
22.651500 0.000000
22.672400 0.000000
22.693300 0.000000
22.714200 0.000000
22.735100 0.000000
22.756000 0.000000
22.776900 0.000000
22.797800 0.000000
22.818700 0.000000
22.839600 0.000000
22.860500 0.000000
22.881400 0.000000
22.902300 0.000000
22.923200 0.000000
22.944100 0.000000
22.965000 0.000000
22.985900 0.000000
23.006800 0.000000
23.027700 0.000000
23.048600 0.000000
23.069500 0.000000
23.090300 0.000000
23.111200 0.000000
23.132100 0.000000
23.153000 0.000000
23.173900 0.000000
23.194800 0.000000
23.215700 0.000000
23.236600 0.000000
23.257500 0.000000
23.278400 0.000000
23.299300 0.000000
23.320200 0.000000
23.341100 0.000000
23.362000 0.000000
23.382900 0.000000
23.403800 0.000000
23.424700 0.000000
23.445600 0.000000
23.466500 0.000000
23.487400 0.000000
23.508300 0.000000
23.529200 0.000000
23.550100 0.000000
23.571000 0.000000
23.591900 0.000000
23.612800 0.000000
23.633700 0.000000
23.654600 0.000000
23.675500 0.000000
23.696400 0.000000
23.717300 0.000000
23.738200 0.000000
23.759000 0.000000
23.779900 0.000000
23.800800 0.000000
23.821700 0.000000
23.842600 0.000000
23.863500 0.000000
23.884400 0.000000
23.905300 0.000000
23.926200 0.000000
23.947100 0.000000
23.968000 0.000000
23.988900 0.000000
24.009800 0.000000
24.030700 0.000000
24.051600 0.000000
24.072500 0.000000
24.093400 0.000000
24.114300 0.000000
24.135200 0.000000
24.156100 0.000000
24.177000 0.000000
e
