set title 'mp-1059552 - Density of States'
set xlabel 'Energy (eV)'
set ylabel 'DOS (states/eV)'
set grid
set xrange [-10:10]
set yrange [0:4.010]
set xzeroaxis lt -1
set terminal png size 800,600
set output 'mp-1059552_dos_gnuplot.png'
plot '-' using 1:2 with lines title 'DOS'
-39.643500 0.000000
-39.601200 0.000000
-39.559000 0.000000
-39.516700 0.000000
-39.474500 0.000000
-39.432200 0.000000
-39.389900 0.000000
-39.347700 0.000000
-39.305400 0.000000
-39.263200 0.000000
-39.220900 0.000000
-39.178700 0.000000
-39.136400 0.000000
-39.094200 0.000000
-39.051900 0.000000
-39.009700 0.000000
-38.967400 0.000000
-38.925200 0.000000
-38.882900 0.000000
-38.840700 0.000000
-38.798400 0.000000
-38.756200 0.000000
-38.713900 0.000000
-38.671700 0.000000
-38.629400 0.000000
-38.587200 0.000000
-38.544900 0.000000
-38.502700 0.000000
-38.460400 0.000000
-38.418200 0.000000
-38.375900 0.000000
-38.333700 0.000000
-38.291400 0.000000
-38.249100 0.000000
-38.206900 0.000000
-38.164600 0.000000
-38.122400 0.000000
-38.080100 0.000000
-38.037900 0.000000
-37.995600 0.000000
-37.953400 0.000000
-37.911100 0.000000
-37.868900 0.000000
-37.826600 0.000000
-37.784400 0.000000
-37.742100 0.000000
-37.699900 0.000000
-37.657600 0.000000
-37.615400 0.000000
-37.573100 0.000000
-37.530900 0.000000
-37.488600 0.000000
-37.446400 0.000000
-37.404100 0.000000
-37.361900 0.000000
-37.319600 0.000000
-37.277400 0.000000
-37.235100 0.000000
-37.192800 0.000000
-37.150600 0.000000
-37.108300 0.000000
-37.066100 0.000000
-37.023800 0.000000
-36.981600 0.000000
-36.939300 0.000000
-36.897100 0.000000
-36.854800 0.000000
-36.812600 0.000000
-36.770300 0.000000
-36.728100 0.000000
-36.685800 0.000000
-36.643600 0.000000
-36.601300 0.000000
-36.559100 0.000000
-36.516800 0.000000
-36.474600 0.000000
-36.432300 0.000000
-36.390100 0.000000
-36.347800 0.000000
-36.305600 0.000000
-36.263300 0.000000
-36.221100 0.000000
-36.178800 0.000000
-36.136600 0.000000
-36.094300 0.000000
-36.052000 0.000000
-36.009800 0.000000
-35.967500 0.000000
-35.925300 0.000000
-35.883000 0.000000
-35.840800 0.000000
-35.798500 26.746500
-35.756300 26.585500
-35.714000 0.000000
-35.671800 0.000000
-35.629500 0.000000
-35.587300 0.000000
-35.545000 0.000000
-35.502800 0.000000
-35.460500 0.000000
-35.418300 0.000000
-35.376000 0.000000
-35.333800 0.000000
-35.291500 0.000000
-35.249300 0.000000
-35.207000 0.000000
-35.164800 0.000000
-35.122500 0.000000
-35.080300 0.000000
-35.038000 0.000000
-34.995800 0.000000
-34.953500 0.000000
-34.911200 0.000000
-34.869000 0.000000
-34.826700 0.000000
-34.784500 0.000000
-34.742200 0.000000
-34.700000 0.000000
-34.657700 0.000000
-34.615500 0.000000
-34.573200 0.000000
-34.531000 0.000000
-34.488700 0.000000
-34.446500 0.000000
-34.404200 0.000000
-34.362000 0.000000
-34.319700 0.000000
-34.277500 0.000000
-34.235200 0.000000
-34.193000 0.000000
-34.150700 0.000000
-34.108500 0.000000
-34.066200 0.000000
-34.024000 0.000000
-33.981700 0.000000
-33.939500 0.000000
-33.897200 0.000000
-33.854900 0.000000
-33.812700 0.000000
-33.770400 0.000000
-33.728200 0.000000
-33.685900 0.000000
-33.643700 0.000000
-33.601400 0.000000
-33.559200 0.000000
-33.516900 0.000000
-33.474700 0.000000
-33.432400 0.000000
-33.390200 0.000000
-33.347900 0.000000
-33.305700 0.000000
-33.263400 0.000000
-33.221200 0.000000
-33.178900 0.000000
-33.136700 0.000000
-33.094400 0.000000
-33.052200 0.000000
-33.009900 0.000000
-32.967700 0.000000
-32.925400 0.000000
-32.883200 0.000000
-32.840900 0.000000
-32.798700 0.000000
-32.756400 0.000000
-32.714100 0.000000
-32.671900 0.000000
-32.629600 0.000000
-32.587400 0.000000
-32.545100 0.000000
-32.502900 0.000000
-32.460600 0.000000
-32.418400 0.000000
-32.376100 0.000000
-32.333900 0.000000
-32.291600 0.000000
-32.249400 0.000000
-32.207100 0.000000
-32.164900 0.000000
-32.122600 0.000000
-32.080400 0.000000
-32.038100 0.000000
-31.995900 0.000000
-31.953600 0.000000
-31.911400 0.000000
-31.869100 0.000000
-31.826900 0.000000
-31.784600 0.000000
-31.742400 0.000000
-31.700100 0.000000
-31.657800 0.000000
-31.615600 0.000000
-31.573300 0.000000
-31.531100 0.000000
-31.488800 0.000000
-31.446600 0.000000
-31.404300 0.000000
-31.362100 0.000000
-31.319800 0.000000
-31.277600 0.000000
-31.235300 0.000000
-31.193100 0.000000
-31.150800 0.000000
-31.108600 0.000000
-31.066300 0.000000
-31.024100 0.000000
-30.981800 0.000000
-30.939600 0.000000
-30.897300 0.000000
-30.855100 0.000000
-30.812800 0.000000
-30.770600 0.000000
-30.728300 0.000000
-30.686100 0.000000
-30.643800 0.000000
-30.601600 0.000000
-30.559300 0.000000
-30.517000 0.000000
-30.474800 0.000000
-30.432500 0.000000
-30.390300 0.000000
-30.348000 0.000000
-30.305800 0.000000
-30.263500 0.000000
-30.221300 0.000000
-30.179000 0.000000
-30.136800 0.000000
-30.094500 0.000000
-30.052300 0.000000
-30.010000 0.000000
-29.967800 0.000000
-29.925500 0.000000
-29.883300 0.000000
-29.841000 0.000000
-29.798800 0.000000
-29.756500 0.000000
-29.714300 0.000000
-29.672000 0.000000
-29.629800 0.000000
-29.587500 0.000000
-29.545300 0.000000
-29.503000 0.000000
-29.460700 0.000000
-29.418500 0.000000
-29.376200 0.000000
-29.334000 0.000000
-29.291700 0.000000
-29.249500 0.000000
-29.207200 0.000000
-29.165000 0.000000
-29.122700 0.000000
-29.080500 0.000000
-29.038200 0.000000
-28.996000 0.000000
-28.953700 0.000000
-28.911500 0.000000
-28.869200 0.000000
-28.827000 0.000000
-28.784700 0.000000
-28.742500 0.000000
-28.700200 0.000000
-28.658000 0.000000
-28.615700 0.000000
-28.573500 0.000000
-28.531200 0.000000
-28.489000 0.000000
-28.446700 0.000000
-28.404500 0.000000
-28.362200 0.000000
-28.319900 0.000000
-28.277700 0.000000
-28.235400 0.000000
-28.193200 0.000000
-28.150900 0.000000
-28.108700 0.000000
-28.066400 0.000000
-28.024200 0.000000
-27.981900 0.000000
-27.939700 0.000000
-27.897400 0.000000
-27.855200 0.000000
-27.812900 0.000000
-27.770700 0.000000
-27.728400 0.000000
-27.686200 0.000000
-27.643900 0.000000
-27.601700 0.000000
-27.559400 0.000000
-27.517200 0.000000
-27.474900 0.000000
-27.432700 0.000000
-27.390400 0.000000
-27.348200 0.000000
-27.305900 0.000000
-27.263600 0.000000
-27.221400 0.000000
-27.179100 0.000000
-27.136900 0.000000
-27.094600 0.000000
-27.052400 0.000000
-27.010100 0.000000
-26.967900 0.000000
-26.925600 0.000000
-26.883400 0.000000
-26.841100 0.000000
-26.798900 0.000000
-26.756600 0.000000
-26.714400 0.000000
-26.672100 0.000000
-26.629900 0.000000
-26.587600 0.000000
-26.545400 0.000000
-26.503100 0.000000
-26.460900 0.000000
-26.418600 0.000000
-26.376400 0.000000
-26.334100 0.000000
-26.291900 0.000000
-26.249600 0.000000
-26.207400 0.000000
-26.165100 0.000000
-26.122800 0.000000
-26.080600 0.000000
-26.038300 0.000000
-25.996100 0.000000
-25.953800 0.000000
-25.911600 0.000000
-25.869300 0.000000
-25.827100 0.000000
-25.784800 0.000000
-25.742600 0.000000
-25.700300 0.000000
-25.658100 0.000000
-25.615800 0.000000
-25.573600 0.000000
-25.531300 0.000000
-25.489100 0.000000
-25.446800 0.000000
-25.404600 0.000000
-25.362300 0.000000
-25.320100 0.000000
-25.277800 0.000000
-25.235600 0.000000
-25.193300 0.000000
-25.151100 0.000000
-25.108800 0.000000
-25.066500 0.000000
-25.024300 0.000000
-24.982000 0.000000
-24.939800 0.000000
-24.897500 0.000000
-24.855300 0.000000
-24.813000 0.000000
-24.770800 0.000000
-24.728500 0.000000
-24.686300 0.000000
-24.644000 0.000000
-24.601800 0.000000
-24.559500 0.000000
-24.517300 0.000000
-24.475000 0.000000
-24.432800 0.000000
-24.390500 0.000000
-24.348300 0.000000
-24.306000 0.000000
-24.263800 0.000000
-24.221500 0.000000
-24.179300 0.000000
-24.137000 0.000000
-24.094800 0.000000
-24.052500 0.000000
-24.010300 0.000000
-23.968000 0.000000
-23.925700 0.000000
-23.883500 0.000000
-23.841200 0.000000
-23.799000 0.000000
-23.756700 0.000000
-23.714500 0.000000
-23.672200 0.000000
-23.630000 0.000000
-23.587700 0.000000
-23.545500 0.000000
-23.503200 0.000000
-23.461000 0.000000
-23.418700 0.000000
-23.376500 0.000000
-23.334200 0.000000
-23.292000 0.000000
-23.249700 0.000000
-23.207500 0.000000
-23.165200 0.000000
-23.123000 0.000000
-23.080700 0.000000
-23.038500 0.000000
-22.996200 0.000000
-22.954000 0.000000
-22.911700 0.000000
-22.869500 0.000000
-22.827200 0.000000
-22.784900 0.000000
-22.742700 0.000000
-22.700400 0.000000
-22.658200 0.000000
-22.615900 0.000000
-22.573700 0.000000
-22.531400 0.000000
-22.489200 0.000000
-22.446900 0.000000
-22.404700 0.000000
-22.362400 0.000000
-22.320200 0.000000
-22.277900 0.000000
-22.235700 0.000000
-22.193400 0.000000
-22.151200 0.000000
-22.108900 0.000000
-22.066700 0.000000
-22.024400 0.000000
-21.982200 0.000000
-21.939900 0.000000
-21.897700 0.000000
-21.855400 0.000000
-21.813200 0.000000
-21.770900 0.000000
-21.728600 0.000000
-21.686400 0.000000
-21.644100 0.000000
-21.601900 0.000000
-21.559600 0.000000
-21.517400 0.000000
-21.475100 0.000000
-21.432900 0.000000
-21.390600 0.000000
-21.348400 0.000000
-21.306100 0.000000
-21.263900 0.000000
-21.221600 0.000000
-21.179400 0.000000
-21.137100 0.000000
-21.094900 0.000000
-21.052600 0.000000
-21.010400 0.000000
-20.968100 0.000000
-20.925900 0.000000
-20.883600 0.000000
-20.841400 0.000000
-20.799100 0.000000
-20.756900 0.000000
-20.714600 0.000000
-20.672400 0.000000
-20.630100 0.000000
-20.587800 0.000000
-20.545600 0.000000
-20.503300 0.000000
-20.461100 0.000000
-20.418800 0.000000
-20.376600 0.000000
-20.334300 0.000000
-20.292100 0.000000
-20.249800 0.000000
-20.207600 0.000000
-20.165300 0.000000
-20.123100 0.000000
-20.080800 0.000000
-20.038600 0.000000
-19.996300 0.000000
-19.954100 0.000000
-19.911800 0.000000
-19.869600 0.000000
-19.827300 0.000000
-19.785100 0.000000
-19.742800 0.000000
-19.700600 0.000000
-19.658300 0.000000
-19.616100 0.000000
-19.573800 0.000000
-19.531500 0.000000
-19.489300 0.000000
-19.447000 0.000000
-19.404800 0.000000
-19.362500 0.000000
-19.320300 0.000000
-19.278000 0.000000
-19.235800 0.000000
-19.193500 0.000000
-19.151300 0.000000
-19.109000 0.000000
-19.066800 0.000000
-19.024500 0.000000
-18.982300 0.000000
-18.940000 0.000000
-18.897800 0.000000
-18.855500 0.000000
-18.813300 0.000000
-18.771000 0.000000
-18.728800 0.000000
-18.686500 0.000000
-18.644300 0.000000
-18.602000 0.000000
-18.559800 0.000000
-18.517500 0.000000
-18.475300 0.000000
-18.433000 0.000000
-18.390700 0.000000
-18.348500 0.000000
-18.306200 0.000000
-18.264000 0.000000
-18.221700 0.000000
-18.179500 0.000000
-18.137200 0.000000
-18.095000 0.000000
-18.052700 0.000000
-18.010500 0.000000
-17.968200 0.000000
-17.926000 0.000000
-17.883700 0.000000
-17.841500 0.000000
-17.799200 0.000000
-17.757000 0.000000
-17.714700 0.000000
-17.672500 0.000000
-17.630200 0.000000
-17.588000 0.000000
-17.545700 0.000000
-17.503500 0.000000
-17.461200 0.000000
-17.419000 0.000000
-17.376700 0.000000
-17.334400 0.000000
-17.292200 0.000000
-17.249900 0.000000
-17.207700 0.000000
-17.165400 0.000000
-17.123200 0.000000
-17.080900 0.000000
-17.038700 0.000000
-16.996400 0.000000
-16.954200 0.000000
-16.911900 0.000000
-16.869700 0.000000
-16.827400 0.000000
-16.785200 0.000000
-16.742900 0.000000
-16.700700 0.000000
-16.658400 0.000000
-16.616200 0.000000
-16.573900 0.000000
-16.531700 0.000000
-16.489400 0.000000
-16.447200 0.000000
-16.404900 0.000000
-16.362700 0.000000
-16.320400 0.000000
-16.278200 0.000000
-16.235900 0.000000
-16.193600 0.000000
-16.151400 0.000000
-16.109100 0.000000
-16.066900 0.000000
-16.024600 0.000000
-15.982400 0.000000
-15.940100 0.000000
-15.897900 0.000000
-15.855600 0.000000
-15.813400 0.000000
-15.771100 0.000000
-15.728900 0.000000
-15.686600 0.000000
-15.644400 0.000000
-15.602100 2.682000
-15.559900 5.584900
-15.517600 12.081700
-15.475400 18.002000
-15.433100 20.705800
-15.390900 26.915500
-15.348600 19.322600
-15.306400 15.113800
-15.264100 1.809300
-15.221900 1.809400
-15.179600 1.813200
-15.137300 1.917000
-15.095100 1.917100
-15.052800 1.917300
-15.010600 2.542400
-14.968300 2.694400
-14.926100 2.694700
-14.883800 7.432100
-14.841600 0.000000
-14.799300 0.000000
-14.757100 0.000000
-14.714800 0.000000
-14.672600 0.000000
-14.630300 0.000000
-14.588100 0.000000
-14.545800 0.000000
-14.503600 0.000000
-14.461300 0.000000
-14.419100 0.000000
-14.376800 0.000000
-14.334600 0.000000
-14.292300 0.000000
-14.250100 0.000000
-14.207800 0.000000
-14.165600 0.000000
-14.123300 0.000000
-14.081100 0.000000
-14.038800 0.000000
-13.996500 0.000000
-13.954300 0.000000
-13.912000 0.000000
-13.869800 0.000000
-13.827500 0.000000
-13.785300 0.000000
-13.743000 0.000000
-13.700800 0.000000
-13.658500 0.000000
-13.616300 0.000000
-13.574000 0.000000
-13.531800 0.000000
-13.489500 0.000000
-13.447300 0.000000
-13.405000 0.000000
-13.362800 0.000000
-13.320500 0.000000
-13.278300 0.000000
-13.236000 0.000000
-13.193800 0.000000
-13.151500 0.000000
-13.109300 0.000000
-13.067000 0.000000
-13.024800 0.000000
-12.982500 0.000000
-12.940200 0.000000
-12.898000 0.000000
-12.855700 0.000000
-12.813500 0.000000
-12.771200 0.000000
-12.729000 0.000000
-12.686700 0.000000
-12.644500 0.000000
-12.602200 0.000000
-12.560000 0.000000
-12.517700 0.000000
-12.475500 0.000000
-12.433200 0.000000
-12.391000 0.000000
-12.348700 0.000000
-12.306500 0.000000
-12.264200 0.000000
-12.222000 0.000000
-12.179700 0.000000
-12.137500 0.000000
-12.095200 0.000000
-12.053000 0.000000
-12.010700 0.000000
-11.968500 0.000000
-11.926200 0.000000
-11.884000 0.000000
-11.841700 0.000000
-11.799400 0.000000
-11.757200 0.000000
-11.714900 0.000000
-11.672700 0.000000
-11.630400 0.000000
-11.588200 0.000000
-11.545900 0.000000
-11.503700 0.000000
-11.461400 0.000000
-11.419200 0.000000
-11.376900 0.000000
-11.334700 0.000000
-11.292400 0.000000
-11.250200 0.000000
-11.207900 0.000000
-11.165700 0.000000
-11.123400 0.000000
-11.081200 0.000000
-11.038900 0.000000
-10.996700 0.000000
-10.954400 0.000000
-10.912200 0.000000
-10.869900 0.000000
-10.827700 0.000000
-10.785400 0.000000
-10.743200 0.000000
-10.700900 0.000000
-10.658600 0.000000
-10.616400 0.000000
-10.574100 0.000000
-10.531900 0.000000
-10.489600 0.000000
-10.447400 0.000000
-10.405100 0.000000
-10.362900 0.000000
-10.320600 0.000000
-10.278400 0.000000
-10.236100 0.000000
-10.193900 0.000000
-10.151600 0.000000
-10.109400 0.000000
-10.067100 0.000000
-10.024900 0.000000
-9.982600 0.000000
-9.940400 0.000000
-9.898100 0.000000
-9.855900 0.000000
-9.813600 0.000000
-9.771400 0.000000
-9.729100 0.000000
-9.686900 0.000000
-9.644600 0.000000
-9.602300 0.000000
-9.560100 0.000000
-9.517800 0.000000
-9.475600 0.000000
-9.433300 0.000000
-9.391100 0.000000
-9.348800 0.000000
-9.306600 0.000000
-9.264300 0.000000
-9.222100 0.000000
-9.179800 0.000000
-9.137600 0.000000
-9.095300 0.000000
-9.053100 0.000000
-9.010800 0.000000
-8.968600 0.000000
-8.926300 0.000000
-8.884100 0.000000
-8.841800 0.000000
-8.799600 0.000000
-8.757300 0.000000
-8.715100 0.000000
-8.672800 0.000000
-8.630600 0.000000
-8.588300 0.000000
-8.546100 0.000000
-8.503800 0.000000
-8.461500 0.000000
-8.419300 0.000000
-8.377000 0.000000
-8.334800 0.000000
-8.292500 0.000000
-8.250300 0.000000
-8.208000 0.000000
-8.165800 0.000000
-8.123500 0.000000
-8.081300 0.000000
-8.039000 0.000000
-7.996800 0.000000
-7.954500 0.000000
-7.912300 0.000000
-7.870000 0.000000
-7.827800 0.000000
-7.785500 0.000000
-7.743300 0.000000
-7.701000 0.000000
-7.658800 0.000000
-7.616500 0.000000
-7.574300 0.000000
-7.532000 0.000000
-7.489800 0.000000
-7.447500 0.000000
-7.405200 0.000000
-7.363000 0.000000
-7.320700 0.000000
-7.278500 0.000000
-7.236200 0.000000
-7.194000 0.000000
-7.151700 0.000000
-7.109500 0.000000
-7.067200 0.000000
-7.025000 0.000000
-6.982700 0.000000
-6.940500 0.000000
-6.898200 0.000000
-6.856000 0.000000
-6.813700 0.000000
-6.771500 0.000000
-6.729200 0.000000
-6.687000 0.000000
-6.644700 0.000000
-6.602500 0.000000
-6.560200 0.000000
-6.518000 0.000000
-6.475700 0.000000
-6.433500 0.000000
-6.391200 0.000000
-6.349000 0.000000
-6.306700 0.003300
-6.264400 0.071100
-6.222200 0.161800
-6.179900 0.183500
-6.137700 0.226300
-6.095400 0.281900
-6.053200 0.322600
-6.010900 0.358000
-5.968700 0.398900
-5.926400 0.442600
-5.884200 0.495100
-5.841900 0.556300
-5.799700 0.620900
-5.757400 0.697800
-5.715200 0.781700
-5.672900 0.868300
-5.630700 1.045100
-5.588400 1.299600
-5.546200 1.750700
-5.503900 2.819900
-5.461700 1.614600
-5.419400 1.534000
-5.377200 1.429100
-5.334900 1.232500
-5.292700 1.162600
-5.250400 1.138800
-5.208100 1.107800
-5.165900 1.062200
-5.123600 1.030300
-5.081400 1.001800
-5.039100 0.985900
-4.996900 0.980700
-4.954600 0.981900
-4.912400 0.988600
-4.870100 0.998100
-4.827900 1.009900
-4.785600 1.025000
-4.743400 1.051100
-4.701100 1.087900
-4.658900 1.113500
-4.616600 1.310400
-4.574400 1.575000
-4.532100 1.995100
-4.489900 1.542500
-4.447600 1.000300
-4.405400 0.788300
-4.363100 0.629500
-4.320900 0.520400
-4.278600 0.436600
-4.236400 0.365500
-4.194100 0.301700
-4.151900 0.248300
-4.109600 0.211600
-4.067300 0.169300
-4.025100 0.112500
-3.982800 0.058200
-3.940600 0.000000
-3.898300 0.000000
-3.856100 0.000000
-3.813800 0.000000
-3.771600 0.000000
-3.729300 0.000000
-3.687100 0.000000
-3.644800 0.000000
-3.602600 0.000000
-3.560300 0.000000
-3.518100 0.000000
-3.475800 0.000000
-3.433600 0.000000
-3.391300 0.000000
-3.349100 0.000000
-3.306800 0.000000
-3.264600 0.000000
-3.222300 0.000000
-3.180100 0.000000
-3.137800 0.000000
-3.095600 0.000000
-3.053300 0.000000
-3.011000 0.000000
-2.968800 0.000000
-2.926500 0.000000
-2.884300 0.000000
-2.842000 0.000000
-2.799800 0.000000
-2.757500 0.000000
-2.715300 0.000000
-2.673000 0.000000
-2.630800 0.000000
-2.588500 0.000000
-2.546300 0.000000
-2.504000 0.000000
-2.461800 0.000000
-2.419500 0.000000
-2.377300 0.000000
-2.335000 0.000000
-2.292800 0.000000
-2.250500 0.000000
-2.208300 0.000000
-2.166000 0.000000
-2.123800 0.000000
-2.081500 0.000000
-2.039300 0.000000
-1.997000 0.000000
-1.954800 0.000000
-1.912500 0.000000
-1.870200 0.000000
-1.828000 0.000000
-1.785700 0.000000
-1.743500 0.000000
-1.701200 0.000000
-1.659000 0.000000
-1.616700 0.000000
-1.574500 0.000000
-1.532200 0.000000
-1.490000 0.000000
-1.447700 0.000000
-1.405500 0.000000
-1.363200 0.000000
-1.321000 0.000000
-1.278700 0.000000
-1.236500 0.000000
-1.194200 0.000000
-1.152000 0.000000
-1.109700 0.000000
-1.067500 0.000000
-1.025200 0.000000
-0.983000 0.000000
-0.940700 0.000000
-0.898500 0.000000
-0.856200 0.000000
-0.813900 0.000000
-0.771700 0.000000
-0.729400 0.000000
-0.687200 0.000000
-0.644900 0.000000
-0.602700 0.000000
-0.560400 0.000000
-0.518200 0.000000
-0.475900 0.000000
-0.433700 0.000000
-0.391400 0.000000
-0.349200 0.000000
-0.306900 0.000000
-0.264700 0.000000
-0.222400 0.000000
-0.180200 0.000000
-0.137900 0.000000
-0.095700 0.000000
-0.053400 0.000000
-0.011200 0.000000
0.031100 0.000000
0.073300 0.000000
0.115600 0.000000
0.157800 0.000000
0.200100 0.000000
0.242300 0.000000
0.284600 0.000000
0.326900 0.000000
0.369100 0.000000
0.411400 0.000000
0.453600 0.000000
0.495900 0.000000
0.538100 0.000000
0.580400 0.004500
0.622600 0.017400
0.664900 0.034300
0.707100 0.064700
0.749400 0.130300
0.791600 0.201400
0.833900 0.224100
0.876100 0.237700
0.918400 0.265400
0.960600 0.297700
1.002900 0.332000
1.045100 0.366900
1.087400 0.395800
1.129600 0.417200
1.171900 0.443500
1.214100 0.471300
1.256400 0.501600
1.298600 0.532400
1.340900 0.562800
1.383100 0.593800
1.425400 0.663300
1.467700 0.744100
1.509900 0.847300
1.552200 0.970000
1.594400 1.080200
1.636700 1.168000
1.678900 1.209700
1.721200 1.248600
1.763400 1.281000
1.805700 1.292400
1.847900 1.319600
1.890200 1.353000
1.932400 1.393800
1.974700 1.426500
2.016900 1.431500
2.059200 1.451800
2.101400 1.601300
2.143700 1.684700
2.185900 1.989500
2.228200 2.315400
2.270400 2.558000
2.312700 2.233800
2.354900 2.130500
2.397200 1.818300
2.439400 1.504900
2.481700 1.362200
2.524000 1.346000
2.566200 1.414900
2.608500 1.463600
2.650700 1.532300
2.693000 1.364900
2.735200 1.389200
2.777500 1.419000
2.819700 1.438900
2.862000 1.445000
2.904200 1.608900
2.946500 1.394600
2.988700 1.374200
3.031000 1.379900
3.073200 1.389600
3.115500 1.402500
3.157700 1.419000
3.200000 1.432300
3.242200 1.441500
3.284500 1.490300
3.326700 1.511000
3.369000 1.516000
3.411200 1.524700
3.453500 1.517200
3.495700 1.424200
3.538000 1.381600
3.580200 1.391300
3.622500 1.445400
3.664800 1.478100
3.707000 1.462300
3.749300 1.418500
3.791500 1.397700
3.833800 1.377700
3.876000 1.358300
3.918300 1.353500
3.960500 1.310900
4.002800 1.284000
4.045000 1.289800
4.087300 1.277300
4.129500 1.203200
4.171800 1.151400
4.214000 1.112400
4.256300 1.089900
4.298500 0.999100
4.340800 0.940700
4.383000 0.995200
4.425300 1.054500
4.467500 1.145200
4.509800 1.298500
4.552000 1.478600
4.594300 1.587600
4.636500 1.628300
4.678800 1.576600
4.721100 1.427300
4.763300 1.369500
4.805600 1.192000
4.847800 1.269400
4.890100 1.397800
4.932300 1.357900
4.974600 1.377200
5.016800 1.430100
5.059100 1.533100
5.101300 1.952500
5.143600 2.230900
5.185800 2.257700
5.228100 1.955600
5.270300 1.551000
5.312600 1.181700
5.354800 1.024600
5.397100 0.875900
5.439300 0.731900
5.481600 0.615200
5.523800 0.600700
5.566100 0.593200
5.608300 0.584500
5.650600 0.544700
5.692800 0.596100
5.735100 0.734600
5.777300 0.895100
5.819600 1.033100
5.861900 1.232600
5.904100 1.603000
5.946400 1.949600
5.988600 2.017500
6.030900 1.998600
6.073100 2.202200
6.115400 2.317300
6.157600 2.187500
6.199900 2.126100
6.242100 2.111400
6.284400 1.924000
6.326600 1.663700
6.368900 1.488400
6.411100 1.377800
6.453400 1.291100
6.495600 1.173500
6.537900 1.087900
6.580100 1.126200
6.622400 1.223500
6.664600 1.324100
6.706900 1.435000
6.749100 1.543400
6.791400 1.693400
6.833600 1.750100
6.875900 1.883300
6.918200 1.916200
6.960400 2.079400
7.002700 2.384300
7.044900 2.734900
7.087200 3.007900
7.129400 3.645400
7.171700 3.389500
7.213900 3.146300
7.256200 2.864300
7.298400 2.738500
7.340700 2.676400
7.382900 3.063400
7.425200 2.818500
7.467400 2.611200
7.509700 2.535800
7.551900 2.422200
7.594200 2.377300
7.636400 2.368000
7.678700 2.435400
7.720900 2.431400
7.763200 2.339400
7.805400 2.238300
7.847700 2.159500
7.889900 2.104900
7.932200 2.096300
7.974400 2.124700
8.016700 2.111000
8.059000 2.097300
8.101200 2.101000
8.143500 2.149500
8.185700 2.076500
8.228000 2.159100
8.270200 2.141800
8.312500 2.056100
8.354700 2.221900
8.397000 1.922300
8.439200 1.924700
8.481500 1.728800
8.523700 1.550200
8.566000 1.417700
8.608200 1.312600
8.650500 1.256800
8.692700 1.283500
8.735000 1.323400
8.777200 1.435700
8.819500 1.760900
8.861700 1.974300
8.904000 2.224100
8.946200 2.401100
8.988500 2.586000
9.030700 2.734600
9.073000 2.688100
9.115300 2.632600
9.157500 2.563800
9.199800 2.354300
9.242000 2.247800
9.284300 2.364300
9.326500 2.499500
9.368800 2.277700
9.411000 2.290500
9.453300 2.321500
9.495500 2.061900
9.537800 1.977200
9.580000 1.869300
9.622300 1.798600
9.664500 1.767300
9.706800 1.746200
9.749000 1.785200
9.791300 1.846500
9.833500 1.791600
9.875800 1.774800
9.918000 1.716400
9.960300 1.575100
10.002500 1.539100
10.044800 1.485000
10.087000 1.443300
10.129300 1.511400
10.171500 1.387000
10.213800 1.407400
10.256100 1.391100
10.298300 1.390600
10.340600 1.377200
10.382800 1.343300
10.425100 1.316300
10.467300 1.302200
10.509600 1.318000
10.551800 1.300800
10.594100 1.293700
10.636300 1.305200
10.678600 1.351600
10.720800 1.412300
10.763100 1.538600
10.805300 1.628800
10.847600 1.799300
10.889800 1.926800
10.932100 1.957300
10.974300 1.976800
11.016600 1.920900
11.058800 1.980800
11.101100 2.041500
11.143300 2.065500
11.185600 2.086800
11.227800 1.993000
11.270100 2.010500
11.312400 2.182700
11.354600 2.267700
11.396900 2.333500
11.439100 2.399600
11.481400 2.409500
11.523600 2.052700
11.565900 1.821800
11.608100 1.606200
11.650400 1.534300
11.692600 1.529200
11.734900 1.442300
11.777100 1.363600
11.819400 1.145300
11.861600 1.128100
11.903900 1.083900
11.946100 1.078800
11.988400 1.090300
12.030600 1.173700
12.072900 1.140200
12.115100 1.099800
12.157400 1.171700
12.199600 1.250400
12.241900 1.268500
12.284100 1.292200
12.326400 1.346600
12.368600 1.388400
12.410900 1.411900
12.453200 1.439100
12.495400 1.485100
12.537700 1.535500
12.579900 1.603500
12.622200 1.661900
12.664400 1.637900
12.706700 1.622600
12.748900 1.599600
12.791200 1.586200
12.833400 1.589600
12.875700 1.591200
12.917900 1.588400
12.960200 1.593700
13.002400 1.707800
13.044700 1.701600
13.086900 1.709100
13.129200 1.688500
13.171400 1.624300
13.213700 1.609700
13.255900 1.597300
13.298200 1.589100
13.340400 1.631800
13.382700 1.561200
13.424900 1.522700
13.467200 1.585600
13.509500 1.619800
13.551700 1.633500
13.594000 1.576400
13.636200 1.561200
13.678500 1.590900
13.720700 1.623000
13.763000 1.649900
13.805200 1.688500
13.847500 1.738800
13.889700 1.838200
13.932000 1.867600
13.974200 1.903100
14.016500 1.936000
14.058700 2.071300
14.101000 2.192600
14.143200 2.063700
14.185500 1.945100
14.227700 1.841500
14.270000 1.779500
14.312200 1.633500
14.354500 1.561000
14.396700 1.429500
14.439000 1.337400
14.481200 1.326100
14.523500 1.329000
14.565700 1.363100
14.608000 1.422400
14.650300 1.456600
14.692500 1.502500
14.734800 1.556000
14.777000 1.674800
14.819300 1.706300
14.861500 1.793100
14.903800 1.946800
14.946000 2.017800
14.988300 2.048700
15.030500 1.940100
15.072800 1.877600
15.115000 1.838400
15.157300 1.777300
15.199500 1.678400
15.241800 1.549100
15.284000 1.421300
15.326300 1.341100
15.368500 1.296000
15.410800 1.275400
15.453000 1.271500
15.495300 1.292200
15.537500 1.330700
15.579800 1.383500
15.622000 1.477700
15.664300 1.544400
15.706500 1.559400
15.748800 1.676200
15.791100 1.858200
15.833300 2.064600
15.875600 2.106900
15.917800 2.142600
15.960100 2.125500
16.002300 2.124300
16.044600 1.957600
16.086800 1.868400
16.129100 1.773600
16.171300 1.731800
16.213600 1.642600
16.255800 1.481000
16.298100 1.436800
16.340300 1.371400
16.382600 1.281500
16.424800 1.244300
16.467100 1.197000
16.509300 1.090800
16.551600 1.040100
16.593800 1.009500
16.636100 1.017100
16.678300 1.048500
16.720600 1.130900
16.762800 1.260100
16.805100 1.383200
16.847400 1.544000
16.889600 1.662600
16.931900 1.737400
16.974100 1.818300
17.016400 1.862000
17.058600 1.900100
17.100900 1.936500
17.143100 1.875600
17.185400 1.818000
17.227600 1.678800
17.269900 1.660800
17.312100 1.662600
17.354400 1.665800
17.396600 1.719300
17.438900 1.864200
17.481100 1.991500
17.523400 2.152200
17.565600 2.293200
17.607900 2.390500
17.650100 2.660600
17.692400 2.861800
17.734600 3.183400
17.776900 3.367600
17.819100 3.406100
17.861400 3.398200
17.903600 3.513100
17.945900 3.580200
17.988200 3.534300
18.030400 3.080400
18.072700 2.719800
18.114900 2.660400
18.157200 2.521200
18.199400 2.492300
18.241700 2.467100
18.283900 2.417600
18.326200 2.372900
18.368400 2.345800
18.410700 2.297500
18.452900 2.203200
18.495200 2.161500
18.537400 1.778500
18.579700 1.636300
18.621900 1.473600
18.664200 1.397600
18.706400 1.342400
18.748700 1.336400
18.790900 1.404300
18.833200 1.549000
18.875400 1.825300
18.917700 1.997100
18.959900 2.046300
19.002200 2.097500
19.044500 2.122300
19.086700 2.146700
19.129000 2.206800
19.171200 2.314000
19.213500 2.476600
19.255700 2.564500
19.298000 2.423400
19.340200 2.499900
19.382500 2.369700
19.424700 2.405700
19.467000 2.383100
19.509200 2.402900
19.551500 2.336500
19.593700 2.301700
19.636000 2.349400
19.678200 2.638000
19.720500 2.564800
19.762700 2.373400
19.805000 2.237700
19.847200 2.101700
19.889500 1.994100
19.931700 1.960600
19.974000 1.790000
20.016200 1.782800
20.058500 1.818100
20.100700 1.863800
20.143000 1.916200
20.185300 2.108200
20.227500 2.194000
20.269800 2.193100
20.312000 2.232400
20.354300 2.249400
20.396500 2.292900
20.438800 2.309500
20.481000 2.412200
20.523300 2.444200
20.565500 2.393200
20.607800 2.221600
20.650000 2.141100
20.692300 2.070000
20.734500 2.015100
20.776800 1.961200
20.819000 1.936400
20.861300 1.928100
20.903500 1.862300
20.945800 1.673000
20.988000 1.626000
21.030300 1.696200
21.072500 1.758400
21.114800 1.828300
21.157000 1.896200
21.199300 1.965700
21.241600 1.890300
21.283800 1.978100
21.326100 1.854400
21.368300 1.798900
21.410600 1.590000
21.452800 1.524500
21.495100 1.631700
21.537300 1.702200
21.579600 1.842200
21.621800 1.994400
21.664100 2.143700
21.706300 2.180800
21.748600 2.219500
21.790800 2.439800
21.833100 2.468000
21.875300 2.562700
21.917600 2.666800
21.959800 2.500000
22.002100 2.466600
22.044300 2.452600
22.086600 2.487500
22.128800 2.616400
22.171100 2.831400
22.213300 2.935500
22.255600 3.015400
22.297800 2.919500
22.340100 2.818600
22.382400 2.743300
22.424600 2.676000
22.466900 2.531800
22.509100 2.375400
22.551400 2.180500
22.593600 2.111200
22.635900 2.065600
22.678100 2.025900
22.720400 2.102800
22.762600 2.198500
22.804900 2.318900
22.847100 2.380000
22.889400 2.327900
22.931600 2.267900
22.973900 2.264600
23.016100 2.253900
23.058400 2.223300
23.100600 2.124400
23.142900 2.028000
23.185100 2.082800
23.227400 2.163300
23.269600 2.373700
23.311900 2.608300
23.354100 2.767800
23.396400 2.833500
23.438700 3.123700
23.480900 3.236500
23.523200 3.279200
23.565400 3.303500
23.607700 3.201300
23.649900 3.220900
23.692200 3.225800
23.734400 3.231500
23.776700 3.345400
23.818900 3.305900
23.861200 3.217800
23.903400 3.173500
23.945700 3.304800
23.987900 3.299300
24.030200 3.262500
24.072400 3.077300
24.114700 2.867000
24.156900 2.680800
24.199200 2.616600
24.241400 2.541300
24.283700 2.415700
24.325900 2.329400
24.368200 2.080800
24.410400 2.014700
24.452700 1.932900
24.494900 1.923000
24.537200 1.928800
24.579500 2.005100
24.621700 2.245600
24.664000 2.384500
24.706200 2.557800
24.748500 2.838700
24.790700 3.079700
24.833000 3.248100
24.875200 3.284500
24.917500 3.343400
24.959700 3.120600
25.002000 2.874200
25.044200 2.542900
25.086500 2.280800
25.128700 2.092100
25.171000 1.875800
25.213200 1.775300
25.255500 1.701300
25.297700 1.723200
25.340000 1.956500
25.382200 2.229200
25.424500 2.485200
25.466700 2.802500
25.509000 3.171300
25.551200 3.257900
25.593500 3.266300
25.635800 3.216900
25.678000 3.049800
25.720300 2.968600
25.762500 2.866900
25.804800 2.708500
25.847000 2.568900
25.889300 2.394600
25.931500 2.237500
25.973800 2.027600
26.016000 1.983400
26.058300 2.326200
26.100500 2.409000
26.142800 2.713900
26.185000 3.203400
26.227300 3.624900
26.269500 3.452800
26.311800 3.005600
26.354000 2.872200
26.396300 2.894300
26.438500 2.724600
26.480800 2.392600
26.523000 2.281900
26.565300 2.411800
26.607500 2.506800
26.649800 2.616900
26.692000 2.806600
26.734300 2.608100
26.776600 2.584000
26.818800 2.540600
26.861100 2.463100
26.903300 2.448400
26.945600 2.419800
26.987800 2.345300
27.030100 2.336800
27.072300 2.359200
27.114600 2.307300
27.156800 2.256000
27.199100 2.197400
27.241300 2.211200
27.283600 2.260800
27.325800 2.331300
27.368100 2.440000
27.410300 2.534500
27.452600 2.581200
27.494800 2.642000
27.537100 2.781700
27.579300 2.945900
27.621600 3.077500
27.663800 3.097800
27.706100 2.957200
27.748300 3.033000
27.790600 2.857400
27.832800 2.772000
27.875100 2.729900
27.917400 2.725500
27.959600 2.795300
28.001900 2.858100
28.044100 2.890400
28.086400 3.120000
28.128600 3.081500
28.170900 2.880600
28.213100 2.869500
28.255400 2.897900
28.297600 2.947200
28.339900 3.048000
28.382100 3.215700
28.424400 3.588600
28.466600 3.731900
28.508900 3.685900
28.551100 3.378100
28.593400 3.112100
28.635600 2.778400
28.677900 2.517300
28.720100 2.479400
28.762400 2.390700
28.804600 2.266600
28.846900 2.487800
28.889100 2.764400
28.931400 2.849100
28.973700 2.929300
29.015900 2.979200
29.058200 3.016300
29.100400 2.857300
29.142700 2.854700
29.184900 2.942900
29.227200 2.883700
29.269400 2.847500
29.311700 2.681200
29.353900 2.542500
29.396200 2.515900
29.438400 2.478000
29.480700 2.526700
29.522900 2.623500
29.565200 2.693500
29.607400 2.782400
29.649700 2.988900
29.691900 3.167900
29.734200 3.272200
29.776400 3.123600
29.818700 2.943200
29.860900 2.675800
29.903200 2.675200
29.945400 2.717900
29.987700 2.804400
30.029900 2.917700
30.072200 3.131200
30.114500 3.333300
30.156700 3.310500
30.199000 3.278800
30.241200 3.288700
30.283500 3.158800
30.325700 2.982500
30.368000 2.789600
30.410200 2.617600
30.452500 2.465300
30.494700 2.426300
30.537000 2.531300
30.579200 2.595100
30.621500 2.628900
30.663700 2.730800
30.706000 2.790600
30.748200 2.827900
30.790500 2.845600
30.832700 2.828800
30.875000 2.847000
30.917200 3.040700
30.959500 3.356700
31.001700 3.327200
31.044000 3.484400
31.086200 3.531300
31.128500 3.404600
31.170800 3.433200
31.213000 3.372600
31.255300 3.409300
31.297500 3.339700
31.339800 3.258700
31.382000 3.163200
31.424300 3.094000
31.466500 3.097700
31.508800 2.994600
31.551000 2.958300
31.593300 3.173000
31.635500 3.348400
31.677800 3.380400
31.720000 3.426600
31.762300 3.526300
31.804500 3.371000
31.846800 3.068000
31.889000 3.115800
31.931300 3.185200
31.973500 3.179200
32.015800 3.142200
32.058000 3.126900
32.100300 3.093600
32.142500 3.122900
32.184800 3.195300
32.227000 3.197700
32.269300 3.184400
32.311600 3.144300
32.353800 3.015000
32.396100 2.915100
32.438300 2.591600
32.480600 2.289300
32.522800 2.070000
32.565100 2.031100
32.607300 2.100400
32.649600 2.266500
32.691800 2.689500
32.734100 3.064700
32.776300 3.329800
32.818600 3.173300
32.860800 3.058400
32.903100 2.921400
32.945300 3.081600
32.987600 3.138300
33.029800 3.181000
33.072100 3.180400
33.114300 3.168100
33.156600 3.155800
33.198800 3.125800
33.241100 3.020700
33.283300 2.842100
33.325600 2.589200
33.367900 2.587700
33.410100 2.670800
33.452400 2.687000
33.494600 2.729100
33.536900 2.803700
33.579100 2.874600
33.621400 2.977500
33.663600 3.034500
33.705900 2.886500
33.748100 2.880600
33.790400 2.913000
33.832600 3.184400
33.874900 3.295600
33.917100 3.251500
33.959400 3.053300
34.001600 2.710000
34.043900 2.584200
34.086100 2.539900
34.128400 2.509100
34.170600 2.477600
34.212900 2.549500
34.255100 2.637700
34.297400 2.781900
34.339600 3.128400
34.381900 3.289200
34.424100 3.347200
34.466400 3.265000
34.508700 3.133200
34.550900 3.107800
34.593200 3.123000
34.635400 3.313400
34.677700 3.239800
34.719900 3.224600
34.762200 3.194800
34.804400 3.157300
34.846700 3.106900
34.888900 3.071200
34.931200 3.072200
34.973400 3.158600
35.015700 3.089100
35.057900 3.007200
35.100200 2.934900
35.142400 2.908200
35.184700 2.952300
35.226900 2.966000
35.269200 2.952900
35.311400 2.933800
35.353700 2.949000
35.395900 2.903600
35.438200 2.902000
35.480400 2.956500
35.522700 3.066000
35.565000 3.422700
35.607200 3.478300
35.649500 3.285500
35.691700 3.100700
35.734000 2.976800
35.776200 2.899200
35.818500 2.804500
35.860700 2.720700
35.903000 2.654700
35.945200 2.577500
35.987500 2.518300
36.029700 2.499100
36.072000 2.652900
36.114200 2.714500
36.156500 2.695600
36.198700 2.715300
36.241000 2.769500
36.283200 2.774300
36.325500 2.773800
36.367700 2.767200
36.410000 2.802200
36.452200 2.826200
36.494500 2.827800
36.536700 2.905500
36.579000 2.839300
36.621200 2.718800
36.663500 2.534900
36.705800 2.431000
36.748000 2.391700
36.790300 2.433100
36.832500 2.542400
36.874800 2.578500
36.917000 2.618800
36.959300 2.657500
37.001500 2.671100
37.043800 2.709600
37.086000 2.904000
37.128300 3.124200
37.170500 3.216500
37.212800 3.124900
37.255000 3.006100
37.297300 2.894700
37.339500 2.835700
37.381800 2.677100
37.424000 2.721800
37.466300 2.741500
37.508500 2.765300
37.550800 2.716800
37.593000 2.618300
37.635300 2.566700
37.677500 2.607700
37.719800 2.736100
37.762100 2.854100
37.804300 2.924400
37.846600 3.032100
37.888800 3.165300
37.931100 3.152400
37.973300 2.919200
38.015600 2.794300
38.057800 2.758600
38.100100 2.723000
38.142300 2.653800
38.184600 2.648400
38.226800 2.621400
38.269100 2.645000
38.311300 2.727900
38.353600 2.805700
38.395800 2.915400
38.438100 2.909400
38.480300 2.898600
38.522600 2.870200
38.564800 2.828800
38.607100 2.747500
38.649300 2.734400
38.691600 2.774800
38.733800 2.832500
38.776100 2.732900
38.818300 2.449900
38.860600 2.346000
38.902900 2.097900
38.945100 1.993900
38.987400 1.966600
39.029600 1.954700
39.071900 1.952300
39.114100 1.948600
39.156400 1.953500
39.198600 2.038200
39.240900 1.977300
39.283100 1.899300
39.325400 1.839000
39.367600 1.769600
39.409900 1.367900
39.452100 1.143200
39.494400 1.002000
39.536600 0.958800
39.578900 0.932200
39.621100 0.896500
39.663400 0.862100
39.705600 0.834000
39.747900 0.812300
39.790100 0.794400
39.832400 0.786400
39.874600 0.817500
39.916900 0.864100
39.959100 0.862300
40.001400 0.793400
40.043700 0.722300
40.085900 0.660200
40.128200 0.574700
40.170400 0.463600
40.212700 0.334900
40.254900 0.185300
40.297200 0.111400
40.339400 0.111900
40.381700 0.111400
40.423900 0.056300
40.466200 0.049400
40.508400 0.042000
40.550700 0.036000
40.592900 0.030400
40.635200 0.025400
40.677400 0.020800
40.719700 0.017100
40.761900 0.015500
40.804200 0.014200
40.846400 0.013000
40.888700 0.008500
40.930900 0.002600
40.973200 0.000600
41.015400 0.000000
41.057700 0.000000
41.100000 0.000000
41.142200 0.000000
41.184500 0.000000
41.226700 0.000000
41.269000 0.000000
41.311200 0.000000
41.353500 0.000000
41.395700 0.000000
41.438000 0.000000
41.480200 0.000000
41.522500 0.000000
41.564700 0.000000
41.607000 0.000000
41.649200 0.000000
41.691500 0.000000
41.733700 0.000000
41.776000 0.000000
41.818200 0.000000
41.860500 0.000000
41.902700 0.000000
41.945000 0.000000
41.987200 0.000000
42.029500 0.000000
42.071700 0.000000
42.114000 0.000000
42.156200 0.000000
42.198500 0.000000
42.240800 0.000000
42.283000 0.000000
42.325300 0.000000
42.367500 0.000000
42.409800 0.000000
42.452000 0.000000
42.494300 0.000000
42.536500 0.000000
42.578800 0.000000
42.621000 0.000000
42.663300 0.000000
42.705500 0.000000
42.747800 0.000000
42.790000 0.000000
42.832300 0.000000
42.874500 0.000000
42.916800 0.000000
42.959000 0.000000
43.001300 0.000000
43.043500 0.000000
43.085800 0.000000
43.128000 0.000000
43.170300 0.000000
43.212500 0.000000
43.254800 0.000000
43.297100 0.000000
43.339300 0.000000
43.381600 0.000000
43.423800 0.000000
43.466100 0.000000
43.508300 0.000000
43.550600 0.000000
43.592800 0.000000
43.635100 0.000000
43.677300 0.000000
43.719600 0.000000
43.761800 0.000000
43.804100 0.000000
43.846300 0.000000
43.888600 0.000000
43.930800 0.000000
43.973100 0.000000
44.015300 0.000000
44.057600 0.000000
44.099800 0.000000
44.142100 0.000000
44.184300 0.000000
44.226600 0.000000
44.268800 0.000000
44.311100 0.000000
44.353300 0.000000
44.395600 0.000000
44.437900 0.000000
44.480100 0.000000
44.522400 0.000000
44.564600 0.000000
44.606900 0.000000
44.649100 0.000000
44.691400 0.000000
44.733600 0.000000
44.775900 0.000000
44.818100 0.000000
44.860400 0.000000
e
