set title 'mp-1079810 - Density of States'
set xlabel 'Energy (eV)'
set ylabel 'DOS (states/eV)'
set grid
set xrange [-10:10]
set yrange [0:13.212]
set xzeroaxis lt -1
set terminal png size 800,600
set output 'mp-1079810_dos_gnuplot.png'
plot '-' using 1:2 with lines title 'DOS'
-25.217300 0.000000
-25.188600 0.000000
-25.159900 0.000000
-25.131200 0.000000
-25.102600 0.000000
-25.073900 0.000000
-25.045200 0.000000
-25.016500 0.000000
-24.987900 0.000000
-24.959200 0.000000
-24.930500 0.000000
-24.901900 0.000000
-24.873200 0.000000
-24.844500 0.000000
-24.815800 0.000000
-24.787200 0.000000
-24.758500 0.000000
-24.729800 0.000000
-24.701100 0.000000
-24.672500 0.000000
-24.643800 0.000000
-24.615100 0.000000
-24.586400 0.000000
-24.557800 0.000000
-24.529100 0.000000
-24.500400 0.000000
-24.471800 0.000000
-24.443100 0.000000
-24.414400 0.000000
-24.385700 0.000000
-24.357100 0.000000
-24.328400 0.000000
-24.299700 0.000000
-24.271000 0.000000
-24.242400 0.000000
-24.213700 0.000000
-24.185000 0.000000
-24.156400 0.000000
-24.127700 0.000000
-24.099000 0.000000
-24.070300 0.000000
-24.041700 0.000000
-24.013000 0.000000
-23.984300 0.000000
-23.955600 0.000000
-23.927000 0.000000
-23.898300 0.000000
-23.869600 0.000000
-23.840900 0.000000
-23.812300 0.000000
-23.783600 0.000000
-23.754900 0.000000
-23.726300 0.000000
-23.697600 0.000000
-23.668900 0.000000
-23.640200 0.000000
-23.611600 0.000000
-23.582900 0.000000
-23.554200 0.000000
-23.525500 0.000000
-23.496900 0.000000
-23.468200 0.000000
-23.439500 0.000000
-23.410900 0.000000
-23.382200 0.000000
-23.353500 0.000000
-23.324800 0.000000
-23.296200 0.000000
-23.267500 0.000000
-23.238800 0.000000
-23.210100 0.000000
-23.181500 0.000000
-23.152800 0.000000
-23.124100 0.000000
-23.095400 0.000000
-23.066800 0.000000
-23.038100 0.000000
-23.009400 0.000000
-22.980800 0.000000
-22.952100 0.000000
-22.923400 0.000000
-22.894700 0.000000
-22.866100 0.000000
-22.837400 0.000000
-22.808700 0.000000
-22.780000 0.000000
-22.751400 0.000000
-22.722700 0.000000
-22.694000 0.000000
-22.665400 0.000000
-22.636700 0.000000
-22.608000 1003.639800
-22.579300 128.142500
-22.550700 96.345700
-22.522000 0.000000
-22.493300 0.000000
-22.464600 0.000000
-22.436000 0.000000
-22.407300 0.000000
-22.378600 0.000000
-22.350000 0.000000
-22.321300 0.000000
-22.292600 0.000000
-22.263900 0.000000
-22.235300 0.000000
-22.206600 0.000000
-22.177900 0.000000
-22.149200 0.000000
-22.120600 0.000000
-22.091900 0.000000
-22.063200 0.000000
-22.034500 0.000000
-22.005900 0.000000
-21.977200 0.000000
-21.948500 0.000000
-21.919900 0.000000
-21.891200 0.000000
-21.862500 0.000000
-21.833800 0.000000
-21.805200 0.000000
-21.776500 0.000000
-21.747800 0.000000
-21.719100 0.000000
-21.690500 0.000000
-21.661800 0.000000
-21.633100 0.000000
-21.604500 0.000000
-21.575800 0.000000
-21.547100 0.000000
-21.518400 0.000000
-21.489800 0.000000
-21.461100 0.000000
-21.432400 0.000000
-21.403700 0.000000
-21.375100 0.000000
-21.346400 0.000000
-21.317700 0.000000
-21.289000 0.000000
-21.260400 0.000000
-21.231700 0.000000
-21.203000 0.000000
-21.174400 0.000000
-21.145700 0.000000
-21.117000 0.000000
-21.088300 0.000000
-21.059700 0.000000
-21.031000 0.000000
-21.002300 0.000000
-20.973600 0.000000
-20.945000 0.000000
-20.916300 0.000000
-20.887600 0.000000
-20.859000 0.000000
-20.830300 0.000000
-20.801600 0.000000
-20.772900 0.000000
-20.744300 0.000000
-20.715600 0.000000
-20.686900 0.000000
-20.658200 0.000000
-20.629600 0.000000
-20.600900 0.000000
-20.572200 0.000000
-20.543600 0.000000
-20.514900 0.000000
-20.486200 0.000000
-20.457500 0.000000
-20.428900 0.000000
-20.400200 0.000000
-20.371500 0.000000
-20.342800 0.000000
-20.314200 0.000000
-20.285500 0.000000
-20.256800 0.000000
-20.228100 0.000000
-20.199500 0.000000
-20.170800 0.000000
-20.142100 0.000000
-20.113500 0.000000
-20.084800 0.000000
-20.056100 0.000000
-20.027400 0.000000
-19.998800 0.000000
-19.970100 0.000000
-19.941400 0.000000
-19.912700 0.000000
-19.884100 0.000000
-19.855400 0.000000
-19.826700 0.000000
-19.798100 0.000000
-19.769400 0.000000
-19.740700 0.000000
-19.712000 0.000000
-19.683400 0.000000
-19.654700 0.000000
-19.626000 0.000000
-19.597300 0.000000
-19.568700 0.000000
-19.540000 0.000000
-19.511300 0.000000
-19.482600 0.000000
-19.454000 0.000000
-19.425300 0.000000
-19.396600 0.000000
-19.368000 0.000000
-19.339300 0.000000
-19.310600 0.000000
-19.281900 0.000000
-19.253300 0.000000
-19.224600 0.000000
-19.195900 0.000000
-19.167200 0.000000
-19.138600 0.000000
-19.109900 0.000000
-19.081200 0.000000
-19.052600 0.000000
-19.023900 0.000000
-18.995200 0.000000
-18.966500 0.000000
-18.937900 0.000000
-18.909200 0.000000
-18.880500 0.000000
-18.851800 0.000000
-18.823200 0.000000
-18.794500 0.000000
-18.765800 0.000000
-18.737100 0.000000
-18.708500 0.000000
-18.679800 0.000000
-18.651100 0.000000
-18.622500 0.000000
-18.593800 0.000000
-18.565100 0.000000
-18.536400 0.000000
-18.507800 0.000000
-18.479100 0.000000
-18.450400 0.000000
-18.421700 0.000000
-18.393100 0.000000
-18.364400 0.000000
-18.335700 0.000000
-18.307100 0.000000
-18.278400 0.000000
-18.249700 0.000000
-18.221000 0.000000
-18.192400 0.000000
-18.163700 0.000000
-18.135000 0.000000
-18.106300 0.000000
-18.077700 0.000000
-18.049000 0.000000
-18.020300 0.000000
-17.991700 0.000000
-17.963000 0.000000
-17.934300 0.000000
-17.905600 0.000000
-17.877000 0.000000
-17.848300 0.000000
-17.819600 0.000000
-17.790900 0.000000
-17.762300 0.000000
-17.733600 0.000000
-17.704900 0.000000
-17.676200 0.000000
-17.647600 0.000000
-17.618900 0.000000
-17.590200 0.000000
-17.561600 0.000000
-17.532900 0.000000
-17.504200 0.000000
-17.475500 0.000000
-17.446900 0.000000
-17.418200 0.000000
-17.389500 0.000000
-17.360800 0.000000
-17.332200 0.000000
-17.303500 0.000000
-17.274800 0.000000
-17.246200 0.000000
-17.217500 0.000000
-17.188800 0.000000
-17.160100 0.000000
-17.131500 0.000000
-17.102800 0.000000
-17.074100 0.000000
-17.045400 0.000000
-17.016800 0.000000
-16.988100 0.000000
-16.959400 0.000000
-16.930700 0.000000
-16.902100 0.000000
-16.873400 0.000000
-16.844700 0.000000
-16.816100 0.000000
-16.787400 0.000000
-16.758700 0.000000
-16.730000 0.000000
-16.701400 0.000000
-16.672700 0.000000
-16.644000 0.000000
-16.615300 0.000000
-16.586700 0.000000
-16.558000 0.000000
-16.529300 0.000000
-16.500700 0.000000
-16.472000 0.000000
-16.443300 0.000000
-16.414600 0.000000
-16.386000 0.000000
-16.357300 0.000000
-16.328600 0.000000
-16.299900 0.000000
-16.271300 0.000000
-16.242600 0.000000
-16.213900 0.000000
-16.185200 0.000000
-16.156600 0.000000
-16.127900 0.000000
-16.099200 0.000000
-16.070600 0.000000
-16.041900 0.000000
-16.013200 0.000000
-15.984500 0.000000
-15.955900 0.000000
-15.927200 0.000000
-15.898500 0.000000
-15.869800 0.000000
-15.841200 0.000000
-15.812500 0.000000
-15.783800 0.000000
-15.755200 0.000000
-15.726500 0.000000
-15.697800 0.000000
-15.669100 0.000000
-15.640500 0.000000
-15.611800 0.000000
-15.583100 0.000000
-15.554400 0.000000
-15.525800 0.000000
-15.497100 0.000000
-15.468400 0.000000
-15.439800 0.000000
-15.411100 0.000000
-15.382400 0.000000
-15.353700 0.000000
-15.325100 0.000000
-15.296400 0.000000
-15.267700 0.000000
-15.239000 0.000000
-15.210400 0.000000
-15.181700 0.000000
-15.153000 0.000000
-15.124300 0.000000
-15.095700 0.000000
-15.067000 0.000000
-15.038300 0.000000
-15.009700 0.000000
-14.981000 0.000000
-14.952300 0.000000
-14.923600 0.000000
-14.895000 0.000000
-14.866300 0.000000
-14.837600 0.000000
-14.808900 0.000000
-14.780300 0.000000
-14.751600 0.000000
-14.722900 0.000000
-14.694300 0.000000
-14.665600 0.000000
-14.636900 0.000000
-14.608200 0.000000
-14.579600 0.000000
-14.550900 0.000000
-14.522200 0.000000
-14.493500 0.000000
-14.464900 0.000000
-14.436200 0.000000
-14.407500 0.000000
-14.378800 0.000000
-14.350200 0.000000
-14.321500 0.000000
-14.292800 0.000000
-14.264200 0.000000
-14.235500 0.000000
-14.206800 0.000000
-14.178100 0.000000
-14.149500 0.000000
-14.120800 0.000000
-14.092100 0.000000
-14.063400 0.000000
-14.034800 0.000000
-14.006100 0.000000
-13.977400 0.000000
-13.948800 0.000000
-13.920100 0.000000
-13.891400 0.000000
-13.862700 0.000000
-13.834100 0.000000
-13.805400 0.000000
-13.776700 0.000000
-13.748000 0.000000
-13.719400 0.000000
-13.690700 0.000000
-13.662000 0.000000
-13.633300 0.000000
-13.604700 0.000000
-13.576000 0.000000
-13.547300 0.000000
-13.518700 0.000000
-13.490000 0.000000
-13.461300 0.000000
-13.432600 0.000000
-13.404000 0.000000
-13.375300 0.000000
-13.346600 0.000000
-13.317900 0.000000
-13.289300 0.000000
-13.260600 0.000000
-13.231900 0.000000
-13.203300 0.000000
-13.174600 0.000000
-13.145900 0.000000
-13.117200 4.585800
-13.088600 45.864100
-13.059900 51.561600
-13.031200 159.942700
-13.002500 103.561300
-12.973900 124.915800
-12.945200 208.614500
-12.916500 126.597400
-12.887900 55.341200
-12.859200 198.409100
-12.830500 71.406600
-12.801800 412.986800
-12.773200 118.673300
-12.744500 86.997400
-12.715800 0.000000
-12.687100 0.000000
-12.658500 0.000000
-12.629800 0.000000
-12.601100 0.000000
-12.572400 0.000000
-12.543800 0.000000
-12.515100 0.000000
-12.486400 0.000000
-12.457800 0.000000
-12.429100 0.000000
-12.400400 0.000000
-12.371700 0.000000
-12.343100 0.000000
-12.314400 0.000000
-12.285700 0.000000
-12.257000 0.000000
-12.228400 0.000000
-12.199700 0.000000
-12.171000 0.000000
-12.142400 0.000000
-12.113700 0.000000
-12.085000 0.000000
-12.056300 0.000000
-12.027700 0.000000
-11.999000 0.000000
-11.970300 0.000000
-11.941600 0.000000
-11.913000 0.000000
-11.884300 0.000000
-11.855600 0.000000
-11.826900 0.000000
-11.798300 0.000000
-11.769600 0.000000
-11.740900 0.000000
-11.712300 0.000000
-11.683600 0.000000
-11.654900 0.000000
-11.626200 0.000000
-11.597600 0.000000
-11.568900 0.000000
-11.540200 0.000000
-11.511500 0.000000
-11.482900 0.000000
-11.454200 0.000000
-11.425500 0.000000
-11.396900 0.000000
-11.368200 0.000000
-11.339500 0.000000
-11.310800 0.000000
-11.282200 0.000000
-11.253500 0.000000
-11.224800 0.000000
-11.196100 0.000000
-11.167500 0.000000
-11.138800 0.000000
-11.110100 0.000000
-11.081400 0.000000
-11.052800 0.000000
-11.024100 0.000000
-10.995400 0.000000
-10.966800 0.000000
-10.938100 0.000000
-10.909400 0.000000
-10.880700 0.000000
-10.852100 0.000000
-10.823400 0.000000
-10.794700 0.000000
-10.766000 0.000000
-10.737400 0.000000
-10.708700 0.000000
-10.680000 0.000000
-10.651400 0.000000
-10.622700 0.000000
-10.594000 0.000000
-10.565300 0.000000
-10.536700 0.000000
-10.508000 0.000000
-10.479300 0.000000
-10.450600 0.000000
-10.422000 0.000000
-10.393300 0.000000
-10.364600 0.000000
-10.336000 0.000000
-10.307300 0.000000
-10.278600 0.000000
-10.249900 0.000000
-10.221300 0.000000
-10.192600 0.000000
-10.163900 0.000000
-10.135200 0.000000
-10.106600 0.000000
-10.077900 0.000000
-10.049200 0.000000
-10.020500 0.000000
-9.991900 0.000000
-9.963200 0.000000
-9.934500 0.000000
-9.905900 0.000000
-9.877200 0.000000
-9.848500 0.000000
-9.819800 0.000000
-9.791200 0.000000
-9.762500 0.000000
-9.733800 0.000000
-9.705100 0.000000
-9.676500 0.000000
-9.647800 0.000000
-9.619100 0.000000
-9.590500 0.000000
-9.561800 0.000000
-9.533100 0.000000
-9.504400 0.000000
-9.475800 0.000000
-9.447100 0.000000
-9.418400 0.000000
-9.389700 0.000000
-9.361100 0.000000
-9.332400 0.000000
-9.303700 0.000000
-9.275000 0.000000
-9.246400 0.000000
-9.217700 0.000000
-9.189000 0.000000
-9.160400 0.000000
-9.131700 0.000000
-9.103000 0.000000
-9.074300 0.000000
-9.045700 0.000000
-9.017000 0.000000
-8.988300 0.000000
-8.959600 0.000000
-8.931000 0.000000
-8.902300 0.000000
-8.873600 0.000000
-8.845000 0.000000
-8.816300 0.000000
-8.787600 0.000000
-8.758900 0.000000
-8.730300 0.000000
-8.701600 0.000000
-8.672900 0.000000
-8.644200 0.000000
-8.615600 0.000000
-8.586900 0.000000
-8.558200 0.000000
-8.529500 0.000000
-8.500900 0.000000
-8.472200 0.000000
-8.443500 0.000000
-8.414900 0.000000
-8.386200 0.000000
-8.357500 0.000000
-8.328800 0.000000
-8.300200 0.000000
-8.271500 0.000000
-8.242800 0.000000
-8.214100 0.000000
-8.185500 0.000000
-8.156800 0.000000
-8.128100 0.000000
-8.099500 0.000000
-8.070800 0.000000
-8.042100 0.000000
-8.013400 0.000000
-7.984800 0.000000
-7.956100 0.000000
-7.927400 0.000000
-7.898700 0.000000
-7.870100 0.000000
-7.841400 0.000000
-7.812700 0.000000
-7.784100 0.000000
-7.755400 0.000000
-7.726700 0.000000
-7.698000 0.000000
-7.669400 0.000000
-7.640700 0.000000
-7.612000 0.000000
-7.583300 0.000000
-7.554700 0.000000
-7.526000 0.000000
-7.497300 0.000000
-7.468600 0.000000
-7.440000 0.000000
-7.411300 0.000000
-7.382600 0.000000
-7.354000 0.000000
-7.325300 0.000000
-7.296600 0.000000
-7.267900 0.000000
-7.239300 0.000000
-7.210600 0.000000
-7.181900 0.000000
-7.153200 0.000000
-7.124600 0.000000
-7.095900 0.000000
-7.067200 0.000000
-7.038600 0.000000
-7.009900 0.000000
-6.981200 0.000000
-6.952500 0.000000
-6.923900 0.000000
-6.895200 0.000000
-6.866500 0.000000
-6.837800 0.000000
-6.809200 0.000000
-6.780500 0.000000
-6.751800 0.000000
-6.723100 0.000000
-6.694500 0.000000
-6.665800 0.000000
-6.637100 0.000000
-6.608500 0.000000
-6.579800 0.000000
-6.551100 0.000000
-6.522400 0.000000
-6.493800 0.000000
-6.465100 0.000000
-6.436400 0.000000
-6.407700 0.000000
-6.379100 0.000000
-6.350400 0.000000
-6.321700 0.000000
-6.293100 0.000000
-6.264400 0.000000
-6.235700 0.000000
-6.207000 0.000000
-6.178400 0.000000
-6.149700 0.000000
-6.121000 0.000000
-6.092300 0.000000
-6.063700 0.000000
-6.035000 0.000000
-6.006300 0.000000
-5.977700 0.000000
-5.949000 0.000000
-5.920300 0.000000
-5.891600 0.000000
-5.863000 0.000000
-5.834300 0.000000
-5.805600 0.000000
-5.776900 0.000000
-5.748300 0.000000
-5.719600 0.000000
-5.690900 0.000000
-5.662200 0.000000
-5.633600 0.000000
-5.604900 0.000000
-5.576200 0.000000
-5.547600 0.000000
-5.518900 0.000000
-5.490200 0.000000
-5.461500 0.000000
-5.432900 0.000000
-5.404200 0.000000
-5.375500 0.000000
-5.346800 0.000000
-5.318200 0.000000
-5.289500 0.000000
-5.260800 0.000000
-5.232200 0.000000
-5.203500 0.000000
-5.174800 0.000000
-5.146100 0.000000
-5.117500 0.000000
-5.088800 0.000000
-5.060100 0.000000
-5.031400 0.000000
-5.002800 0.000000
-4.974100 0.000000
-4.945400 0.000000
-4.916700 0.000000
-4.888100 0.000000
-4.859400 0.000000
-4.830700 0.000000
-4.802100 0.000000
-4.773400 0.000000
-4.744700 0.000000
-4.716000 0.000000
-4.687400 0.000000
-4.658700 0.000000
-4.630000 0.000000
-4.601300 0.000000
-4.572700 0.000000
-4.544000 0.000000
-4.515300 0.000000
-4.486700 0.000000
-4.458000 0.000000
-4.429300 0.000000
-4.400600 0.000000
-4.372000 0.000000
-4.343300 0.000000
-4.314600 0.000000
-4.285900 0.000000
-4.257300 0.000000
-4.228600 0.000000
-4.199900 0.000000
-4.171200 0.000000
-4.142600 0.000000
-4.113900 0.000000
-4.085200 0.000000
-4.056600 0.000000
-4.027900 0.000000
-3.999200 0.000000
-3.970500 0.000000
-3.941900 0.000000
-3.913200 0.000000
-3.884500 0.000000
-3.855800 0.000000
-3.827200 0.000000
-3.798500 0.000000
-3.769800 0.000000
-3.741200 0.000000
-3.712500 0.000000
-3.683800 0.000000
-3.655100 0.000000
-3.626500 0.000000
-3.597800 0.000000
-3.569100 0.000000
-3.540400 0.000000
-3.511800 0.000000
-3.483100 0.000000
-3.454400 0.000000
-3.425800 0.000000
-3.397100 0.000000
-3.368400 0.000000
-3.339700 0.000000
-3.311100 0.000000
-3.282400 0.000000
-3.253700 0.000000
-3.225000 0.000000
-3.196400 0.000000
-3.167700 0.000000
-3.139000 0.000000
-3.110300 0.000000
-3.081700 0.000000
-3.053000 0.000000
-3.024300 0.000000
-2.995700 0.000000
-2.967000 0.000000
-2.938300 0.000000
-2.909600 0.000000
-2.881000 0.000000
-2.852300 0.000000
-2.823600 0.000000
-2.794900 0.000000
-2.766300 0.029600
-2.737600 0.123000
-2.708900 0.279900
-2.680300 0.368100
-2.651600 0.404900
-2.622900 0.409400
-2.594200 0.460100
-2.565600 0.512700
-2.536900 0.567200
-2.508200 0.620800
-2.479500 0.665000
-2.450900 0.695900
-2.422200 0.713800
-2.393500 0.729400
-2.364800 0.755900
-2.336200 0.787700
-2.307500 0.819500
-2.278800 0.851300
-2.250200 0.883100
-2.221500 0.914900
-2.192800 0.947200
-2.164100 0.975300
-2.135500 1.000300
-2.106800 1.024800
-2.078100 1.053300
-2.049400 1.078900
-2.020800 1.100400
-1.992100 1.120900
-1.963400 1.144700
-1.934800 1.169200
-1.906100 1.194000
-1.877400 1.218600
-1.848700 1.245900
-1.820100 1.273400
-1.791400 1.301800
-1.762700 1.331100
-1.734000 1.359800
-1.705400 1.386800
-1.676700 1.413000
-1.648000 1.442600
-1.619300 1.476100
-1.590700 1.512400
-1.562000 1.550000
-1.533300 1.587500
-1.504700 1.625100
-1.476000 1.665200
-1.447300 1.759400
-1.418600 1.859700
-1.390000 1.929700
-1.361300 1.950000
-1.332600 1.964000
-1.303900 1.971800
-1.275300 1.973400
-1.246600 1.969000
-1.217900 2.350600
-1.189300 2.318400
-1.160600 2.064500
-1.131900 1.996500
-1.103200 1.969400
-1.074600 1.943800
-1.045900 1.919100
-1.017200 1.894500
-0.988500 1.870000
-0.959900 1.820300
-0.931200 1.780500
-0.902500 1.682800
-0.873900 1.603400
-0.845200 1.569600
-0.816500 1.623900
-0.787800 1.787600
-0.759200 2.022200
-0.730500 2.286900
-0.701800 2.557200
-0.673100 2.728700
-0.644500 3.390900
-0.615800 3.062100
-0.587100 2.837700
-0.558400 2.730800
-0.529800 2.674300
-0.501100 3.385400
-0.472400 5.285400
-0.443800 3.499600
-0.415100 1.923200
-0.386400 1.775500
-0.357700 1.497300
-0.329100 1.326600
-0.300400 1.223000
-0.271700 1.186300
-0.243000 1.216400
-0.214400 1.296800
-0.185700 1.407000
-0.157000 1.549400
-0.128400 1.728700
-0.099700 1.946000
-0.071000 2.232100
-0.042300 2.172500
-0.013700 1.835300
0.015000 1.752400
0.043700 1.924700
0.072400 2.018700
0.101000 2.119500
0.129700 2.218300
0.158400 2.314300
0.187100 2.399700
0.215700 2.440100
0.244400 2.498400
0.273100 2.551000
0.301700 2.613600
0.330400 2.745600
0.359100 2.811200
0.387800 2.662800
0.416400 2.493600
0.445100 2.415600
0.473800 2.862900
0.502500 3.409700
0.531100 2.834600
0.559800 2.439000
0.588500 2.332200
0.617100 2.334300
0.645800 2.329700
0.674500 2.336600
0.703200 2.373500
0.731800 2.411500
0.760500 2.449600
0.789200 2.760700
0.817900 2.620200
0.846500 2.620600
0.875200 2.754500
0.903900 2.968400
0.932600 3.230100
0.961200 3.443500
0.989900 3.447400
1.018600 3.226700
1.047200 2.648100
1.075900 2.300100
1.104600 2.190000
1.133300 2.101900
1.161900 2.038700
1.190600 2.011900
1.219300 2.050900
1.248000 1.947000
1.276600 1.883800
1.305300 1.958000
1.334000 2.011700
1.362600 2.077400
1.391300 2.154700
1.420000 2.242900
1.448700 2.342800
1.477300 2.588900
1.506000 3.145500
1.534700 3.270500
1.563400 3.479400
1.592000 3.784200
1.620700 4.146200
1.649400 4.676200
1.678000 5.176800
1.706700 5.667900
1.735400 4.320300
1.764100 2.723300
1.792700 2.365800
1.821400 2.106700
1.850100 2.058000
1.878800 1.679000
1.907400 1.802600
1.936100 1.992200
1.964800 2.354800
1.993500 4.123400
2.022100 4.250100
2.050800 4.058200
2.079500 4.039700
2.108100 3.953900
2.136800 3.504400
2.165500 3.106800
2.194200 2.949000
2.222800 2.817400
2.251500 2.711500
2.280200 2.627400
2.308900 2.627900
2.337500 2.777100
2.366200 2.830000
2.394900 2.642500
2.423500 2.518400
2.452200 2.342800
2.480900 2.136700
2.509600 1.945800
2.538200 1.802000
2.566900 1.665900
2.595600 1.528100
2.624300 1.404900
2.652900 1.311800
2.681600 1.244000
2.710300 1.182000
2.739000 1.124600
2.767600 1.072400
2.796300 1.012100
2.825000 0.945500
2.853600 0.868200
2.882300 0.811200
2.911000 0.771200
2.939700 0.733900
2.968300 0.697900
2.997000 0.663100
3.025700 0.629500
3.054400 0.597100
3.083000 0.566200
3.111700 0.537100
3.140400 0.510200
3.169000 0.485500
3.197700 0.463000
3.226400 0.442700
3.255100 0.468900
3.283700 0.632600
3.312400 0.848200
3.341100 1.073600
3.369800 1.179000
3.398400 0.912100
3.427100 0.919300
3.455800 0.938400
3.484500 0.969400
3.513100 1.011900
3.541800 1.061100
3.570500 1.131100
3.599100 1.234000
3.627800 1.377200
3.656500 1.554800
3.685200 1.730300
3.713800 1.913300
3.742500 2.111200
3.771200 2.234800
3.799900 2.289900
3.828500 2.314900
3.857200 2.379500
3.885900 2.505900
3.914500 2.655500
3.943200 2.817000
3.971900 2.972900
4.000600 3.169700
4.029200 3.358000
4.057900 3.516900
4.086600 3.718900
4.115300 3.997700
4.143900 4.390800
4.172600 4.658500
4.201300 4.774600
4.229900 4.500200
4.258600 4.210600
4.287300 5.424000
4.316000 4.968000
4.344600 3.836600
4.373300 3.141000
4.402000 3.772400
4.430700 4.729200
4.459300 5.294900
4.488000 5.205500
4.516700 4.311800
4.545400 4.185100
4.574000 4.840400
4.602700 5.411200
4.631400 4.554700
4.660000 4.357200
4.688700 4.142100
4.717400 3.853200
4.746100 3.424100
4.774700 2.635500
4.803400 2.387400
4.832100 2.667300
4.860800 2.916800
4.889400 3.155900
4.918100 3.370400
4.946800 3.515800
4.975400 3.785000
5.004100 4.151700
5.032800 4.665200
5.061500 5.461800
5.090100 9.171000
5.118800 6.019800
5.147500 4.980200
5.176200 4.441900
5.204800 3.973800
5.233500 3.513500
5.262200 3.141100
5.290900 2.858500
5.319500 2.760000
5.348200 3.024400
5.376900 3.378600
5.405500 3.534600
5.434200 3.623900
5.462900 3.649500
5.491600 3.675800
5.520200 3.878100
5.548900 4.606800
5.577600 5.272700
5.606300 6.017400
5.634900 5.134100
5.663600 3.651200
5.692300 2.649000
5.720900 2.226000
5.749600 2.249800
5.778300 2.541300
5.807000 3.078500
5.835600 3.896900
5.864300 4.781700
5.893000 5.355400
5.921700 5.571800
5.950300 5.279100
5.979000 5.118800
6.007700 5.304200
6.036400 4.976600
6.065000 4.397800
6.093700 3.788700
6.122400 3.574000
6.151000 3.642800
6.179700 3.855400
6.208400 3.922500
6.237100 4.041300
6.265700 4.248300
6.294400 4.255600
6.323100 4.437200
6.351800 4.719800
6.380400 5.213900
6.409100 5.352400
6.437800 5.430500
6.466400 5.659700
6.495100 6.914100
6.523800 6.110000
6.552500 6.045100
6.581100 6.122600
6.609800 5.947400
6.638500 5.968400
6.667200 6.500100
6.695800 6.667700
6.724500 7.265300
6.753200 5.896800
6.781800 6.185000
6.810500 6.602500
6.839200 7.024100
6.867900 7.196200
6.896500 7.069700
6.925200 6.790800
6.953900 6.182300
6.982600 6.123200
7.011200 6.183200
7.039900 6.971100
7.068600 7.319900
7.097300 8.575700
7.125900 9.914100
7.154600 11.440700
7.183300 11.204300
7.211900 11.032100
7.240600 10.202300
7.269300 9.996300
7.298000 9.884700
7.326600 11.415300
7.355300 11.384300
7.384000 11.292300
7.412700 11.354300
7.441300 11.811600
7.470000 12.011000
7.498700 10.890100
7.527300 8.126100
7.556000 6.470800
7.584700 6.839600
7.613400 6.913500
7.642000 7.054500
7.670700 6.779800
7.699400 6.668600
7.728100 6.139900
7.756700 5.405300
7.785400 5.202000
7.814100 5.894900
7.842800 5.836700
7.871400 5.573200
7.900100 5.291200
7.928800 4.991000
7.957400 4.679400
7.986100 4.416600
8.014800 4.248000
8.043500 4.086600
8.072100 3.979300
8.100800 3.895200
8.129500 3.836600
8.158200 3.870400
8.186800 4.288300
8.215500 4.297400
8.244200 4.282400
8.272800 4.225000
8.301500 4.174100
8.330200 3.677800
8.358900 3.605400
8.387500 3.508100
8.416200 3.386700
8.444900 3.264400
8.473600 3.147400
8.502200 3.067500
8.530900 3.060500
8.559600 3.299800
8.588200 3.156600
8.616900 3.012300
8.645600 2.844100
8.674300 2.723100
8.702900 2.609200
8.731600 2.495300
8.760300 2.398600
8.789000 2.327300
8.817600 2.383500
8.846300 2.587600
8.875000 2.834000
8.903700 3.064300
8.932300 3.824000
8.961000 4.305900
8.989700 4.718600
9.018300 4.813300
9.047000 4.577400
9.075700 4.147500
9.104400 3.772300
9.133000 3.391600
9.161700 3.105500
9.190400 3.111500
9.219100 2.908000
9.247700 2.761500
9.276400 2.674800
9.305100 2.673900
9.333700 2.927100
9.362400 3.505300
9.391100 4.286700
9.419800 4.744300
9.448400 4.870600
9.477100 4.670300
9.505800 4.558900
9.534500 4.406500
9.563100 4.366600
9.591800 4.753600
9.620500 6.262000
9.649200 6.332200
9.677800 6.286600
9.706500 6.467400
9.735200 6.811700
9.763800 7.444800
9.792500 6.234800
9.821200 5.385000
9.849900 5.171900
9.878500 5.149100
9.907200 5.158300
9.935900 5.272500
9.964600 4.252200
9.993200 3.759400
10.021900 3.528500
10.050600 3.318200
10.079200 3.867800
10.107900 4.641700
10.136600 5.062600
10.165300 5.362100
10.193900 5.668200
10.222600 5.587300
10.251300 5.397200
10.280000 5.465600
10.308600 5.091300
10.337300 4.964300
10.366000 4.799700
10.394700 4.687400
10.423300 6.903500
10.452000 6.550900
10.480700 5.053900
10.509300 5.576400
10.538000 9.797500
10.566700 9.414200
10.595400 10.450100
10.624000 14.148200
10.652700 10.042700
10.681400 8.884500
10.710100 9.234400
10.738700 9.795500
10.767400 9.105400
10.796100 7.435200
10.824700 6.218500
10.853400 6.356600
10.882100 7.598300
10.910800 8.170900
10.939400 7.287600
10.968100 7.673800
10.996800 9.934400
11.025500 10.836600
11.054100 9.618700
11.082800 8.717600
11.111500 8.432400
11.140100 7.114100
11.168800 5.732600
11.197500 5.077600
11.226200 5.530900
11.254800 6.944200
11.283500 8.361900
11.312200 8.883700
11.340900 7.272400
11.369500 6.873300
11.398200 9.855300
11.426900 12.013900
11.455600 13.611300
11.484200 11.040800
11.512900 8.959200
11.541600 8.630900
11.570200 9.506000
11.598900 11.480400
11.627600 11.795400
11.656300 10.388300
11.684900 9.751100
11.713600 9.460900
11.742300 13.161600
11.771000 14.530100
11.799600 14.801900
11.828300 12.617700
11.857000 10.753500
11.885600 10.875700
11.914300 12.179200
11.943000 18.700500
11.971700 11.940400
12.000300 7.023800
12.029000 4.940000
12.057700 4.941200
12.086400 5.077200
12.115000 5.405500
12.143700 5.170100
12.172400 5.445600
12.201100 5.546600
12.229700 5.888200
12.258400 6.612600
12.287100 7.201200
12.315700 9.388600
12.344400 8.881300
12.373100 7.678800
12.401800 6.800500
12.430400 6.389100
12.459100 6.175400
12.487800 6.355900
12.516500 7.428200
12.545100 7.140800
12.573800 7.126000
12.602500 7.389400
12.631100 6.483300
12.659800 5.922200
12.688500 6.002100
12.717200 5.840300
12.745800 5.445600
12.774500 5.572200
12.803200 5.699700
12.831900 6.235300
12.860500 6.512800
12.889200 6.699000
12.917900 6.571100
12.946600 7.020300
12.975200 7.728300
13.003900 8.719800
13.032600 6.715400
13.061200 6.382700
13.089900 6.768100
13.118600 6.744100
13.147300 6.770400
13.175900 7.024900
13.204600 10.141900
13.233300 5.417300
13.262000 4.459700
13.290600 4.289000
13.319300 4.592900
13.348000 4.593700
13.376600 4.726700
13.405300 4.977000
13.434000 5.227200
13.462700 5.530600
13.491300 5.930400
13.520000 6.280500
13.548700 6.234300
13.577400 6.464200
13.606000 6.962800
13.634700 7.577600
13.663400 7.946800
13.692000 6.775200
13.720700 6.104900
13.749400 5.845800
13.778100 6.423400
13.806700 7.116100
13.835400 7.181800
13.864100 6.747900
13.892800 7.003200
13.921400 7.414400
13.950100 6.848800
13.978800 6.654200
14.007500 6.216100
14.036100 5.458700
14.064800 5.231000
14.093500 5.808000
14.122100 8.291300
14.150800 8.900300
14.179500 8.738000
14.208200 7.502700
14.236800 7.496500
14.265500 6.708800
14.294200 5.693000
14.322900 5.202100
14.351500 9.380800
14.380200 8.235000
14.408900 7.721300
14.437500 7.322900
14.466200 6.798300
14.494900 6.239400
14.523600 5.918400
14.552200 5.625500
14.580900 5.858700
14.609600 5.829700
14.638300 6.406500
14.666900 6.782400
14.695600 6.817800
14.724300 6.569300
14.753000 6.782700
14.781600 6.673200
14.810300 8.748700
14.839000 9.291100
14.867600 7.918800
14.896300 6.785600
14.925000 6.601000
14.953700 5.974300
14.982300 6.146600
15.011000 6.346000
15.039700 8.379100
15.068400 7.844800
15.097000 6.388000
15.125700 5.511600
15.154400 5.349600
15.183000 5.314300
15.211700 5.098400
15.240400 5.117600
15.269100 5.203500
15.297700 5.006800
15.326400 5.013900
15.355100 4.529300
15.383800 4.021900
15.412400 4.271900
15.441100 4.646500
15.469800 6.617300
15.498500 8.840600
15.527100 8.064700
15.555800 6.923300
15.584500 6.458100
15.613100 5.823900
15.641800 5.469900
15.670500 4.877600
15.699200 4.483700
15.727800 4.621000
15.756500 4.839100
15.785200 4.589300
15.813900 4.365800
15.842500 4.227700
15.871200 3.586500
15.899900 3.145700
15.928500 3.239300
15.957200 3.392200
15.985900 3.391400
16.014600 3.383000
16.043200 3.818100
16.071900 3.806100
16.100600 3.596100
16.129300 3.778800
16.157900 4.145600
16.186600 4.226900
16.215300 3.975600
16.243900 4.407700
16.272600 5.544600
16.301300 6.723400
16.330000 7.339600
16.358600 6.884700
16.387300 6.187200
16.416000 5.205900
16.444700 4.730800
16.473300 4.273400
16.502000 3.973900
16.530700 3.808600
16.559400 3.846100
16.588000 4.109100
16.616700 4.481200
16.645400 5.474800
16.674000 6.110800
16.702700 7.699600
16.731400 6.951800
16.760100 6.129200
16.788700 5.433900
16.817400 5.052600
16.846100 4.791200
16.874800 4.527000
16.903400 4.374700
16.932100 4.246300
16.960800 4.209600
16.989400 4.616100
17.018100 6.800100
17.046800 5.657300
17.075500 5.062200
17.104100 4.731800
17.132800 4.462200
17.161500 4.104300
17.190200 3.912200
17.218800 3.850000
17.247500 3.811400
17.276200 3.786500
17.304900 3.791600
17.333500 3.838100
17.362200 4.006200
17.390900 4.258200
17.419500 4.513600
17.448200 5.096100
17.476900 5.286400
17.505600 5.313800
17.534200 5.562800
17.562900 5.693100
17.591600 5.794700
17.620300 5.837600
17.648900 5.773800
17.677600 5.513800
17.706300 5.323800
17.734900 5.190200
17.763600 5.204600
17.792300 5.331900
17.821000 5.244300
17.849600 4.926400
17.878300 4.485300
17.907000 4.099600
17.935700 4.032900
17.964300 4.297300
17.993000 4.408000
18.021700 4.268000
18.050400 4.121800
18.079000 4.076700
18.107700 4.782300
18.136400 4.449600
18.165000 4.598600
18.193700 4.649100
18.222400 5.089400
18.251100 5.394600
18.279700 5.497800
18.308400 5.292700
18.337100 5.036400
18.365800 4.810900
18.394400 4.612000
18.423100 4.585800
18.451800 4.412400
18.480400 4.313200
18.509100 4.298400
18.537800 3.942300
18.566500 3.166000
18.595100 3.038500
18.623800 3.229600
18.652500 3.826800
18.681200 4.685000
18.709800 5.350400
18.738500 5.855800
18.767200 6.264800
18.795800 6.441100
18.824500 6.474300
18.853200 6.402600
18.881900 6.379200
18.910500 6.057200
18.939200 6.248100
18.967900 5.761400
18.996600 5.526100
19.025200 5.298800
19.053900 5.097400
19.082600 4.917600
19.111300 4.824000
19.139900 4.788700
19.168600 4.861700
19.197300 4.691400
19.225900 4.575400
19.254600 4.579800
19.283300 4.943600
19.312000 5.468300
19.340600 6.038900
19.369300 6.914600
19.398000 7.463700
19.426700 8.821100
19.455300 11.372200
19.484000 16.274700
19.512700 54.815900
19.541300 29.005300
19.570000 14.068000
19.598700 10.508400
19.627400 8.923200
19.656000 8.662800
19.684700 8.037700
19.713400 7.367600
19.742100 6.940000
19.770700 6.035900
19.799400 6.028500
19.828100 6.615500
19.856800 6.123900
19.885400 5.902400
19.914100 5.678900
19.942800 5.741500
19.971400 5.478500
20.000100 5.784400
20.028800 5.874500
20.057500 5.850900
20.086100 5.664400
20.114800 5.444800
20.143500 5.401300
20.172200 5.384400
20.200800 5.306000
20.229500 6.941100
20.258200 5.204200
20.286800 5.083500
20.315500 4.816400
20.344200 4.576200
20.372900 4.559700
20.401500 4.634400
20.430200 6.876700
20.458900 6.223600
20.487600 7.012300
20.516200 9.205800
20.544900 7.494900
20.573600 5.600300
20.602300 5.370200
20.630900 5.455000
20.659600 5.721200
20.688300 6.233100
20.716900 6.204300
20.745600 6.759700
20.774300 6.731100
20.803000 6.803500
20.831600 5.939400
20.860300 5.877500
20.889000 5.982800
20.917700 6.196400
20.946300 6.372200
20.975000 6.731400
21.003700 7.255900
21.032300 8.101300
21.061000 7.216100
21.089700 6.156100
21.118400 6.125300
21.147000 6.099000
21.175700 5.971100
21.204400 5.885900
21.233100 5.925200
21.261700 7.149700
21.290400 7.233600
21.319100 8.431400
21.347700 9.434800
21.376400 10.228000
21.405100 9.922800
21.433800 8.070100
21.462400 7.376300
21.491100 8.196100
21.519800 7.587600
21.548500 7.992300
21.577100 9.238000
21.605800 9.718300
21.634500 9.508100
21.663200 7.486600
21.691800 6.829700
21.720500 8.057700
21.749200 9.090500
21.777800 10.771500
21.806500 10.041700
21.835200 9.106300
21.863900 7.993700
21.892500 6.874800
21.921200 6.237200
21.949900 7.105600
21.978600 8.447300
22.007200 9.502200
22.035900 8.107700
22.064600 8.228100
22.093200 8.243000
22.121900 7.856300
22.150600 7.923900
22.179300 7.872900
22.207900 7.556100
22.236600 7.990100
22.265300 8.081300
22.294000 8.106300
22.322600 8.020200
22.351300 8.411200
22.380000 8.629200
22.408700 8.620400
22.437300 8.438000
22.466000 7.597200
22.494700 6.061900
22.523300 5.433200
22.552000 5.122300
22.580700 4.989800
22.609400 5.155100
22.638000 6.205200
22.666700 8.354000
22.695400 7.796400
22.724100 7.695900
22.752700 8.502000
22.781400 7.852500
22.810100 7.712100
22.838700 7.775600
22.867400 7.351000
22.896100 8.098500
22.924800 7.743500
22.953400 7.434600
22.982100 7.242900
23.010800 7.226000
23.039500 7.440100
23.068100 8.015400
23.096800 8.348300
23.125500 8.560200
23.154200 8.737100
23.182800 9.019800
23.211500 7.893200
23.240200 7.150000
23.268800 7.114900
23.297500 6.963000
23.326200 6.609600
23.354900 6.449900
23.383500 6.044300
23.412200 6.209200
23.440900 6.603300
23.469600 7.371800
23.498200 8.302300
23.526900 8.537300
23.555600 8.147800
23.584200 7.788800
23.612900 8.027200
23.641600 7.559700
23.670300 7.219000
23.698900 7.207700
23.727600 7.265500
23.756300 6.993100
23.785000 7.340700
23.813600 7.802300
23.842300 8.031900
23.871000 8.214800
23.899600 7.590700
23.928300 7.633700
23.957000 8.428600
23.985700 8.005000
24.014300 7.246000
24.043000 7.025500
24.071700 7.109400
24.100400 7.328300
24.129000 6.895800
24.157700 6.781100
24.186400 6.965800
24.215100 7.091000
24.243700 6.838400
24.272400 6.408400
24.301100 5.409500
24.329700 5.089900
24.358400 5.293100
24.387100 5.673000
24.415800 6.086900
24.444400 6.330700
24.473100 6.750900
24.501800 6.882300
24.530500 6.676400
24.559100 6.462700
24.587800 6.416100
24.616500 6.361100
24.645100 6.821700
24.673800 7.522500
24.702500 8.674400
24.731200 7.946700
24.759800 7.428100
24.788500 6.899600
24.817200 6.374100
24.845900 6.423400
24.874500 6.173200
24.903200 7.943800
24.931900 7.934500
24.960600 7.452600
24.989200 7.507900
25.017900 7.516800
25.046600 7.614100
25.075200 7.547700
25.103900 7.084900
25.132600 6.876900
25.161300 6.837800
25.189900 6.895200
25.218600 6.896500
25.247300 7.180800
25.276000 9.430900
25.304600 7.601800
25.333300 7.346500
25.362000 10.190100
25.390600 10.249900
25.419300 10.378500
25.448000 8.986900
25.476700 8.097100
25.505300 7.518700
25.534000 7.421700
25.562700 7.670900
25.591400 8.100200
25.620000 8.535800
25.648700 9.642900
25.677400 9.999800
25.706000 8.349700
25.734700 7.272400
25.763400 7.268100
25.792100 7.423300
25.820700 7.889100
25.849400 8.094800
25.878100 7.461500
25.906800 7.757700
25.935400 7.275300
25.964100 6.612700
25.992800 5.693000
26.021500 5.316600
26.050100 6.596600
26.078800 6.039600
26.107500 5.318400
26.136100 4.804600
26.164800 4.877200
26.193500 5.261000
26.222200 5.617500
26.250800 5.943200
26.279500 6.495500
26.308200 8.178200
26.336900 9.467300
26.365500 10.050400
26.394200 9.673900
26.422900 9.029700
26.451500 7.767500
26.480200 7.156300
26.508900 6.283500
26.537600 5.638800
26.566200 6.001500
26.594900 6.596900
26.623600 7.392000
26.652300 8.075100
26.680900 9.321700
26.709600 8.133100
26.738300 7.900100
26.767000 7.786100
26.795600 7.256100
26.824300 7.394300
26.853000 7.687200
26.881600 7.736000
26.910300 8.131600
26.939000 7.636600
26.967700 7.053300
26.996300 6.621900
27.025000 6.517700
27.053700 7.214900
27.082400 7.223900
27.111000 6.764400
27.139700 5.955700
27.168400 6.717800
27.197000 7.019000
27.225700 7.049300
27.254400 7.176700
27.283100 7.712500
27.311700 8.116900
27.340400 8.559100
27.369100 7.234200
27.397800 6.594100
27.426400 7.055500
27.455100 6.999700
27.483800 7.346700
27.512500 7.764500
27.541100 7.400700
27.569800 6.999500
27.598500 6.764500
27.627100 6.429600
27.655800 5.970900
27.684500 5.677300
27.713200 5.681600
27.741800 5.903800
27.770500 6.487900
27.799200 7.657700
27.827900 8.234500
27.856500 7.818700
27.885200 6.983700
27.913900 6.569300
27.942500 6.577000
27.971200 8.316300
27.999900 8.366600
28.028600 8.302300
28.057200 8.266100
28.085900 8.392600
28.114600 8.754600
28.143300 8.513100
28.171900 7.870700
28.200600 7.134300
28.229300 6.685500
28.257900 7.084900
28.286600 6.839400
28.315300 6.870700
28.344000 6.867700
28.372600 6.116400
28.401300 6.015400
28.430000 6.198000
28.458700 6.480700
28.487300 6.747100
28.516000 7.080400
28.544700 6.444600
28.573400 7.096800
28.602000 7.963700
28.630700 8.284800
28.659400 7.977200
28.688000 8.274900
28.716700 7.437800
28.745400 6.684300
28.774100 6.753000
28.802700 6.931200
28.831400 6.997800
28.860100 6.989900
28.888800 6.755900
28.917400 6.259900
28.946100 5.614900
28.974800 5.220000
29.003400 5.212300
29.032100 5.056200
29.060800 4.588600
29.089500 4.950200
29.118100 4.941000
29.146800 4.791800
29.175500 4.386600
29.204200 3.792600
29.232800 3.342900
29.261500 3.056700
29.290200 2.755300
29.318900 2.545100
29.347500 2.389200
29.376200 2.070200
29.404900 1.212000
29.433500 0.484500
29.462200 0.238600
29.490900 0.019200
29.519600 0.000100
29.548200 0.000000
29.576900 0.000000
29.605600 0.000000
29.634300 0.000000
29.662900 0.000000
29.691600 0.000000
29.720300 0.000000
29.748900 0.000000
29.777600 0.000000
29.806300 0.000000
29.835000 0.000000
29.863600 0.000000
29.892300 0.000000
29.921000 0.000000
29.949700 0.000000
29.978300 0.000000
30.007000 0.000000
30.035700 0.000000
30.064400 0.000000
30.093000 0.000000
30.121700 0.000000
30.150400 0.000000
30.179000 0.000000
30.207700 0.000000
30.236400 0.000000
30.265100 0.000000
30.293700 0.000000
30.322400 0.000000
30.351100 0.000000
30.379800 0.000000
30.408400 0.000000
30.437100 0.000000
30.465800 0.000000
30.494400 0.000000
30.523100 0.000000
30.551800 0.000000
30.580500 0.000000
30.609100 0.000000
30.637800 0.000000
30.666500 0.000000
30.695200 0.000000
30.723800 0.000000
30.752500 0.000000
30.781200 0.000000
30.809800 0.000000
30.838500 0.000000
30.867200 0.000000
30.895900 0.000000
30.924500 0.000000
30.953200 0.000000
30.981900 0.000000
31.010600 0.000000
31.039200 0.000000
31.067900 0.000000
31.096600 0.000000
31.125300 0.000000
31.153900 0.000000
31.182600 0.000000
31.211300 0.000000
31.239900 0.000000
31.268600 0.000000
31.297300 0.000000
31.326000 0.000000
31.354600 0.000000
31.383300 0.000000
31.412000 0.000000
31.440700 0.000000
31.469300 0.000000
31.498000 0.000000
31.526700 0.000000
31.555300 0.000000
31.584000 0.000000
31.612700 0.000000
31.641400 0.000000
31.670000 0.000000
31.698700 0.000000
31.727400 0.000000
31.756100 0.000000
31.784700 0.000000
31.813400 0.000000
31.842100 0.000000
31.870800 0.000000
31.899400 0.000000
31.928100 0.000000
31.956800 0.000000
31.985400 0.000000
32.014100 0.000000
32.042800 0.000000
32.071500 0.000000
32.100100 0.000000
32.128800 0.000000
e
