set title 'mp-7558 - Density of States'
set xlabel 'Energy (eV)'
set ylabel 'DOS (states/eV)'
set grid
set xrange [-10:10]
set yrange [0:16.579]
set xzeroaxis lt -1
set terminal png size 800,600
set output 'mp-7558_dos_gnuplot.png'
plot '-' using 1:2 with lines title 'DOS'
-31.028200 0.000000
-31.002200 0.000000
-30.976100 0.000000
-30.950100 0.000000
-30.924000 0.000000
-30.898000 0.000000
-30.872000 0.000000
-30.845900 0.000000
-30.819900 0.000000
-30.793800 0.000000
-30.767800 0.000000
-30.741800 0.000000
-30.715700 0.000000
-30.689700 0.000000
-30.663700 0.000000
-30.637600 0.000000
-30.611600 0.000000
-30.585500 0.000000
-30.559500 0.000000
-30.533500 0.000000
-30.507400 0.000000
-30.481400 0.000000
-30.455300 0.000000
-30.429300 0.000000
-30.403300 0.000000
-30.377200 0.000000
-30.351200 0.000000
-30.325200 0.000000
-30.299100 0.000000
-30.273100 0.000000
-30.247000 0.000000
-30.221000 0.000000
-30.195000 0.000000
-30.168900 0.000000
-30.142900 0.000000
-30.116800 0.000000
-30.090800 0.000000
-30.064800 0.000000
-30.038700 0.000000
-30.012700 0.000000
-29.986600 0.000000
-29.960600 0.000000
-29.934600 0.000000
-29.908500 0.000000
-29.882500 0.000000
-29.856500 0.000000
-29.830400 0.000000
-29.804400 0.000000
-29.778300 0.000000
-29.752300 0.000000
-29.726300 0.000000
-29.700200 0.000000
-29.674200 0.000000
-29.648100 0.000000
-29.622100 0.000000
-29.596100 0.000000
-29.570000 0.000000
-29.544000 0.000000
-29.517900 0.000000
-29.491900 0.000000
-29.465900 0.000000
-29.439800 0.000000
-29.413800 0.000000
-29.387800 0.000000
-29.361700 0.000000
-29.335700 0.000000
-29.309600 0.000000
-29.283600 0.000000
-29.257600 0.000000
-29.231500 0.000000
-29.205500 0.000000
-29.179400 0.000000
-29.153400 0.000000
-29.127400 0.000000
-29.101300 0.000000
-29.075300 0.000000
-29.049300 0.000000
-29.023200 0.000000
-28.997200 0.000000
-28.971100 0.000000
-28.945100 0.000000
-28.919100 0.000000
-28.893000 0.000000
-28.867000 0.000000
-28.840900 0.000000
-28.814900 0.000000
-28.788900 0.000000
-28.762800 0.000000
-28.736800 0.000000
-28.710700 0.000000
-28.684700 0.000000
-28.658700 79.896100
-28.632600 113.800800
-28.606600 90.071200
-28.580600 135.801100
-28.554500 72.643700
-28.528500 54.130200
-28.502400 192.628800
-28.476400 0.000000
-28.450400 0.000000
-28.424300 0.000000
-28.398300 0.000000
-28.372200 0.000000
-28.346200 0.000000
-28.320200 0.000000
-28.294100 0.000000
-28.268100 0.000000
-28.242000 0.000000
-28.216000 0.000000
-28.190000 0.000000
-28.163900 0.000000
-28.137900 0.000000
-28.111900 0.000000
-28.085800 0.000000
-28.059800 0.000000
-28.033700 0.000000
-28.007700 0.000000
-27.981700 0.000000
-27.955600 0.000000
-27.929600 0.000000
-27.903500 0.000000
-27.877500 0.000000
-27.851500 0.000000
-27.825400 0.000000
-27.799400 0.000000
-27.773400 0.000000
-27.747300 0.000000
-27.721300 0.000000
-27.695200 0.000000
-27.669200 0.000000
-27.643200 0.000000
-27.617100 0.000000
-27.591100 0.000000
-27.565000 0.000000
-27.539000 0.000000
-27.513000 0.000000
-27.486900 0.000000
-27.460900 0.000000
-27.434800 0.000000
-27.408800 0.000000
-27.382800 0.000000
-27.356700 0.000000
-27.330700 0.000000
-27.304700 0.000000
-27.278600 0.000000
-27.252600 0.000000
-27.226500 0.000000
-27.200500 0.000000
-27.174500 0.000000
-27.148400 0.000000
-27.122400 0.000000
-27.096300 0.000000
-27.070300 0.000000
-27.044300 0.000000
-27.018200 0.000000
-26.992200 0.000000
-26.966100 0.000000
-26.940100 0.000000
-26.914100 0.000000
-26.888000 0.000000
-26.862000 0.000000
-26.836000 0.000000
-26.809900 0.000000
-26.783900 0.000000
-26.757800 0.000000
-26.731800 0.000000
-26.705800 0.000000
-26.679700 0.000000
-26.653700 0.000000
-26.627600 0.000000
-26.601600 0.000000
-26.575600 0.000000
-26.549500 0.000000
-26.523500 0.000000
-26.497500 0.000000
-26.471400 0.000000
-26.445400 0.000000
-26.419300 0.000000
-26.393300 0.000000
-26.367300 0.000000
-26.341200 0.000000
-26.315200 0.000000
-26.289100 0.000000
-26.263100 0.000000
-26.237100 0.000000
-26.211000 0.000000
-26.185000 0.000000
-26.158900 0.000000
-26.132900 0.000000
-26.106900 0.000000
-26.080800 0.000000
-26.054800 0.000000
-26.028800 0.000000
-26.002700 0.000000
-25.976700 0.000000
-25.950600 0.000000
-25.924600 0.000000
-25.898600 0.000000
-25.872500 0.000000
-25.846500 0.000000
-25.820400 0.000000
-25.794400 0.000000
-25.768400 0.000000
-25.742300 0.000000
-25.716300 0.000000
-25.690200 0.000000
-25.664200 0.000000
-25.638200 0.000000
-25.612100 0.000000
-25.586100 0.000000
-25.560100 0.000000
-25.534000 0.000000
-25.508000 0.000000
-25.481900 0.000000
-25.455900 0.000000
-25.429900 0.000000
-25.403800 0.000000
-25.377800 0.000000
-25.351700 0.000000
-25.325700 0.000000
-25.299700 0.000000
-25.273600 0.000000
-25.247600 0.000000
-25.221600 0.000000
-25.195500 0.000000
-25.169500 0.000000
-25.143400 0.000000
-25.117400 0.000000
-25.091400 0.000000
-25.065300 0.000000
-25.039300 0.000000
-25.013200 0.000000
-24.987200 0.000000
-24.961200 0.000000
-24.935100 0.000000
-24.909100 0.000000
-24.883000 0.000000
-24.857000 0.000000
-24.831000 0.000000
-24.804900 0.000000
-24.778900 0.000000
-24.752900 0.000000
-24.726800 0.000000
-24.700800 0.000000
-24.674700 0.000000
-24.648700 0.000000
-24.622700 0.000000
-24.596600 0.000000
-24.570600 0.000000
-24.544500 0.000000
-24.518500 0.000000
-24.492500 0.000000
-24.466400 0.000000
-24.440400 0.000000
-24.414300 0.000000
-24.388300 0.000000
-24.362300 0.000000
-24.336200 0.000000
-24.310200 0.000000
-24.284200 0.000000
-24.258100 0.000000
-24.232100 0.000000
-24.206000 0.000000
-24.180000 0.000000
-24.154000 0.000000
-24.127900 0.000000
-24.101900 0.000000
-24.075800 0.000000
-24.049800 0.000000
-24.023800 0.000000
-23.997700 0.000000
-23.971700 0.000000
-23.945700 0.000000
-23.919600 0.000000
-23.893600 0.000000
-23.867500 0.000000
-23.841500 0.000000
-23.815500 0.000000
-23.789400 0.000000
-23.763400 0.000000
-23.737300 0.000000
-23.711300 0.000000
-23.685300 0.000000
-23.659200 0.000000
-23.633200 0.000000
-23.607100 0.000000
-23.581100 0.000000
-23.555100 0.000000
-23.529000 0.000000
-23.503000 0.000000
-23.477000 0.000000
-23.450900 0.000000
-23.424900 0.000000
-23.398800 0.000000
-23.372800 0.000000
-23.346800 0.000000
-23.320700 0.000000
-23.294700 0.000000
-23.268600 0.000000
-23.242600 0.000000
-23.216600 0.000000
-23.190500 0.000000
-23.164500 0.000000
-23.138400 0.000000
-23.112400 0.000000
-23.086400 0.000000
-23.060300 0.000000
-23.034300 0.000000
-23.008300 0.000000
-22.982200 0.000000
-22.956200 0.000000
-22.930100 0.000000
-22.904100 0.000000
-22.878100 0.000000
-22.852000 0.000000
-22.826000 0.000000
-22.799900 0.000000
-22.773900 0.000000
-22.747900 0.000000
-22.721800 0.000000
-22.695800 0.000000
-22.669800 0.000000
-22.643700 0.000000
-22.617700 0.000000
-22.591600 0.000000
-22.565600 0.000000
-22.539600 0.000000
-22.513500 0.000000
-22.487500 0.000000
-22.461400 0.000000
-22.435400 0.000000
-22.409400 0.000000
-22.383300 0.000000
-22.357300 0.000000
-22.331200 0.000000
-22.305200 0.000000
-22.279200 0.000000
-22.253100 0.000000
-22.227100 0.000000
-22.201100 0.000000
-22.175000 0.000000
-22.149000 0.000000
-22.122900 0.000000
-22.096900 0.000000
-22.070900 0.000000
-22.044800 0.000000
-22.018800 0.000000
-21.992700 0.000000
-21.966700 0.000000
-21.940700 0.000000
-21.914600 0.000000
-21.888600 0.000000
-21.862500 0.000000
-21.836500 0.000000
-21.810500 0.000000
-21.784400 0.000000
-21.758400 0.000000
-21.732400 0.000000
-21.706300 0.000000
-21.680300 0.000000
-21.654200 0.000000
-21.628200 0.000000
-21.602200 0.000000
-21.576100 0.000000
-21.550100 0.000000
-21.524000 0.000000
-21.498000 0.000000
-21.472000 0.000000
-21.445900 0.000000
-21.419900 0.000000
-21.393900 0.000000
-21.367800 0.000000
-21.341800 0.000000
-21.315700 0.000000
-21.289700 0.000000
-21.263700 0.000000
-21.237600 0.000000
-21.211600 0.000000
-21.185500 0.000000
-21.159500 0.000000
-21.133500 0.000000
-21.107400 0.000000
-21.081400 0.000000
-21.055300 0.000000
-21.029300 0.000000
-21.003300 0.000000
-20.977200 0.000000
-20.951200 0.000000
-20.925200 0.000000
-20.899100 0.000000
-20.873100 0.000000
-20.847000 0.000000
-20.821000 0.000000
-20.795000 0.000000
-20.768900 0.000000
-20.742900 0.000000
-20.716800 0.000000
-20.690800 0.000000
-20.664800 0.000000
-20.638700 0.000000
-20.612700 0.000000
-20.586600 0.000000
-20.560600 0.000000
-20.534600 0.000000
-20.508500 0.000000
-20.482500 0.000000
-20.456500 0.000000
-20.430400 0.000000
-20.404400 0.000000
-20.378300 0.000000
-20.352300 0.000000
-20.326300 0.000000
-20.300200 0.000000
-20.274200 0.000000
-20.248100 0.000000
-20.222100 0.000000
-20.196100 0.000000
-20.170000 0.000000
-20.144000 0.000000
-20.118000 0.000000
-20.091900 0.000000
-20.065900 0.000000
-20.039800 0.000000
-20.013800 0.000000
-19.987800 0.000000
-19.961700 0.000000
-19.935700 0.000000
-19.909600 0.000000
-19.883600 0.000000
-19.857600 0.000000
-19.831500 0.000000
-19.805500 0.000000
-19.779400 0.000000
-19.753400 0.000000
-19.727400 0.000000
-19.701300 0.000000
-19.675300 0.000000
-19.649300 0.000000
-19.623200 0.000000
-19.597200 0.000000
-19.571100 0.000000
-19.545100 0.000000
-19.519100 0.000000
-19.493000 0.000000
-19.467000 0.000000
-19.440900 0.000000
-19.414900 0.000000
-19.388900 0.000000
-19.362800 0.000000
-19.336800 0.000000
-19.310700 0.000000
-19.284700 0.000000
-19.258700 0.000000
-19.232600 0.000000
-19.206600 0.000000
-19.180600 0.000000
-19.154500 0.000000
-19.128500 0.000000
-19.102400 0.000000
-19.076400 0.000000
-19.050400 0.000000
-19.024300 0.000000
-18.998300 0.000000
-18.972200 0.000000
-18.946200 0.000000
-18.920200 0.000000
-18.894100 0.000000
-18.868100 0.000000
-18.842100 0.000000
-18.816000 0.000000
-18.790000 0.000000
-18.763900 0.000000
-18.737900 63.154300
-18.711900 88.666000
-18.685800 326.601100
-18.659800 107.159300
-18.633700 366.209800
-18.607700 250.812400
-18.581700 278.147800
-18.555600 578.214100
-18.529600 130.024100
-18.503500 0.000000
-18.477500 0.000000
-18.451500 0.000000
-18.425400 0.000000
-18.399400 0.000000
-18.373400 0.000000
-18.347300 0.000000
-18.321300 0.000000
-18.295200 0.000000
-18.269200 0.000000
-18.243200 0.000000
-18.217100 0.000000
-18.191100 0.000000
-18.165000 0.000000
-18.139000 0.000000
-18.113000 0.000000
-18.086900 0.000000
-18.060900 0.000000
-18.034800 0.000000
-18.008800 0.000000
-17.982800 0.000000
-17.956700 0.000000
-17.930700 0.000000
-17.904700 0.000000
-17.878600 0.000000
-17.852600 0.000000
-17.826500 0.000000
-17.800500 0.000000
-17.774500 0.000000
-17.748400 0.000000
-17.722400 0.000000
-17.696300 0.000000
-17.670300 0.000000
-17.644300 0.000000
-17.618200 0.000000
-17.592200 0.000000
-17.566200 0.000000
-17.540100 0.000000
-17.514100 0.000000
-17.488000 0.000000
-17.462000 0.000000
-17.436000 0.000000
-17.409900 0.000000
-17.383900 0.000000
-17.357800 0.000000
-17.331800 0.000000
-17.305800 0.000000
-17.279700 0.000000
-17.253700 0.000000
-17.227600 0.000000
-17.201600 0.000000
-17.175600 0.000000
-17.149500 0.000000
-17.123500 0.000000
-17.097500 0.000000
-17.071400 0.000000
-17.045400 0.000000
-17.019300 0.000000
-16.993300 0.000000
-16.967300 0.000000
-16.941200 0.000000
-16.915200 0.000000
-16.889100 0.000000
-16.863100 0.000000
-16.837100 0.000000
-16.811000 0.000000
-16.785000 0.000000
-16.758900 0.000000
-16.732900 0.000000
-16.706900 0.000000
-16.680800 0.000000
-16.654800 0.000000
-16.628800 0.000000
-16.602700 0.000000
-16.576700 0.000000
-16.550600 0.000000
-16.524600 0.000000
-16.498600 0.000000
-16.472500 0.000000
-16.446500 0.000000
-16.420400 0.000000
-16.394400 0.000000
-16.368400 0.000000
-16.342300 0.000000
-16.316300 0.000000
-16.290300 0.000000
-16.264200 0.000000
-16.238200 0.000000
-16.212100 0.000000
-16.186100 0.000000
-16.160100 0.000000
-16.134000 0.000000
-16.108000 0.000000
-16.081900 0.000000
-16.055900 0.000000
-16.029900 0.000000
-16.003800 0.000000
-15.977800 0.000000
-15.951700 0.000000
-15.925700 0.000000
-15.899700 0.000000
-15.873600 0.000000
-15.847600 0.000000
-15.821600 0.000000
-15.795500 0.000000
-15.769500 0.000000
-15.743400 0.000000
-15.717400 0.000000
-15.691400 0.000000
-15.665300 0.000000
-15.639300 0.000000
-15.613200 0.000000
-15.587200 0.000000
-15.561200 0.000000
-15.535100 0.000000
-15.509100 0.000000
-15.483000 0.000000
-15.457000 0.000000
-15.431000 0.000000
-15.404900 0.000000
-15.378900 0.000000
-15.352900 0.000000
-15.326800 0.000000
-15.300800 0.000000
-15.274700 0.000000
-15.248700 0.000000
-15.222700 0.000000
-15.196600 0.000000
-15.170600 0.000000
-15.144500 0.000000
-15.118500 0.000000
-15.092500 0.000000
-15.066400 0.000000
-15.040400 0.000000
-15.014400 0.000000
-14.988300 0.000000
-14.962300 0.000000
-14.936200 0.000000
-14.910200 0.000000
-14.884200 0.000000
-14.858100 0.000000
-14.832100 0.000000
-14.806000 0.000000
-14.780000 0.000000
-14.754000 0.000000
-14.727900 0.000000
-14.701900 0.000000
-14.675800 0.000000
-14.649800 0.000000
-14.623800 0.000000
-14.597700 0.000000
-14.571700 0.000000
-14.545700 0.000000
-14.519600 0.000000
-14.493600 0.000000
-14.467500 0.000000
-14.441500 0.000000
-14.415500 0.000000
-14.389400 0.000000
-14.363400 0.000000
-14.337300 0.000000
-14.311300 0.000000
-14.285300 0.000000
-14.259200 0.000000
-14.233200 0.000000
-14.207100 0.000000
-14.181100 0.000000
-14.155100 0.000000
-14.129000 0.000000
-14.103000 0.000000
-14.077000 0.000000
-14.050900 0.000000
-14.024900 0.000000
-13.998800 0.000000
-13.972800 0.000000
-13.946800 0.000000
-13.920700 0.000000
-13.894700 0.000000
-13.868600 0.000000
-13.842600 0.000000
-13.816600 0.000000
-13.790500 0.000000
-13.764500 0.000000
-13.738500 0.000000
-13.712400 0.000000
-13.686400 0.000000
-13.660300 0.000000
-13.634300 0.000000
-13.608300 0.000000
-13.582200 0.000000
-13.556200 0.000000
-13.530100 0.000000
-13.504100 0.000000
-13.478100 0.000000
-13.452000 0.000000
-13.426000 0.000000
-13.399900 0.000000
-13.373900 0.000000
-13.347900 0.000000
-13.321800 0.000000
-13.295800 0.000000
-13.269800 0.000000
-13.243700 0.000000
-13.217700 0.000000
-13.191600 0.000000
-13.165600 0.000000
-13.139600 0.000000
-13.113500 0.000000
-13.087500 0.000000
-13.061400 0.000000
-13.035400 0.000000
-13.009400 0.000000
-12.983300 0.000000
-12.957300 0.000000
-12.931200 0.000000
-12.905200 0.000000
-12.879200 0.000000
-12.853100 0.000000
-12.827100 0.000000
-12.801100 0.000000
-12.775000 0.000000
-12.749000 0.000000
-12.722900 0.000000
-12.696900 0.000000
-12.670900 0.000000
-12.644800 0.000000
-12.618800 0.000000
-12.592700 0.000000
-12.566700 0.000000
-12.540700 0.000000
-12.514600 0.000000
-12.488600 0.000000
-12.462600 0.000000
-12.436500 0.000000
-12.410500 0.000000
-12.384400 0.000000
-12.358400 0.000000
-12.332400 0.000000
-12.306300 0.000000
-12.280300 0.000000
-12.254200 0.000000
-12.228200 0.000000
-12.202200 0.000000
-12.176100 0.000000
-12.150100 0.000000
-12.124000 0.000000
-12.098000 0.000000
-12.072000 0.000000
-12.045900 0.000000
-12.019900 0.000000
-11.993900 0.000000
-11.967800 0.000000
-11.941800 0.000000
-11.915700 0.000000
-11.889700 0.000000
-11.863700 0.000000
-11.837600 0.000000
-11.811600 0.000000
-11.785500 0.000000
-11.759500 0.000000
-11.733500 0.000000
-11.707400 0.000000
-11.681400 0.000000
-11.655300 0.000000
-11.629300 0.000000
-11.603300 0.000000
-11.577200 0.000000
-11.551200 0.000000
-11.525200 0.000000
-11.499100 0.000000
-11.473100 0.000000
-11.447000 0.000000
-11.421000 0.000000
-11.395000 0.000000
-11.368900 0.000000
-11.342900 0.000000
-11.316800 0.000000
-11.290800 0.000000
-11.264800 0.000000
-11.238700 0.000000
-11.212700 0.000000
-11.186700 0.000000
-11.160600 0.000000
-11.134600 0.000000
-11.108500 0.000000
-11.082500 0.000000
-11.056500 0.000000
-11.030400 0.000000
-11.004400 0.000000
-10.978300 0.000000
-10.952300 0.000000
-10.926300 0.000000
-10.900200 0.000000
-10.874200 0.000000
-10.848100 0.000000
-10.822100 0.000000
-10.796100 0.000000
-10.770000 0.000000
-10.744000 0.000000
-10.718000 0.000000
-10.691900 0.000000
-10.665900 0.000000
-10.639800 0.000000
-10.613800 0.000000
-10.587800 0.000000
-10.561700 0.000000
-10.535700 0.000000
-10.509600 0.000000
-10.483600 0.000000
-10.457600 0.000000
-10.431500 0.000000
-10.405500 0.000000
-10.379400 0.000000
-10.353400 0.000000
-10.327400 0.000000
-10.301300 0.000000
-10.275300 0.000000
-10.249300 0.000000
-10.223200 0.000000
-10.197200 0.000000
-10.171100 0.000000
-10.145100 0.000000
-10.119100 0.000000
-10.093000 0.000000
-10.067000 0.000000
-10.040900 0.000000
-10.014900 0.000000
-9.988900 0.000000
-9.962800 0.000000
-9.936800 0.000000
-9.910800 0.000000
-9.884700 0.000000
-9.858700 0.000000
-9.832600 0.000000
-9.806600 0.000000
-9.780600 0.000000
-9.754500 0.000000
-9.728500 0.000000
-9.702400 0.000000
-9.676400 0.000000
-9.650400 0.000000
-9.624300 0.000000
-9.598300 0.000000
-9.572200 0.000000
-9.546200 0.000000
-9.520200 0.000000
-9.494100 0.000000
-9.468100 0.000000
-9.442100 0.000000
-9.416000 0.000000
-9.390000 0.000000
-9.363900 0.000000
-9.337900 0.000000
-9.311900 0.000000
-9.285800 0.000000
-9.259800 0.000000
-9.233700 0.000000
-9.207700 0.000000
-9.181700 0.000000
-9.155600 0.000000
-9.129600 0.000000
-9.103500 0.000000
-9.077500 0.000000
-9.051500 0.000000
-9.025400 0.000000
-8.999400 0.000000
-8.973400 0.000000
-8.947300 0.000000
-8.921300 0.000000
-8.895200 0.000000
-8.869200 0.000000
-8.843200 0.000000
-8.817100 0.000000
-8.791100 0.000000
-8.765000 0.000000
-8.739000 0.000000
-8.713000 0.000000
-8.686900 0.000000
-8.660900 0.000000
-8.634900 0.000000
-8.608800 0.000000
-8.582800 0.000000
-8.556700 0.000000
-8.530700 0.000000
-8.504700 0.000000
-8.478600 0.000000
-8.452600 0.000000
-8.426500 0.000000
-8.400500 0.000000
-8.374500 0.000000
-8.348400 0.000000
-8.322400 0.000000
-8.296300 0.000000
-8.270300 0.000000
-8.244300 0.000000
-8.218200 0.000000
-8.192200 0.000000
-8.166200 0.000000
-8.140100 0.000000
-8.114100 0.000000
-8.088000 0.000000
-8.062000 0.000000
-8.036000 0.000000
-8.009900 0.000000
-7.983900 0.000000
-7.957800 0.000000
-7.931800 0.000000
-7.905800 0.000000
-7.879700 0.000000
-7.853700 0.000000
-7.827600 0.000000
-7.801600 0.000000
-7.775600 0.000000
-7.749500 0.000000
-7.723500 0.000000
-7.697500 0.000000
-7.671400 0.000000
-7.645400 0.000000
-7.619300 0.000000
-7.593300 0.000000
-7.567300 0.000000
-7.541200 0.000000
-7.515200 0.000000
-7.489100 0.000000
-7.463100 0.000000
-7.437100 0.000000
-7.411000 0.000000
-7.385000 0.000000
-7.359000 0.000000
-7.332900 0.000000
-7.306900 0.004900
-7.280800 0.079100
-7.254800 0.196600
-7.228800 0.226600
-7.202700 0.252100
-7.176700 0.298400
-7.150600 0.345900
-7.124600 0.380900
-7.098600 0.395700
-7.072500 0.412500
-7.046500 0.439100
-7.020400 0.465900
-6.994400 0.492700
-6.968400 0.519800
-6.942300 0.543000
-6.916300 0.562300
-6.890300 0.582900
-6.864200 0.598200
-6.838200 0.615800
-6.812100 0.634300
-6.786100 0.652900
-6.760100 0.673000
-6.734000 0.693800
-6.708000 0.715700
-6.681900 0.735200
-6.655900 0.751000
-6.629900 0.767700
-6.603800 0.816500
-6.577800 0.907200
-6.551700 0.874600
-6.525700 0.885900
-6.499700 0.896600
-6.473600 0.907100
-6.447600 0.905700
-6.421600 0.901800
-6.395500 0.908600
-6.369500 0.915500
-6.343400 0.919900
-6.317400 0.924300
-6.291400 0.928900
-6.265300 0.925700
-6.239300 0.929200
-6.213200 1.017300
-6.187200 1.039600
-6.161200 1.063600
-6.135100 1.088900
-6.109100 1.115100
-6.083100 1.135100
-6.057000 1.145100
-6.031000 1.160200
-6.004900 1.178900
-5.978900 1.200200
-5.952900 1.223400
-5.926800 1.248000
-5.900800 1.264900
-5.874700 1.287000
-5.848700 1.309800
-5.822700 1.335700
-5.796600 1.366500
-5.770600 1.399000
-5.744500 1.432200
-5.718500 1.465900
-5.692500 1.502800
-5.666400 1.569700
-5.640400 1.656700
-5.614400 1.675700
-5.588300 1.694700
-5.562300 1.717100
-5.536200 1.944000
-5.510200 1.770400
-5.484200 1.740400
-5.458100 1.726600
-5.432100 1.710700
-5.406000 1.670900
-5.380000 1.645700
-5.354000 1.627300
-5.327900 1.604300
-5.301900 1.622600
-5.275800 1.692200
-5.249800 1.654000
-5.223800 1.516500
-5.197700 1.490100
-5.171700 1.459500
-5.145700 1.420000
-5.119600 1.380000
-5.093600 1.387900
-5.067500 1.316800
-5.041500 1.257700
-5.015500 1.516800
-4.989400 1.173100
-4.963400 1.214100
-4.937300 1.324100
-4.911300 1.457200
-4.885300 1.459500
-4.859200 1.514500
-4.833200 1.602500
-4.807200 1.713000
-4.781100 2.008400
-4.755100 2.204100
-4.729000 2.240500
-4.703000 2.447200
-4.677000 2.762700
-4.650900 2.829100
-4.624900 2.718100
-4.598800 2.608600
-4.572800 2.476600
-4.546800 2.555200
-4.520700 2.398900
-4.494700 2.474400
-4.468600 2.639900
-4.442600 2.120900
-4.416600 1.669700
-4.390500 1.510900
-4.364500 1.486000
-4.338500 1.614200
-4.312400 1.713400
-4.286400 1.704300
-4.260300 1.807500
-4.234300 1.866700
-4.208300 1.992100
-4.182200 1.960200
-4.156200 2.018300
-4.130100 2.029100
-4.104100 1.980500
-4.078100 1.837700
-4.052000 1.783600
-4.026000 1.864200
-3.999900 1.828000
-3.973900 1.765500
-3.947900 1.711000
-3.921800 1.850100
-3.895800 1.869700
-3.869800 1.794600
-3.843700 1.802000
-3.817700 1.819500
-3.791600 1.862800
-3.765600 1.948100
-3.739600 2.075700
-3.713500 2.206000
-3.687500 2.242100
-3.661400 2.251500
-3.635400 2.220500
-3.609400 2.298800
-3.583300 2.185100
-3.557300 2.203800
-3.531300 2.369600
-3.505200 2.697600
-3.479200 2.838000
-3.453100 2.613200
-3.427100 2.686300
-3.401100 2.694400
-3.375000 2.334300
-3.349000 2.219800
-3.322900 2.156800
-3.296900 2.162000
-3.270900 2.169000
-3.244800 2.182400
-3.218800 2.206600
-3.192700 2.259300
-3.166700 2.358600
-3.140700 2.465000
-3.114600 2.621600
-3.088600 2.969100
-3.062600 3.609900
-3.036500 3.696900
-3.010500 3.335900
-2.984400 2.912800
-2.958400 2.575100
-2.932400 2.373100
-2.906300 2.234200
-2.880300 2.107900
-2.854200 1.989400
-2.828200 1.866200
-2.802200 1.765500
-2.776100 1.718300
-2.750100 1.677100
-2.724000 1.640100
-2.698000 1.606000
-2.672000 1.615100
-2.645900 1.624000
-2.619900 1.592900
-2.593900 1.570300
-2.567800 1.577500
-2.541800 1.625900
-2.515700 1.684500
-2.489700 1.801800
-2.463700 1.885000
-2.437600 1.984800
-2.411600 2.378800
-2.385500 2.602000
-2.359500 2.207400
-2.333500 2.323500
-2.307400 2.480900
-2.281400 2.678300
-2.255400 2.918200
-2.229300 3.075400
-2.203300 3.177700
-2.177200 3.241400
-2.151200 3.414600
-2.125200 3.803700
-2.099100 3.830300
-2.073100 3.705800
-2.047000 3.265800
-2.021000 2.910600
-1.995000 2.627900
-1.968900 2.304800
-1.942900 1.963800
-1.916800 1.865700
-1.890800 1.780600
-1.864800 1.711600
-1.838700 1.639000
-1.812700 1.546600
-1.786700 1.513700
-1.760600 1.506500
-1.734600 1.594900
-1.708500 2.043900
-1.682500 2.949900
-1.656500 4.095800
-1.630400 4.858900
-1.604400 3.652600
-1.578300 3.488400
-1.552300 3.509300
-1.526300 3.536000
-1.500200 3.411100
-1.474200 3.267000
-1.448100 3.084200
-1.422100 2.902600
-1.396100 2.739500
-1.370000 2.568500
-1.344000 2.488800
-1.318000 2.398300
-1.291900 2.288900
-1.265900 2.174800
-1.239800 2.055600
-1.213800 2.090300
-1.187800 1.962300
-1.161700 1.838700
-1.135700 1.715100
-1.109600 1.357800
-1.083600 1.231300
-1.057600 1.155700
-1.031500 1.113800
-1.005500 1.065800
-0.979500 1.019900
-0.953400 0.971400
-0.927400 0.917000
-0.901300 0.852200
-0.875300 0.815100
-0.849300 0.782400
-0.823200 0.751800
-0.797200 0.724300
-0.771100 0.699600
-0.745100 0.675900
-0.719100 0.652400
-0.693000 0.629100
-0.667000 0.605800
-0.640900 0.583400
-0.614900 0.559700
-0.588900 0.533400
-0.562800 0.508600
-0.536800 0.484100
-0.510800 0.461000
-0.484700 0.439200
-0.458700 0.421300
-0.432600 0.404600
-0.406600 0.388400
-0.380600 0.372900
-0.354500 0.357900
-0.328500 0.343400
-0.302400 0.443800
-0.276400 0.491900
-0.250400 0.692700
-0.224300 0.761100
-0.198300 0.827200
-0.172200 0.856300
-0.146200 0.866500
-0.120200 0.897600
-0.094100 0.914500
-0.068100 0.892500
-0.042100 0.950400
-0.016000 1.019900
0.010000 1.092200
0.036100 1.168200
0.062100 1.242700
0.088100 1.296700
0.114200 1.384000
0.140200 1.590200
0.166300 1.486600
0.192300 1.415000
0.218300 1.418400
0.244400 1.446500
0.270400 1.504600
0.296400 1.575600
0.322500 1.655500
0.348500 1.761000
0.374600 1.879900
0.400600 2.184200
0.426600 2.375400
0.452700 2.451800
0.478700 2.690800
0.504800 3.030000
0.530800 3.426400
0.556800 3.622600
0.582900 3.894600
0.608900 4.229500
0.635000 4.845200
0.661000 5.482700
0.687000 5.606900
0.713100 5.711000
0.739100 5.752500
0.765100 5.223800
0.791200 3.413400
0.817200 2.679700
0.843300 2.549000
0.869300 2.429800
0.895300 2.458200
0.921400 2.357400
0.947400 2.881000
0.973500 3.954600
0.999500 4.734900
1.025500 4.385000
1.051600 4.718800
1.077600 5.078700
1.103700 5.201900
1.129700 5.360400
1.155700 4.757800
1.181800 3.922200
1.207800 3.362500
1.233800 3.110200
1.259900 2.957500
1.285900 2.658600
1.312000 2.384600
1.338000 2.048500
1.364000 1.970700
1.390100 2.215600
1.416100 2.419600
1.442200 2.503000
1.468200 2.524700
1.494200 2.755600
1.520300 3.122000
1.546300 3.276600
1.572300 5.868200
1.598400 4.325100
1.624400 4.269200
1.650500 4.287100
1.676500 4.366900
1.702500 4.575400
1.728600 4.831900
1.754600 4.832100
1.780700 4.856900
1.806700 5.240900
1.832700 4.444800
1.858800 4.061600
1.884800 3.652800
1.910900 2.783900
1.936900 2.618200
1.962900 2.528100
1.989000 2.371000
2.015000 2.493000
2.041000 2.739200
2.067100 3.016000
2.093100 3.431600
2.119200 3.872600
2.145200 4.013100
2.171200 4.032800
2.197300 3.901300
2.223300 3.838800
2.249400 3.853500
2.275400 3.847100
2.301400 3.721700
2.327500 3.589500
2.353500 3.491900
2.379600 3.771800
2.405600 3.736500
2.431600 3.161600
2.457700 3.143200
2.483700 3.118800
2.509700 3.137700
2.535800 3.175100
2.561800 3.385600
2.587900 3.593300
2.613900 3.973100
2.639900 3.930500
2.666000 4.202700
2.692000 4.616500
2.718100 4.704700
2.744100 4.594300
2.770100 4.276700
2.796200 3.908100
2.822200 3.650200
2.848300 3.613500
2.874300 3.825400
2.900300 3.519800
2.926400 3.405900
2.952400 3.357500
2.978400 3.430500
3.004500 3.504600
3.030500 3.526300
3.056600 3.832700
3.082600 4.136400
3.108600 4.480700
3.134700 5.086400
3.160700 5.116300
3.186800 5.114200
3.212800 5.401800
3.238800 5.769800
3.264900 5.936000
3.290900 6.053000
3.316900 5.689300
3.343000 5.706400
3.369000 5.784800
3.395100 5.568800
3.421100 5.605600
3.447100 7.409500
3.473200 10.237800
3.499200 10.835500
3.525300 8.473000
3.551300 7.702200
3.577300 7.616200
3.603400 6.806700
3.629400 11.233500
3.655500 6.796200
3.681500 6.237600
3.707500 5.880900
3.733600 5.901900
3.759600 7.523000
3.785600 8.151500
3.811700 8.863900
3.837700 11.142700
3.863800 11.273600
3.889800 12.484000
3.915800 10.203000
3.941900 11.735500
3.967900 11.412100
3.994000 10.871600
4.020000 10.899100
4.046000 8.802000
4.072100 8.835900
4.098100 9.101300
4.124200 10.828500
4.150200 13.511900
4.176200 15.071500
4.202300 12.531400
4.228300 10.687800
4.254300 11.630500
4.280400 7.359200
4.306400 8.275100
4.332500 6.388000
4.358500 6.297400
4.384500 5.353200
4.410600 6.741800
4.436600 5.383100
4.462700 5.254700
4.488700 5.026400
4.514700 5.109000
4.540800 5.732000
4.566800 5.719400
4.592800 5.448000
4.618900 5.007300
4.644900 4.699800
4.671000 4.426200
4.697000 4.139500
4.723000 3.992400
4.749100 3.930500
4.775100 3.912400
4.801200 3.895300
4.827200 3.824700
4.853200 3.736700
4.879300 3.747300
4.905300 3.787700
4.931400 3.809700
4.957400 3.687900
4.983400 3.637800
5.009500 3.599400
5.035500 3.626900
5.061500 3.157400
5.087600 3.180600
5.113600 3.196200
5.139700 3.197100
5.165700 3.091700
5.191700 2.939300
5.217800 2.838500
5.243800 2.718400
5.269900 2.584500
5.295900 2.429700
5.321900 2.416800
5.348000 2.394500
5.374000 2.643300
5.400100 2.669300
5.426100 2.466500
5.452100 2.594400
5.478200 2.191500
5.504200 2.008500
5.530200 1.850000
5.556300 1.711300
5.582300 1.622400
5.608400 1.461400
5.634400 1.458800
5.660400 1.471400
5.686500 1.480900
5.712500 1.495500
5.738600 1.509700
5.764600 1.524000
5.790600 1.934300
5.816700 2.609200
5.842700 2.762300
5.868700 3.182300
5.894800 3.614900
5.920800 4.147600
5.946900 4.422500
5.972900 4.915500
5.998900 4.836900
6.025000 4.412000
6.051000 3.987700
6.077100 3.616400
6.103100 3.467600
6.129100 3.252300
6.155200 3.306500
6.181200 2.773600
6.207300 2.572600
6.233300 2.567800
6.259300 2.459500
6.285400 2.563200
6.311400 2.563600
6.337400 2.577800
6.363500 2.655100
6.389500 2.634100
6.415600 2.671100
6.441600 2.702700
6.467600 2.684500
6.493700 2.666600
6.519700 2.642100
6.545800 2.565800
6.571800 2.572400
6.597800 2.531400
6.623900 2.597300
6.649900 2.605700
6.676000 2.613100
6.702000 2.699700
6.728000 2.748200
6.754100 3.056100
6.780100 4.015700
6.806100 4.573200
6.832200 5.139900
6.858200 5.480400
6.884300 5.977700
6.910300 5.724900
6.936300 5.783800
6.962400 5.879000
6.988400 5.785100
7.014500 5.588400
7.040500 5.280400
7.066500 4.964800
7.092600 4.277300
7.118600 3.980500
7.144600 3.375800
7.170700 3.173600
7.196700 2.826900
7.222800 2.530600
7.248800 2.241800
7.274800 2.055200
7.300900 1.955000
7.326900 1.898800
7.353000 2.420700
7.379000 2.709000
7.405000 2.737100
7.431100 2.963900
7.457100 3.284700
7.483200 3.519300
7.509200 4.048900
7.535200 4.035800
7.561300 4.416300
7.587300 4.456100
7.613300 4.624400
7.639400 4.883700
7.665400 5.047900
7.691500 4.913500
7.717500 4.550400
7.743500 4.679000
7.769600 5.119100
7.795600 4.296800
7.821700 4.232000
7.847700 4.184100
7.873700 5.305200
7.899800 7.644900
7.925800 11.234500
7.951900 8.762700
7.977900 7.493000
8.003900 6.427600
8.030000 5.923400
8.056000 5.050100
8.082000 4.897200
8.108100 5.185500
8.134100 4.682300
8.160200 4.991800
8.186200 6.093500
8.212200 7.143300
8.238300 9.275000
8.264300 11.166000
8.290400 10.403300
8.316400 9.928600
8.342400 7.975100
8.368500 5.537400
8.394500 5.000700
8.420500 4.455600
8.446600 4.174900
8.472600 4.233500
8.498700 4.434800
8.524700 4.650700
8.550700 5.129000
8.576800 6.650600
8.602800 7.510400
8.628900 6.662300
8.654900 5.753100
8.680900 4.955200
8.707000 4.390400
8.733000 4.646500
8.759100 6.812100
8.785100 7.568900
8.811100 7.861700
8.837200 8.403100
8.863200 8.012500
8.889200 6.899700
8.915300 6.569300
8.941300 7.725400
8.967400 8.485600
8.993400 9.205300
9.019400 9.533800
9.045500 8.054300
9.071500 7.845800
9.097600 9.111100
9.123600 9.278000
9.149600 12.579300
9.175700 9.226800
9.201700 6.983400
9.227800 7.495900
9.253800 7.719200
9.279800 7.123300
9.305900 8.363000
9.331900 7.330500
9.357900 8.371600
9.384000 9.108300
9.410000 8.778600
9.436100 8.210500
9.462100 8.901600
9.488100 6.950700
9.514200 6.782000
9.540200 7.441000
9.566300 7.858800
9.592300 9.720000
9.618300 12.638500
9.644400 10.715400
9.670400 7.661600
9.696400 5.941500
9.722500 5.639300
9.748500 5.490800
9.774600 5.756000
9.800600 5.924800
9.826600 6.572300
9.852700 8.417600
9.878700 9.464100
9.904800 7.073200
9.930800 4.199300
9.956800 3.719000
9.982900 3.857200
10.008900 4.297000
10.035000 6.161200
10.061000 9.091100
10.087000 7.551100
10.113100 6.530200
10.139100 7.211200
10.165100 7.254000
10.191200 6.523200
10.217200 5.253300
10.243300 4.974000
10.269300 4.512400
10.295300 4.120300
10.321400 3.917200
10.347400 3.945300
10.373500 4.005500
10.399500 4.158900
10.425500 4.536200
10.451600 4.552200
10.477600 4.592100
10.503700 4.505900
10.529700 4.596100
10.555700 4.571400
10.581800 4.750100
10.607800 4.849700
10.633800 4.964100
10.659900 4.577000
10.685900 4.166500
10.712000 3.959800
10.738000 3.971900
10.764000 4.022600
10.790100 4.044200
10.816100 4.360600
10.842200 4.410100
10.868200 4.564200
10.894200 4.640700
10.920300 4.812800
10.946300 4.991400
10.972300 5.113600
10.998400 5.237800
11.024400 5.922800
11.050500 5.060400
11.076500 4.020100
11.102500 4.012100
11.128600 4.144800
11.154600 4.357700
11.180700 4.669700
11.206700 5.212400
11.232700 6.034400
11.258800 6.699200
11.284800 6.836900
11.310900 7.128900
11.336900 6.438400
11.362900 6.707300
11.389000 6.671100
11.415000 5.057500
11.441000 4.024300
11.467100 3.931500
11.493100 3.619100
11.519200 3.196700
11.545200 3.236600
11.571200 3.308500
11.597300 3.394800
11.623300 4.129300
11.649400 4.298300
11.675400 4.710200
11.701400 5.237700
11.727500 5.490300
11.753500 5.654400
11.779600 6.074300
11.805600 6.334400
11.831600 6.093600
11.857700 5.903700
11.883700 5.702900
11.909700 5.901700
11.935800 5.903100
11.961800 6.223000
11.987900 6.029900
12.013900 5.999900
12.039900 6.189500
12.066000 6.530300
12.092000 6.282400
12.118100 6.306300
12.144100 6.768300
12.170100 7.033000
12.196200 7.280700
12.222200 8.429300
12.248200 7.125400
12.274300 5.310300
12.300300 4.624400
12.326400 4.543700
12.352400 4.840900
12.378400 5.131300
12.404500 5.626800
12.430500 6.739000
12.456600 6.828200
12.482600 6.834500
12.508600 6.722600
12.534700 6.935500
12.560700 6.106400
12.586800 5.773700
12.612800 5.864200
12.638800 5.920800
12.664900 6.631400
12.690900 6.727500
12.716900 7.068800
12.743000 7.303200
12.769000 5.752800
12.795100 6.240600
12.821100 5.145500
12.847100 4.287000
12.873200 4.121600
12.899200 4.129700
12.925300 4.220900
12.951300 4.513400
12.977300 4.823100
13.003400 5.197800
13.029400 5.228000
13.055500 5.895500
13.081500 6.440000
13.107500 6.706300
13.133600 6.590700
13.159600 6.488100
13.185600 6.530100
13.211700 5.328600
13.237700 5.041400
13.263800 4.951300
13.289800 5.389600
13.315800 5.448700
13.341900 5.304000
13.367900 5.288000
13.394000 5.016300
13.420000 4.502500
13.446000 3.941600
13.472100 4.253200
13.498100 3.827600
13.524100 3.652200
13.550200 3.548400
13.576200 3.487800
13.602300 4.089800
13.628300 4.525900
13.654300 5.460400
13.680400 6.401300
13.706400 7.194900
13.732500 7.229800
13.758500 6.425600
13.784500 5.241400
13.810600 4.790100
13.836600 4.561100
13.862700 4.423400
13.888700 4.034700
13.914700 3.374700
13.940800 3.069100
13.966800 2.966200
13.992800 3.055900
14.018900 3.526600
14.044900 3.631600
14.071000 3.515400
14.097000 3.487000
14.123000 3.526800
14.149100 3.794300
14.175100 4.378400
14.201200 3.894400
14.227200 4.209700
14.253200 4.715300
14.279300 4.769400
14.305300 4.573500
14.331400 4.394200
14.357400 4.261600
14.383400 3.494500
14.409500 2.949500
14.435500 3.197300
14.461500 2.855900
14.487600 2.683700
14.513600 2.472900
14.539700 2.424200
14.565700 2.453400
14.591700 2.477800
14.617800 2.450200
14.643800 2.499500
14.669900 2.922300
14.695900 3.928100
14.721900 4.406700
14.748000 4.311500
14.774000 3.815800
14.800000 3.471600
14.826100 3.195700
14.852100 2.901700
14.878200 2.656500
14.904200 2.436400
14.930200 2.205600
14.956300 1.995500
14.982300 1.813000
15.008400 1.854500
15.034400 2.135400
15.060400 2.839300
15.086500 3.738900
15.112500 4.164900
15.138600 3.907500
15.164600 4.118800
15.190600 4.484600
15.216700 4.354600
15.242700 4.029000
15.268700 3.831200
15.294800 3.679000
15.320800 3.570600
15.346900 3.541300
15.372900 3.531800
15.398900 3.546300
15.425000 3.787900
15.451000 4.180700
15.477100 4.362200
15.503100 4.740800
15.529100 4.881700
15.555200 5.434300
15.581200 5.277300
15.607300 4.870500
15.633300 4.501000
15.659300 4.309100
15.685400 3.944400
15.711400 3.827100
15.737400 4.056700
15.763500 4.012200
15.789500 3.700300
15.815600 3.499600
15.841600 3.460700
15.867600 3.482900
15.893700 3.572900
15.919700 4.273000
15.945800 4.395000
15.971800 4.291500
15.997800 4.268400
16.023900 4.143900
16.049900 4.018200
16.075900 3.925200
16.102000 3.851600
16.128000 3.784300
16.154100 3.735800
16.180100 3.650900
16.206100 3.519600
16.232200 3.386000
16.258200 3.246300
16.284300 3.210300
16.310300 3.217800
16.336300 3.273500
16.362400 3.350900
16.388400 3.385000
16.414500 3.448700
16.440500 3.556200
16.466500 3.667500
16.492600 3.712200
16.518600 3.730900
16.544600 3.914000
16.570700 4.060300
16.596700 4.011800
16.622800 4.112400
16.648800 4.205100
16.674800 4.122200
16.700900 4.099200
16.726900 4.061400
16.753000 4.384000
16.779000 4.019100
16.805000 3.984900
16.831100 4.211900
16.857100 4.122200
16.883200 4.558600
16.909200 4.579500
16.935200 4.475800
16.961300 4.476200
16.987300 4.239500
17.013300 4.120100
17.039400 4.070500
17.065400 4.367800
17.091500 3.904800
17.117500 4.184000
17.143500 4.038900
17.169600 4.244700
17.195600 4.245500
17.221700 4.196000
17.247700 4.182800
17.273700 4.402800
17.299800 4.121500
17.325800 3.944700
17.351800 3.843500
17.377900 3.125700
17.403900 2.822700
17.430000 2.839900
17.456000 2.835400
17.482000 3.063300
17.508100 3.421800
17.534100 3.745800
17.560200 4.143400
17.586200 4.658000
17.612200 4.608400
17.638300 4.445200
17.664300 4.285200
17.690400 4.193500
17.716400 4.107800
17.742400 4.065600
17.768500 3.914400
17.794500 4.286000
17.820500 3.932000
17.846600 3.610500
17.872600 3.395300
17.898700 3.230900
17.924700 3.042500
17.950700 2.816000
17.976800 2.275900
18.002800 2.228000
18.028900 2.732300
18.054900 2.542800
18.080900 2.094500
18.107000 2.050200
18.133000 2.011900
18.159100 1.968700
18.185100 2.047700
18.211100 2.323600
18.237200 2.073900
18.263200 1.973000
18.289200 1.833600
18.315300 1.800100
18.341300 1.716800
18.367400 1.782500
18.393400 1.725000
18.419400 1.133400
18.445500 0.662000
18.471500 0.519500
18.497600 0.349700
18.523600 0.156900
18.549600 0.045800
18.575700 0.026000
18.601700 0.013600
18.627700 0.006200
18.653800 0.001700
18.679800 0.000000
18.705900 0.000000
18.731900 0.000000
18.757900 0.000000
18.784000 0.000000
18.810000 0.000000
18.836100 0.000000
18.862100 0.000000
18.888100 0.000000
18.914200 0.000000
18.940200 0.000000
18.966300 0.000000
18.992300 0.000000
19.018300 0.000000
19.044400 0.000000
19.070400 0.000000
19.096400 0.000000
19.122500 0.000000
19.148500 0.000000
19.174600 0.000000
19.200600 0.000000
19.226600 0.000000
19.252700 0.000000
19.278700 0.000000
19.304800 0.000000
19.330800 0.000000
19.356800 0.000000
19.382900 0.000000
19.408900 0.000000
19.435000 0.000000
19.461000 0.000000
19.487000 0.000000
19.513100 0.000000
19.539100 0.000000
19.565100 0.000000
19.591200 0.000000
19.617200 0.000000
19.643300 0.000000
19.669300 0.000000
19.695300 0.000000
19.721400 0.000000
19.747400 0.000000
19.773500 0.000000
19.799500 0.000000
19.825500 0.000000
19.851600 0.000000
19.877600 0.000000
19.903600 0.000000
19.929700 0.000000
19.955700 0.000000
19.981800 0.000000
20.007800 0.000000
20.033800 0.000000
20.059900 0.000000
20.085900 0.000000
20.112000 0.000000
20.138000 0.000000
20.164000 0.000000
20.190100 0.000000
20.216100 0.000000
20.242200 0.000000
20.268200 0.000000
20.294200 0.000000
20.320300 0.000000
20.346300 0.000000
20.372300 0.000000
20.398400 0.000000
20.424400 0.000000
20.450500 0.000000
20.476500 0.000000
20.502500 0.000000
20.528600 0.000000
20.554600 0.000000
20.580700 0.000000
20.606700 0.000000
20.632700 0.000000
20.658800 0.000000
20.684800 0.000000
20.710900 0.000000
20.736900 0.000000
20.762900 0.000000
20.789000 0.000000
20.815000 0.000000
20.841000 0.000000
20.867100 0.000000
20.893100 0.000000
20.919200 0.000000
20.945200 0.000000
20.971200 0.000000
20.997300 0.000000
21.023300 0.000000
21.049400 0.000000
e
