set title 'mp-1066771 - Density of States'
set xlabel 'Energy (eV)'
set ylabel 'DOS (states/eV)'
set grid
set xrange [-10:10]
set yrange [0:6.529]
set xzeroaxis lt -1
set terminal png size 800,600
set output 'mp-1066771_dos_gnuplot.png'
plot '-' using 1:2 with lines title 'DOS'
-46.869700 0.000000
-46.819400 0.000000
-46.769200 0.000000
-46.718900 0.000000
-46.668600 0.000000
-46.618400 0.000000
-46.568100 0.000000
-46.517900 0.000000
-46.467600 0.000000
-46.417300 0.000000
-46.367100 0.000000
-46.316800 0.000000
-46.266600 0.000000
-46.216300 0.000000
-46.166000 0.000000
-46.115800 0.000000
-46.065500 0.000000
-46.015300 0.000000
-45.965000 0.000000
-45.914700 0.000000
-45.864500 0.000000
-45.814200 0.000000
-45.764000 0.000000
-45.713700 0.000000
-45.663400 0.000000
-45.613200 0.000000
-45.562900 0.000000
-45.512700 0.000000
-45.462400 0.000000
-45.412100 0.000000
-45.361900 0.000000
-45.311600 0.000000
-45.261400 0.000000
-45.211100 0.000000
-45.160800 0.000000
-45.110600 0.000000
-45.060300 0.000000
-45.010100 0.000000
-44.959800 0.000000
-44.909500 0.000000
-44.859300 0.000000
-44.809000 0.000000
-44.758800 0.000000
-44.708500 0.000000
-44.658300 0.000000
-44.608000 0.000000
-44.557700 0.000000
-44.507500 0.000000
-44.457200 0.000000
-44.407000 0.000000
-44.356700 0.000000
-44.306400 0.000000
-44.256200 0.000000
-44.205900 0.000000
-44.155700 0.000000
-44.105400 0.000000
-44.055100 0.000000
-44.004900 0.000000
-43.954600 0.000000
-43.904400 0.000000
-43.854100 0.000000
-43.803800 0.000000
-43.753600 0.000000
-43.703300 0.000000
-43.653100 0.000000
-43.602800 0.000000
-43.552500 0.000000
-43.502300 0.000000
-43.452000 0.000000
-43.401800 0.000000
-43.351500 0.000000
-43.301200 0.000000
-43.251000 0.000000
-43.200700 0.000000
-43.150500 0.000000
-43.100200 0.000000
-43.049900 0.000000
-42.999700 0.000000
-42.949400 0.000000
-42.899200 0.000000
-42.848900 0.000000
-42.798600 0.000000
-42.748400 0.000000
-42.698100 0.000000
-42.647900 0.000000
-42.597600 0.000000
-42.547400 0.000000
-42.497100 0.000000
-42.446800 0.000000
-42.396600 0.000000
-42.346300 0.000000
-42.296100 3.210400
-42.245800 21.568000
-42.195500 16.898800
-42.145300 23.032500
-42.095000 14.661300
-42.044800 0.000000
-41.994500 0.000000
-41.944200 0.000000
-41.894000 0.000000
-41.843700 0.000000
-41.793500 0.000000
-41.743200 0.000000
-41.692900 0.000000
-41.642700 0.000000
-41.592400 0.000000
-41.542200 0.000000
-41.491900 0.000000
-41.441600 0.000000
-41.391400 0.000000
-41.341100 0.000000
-41.290900 0.000000
-41.240600 0.000000
-41.190300 0.000000
-41.140100 0.000000
-41.089800 0.000000
-41.039600 0.000000
-40.989300 0.000000
-40.939000 0.000000
-40.888800 0.000000
-40.838500 0.000000
-40.788300 0.000000
-40.738000 0.000000
-40.687700 0.000000
-40.637500 0.000000
-40.587200 0.000000
-40.537000 0.000000
-40.486700 0.000000
-40.436500 0.000000
-40.386200 0.000000
-40.335900 0.000000
-40.285700 0.000000
-40.235400 0.000000
-40.185200 0.000000
-40.134900 0.000000
-40.084600 0.000000
-40.034400 0.000000
-39.984100 0.000000
-39.933900 0.000000
-39.883600 0.000000
-39.833300 0.000000
-39.783100 0.000000
-39.732800 0.000000
-39.682600 0.000000
-39.632300 0.000000
-39.582000 0.000000
-39.531800 0.000000
-39.481500 0.000000
-39.431300 0.000000
-39.381000 0.000000
-39.330700 0.000000
-39.280500 0.000000
-39.230200 0.000000
-39.180000 0.000000
-39.129700 0.000000
-39.079400 0.000000
-39.029200 0.000000
-38.978900 0.000000
-38.928700 0.000000
-38.878400 0.000000
-38.828100 0.000000
-38.777900 0.000000
-38.727600 0.000000
-38.677400 0.000000
-38.627100 0.000000
-38.576800 0.000000
-38.526600 0.000000
-38.476300 0.000000
-38.426100 0.000000
-38.375800 0.000000
-38.325600 0.000000
-38.275300 0.000000
-38.225000 0.000000
-38.174800 0.000000
-38.124500 0.000000
-38.074300 0.000000
-38.024000 0.000000
-37.973700 0.000000
-37.923500 0.000000
-37.873200 0.000000
-37.823000 0.000000
-37.772700 0.000000
-37.722400 0.000000
-37.672200 0.000000
-37.621900 0.000000
-37.571700 0.000000
-37.521400 0.000000
-37.471100 0.000000
-37.420900 0.000000
-37.370600 0.000000
-37.320400 0.000000
-37.270100 0.000000
-37.219800 0.000000
-37.169600 0.000000
-37.119300 0.000000
-37.069100 0.000000
-37.018800 0.000000
-36.968500 0.000000
-36.918300 0.000000
-36.868000 0.000000
-36.817800 0.000000
-36.767500 0.000000
-36.717200 0.000000
-36.667000 0.000000
-36.616700 0.000000
-36.566500 0.000000
-36.516200 0.000000
-36.465900 0.000000
-36.415700 0.000000
-36.365400 0.000000
-36.315200 0.000000
-36.264900 0.000000
-36.214700 0.000000
-36.164400 0.000000
-36.114100 0.000000
-36.063900 0.000000
-36.013600 0.000000
-35.963400 0.000000
-35.913100 0.000000
-35.862800 0.000000
-35.812600 0.000000
-35.762300 0.000000
-35.712100 0.000000
-35.661800 0.000000
-35.611500 0.000000
-35.561300 0.000000
-35.511000 0.000000
-35.460800 0.000000
-35.410500 0.000000
-35.360200 0.000000
-35.310000 0.000000
-35.259700 0.000000
-35.209500 0.000000
-35.159200 0.000000
-35.108900 0.000000
-35.058700 0.000000
-35.008400 0.000000
-34.958200 0.000000
-34.907900 0.000000
-34.857600 0.000000
-34.807400 0.000000
-34.757100 0.000000
-34.706900 0.000000
-34.656600 0.000000
-34.606300 0.000000
-34.556100 0.000000
-34.505800 0.000000
-34.455600 0.000000
-34.405300 0.000000
-34.355000 0.000000
-34.304800 0.000000
-34.254500 0.000000
-34.204300 0.000000
-34.154000 0.000000
-34.103800 0.000000
-34.053500 0.000000
-34.003200 0.000000
-33.953000 0.000000
-33.902700 0.000000
-33.852500 0.000000
-33.802200 0.000000
-33.751900 0.000000
-33.701700 0.000000
-33.651400 0.000000
-33.601200 0.000000
-33.550900 0.000000
-33.500600 0.000000
-33.450400 0.000000
-33.400100 0.000000
-33.349900 0.000000
-33.299600 0.000000
-33.249300 0.000000
-33.199100 0.000000
-33.148800 0.000000
-33.098600 0.000000
-33.048300 0.000000
-32.998000 0.000000
-32.947800 0.000000
-32.897500 0.000000
-32.847300 0.000000
-32.797000 0.000000
-32.746700 0.000000
-32.696500 0.000000
-32.646200 0.000000
-32.596000 0.000000
-32.545700 0.000000
-32.495400 0.000000
-32.445200 0.000000
-32.394900 0.000000
-32.344700 0.000000
-32.294400 0.000000
-32.244100 0.000000
-32.193900 0.000000
-32.143600 0.000000
-32.093400 0.000000
-32.043100 0.000000
-31.992900 0.000000
-31.942600 0.000000
-31.892300 0.000000
-31.842100 0.000000
-31.791800 0.000000
-31.741600 0.000000
-31.691300 0.000000
-31.641000 0.000000
-31.590800 0.000000
-31.540500 0.000000
-31.490300 0.000000
-31.440000 0.000000
-31.389700 0.000000
-31.339500 0.000000
-31.289200 0.000000
-31.239000 0.000000
-31.188700 0.000000
-31.138400 0.000000
-31.088200 0.000000
-31.037900 0.000000
-30.987700 0.000000
-30.937400 0.000000
-30.887100 0.000000
-30.836900 0.000000
-30.786600 0.000000
-30.736400 0.000000
-30.686100 0.000000
-30.635800 0.000000
-30.585600 0.000000
-30.535300 0.000000
-30.485100 0.000000
-30.434800 0.000000
-30.384500 0.000000
-30.334300 0.000000
-30.284000 0.000000
-30.233800 0.000000
-30.183500 0.000000
-30.133200 0.000000
-30.083000 0.000000
-30.032700 0.000000
-29.982500 0.000000
-29.932200 0.000000
-29.882000 0.000000
-29.831700 0.000000
-29.781400 0.000000
-29.731200 0.000000
-29.680900 0.000000
-29.630700 0.000000
-29.580400 0.000000
-29.530100 0.000000
-29.479900 0.000000
-29.429600 0.000000
-29.379400 0.000000
-29.329100 0.000000
-29.278800 0.000000
-29.228600 0.000000
-29.178300 0.000000
-29.128100 0.000000
-29.077800 0.000000
-29.027500 0.000000
-28.977300 0.000000
-28.927000 0.000000
-28.876800 0.000000
-28.826500 0.000000
-28.776200 0.000000
-28.726000 0.000000
-28.675700 0.000000
-28.625500 0.000000
-28.575200 0.000000
-28.524900 0.000000
-28.474700 0.000000
-28.424400 0.000000
-28.374200 0.000000
-28.323900 0.000000
-28.273600 0.000000
-28.223400 0.000000
-28.173100 0.000000
-28.122900 0.000000
-28.072600 0.000000
-28.022300 0.000000
-27.972100 0.000000
-27.921800 0.000000
-27.871600 0.000000
-27.821300 0.000000
-27.771100 0.000000
-27.720800 0.000000
-27.670500 0.000000
-27.620300 0.000000
-27.570000 0.000000
-27.519800 0.000000
-27.469500 0.000000
-27.419200 0.000000
-27.369000 0.000000
-27.318700 0.000000
-27.268500 0.000000
-27.218200 0.000000
-27.167900 0.000000
-27.117700 0.000000
-27.067400 0.000000
-27.017200 0.000000
-26.966900 0.000000
-26.916600 0.000000
-26.866400 0.000000
-26.816100 0.000000
-26.765900 0.000000
-26.715600 0.000000
-26.665300 0.000000
-26.615100 0.000000
-26.564800 0.000000
-26.514600 0.000000
-26.464300 0.000000
-26.414000 0.000000
-26.363800 0.000000
-26.313500 0.000000
-26.263300 0.000000
-26.213000 0.000000
-26.162700 0.000000
-26.112500 0.000000
-26.062200 0.000000
-26.012000 0.000000
-25.961700 0.000000
-25.911400 0.000000
-25.861200 0.000000
-25.810900 0.000000
-25.760700 0.000000
-25.710400 0.000000
-25.660200 0.000000
-25.609900 0.000000
-25.559600 0.000000
-25.509400 0.000000
-25.459100 0.000000
-25.408900 0.000000
-25.358600 0.000000
-25.308300 0.000000
-25.258100 0.000000
-25.207800 0.000000
-25.157600 0.000000
-25.107300 0.000000
-25.057000 0.000000
-25.006800 0.000000
-24.956500 0.000000
-24.906300 0.000000
-24.856000 0.000000
-24.805700 0.000000
-24.755500 0.000000
-24.705200 0.000000
-24.655000 0.000000
-24.604700 0.000000
-24.554400 0.000000
-24.504200 0.000000
-24.453900 0.000000
-24.403700 0.000000
-24.353400 0.000000
-24.303100 0.000000
-24.252900 0.000000
-24.202600 0.000000
-24.152400 0.000000
-24.102100 0.000000
-24.051800 0.000000
-24.001600 0.000000
-23.951300 0.000000
-23.901100 0.000000
-23.850800 0.000000
-23.800500 0.000000
-23.750300 0.000000
-23.700000 0.000000
-23.649800 0.000000
-23.599500 0.000000
-23.549300 0.000000
-23.499000 0.000000
-23.448700 0.000000
-23.398500 0.000000
-23.348200 0.000000
-23.298000 0.000000
-23.247700 0.000000
-23.197400 0.000000
-23.147200 0.000000
-23.096900 0.000000
-23.046700 0.000000
-22.996400 0.000000
-22.946100 0.000000
-22.895900 0.000000
-22.845600 0.000000
-22.795400 0.000000
-22.745100 0.000000
-22.694800 0.000000
-22.644600 0.000000
-22.594300 0.000000
-22.544100 0.000000
-22.493800 0.000000
-22.443500 0.000000
-22.393300 0.000000
-22.343000 0.000000
-22.292800 0.000000
-22.242500 0.000000
-22.192200 0.000000
-22.142000 0.000000
-22.091700 0.000000
-22.041500 0.000000
-21.991200 0.000000
-21.940900 0.000000
-21.890700 0.000000
-21.840400 0.000000
-21.790200 0.000000
-21.739900 0.000000
-21.689600 0.000000
-21.639400 0.000000
-21.589100 0.000000
-21.538900 0.000000
-21.488600 0.000000
-21.438400 0.000000
-21.388100 0.000000
-21.337800 0.000000
-21.287600 0.000000
-21.237300 0.000000
-21.187100 0.000000
-21.136800 0.000000
-21.086500 0.000000
-21.036300 0.000000
-20.986000 0.000000
-20.935800 0.000000
-20.885500 0.000000
-20.835200 5.190800
-20.785000 41.456500
-20.734700 17.898700
-20.684500 17.146700
-20.634200 1.389800
-20.583900 11.648500
-20.533700 12.637100
-20.483400 8.768500
-20.433200 7.055500
-20.382900 1.737200
-20.332600 7.072000
-20.282400 9.713400
-20.232100 11.916300
-20.181900 10.095500
-20.131600 5.646200
-20.081300 16.583700
-20.031100 15.696100
-19.980800 28.001300
-19.930600 0.000000
-19.880300 0.000000
-19.830000 0.000000
-19.779800 0.000000
-19.729500 0.000000
-19.679300 0.000000
-19.629000 0.000000
-19.578700 0.000000
-19.528500 0.000000
-19.478200 0.000000
-19.428000 0.000000
-19.377700 0.000000
-19.327500 0.000000
-19.277200 0.000000
-19.226900 0.000000
-19.176700 0.000000
-19.126400 0.000000
-19.076200 0.000000
-19.025900 0.000000
-18.975600 0.000000
-18.925400 0.000000
-18.875100 0.000000
-18.824900 0.000000
-18.774600 0.000000
-18.724300 0.000000
-18.674100 0.000000
-18.623800 0.000000
-18.573600 0.000000
-18.523300 0.000000
-18.473000 0.000000
-18.422800 0.000000
-18.372500 0.000000
-18.322300 0.000000
-18.272000 0.000000
-18.221700 0.000000
-18.171500 0.000000
-18.121200 0.000000
-18.071000 0.000000
-18.020700 0.000000
-17.970400 0.000000
-17.920200 0.000000
-17.869900 0.000000
-17.819700 0.000000
-17.769400 0.000000
-17.719100 0.000000
-17.668900 0.000000
-17.618600 0.000000
-17.568400 0.000000
-17.518100 0.000000
-17.467800 0.000000
-17.417600 0.000000
-17.367300 0.000000
-17.317100 0.000000
-17.266800 0.000000
-17.216600 0.000000
-17.166300 0.000000
-17.116000 0.000000
-17.065800 0.000000
-17.015500 0.000000
-16.965300 0.000000
-16.915000 0.000000
-16.864700 0.000000
-16.814500 0.000000
-16.764200 0.000000
-16.714000 0.000000
-16.663700 0.000000
-16.613400 0.000000
-16.563200 0.000000
-16.512900 0.000000
-16.462700 0.000000
-16.412400 0.000000
-16.362100 0.000000
-16.311900 0.000000
-16.261600 0.000000
-16.211400 0.000000
-16.161100 0.000000
-16.110800 0.000000
-16.060600 0.000000
-16.010300 0.000000
-15.960100 0.000000
-15.909800 0.000000
-15.859500 0.000000
-15.809300 0.000000
-15.759000 0.000000
-15.708800 0.000000
-15.658500 0.000000
-15.608200 0.000000
-15.558000 0.000000
-15.507700 0.000000
-15.457500 0.000000
-15.407200 0.000000
-15.356900 0.000000
-15.306700 0.000000
-15.256400 0.000000
-15.206200 0.000000
-15.155900 0.000000
-15.105600 0.000000
-15.055400 0.000000
-15.005100 0.000000
-14.954900 0.000000
-14.904600 0.000000
-14.854400 0.000000
-14.804100 0.000000
-14.753800 0.000000
-14.703600 0.000000
-14.653300 0.000000
-14.603100 0.000000
-14.552800 0.000000
-14.502500 0.000000
-14.452300 0.000000
-14.402000 0.000000
-14.351800 0.000000
-14.301500 0.000000
-14.251200 0.000000
-14.201000 0.000000
-14.150700 0.000000
-14.100500 0.000000
-14.050200 0.000000
-13.999900 0.000000
-13.949700 0.000000
-13.899400 0.000000
-13.849200 0.000000
-13.798900 0.000000
-13.748600 0.000000
-13.698400 0.000000
-13.648100 0.000000
-13.597900 0.000000
-13.547600 0.000000
-13.497300 0.000000
-13.447100 0.000000
-13.396800 0.000000
-13.346600 0.000000
-13.296300 0.000000
-13.246000 0.000000
-13.195800 0.000000
-13.145500 0.000000
-13.095300 0.000000
-13.045000 0.000000
-12.994700 0.000000
-12.944500 0.000000
-12.894200 0.000000
-12.844000 0.000000
-12.793700 0.000000
-12.743500 0.000000
-12.693200 0.000000
-12.642900 0.000000
-12.592700 0.000000
-12.542400 0.000000
-12.492200 0.000000
-12.441900 0.000000
-12.391600 0.000000
-12.341400 0.000000
-12.291100 0.000000
-12.240900 0.000000
-12.190600 0.000000
-12.140300 0.000000
-12.090100 0.000000
-12.039800 0.000000
-11.989600 0.000000
-11.939300 0.000000
-11.889000 0.000000
-11.838800 0.000000
-11.788500 0.000000
-11.738300 0.000000
-11.688000 0.000000
-11.637700 0.000000
-11.587500 0.000000
-11.537200 0.000000
-11.487000 0.000000
-11.436700 0.000000
-11.386400 0.000000
-11.336200 0.000000
-11.285900 0.000000
-11.235700 0.000000
-11.185400 0.000000
-11.135100 0.000000
-11.084900 0.000000
-11.034600 0.000000
-10.984400 0.000000
-10.934100 0.000000
-10.883800 0.000000
-10.833600 0.000000
-10.783300 0.000000
-10.733100 0.000000
-10.682800 0.000000
-10.632600 0.000000
-10.582300 0.000000
-10.532000 0.000000
-10.481800 0.000000
-10.431500 0.000000
-10.381300 0.000000
-10.331000 0.000000
-10.280700 0.000000
-10.230500 0.000000
-10.180200 0.000000
-10.130000 0.000000
-10.079700 0.000000
-10.029400 0.000000
-9.979200 0.000000
-9.928900 0.000000
-9.878700 0.000000
-9.828400 0.000000
-9.778100 0.000000
-9.727900 0.000000
-9.677600 0.000000
-9.627400 0.000000
-9.577100 0.000000
-9.526800 0.000000
-9.476600 0.000000
-9.426300 0.000000
-9.376100 0.000000
-9.325800 0.000000
-9.275500 0.000000
-9.225300 0.000000
-9.175000 0.000000
-9.124800 0.000000
-9.074500 0.000000
-9.024200 0.000000
-8.974000 0.000000
-8.923700 0.000000
-8.873500 0.000000
-8.823200 0.000000
-8.772900 0.000000
-8.722700 0.000000
-8.672400 0.000000
-8.622200 0.000000
-8.571900 0.000000
-8.521700 0.000000
-8.471400 0.000000
-8.421100 0.000000
-8.370900 0.000000
-8.320600 0.000000
-8.270400 0.000000
-8.220100 0.000000
-8.169800 0.000000
-8.119600 0.000000
-8.069300 0.000000
-8.019100 0.000000
-7.968800 0.000000
-7.918500 0.000000
-7.868300 0.000000
-7.818000 0.000000
-7.767800 0.000000
-7.717500 0.000000
-7.667200 0.000000
-7.617000 0.000000
-7.566700 0.000000
-7.516500 0.000000
-7.466200 0.000000
-7.415900 0.000000
-7.365700 0.000000
-7.315400 0.000000
-7.265200 0.000000
-7.214900 0.000000
-7.164600 0.000000
-7.114400 0.000000
-7.064100 0.000000
-7.013900 0.000000
-6.963600 0.000000
-6.913300 0.000000
-6.863100 0.000000
-6.812800 0.000000
-6.762600 0.000000
-6.712300 0.000000
-6.662000 0.000000
-6.611800 0.000000
-6.561500 0.000000
-6.511300 0.000000
-6.461000 0.000000
-6.410800 0.000000
-6.360500 0.000000
-6.310200 0.000000
-6.260000 0.000000
-6.209700 0.000000
-6.159500 0.000000
-6.109200 0.000000
-6.058900 0.000000
-6.008700 0.000000
-5.958400 0.000000
-5.908200 0.000000
-5.857900 0.000000
-5.807600 0.000000
-5.757400 0.000000
-5.707100 0.000000
-5.656900 0.000000
-5.606600 0.000000
-5.556300 0.000000
-5.506100 0.000000
-5.455800 0.000000
-5.405600 0.000000
-5.355300 0.000000
-5.305000 0.000000
-5.254800 0.000000
-5.204500 0.000000
-5.154300 0.000000
-5.104000 0.000000
-5.053700 0.000000
-5.003500 0.000000
-4.953200 0.000000
-4.903000 0.000000
-4.852700 0.000000
-4.802400 0.000000
-4.752200 0.000000
-4.701900 0.000000
-4.651700 0.000000
-4.601400 0.000000
-4.551100 0.000000
-4.500900 0.000000
-4.450600 0.000000
-4.400400 0.000000
-4.350100 0.000000
-4.299900 0.000000
-4.249600 0.000000
-4.199300 0.000000
-4.149100 0.000000
-4.098800 0.000000
-4.048600 0.000000
-3.998300 0.006900
-3.948000 0.073800
-3.897800 0.136000
-3.847500 0.176000
-3.797300 0.222200
-3.747000 0.264600
-3.696700 0.278700
-3.646500 0.302300
-3.596200 0.333400
-3.546000 0.360400
-3.495700 0.393300
-3.445400 0.418100
-3.395200 0.439500
-3.344900 0.466700
-3.294700 0.493900
-3.244400 0.517900
-3.194100 0.543800
-3.143900 0.576400
-3.093600 0.609300
-3.043400 0.639300
-2.993100 0.667900
-2.942800 0.697400
-2.892600 0.735900
-2.842300 0.772700
-2.792100 0.811400
-2.741800 0.852400
-2.691500 0.896400
-2.641300 0.948400
-2.591000 1.010100
-2.540800 1.078600
-2.490500 1.156000
-2.440200 1.252500
-2.390000 1.376400
-2.339700 1.548500
-2.289500 1.808800
-2.239200 1.836300
-2.189000 2.039800
-2.138700 1.891500
-2.088400 1.764100
-2.038200 1.724600
-1.987900 1.688000
-1.937700 1.715000
-1.887400 1.481700
-1.837100 1.147600
-1.786900 0.717800
-1.736600 0.535200
-1.686400 0.317700
-1.636100 0.218700
-1.585800 0.188900
-1.535600 0.260300
-1.485300 0.397600
-1.435100 0.517400
-1.384800 0.763600
-1.334500 0.909700
-1.284300 1.006200
-1.234000 1.019900
-1.183800 1.061100
-1.133500 1.138600
-1.083200 1.184700
-1.033000 1.218200
-0.982700 1.270600
-0.932500 1.334200
-0.882200 1.411800
-0.831900 1.444000
-0.781700 1.528200
-0.731400 1.884100
-0.681200 1.619500
-0.630900 1.347900
-0.580600 1.173100
-0.530400 1.055900
-0.480100 0.972500
-0.429900 0.902400
-0.379600 0.843400
-0.329300 0.790200
-0.279100 0.739400
-0.228800 0.694500
-0.178600 0.655100
-0.128300 0.615200
-0.078100 0.582800
-0.027800 0.555300
0.022500 0.527800
0.072700 0.500900
0.123000 0.474000
0.173200 0.447800
0.223500 0.424500
0.273800 0.401500
0.324000 0.383800
0.374300 0.366000
0.424500 0.348100
0.474800 0.331100
0.525100 0.313800
0.575300 0.295100
0.625600 0.277300
0.675800 0.262400
0.726100 0.250500
0.776400 0.238900
0.826600 0.227100
0.876900 0.214700
0.927100 0.202900
0.977400 0.191600
1.027700 0.178200
1.077900 0.168900
1.128200 0.159700
1.178400 0.150000
1.228700 0.139300
1.279000 0.129000
1.329200 0.119500
1.379500 0.110800
1.429700 0.102600
1.480000 0.095300
1.530300 0.093400
1.580500 0.095700
1.630800 0.243000
1.681000 0.726200
1.731300 1.037600
1.781600 1.286800
1.831800 1.393500
1.882100 1.395800
1.932300 1.458100
1.982600 1.648700
2.032800 1.783800
2.083100 1.961100
2.133400 2.050700
2.183600 2.082100
2.233900 2.149200
2.284100 1.984600
2.334400 2.122800
2.384700 2.148700
2.434900 2.419000
2.485200 2.848100
2.535400 4.248100
2.585700 5.397900
2.636000 3.613800
2.686200 3.438600
2.736500 3.578800
2.786700 3.389900
2.837000 2.776300
2.887300 2.377400
2.937500 2.144100
2.987800 1.940600
3.038000 1.784500
3.088300 1.775900
3.138600 1.583200
3.188800 1.469200
3.239100 1.365400
3.289300 1.215300
3.339600 1.100500
3.389900 1.091400
3.440100 1.165700
3.490400 1.260900
3.540600 1.467300
3.590900 1.435100
3.641200 1.458400
3.691400 1.406000
3.741700 1.311600
3.791900 1.257300
3.842200 1.139500
3.892500 1.201900
3.942700 1.260400
3.993000 1.362600
4.043200 1.525800
4.093500 1.683500
4.143700 1.973000
4.194000 2.144500
4.244300 2.207200
4.294500 2.444100
4.344800 2.883800
4.395000 3.200700
4.445300 3.852200
4.495600 4.134500
4.545800 3.910200
4.596100 4.143000
4.646300 4.558200
4.696600 5.162100
4.746900 5.502700
4.797100 4.508400
4.847400 3.808000
4.897600 3.392900
4.947900 3.238300
4.998200 3.204600
5.048400 3.270700
5.098700 3.387900
5.148900 3.398200
5.199200 3.009900
5.249500 2.660500
5.299700 2.511700
5.350000 2.301400
5.400200 2.252400
5.450500 2.441600
5.500800 2.584100
5.551000 2.404500
5.601300 2.398400
5.651500 2.525400
5.701800 2.519600
5.752100 2.810000
5.802300 3.022200
5.852600 3.162700
5.902800 3.227900
5.953100 3.059200
6.003400 3.601100
6.053600 3.277500
6.103900 3.149200
6.154100 3.194300
6.204400 3.336500
6.254600 3.378900
6.304900 3.496200
6.355200 3.674800
6.405400 3.698400
6.455700 3.579500
6.505900 3.593600
6.556200 3.333400
6.606500 3.569700
6.656700 4.159800
6.707000 5.674500
6.757200 5.213800
6.807500 3.644200
6.857800 3.923500
6.908000 3.361700
6.958300 2.079700
7.008500 1.611700
7.058800 1.274800
7.109100 1.166600
7.159300 1.221700
7.209600 1.347700
7.259800 1.775700
7.310100 2.601500
7.360400 3.621200
7.410600 4.070000
7.460900 3.687500
7.511100 3.526600
7.561400 3.555100
7.611700 3.430800
7.661900 2.606100
7.712200 2.300800
7.762400 3.454300
7.812700 3.680800
7.863000 4.114800
7.913200 4.583200
7.963500 5.193900
8.013700 5.935900
8.064000 4.277500
8.114300 3.142900
8.164500 2.402900
8.214800 2.930100
8.265000 5.398700
8.315300 4.699300
8.365500 4.515600
8.415800 4.602200
8.466100 3.980000
8.516300 4.372400
8.566600 4.292400
8.616800 4.140200
8.667100 3.710800
8.717400 3.422700
8.767600 3.477400
8.817900 3.020700
8.868100 2.703500
8.918400 2.572500
8.968700 2.662800
9.018900 2.758700
9.069200 2.854000
9.119400 2.849900
9.169700 3.070300
9.220000 3.044900
9.270200 3.302300
9.320500 3.708300
9.370700 3.012900
9.421000 3.011100
9.471300 2.485600
9.521500 2.325200
9.571800 2.534900
9.622000 3.029500
9.672300 3.433600
9.722600 3.499100
9.772800 3.489200
9.823100 2.837300
9.873300 2.296500
9.923600 2.006900
9.973900 1.789700
10.024100 1.560500
10.074400 1.765400
10.124600 2.124100
10.174900 2.635900
10.225200 2.550500
10.275400 2.828300
10.325700 3.232900
10.375900 2.969000
10.426200 2.762200
10.476400 2.678300
10.526700 2.633200
10.577000 2.511400
10.627200 2.240900
10.677500 1.957700
10.727700 1.901000
10.778000 1.891100
10.828300 1.979900
10.878500 2.273200
10.928800 2.702700
10.979000 3.087300
11.029300 3.578700
11.079600 3.780300
11.129800 3.442900
11.180100 2.973000
11.230300 2.734500
11.280600 2.780100
11.330900 2.868400
11.381100 2.724100
11.431400 2.233800
11.481600 2.111600
11.531900 2.439300
11.582200 2.749800
11.632400 3.047300
11.682700 3.163200
11.732900 3.193700
11.783200 3.244700
11.833500 3.828100
11.883700 4.339500
11.934000 3.778000
11.984200 3.263800
12.034500 2.871600
12.084800 2.356300
12.135000 1.877800
12.185300 1.841200
12.235500 2.190900
12.285800 2.570500
12.336100 2.912600
12.386300 3.060000
12.436600 3.251600
12.486800 2.865600
12.537100 2.692600
12.587300 2.251800
12.637600 1.982800
12.687900 1.848400
12.738100 1.898200
12.788400 1.907500
12.838600 2.015900
12.888900 2.308100
12.939200 2.470700
12.989400 2.731400
13.039700 2.745700
13.089900 2.782000
13.140200 2.929700
13.190500 3.136200
13.240700 3.317300
13.291000 3.394600
13.341200 3.065000
13.391500 2.860400
13.441800 3.078000
13.492000 3.617300
13.542300 3.481900
13.592500 3.242200
13.642800 3.621200
13.693100 3.941300
13.743300 4.230800
13.793600 3.152100
13.843800 3.061100
13.894100 2.645700
13.944400 2.095700
13.994600 1.746000
14.044900 1.557700
14.095100 1.583900
14.145400 1.866100
14.195700 2.136800
14.245900 2.219200
14.296200 2.279900
14.346400 2.298900
14.396700 2.587000
14.447000 3.005000
14.497200 2.518100
14.547500 2.388400
14.597700 2.459700
14.648000 2.577500
14.698200 2.721300
14.748500 2.897600
14.798800 2.843300
14.849000 2.629400
14.899300 2.631700
14.949500 2.459000
14.999800 2.183400
15.050100 1.979800
15.100300 1.896700
15.150600 1.882500
15.200800 2.018700
15.251100 2.254700
15.301400 2.398100
15.351600 2.412800
15.401900 2.331900
15.452100 2.257900
15.502400 2.188200
15.552700 2.253400
15.602900 2.479100
15.653200 2.863600
15.703400 2.978600
15.753700 3.086100
15.804000 3.078300
15.854200 2.955800
15.904500 2.576100
15.954700 2.367700
16.005000 2.253800
16.055300 2.179800
16.105500 2.164400
16.155800 2.073400
16.206000 2.189800
16.256300 2.342500
16.306600 2.423700
16.356800 2.556500
16.407100 2.620700
16.457300 2.541800
16.507600 2.520400
16.557900 2.419500
16.608100 2.398000
16.658400 2.560200
16.708600 2.210700
16.758900 2.067600
16.809200 2.009500
16.859400 2.035700
16.909700 2.161000
16.959900 2.035000
17.010200 2.003800
17.060400 2.089100
17.110700 2.203100
17.161000 2.304200
17.211200 2.311400
17.261500 2.260200
17.311700 2.177900
17.362000 2.127300
17.412300 2.069300
17.462500 2.047200
17.512800 2.062200
17.563000 2.022400
17.613300 2.019900
17.663600 2.084800
17.713800 2.034200
17.764100 2.091200
17.814300 2.220100
17.864600 2.305900
17.914900 2.369300
17.965100 2.458600
18.015400 2.635100
18.065600 2.608700
18.115900 3.053500
18.166200 2.619000
18.216400 2.654200
18.266700 2.821400
18.316900 2.872100
18.367200 3.138300
18.417500 3.384900
18.467700 3.651300
18.518000 3.760200
18.568200 3.191100
18.618500 2.945900
18.668800 2.747600
18.719000 2.626100
18.769300 2.466300
18.819500 2.531900
18.869800 2.757400
18.920100 3.458300
18.970300 3.883600
19.020600 4.260600
19.070800 3.899300
19.121100 3.858500
19.171300 3.172100
19.221600 2.682500
19.271900 2.172000
19.322100 2.132400
19.372400 2.235100
19.422600 2.520700
19.472900 2.423600
19.523200 2.318700
19.573400 2.412700
19.623700 2.463700
19.673900 2.411100
19.724200 2.559800
19.774500 2.679700
19.824700 2.309700
19.875000 2.151500
19.925200 2.186600
19.975500 2.276800
20.025800 2.323100
20.076000 2.251700
20.126300 2.183300
20.176500 2.164900
20.226800 2.038600
20.277100 1.973900
20.327300 1.892700
20.377600 1.821800
20.427800 1.796200
20.478100 1.681900
20.528400 1.650200
20.578600 1.595400
20.628900 1.941300
20.679100 1.926600
20.729400 1.778200
20.779700 1.772600
20.829900 1.828100
20.880200 1.895900
20.930400 2.012200
20.980700 2.171800
21.031000 2.494100
21.081200 2.568800
21.131500 2.373800
21.181700 2.402600
21.232000 2.619500
21.282200 2.911400
21.332500 3.299000
21.382800 3.557100
21.433000 4.123500
21.483300 4.565100
21.533500 4.676800
21.583800 4.158100
21.634100 3.901200
21.684300 3.820800
21.734600 3.915800
21.784800 3.556700
21.835100 3.466100
21.885400 3.442600
21.935600 3.228600
21.985900 3.129900
22.036100 2.956900
22.086400 2.288200
22.136700 2.108600
22.186900 1.997300
22.237200 1.922800
22.287400 1.894200
22.337700 2.183600
22.388000 2.318600
22.438200 2.490700
22.488500 2.430700
22.538700 2.382300
22.589000 2.340600
22.639300 2.380800
22.689500 2.526700
22.739800 2.676500
22.790000 2.898600
22.840300 3.090300
22.890600 3.424100
22.940800 3.460100
22.991100 3.474100
23.041300 3.323800
23.091600 2.952600
23.141900 2.581800
23.192100 2.339500
23.242400 2.206000
23.292600 2.161600
23.342900 2.060200
23.393100 1.869000
23.443400 1.787300
23.493700 1.810200
23.543900 1.890000
23.594200 1.913000
23.644400 2.062300
23.694700 2.222800
23.745000 2.328500
23.795200 2.490700
23.845500 2.724300
23.895700 3.087200
23.946000 3.359100
23.996300 3.381000
24.046500 3.146600
24.096800 3.134000
24.147000 2.724100
24.197300 2.892800
24.247600 3.291500
24.297800 3.607400
24.348100 3.764600
24.398300 3.755700
24.448600 3.551100
24.498900 3.390000
24.549100 3.098400
24.599400 3.002600
24.649600 2.978200
24.699900 2.887500
24.750200 2.898100
24.800400 2.824200
24.850700 2.792400
24.900900 2.750400
24.951200 2.799400
25.001500 3.095500
25.051700 3.231700
25.102000 3.279900
25.152200 3.293300
25.202500 3.061400
25.252800 2.985200
25.303000 2.919300
25.353300 2.952400
25.403500 3.051200
25.453800 3.201500
25.504000 3.100800
25.554300 3.243700
25.604600 3.671200
25.654800 3.955000
25.705100 3.692900
25.755300 3.178100
25.805600 2.807600
25.855900 2.734800
25.906100 2.714400
25.956400 2.598700
26.006600 2.394200
26.056900 2.359700
26.107200 2.413500
26.157400 2.755700
26.207700 2.940500
26.257900 3.099200
26.308200 3.033900
26.358500 2.970300
26.408700 2.953700
26.459000 2.991700
26.509200 2.951400
26.559500 2.993000
26.609800 2.710500
26.660000 2.579000
26.710300 2.768100
26.760500 2.994100
26.810800 2.994500
26.861100 3.276600
26.911300 3.656800
26.961600 3.282000
27.011800 2.932200
27.062100 2.500700
27.112400 2.432300
27.162600 2.276500
27.212900 2.243700
27.263100 2.262900
27.313400 2.164500
27.363700 2.177900
27.413900 2.262900
27.464200 2.505700
27.514400 2.595000
27.564700 2.594800
27.614900 2.526500
27.665200 2.519700
27.715500 2.524800
27.765700 2.685600
27.816000 2.915200
27.866200 3.073400
27.916500 3.136400
27.966800 3.198300
28.017000 2.972500
28.067300 2.770800
28.117500 2.795200
28.167800 2.837300
28.218100 2.959000
28.268300 2.911900
28.318600 2.680200
28.368800 2.805400
28.419100 3.185200
28.469400 3.271200
28.519600 3.387200
28.569900 3.071000
28.620100 2.890800
28.670400 2.932000
28.720700 2.976000
28.770900 2.883200
28.821200 2.831700
28.871400 2.681900
28.921700 2.844800
28.972000 2.832000
29.022200 2.861200
29.072500 3.016700
29.122700 3.124800
29.173000 3.560000
29.223300 3.517800
29.273500 3.601600
29.323800 3.711100
29.374000 3.788100
29.424300 3.835600
29.474600 3.534000
29.524800 3.324000
29.575100 3.171300
29.625300 2.699500
29.675600 2.804600
29.725800 3.118100
29.776100 3.450600
29.826400 3.129200
29.876600 3.344500
29.926900 3.725700
29.977100 3.894700
30.027400 3.837700
30.077700 3.921900
30.127900 3.839500
30.178200 3.540600
30.228400 3.088100
30.278700 2.961000
30.329000 3.018300
30.379200 3.597800
30.429500 3.413500
30.479700 3.401600
30.530000 3.463100
30.580300 3.560700
30.630500 3.696700
30.680800 3.567000
30.731000 3.282500
30.781300 3.269200
30.831600 3.319500
30.881800 3.345800
30.932100 3.188500
30.982300 3.056100
31.032600 3.317600
31.082900 3.725900
31.133100 3.860700
31.183400 3.840400
31.233600 3.775700
31.283900 3.660600
31.334200 3.593500
31.384400 3.564100
31.434700 3.512500
31.484900 3.376700
31.535200 3.393700
31.585500 3.318500
31.635700 3.294500
31.686000 3.345900
31.736200 3.521300
31.786500 3.521300
31.836700 3.218200
31.887000 3.081300
31.937300 3.373800
31.987500 3.257800
32.037800 3.302000
32.088000 3.420400
32.138300 3.400400
32.188600 3.302000
32.238800 3.461200
32.289100 3.496400
32.339300 3.510600
32.389600 3.020800
32.439900 2.766700
32.490100 2.743200
32.540400 2.838200
32.590600 3.134900
32.640900 3.300600
32.691200 3.604600
32.741400 4.467600
32.791700 3.689300
32.841900 3.558200
32.892200 3.163700
32.942500 2.960600
32.992700 3.030800
33.043000 3.256700
33.093200 3.366300
33.143500 3.362400
33.193800 3.497600
33.244000 3.168500
33.294300 2.991800
33.344500 2.803600
33.394800 2.518000
33.445100 2.313000
33.495300 2.222200
33.545600 2.205900
33.595800 2.628700
33.646100 3.003800
33.696400 3.120600
33.746600 3.062500
33.796900 2.993100
33.847100 2.992600
33.897400 3.020100
33.947600 2.878800
33.997900 2.743500
34.048200 2.731400
34.098400 2.798200
34.148700 2.897000
34.198900 2.767800
34.249200 3.208200
34.299500 3.393400
34.349700 3.254500
34.400000 3.157500
34.450200 3.330500
34.500500 3.457200
34.550800 3.425900
34.601000 3.363000
34.651300 3.107200
34.701500 2.914200
34.751800 2.755300
34.802100 2.734400
34.852300 2.739200
34.902600 3.132200
34.952800 3.773000
35.003100 4.725500
35.053400 4.847000
35.103600 4.362300
35.153900 4.037100
35.204100 3.960100
35.254400 3.960900
35.304700 3.913000
35.354900 3.902000
35.405200 3.855000
35.455400 3.834000
35.505700 3.577300
35.556000 3.440200
35.606200 3.421200
35.656500 3.422800
35.706700 3.394000
35.757000 3.433200
35.807300 3.493200
35.857500 3.397300
35.907800 3.234500
35.958000 3.128600
36.008300 3.259800
36.058500 3.190900
36.108800 3.198500
36.159100 3.282700
36.209300 3.286900
36.259600 3.310800
36.309800 3.500100
36.360100 3.612600
36.410400 3.991500
36.460600 4.031300
36.510900 3.435900
36.561100 3.238600
36.611400 3.154100
36.661700 3.236000
36.711900 3.638100
36.762200 3.972200
36.812400 4.097400
36.862700 4.073600
36.913000 3.746900
36.963200 3.383500
37.013500 3.134400
37.063700 3.017300
37.114000 2.895400
37.164300 2.835000
37.214500 2.914900
37.264800 3.267300
37.315000 3.772200
37.365300 4.309600
37.415600 4.529500
37.465800 4.362600
37.516100 4.191300
37.566300 4.022200
37.616600 3.727700
37.666900 3.457000
37.717100 3.526200
37.767400 3.072300
37.817600 3.388100
37.867900 3.310000
37.918200 3.686100
37.968400 4.031900
38.018700 4.375800
38.068900 4.064600
38.119200 3.424100
38.169400 3.274600
38.219700 3.239500
38.270000 3.285900
38.320200 3.317000
38.370500 3.286700
38.420700 3.420500
38.471000 3.615500
38.521300 3.447700
38.571500 3.251500
38.621800 3.051200
38.672000 3.235500
38.722300 3.557600
38.772600 4.055400
38.822800 3.790800
38.873100 3.472000
38.923300 3.212800
38.973600 3.197500
39.023900 3.133900
39.074100 3.295300
39.124400 3.325300
39.174600 3.299700
39.224900 3.357400
39.275200 3.394000
39.325400 3.347100
39.375700 3.477400
39.425900 3.507600
39.476200 3.202400
39.526500 3.186500
39.576700 3.334000
39.627000 3.323800
39.677200 3.112000
39.727500 3.062600
39.777800 3.123300
39.828000 3.313100
39.878300 3.294200
39.928500 3.326400
39.978800 3.496700
40.029100 3.607200
40.079300 3.418200
40.129600 3.346900
40.179800 3.328700
40.230100 3.529000
40.280300 3.526700
40.330600 3.316800
40.380900 3.379300
40.431100 3.439400
40.481400 3.531300
40.531600 3.624500
40.581900 3.473100
40.632200 3.760200
40.682400 3.719900
40.732700 3.671400
40.782900 3.820000
40.833200 3.798200
40.883500 3.601600
40.933700 3.349800
40.984000 3.147800
41.034200 3.117200
41.084500 3.133000
41.134800 3.303300
41.185000 3.433100
41.235300 3.474300
41.285500 3.484100
41.335800 3.535900
41.386100 3.660200
41.436300 3.538700
41.486600 3.498700
41.536800 3.591600
41.587100 3.599400
41.637400 3.395700
41.687600 3.358000
41.737900 3.365500
41.788100 3.382300
41.838400 3.358200
41.888700 3.710700
41.938900 3.966900
41.989200 4.049200
42.039400 4.066200
42.089700 3.840200
42.140000 3.639200
42.190200 3.705100
42.240500 3.841900
42.290700 4.075600
42.341000 3.969700
42.391200 3.910900
42.441500 3.804300
42.491800 3.716200
42.542000 3.622400
42.592300 3.718300
42.642500 3.878100
42.692800 3.878800
42.743100 4.072400
42.793300 4.204100
42.843600 4.392400
42.893800 4.112800
42.944100 3.859800
42.994400 3.559800
43.044600 3.512500
43.094900 3.466500
43.145100 3.552000
43.195400 3.652000
43.245700 3.803900
43.295900 3.888000
43.346200 4.109000
43.396400 4.440000
43.446700 4.642200
43.497000 4.647200
43.547200 4.582600
43.597500 4.135100
43.647700 3.465400
43.698000 3.296400
43.748300 3.623900
43.798500 3.895900
43.848800 4.240500
43.899000 4.446700
43.949300 4.091700
43.999600 3.730300
44.049800 3.799600
44.100100 3.882100
44.150300 3.814500
44.200600 3.864400
44.250900 4.092700
44.301100 4.270200
44.351400 4.286900
44.401600 4.674900
44.451900 4.342700
44.502100 3.648600
44.552400 3.473500
44.602700 3.467100
44.652900 3.628400
44.703200 4.020000
44.753400 4.487000
44.803700 4.823000
44.854000 4.891700
44.904200 4.562800
44.954500 4.075400
45.004700 3.707600
45.055000 3.633400
45.105300 3.566700
45.155500 3.799900
45.205800 3.976200
45.256000 3.916500
45.306300 3.857400
45.356600 3.853000
45.406800 3.864300
45.457100 3.494100
45.507300 3.562000
45.557600 3.972400
45.607900 3.897300
45.658100 3.970400
45.708400 3.929200
45.758600 3.887700
45.808900 3.739500
45.859200 3.711300
45.909400 3.854000
45.959700 3.958800
46.009900 3.828900
46.060200 3.755400
46.110500 3.612300
46.160700 3.573600
46.211000 3.679300
46.261200 3.730900
46.311500 3.724400
46.361800 3.582500
46.412000 3.598300
46.462300 3.626800
46.512500 3.912300
46.562800 3.908500
46.613100 3.986400
46.663300 3.812600
46.713600 3.755100
46.763800 3.369000
46.814100 3.382400
46.864300 3.408700
46.914600 3.416600
46.964900 3.357300
47.015100 3.085900
47.065400 2.780100
47.115600 2.552900
47.165900 2.314400
47.216200 2.106100
47.266400 2.099200
47.316700 1.819100
47.366900 1.688500
47.417200 1.586100
47.467500 1.334300
47.517700 1.019000
47.568000 0.865500
47.618200 0.798800
47.668500 0.733600
47.718800 0.671900
47.769000 0.617300
47.819300 0.585500
47.869500 0.559900
47.919800 0.494900
47.970100 0.371300
48.020300 0.311700
48.070600 0.266300
48.120800 0.222100
48.171100 0.168600
48.221400 0.159100
48.271600 0.157600
48.321900 0.155100
48.372100 0.172700
48.422400 0.071600
48.472700 0.033900
48.522900 0.020900
48.573200 0.015400
48.623400 0.012400
48.673700 0.009700
48.724000 0.007400
48.774200 0.005400
48.824500 0.003700
48.874700 0.002300
48.925000 0.001300
48.975200 0.000500
49.025500 0.000100
49.075800 0.000000
49.126000 0.000000
49.176300 0.000000
49.226500 0.000000
49.276800 0.000000
49.327100 0.000000
49.377300 0.000000
49.427600 0.000000
49.477800 0.000000
49.528100 0.000000
49.578400 0.000000
49.628600 0.000000
49.678900 0.000000
49.729100 0.000000
49.779400 0.000000
49.829700 0.000000
49.879900 0.000000
49.930200 0.000000
49.980400 0.000000
50.030700 0.000000
50.081000 0.000000
50.131200 0.000000
50.181500 0.000000
50.231700 0.000000
50.282000 0.000000
50.332300 0.000000
50.382500 0.000000
50.432800 0.000000
50.483000 0.000000
50.533300 0.000000
50.583600 0.000000
50.633800 0.000000
50.684100 0.000000
50.734300 0.000000
50.784600 0.000000
50.834900 0.000000
50.885100 0.000000
50.935400 0.000000
50.985600 0.000000
51.035900 0.000000
51.086100 0.000000
51.136400 0.000000
51.186700 0.000000
51.236900 0.000000
51.287200 0.000000
51.337400 0.000000
51.387700 0.000000
51.438000 0.000000
51.488200 0.000000
51.538500 0.000000
51.588700 0.000000
51.639000 0.000000
51.689300 0.000000
51.739500 0.000000
51.789800 0.000000
51.840000 0.000000
51.890300 0.000000
51.940600 0.000000
51.990800 0.000000
52.041100 0.000000
52.091300 0.000000
52.141600 0.000000
52.191900 0.000000
52.242100 0.000000
52.292400 0.000000
52.342600 0.000000
52.392900 0.000000
52.443200 0.000000
52.493400 0.000000
52.543700 0.000000
52.593900 0.000000
52.644200 0.000000
52.694500 0.000000
52.744700 0.000000
52.795000 0.000000
52.845200 0.000000
52.895500 0.000000
52.945800 0.000000
52.996000 0.000000
53.046300 0.000000
53.096500 0.000000
53.146800 0.000000
53.197000 0.000000
53.247300 0.000000
53.297600 0.000000
53.347800 0.000000
53.398100 0.000000
53.448300 0.000000
53.498600 0.000000
53.548900 0.000000
53.599100 0.000000
53.649400 0.000000
e
