set title 'mp-1217469 - Density of States'
set xlabel 'Energy (eV)'
set ylabel 'DOS (states/eV)'
set grid
set xrange [-10:10]
set yrange [0:5.919]
set xzeroaxis lt -1
set terminal png size 800,600
set output 'mp-1217469_dos_gnuplot.png'
plot '-' using 1:2 with lines title 'DOS'
-21.654500 0.000000
-21.629000 0.000000
-21.603500 0.000000
-21.577900 0.000000
-21.552400 0.000000
-21.526900 0.000000
-21.501400 0.000000
-21.475800 0.000000
-21.450300 0.000000
-21.424800 0.000000
-21.399300 0.000000
-21.373700 0.000000
-21.348200 0.000000
-21.322700 0.000000
-21.297200 0.000000
-21.271600 0.000000
-21.246100 0.000000
-21.220600 0.000000
-21.195000 0.000000
-21.169500 0.000000
-21.144000 0.000000
-21.118500 0.000000
-21.092900 0.000000
-21.067400 0.000000
-21.041900 0.000000
-21.016400 0.000000
-20.990800 0.000000
-20.965300 0.000000
-20.939800 0.000000
-20.914300 0.000000
-20.888700 0.000000
-20.863200 0.000000
-20.837700 0.000000
-20.812200 0.000000
-20.786600 0.000000
-20.761100 0.000000
-20.735600 0.000000
-20.710100 0.000000
-20.684500 0.000000
-20.659000 0.000000
-20.633500 0.000000
-20.607900 0.000000
-20.582400 0.000000
-20.556900 0.000000
-20.531400 0.000000
-20.505800 0.000000
-20.480300 0.000000
-20.454800 0.000000
-20.429300 0.000000
-20.403700 0.000000
-20.378200 0.000000
-20.352700 0.000000
-20.327200 0.000000
-20.301600 0.000000
-20.276100 0.000000
-20.250600 0.000000
-20.225100 0.000000
-20.199500 0.000000
-20.174000 0.000000
-20.148500 0.000000
-20.123000 0.000000
-20.097400 0.000000
-20.071900 0.000000
-20.046400 0.000000
-20.020800 0.000000
-19.995300 0.000000
-19.969800 0.000000
-19.944300 0.000000
-19.918700 0.000000
-19.893200 0.000000
-19.867700 0.000000
-19.842200 0.000000
-19.816600 0.000000
-19.791100 0.000000
-19.765600 0.000000
-19.740100 0.000000
-19.714500 0.000000
-19.689000 0.000000
-19.663500 0.000000
-19.638000 0.000000
-19.612400 0.000000
-19.586900 0.000000
-19.561400 0.000000
-19.535900 0.000000
-19.510300 0.000000
-19.484800 0.000000
-19.459300 0.000000
-19.433700 0.000000
-19.408200 0.000000
-19.382700 0.000000
-19.357200 0.000000
-19.331600 7.576200
-19.306100 4.238800
-19.280600 5.219800
-19.255100 5.716500
-19.229500 6.858700
-19.204000 5.861900
-19.178500 6.387500
-19.153000 7.766600
-19.127400 3.971400
-19.101900 3.769600
-19.076400 4.407200
-19.050900 3.408200
-19.025300 3.202100
-18.999800 3.199200
-18.974300 3.701500
-18.948800 11.396100
-18.923200 13.841100
-18.897700 8.201600
-18.872200 17.791300
-18.846600 18.817000
-18.821100 5.957300
-18.795600 13.156500
-18.770100 11.021400
-18.744500 4.224000
-18.719000 3.814000
-18.693500 3.316900
-18.668000 3.323000
-18.642400 3.329200
-18.616900 3.873600
-18.591400 4.059800
-18.565900 4.416000
-18.540300 4.798200
-18.514800 6.822400
-18.489300 8.909800
-18.463800 6.054800
-18.438200 5.586500
-18.412700 1.146800
-18.387200 0.000000
-18.361700 0.000000
-18.336100 0.000000
-18.310600 0.000000
-18.285100 0.000000
-18.259500 0.000000
-18.234000 0.000000
-18.208500 0.000000
-18.183000 0.000000
-18.157400 0.000000
-18.131900 0.000000
-18.106400 0.000000
-18.080900 0.000000
-18.055300 0.000000
-18.029800 0.000000
-18.004300 0.000000
-17.978800 0.000000
-17.953200 0.000000
-17.927700 0.000000
-17.902200 0.000000
-17.876700 0.000000
-17.851100 0.000000
-17.825600 0.000000
-17.800100 0.000000
-17.774600 0.000000
-17.749000 0.000000
-17.723500 0.000000
-17.698000 0.000000
-17.672400 0.000000
-17.646900 0.000000
-17.621400 0.000000
-17.595900 0.000000
-17.570300 0.000000
-17.544800 0.000000
-17.519300 0.000000
-17.493800 0.000000
-17.468200 0.000000
-17.442700 0.000000
-17.417200 0.000000
-17.391700 0.000000
-17.366100 0.000000
-17.340600 0.000000
-17.315100 0.000000
-17.289600 0.000000
-17.264000 0.000000
-17.238500 0.000000
-17.213000 0.000000
-17.187500 0.000000
-17.161900 0.000000
-17.136400 0.000000
-17.110900 0.000000
-17.085300 0.000000
-17.059800 0.000000
-17.034300 0.000000
-17.008800 0.000000
-16.983200 0.000000
-16.957700 0.000000
-16.932200 0.000000
-16.906700 0.000000
-16.881100 0.000000
-16.855600 0.000000
-16.830100 0.000000
-16.804600 0.000000
-16.779000 0.000000
-16.753500 0.000000
-16.728000 0.000000
-16.702500 0.000000
-16.676900 0.000000
-16.651400 0.000000
-16.625900 0.000000
-16.600400 0.000000
-16.574800 0.000000
-16.549300 0.000000
-16.523800 0.000000
-16.498200 0.000000
-16.472700 0.000000
-16.447200 0.000000
-16.421700 0.000000
-16.396100 0.000000
-16.370600 0.000000
-16.345100 0.000000
-16.319600 0.000000
-16.294000 0.000000
-16.268500 0.000000
-16.243000 0.000000
-16.217500 0.000000
-16.191900 0.000000
-16.166400 0.000000
-16.140900 0.000000
-16.115400 0.000000
-16.089800 0.000000
-16.064300 0.000000
-16.038800 0.000000
-16.013300 0.000000
-15.987700 0.000000
-15.962200 0.000000
-15.936700 0.000000
-15.911100 0.000000
-15.885600 0.000000
-15.860100 0.000000
-15.834600 0.000000
-15.809000 0.000000
-15.783500 0.000000
-15.758000 0.000000
-15.732500 0.000000
-15.706900 0.000000
-15.681400 0.000000
-15.655900 0.000000
-15.630400 0.000000
-15.604800 0.000000
-15.579300 0.000000
-15.553800 0.000000
-15.528300 0.000000
-15.502700 0.000000
-15.477200 0.000000
-15.451700 0.000000
-15.426200 0.000000
-15.400600 0.000000
-15.375100 0.000000
-15.349600 0.000000
-15.324000 0.000000
-15.298500 0.000000
-15.273000 0.000000
-15.247500 0.000000
-15.221900 0.000000
-15.196400 0.000000
-15.170900 0.000000
-15.145400 0.000000
-15.119800 0.000000
-15.094300 0.000000
-15.068800 0.000000
-15.043300 0.000000
-15.017700 0.000000
-14.992200 0.000000
-14.966700 0.000000
-14.941200 0.000000
-14.915600 0.000000
-14.890100 0.000000
-14.864600 0.000000
-14.839100 0.000000
-14.813500 0.000000
-14.788000 0.000000
-14.762500 0.000000
-14.736900 0.000000
-14.711400 0.000000
-14.685900 0.000000
-14.660400 0.000000
-14.634800 0.000000
-14.609300 0.000000
-14.583800 0.000000
-14.558300 0.000000
-14.532700 0.000000
-14.507200 0.000000
-14.481700 0.000000
-14.456200 0.000000
-14.430600 0.000000
-14.405100 0.000000
-14.379600 0.000000
-14.354100 0.000000
-14.328500 0.000000
-14.303000 0.000000
-14.277500 0.000000
-14.252000 0.000000
-14.226400 0.000000
-14.200900 0.000000
-14.175400 0.000000
-14.149800 0.000000
-14.124300 0.000000
-14.098800 0.000000
-14.073300 0.000000
-14.047700 0.000000
-14.022200 0.000000
-13.996700 0.000000
-13.971200 0.000000
-13.945600 0.000000
-13.920100 0.000000
-13.894600 0.000000
-13.869100 0.000000
-13.843500 0.000000
-13.818000 0.000000
-13.792500 0.000000
-13.767000 0.000000
-13.741400 0.000000
-13.715900 0.000000
-13.690400 0.000000
-13.664800 0.000000
-13.639300 0.000000
-13.613800 0.000000
-13.588300 0.000000
-13.562700 0.000000
-13.537200 0.000000
-13.511700 0.000000
-13.486200 0.000000
-13.460600 0.000000
-13.435100 0.000000
-13.409600 0.000000
-13.384100 0.000000
-13.358500 0.000000
-13.333000 0.000000
-13.307500 0.000000
-13.282000 0.000000
-13.256400 0.000000
-13.230900 0.000000
-13.205400 0.000000
-13.179900 0.000000
-13.154300 0.000000
-13.128800 0.000000
-13.103300 0.000000
-13.077700 0.000000
-13.052200 0.000000
-13.026700 0.000000
-13.001200 0.000000
-12.975600 0.000000
-12.950100 0.000000
-12.924600 0.000000
-12.899100 0.000000
-12.873500 0.000000
-12.848000 0.000000
-12.822500 0.000000
-12.797000 0.000000
-12.771400 0.000000
-12.745900 0.000000
-12.720400 0.000000
-12.694900 0.000000
-12.669300 0.000000
-12.643800 0.000000
-12.618300 0.000000
-12.592800 0.000000
-12.567200 0.000000
-12.541700 0.000000
-12.516200 0.000000
-12.490600 0.000000
-12.465100 0.000000
-12.439600 0.000000
-12.414100 0.000000
-12.388500 0.000000
-12.363000 0.000000
-12.337500 0.000000
-12.312000 0.000000
-12.286400 0.000000
-12.260900 0.000000
-12.235400 0.000000
-12.209900 0.000000
-12.184300 0.000000
-12.158800 0.000000
-12.133300 0.000000
-12.107800 0.000000
-12.082200 0.000000
-12.056700 0.000000
-12.031200 0.000000
-12.005700 0.000000
-11.980100 0.000000
-11.954600 0.000000
-11.929100 0.000000
-11.903500 0.000000
-11.878000 0.000000
-11.852500 0.000000
-11.827000 0.000000
-11.801400 0.000000
-11.775900 0.000000
-11.750400 0.000000
-11.724900 0.000000
-11.699300 0.000000
-11.673800 0.000000
-11.648300 0.000000
-11.622800 0.000000
-11.597200 0.000000
-11.571700 0.000000
-11.546200 0.000000
-11.520700 0.000000
-11.495100 0.000000
-11.469600 0.000000
-11.444100 0.000000
-11.418600 0.000000
-11.393000 0.000000
-11.367500 0.000000
-11.342000 0.000000
-11.316400 0.000000
-11.290900 0.000000
-11.265400 0.000000
-11.239900 0.000000
-11.214300 0.000000
-11.188800 0.000000
-11.163300 0.000000
-11.137800 0.000000
-11.112200 0.000000
-11.086700 0.000000
-11.061200 0.000000
-11.035700 0.000000
-11.010100 0.000000
-10.984600 0.000000
-10.959100 0.000000
-10.933600 0.000000
-10.908000 0.000000
-10.882500 0.000000
-10.857000 0.000000
-10.831500 0.000000
-10.805900 0.000000
-10.780400 0.000000
-10.754900 0.000000
-10.729300 0.000000
-10.703800 0.000000
-10.678300 0.000000
-10.652800 0.000000
-10.627200 0.000000
-10.601700 0.000000
-10.576200 0.000000
-10.550700 0.000000
-10.525100 0.000000
-10.499600 0.000000
-10.474100 0.000000
-10.448600 0.000000
-10.423000 0.000000
-10.397500 0.000000
-10.372000 0.000000
-10.346500 0.000000
-10.320900 0.000000
-10.295400 0.000000
-10.269900 0.000000
-10.244400 0.000000
-10.218800 0.000000
-10.193300 0.000000
-10.167800 0.000000
-10.142200 0.000000
-10.116700 0.000000
-10.091200 0.000000
-10.065700 0.000000
-10.040100 0.000000
-10.014600 0.000000
-9.989100 0.000000
-9.963600 0.000000
-9.938000 0.000000
-9.912500 0.000000
-9.887000 0.000000
-9.861500 0.000000
-9.835900 0.000000
-9.810400 0.000000
-9.784900 0.000000
-9.759400 0.000000
-9.733800 0.000000
-9.708300 0.000000
-9.682800 0.000000
-9.657300 0.000000
-9.631700 0.000000
-9.606200 0.000000
-9.580700 0.000000
-9.555100 0.000000
-9.529600 0.000000
-9.504100 0.000000
-9.478600 0.000000
-9.453000 0.000000
-9.427500 0.000000
-9.402000 0.000000
-9.376500 0.000000
-9.350900 0.000000
-9.325400 0.000000
-9.299900 0.000000
-9.274400 0.000000
-9.248800 0.000000
-9.223300 0.000000
-9.197800 0.000000
-9.172300 0.000000
-9.146700 0.000000
-9.121200 0.000000
-9.095700 0.000000
-9.070200 0.000000
-9.044600 0.000000
-9.019100 0.000000
-8.993600 0.000000
-8.968000 0.000000
-8.942500 0.000000
-8.917000 0.000000
-8.891500 0.000000
-8.865900 0.000000
-8.840400 0.000000
-8.814900 0.000000
-8.789400 0.000000
-8.763800 0.000000
-8.738300 0.000000
-8.712800 0.000000
-8.687300 0.000000
-8.661700 0.000000
-8.636200 0.000000
-8.610700 0.000000
-8.585200 0.009100
-8.559600 0.198200
-8.534100 0.533100
-8.508600 0.638000
-8.483100 0.547200
-8.457500 0.548700
-8.432000 0.775600
-8.406500 1.141900
-8.380900 1.279500
-8.355400 1.160100
-8.329900 1.096500
-8.304400 1.135300
-8.278800 1.190300
-8.253300 1.222400
-8.227800 1.202900
-8.202300 1.178000
-8.176700 1.190100
-8.151200 1.212600
-8.125700 1.215200
-8.100200 1.210800
-8.074600 1.220400
-8.049100 1.238800
-8.023600 1.251600
-7.998100 1.244700
-7.972500 1.235900
-7.947000 1.242000
-7.921500 1.255200
-7.896000 1.268900
-7.870400 1.282700
-7.844900 1.293300
-7.819400 1.298700
-7.793800 1.307100
-7.768300 1.320100
-7.742800 1.334100
-7.717300 1.343600
-7.691700 1.346800
-7.666200 1.352500
-7.640700 1.363400
-7.615200 1.375600
-7.589600 1.388200
-7.564100 1.401200
-7.538600 1.414400
-7.513100 1.430900
-7.487500 1.453400
-7.462000 1.475900
-7.436500 1.494800
-7.411000 1.513100
-7.385400 1.534600
-7.359900 1.560800
-7.334400 1.585900
-7.308900 1.607300
-7.283300 1.628000
-7.257800 1.648900
-7.232300 1.669800
-7.206700 1.706800
-7.181200 1.785100
-7.155700 1.863400
-7.130200 1.914400
-7.104600 1.958200
-7.079100 2.021400
-7.053600 2.123500
-7.028100 2.340000
-7.002500 2.769700
-6.977000 2.681800
-6.951500 2.321000
-6.926000 2.236900
-6.900400 2.366000
-6.874900 2.689700
-6.849400 2.540800
-6.823900 2.076500
-6.798300 1.881600
-6.772800 1.824300
-6.747300 1.765600
-6.721800 1.706700
-6.696200 1.615300
-6.670700 1.516400
-6.645200 1.479200
-6.619600 1.440900
-6.594100 1.392300
-6.568600 1.338400
-6.543100 1.306200
-6.517500 1.277000
-6.492000 1.247700
-6.466500 1.207400
-6.441000 1.159700
-6.415400 1.136800
-6.389900 1.115600
-6.364400 1.094300
-6.338900 1.072200
-6.313300 1.049600
-6.287800 1.023000
-6.262300 0.995600
-6.236800 0.976200
-6.211200 0.957100
-6.185700 0.938100
-6.160200 0.914800
-6.134700 0.889400
-6.109100 0.874200
-6.083600 0.859300
-6.058100 0.844300
-6.032500 0.829400
-6.007000 0.814400
-5.981500 0.800000
-5.956000 0.786900
-5.930400 0.777100
-5.904900 0.762400
-5.879400 0.746000
-5.853900 0.729600
-5.828300 0.714400
-5.802800 0.704000
-5.777300 0.691000
-5.751800 0.675800
-5.726200 0.660700
-5.700700 0.645800
-5.675200 0.632700
-5.649700 0.620700
-5.624100 0.643600
-5.598600 0.642600
-5.573100 0.613800
-5.547600 0.584900
-5.522000 0.556100
-5.496500 0.548300
-5.471000 0.547900
-5.445400 0.503200
-5.419900 0.548700
-5.394400 0.265500
-5.368900 0.243700
-5.343300 0.221800
-5.317800 0.200000
-5.292300 0.310000
-5.266800 0.000000
-5.241200 0.000000
-5.215700 0.000000
-5.190200 0.000000
-5.164700 0.000000
-5.139100 0.000000
-5.113600 0.000000
-5.088100 0.000000
-5.062600 0.000000
-5.037000 0.000000
-5.011500 0.000000
-4.986000 0.000000
-4.960500 0.000000
-4.934900 0.000000
-4.909400 0.000000
-4.883900 0.000000
-4.858300 0.000000
-4.832800 0.000000
-4.807300 0.000000
-4.781800 0.000000
-4.756200 0.000000
-4.730700 0.000000
-4.705200 0.000000
-4.679700 0.000000
-4.654100 0.000000
-4.628600 0.000000
-4.603100 0.000000
-4.577600 0.000000
-4.552000 0.000000
-4.526500 0.000000
-4.501000 0.000000
-4.475500 0.000000
-4.449900 0.000000
-4.424400 0.000000
-4.398900 0.000000
-4.373400 0.000000
-4.347800 0.000000
-4.322300 0.000000
-4.296800 0.000000
-4.271200 0.000000
-4.245700 0.000000
-4.220200 0.000000
-4.194700 0.000000
-4.169100 0.000000
-4.143600 0.000000
-4.118100 0.000000
-4.092600 0.000000
-4.067000 0.000000
-4.041500 0.000000
-4.016000 0.000000
-3.990500 0.000000
-3.964900 0.000000
-3.939400 0.000000
-3.913900 0.000000
-3.888400 0.000000
-3.862800 0.000000
-3.837300 0.000000
-3.811800 0.000000
-3.786300 0.000000
-3.760700 0.000000
-3.735200 0.000000
-3.709700 0.000000
-3.684100 0.000000
-3.658600 0.000000
-3.633100 0.000000
-3.607600 0.000000
-3.582000 0.000000
-3.556500 0.000000
-3.531000 0.000000
-3.505500 0.000000
-3.479900 0.000000
-3.454400 0.000000
-3.428900 0.000000
-3.403400 0.000000
-3.377800 0.000000
-3.352300 0.000000
-3.326800 0.000000
-3.301300 0.000000
-3.275700 0.000000
-3.250200 0.000000
-3.224700 0.000000
-3.199100 0.000000
-3.173600 0.000000
-3.148100 0.000000
-3.122600 0.000000
-3.097000 0.000000
-3.071500 0.000000
-3.046000 0.000000
-3.020500 0.000000
-2.994900 0.000000
-2.969400 0.000000
-2.943900 0.000000
-2.918400 0.000000
-2.892800 0.000000
-2.867300 0.000000
-2.841800 0.000000
-2.816300 0.000000
-2.790700 0.000000
-2.765200 0.000000
-2.739700 0.000000
-2.714200 0.000000
-2.688600 0.000000
-2.663100 0.000000
-2.637600 0.000000
-2.612000 0.000000
-2.586500 0.000000
-2.561000 0.000000
-2.535500 0.000000
-2.509900 0.000000
-2.484400 0.000000
-2.458900 0.000000
-2.433400 0.000000
-2.407800 0.000000
-2.382300 0.000000
-2.356800 0.000000
-2.331300 0.000000
-2.305700 0.000000
-2.280200 0.000000
-2.254700 0.000000
-2.229200 0.000000
-2.203600 0.000000
-2.178100 0.000000
-2.152600 0.000000
-2.127100 0.000000
-2.101500 0.000000
-2.076000 0.000000
-2.050500 0.000000
-2.024900 0.000000
-1.999400 0.000000
-1.973900 0.000000
-1.948400 0.000000
-1.922800 0.000000
-1.897300 0.000000
-1.871800 0.000000
-1.846300 0.000000
-1.820700 0.000000
-1.795200 0.000000
-1.769700 0.000000
-1.744200 0.000000
-1.718600 0.000000
-1.693100 0.000000
-1.667600 0.000000
-1.642100 0.000000
-1.616500 0.000000
-1.591000 0.000000
-1.565500 0.000000
-1.540000 0.000000
-1.514400 0.000000
-1.488900 0.000000
-1.463400 0.000000
-1.437800 0.000000
-1.412300 0.000000
-1.386800 0.000000
-1.361300 0.000000
-1.335700 0.000000
-1.310200 0.000000
-1.284700 0.000000
-1.259200 0.000000
-1.233600 0.000000
-1.208100 0.000000
-1.182600 0.000000
-1.157100 0.000000
-1.131500 0.069500
-1.106000 0.502500
-1.080500 0.744300
-1.055000 0.586200
-1.029400 0.462100
-1.003900 0.716900
-0.978400 1.087700
-0.952900 1.271600
-0.927300 1.081500
-0.901800 0.989500
-0.876300 1.031000
-0.850700 1.080600
-0.825200 1.105900
-0.799700 1.113700
-0.774200 1.116900
-0.748600 1.155300
-0.723100 1.182700
-0.697600 1.202800
-0.672100 1.221100
-0.646500 1.247000
-0.621000 1.289700
-0.595500 1.349400
-0.570000 1.398400
-0.544400 1.441500
-0.518900 1.463400
-0.493400 1.484400
-0.467900 1.521800
-0.442300 1.563200
-0.416800 1.607700
-0.391300 1.648800
-0.365800 1.675500
-0.340200 1.686100
-0.314700 1.688400
-0.289200 1.693700
-0.263600 1.710000
-0.238100 1.729700
-0.212600 1.749000
-0.187100 1.767100
-0.161500 1.784600
-0.136000 1.811100
-0.110500 1.836500
-0.085000 1.856800
-0.059400 1.877800
-0.033900 1.902100
-0.008400 1.929200
0.017100 1.955400
0.042700 1.979400
0.068200 2.003500
0.093700 2.027400
0.119200 2.151900
0.144800 2.389100
0.170300 2.600300
0.195800 2.682000
0.221300 2.702300
0.246900 2.968900
0.272400 4.298100
0.297900 3.009200
0.323500 2.355300
0.349000 2.250900
0.374500 2.144000
0.400000 2.401400
0.425600 2.593500
0.451100 2.221600
0.476600 2.137500
0.502100 2.052100
0.527700 1.968500
0.553200 1.908400
0.578700 1.878300
0.604200 1.873500
0.629800 1.908300
0.655300 1.964000
0.680800 2.044600
0.706300 2.233100
0.731900 2.234300
0.757400 2.143400
0.782900 2.219300
0.808400 2.374200
0.834000 2.503600
0.859500 2.516000
0.885000 2.488600
0.910600 2.569300
0.936100 2.669900
0.961600 2.691600
0.987100 2.715800
1.012700 2.747000
1.038200 2.777600
1.063700 2.799000
1.089200 2.822100
1.114800 2.908400
1.140300 2.979400
1.165800 2.986600
1.191300 2.973600
1.216900 2.983500
1.242400 2.957900
1.267900 2.892100
1.293400 2.835800
1.319000 2.829500
1.344500 2.842800
1.370000 2.804200
1.395500 2.752100
1.421100 2.720600
1.446600 2.698900
1.472100 2.659000
1.497700 2.608600
1.523200 2.559500
1.548700 2.579800
1.574200 2.527800
1.599800 2.469200
1.625300 2.442200
1.650800 2.568800
1.676300 2.528100
1.701900 2.495400
1.727400 2.471600
1.752900 2.456500
1.778400 2.450500
1.804000 2.480300
1.829500 2.498400
1.855000 2.521300
1.880500 2.556100
1.906100 2.622500
1.931600 2.696800
1.957100 2.754800
1.982600 2.789000
2.008200 2.835100
2.033700 2.886500
2.059200 2.927600
2.084800 2.969100
2.110300 3.019300
2.135800 3.078700
2.161300 3.122200
2.186900 3.117900
2.212400 3.073000
2.237900 2.923000
2.263400 2.888400
2.289000 2.893400
2.314500 2.911900
2.340000 2.940300
2.365500 3.320400
2.391100 3.151300
2.416600 2.949100
2.442100 2.709900
2.467600 2.430700
2.493200 2.145100
2.518700 2.017600
2.544200 2.046100
2.569700 2.224800
2.595300 2.105100
2.620800 1.953500
2.646300 1.930100
2.671900 1.853400
2.697400 1.847000
2.722900 1.976300
2.748400 2.224400
2.774000 2.378800
2.799500 2.398300
2.825000 2.366200
2.850500 2.395600
2.876100 2.522500
2.901600 2.687700
2.927100 2.662400
2.952600 2.642800
2.978200 2.542700
3.003700 2.417000
3.029200 2.294100
3.054700 2.180600
3.080300 2.075300
3.105800 2.010900
3.131300 2.100900
3.156800 2.207400
3.182400 2.269300
3.207900 2.317600
3.233400 2.359600
3.259000 2.394600
3.284500 2.425300
3.310000 2.451400
3.335500 2.485800
3.361100 2.528100
3.386600 2.585000
3.412100 2.641300
3.437600 2.583900
3.463200 2.803700
3.488700 3.077400
3.514200 3.194500
3.539700 3.294900
3.565300 3.307400
3.590800 2.990000
3.616300 2.665400
3.641800 2.251900
3.667400 2.098100
3.692900 1.974900
3.718400 1.923000
3.743900 1.974800
3.769500 2.039100
3.795000 2.222600
3.820500 2.337400
3.846100 2.416500
3.871600 2.749500
3.897100 2.797500
3.922600 2.668300
3.948200 2.526800
3.973700 2.438500
3.999200 2.445500
4.024700 2.251800
4.050300 2.023400
4.075800 1.800300
4.101300 1.741600
4.126800 1.724000
4.152400 1.787500
4.177900 2.032800
4.203400 2.226200
4.228900 2.294500
4.254500 2.407000
4.280000 2.462300
4.305500 2.365700
4.331000 2.141800
4.356600 1.968300
4.382100 1.930100
4.407600 1.965800
4.433200 2.012900
4.458700 2.058200
4.484200 2.103300
4.509700 2.152600
4.535300 2.201000
4.560800 2.247800
4.586300 2.290200
4.611800 2.321200
4.637400 2.341300
4.662900 2.347700
4.688400 2.372800
4.713900 2.425400
4.739500 2.548600
4.765000 2.713200
4.790500 2.945300
4.816000 3.264300
4.841600 3.322600
4.867100 2.498900
4.892600 2.323100
4.918100 2.553200
4.943700 2.715800
4.969200 3.039800
4.994700 3.366400
5.020300 3.484100
5.045800 3.637200
5.071300 2.985900
5.096800 2.867200
5.122400 2.787000
5.147900 3.166600
5.173400 3.554600
5.198900 4.735400
5.224500 4.328100
5.250000 4.309700
5.275500 4.561000
5.301000 5.380900
5.326600 5.228500
5.352100 4.450100
5.377600 3.927000
5.403100 3.646300
5.428700 3.445800
5.454200 3.180600
5.479700 2.935400
5.505200 2.723100
5.530800 2.529600
5.556300 2.433800
5.581800 2.382900
5.607400 2.421900
5.632900 2.477400
5.658400 2.300200
5.683900 2.335200
5.709500 2.269200
5.735000 2.201300
5.760500 2.179700
5.786000 2.192700
5.811600 2.226200
5.837100 2.266100
5.862600 2.292800
5.888100 2.300900
5.913700 2.309100
5.939200 2.311400
5.964700 2.153100
5.990200 2.135300
6.015800 2.133000
6.041300 2.131200
6.066800 2.159800
6.092300 2.163900
6.117900 1.407400
6.143400 1.392100
6.168900 1.696400
6.194500 1.678900
6.220000 1.480000
6.245500 1.375000
6.271000 1.370500
6.296600 1.379100
6.322100 1.363900
6.347600 1.380100
6.373100 1.404000
6.398700 1.411700
6.424200 1.425800
6.449700 1.441900
6.475200 1.431800
6.500800 1.377500
6.526300 1.264000
6.551800 1.248000
6.577300 1.250800
6.602900 1.288100
6.628400 1.340300
6.653900 1.399500
6.679400 1.462100
6.705000 1.529700
6.730500 1.604200
6.756000 1.691000
6.781600 1.852800
6.807100 1.801500
6.832600 1.620600
6.858100 1.462900
6.883700 1.371100
6.909200 1.352900
6.934700 1.387000
6.960200 1.544100
6.985800 1.650500
7.011300 1.735900
7.036800 1.853100
7.062300 2.456900
7.087900 2.604300
7.113400 2.876000
7.138900 3.010100
7.164400 3.182800
7.190000 3.428700
7.215500 3.523400
7.241000 3.910500
7.266500 4.304700
7.292100 4.174400
7.317600 3.937100
7.343100 3.681500
7.368700 3.339500
7.394200 3.144400
7.419700 2.807500
7.445200 2.457300
7.470800 2.238800
7.496300 2.237700
7.521800 2.275300
7.547300 2.332900
7.572900 2.316400
7.598400 2.318400
7.623900 2.367900
7.649400 2.456300
7.675000 2.544700
7.700500 2.596900
7.726000 2.633600
7.751500 2.675400
7.777100 2.732200
7.802600 2.829000
7.828100 2.875800
7.853700 2.925100
7.879200 2.955800
7.904700 2.982200
7.930200 2.955700
7.955800 2.991100
7.981300 3.000600
8.006800 2.948500
8.032300 2.805400
8.057900 2.602200
8.083400 2.337500
8.108900 1.925100
8.134400 2.191500
8.160000 2.242100
8.185500 2.326300
8.211000 2.845500
8.236500 2.918800
8.262100 2.840000
8.287600 2.856900
8.313100 2.878800
8.338600 2.916300
8.364200 3.023300
8.389700 3.055700
8.415200 2.988500
8.440800 3.039700
8.466300 3.198500
8.491800 3.259700
8.517300 3.352900
8.542900 3.405300
8.568400 3.394200
8.593900 3.328400
8.619400 3.295900
8.645000 3.266900
8.670500 3.200200
8.696000 2.859400
8.721500 2.720300
8.747100 2.591400
8.772600 2.462900
8.798100 2.349000
8.823600 2.238000
8.849200 2.129200
8.874700 1.961600
8.900200 1.836300
8.925700 1.735700
8.951300 1.682800
8.976800 1.866400
9.002300 1.964300
9.027900 2.162100
9.053400 2.331600
9.078900 2.127800
9.104400 2.164200
9.130000 2.187400
9.155500 2.195100
9.181000 2.160000
9.206500 2.112600
9.232100 2.100500
9.257600 2.115100
9.283100 2.148400
9.308600 2.185300
9.334200 2.230000
9.359700 2.293100
9.385200 2.324800
9.410700 2.388400
9.436300 2.463600
9.461800 2.510400
9.487300 2.527600
9.512800 2.535200
9.538400 2.544300
9.563900 2.558300
9.589400 2.577400
9.615000 2.586600
9.640500 2.587000
9.666000 2.252800
9.691500 2.111800
9.717100 1.982300
9.742600 1.849900
9.768100 1.720000
9.793600 1.592100
9.819200 1.468300
9.844700 1.338500
9.870200 1.232700
9.895700 1.178000
9.921300 1.158100
9.946800 1.144200
9.972300 1.129400
9.997800 1.114600
10.023400 1.118000
10.048900 1.151800
10.074400 1.229100
10.099900 1.276200
10.125500 1.304000
10.151000 1.361700
10.176500 1.388700
10.202100 1.412200
10.227600 1.432800
10.253100 1.453700
10.278600 1.527500
10.304200 1.685700
10.329700 1.639300
10.355200 1.689200
10.380700 1.746900
10.406300 1.784300
10.431800 1.803100
10.457300 1.811800
10.482800 1.804300
10.508400 1.805300
10.533900 1.834600
10.559400 1.879200
10.584900 1.917000
10.610500 1.968400
10.636000 2.029200
10.661500 2.076700
10.687000 2.135500
10.712600 2.205600
10.738100 2.255600
10.763600 2.338100
10.789200 2.449200
10.814700 2.548900
10.840200 2.644100
10.865700 2.673500
10.891300 2.637700
10.916800 2.667700
10.942300 2.607500
10.967800 2.576600
10.993400 2.632800
11.018900 2.732900
11.044400 2.830800
11.069900 2.917400
11.095500 2.979700
11.121000 3.032100
11.146500 3.094100
11.172000 3.182100
11.197600 3.276600
11.223100 3.440400
11.248600 3.540200
11.274100 3.634400
11.299700 3.561500
11.325200 3.493600
11.350700 3.300100
11.376300 3.226700
11.401800 3.207400
11.427300 3.215400
11.452800 3.215400
11.478400 3.207400
11.503900 3.200300
11.529400 3.165500
11.554900 3.160700
11.580500 3.168700
11.606000 3.240500
11.631500 3.384500
11.657000 3.789700
11.682600 4.011500
11.708100 4.114300
11.733600 4.209500
11.759100 4.239700
11.784700 4.091800
11.810200 4.072400
11.835700 3.936300
11.861200 3.684500
11.886800 3.493000
11.912300 3.310500
11.937800 3.162300
11.963400 3.093200
11.988900 3.027000
12.014400 2.954700
12.039900 2.988900
12.065500 2.903800
12.091000 2.938600
12.116500 2.943200
12.142000 2.937700
12.167600 2.935500
12.193100 2.940900
12.218600 2.970700
12.244100 3.006700
12.269700 3.026200
12.295200 3.037800
12.320700 3.131600
12.346200 3.251300
12.371800 3.273500
12.397300 3.302600
12.422800 3.395700
12.448300 3.503800
12.473900 3.701200
12.499400 3.755200
12.524900 3.618100
12.550500 3.567900
12.576000 3.510800
12.601500 3.488600
12.627000 3.490400
12.652600 3.659300
12.678100 3.763600
12.703600 3.875900
12.729100 3.901200
12.754700 3.875000
12.780200 3.813300
12.805700 3.826900
12.831200 3.848000
12.856800 3.676600
12.882300 3.583800
12.907800 3.495600
12.933300 3.209400
12.958900 3.127300
12.984400 3.074300
13.009900 3.066000
13.035400 3.083000
13.061000 3.137100
13.086500 3.151900
13.112000 3.194500
13.137600 3.215700
13.163100 3.310600
13.188600 3.513900
13.214100 3.694200
13.239700 3.838900
13.265200 3.959200
13.290700 4.126000
13.316200 3.973100
13.341800 3.394000
13.367300 3.330800
13.392800 3.547500
13.418300 3.840100
13.443900 4.199900
13.469400 4.567500
13.494900 4.745100
13.520400 5.001600
13.546000 5.097200
13.571500 5.271200
13.597000 5.487500
13.622500 5.728500
13.648100 6.097600
13.673600 7.097400
13.699100 10.389800
13.724700 13.019400
13.750200 8.842500
13.775700 6.850000
13.801200 5.666900
13.826800 4.934900
13.852300 4.466900
13.877800 4.250100
13.903300 4.025000
13.928900 3.713600
13.954400 3.518000
13.979900 3.383000
14.005400 3.212300
14.031000 3.127200
14.056500 3.027000
14.082000 2.838100
14.107500 2.807000
14.133100 2.767500
14.158600 2.771200
14.184100 2.802900
14.209600 2.839300
14.235200 2.904200
14.260700 2.995300
14.286200 3.156300
14.311800 3.388400
14.337300 3.526300
14.362800 3.647300
14.388300 3.821700
14.413900 3.957000
14.439400 3.825500
14.464900 3.743800
14.490400 3.732000
14.516000 3.747100
14.541500 3.711500
14.567000 3.643900
14.592500 3.586500
14.618100 3.566400
14.643600 3.593500
14.669100 3.651500
14.694600 3.801400
14.720200 3.962400
14.745700 4.036900
14.771200 4.025200
14.796700 3.990800
14.822300 3.960300
14.847800 3.937600
14.873300 3.948300
14.898900 3.944800
14.924400 3.943800
14.949900 3.933300
14.975400 3.894700
15.001000 3.876800
15.026500 3.848500
15.052000 3.829100
15.077500 3.768500
15.103100 3.711700
15.128600 3.571000
15.154100 3.599800
15.179600 3.548400
15.205200 3.345200
15.230700 3.231200
15.256200 3.120100
15.281700 3.009900
15.307300 2.918200
15.332800 2.877300
15.358300 2.880300
15.383800 2.901900
15.409400 2.953600
15.434900 3.026300
15.460400 3.121600
15.486000 3.232700
15.511500 3.403400
15.537000 3.405600
15.562500 3.493000
15.588100 3.584900
15.613600 3.664200
15.639100 3.727000
15.664600 3.792300
15.690200 3.810800
15.715700 3.858300
15.741200 3.907300
15.766700 3.960200
15.792300 4.054300
15.817800 4.130900
15.843300 4.073800
15.868800 3.976000
15.894400 3.841100
15.919900 3.687900
15.945400 3.635000
15.970900 3.541300
15.996500 3.483000
16.022000 3.417000
16.047500 3.331100
16.073100 3.227300
16.098600 3.164800
16.124100 3.111000
16.149600 3.098400
16.175200 3.071400
16.200700 3.042200
16.226200 3.117900
16.251700 3.189000
16.277300 3.590700
16.302800 3.632700
16.328300 3.952600
16.353800 3.867900
16.379400 3.829700
16.404900 3.754900
16.430400 3.510400
16.455900 3.412500
16.481500 3.345900
16.507000 3.283200
16.532500 3.298700
16.558000 3.400800
16.583600 3.570600
16.609100 3.584200
16.634600 3.606900
16.660200 3.590000
16.685700 3.580600
16.711200 3.490800
16.736700 3.311000
16.762300 3.220900
16.787800 3.123700
16.813300 3.096100
16.838800 3.132300
16.864400 3.157800
16.889900 3.171100
16.915400 3.292400
16.940900 3.392300
16.966500 3.495800
16.992000 3.553200
17.017500 3.673300
17.043000 3.757100
17.068600 3.830800
17.094100 3.916100
17.119600 4.026400
17.145100 4.133000
17.170700 4.257000
17.196200 4.394700
17.221700 4.325900
17.247300 4.281300
17.272800 4.206600
17.298300 4.074900
17.323800 4.052000
17.349400 4.051100
17.374900 4.032600
17.400400 3.957000
17.425900 3.817000
17.451500 3.584500
17.477000 3.407000
17.502500 3.431300
17.528000 3.526900
17.553600 3.794200
17.579100 4.106800
17.604600 4.192200
17.630100 4.110800
17.655700 4.060600
17.681200 3.794000
17.706700 3.638600
17.732200 3.523400
17.757800 3.501200
17.783300 3.471400
17.808800 3.430600
17.834400 3.466400
17.859900 3.776000
17.885400 4.009100
17.910900 4.089600
17.936500 4.123500
17.962000 4.136300
17.987500 4.127600
18.013000 4.074700
18.038600 3.967500
18.064100 3.800600
18.089600 3.770600
18.115100 3.822300
18.140700 3.863800
18.166200 3.889600
18.191700 4.002300
18.217200 3.993500
18.242800 3.839000
18.268300 3.782900
18.293800 3.741000
18.319400 3.724200
18.344900 3.714900
18.370400 3.779300
18.395900 3.874100
18.421500 3.938900
18.447000 3.988000
18.472500 4.086300
18.498000 3.911300
18.523600 3.957900
18.549100 4.026800
18.574600 4.116700
18.600100 4.195900
18.625700 4.334700
18.651200 4.225200
18.676700 4.106300
18.702200 4.010100
18.727800 3.992300
18.753300 3.976400
18.778800 3.953300
18.804300 3.876300
18.829900 3.774100
18.855400 3.693000
18.880900 3.599700
18.906500 3.517500
18.932000 3.479000
18.957500 3.476400
18.983000 3.504100
19.008600 3.502000
19.034100 3.557000
19.059600 3.641800
19.085100 3.701000
19.110700 3.746900
19.136200 3.790900
19.161700 3.884600
19.187200 4.057500
19.212800 4.199700
19.238300 4.301700
19.263800 4.355500
19.289300 4.388800
19.314900 4.385000
19.340400 4.432500
19.365900 4.382500
19.391400 4.327200
19.417000 4.347100
19.442500 4.250900
19.468000 4.101000
19.493600 3.991600
19.519100 3.898300
19.544600 3.863200
19.570100 3.909900
19.595700 4.062300
19.621200 4.220100
19.646700 4.264700
19.672200 4.277100
19.697800 4.260000
19.723300 4.226700
19.748800 4.239500
19.774300 4.296600
19.799900 4.378700
19.825400 4.333200
19.850900 4.279400
19.876400 4.215300
19.902000 4.198700
19.927500 4.225300
19.953000 4.160400
19.978500 4.093200
20.004100 4.067500
20.029600 4.087800
20.055100 4.106300
20.080700 4.097600
20.106200 4.054900
20.131700 4.019200
20.157200 4.044300
20.182800 4.087800
20.208300 4.130000
20.233800 4.160800
20.259300 4.116400
20.284900 4.106500
20.310400 4.146300
20.335900 4.108100
20.361400 4.064800
20.387000 4.131100
20.412500 4.172400
20.438000 4.167500
20.463500 4.345900
20.489100 4.230700
20.514600 3.952200
20.540100 3.851300
20.565600 3.829700
20.591200 3.852800
20.616700 3.849700
20.642200 3.799500
20.667800 3.564500
20.693300 3.550300
20.718800 3.597300
20.744300 3.591600
20.769900 3.585500
20.795400 3.759300
20.820900 3.870000
20.846400 3.931200
20.872000 3.976200
20.897500 3.906400
20.923000 3.841800
20.948500 4.141600
20.974100 4.365600
20.999600 4.417200
21.025100 4.449600
21.050600 4.525800
21.076200 4.593900
21.101700 4.654400
21.127200 4.687400
21.152700 4.657900
21.178300 4.639300
21.203800 4.620600
21.229300 4.475700
21.254900 4.157000
21.280400 4.179500
21.305900 4.187800
21.331400 4.263300
21.357000 4.383900
21.382500 4.201600
21.408000 4.058500
21.433500 3.975900
21.459100 3.864900
21.484600 3.785000
21.510100 3.740700
21.535600 3.742700
21.561200 3.703800
21.586700 3.650100
21.612200 3.618500
21.637700 3.611700
21.663300 3.512100
21.688800 3.468300
21.714300 3.544300
21.739800 3.726100
21.765400 4.043700
21.790900 4.220900
21.816400 4.336800
21.842000 4.899400
21.867500 4.917600
21.893000 5.443600
21.918500 5.801000
21.944100 5.690100
21.969600 5.499600
21.995100 5.287400
22.020600 5.073100
22.046200 4.852600
22.071700 4.602100
22.097200 4.386300
22.122700 4.275400
22.148300 4.191300
22.173800 4.118700
22.199300 4.104500
22.224800 4.089900
22.250400 4.079300
22.275900 4.161600
22.301400 4.278900
22.326900 4.350100
22.352500 4.361200
22.378000 4.320700
22.403500 4.143000
22.429100 4.226700
22.454600 4.194500
22.480100 4.087400
22.505600 4.080700
22.531200 4.117000
22.556700 4.153300
22.582200 4.335000
22.607700 4.386000
22.633300 4.521700
22.658800 4.563600
22.684300 4.657700
22.709800 4.854000
22.735400 4.700200
22.760900 4.716200
22.786400 4.773500
22.811900 4.847200
22.837500 4.945400
22.863000 5.040300
22.888500 5.079700
22.914000 5.058100
22.939600 4.975800
22.965100 4.731500
22.990600 4.429800
23.016200 4.237700
23.041700 4.007400
23.067200 3.824300
23.092700 3.679600
23.118300 3.507600
23.143800 3.360800
23.169300 3.279200
23.194800 3.282000
23.220400 3.323700
23.245900 3.449800
23.271400 3.615600
23.296900 3.723900
23.322500 3.807600
23.348000 3.951600
23.373500 4.049100
23.399000 4.153400
23.424600 4.229000
23.450100 4.282800
23.475600 4.401700
23.501100 4.478400
23.526700 4.375600
23.552200 4.493600
23.577700 4.887300
23.603300 5.539800
23.628800 5.641200
23.654300 5.334800
23.679800 4.769800
23.705400 4.186700
23.730900 3.952600
23.756400 3.938600
23.781900 3.966600
23.807500 4.013900
23.833000 4.081900
23.858500 4.424700
23.884000 4.493800
23.909600 4.699900
23.935100 5.230300
23.960600 4.928700
23.986100 4.536600
24.011700 4.556300
24.037200 4.582400
24.062700 4.679600
24.088200 4.804200
24.113800 4.951200
24.139300 5.025300
24.164800 5.055000
24.190400 5.176000
24.215900 5.005700
24.241400 4.909400
24.266900 4.882700
24.292500 4.866300
24.318000 4.659600
24.343500 4.158400
24.369000 4.088100
24.394600 4.060500
24.420100 4.075000
24.445600 4.031500
24.471100 4.008700
24.496700 4.147000
24.522200 4.299000
24.547700 4.513300
24.573200 4.696500
24.598800 4.799800
24.624300 4.786900
24.649800 4.793400
24.675300 4.781900
24.700900 4.738600
24.726400 4.615500
24.751900 4.407300
24.777500 4.135300
24.803000 3.831600
24.828500 3.694200
24.854000 3.637300
24.879600 3.624500
24.905100 3.633400
24.930600 3.679400
24.956100 3.797500
24.981700 3.704200
25.007200 3.581700
25.032700 3.623700
25.058200 3.420400
25.083800 3.330900
25.109300 3.425500
25.134800 3.395600
25.160300 3.020700
25.185900 2.760500
25.211400 2.520900
25.236900 2.298200
25.262400 2.071300
25.288000 1.855600
25.313500 1.698400
25.339000 1.495600
25.364600 1.414300
25.390100 1.357300
25.415600 1.312500
25.441100 1.266400
25.466700 1.246100
25.492200 1.241400
25.517700 1.213000
25.543200 1.179500
25.568800 1.143200
25.594300 1.107700
25.619800 1.071700
25.645300 1.003400
25.670900 1.116900
25.696400 1.001800
25.721900 0.972300
25.747400 0.952600
25.773000 0.933900
25.798500 0.915300
25.824000 0.896800
25.849500 0.878400
25.875100 0.860000
25.900600 0.841800
25.926100 0.819900
25.951700 0.794300
25.977200 1.048600
26.002700 0.831900
26.028200 0.659900
26.053800 0.616000
26.079300 0.590500
26.104800 0.621100
26.130300 0.659400
26.155900 0.754200
26.181400 0.762900
26.206900 0.769000
26.232400 0.772700
26.258000 0.773900
26.283500 0.723300
26.309000 0.691400
26.334500 0.538700
26.360100 0.470700
26.385600 0.434900
26.411100 0.424800
26.436600 0.433100
26.462200 0.447100
26.487700 0.467000
26.513200 0.491400
26.538800 0.520700
26.564300 0.582000
26.589800 0.871700
26.615300 0.934900
26.640900 1.035400
26.666400 0.865200
26.691900 0.655200
26.717400 0.471200
26.743000 0.318500
26.768500 0.239800
26.794000 0.198600
26.819500 0.161600
26.845100 0.128800
26.870600 0.111300
26.896100 0.095200
26.921600 0.080200
26.947200 0.066400
26.972700 0.053700
26.998200 0.042100
27.023700 0.031600
27.049300 0.022300
27.074800 0.014000
27.100300 0.000000
27.125900 0.000000
27.151400 0.000000
27.176900 0.000000
27.202400 0.000000
27.228000 0.000000
27.253500 0.000000
27.279000 0.000000
27.304500 0.000000
27.330100 0.000000
27.355600 0.000000
27.381100 0.000000
27.406600 0.000000
27.432200 0.000000
27.457700 0.000000
27.483200 0.000000
27.508700 0.000000
27.534300 0.000000
27.559800 0.000000
27.585300 0.000000
27.610800 0.000000
27.636400 0.000000
27.661900 0.000000
27.687400 0.000000
27.713000 0.000000
27.738500 0.000000
27.764000 0.000000
27.789500 0.000000
27.815100 0.000000
27.840600 0.000000
27.866100 0.000000
27.891600 0.000000
27.917200 0.000000
27.942700 0.000000
27.968200 0.000000
27.993700 0.000000
28.019300 0.000000
28.044800 0.000000
28.070300 0.000000
28.095800 0.000000
28.121400 0.000000
28.146900 0.000000
28.172400 0.000000
28.197900 0.000000
28.223500 0.000000
28.249000 0.000000
28.274500 0.000000
28.300100 0.000000
28.325600 0.000000
28.351100 0.000000
28.376600 0.000000
28.402200 0.000000
28.427700 0.000000
28.453200 0.000000
28.478700 0.000000
28.504300 0.000000
28.529800 0.000000
28.555300 0.000000
28.580800 0.000000
28.606400 0.000000
28.631900 0.000000
28.657400 0.000000
28.682900 0.000000
28.708500 0.000000
28.734000 0.000000
28.759500 0.000000
28.785000 0.000000
28.810600 0.000000
28.836100 0.000000
28.861600 0.000000
28.887200 0.000000
28.912700 0.000000
28.938200 0.000000
28.963700 0.000000
28.989300 0.000000
29.014800 0.000000
29.040300 0.000000
29.065800 0.000000
29.091400 0.000000
29.116900 0.000000
29.142400 0.000000
29.167900 0.000000
29.193500 0.000000
29.219000 0.000000
29.244500 0.000000
29.270000 0.000000
29.295600 0.000000
29.321100 0.000000
29.346600 0.000000
29.372200 0.000000
29.397700 0.000000
e
