set title 'mp-20745 - Density of States'
set xlabel 'Energy (eV)'
set ylabel 'DOS (states/eV)'
set grid
set xrange [-10:10]
set yrange [0:4.058]
set xzeroaxis lt -1
set terminal png size 800,600
set output 'mp-20745_dos_gnuplot.png'
plot '-' using 1:2 with lines title 'DOS'
-12.089900 0.000000
-12.071900 0.000000
-12.053900 0.000000
-12.035900 0.000000
-12.017900 0.000000
-11.999900 0.000000
-11.981900 0.000000
-11.963900 0.000000
-11.945900 0.000000
-11.927900 0.000000
-11.909900 0.000000
-11.891900 0.000000
-11.873900 0.000000
-11.856000 0.000000
-11.838000 0.000000
-11.820000 0.000000
-11.802000 0.000000
-11.784000 0.000000
-11.766000 0.000000
-11.748000 0.000000
-11.730000 0.000000
-11.712000 0.000000
-11.694000 0.000000
-11.676000 0.000000
-11.658000 0.000000
-11.640000 0.000000
-11.622000 0.000000
-11.604000 0.000000
-11.586000 0.000000
-11.568000 0.000000
-11.550000 0.000000
-11.532000 0.000000
-11.514000 0.000000
-11.496000 0.000000
-11.478000 0.000000
-11.460000 0.000000
-11.442000 0.000000
-11.424000 0.000000
-11.406000 0.000000
-11.388000 0.000000
-11.370000 0.000000
-11.352000 0.000000
-11.334000 0.000000
-11.316000 0.000000
-11.298000 0.000000
-11.280000 0.000000
-11.262000 0.000000
-11.244000 0.000000
-11.226000 0.000000
-11.208000 0.000000
-11.190000 0.000000
-11.172000 0.000000
-11.154000 0.000000
-11.136000 0.000000
-11.118000 0.000000
-11.100000 0.000000
-11.082000 0.000000
-11.064100 0.000000
-11.046100 0.000000
-11.028100 0.000000
-11.010100 0.000000
-10.992100 0.000000
-10.974100 0.000000
-10.956100 0.000000
-10.938100 0.000000
-10.920100 0.000000
-10.902100 0.000000
-10.884100 0.000000
-10.866100 0.000000
-10.848100 0.000000
-10.830100 0.000000
-10.812100 0.000000
-10.794100 0.000000
-10.776100 0.000000
-10.758100 0.000000
-10.740100 0.000000
-10.722100 0.000000
-10.704100 0.000000
-10.686100 0.000000
-10.668100 0.000000
-10.650100 0.000000
-10.632100 0.000000
-10.614100 0.000000
-10.596100 0.000000
-10.578100 0.000000
-10.560100 0.000000
-10.542100 0.000000
-10.524100 0.000000
-10.506100 0.000000
-10.488100 0.000000
-10.470100 0.000000
-10.452100 0.358800
-10.434100 6.645200
-10.416100 11.164100
-10.398100 16.661900
-10.380100 31.230500
-10.362100 68.639700
-10.344100 73.788900
-10.326100 61.233300
-10.308100 77.477900
-10.290200 83.273500
-10.272200 39.707000
-10.254200 56.078100
-10.236200 47.308600
-10.218200 37.869300
-10.200200 66.918700
-10.182200 57.450000
-10.164200 52.697600
-10.146200 65.249800
-10.128200 56.355700
-10.110200 77.731100
-10.092200 87.623700
-10.074200 42.196400
-10.056200 0.000000
-10.038200 0.000000
-10.020200 0.000000
-10.002200 0.000000
-9.984200 0.000000
-9.966200 0.000000
-9.948200 0.000000
-9.930200 0.000000
-9.912200 0.000000
-9.894200 0.000000
-9.876200 0.000000
-9.858200 0.000000
-9.840200 0.000000
-9.822200 0.000000
-9.804200 0.000000
-9.786200 0.000000
-9.768200 0.000000
-9.750200 0.000000
-9.732200 0.000000
-9.714200 0.000000
-9.696200 0.000000
-9.678200 0.000000
-9.660200 0.000000
-9.642200 0.000000
-9.624200 0.000000
-9.606200 0.000000
-9.588200 0.000000
-9.570200 0.000000
-9.552200 0.000000
-9.534200 0.000000
-9.516200 0.000000
-9.498300 0.000000
-9.480300 0.000000
-9.462300 0.000000
-9.444300 0.000000
-9.426300 0.000000
-9.408300 0.000000
-9.390300 0.000000
-9.372300 0.000000
-9.354300 0.000000
-9.336300 0.000000
-9.318300 0.000000
-9.300300 0.000000
-9.282300 0.000000
-9.264300 0.000000
-9.246300 0.000000
-9.228300 0.000000
-9.210300 0.000000
-9.192300 0.000000
-9.174300 0.000000
-9.156300 0.000000
-9.138300 0.000000
-9.120300 0.000000
-9.102300 0.000000
-9.084300 0.000000
-9.066300 0.000000
-9.048300 0.000000
-9.030300 0.000000
-9.012300 0.000000
-8.994300 0.000000
-8.976300 0.000000
-8.958300 0.000000
-8.940300 0.000000
-8.922300 0.000000
-8.904300 0.000000
-8.886300 0.000000
-8.868300 0.000000
-8.850300 0.000000
-8.832300 0.000000
-8.814300 0.000000
-8.796300 0.000000
-8.778300 0.000000
-8.760300 0.000000
-8.742300 0.000000
-8.724300 0.000000
-8.706400 0.000000
-8.688400 0.000000
-8.670400 0.000000
-8.652400 0.000000
-8.634400 0.000000
-8.616400 0.000000
-8.598400 0.000000
-8.580400 0.000000
-8.562400 0.000000
-8.544400 0.000000
-8.526400 0.000000
-8.508400 0.000000
-8.490400 0.000000
-8.472400 0.000000
-8.454400 0.000000
-8.436400 0.000000
-8.418400 0.000000
-8.400400 0.000000
-8.382400 0.000000
-8.364400 0.000000
-8.346400 0.000000
-8.328400 0.000000
-8.310400 0.000000
-8.292400 0.000000
-8.274400 0.000000
-8.256400 0.000000
-8.238400 0.000000
-8.220400 0.000000
-8.202400 0.000000
-8.184400 0.000000
-8.166400 0.000000
-8.148400 0.000000
-8.130400 0.000000
-8.112400 0.000000
-8.094400 0.000000
-8.076400 0.000000
-8.058400 0.000000
-8.040400 0.000000
-8.022400 0.000000
-8.004400 0.000000
-7.986400 0.000000
-7.968400 0.000000
-7.950400 0.000000
-7.932500 0.000000
-7.914500 0.000000
-7.896500 0.000000
-7.878500 0.000000
-7.860500 0.000000
-7.842500 0.000000
-7.824500 0.000000
-7.806500 0.000000
-7.788500 0.000000
-7.770500 0.000000
-7.752500 0.000000
-7.734500 0.000000
-7.716500 0.000000
-7.698500 0.000000
-7.680500 0.000000
-7.662500 0.000000
-7.644500 0.000000
-7.626500 0.000000
-7.608500 0.000000
-7.590500 0.000000
-7.572500 0.000000
-7.554500 0.000000
-7.536500 0.000000
-7.518500 0.000000
-7.500500 0.000000
-7.482500 0.000000
-7.464500 0.000000
-7.446500 0.000000
-7.428500 0.000000
-7.410500 0.000000
-7.392500 0.000000
-7.374500 0.000000
-7.356500 0.000000
-7.338500 0.000000
-7.320500 0.000000
-7.302500 0.000000
-7.284500 0.000000
-7.266500 0.000000
-7.248500 0.000000
-7.230500 0.000000
-7.212500 0.000000
-7.194500 0.000000
-7.176500 0.000000
-7.158500 0.000000
-7.140600 0.000000
-7.122600 0.000000
-7.104600 0.000000
-7.086600 0.000000
-7.068600 0.000000
-7.050600 0.000000
-7.032600 0.000000
-7.014600 0.000000
-6.996600 0.000000
-6.978600 0.000000
-6.960600 0.000000
-6.942600 0.000000
-6.924600 0.000000
-6.906600 0.000000
-6.888600 0.000000
-6.870600 0.000000
-6.852600 0.000000
-6.834600 0.000000
-6.816600 0.000000
-6.798600 0.000000
-6.780600 0.000000
-6.762600 0.000000
-6.744600 0.000000
-6.726600 0.000000
-6.708600 0.000000
-6.690600 0.000000
-6.672600 0.000000
-6.654600 0.000000
-6.636600 0.000000
-6.618600 0.000000
-6.600600 0.000000
-6.582600 0.000000
-6.564600 0.000000
-6.546600 0.000000
-6.528600 0.000000
-6.510600 0.000000
-6.492600 0.000000
-6.474600 0.000000
-6.456600 0.000000
-6.438600 0.000000
-6.420600 0.000000
-6.402600 0.000000
-6.384600 0.000000
-6.366600 0.000000
-6.348700 0.000000
-6.330700 0.000000
-6.312700 0.000000
-6.294700 0.000000
-6.276700 0.000000
-6.258700 0.000000
-6.240700 0.000000
-6.222700 0.000000
-6.204700 0.000000
-6.186700 0.000000
-6.168700 0.000000
-6.150700 0.000000
-6.132700 0.000000
-6.114700 0.000000
-6.096700 0.000000
-6.078700 0.000000
-6.060700 0.000000
-6.042700 0.000000
-6.024700 0.000000
-6.006700 0.000000
-5.988700 0.000000
-5.970700 0.000000
-5.952700 0.000000
-5.934700 0.000000
-5.916700 0.000000
-5.898700 0.000000
-5.880700 0.000000
-5.862700 0.000000
-5.844700 0.000000
-5.826700 0.000000
-5.808700 0.000000
-5.790700 0.000000
-5.772700 0.000000
-5.754700 0.000000
-5.736700 0.000000
-5.718700 0.000000
-5.700700 0.000000
-5.682700 0.000000
-5.664700 0.000000
-5.646700 0.000000
-5.628700 0.000000
-5.610700 0.000000
-5.592700 0.000000
-5.574800 0.000000
-5.556800 0.000000
-5.538800 0.000000
-5.520800 0.000000
-5.502800 0.000000
-5.484800 0.000000
-5.466800 0.000000
-5.448800 0.000000
-5.430800 0.000000
-5.412800 0.000000
-5.394800 0.000000
-5.376800 0.000000
-5.358800 0.000000
-5.340800 0.000000
-5.322800 0.000000
-5.304800 0.000000
-5.286800 0.000000
-5.268800 0.000000
-5.250800 0.000000
-5.232800 0.000000
-5.214800 0.000000
-5.196800 0.000000
-5.178800 0.000000
-5.160800 0.000000
-5.142800 0.000000
-5.124800 0.000000
-5.106800 0.000000
-5.088800 0.000000
-5.070800 0.000000
-5.052800 0.000000
-5.034800 0.000000
-5.016800 0.000000
-4.998800 0.000000
-4.980800 0.000000
-4.962800 0.000000
-4.944800 0.000000
-4.926800 0.000000
-4.908800 0.000000
-4.890800 0.000000
-4.872800 0.000000
-4.854800 0.000000
-4.836800 0.000000
-4.818800 0.000000
-4.800800 0.000000
-4.782900 0.000000
-4.764900 0.000000
-4.746900 0.000000
-4.728900 0.000000
-4.710900 0.000000
-4.692900 0.000000
-4.674900 0.000000
-4.656900 0.000000
-4.638900 0.000000
-4.620900 0.000500
-4.602900 0.016400
-4.584900 0.055000
-4.566900 0.093000
-4.548900 0.102100
-4.530900 0.105200
-4.512900 0.120400
-4.494900 0.136100
-4.476900 0.152500
-4.458900 0.167100
-4.440900 0.175200
-4.422900 0.177700
-4.404900 0.183000
-4.386900 0.190400
-4.368900 0.199000
-4.350900 0.207600
-4.332900 0.216100
-4.314900 0.224700
-4.296900 0.233700
-4.278900 0.243100
-4.260900 0.250100
-4.242900 0.253700
-4.224900 0.257900
-4.206900 0.263400
-4.188900 0.268700
-4.170900 0.273700
-4.152900 0.278700
-4.134900 0.283900
-4.116900 0.289600
-4.098900 0.295800
-4.080900 0.302200
-4.062900 0.308800
-4.044900 0.315500
-4.026900 0.322300
-4.008900 0.328700
-3.991000 0.333200
-3.973000 0.336300
-3.955000 0.339600
-3.937000 0.343400
-3.919000 0.347800
-3.901000 0.352200
-3.883000 0.356500
-3.865000 0.360700
-3.847000 0.365200
-3.829000 0.369800
-3.811000 0.374600
-3.793000 0.379500
-3.775000 0.384500
-3.757000 0.389600
-3.739000 0.394700
-3.721000 0.399800
-3.703000 0.404900
-3.685000 0.424200
-3.667000 0.451100
-3.649000 0.474200
-3.631000 0.445900
-3.613000 0.448500
-3.595000 0.450800
-3.577000 0.452800
-3.559000 0.454500
-3.541000 0.454700
-3.523000 0.452100
-3.505000 0.449900
-3.487000 0.449800
-3.469000 0.451100
-3.451000 0.452300
-3.433000 0.453500
-3.415000 0.454600
-3.397000 0.455800
-3.379000 0.456900
-3.361000 0.458000
-3.343000 0.455600
-3.325000 0.456200
-3.307000 0.457000
-3.289000 0.469900
-3.271000 0.498000
-3.253000 0.527900
-3.235000 0.505300
-3.217100 0.510900
-3.199100 0.516600
-3.181100 0.522800
-3.163100 0.529000
-3.145100 0.533800
-3.127100 0.535200
-3.109100 0.536400
-3.091100 0.538800
-3.073100 0.542300
-3.055100 0.546000
-3.037100 0.550800
-3.019100 0.555800
-3.001100 0.560800
-2.983100 0.565900
-2.965100 0.571100
-2.947100 0.572500
-2.929100 0.576600
-2.911100 0.580800
-2.893100 0.585100
-2.875100 0.589400
-2.857100 0.593900
-2.839100 0.598700
-2.821100 0.603500
-2.803100 0.608200
-2.785100 0.612700
-2.767100 0.617100
-2.749100 0.620300
-2.731100 0.624700
-2.713100 0.628800
-2.695100 0.631900
-2.677100 0.635000
-2.659100 0.638800
-2.641100 0.643300
-2.623100 0.647800
-2.605100 0.652300
-2.587100 0.656800
-2.569100 0.661400
-2.551100 0.665900
-2.533100 0.670500
-2.515100 0.675300
-2.497100 0.680100
-2.479100 0.685000
-2.461100 0.690100
-2.443100 0.695100
-2.425200 0.700300
-2.407200 0.705400
-2.389200 0.710600
-2.371200 0.714200
-2.353200 0.718700
-2.335200 0.723500
-2.317200 0.728500
-2.299200 0.733600
-2.281200 0.738900
-2.263200 0.744200
-2.245200 0.749600
-2.227200 0.755100
-2.209200 0.760700
-2.191200 0.766400
-2.173200 0.772200
-2.155200 0.778100
-2.137200 0.784000
-2.119200 0.790000
-2.101200 0.796100
-2.083200 0.802400
-2.065200 0.808700
-2.047200 0.815100
-2.029200 0.821600
-2.011200 0.827900
-1.993200 0.834200
-1.975200 0.840700
-1.957200 0.847500
-1.939200 0.854200
-1.921200 0.861200
-1.903200 0.868400
-1.885200 0.875800
-1.867200 0.883300
-1.849200 0.891500
-1.831200 0.900400
-1.813200 0.909300
-1.795200 0.918300
-1.777200 0.927400
-1.759200 0.936700
-1.741200 0.946200
-1.723200 0.956400
-1.705200 0.966800
-1.687200 0.977400
-1.669200 0.988600
-1.651200 1.000700
-1.633300 1.013500
-1.615300 1.026800
-1.597300 1.040800
-1.579300 1.055500
-1.561300 1.070600
-1.543300 1.087300
-1.525300 1.105700
-1.507300 1.125000
-1.489300 1.145300
-1.471300 1.167700
-1.453300 1.195900
-1.435300 1.275600
-1.417300 1.362000
-1.399300 1.359600
-1.381300 1.343300
-1.363300 1.341700
-1.345300 1.352700
-1.327300 1.358600
-1.309300 1.352800
-1.291300 1.341700
-1.273300 1.333100
-1.255300 1.331600
-1.237300 1.345400
-1.219300 1.367400
-1.201300 1.383700
-1.183300 1.357100
-1.165300 1.348100
-1.147300 1.346800
-1.129300 1.344300
-1.111300 1.338800
-1.093300 1.333000
-1.075300 1.330100
-1.057300 1.326800
-1.039300 1.324400
-1.021300 1.321900
-1.003300 1.318100
-0.985300 1.313800
-0.967300 1.309500
-0.949300 1.305900
-0.931300 1.301500
-0.913300 1.296800
-0.895300 1.294400
-0.877300 1.296600
-0.859400 1.300000
-0.841400 1.302900
-0.823400 1.305900
-0.805400 1.367100
-0.787400 1.277000
-0.769400 1.258000
-0.751400 1.237100
-0.733400 1.233700
-0.715400 1.230800
-0.697400 1.230800
-0.679400 1.244000
-0.661400 1.262900
-0.643400 1.289100
-0.625400 1.286400
-0.607400 1.461700
-0.589400 1.326600
-0.571400 1.319900
-0.553400 1.310500
-0.535400 1.298600
-0.517400 1.284400
-0.499400 1.287200
-0.481400 1.299900
-0.463400 1.325900
-0.445400 1.334100
-0.427400 1.390300
-0.409400 1.421300
-0.391400 1.441300
-0.373400 1.459400
-0.355400 1.479700
-0.337400 1.507000
-0.319400 1.585600
-0.301400 1.644000
-0.283400 1.724000
-0.265400 1.888300
-0.247400 2.347800
-0.229400 2.467100
-0.211400 2.751800
-0.193400 2.455000
-0.175400 2.474000
-0.157400 3.688700
-0.139400 2.639600
-0.121400 2.137700
-0.103400 1.971000
-0.085400 1.816900
-0.067500 1.707600
-0.049500 1.509900
-0.031500 1.163900
-0.013500 0.992400
0.004500 0.884100
0.022500 0.788000
0.040500 0.586900
0.058500 0.417300
0.076500 0.236800
0.094500 0.074400
0.112500 0.000000
0.130500 0.000000
0.148500 0.000000
0.166500 0.000000
0.184500 0.000000
0.202500 0.000000
0.220500 0.000000
0.238500 0.000000
0.256500 0.000000
0.274500 0.000000
0.292500 0.000000
0.310500 0.000000
0.328500 0.000000
0.346500 0.000000
0.364500 0.000000
0.382500 0.000000
0.400500 0.000000
0.418500 0.000000
0.436500 0.000000
0.454500 0.000000
0.472500 0.000000
0.490500 0.000000
0.508500 0.000000
0.526500 0.000000
0.544500 0.000000
0.562500 0.000000
0.580500 0.000000
0.598500 0.000000
0.616500 0.000000
0.634500 0.000000
0.652500 0.000000
0.670500 0.000000
0.688500 0.000000
0.706400 0.000000
0.724400 0.000000
0.742400 0.000000
0.760400 0.000000
0.778400 0.000000
0.796400 0.000000
0.814400 0.000000
0.832400 0.000000
0.850400 0.000000
0.868400 0.000000
0.886400 0.000000
0.904400 0.000000
0.922400 0.000000
0.940400 0.000000
0.958400 0.000000
0.976400 0.000000
0.994400 0.000000
1.012400 0.000000
1.030400 0.000000
1.048400 0.000000
1.066400 0.000000
1.084400 0.000000
1.102400 0.000000
1.120400 0.000000
1.138400 0.000000
1.156400 0.000000
1.174400 0.000000
1.192400 0.000000
1.210400 0.000000
1.228400 0.000000
1.246400 0.000000
1.264400 0.000000
1.282400 0.000000
1.300400 0.000000
1.318400 0.000000
1.336400 0.000000
1.354400 0.000000
1.372400 0.000000
1.390400 0.000000
1.408400 0.000000
1.426400 0.000000
1.444400 0.000000
1.462400 0.000000
1.480400 0.000000
1.498300 0.000000
1.516300 0.000000
1.534300 0.000000
1.552300 0.000000
1.570300 0.000000
1.588300 0.000000
1.606300 0.000000
1.624300 0.000000
1.642300 0.000000
1.660300 0.000000
1.678300 0.000000
1.696300 0.000000
1.714300 0.000000
1.732300 0.000000
1.750300 0.000000
1.768300 0.000000
1.786300 0.000000
1.804300 0.000000
1.822300 0.000000
1.840300 0.000000
1.858300 0.000000
1.876300 0.000000
1.894300 0.000000
1.912300 0.000000
1.930300 0.000000
1.948300 0.000000
1.966300 0.000000
1.984300 0.000000
2.002300 0.000000
2.020300 0.000000
2.038300 0.000000
2.056300 0.000000
2.074300 0.000000
2.092300 0.000000
2.110300 0.000000
2.128300 0.000000
2.146300 0.000000
2.164300 0.000000
2.182300 0.000000
2.200300 0.000000
2.218300 0.000000
2.236300 0.000000
2.254300 0.000000
2.272300 0.000000
2.290200 0.000000
2.308200 0.000000
2.326200 0.000000
2.344200 0.000000
2.362200 0.000000
2.380200 0.000000
2.398200 0.000000
2.416200 0.000000
2.434200 0.000000
2.452200 0.000000
2.470200 0.000000
2.488200 0.000000
2.506200 0.000000
2.524200 0.000000
2.542200 0.000000
2.560200 0.000000
2.578200 0.000000
2.596200 0.000000
2.614200 0.000000
2.632200 0.000000
2.650200 0.000000
2.668200 0.000000
2.686200 0.000000
2.704200 0.000000
2.722200 0.000000
2.740200 0.000000
2.758200 0.000000
2.776200 0.000000
2.794200 0.000000
2.812200 0.000600
2.830200 0.003800
2.848200 0.009500
2.866200 0.015900
2.884200 0.020500
2.902200 0.025300
2.920200 0.030300
2.938200 0.035500
2.956200 0.041000
2.974200 0.046700
2.992200 0.052500
3.010200 0.058000
3.028200 0.063400
3.046200 0.068300
3.064100 0.071900
3.082100 0.073800
3.100100 0.074800
3.118100 0.077400
3.136100 0.082800
3.154100 0.099500
3.172100 0.128100
3.190100 0.168500
3.208100 0.224400
3.226100 0.289500
3.244100 0.347600
3.262100 0.391800
3.280100 0.421900
3.298100 0.437500
3.316100 0.451000
3.334100 0.437300
3.352100 0.435600
3.370100 0.440900
3.388100 0.457200
3.406100 0.475800
3.424100 0.495500
3.442100 0.523200
3.460100 0.554000
3.478100 0.586800
3.496100 0.618900
3.514100 0.646100
3.532100 0.670900
3.550100 0.737800
3.568100 0.739700
3.586100 0.736700
3.604100 0.740800
3.622100 0.753700
3.640100 0.764700
3.658100 0.783200
3.676100 0.801400
3.694100 0.819400
3.712100 0.837600
3.730100 0.858100
3.748100 0.880200
3.766100 0.903400
3.784100 0.939200
3.802100 0.986200
3.820100 1.020100
3.838100 1.054700
3.856000 1.091000
3.874000 1.127900
3.892000 1.161700
3.910000 1.200400
3.928000 1.211300
3.946000 1.199200
3.964000 1.210700
3.982000 1.220300
4.000000 1.228700
4.018000 1.236400
4.036000 1.244200
4.054000 1.252800
4.072000 1.266400
4.090000 1.279300
4.108000 1.298000
4.126000 1.319300
4.144000 1.343100
4.162000 1.369700
4.180000 1.394100
4.198000 1.428800
4.216000 1.503700
4.234000 1.614800
4.252000 1.869800
4.270000 1.933900
4.288000 1.789200
4.306000 1.735000
4.324000 1.682100
4.342000 1.750400
4.360000 1.723700
4.378000 1.678500
4.396000 1.621900
4.414000 1.573500
4.432000 1.532000
4.450000 1.497900
4.468000 1.475400
4.486000 1.473800
4.504000 1.465900
4.522000 1.479100
4.540000 1.498100
4.558000 1.515200
4.576000 1.526800
4.594000 1.532800
4.612000 1.513100
4.630000 1.486900
4.647900 1.463300
4.665900 1.441000
4.683900 1.419000
4.701900 1.396500
4.719900 1.364200
4.737900 1.342400
4.755900 1.329700
4.773900 1.317200
4.791900 1.302800
4.809900 1.287000
4.827900 1.268900
4.845900 1.258600
4.863900 1.272500
4.881900 1.240200
4.899900 1.185500
4.917900 1.123800
4.935900 1.068400
4.953900 1.027500
4.971900 1.002600
4.989900 0.984100
5.007900 0.969800
5.025900 0.960200
5.043900 0.953400
5.061900 0.949400
5.079900 0.946900
5.097900 0.945100
5.115900 0.944600
5.133900 0.945400
5.151900 0.948200
5.169900 0.956400
5.187900 0.967400
5.205900 0.981600
5.223900 0.998300
5.241900 1.012400
5.259900 1.027000
5.277900 1.044400
5.295900 1.056900
5.313900 1.071200
5.331900 1.090900
5.349900 1.111400
5.367900 1.131900
5.385900 1.150600
5.403900 1.169700
5.421800 1.188900
5.439800 1.195900
5.457800 1.204100
5.475800 1.211500
5.493800 1.228000
5.511800 1.245700
5.529800 1.263600
5.547800 1.286300
5.565800 1.298800
5.583800 1.311100
5.601800 1.326200
5.619800 1.341500
5.637800 1.351600
5.655800 1.355800
5.673800 1.351100
5.691800 1.337100
5.709800 1.315200
5.727800 1.290100
5.745800 1.259300
5.763800 1.217800
5.781800 1.170600
5.799800 1.112400
5.817800 1.050200
5.835800 0.985500
5.853800 0.909700
5.871800 0.867700
5.889800 0.852500
5.907800 0.842500
5.925800 0.834900
5.943800 0.832800
5.961800 0.827800
5.979800 0.827000
5.997800 0.826600
6.015800 0.826700
6.033800 0.834800
6.051800 0.852900
6.069800 0.873000
6.087800 0.895900
6.105800 0.922100
6.123800 0.951300
6.141800 0.982800
6.159800 1.016400
6.177800 1.050300
6.195800 1.085100
6.213700 1.120600
6.231700 1.150200
6.249700 1.172400
6.267700 1.192000
6.285700 1.208800
6.303700 1.221800
6.321700 1.241200
6.339700 1.252700
6.357700 1.258100
6.375700 1.263500
6.393700 1.269400
6.411700 1.276800
6.429700 1.290300
6.447700 1.309300
6.465700 1.326700
6.483700 1.343400
6.501700 1.361100
6.519700 1.377500
6.537700 1.396200
6.555700 1.407700
6.573700 1.380500
6.591700 1.346900
6.609700 1.311300
6.627700 1.272200
6.645700 1.230800
6.663700 1.199000
6.681700 1.204900
6.699700 1.206100
6.717700 1.195400
6.735700 1.164600
6.753700 1.136700
6.771700 1.141000
6.789700 1.183900
6.807700 1.143600
6.825700 1.129700
6.843700 1.118800
6.861700 1.110100
6.879700 1.102400
6.897700 1.099500
6.915700 1.107800
6.933700 1.119700
6.951700 1.676800
6.969700 1.075700
6.987700 0.939600
7.005600 0.956700
7.023600 0.970700
7.041600 0.981400
7.059600 0.992100
7.077600 1.006100
7.095600 1.021200
7.113600 1.034700
7.131600 1.045200
7.149600 1.051800
7.167600 1.057400
7.185600 1.064300
7.203600 1.072700
7.221600 1.083100
7.239600 1.095500
7.257600 1.113200
7.275600 1.132200
7.293600 1.168300
7.311600 1.186100
7.329600 1.197500
7.347600 1.205200
7.365600 1.210500
7.383600 1.211500
7.401600 1.207300
7.419600 1.200700
7.437600 1.194400
7.455600 1.182800
7.473600 1.175500
7.491600 1.170400
7.509600 1.161800
7.527600 1.149500
7.545600 1.133900
7.563600 1.115200
7.581600 1.108500
7.599600 1.107100
7.617600 1.105300
7.635600 1.105500
7.653600 1.106700
7.671600 1.108500
7.689600 1.110600
7.707600 1.112900
7.725600 1.114500
7.743600 1.108500
7.761600 1.099200
7.779500 1.091600
7.797500 1.093700
7.815500 1.117900
7.833500 1.141500
7.851500 1.166600
7.869500 1.134500
7.887500 1.138500
7.905500 1.142900
7.923500 1.147900
7.941500 1.152800
7.959500 1.157200
7.977500 1.159800
7.995500 1.159100
8.013500 1.159600
8.031500 1.235800
8.049500 1.266400
8.067500 1.341800
8.085500 1.589200
8.103500 1.137600
8.121500 1.138900
8.139500 1.142500
8.157500 1.147300
8.175500 1.153000
8.193500 1.161700
8.211500 1.168100
8.229500 1.174400
8.247500 1.179700
8.265500 1.183400
8.283500 1.189300
8.301500 1.198500
8.319500 1.205300
8.337500 1.206200
8.355500 1.211400
8.373500 1.215800
8.391500 1.218900
8.409500 1.224800
8.427500 1.226200
8.445500 1.228200
8.463500 1.228300
8.481500 1.236800
8.499500 1.283200
8.517500 1.283700
8.535500 1.299800
8.553500 1.324200
8.571400 1.353200
8.589400 1.380100
8.607400 1.403400
8.625400 1.471500
8.643400 1.580500
8.661400 1.648900
8.679400 1.564400
8.697400 1.499300
8.715400 1.500400
8.733400 1.505100
8.751400 1.508400
8.769400 1.509100
8.787400 1.508600
8.805400 1.507300
8.823400 1.505800
8.841400 1.517800
8.859400 1.511500
8.877400 1.522000
8.895400 1.515200
8.913400 1.514400
8.931400 1.514900
8.949400 1.515700
8.967400 1.513500
8.985400 1.511400
9.003400 1.509300
9.021400 1.507100
9.039400 1.502600
9.057400 1.499900
9.075400 1.497100
9.093400 1.496300
9.111400 1.492700
9.129400 1.485100
9.147400 1.477600
9.165400 1.469900
9.183400 1.461900
9.201400 1.454300
9.219400 1.446800
9.237400 1.439800
9.255400 1.435300
9.273400 1.431900
9.291400 1.429400
9.309400 1.428400
9.327400 1.428500
9.345400 1.429900
9.363300 1.431600
9.381300 1.432300
9.399300 1.435400
9.417300 1.440100
9.435300 1.445000
9.453300 1.453300
9.471300 1.461900
9.489300 1.471100
9.507300 1.483100
9.525300 1.510500
9.543300 1.519800
9.561300 1.553800
9.579300 1.626700
9.597300 1.672600
9.615300 1.711500
9.633300 1.630700
9.651300 1.634700
9.669300 1.627300
9.687300 1.619500
9.705300 1.611300
9.723300 1.602600
9.741300 1.595000
9.759300 1.586100
9.777300 1.575700
9.795300 1.563200
9.813300 1.546900
9.831300 1.529600
9.849300 1.512300
9.867300 1.494300
9.885300 1.476800
9.903300 1.455800
9.921300 1.436200
9.939300 1.426300
9.957300 1.445900
9.975300 1.438600
9.993300 1.431600
10.011300 1.425800
10.029300 1.432600
10.047300 1.442300
10.065300 1.476700
10.083300 1.505000
10.101300 1.504100
10.119300 1.499700
10.137200 1.497500
10.155200 1.503100
10.173200 1.508300
10.191200 1.546100
10.209200 1.519200
10.227200 1.495000
10.245200 1.472800
10.263200 1.454800
10.281200 1.450700
10.299200 1.450600
10.317200 1.397600
10.335200 1.403500
10.353200 1.412600
10.371200 1.423000
10.389200 1.426900
10.407200 1.433500
10.425200 1.442400
10.443200 1.454000
10.461200 1.444700
10.479200 1.444200
10.497200 1.444600
10.515200 1.455900
10.533200 1.477500
10.551200 1.498400
10.569200 1.547200
10.587200 1.599600
10.605200 1.610100
10.623200 1.619100
10.641200 1.630200
10.659200 1.637300
10.677200 1.635900
10.695200 1.634500
10.713200 1.632400
10.731200 1.633600
10.749200 1.643900
10.767200 1.664900
10.785200 1.696100
10.803200 1.738900
10.821200 1.803900
10.839200 1.720000
10.857200 1.719000
10.875200 1.722700
10.893200 1.724800
10.911200 1.727200
10.929100 1.728100
10.947100 1.732800
10.965100 1.742500
10.983100 1.747200
11.001100 1.752800
11.019100 1.752300
11.037100 1.751200
11.055100 1.739300
11.073100 1.734700
11.091100 1.726500
11.109100 1.719100
11.127100 1.712500
11.145100 1.710300
11.163100 1.706300
11.181100 1.702400
11.199100 1.697900
11.217100 1.693000
11.235100 1.684500
11.253100 1.670900
11.271100 1.660500
11.289100 1.654200
11.307100 1.627400
11.325100 1.595500
11.343100 1.568400
11.361100 1.542800
11.379100 1.518300
11.397100 1.319400
11.415100 1.302600
11.433100 1.292100
11.451100 1.283200
11.469100 1.218800
11.487100 1.198300
11.505100 1.180400
11.523100 1.165100
11.541100 1.151400
11.559100 1.139800
11.577100 1.130800
11.595100 1.123700
11.613100 1.117100
11.631100 1.111100
11.649100 1.105500
11.667100 1.100200
11.685100 1.095300
11.703100 1.090600
11.721000 1.086700
11.739000 1.083700
11.757000 1.082300
11.775000 1.080900
11.793000 1.078200
11.811000 1.071600
11.829000 1.063400
11.847000 1.054700
11.865000 1.045900
11.883000 1.037100
11.901000 1.029700
11.919000 1.026300
11.937000 1.028100
11.955000 1.030100
11.973000 1.025400
11.991000 1.016400
12.009000 1.004500
12.027000 0.987500
12.045000 0.964600
12.063000 0.945800
12.081000 0.926300
12.099000 0.907400
12.117000 0.890000
12.135000 0.874000
12.153000 0.859700
12.171000 0.845600
12.189000 0.833000
12.207000 0.822100
12.225000 0.812000
12.243000 0.802400
12.261000 0.794100
12.279000 0.785000
12.297000 0.777000
12.315000 0.769600
12.333000 0.762800
12.351000 0.756500
12.369000 0.750200
12.387000 0.742400
12.405000 0.734300
12.423000 0.726100
12.441000 0.720400
12.459000 0.714500
12.477000 0.709100
12.494900 0.708900
12.512900 0.707000
12.530900 0.705300
12.548900 0.694700
12.566900 0.684900
12.584900 0.675800
12.602900 0.672000
12.620900 0.667600
12.638900 0.659800
12.656900 0.654600
12.674900 0.646300
12.692900 0.639700
12.710900 0.633200
12.728900 0.627100
12.746900 0.621300
12.764900 0.615900
12.782900 0.610600
12.800900 0.605600
12.818900 0.600700
12.836900 0.597700
12.854900 0.601700
12.872900 0.610600
12.890900 0.618800
12.908900 0.625000
12.926900 0.631500
12.944900 0.639100
12.962900 0.663800
12.980900 0.669700
12.998900 0.675000
13.016900 0.680300
13.034900 0.686300
13.052900 0.692200
13.070900 0.697900
13.088900 0.707400
13.106900 0.718000
13.124900 0.728900
13.142900 0.741400
13.160900 0.759300
13.178900 0.788600
13.196900 0.820000
13.214900 0.845700
13.232900 0.867400
13.250900 0.887400
13.268900 0.906900
13.286800 0.928800
13.304800 0.950100
13.322800 0.970100
13.340800 1.001800
13.358800 1.027300
13.376800 1.039900
13.394800 1.046500
13.412800 1.052600
13.430800 1.058600
13.448800 1.067200
13.466800 1.077700
13.484800 1.089700
13.502800 1.105500
13.520800 1.115300
13.538800 1.127000
13.556800 1.140900
13.574800 1.147300
13.592800 1.147300
13.610800 1.151400
13.628800 1.155100
13.646800 1.156800
13.664800 1.153200
13.682800 1.156300
13.700800 1.170000
13.718800 1.176200
13.736800 1.180600
13.754800 1.183200
13.772800 1.184300
13.790800 1.197600
13.808800 1.191400
13.826800 1.208000
13.844800 1.211100
13.862800 1.166700
13.880800 1.113000
13.898800 1.072000
13.916800 1.065900
13.934800 1.065400
13.952800 1.069000
13.970800 1.072500
13.988800 1.076600
14.006800 1.081300
14.024800 1.086100
14.042800 1.091200
14.060800 1.096600
14.078700 1.102500
14.096700 1.109500
14.114700 1.117100
14.132700 1.127900
14.150700 1.148100
14.168700 1.201600
14.186700 1.235800
14.204700 1.269400
14.222700 1.299400
14.240700 1.323800
14.258700 1.344200
14.276700 1.364100
14.294700 1.377700
14.312700 1.382900
14.330700 1.378600
14.348700 1.402300
14.366700 1.426400
14.384700 1.491400
14.402700 1.542400
14.420700 1.575400
14.438700 1.585800
14.456700 1.575500
14.474700 1.571200
14.492700 1.556500
14.510700 1.530700
14.528700 1.500400
14.546700 1.476500
14.564700 1.462600
14.582700 1.449500
14.600700 1.427700
14.618700 1.405500
14.636700 1.389500
14.654700 1.380300
14.672700 1.374700
14.690700 1.369800
14.708700 1.364800
14.726700 1.357400
14.744700 1.346900
14.762700 1.330700
14.780700 1.319000
14.798700 1.311600
14.816700 1.360600
14.834700 1.397300
14.852600 1.398400
14.870600 1.398300
14.888600 1.347500
14.906600 1.514800
14.924600 1.341900
14.942600 1.346100
14.960600 1.351300
14.978600 1.358800
14.996600 1.368100
15.014600 1.386200
15.032600 1.436000
15.050600 1.471300
15.068600 1.501800
15.086600 1.524800
15.104600 1.545000
15.122600 1.570200
15.140600 1.602100
15.158600 1.617200
15.176600 1.617600
15.194600 1.623700
15.212600 1.656200
15.230600 1.679800
15.248600 1.719400
15.266600 1.691800
15.284600 1.739800
15.302600 1.786100
15.320600 1.828400
15.338600 1.806100
15.356600 1.763100
15.374600 1.751500
15.392600 1.752700
15.410600 1.763000
15.428600 1.801000
15.446600 1.804100
15.464600 1.809300
15.482600 1.816800
15.500600 1.831700
15.518600 1.914400
15.536600 1.848100
15.554600 1.876500
15.572600 1.904500
15.590600 1.931700
15.608600 1.959300
15.626600 1.988800
15.644500 2.021700
15.662500 2.085000
15.680500 1.987500
15.698500 1.970600
15.716500 1.953800
15.734500 1.936200
15.752500 1.856700
15.770500 1.799200
15.788500 1.764300
15.806500 1.755400
15.824500 1.769100
15.842500 1.819200
15.860500 1.822800
15.878500 1.832400
15.896500 1.896000
15.914500 2.028200
15.932500 1.892900
15.950500 1.777400
15.968500 1.671700
15.986500 1.594000
16.004500 1.546700
16.022500 1.506900
16.040500 1.473300
16.058500 1.453600
16.076500 1.448300
16.094500 1.462100
16.112500 1.568800
16.130500 1.646600
16.148500 1.484000
16.166500 1.481000
16.184500 1.421500
16.202500 1.418100
16.220500 1.413700
16.238500 1.405600
16.256500 1.395300
16.274500 1.364400
16.292500 1.364600
16.310500 1.356900
16.328500 1.343700
16.346500 1.327200
16.364500 1.315300
16.382500 1.302500
16.400500 1.296400
16.418500 1.294800
16.436400 1.292300
16.454400 1.283400
16.472400 1.273200
16.490400 1.262500
16.508400 1.252300
16.526400 1.243500
16.544400 1.235600
16.562400 1.228400
16.580400 1.222000
16.598400 1.209900
16.616400 1.200700
16.634400 1.199500
16.652400 1.210600
16.670400 1.228200
16.688400 1.246100
16.706400 1.263700
16.724400 1.283400
16.742400 1.300900
16.760400 1.318700
16.778400 1.336900
16.796400 1.359200
16.814400 1.390100
16.832400 1.418300
16.850400 1.442200
16.868400 1.464000
16.886400 1.487600
16.904400 1.505000
16.922400 1.525900
16.940400 1.536300
16.958400 1.520100
16.976400 1.459300
16.994400 1.434600
17.012400 1.418300
17.030400 1.400800
17.048400 1.382300
17.066400 1.368400
17.084400 1.349800
17.102400 1.367800
17.120400 1.343900
17.138400 1.322700
17.156400 1.302900
17.174400 1.283100
17.192400 1.287000
17.210300 1.297400
17.228300 1.312900
17.246300 1.360400
17.264300 1.466200
17.282300 1.507900
17.300300 1.499200
17.318300 1.564200
17.336300 1.659500
17.354300 1.740000
17.372300 1.812400
17.390300 1.837600
17.408300 1.841400
17.426300 1.864600
17.444300 1.887000
17.462300 1.902200
17.480300 1.883800
17.498300 1.877000
17.516300 1.891300
17.534300 1.914200
17.552300 1.929800
17.570300 1.937200
17.588300 1.943300
17.606300 1.950100
17.624300 1.960500
17.642300 1.989300
17.660300 2.012800
17.678300 2.026900
17.696300 2.045900
17.714300 2.064600
17.732300 2.127200
17.750300 2.134500
17.768300 2.296200
17.786300 2.243400
17.804300 2.184000
17.822300 2.024600
17.840300 1.959000
17.858300 1.922000
17.876300 1.881900
17.894300 1.868200
17.912300 1.778800
17.930300 1.753900
17.948300 1.737700
17.966300 1.729100
17.984300 1.726900
18.002200 1.683600
18.020200 1.690600
18.038200 1.693800
18.056200 1.636400
18.074200 1.597900
18.092200 1.573800
18.110200 1.548500
18.128200 1.568200
18.146200 1.590600
18.164200 1.589100
18.182200 1.599900
18.200200 1.642500
18.218200 1.600600
18.236200 1.601500
18.254200 1.604000
18.272200 1.606600
18.290200 1.631000
18.308200 1.593500
18.326200 1.604200
18.344200 1.613800
18.362200 1.634900
18.380200 1.609800
18.398200 1.609200
18.416200 1.623200
18.434200 1.642800
18.452200 1.696400
18.470200 1.739500
18.488200 1.803400
18.506200 1.880800
18.524200 1.983000
18.542200 2.096600
18.560200 2.180300
18.578200 2.232000
18.596200 2.270000
18.614200 2.277800
18.632200 2.298600
18.650200 2.333700
18.668200 2.354900
18.686200 2.357600
18.704200 2.189700
18.722200 2.114600
18.740200 2.106600
18.758200 2.070800
18.776200 2.079900
18.794100 2.095600
18.812100 2.113000
18.830100 2.126600
18.848100 2.131100
18.866100 2.142800
18.884100 2.157600
18.902100 2.186500
18.920100 2.258600
18.938100 2.367700
18.956100 2.219500
18.974100 2.175600
18.992100 2.130300
19.010100 2.087200
19.028100 2.025400
19.046100 1.981700
19.064100 1.961600
19.082100 1.954900
19.100100 1.963500
19.118100 1.961500
19.136100 1.959500
19.154100 1.949500
19.172100 1.947100
19.190100 1.949400
19.208100 1.961300
19.226100 1.974900
19.244100 2.008200
19.262100 2.026500
19.280100 2.032100
19.298100 2.045700
19.316100 2.040300
19.334100 2.009300
19.352100 1.950100
19.370100 1.907500
19.388100 1.881800
19.406100 1.864300
19.424100 1.847800
19.442100 1.832100
19.460100 1.817200
19.478100 1.803600
19.496100 1.793000
19.514100 1.784300
19.532100 1.776600
19.550100 1.769600
19.568000 1.765100
19.586000 1.788900
19.604000 1.811600
19.622000 1.756600
19.640000 1.771600
19.658000 1.786500
19.676000 1.801400
19.694000 1.824500
19.712000 1.868600
19.730000 1.761000
19.748000 1.671000
19.766000 1.620500
19.784000 1.579300
19.802000 1.559500
19.820000 1.542100
19.838000 1.545400
19.856000 1.545000
19.874000 1.522500
19.892000 1.560700
19.910000 1.508700
19.928000 1.470100
19.946000 1.396000
19.964000 1.406600
19.982000 1.413900
20.000000 1.429800
20.018000 1.452200
20.036000 1.473500
20.054000 1.497200
20.072000 1.519400
20.090000 1.539700
20.108000 1.559200
20.126000 1.578100
20.144000 1.586500
20.162000 1.581400
20.180000 1.572300
20.198000 1.560000
20.216000 1.544500
20.234000 1.528400
20.252000 1.508200
20.270000 1.488900
20.288000 1.631400
20.306000 1.645900
20.324000 1.422300
20.342000 1.404100
20.359900 1.373200
20.377900 1.341400
20.395900 1.341700
20.413900 1.338900
20.431900 1.336400
20.449900 1.319700
20.467900 1.295200
20.485900 1.263500
20.503900 1.225500
20.521900 1.189500
20.539900 1.157800
20.557900 1.125300
20.575900 1.091600
20.593900 1.055400
20.611900 1.009300
20.629900 0.932000
20.647900 0.888000
20.665900 0.855200
20.683900 0.828900
20.701900 0.800800
20.719900 0.761700
20.737900 0.721400
20.755900 0.680700
20.773900 0.636100
20.791900 0.586000
20.809900 0.538600
20.827900 0.502100
20.845900 0.472700
20.863900 0.445100
20.881900 0.418900
20.899900 0.393800
20.917900 0.369500
20.935900 0.344300
20.953900 0.317600
20.971900 0.288500
20.989900 0.264600
21.007900 0.251000
21.025900 0.238300
21.043900 0.224900
21.061900 0.211000
21.079900 0.197900
21.097900 0.185300
21.115900 0.173300
21.133900 0.161600
21.151800 0.150400
21.169800 0.139700
21.187800 0.127100
21.205800 0.112900
21.223800 0.107700
21.241800 0.103000
21.259800 0.098800
21.277800 0.095100
21.295800 0.091700
21.313800 0.088400
21.331800 0.085000
21.349800 0.081700
21.367800 0.078300
21.385800 0.074900
21.403800 0.071500
21.421800 0.068100
21.439800 0.064700
21.457800 0.061200
21.475800 0.057800
21.493800 0.054300
21.511800 0.050800
21.529800 0.047300
21.547800 0.043800
21.565800 0.040300
21.583800 0.036800
21.601800 0.038400
21.619800 0.032700
21.637800 0.022700
21.655800 0.014400
21.673800 0.010900
21.691800 0.009700
21.709800 0.009100
21.727800 0.008500
21.745800 0.008000
21.763800 0.007400
21.781800 0.006900
21.799800 0.006400
21.817800 0.005900
21.835800 0.005500
21.853800 0.005000
21.871800 0.004600
21.889800 0.004200
21.907800 0.003800
21.925700 0.003400
21.943700 0.003100
21.961700 0.002800
21.979700 0.002400
21.997700 0.002100
22.015700 0.001900
22.033700 0.001600
22.051700 0.001400
22.069700 0.001200
22.087700 0.001000
22.105700 0.000800
22.123700 0.000600
22.141700 0.000500
22.159700 0.000300
22.177700 0.000200
22.195700 0.000200
22.213700 0.000100
22.231700 0.000000
22.249700 0.000000
22.267700 0.000000
22.285700 0.000000
22.303700 0.000000
22.321700 0.000000
22.339700 0.000000
22.357700 0.000000
22.375700 0.000000
22.393700 0.000000
22.411700 0.000000
22.429700 0.000000
22.447700 0.000000
22.465700 0.000000
22.483700 0.000000
22.501700 0.000000
22.519700 0.000000
22.537700 0.000000
22.555700 0.000000
22.573700 0.000000
22.591700 0.000000
22.609700 0.000000
22.627700 0.000000
22.645700 0.000000
22.663700 0.000000
22.681700 0.000000
22.699700 0.000000
22.717600 0.000000
22.735600 0.000000
22.753600 0.000000
22.771600 0.000000
22.789600 0.000000
22.807600 0.000000
22.825600 0.000000
22.843600 0.000000
22.861600 0.000000
22.879600 0.000000
22.897600 0.000000
22.915600 0.000000
22.933600 0.000000
22.951600 0.000000
22.969600 0.000000
22.987600 0.000000
23.005600 0.000000
23.023600 0.000000
23.041600 0.000000
23.059600 0.000000
23.077600 0.000000
23.095600 0.000000
23.113600 0.000000
23.131600 0.000000
23.149600 0.000000
23.167600 0.000000
23.185600 0.000000
23.203600 0.000000
23.221600 0.000000
23.239600 0.000000
23.257600 0.000000
23.275600 0.000000
23.293600 0.000000
23.311600 0.000000
23.329600 0.000000
23.347600 0.000000
23.365600 0.000000
23.383600 0.000000
23.401600 0.000000
23.419600 0.000000
23.437600 0.000000
23.455600 0.000000
23.473600 0.000000
23.491600 0.000000
23.509500 0.000000
23.527500 0.000000
23.545500 0.000000
23.563500 0.000000
23.581500 0.000000
23.599500 0.000000
23.617500 0.000000
23.635500 0.000000
23.653500 0.000000
23.671500 0.000000
23.689500 0.000000
23.707500 0.000000
23.725500 0.000000
23.743500 0.000000
23.761500 0.000000
23.779500 0.000000
23.797500 0.000000
23.815500 0.000000
23.833500 0.000000
23.851500 0.000000
23.869500 0.000000
23.887500 0.000000
23.905500 0.000000
e
