set title 'mp-1222259 - Density of States'
set xlabel 'Energy (eV)'
set ylabel 'DOS (states/eV)'
set grid
set xrange [-10:10]
set yrange [0:23.418]
set xzeroaxis lt -1
set terminal png size 800,600
set output 'mp-1222259_dos_gnuplot.png'
plot '-' using 1:2 with lines title 'DOS'
-37.258400 0.000000
-37.220000 0.000000
-37.181500 0.000000
-37.143000 0.000000
-37.104500 0.000000
-37.066000 0.000000
-37.027500 0.000000
-36.989100 0.000000
-36.950600 0.000000
-36.912100 0.000000
-36.873600 0.000000
-36.835100 0.000000
-36.796700 0.000000
-36.758200 0.000000
-36.719700 0.000000
-36.681200 0.000000
-36.642700 0.000000
-36.604200 0.000000
-36.565800 0.000000
-36.527300 0.000000
-36.488800 0.000000
-36.450300 0.000000
-36.411800 0.000000
-36.373400 0.000000
-36.334900 0.000000
-36.296400 0.000000
-36.257900 0.000000
-36.219400 0.000000
-36.180900 0.000000
-36.142500 0.000000
-36.104000 0.000000
-36.065500 0.000000
-36.027000 0.000000
-35.988500 0.000000
-35.950100 0.000000
-35.911600 0.000000
-35.873100 0.000000
-35.834600 0.000000
-35.796100 0.000000
-35.757600 0.000000
-35.719200 0.000000
-35.680700 0.000000
-35.642200 0.000000
-35.603700 0.000000
-35.565200 0.000000
-35.526800 0.000000
-35.488300 0.000000
-35.449800 0.000000
-35.411300 0.000000
-35.372800 0.000000
-35.334300 0.000000
-35.295900 0.000000
-35.257400 0.000000
-35.218900 0.000000
-35.180400 0.000000
-35.141900 0.000000
-35.103500 0.000000
-35.065000 0.000000
-35.026500 0.000000
-34.988000 0.000000
-34.949500 0.000000
-34.911000 0.000000
-34.872600 0.000000
-34.834100 0.000000
-34.795600 0.000000
-34.757100 0.000000
-34.718600 0.000000
-34.680200 0.000000
-34.641700 0.000000
-34.603200 0.000000
-34.564700 0.000000
-34.526200 0.000000
-34.487700 0.000000
-34.449300 0.000000
-34.410800 0.000000
-34.372300 0.000000
-34.333800 0.000000
-34.295300 0.000000
-34.256900 0.000000
-34.218400 0.000000
-34.179900 0.000000
-34.141400 0.000000
-34.102900 0.000000
-34.064400 0.000000
-34.026000 0.000000
-33.987500 0.000000
-33.949000 0.000000
-33.910500 0.000000
-33.872000 0.000000
-33.833600 0.000000
-33.795100 0.000000
-33.756600 1.702000
-33.718100 4.851200
-33.679600 5.897900
-33.641100 7.682900
-33.602700 12.148200
-33.564200 17.239500
-33.525700 0.000000
-33.487200 0.000000
-33.448700 0.000000
-33.410300 0.000000
-33.371800 0.000000
-33.333300 0.000000
-33.294800 0.000000
-33.256300 0.000000
-33.217800 0.000000
-33.179400 0.000000
-33.140900 0.000000
-33.102400 0.000000
-33.063900 0.000000
-33.025400 0.000000
-32.987000 0.000000
-32.948500 0.000000
-32.910000 0.000000
-32.871500 0.000000
-32.833000 0.000000
-32.794500 0.000000
-32.756100 0.000000
-32.717600 0.000000
-32.679100 0.000000
-32.640600 0.000000
-32.602100 0.000000
-32.563700 0.000000
-32.525200 0.000000
-32.486700 0.000000
-32.448200 0.000000
-32.409700 0.000000
-32.371200 0.000000
-32.332800 0.000000
-32.294300 0.000000
-32.255800 0.000000
-32.217300 0.000000
-32.178800 0.000000
-32.140400 0.000000
-32.101900 0.000000
-32.063400 0.000000
-32.024900 0.000000
-31.986400 0.000000
-31.947900 0.000000
-31.909500 0.000000
-31.871000 0.000000
-31.832500 0.000000
-31.794000 0.000000
-31.755500 0.000000
-31.717100 0.000000
-31.678600 0.000000
-31.640100 0.000000
-31.601600 0.000000
-31.563100 0.000000
-31.524600 0.000000
-31.486200 0.000000
-31.447700 0.000000
-31.409200 0.000000
-31.370700 0.000000
-31.332200 0.000000
-31.293800 0.000000
-31.255300 0.000000
-31.216800 0.000000
-31.178300 0.000000
-31.139800 0.000000
-31.101300 0.000000
-31.062900 0.000000
-31.024400 0.000000
-30.985900 0.000000
-30.947400 0.000000
-30.908900 0.000000
-30.870500 0.000000
-30.832000 0.000000
-30.793500 0.000000
-30.755000 0.000000
-30.716500 0.000000
-30.678000 0.000000
-30.639600 0.000000
-30.601100 0.000000
-30.562600 0.000000
-30.524100 0.000000
-30.485600 0.000000
-30.447200 0.000000
-30.408700 0.000000
-30.370200 0.000000
-30.331700 0.000000
-30.293200 0.000000
-30.254700 0.000000
-30.216300 0.000000
-30.177800 0.000000
-30.139300 0.000000
-30.100800 0.000000
-30.062300 0.000000
-30.023900 0.000000
-29.985400 0.000000
-29.946900 0.000000
-29.908400 0.000000
-29.869900 0.000000
-29.831400 0.000000
-29.793000 0.000000
-29.754500 0.000000
-29.716000 0.000000
-29.677500 0.000000
-29.639000 0.000000
-29.600600 0.000000
-29.562100 0.000000
-29.523600 0.000000
-29.485100 0.000000
-29.446600 0.000000
-29.408100 0.000000
-29.369700 0.000000
-29.331200 0.000000
-29.292700 0.000000
-29.254200 0.000000
-29.215700 0.000000
-29.177300 0.000000
-29.138800 0.000000
-29.100300 0.000000
-29.061800 0.000000
-29.023300 0.000000
-28.984800 0.000000
-28.946400 0.000000
-28.907900 0.000000
-28.869400 0.000000
-28.830900 0.000000
-28.792400 0.000000
-28.754000 0.000000
-28.715500 0.000000
-28.677000 0.000000
-28.638500 0.000000
-28.600000 0.000000
-28.561500 0.000000
-28.523100 0.000000
-28.484600 0.000000
-28.446100 0.000000
-28.407600 0.000000
-28.369100 0.000000
-28.330700 0.000000
-28.292200 0.000000
-28.253700 0.000000
-28.215200 0.000000
-28.176700 0.000000
-28.138200 0.000000
-28.099800 0.000000
-28.061300 0.000000
-28.022800 0.000000
-27.984300 0.000000
-27.945800 0.000000
-27.907400 0.000000
-27.868900 0.000000
-27.830400 0.000000
-27.791900 0.000000
-27.753400 0.000000
-27.714900 0.000000
-27.676500 0.000000
-27.638000 0.000000
-27.599500 0.000000
-27.561000 0.000000
-27.522500 0.000000
-27.484100 0.000000
-27.445600 0.000000
-27.407100 0.000000
-27.368600 0.000000
-27.330100 0.000000
-27.291600 0.000000
-27.253200 0.000000
-27.214700 0.000000
-27.176200 0.000000
-27.137700 0.000000
-27.099200 0.000000
-27.060800 0.000000
-27.022300 0.000000
-26.983800 0.000000
-26.945300 0.000000
-26.906800 0.000000
-26.868300 0.000000
-26.829900 0.000000
-26.791400 0.000000
-26.752900 0.000000
-26.714400 0.000000
-26.675900 0.000000
-26.637500 0.000000
-26.599000 0.000000
-26.560500 0.000000
-26.522000 0.000000
-26.483500 0.000000
-26.445000 0.000000
-26.406600 0.000000
-26.368100 0.000000
-26.329600 0.000000
-26.291100 0.000000
-26.252600 0.000000
-26.214200 0.000000
-26.175700 0.000000
-26.137200 0.000000
-26.098700 0.000000
-26.060200 0.000000
-26.021700 0.000000
-25.983300 0.000000
-25.944800 0.000000
-25.906300 0.000000
-25.867800 0.000000
-25.829300 0.000000
-25.790900 0.000000
-25.752400 0.000000
-25.713900 0.000000
-25.675400 0.000000
-25.636900 0.000000
-25.598400 0.000000
-25.560000 0.000000
-25.521500 0.000000
-25.483000 0.000000
-25.444500 0.000000
-25.406000 0.000000
-25.367600 0.000000
-25.329100 0.000000
-25.290600 0.000000
-25.252100 0.000000
-25.213600 0.000000
-25.175100 0.000000
-25.136700 0.000000
-25.098200 0.000000
-25.059700 0.000000
-25.021200 0.000000
-24.982700 0.000000
-24.944300 0.000000
-24.905800 0.000000
-24.867300 0.000000
-24.828800 0.000000
-24.790300 0.000000
-24.751800 0.000000
-24.713400 0.000000
-24.674900 0.000000
-24.636400 0.000000
-24.597900 0.000000
-24.559400 0.000000
-24.521000 0.000000
-24.482500 0.000000
-24.444000 0.000000
-24.405500 0.000000
-24.367000 0.000000
-24.328500 0.000000
-24.290100 0.000000
-24.251600 0.000000
-24.213100 0.000000
-24.174600 0.000000
-24.136100 0.000000
-24.097700 0.000000
-24.059200 0.000000
-24.020700 0.000000
-23.982200 0.000000
-23.943700 0.000000
-23.905200 0.000000
-23.866800 0.000000
-23.828300 0.000000
-23.789800 0.000000
-23.751300 0.000000
-23.712800 0.000000
-23.674400 0.000000
-23.635900 0.000000
-23.597400 0.000000
-23.558900 0.000000
-23.520400 0.000000
-23.481900 0.000000
-23.443500 0.000000
-23.405000 0.000000
-23.366500 0.000000
-23.328000 0.000000
-23.289500 0.000000
-23.251100 0.000000
-23.212600 0.000000
-23.174100 0.000000
-23.135600 0.000000
-23.097100 0.000000
-23.058600 0.000000
-23.020200 0.000000
-22.981700 0.000000
-22.943200 0.000000
-22.904700 0.000000
-22.866200 0.000000
-22.827800 0.000000
-22.789300 0.000000
-22.750800 0.000000
-22.712300 0.000000
-22.673800 0.000000
-22.635300 0.000000
-22.596900 0.000000
-22.558400 0.000000
-22.519900 0.000000
-22.481400 0.000000
-22.442900 0.000000
-22.404500 0.000000
-22.366000 0.000000
-22.327500 0.000000
-22.289000 0.000000
-22.250500 0.000000
-22.212000 0.000000
-22.173600 0.000000
-22.135100 0.000000
-22.096600 0.000000
-22.058100 0.000000
-22.019600 0.000000
-21.981200 0.000000
-21.942700 0.000000
-21.904200 0.000000
-21.865700 0.000000
-21.827200 0.000000
-21.788700 0.000000
-21.750300 0.000000
-21.711800 0.000000
-21.673300 0.000000
-21.634800 0.000000
-21.596300 0.000000
-21.557900 0.000000
-21.519400 0.000000
-21.480900 0.000000
-21.442400 0.000000
-21.403900 12.664500
-21.365400 19.684400
-21.327000 6.828300
-21.288500 27.920900
-21.250000 104.248000
-21.211500 12.716300
-21.173000 29.060400
-21.134600 13.386700
-21.096100 7.864700
-21.057600 0.000000
-21.019100 0.000000
-20.980600 0.000000
-20.942100 0.000000
-20.903700 0.000000
-20.865200 0.000000
-20.826700 0.000000
-20.788200 0.000000
-20.749700 0.000000
-20.711300 0.000000
-20.672800 0.000000
-20.634300 0.000000
-20.595800 0.000000
-20.557300 0.000000
-20.518800 0.000000
-20.480400 0.000000
-20.441900 0.000000
-20.403400 0.000000
-20.364900 0.000000
-20.326400 0.000000
-20.288000 0.000000
-20.249500 0.000000
-20.211000 0.000000
-20.172500 0.000000
-20.134000 0.000000
-20.095500 0.000000
-20.057100 0.000000
-20.018600 0.000000
-19.980100 0.000000
-19.941600 0.000000
-19.903100 0.000000
-19.864700 0.000000
-19.826200 0.000000
-19.787700 0.000000
-19.749200 0.000000
-19.710700 0.000000
-19.672200 0.000000
-19.633800 0.000000
-19.595300 0.000000
-19.556800 0.000000
-19.518300 0.000000
-19.479800 0.000000
-19.441400 0.000000
-19.402900 0.000000
-19.364400 0.000000
-19.325900 0.000000
-19.287400 0.000000
-19.248900 0.000000
-19.210500 0.000000
-19.172000 0.000000
-19.133500 0.000000
-19.095000 0.000000
-19.056500 0.000000
-19.018100 0.000000
-18.979600 0.000000
-18.941100 0.000000
-18.902600 0.000000
-18.864100 0.000000
-18.825600 0.000000
-18.787200 0.000000
-18.748700 0.000000
-18.710200 0.000000
-18.671700 0.000000
-18.633200 0.000000
-18.594800 0.000000
-18.556300 0.000000
-18.517800 0.000000
-18.479300 0.000000
-18.440800 0.000000
-18.402300 0.000000
-18.363900 0.000000
-18.325400 0.000000
-18.286900 0.000000
-18.248400 0.000000
-18.209900 0.000000
-18.171500 0.000000
-18.133000 0.000000
-18.094500 0.000000
-18.056000 0.000000
-18.017500 0.000000
-17.979000 0.000000
-17.940600 0.000000
-17.902100 0.000000
-17.863600 0.000000
-17.825100 0.000000
-17.786600 0.000000
-17.748200 0.000000
-17.709700 0.000000
-17.671200 0.000000
-17.632700 0.000000
-17.594200 0.000000
-17.555700 0.000000
-17.517300 0.000000
-17.478800 0.000000
-17.440300 0.000000
-17.401800 0.000000
-17.363300 0.000000
-17.324900 0.000000
-17.286400 0.000000
-17.247900 0.000000
-17.209400 0.000000
-17.170900 0.000000
-17.132400 0.000000
-17.094000 0.000000
-17.055500 0.000000
-17.017000 0.000000
-16.978500 0.000000
-16.940000 0.000000
-16.901600 0.000000
-16.863100 0.000000
-16.824600 0.000000
-16.786100 0.000000
-16.747600 0.000000
-16.709100 0.000000
-16.670700 0.000000
-16.632200 0.000000
-16.593700 0.000000
-16.555200 0.000000
-16.516700 0.000000
-16.478300 0.000000
-16.439800 0.000000
-16.401300 0.000000
-16.362800 0.000000
-16.324300 0.000000
-16.285800 0.000000
-16.247400 0.000000
-16.208900 0.000000
-16.170400 0.000000
-16.131900 0.000000
-16.093400 0.000000
-16.055000 0.000000
-16.016500 0.000000
-15.978000 0.000000
-15.939500 0.000000
-15.901000 0.000000
-15.862500 0.000000
-15.824100 0.000000
-15.785600 0.000000
-15.747100 0.000000
-15.708600 0.000000
-15.670100 0.000000
-15.631700 0.000000
-15.593200 0.000000
-15.554700 0.000000
-15.516200 0.000000
-15.477700 0.000000
-15.439200 0.000000
-15.400800 0.000000
-15.362300 0.000000
-15.323800 0.000000
-15.285300 0.000000
-15.246800 0.000000
-15.208400 0.000000
-15.169900 0.000000
-15.131400 0.000000
-15.092900 0.000000
-15.054400 0.000000
-15.015900 0.000000
-14.977500 0.000000
-14.939000 0.000000
-14.900500 0.000000
-14.862000 0.000000
-14.823500 0.000000
-14.785100 0.000000
-14.746600 0.000000
-14.708100 0.000000
-14.669600 0.000000
-14.631100 0.000000
-14.592600 0.000000
-14.554200 0.000000
-14.515700 0.000000
-14.477200 0.000000
-14.438700 0.000000
-14.400200 0.000000
-14.361800 0.000000
-14.323300 0.000000
-14.284800 0.000000
-14.246300 0.000000
-14.207800 0.000000
-14.169300 0.000000
-14.130900 0.000000
-14.092400 0.000000
-14.053900 0.000000
-14.015400 0.000000
-13.976900 0.000000
-13.938500 0.000000
-13.900000 0.000000
-13.861500 0.000000
-13.823000 0.000000
-13.784500 0.000000
-13.746000 0.000000
-13.707600 0.000000
-13.669100 0.000000
-13.630600 0.000000
-13.592100 0.000000
-13.553600 0.000000
-13.515200 0.000000
-13.476700 0.000000
-13.438200 0.000000
-13.399700 0.000000
-13.361200 0.000000
-13.322700 0.000000
-13.284300 0.000000
-13.245800 0.000000
-13.207300 0.000000
-13.168800 0.000000
-13.130300 0.000000
-13.091900 0.000000
-13.053400 0.000000
-13.014900 0.000000
-12.976400 0.000000
-12.937900 0.000000
-12.899400 0.000000
-12.861000 0.000000
-12.822500 0.609800
-12.784000 2.140300
-12.745500 2.219900
-12.707000 2.089400
-12.668600 2.250500
-12.630100 2.438600
-12.591600 2.740700
-12.553100 3.205300
-12.514600 5.091600
-12.476100 2.457100
-12.437700 2.250600
-12.399200 2.044200
-12.360700 1.351600
-12.322200 1.192700
-12.283700 1.044600
-12.245300 1.054700
-12.206800 1.086800
-12.168300 1.140800
-12.129800 1.269900
-12.091300 2.051100
-12.052800 2.736000
-12.014400 3.782900
-11.975900 4.377400
-11.937400 4.456700
-11.898900 1.091300
-11.860400 2.318900
-11.822000 7.286900
-11.783500 7.970800
-11.745000 11.320300
-11.706500 10.008300
-11.668000 9.696400
-11.629500 3.409000
-11.591100 1.950600
-11.552600 2.009600
-11.514100 2.068600
-11.475600 2.127700
-11.437100 2.269400
-11.398700 2.361500
-11.360200 3.368400
-11.321700 4.035800
-11.283200 4.126600
-11.244700 2.982400
-11.206200 2.797800
-11.167800 2.595100
-11.129300 2.371100
-11.090800 2.147000
-11.052300 1.929100
-11.013800 2.144300
-10.975400 1.919900
-10.936900 1.831800
-10.898400 2.005200
-10.859900 1.548900
-10.821400 1.614900
-10.782900 0.000000
-10.744500 0.000000
-10.706000 0.000000
-10.667500 0.000000
-10.629000 0.000000
-10.590500 0.000000
-10.552100 0.000000
-10.513600 0.000000
-10.475100 0.000000
-10.436600 0.000000
-10.398100 0.000000
-10.359600 0.000000
-10.321200 0.000000
-10.282700 0.000000
-10.244200 0.000000
-10.205700 0.000000
-10.167200 0.000000
-10.128800 0.000000
-10.090300 0.000000
-10.051800 0.000000
-10.013300 0.000000
-9.974800 0.000000
-9.936300 0.000000
-9.897900 0.000000
-9.859400 0.000000
-9.820900 0.000000
-9.782400 0.000000
-9.743900 0.000000
-9.705500 0.000000
-9.667000 0.000000
-9.628500 0.000000
-9.590000 0.000000
-9.551500 0.000000
-9.513000 0.000000
-9.474600 0.000000
-9.436100 0.000000
-9.397600 0.000000
-9.359100 0.000000
-9.320600 0.000000
-9.282200 0.000000
-9.243700 0.000000
-9.205200 0.000000
-9.166700 0.000000
-9.128200 0.000000
-9.089700 0.000000
-9.051300 0.000000
-9.012800 0.000000
-8.974300 0.000000
-8.935800 0.000000
-8.897300 0.000000
-8.858900 0.000000
-8.820400 0.000000
-8.781900 0.000000
-8.743400 0.000000
-8.704900 0.000000
-8.666400 0.000000
-8.628000 0.000000
-8.589500 0.000000
-8.551000 0.000000
-8.512500 0.000000
-8.474000 0.000000
-8.435600 0.000000
-8.397100 0.000000
-8.358600 0.000000
-8.320100 0.000000
-8.281600 0.000000
-8.243100 0.000000
-8.204700 0.000000
-8.166200 0.000000
-8.127700 0.000000
-8.089200 0.000000
-8.050700 0.000000
-8.012300 0.000000
-7.973800 0.000000
-7.935300 0.000000
-7.896800 0.000000
-7.858300 0.000000
-7.819800 0.000000
-7.781400 0.000000
-7.742900 0.000000
-7.704400 0.000000
-7.665900 0.000000
-7.627400 0.000000
-7.589000 0.000000
-7.550500 0.000000
-7.512000 0.000000
-7.473500 0.000000
-7.435000 0.000000
-7.396500 0.000000
-7.358100 0.000000
-7.319600 0.000000
-7.281100 0.000000
-7.242600 0.000000
-7.204100 0.000000
-7.165700 0.000000
-7.127200 0.000000
-7.088700 0.000000
-7.050200 0.000000
-7.011700 0.000000
-6.973200 0.000000
-6.934800 0.000000
-6.896300 0.000000
-6.857800 0.000000
-6.819300 0.000000
-6.780800 0.000000
-6.742400 0.000000
-6.703900 0.000000
-6.665400 0.000000
-6.626900 0.000000
-6.588400 0.000000
-6.549900 0.000000
-6.511500 0.000000
-6.473000 0.000000
-6.434500 0.000000
-6.396000 0.000000
-6.357500 0.000000
-6.319100 0.000000
-6.280600 0.000000
-6.242100 0.000000
-6.203600 0.000000
-6.165100 0.000000
-6.126600 0.000000
-6.088200 0.000000
-6.049700 0.000000
-6.011200 0.000000
-5.972700 0.000000
-5.934200 0.000000
-5.895800 0.000000
-5.857300 0.000000
-5.818800 0.000000
-5.780300 0.000000
-5.741800 0.000000
-5.703300 0.000000
-5.664900 0.000000
-5.626400 0.000000
-5.587900 0.000000
-5.549400 0.000000
-5.510900 0.000000
-5.472500 0.000000
-5.434000 0.000000
-5.395500 0.000000
-5.357000 0.000000
-5.318500 0.000000
-5.280000 0.000000
-5.241600 0.000000
-5.203100 0.000000
-5.164600 0.000000
-5.126100 0.000000
-5.087600 0.000000
-5.049200 0.000000
-5.010700 0.000000
-4.972200 0.000000
-4.933700 0.000000
-4.895200 0.000000
-4.856700 0.000000
-4.818300 0.000000
-4.779800 0.000000
-4.741300 0.000000
-4.702800 0.000000
-4.664300 0.000000
-4.625900 0.000000
-4.587400 0.000000
-4.548900 0.000000
-4.510400 0.000000
-4.471900 0.000000
-4.433400 0.000000
-4.395000 0.000000
-4.356500 0.000000
-4.318000 0.000000
-4.279500 0.000000
-4.241000 0.000000
-4.202600 0.000000
-4.164100 0.000000
-4.125600 0.000000
-4.087100 0.000000
-4.048600 0.000000
-4.010100 0.000000
-3.971700 0.000000
-3.933200 0.000000
-3.894700 0.000000
-3.856200 0.000000
-3.817700 0.000000
-3.779300 0.000000
-3.740800 0.000000
-3.702300 0.000000
-3.663800 0.000000
-3.625300 0.000000
-3.586800 0.000000
-3.548400 0.000000
-3.509900 0.000000
-3.471400 0.000000
-3.432900 0.000000
-3.394400 0.000000
-3.356000 0.000000
-3.317500 0.000000
-3.279000 0.000000
-3.240500 0.000000
-3.202000 0.000000
-3.163500 0.000000
-3.125100 0.000000
-3.086600 0.000000
-3.048100 0.000000
-3.009600 0.000000
-2.971100 0.000000
-2.932700 0.000000
-2.894200 0.000000
-2.855700 0.000000
-2.817200 0.000000
-2.778700 0.000000
-2.740200 0.000000
-2.701800 0.000000
-2.663300 0.000000
-2.624800 0.000000
-2.586300 0.000000
-2.547800 0.000000
-2.509400 0.000000
-2.470900 0.000000
-2.432400 0.000000
-2.393900 0.000000
-2.355400 0.000000
-2.316900 0.000000
-2.278500 0.000000
-2.240000 0.000000
-2.201500 0.000000
-2.163000 0.000000
-2.124500 0.000000
-2.086100 0.000000
-2.047600 0.000000
-2.009100 0.000000
-1.970600 0.000000
-1.932100 0.000000
-1.893600 0.000000
-1.855200 0.000000
-1.816700 0.000000
-1.778200 0.000000
-1.739700 0.000000
-1.701200 0.000000
-1.662800 0.000000
-1.624300 0.000000
-1.585800 0.000000
-1.547300 0.000000
-1.508800 0.000000
-1.470300 0.000000
-1.431900 0.000000
-1.393400 0.000000
-1.354900 0.000000
-1.316400 0.000000
-1.277900 0.000000
-1.239500 0.000000
-1.201000 0.000000
-1.162500 0.000000
-1.124000 0.000000
-1.085500 0.000000
-1.047000 0.000000
-1.008600 0.000000
-0.970100 0.000000
-0.931600 0.000000
-0.893100 0.000000
-0.854600 0.000000
-0.816200 0.000000
-0.777700 0.000000
-0.739200 0.000000
-0.700700 0.000000
-0.662200 0.000000
-0.623700 0.000000
-0.585300 0.000000
-0.546800 0.000000
-0.508300 0.000000
-0.469800 0.000000
-0.431300 0.000000
-0.392900 0.000000
-0.354400 0.000000
-0.315900 0.000000
-0.277400 0.000000
-0.238900 0.000000
-0.200400 0.000000
-0.162000 0.000000
-0.123500 0.000000
-0.085000 0.000000
-0.046500 0.000000
-0.008000 0.001800
0.030400 0.012000
0.068900 0.025900
0.107400 0.043400
0.145900 0.063500
0.184400 0.075700
0.222900 0.075900
0.261300 0.081300
0.299800 0.088900
0.338300 0.096700
0.376800 0.104700
0.415300 0.111000
0.453700 0.118000
0.492200 0.125500
0.530700 0.133300
0.569200 0.140900
0.607700 0.147600
0.646200 0.153800
0.684600 0.159600
0.723100 0.164800
0.761600 0.170400
0.800100 0.176600
0.838600 0.183100
0.877000 0.189700
0.915500 0.196400
0.954000 0.203300
0.992500 0.210400
1.031000 0.217600
1.069500 0.225000
1.107900 0.232600
1.146400 0.240500
1.184900 0.248600
1.223400 0.256200
1.261900 0.263500
1.300300 0.271500
1.338800 0.279700
1.377300 0.288000
1.415800 0.296400
1.454300 0.305100
1.492800 0.315100
1.531200 0.327300
1.569700 0.344300
1.608200 0.363000
1.646700 0.377600
1.685200 0.388100
1.723600 0.394800
1.762100 0.397500
1.800600 0.405600
1.839100 0.415900
1.877600 0.426000
1.916100 0.436000
1.954500 0.445900
1.993000 0.454300
2.031500 0.462800
2.070000 0.473800
2.108500 0.487100
2.146900 0.502600
2.185400 0.526200
2.223900 0.553000
2.262400 0.583000
2.300900 0.616700
2.339400 0.656900
2.377800 0.702200
2.416300 0.771000
2.454800 1.013800
2.493300 1.163900
2.531800 1.292800
2.570200 1.206900
2.608700 1.239400
2.647200 1.257900
2.685700 1.291200
2.724200 1.341200
2.762700 1.418000
2.801100 1.413600
2.839600 1.391000
2.878100 1.356600
2.916600 1.356000
2.955100 1.399700
2.993500 1.497500
3.032000 1.580000
3.070500 1.603400
3.109000 1.665800
3.147500 1.724200
3.186000 1.761000
3.224400 1.799600
3.262900 1.829500
3.301400 1.827700
3.339900 1.810000
3.378400 1.815700
3.416800 1.833500
3.455300 1.830600
3.493800 1.802500
3.532300 1.793400
3.570800 1.796900
3.609300 1.809200
3.647700 1.808500
3.686200 1.809200
3.724700 1.816600
3.763200 1.824900
3.801700 1.841200
3.840100 1.895700
3.878600 1.946100
3.917100 1.953700
3.955600 2.002600
3.994100 2.259500
4.032600 2.403600
4.071000 2.478600
4.109500 2.607500
4.148000 2.747200
4.186500 3.046700
4.225000 3.072800
4.263400 3.060800
4.301900 3.059100
4.340400 4.318200
4.378900 2.929600
4.417400 2.185100
4.455900 1.884200
4.494300 1.780800
4.532800 1.896500
4.571300 2.562400
4.609800 2.823300
4.648300 2.882100
4.686700 2.737700
4.725200 2.580000
4.763700 2.534100
4.802200 2.438000
4.840700 2.096000
4.879200 1.582300
4.917600 1.215800
4.956100 0.937400
4.994600 0.886200
5.033100 1.010700
5.071600 1.249900
5.110000 1.513600
5.148500 1.830300
5.187000 2.262300
5.225500 2.594300
5.264000 2.858300
5.302500 3.135400
5.340900 2.979800
5.379400 3.670200
5.417900 3.662000
5.456400 3.527200
5.494900 3.354500
5.533300 3.119700
5.571800 2.920600
5.610300 2.862200
5.648800 2.909100
5.687300 2.929200
5.725800 3.083400
5.764200 3.301900
5.802700 3.368600
5.841200 3.416300
5.879700 3.401400
5.918200 3.482200
5.956600 3.658700
5.995100 3.734100
6.033600 3.862700
6.072100 3.902000
6.110600 4.574700
6.149100 3.973800
6.187500 4.015900
6.226000 4.617500
6.264500 4.611500
6.303000 4.215600
6.341500 3.970500
6.379900 3.416900
6.418400 3.134100
6.456900 2.952700
6.495400 2.820400
6.533900 2.687300
6.572400 2.580100
6.610800 2.439700
6.649300 2.346500
6.687800 2.250200
6.726300 2.221700
6.764800 2.295300
6.803200 2.536800
6.841700 3.034800
6.880200 3.717200
6.918700 4.459800
6.957200 5.165900
6.995700 7.459700
7.034100 9.197000
7.072600 9.630500
7.111100 8.334400
7.149600 8.750100
7.188100 7.759000
7.226500 6.594600
7.265000 6.031900
7.303500 7.972800
7.342000 8.628200
7.380500 9.797500
7.419000 11.638900
7.457400 8.934900
7.495900 7.486800
7.534400 7.613500
7.572900 9.211500
7.611400 10.685600
7.649800 12.034100
7.688300 7.839800
7.726800 2.067400
7.765300 2.214600
7.803800 2.770800
7.842300 3.261600
7.880700 3.474800
7.919200 3.754700
7.957700 3.992100
7.996200 4.163400
8.034700 5.120100
8.073100 5.951200
8.111600 5.245300
8.150100 5.949900
8.188600 6.677800
8.227100 7.385500
8.265600 7.451200
8.304000 7.806200
8.342500 8.003200
8.381000 8.689600
8.419500 9.794000
8.458000 15.200900
8.496400 14.294200
8.534900 11.657200
8.573400 21.289200
8.611900 10.414500
8.650400 8.859000
8.688900 9.197900
8.727300 8.203500
8.765800 5.928100
8.804300 3.386200
8.842800 2.672300
8.881300 1.800000
8.919700 1.628400
8.958200 1.761300
8.996700 1.986500
9.035200 2.304000
9.073700 3.100800
9.112200 3.873300
9.150600 4.129400
9.189100 4.782000
9.227600 3.982900
9.266100 3.544000
9.304600 3.135400
9.343000 2.909700
9.381500 2.688300
9.420000 2.543200
9.458500 2.826000
9.497000 2.655400
9.535500 2.202200
9.573900 2.199100
9.612400 2.212900
9.650900 2.576900
9.689400 2.641800
9.727900 2.639700
9.766300 2.633600
9.804800 2.528700
9.843300 2.545700
9.881800 2.496100
9.920300 2.470700
9.958800 2.412000
9.997200 2.322700
10.035700 2.268400
10.074200 2.278900
10.112700 2.236800
10.151200 2.067500
10.189600 1.971600
10.228100 1.917500
10.266600 1.880900
10.305100 1.848100
10.343600 1.829900
10.382100 1.825100
10.420500 1.822200
10.459000 1.807700
10.497500 1.756500
10.536000 1.727500
10.574500 1.711900
10.612900 1.699300
10.651400 1.693000
10.689900 1.711500
10.728400 1.737200
10.766900 1.777600
10.805400 1.820300
10.843800 1.882400
10.882300 1.978100
10.920800 2.074600
10.959300 2.142600
10.997800 2.204100
11.036200 2.294400
11.074700 2.383700
11.113200 2.480400
11.151700 2.571500
11.190200 2.546800
11.228700 2.476900
11.267100 2.410500
11.305600 2.366900
11.344100 2.421100
11.382600 2.403800
11.421100 2.379500
11.459500 2.363000
11.498000 2.349200
11.536500 2.340000
11.575000 2.342400
11.613500 2.311500
11.652000 2.226900
11.690400 2.243300
11.728900 2.245600
11.767400 2.328900
11.805900 2.575800
11.844400 3.060500
11.882900 3.012400
11.921300 2.942700
11.959800 2.860700
11.998300 2.968100
12.036800 3.001700
12.075300 3.162900
12.113700 3.044700
12.152200 2.652400
12.190700 2.522800
12.229200 2.088300
12.267700 1.810400
12.306200 1.654200
12.344600 1.528000
12.383100 1.444800
12.421600 1.350700
12.460100 1.234600
12.498600 1.221300
12.537000 1.419600
12.575500 1.707600
12.614000 1.753600
12.652500 1.823700
12.691000 1.928700
12.729500 1.993200
12.767900 2.202500
12.806400 2.506200
12.844900 2.783500
12.883400 2.826100
12.921900 2.808000
12.960300 2.762400
12.998800 2.362400
13.037300 2.081100
13.075800 1.986600
13.114300 1.992400
13.152800 2.124200
13.191200 2.360700
13.229700 2.423500
13.268200 2.443300
13.306700 2.394600
13.345200 2.370100
13.383600 2.229900
13.422100 2.123400
13.460600 2.016100
13.499100 1.943400
13.537600 1.873700
13.576100 1.764300
13.614500 1.639100
13.653000 1.550100
13.691500 1.490300
13.730000 1.340400
13.768500 1.194500
13.806900 1.057200
13.845400 0.966000
13.883900 0.916600
13.922400 0.888900
13.960900 0.912500
13.999400 1.085300
14.037800 1.114200
14.076300 1.065300
14.114800 1.076400
14.153300 0.955000
14.191800 0.948800
14.230200 0.949700
14.268700 0.957300
14.307200 0.990400
14.345700 1.022500
14.384200 0.937400
14.422700 0.967300
14.461100 1.173000
14.499600 1.209100
14.538100 1.279300
14.576600 1.325900
14.615100 1.352700
14.653500 1.374400
14.692000 1.331700
14.730500 1.310600
14.769000 1.328700
14.807500 1.358900
14.846000 1.342700
14.884400 1.314800
14.922900 1.330700
14.961400 1.322800
14.999900 1.280100
15.038400 1.290500
15.076800 1.281300
15.115300 1.293300
15.153800 1.288600
15.192300 1.261000
15.230800 1.222400
15.269300 1.308700
15.307700 1.173600
15.346200 1.071100
15.384700 1.058100
15.423200 1.133700
15.461700 1.174100
15.500100 1.114200
15.538600 1.139600
15.577100 1.214100
15.615600 1.232900
15.654100 1.246700
15.692600 1.274400
15.731000 1.317200
15.769500 1.328600
15.808000 1.430700
15.846500 1.825600
15.885000 1.728100
15.923400 1.624600
15.961900 1.595000
16.000400 1.609700
16.038900 1.612700
16.077400 1.583900
16.115900 1.489700
16.154300 1.500900
16.192800 1.515800
16.231300 1.527900
16.269800 1.621500
16.308300 1.536800
16.346700 1.455800
16.385200 1.410000
16.423700 1.373900
16.462200 1.386100
16.500700 1.425500
16.539200 1.452400
16.577600 1.482200
16.616100 1.469600
16.654600 1.471100
16.693100 1.475500
16.731600 1.487000
16.770000 1.500600
16.808500 1.525900
16.847000 1.548400
16.885500 1.584200
16.924000 1.640000
16.962500 1.654800
17.000900 1.665300
17.039400 1.691200
17.077900 1.744900
17.116400 1.854600
17.154900 1.914100
17.193300 2.020800
17.231800 2.142100
17.270300 2.251000
17.308800 2.287900
17.347300 2.272300
17.385800 2.169100
17.424200 2.070000
17.462700 2.047400
17.501200 2.023900
17.539700 1.972300
17.578200 1.951000
17.616600 1.929100
17.655100 1.813700
17.693600 1.725000
17.732100 1.683800
17.770600 1.658500
17.809100 1.643700
17.847500 1.647700
17.886000 1.663700
17.924500 1.683000
17.963000 1.713200
18.001500 1.595000
18.039900 1.520200
18.078400 1.496200
18.116900 1.478800
18.155400 1.465800
18.193900 1.475500
18.232400 1.502800
18.270800 1.576800
18.309300 1.792500
18.347800 2.142200
18.386300 2.175000
18.424800 2.318800
18.463200 2.285500
18.501700 2.299600
18.540200 2.391800
18.578700 2.552900
18.617200 2.669300
18.655700 2.879000
18.694100 2.908000
18.732600 3.048000
18.771100 3.108300
18.809600 2.978700
18.848100 2.637200
18.886500 2.358100
18.925000 2.146500
18.963500 2.050300
19.002000 1.928200
19.040500 1.906200
19.079000 2.045100
19.117400 2.126200
19.155900 2.214100
19.194400 2.172500
19.232900 2.174300
19.271400 2.307900
19.309800 2.531900
19.348300 2.782200
19.386800 2.532500
19.425300 2.545900
19.463800 2.297500
19.502300 2.316000
19.540700 2.382700
19.579200 2.534700
19.617700 2.566400
19.656200 2.721200
19.694700 2.725400
19.733100 2.508300
19.771600 2.369100
19.810100 2.088600
19.848600 1.880100
19.887100 1.867000
19.925600 2.186000
19.964000 1.813500
20.002500 1.700600
20.041000 1.734300
20.079500 1.817700
20.118000 1.856000
20.156400 1.853300
20.194900 1.847000
20.233400 1.854600
20.271900 1.978200
20.310400 2.343900
20.348900 2.516800
20.387300 2.446600
20.425800 2.462400
20.464300 2.194000
20.502800 2.003500
20.541300 2.016000
20.579700 1.988200
20.618200 1.895400
20.656700 1.812000
20.695200 1.756800
20.733700 1.729900
20.772200 1.745000
20.810600 1.563100
20.849100 1.548200
20.887600 1.501900
20.926100 1.575400
20.964600 1.753800
21.003000 2.142900
21.041500 2.407000
21.080000 2.474700
21.118500 2.455000
21.157000 2.442000
21.195500 2.492100
21.233900 2.505100
21.272400 2.316500
21.310900 2.203900
21.349400 2.126400
21.387900 2.134400
21.426300 2.203600
21.464800 2.236800
21.503300 2.204600
21.541800 2.104100
21.580300 2.012100
21.618800 2.005900
21.657200 2.004100
21.695700 2.053400
21.734200 2.031000
21.772700 2.034600
21.811200 2.031900
21.849600 2.028500
21.888100 2.252000
21.926600 2.273400
21.965100 2.337000
22.003600 2.434400
22.042100 2.449100
22.080500 2.372500
22.119000 2.263900
22.157500 2.089000
22.196000 1.965200
22.234500 1.886400
22.272900 1.845200
22.311400 1.875000
22.349900 2.008400
22.388400 2.147000
22.426900 2.257500
22.465400 2.336000
22.503800 2.283300
22.542300 2.016100
22.580800 1.897300
22.619300 1.906800
22.657800 1.801800
22.696200 1.605700
22.734700 1.399900
22.773200 1.314900
22.811700 1.246700
22.850200 1.199700
22.888700 1.161300
22.927100 1.119700
22.965600 1.081700
23.004100 1.069800
23.042600 1.055100
23.081100 1.088200
23.119500 1.117400
23.158000 1.172100
23.196500 1.225800
23.235000 1.277500
23.273500 1.347100
23.312000 1.427500
23.350400 1.518200
23.388900 1.593300
23.427400 1.623500
23.465900 1.680300
23.504400 1.733000
23.542800 1.780100
23.581300 1.813300
23.619800 1.831800
23.658300 1.829400
23.696800 1.815200
23.735300 1.806100
23.773700 1.880800
23.812200 1.983000
23.850700 2.071000
23.889200 1.915000
23.927700 1.910700
23.966100 1.891000
24.004600 1.879600
24.043100 1.961500
24.081600 2.077200
24.120100 2.154500
24.158600 2.207800
24.197000 2.215200
24.235500 2.273300
24.274000 2.230800
24.312500 2.194700
24.351000 2.193400
24.389400 2.201500
24.427900 2.149300
24.466400 2.022500
24.504900 1.932500
24.543400 1.873500
24.581900 1.823100
24.620300 1.831500
24.658800 1.931100
24.697300 1.989100
24.735800 2.058000
24.774300 2.143100
24.812700 2.253700
24.851200 2.389700
24.889700 2.657200
24.928200 2.646400
24.966700 2.614500
25.005200 2.521600
25.043600 2.388300
25.082100 2.248000
25.120600 2.145200
25.159100 2.076400
25.197600 2.080000
25.236000 2.206100
25.274500 2.336300
25.313000 2.339800
25.351500 2.345200
25.390000 2.290400
25.428500 2.307400
25.466900 2.465300
25.505400 2.579600
25.543900 2.566900
25.582400 2.557800
25.620900 2.617500
25.659300 2.587400
25.697800 2.552500
25.736300 2.481500
25.774800 2.514600
25.813300 2.555400
25.851800 2.600700
25.890200 2.710400
25.928700 2.857500
25.967200 2.928200
26.005700 2.885900
26.044200 2.776700
26.082600 2.637200
26.121100 2.562700
26.159600 2.637100
26.198100 2.779400
26.236600 2.833100
26.275100 2.867300
26.313500 2.810800
26.352000 2.672100
26.390500 2.697000
26.429000 2.782900
26.467500 2.740900
26.505900 2.779000
26.544400 2.784300
26.582900 2.737700
26.621400 2.760700
26.659900 2.947700
26.698400 3.045400
26.736800 2.960700
26.775300 3.012600
26.813800 3.088100
26.852300 3.172100
26.890800 3.138300
26.929200 3.036100
26.967700 2.851500
27.006200 2.817300
27.044700 2.740600
27.083200 2.731100
27.121700 2.771900
27.160100 2.883200
27.198600 2.946600
27.237100 2.640000
27.275600 2.511400
27.314100 2.479200
27.352500 2.333700
27.391000 2.230800
27.429500 2.213800
27.468000 2.342000
27.506500 2.292200
27.545000 2.345300
27.583400 2.459900
27.621900 2.450400
27.660400 2.459300
27.698900 2.642400
27.737400 2.321400
27.775800 2.257100
27.814300 2.312500
27.852800 2.333600
27.891300 2.326500
27.929800 2.428300
27.968300 2.537100
28.006700 2.420700
28.045200 2.082000
28.083700 1.972600
28.122200 1.922700
28.160700 1.861200
28.199100 1.772000
28.237600 1.582300
28.276100 1.476300
28.314600 1.483100
28.353100 1.597400
28.391600 1.503400
28.430000 1.569400
28.468500 1.579700
28.507000 1.671400
28.545500 1.724800
28.584000 1.857600
28.622400 2.022900
28.660900 2.109500
28.699400 2.085600
28.737900 1.945700
28.776400 1.930700
28.814900 1.942700
28.853300 1.958100
28.891800 1.991200
28.930300 2.022000
28.968800 2.068300
29.007300 2.103300
29.045700 2.010000
29.084200 1.850600
29.122700 1.812700
29.161200 1.833100
29.199700 1.939600
29.238200 2.089400
29.276600 2.304100
29.315100 2.562400
29.353600 2.731800
29.392100 2.875400
29.430600 2.974700
29.469000 3.032500
29.507500 2.843200
29.546000 2.733300
29.584500 2.887800
29.623000 2.528100
29.661500 2.172100
29.699900 1.987400
29.738400 1.910900
29.776900 1.836900
29.815400 1.766400
29.853900 1.742700
29.892300 1.756700
29.930800 1.811100
29.969300 1.861900
30.007800 1.978300
30.046300 2.161600
30.084800 2.393100
30.123200 2.493700
30.161700 2.696400
30.200200 2.836000
30.238700 2.823500
30.277200 2.704600
30.315600 2.669900
30.354100 2.714400
30.392600 2.747000
30.431100 2.710800
30.469600 2.749800
30.508100 2.712500
30.546500 2.538800
30.585000 2.364700
30.623500 2.290100
30.662000 2.277100
30.700500 2.276700
30.738900 2.259000
30.777400 2.297800
30.815900 2.320300
30.854400 2.280200
30.892900 2.365100
30.931400 2.563500
30.969800 2.811300
31.008300 3.037400
31.046800 3.114000
31.085300 3.498100
31.123800 2.839000
31.162200 2.752800
31.200700 2.752000
31.239200 2.836300
31.277700 2.949000
31.316200 3.205600
31.354700 2.973600
31.393100 2.583200
31.431600 2.372700
31.470100 2.988400
31.508600 2.324200
31.547100 2.268000
31.585500 2.216100
31.624000 2.140900
31.662500 2.124400
31.701000 2.073700
31.739500 2.068600
31.778000 2.114600
31.816400 2.215200
31.854900 2.323300
31.893400 2.397800
31.931900 2.490400
31.970400 2.570100
32.008800 2.640000
32.047300 2.731300
32.085800 2.819200
32.124300 2.868900
32.162800 2.918400
32.201300 2.721200
32.239700 2.498900
32.278200 2.326300
32.316700 2.269100
32.355200 2.210500
32.393700 2.084900
32.432100 1.980200
32.470600 2.077700
32.509100 2.303700
32.547600 2.744900
32.586100 2.924700
32.624600 3.141200
32.663000 3.187800
32.701500 3.124600
32.740000 3.062300
32.778500 3.012500
32.817000 2.947500
32.855400 2.654700
32.893900 2.506900
32.932400 2.353000
32.970900 2.369100
33.009400 1.996500
33.047900 1.709500
33.086300 1.782600
33.124800 1.870000
33.163300 1.947500
33.201800 2.105800
33.240300 2.318400
33.278700 2.552100
33.317200 2.784600
33.355700 2.457000
33.394200 2.255200
33.432700 2.217400
33.471200 2.215600
33.509600 2.241200
33.548100 2.300000
33.586600 2.461900
33.625100 2.608800
33.663600 2.802300
33.702000 2.917800
33.740500 2.954400
33.779000 2.807500
33.817500 2.748500
33.856000 2.702700
33.894500 2.682600
33.932900 2.640100
33.971400 2.660700
34.009900 2.661800
34.048400 2.691000
34.086900 2.776300
34.125300 2.813500
34.163800 2.802100
34.202300 2.750100
34.240800 2.637600
34.279300 2.494200
34.317800 2.271300
34.356200 2.061100
34.394700 1.919800
34.433200 1.835800
34.471700 1.772500
34.510200 1.728900
34.548600 1.634700
34.587100 1.408100
34.625600 1.423700
34.664100 1.426300
34.702600 1.433000
34.741100 1.345000
34.779500 1.195800
34.818000 1.131400
34.856500 1.061200
34.895000 0.984500
34.933500 0.903300
34.971900 0.817800
35.010400 0.741800
35.048900 0.679700
35.087400 0.630900
35.125900 0.583400
35.164400 0.540500
35.202800 0.501000
35.241300 0.463400
35.279800 0.420400
35.318300 0.373300
35.356800 0.334200
35.395200 0.310900
35.433700 0.283400
35.472200 0.249100
35.510700 0.207100
35.549200 0.167100
35.587700 0.128900
35.626100 0.094300
35.664600 0.069700
35.703100 0.055200
35.741600 0.043900
35.780100 0.033200
35.818500 0.023100
35.857000 0.016200
35.895500 0.011700
35.934000 0.008200
35.972500 0.005400
36.011000 0.003500
36.049400 0.002500
36.087900 0.001800
36.126400 0.001200
36.164900 0.000500
36.203400 0.000000
36.241800 0.000000
36.280300 0.000000
36.318800 0.000000
36.357300 0.000000
36.395800 0.000000
36.434300 0.000000
36.472700 0.000000
36.511200 0.000000
36.549700 0.000000
36.588200 0.000000
36.626700 0.000000
36.665100 0.000000
36.703600 0.000000
36.742100 0.000000
36.780600 0.000000
36.819100 0.000000
36.857600 0.000000
36.896000 0.000000
36.934500 0.000000
36.973000 0.000000
37.011500 0.000000
37.050000 0.000000
37.088400 0.000000
37.126900 0.000000
37.165400 0.000000
37.203900 0.000000
37.242400 0.000000
37.280900 0.000000
37.319300 0.000000
37.357800 0.000000
37.396300 0.000000
37.434800 0.000000
37.473300 0.000000
37.511700 0.000000
37.550200 0.000000
37.588700 0.000000
37.627200 0.000000
37.665700 0.000000
37.704200 0.000000
37.742600 0.000000
37.781100 0.000000
37.819600 0.000000
37.858100 0.000000
37.896600 0.000000
37.935000 0.000000
37.973500 0.000000
38.012000 0.000000
38.050500 0.000000
38.089000 0.000000
38.127500 0.000000
38.165900 0.000000
38.204400 0.000000
38.242900 0.000000
38.281400 0.000000
38.319900 0.000000
38.358300 0.000000
38.396800 0.000000
38.435300 0.000000
38.473800 0.000000
38.512300 0.000000
38.550800 0.000000
38.589200 0.000000
38.627700 0.000000
38.666200 0.000000
38.704700 0.000000
38.743200 0.000000
38.781600 0.000000
38.820100 0.000000
38.858600 0.000000
38.897100 0.000000
38.935600 0.000000
38.974100 0.000000
39.012500 0.000000
39.051000 0.000000
39.089500 0.000000
39.128000 0.000000
39.166500 0.000000
39.204900 0.000000
39.243400 0.000000
39.281900 0.000000
39.320400 0.000000
39.358900 0.000000
39.397400 0.000000
39.435800 0.000000
39.474300 0.000000
39.512800 0.000000
39.551300 0.000000
39.589800 0.000000
39.628200 0.000000
39.666700 0.000000
39.705200 0.000000
e
