set title 'mp-1078696 - Density of States'
set xlabel 'Energy (eV)'
set ylabel 'DOS (states/eV)'
set grid
set xrange [-10:10]
set yrange [0:22.962]
set xzeroaxis lt -1
set terminal png size 800,600
set output 'mp-1078696_dos_gnuplot.png'
plot '-' using 1:2 with lines title 'DOS'
-14.423500 0.000000
-14.406000 0.000000
-14.388600 0.000000
-14.371200 0.000000
-14.353800 0.000000
-14.336400 0.000000
-14.318900 0.000000
-14.301500 0.000000
-14.284100 0.000000
-14.266700 0.000000
-14.249200 0.000000
-14.231800 0.000000
-14.214400 0.000000
-14.197000 0.000000
-14.179600 0.000000
-14.162100 0.000000
-14.144700 0.000000
-14.127300 0.000000
-14.109900 0.000000
-14.092500 0.000000
-14.075000 0.000000
-14.057600 0.000000
-14.040200 0.000000
-14.022800 0.000000
-14.005400 0.000000
-13.987900 0.000000
-13.970500 0.000000
-13.953100 0.000000
-13.935700 0.000000
-13.918200 0.000000
-13.900800 0.000000
-13.883400 0.000000
-13.866000 0.000000
-13.848600 0.000000
-13.831100 0.000000
-13.813700 0.000000
-13.796300 0.000000
-13.778900 0.000000
-13.761500 0.000000
-13.744000 0.000000
-13.726600 0.000000
-13.709200 0.000000
-13.691800 0.000000
-13.674400 0.000000
-13.656900 0.000000
-13.639500 0.000000
-13.622100 0.000000
-13.604700 0.000000
-13.587200 0.000000
-13.569800 0.000000
-13.552400 0.000000
-13.535000 0.000000
-13.517600 0.000000
-13.500100 0.000000
-13.482700 0.000000
-13.465300 0.000000
-13.447900 0.000000
-13.430500 0.000000
-13.413000 0.000000
-13.395600 0.000000
-13.378200 0.000000
-13.360800 0.000000
-13.343400 0.000000
-13.325900 0.000000
-13.308500 0.000000
-13.291100 0.000000
-13.273700 0.000000
-13.256200 0.000000
-13.238800 0.000000
-13.221400 0.000000
-13.204000 0.000000
-13.186600 0.000000
-13.169100 0.000000
-13.151700 0.000000
-13.134300 0.000000
-13.116900 0.000000
-13.099500 0.000000
-13.082000 0.000000
-13.064600 0.000000
-13.047200 0.000000
-13.029800 0.000000
-13.012400 0.000000
-12.994900 0.000000
-12.977500 0.000000
-12.960100 0.000000
-12.942700 0.000000
-12.925200 0.000000
-12.907800 0.000000
-12.890400 0.000000
-12.873000 0.000000
-12.855600 0.000000
-12.838100 30.313100
-12.820700 60.648600
-12.803300 19.642100
-12.785900 20.631800
-12.768500 44.817500
-12.751000 54.410700
-12.733600 178.831400
-12.716200 140.189700
-12.698800 562.813000
-12.681300 659.237800
-12.663900 0.000000
-12.646500 0.000000
-12.629100 0.000000
-12.611700 0.000000
-12.594200 0.000000
-12.576800 0.000000
-12.559400 57.894300
-12.542000 57.658300
-12.524600 38.865800
-12.507100 40.462500
-12.489700 36.329800
-12.472300 139.068900
-12.454900 321.913100
-12.437500 155.606000
-12.420000 0.000000
-12.402600 0.000000
-12.385200 0.000000
-12.367800 0.000000
-12.350300 0.000000
-12.332900 0.000000
-12.315500 0.000000
-12.298100 0.000000
-12.280700 0.000000
-12.263200 0.000000
-12.245800 0.000000
-12.228400 0.000000
-12.211000 0.000000
-12.193600 0.000000
-12.176100 0.000000
-12.158700 0.000000
-12.141300 0.000000
-12.123900 0.000000
-12.106500 0.000000
-12.089000 0.000000
-12.071600 0.000000
-12.054200 0.000000
-12.036800 0.000000
-12.019300 0.000000
-12.001900 0.000000
-11.984500 0.000000
-11.967100 0.000000
-11.949700 0.000000
-11.932200 0.000000
-11.914800 0.000000
-11.897400 0.000000
-11.880000 0.000000
-11.862600 0.000000
-11.845100 0.000000
-11.827700 0.000000
-11.810300 0.000000
-11.792900 0.000000
-11.775500 0.000000
-11.758000 0.000000
-11.740600 0.000000
-11.723200 0.000000
-11.705800 0.000000
-11.688300 0.000000
-11.670900 0.000000
-11.653500 0.000000
-11.636100 0.000000
-11.618700 0.000000
-11.601200 0.000000
-11.583800 0.000000
-11.566400 0.000000
-11.549000 0.000000
-11.531600 0.000000
-11.514100 0.000000
-11.496700 0.000000
-11.479300 0.000000
-11.461900 0.000000
-11.444500 0.000000
-11.427000 0.000000
-11.409600 0.000000
-11.392200 0.000000
-11.374800 0.000000
-11.357300 0.000000
-11.339900 0.000000
-11.322500 0.000000
-11.305100 0.000000
-11.287700 0.000000
-11.270200 0.000000
-11.252800 0.000000
-11.235400 0.000000
-11.218000 0.000000
-11.200600 0.000000
-11.183100 0.000000
-11.165700 0.000000
-11.148300 0.000000
-11.130900 0.000000
-11.113500 0.000000
-11.096000 0.000000
-11.078600 0.000000
-11.061200 0.000000
-11.043800 0.000000
-11.026300 0.000000
-11.008900 0.000000
-10.991500 0.000000
-10.974100 0.000000
-10.956700 0.000000
-10.939200 0.000000
-10.921800 0.000000
-10.904400 0.000000
-10.887000 0.000000
-10.869600 0.000000
-10.852100 0.000000
-10.834700 0.000000
-10.817300 0.000000
-10.799900 0.000000
-10.782500 0.000000
-10.765000 0.000000
-10.747600 0.000000
-10.730200 0.000000
-10.712800 0.000000
-10.695300 0.000000
-10.677900 0.000000
-10.660500 0.000000
-10.643100 0.000000
-10.625700 0.000000
-10.608200 0.000000
-10.590800 0.000000
-10.573400 0.000000
-10.556000 0.000000
-10.538600 0.000000
-10.521100 0.000000
-10.503700 0.000000
-10.486300 0.000000
-10.468900 0.000000
-10.451500 0.000000
-10.434000 0.000000
-10.416600 0.000000
-10.399200 0.000000
-10.381800 0.000000
-10.364300 0.000000
-10.346900 0.000000
-10.329500 0.000000
-10.312100 0.000000
-10.294700 0.000000
-10.277200 0.000000
-10.259800 0.000000
-10.242400 0.000000
-10.225000 0.000000
-10.207600 0.000000
-10.190100 0.000000
-10.172700 0.000000
-10.155300 0.000000
-10.137900 0.000000
-10.120500 0.000000
-10.103000 0.000000
-10.085600 0.000000
-10.068200 0.000000
-10.050800 0.000000
-10.033300 0.000000
-10.015900 0.000000
-9.998500 0.000000
-9.981100 0.000000
-9.963700 0.000000
-9.946200 0.000000
-9.928800 0.000000
-9.911400 0.000000
-9.894000 0.000000
-9.876600 0.000000
-9.859100 0.000000
-9.841700 0.000000
-9.824300 0.000000
-9.806900 0.000000
-9.789400 0.000000
-9.772000 0.000000
-9.754600 0.000000
-9.737200 0.000000
-9.719800 0.000000
-9.702300 0.000000
-9.684900 0.000000
-9.667500 0.000000
-9.650100 0.000000
-9.632700 0.000000
-9.615200 0.000000
-9.597800 0.000000
-9.580400 0.000000
-9.563000 0.000000
-9.545600 0.000000
-9.528100 0.000000
-9.510700 0.000000
-9.493300 0.000000
-9.475900 0.000000
-9.458400 0.000000
-9.441000 0.000000
-9.423600 0.000000
-9.406200 0.000000
-9.388800 0.000000
-9.371300 0.000000
-9.353900 0.000000
-9.336500 0.000000
-9.319100 0.000000
-9.301700 0.000000
-9.284200 0.000000
-9.266800 0.000000
-9.249400 0.000000
-9.232000 0.000000
-9.214600 0.000000
-9.197100 0.000000
-9.179700 0.000000
-9.162300 0.000000
-9.144900 0.000000
-9.127400 0.000000
-9.110000 0.000000
-9.092600 0.000000
-9.075200 0.000000
-9.057800 0.000000
-9.040300 0.000000
-9.022900 0.001800
-9.005500 0.034500
-8.988100 0.108200
-8.970700 0.223000
-8.953200 0.378700
-8.935800 0.576700
-8.918400 0.826300
-8.901000 1.129500
-8.883600 1.475900
-8.866100 1.848600
-8.848700 2.247500
-8.831300 2.665300
-8.813900 3.081300
-8.796400 3.432900
-8.779000 3.635000
-8.761600 3.616400
-8.744200 3.407400
-8.726800 3.170200
-8.709300 2.917500
-8.691900 2.663100
-8.674500 2.419700
-8.657100 2.251400
-8.639700 2.190600
-8.622200 2.262000
-8.604800 2.364900
-8.587400 2.468100
-8.570000 2.571600
-8.552600 2.675400
-8.535100 2.780100
-8.517700 2.885400
-8.500300 2.990100
-8.482900 3.094100
-8.465400 3.197400
-8.448000 3.300100
-8.430600 3.402200
-8.413200 3.503900
-8.395800 3.604700
-8.378300 3.699700
-8.360900 3.788300
-8.343500 3.851600
-8.326100 3.883400
-8.308700 3.888300
-8.291200 3.874100
-8.273800 3.856200
-8.256400 3.820900
-8.239000 3.773400
-8.221600 3.724700
-8.204100 3.671300
-8.186700 3.612200
-8.169300 3.542600
-8.151900 3.461900
-8.134400 3.378400
-8.117000 3.308600
-8.099600 3.252800
-8.082200 3.211000
-8.064800 3.183300
-8.047300 3.339000
-8.029900 4.344500
-8.012500 5.253000
-7.995100 6.093200
-7.977700 6.871800
-7.960200 7.437800
-7.942800 7.737600
-7.925400 7.854800
-7.908000 7.651900
-7.890600 7.200800
-7.873100 7.002300
-7.855700 6.251000
-7.838300 6.156800
-7.820900 6.378500
-7.803400 6.582100
-7.786000 6.762600
-7.768600 6.944000
-7.751200 7.011700
-7.733800 7.083900
-7.716300 7.378300
-7.698900 7.604500
-7.681500 7.855300
-7.664100 7.699400
-7.646700 6.853800
-7.629200 8.120000
-7.611800 11.375700
-7.594400 15.572300
-7.577000 9.879800
-7.559600 9.784800
-7.542100 20.874700
-7.524700 15.732900
-7.507300 12.693800
-7.489900 10.412000
-7.472400 9.503600
-7.455000 6.449200
-7.437600 5.891700
-7.420200 5.010000
-7.402800 3.559800
-7.385300 1.872100
-7.367900 0.426000
-7.350500 0.000000
-7.333100 0.000000
-7.315700 0.000000
-7.298200 0.000000
-7.280800 0.000000
-7.263400 0.000000
-7.246000 0.000000
-7.228500 0.000000
-7.211100 0.000000
-7.193700 0.000000
-7.176300 0.000000
-7.158900 0.000000
-7.141400 0.000000
-7.124000 0.000000
-7.106600 0.000000
-7.089200 0.000000
-7.071800 0.000000
-7.054300 0.000000
-7.036900 0.000000
-7.019500 0.000000
-7.002100 0.000000
-6.984700 0.000000
-6.967200 0.000000
-6.949800 0.000000
-6.932400 0.000000
-6.915000 0.000000
-6.897500 0.000000
-6.880100 0.000000
-6.862700 0.000000
-6.845300 0.000000
-6.827900 0.000000
-6.810400 0.000000
-6.793000 0.000000
-6.775600 0.000000
-6.758200 0.000000
-6.740800 0.000000
-6.723300 0.000000
-6.705900 0.000000
-6.688500 0.000000
-6.671100 0.000000
-6.653700 0.000000
-6.636200 0.000000
-6.618800 0.000000
-6.601400 0.000000
-6.584000 0.000000
-6.566500 0.000000
-6.549100 0.000000
-6.531700 0.000000
-6.514300 0.000000
-6.496900 0.000000
-6.479400 0.000000
-6.462000 0.000000
-6.444600 0.000000
-6.427200 0.000000
-6.409800 0.000000
-6.392300 0.000000
-6.374900 0.000000
-6.357500 0.000000
-6.340100 0.000000
-6.322700 0.000000
-6.305200 0.000000
-6.287800 0.000000
-6.270400 0.000000
-6.253000 0.000000
-6.235500 0.000000
-6.218100 0.000000
-6.200700 0.000000
-6.183300 0.000000
-6.165900 0.000000
-6.148400 0.000000
-6.131000 0.000000
-6.113600 0.000000
-6.096200 0.000000
-6.078800 0.000000
-6.061300 0.000000
-6.043900 0.000000
-6.026500 0.000000
-6.009100 0.000000
-5.991700 0.000000
-5.974200 0.000000
-5.956800 0.000000
-5.939400 0.000000
-5.922000 0.000000
-5.904500 0.000000
-5.887100 0.000000
-5.869700 0.000000
-5.852300 0.000000
-5.834900 0.000000
-5.817400 0.000000
-5.800000 0.000000
-5.782600 0.000000
-5.765200 0.000000
-5.747800 0.000000
-5.730300 0.000000
-5.712900 0.000000
-5.695500 0.000000
-5.678100 0.000000
-5.660700 0.000000
-5.643200 0.000000
-5.625800 0.000000
-5.608400 0.000000
-5.591000 0.000000
-5.573500 0.000000
-5.556100 0.000000
-5.538700 0.000000
-5.521300 0.000000
-5.503900 0.000000
-5.486400 0.000000
-5.469000 0.000000
-5.451600 0.000000
-5.434200 0.000000
-5.416800 0.000000
-5.399300 0.000000
-5.381900 0.000000
-5.364500 0.000000
-5.347100 0.000000
-5.329700 0.000000
-5.312200 0.000000
-5.294800 0.000000
-5.277400 0.000000
-5.260000 0.000000
-5.242500 0.000000
-5.225100 0.000000
-5.207700 0.000000
-5.190300 0.000000
-5.172900 0.000000
-5.155400 0.000000
-5.138000 0.000000
-5.120600 0.000000
-5.103200 0.000000
-5.085800 0.000000
-5.068300 0.000000
-5.050900 0.000000
-5.033500 0.000000
-5.016100 0.000000
-4.998700 0.000000
-4.981200 0.000000
-4.963800 0.000000
-4.946400 0.000000
-4.929000 0.000000
-4.911500 0.000000
-4.894100 0.000000
-4.876700 0.000000
-4.859300 0.000000
-4.841900 0.000000
-4.824400 0.000000
-4.807000 0.000000
-4.789600 0.000000
-4.772200 0.000000
-4.754800 0.000000
-4.737300 0.000000
-4.719900 0.000000
-4.702500 0.000000
-4.685100 0.000000
-4.667600 0.000000
-4.650200 0.000000
-4.632800 0.000000
-4.615400 0.000000
-4.598000 0.000000
-4.580500 0.000000
-4.563100 0.000000
-4.545700 0.000000
-4.528300 0.000000
-4.510900 0.000000
-4.493400 0.000000
-4.476000 0.000000
-4.458600 0.000000
-4.441200 0.000000
-4.423800 0.000000
-4.406300 0.000000
-4.388900 0.000000
-4.371500 0.000000
-4.354100 0.000000
-4.336600 0.000000
-4.319200 0.000000
-4.301800 0.000100
-4.284400 0.029200
-4.267000 0.289600
-4.249500 0.933900
-4.232100 1.853400
-4.214700 2.778100
-4.197300 3.706600
-4.179900 4.638900
-4.162400 5.575100
-4.145000 6.772000
-4.127600 7.089500
-4.110200 7.011900
-4.092800 6.891800
-4.075300 6.759000
-4.057900 6.712100
-4.040500 6.991100
-4.023100 6.397000
-4.005600 5.574200
-3.988200 4.792600
-3.970800 4.445900
-3.953400 4.258300
-3.936000 4.161200
-3.918500 4.272600
-3.901100 4.635000
-3.883700 4.921000
-3.866300 5.323700
-3.848900 5.826900
-3.831400 6.756800
-3.814000 5.337000
-3.796600 4.296600
-3.779200 4.760100
-3.761800 5.869300
-3.744300 6.309300
-3.726900 6.943100
-3.709500 7.617200
-3.692100 7.983600
-3.674600 8.646600
-3.657200 9.550100
-3.639800 10.004000
-3.622400 9.651900
-3.605000 8.362900
-3.587500 7.534300
-3.570100 6.920300
-3.552700 6.550500
-3.535300 5.753900
-3.517900 4.286000
-3.500400 3.710200
-3.483000 3.876300
-3.465600 4.213200
-3.448200 5.079200
-3.430800 5.414200
-3.413300 5.119700
-3.395900 5.249300
-3.378500 5.566300
-3.361100 5.840500
-3.343600 7.628200
-3.326200 8.892700
-3.308800 7.291400
-3.291400 6.362900
-3.274000 6.390900
-3.256500 6.475300
-3.239100 5.996600
-3.221700 5.636300
-3.204300 5.321700
-3.186900 5.052900
-3.169400 4.204600
-3.152000 3.897100
-3.134600 3.597400
-3.117200 3.283800
-3.099800 2.980200
-3.082300 2.700500
-3.064900 2.446200
-3.047500 2.217100
-3.030100 2.013200
-3.012600 1.836900
-2.995200 1.689700
-2.977800 1.571800
-2.960400 1.483000
-2.943000 1.423500
-2.925500 1.393200
-2.908100 1.378100
-2.890700 1.362500
-2.873300 1.346200
-2.855900 1.329300
-2.838400 1.309400
-2.821000 1.295700
-2.803600 1.332100
-2.786200 1.403600
-2.768800 1.481700
-2.751300 1.566000
-2.733900 1.656500
-2.716500 1.752400
-2.699100 1.852600
-2.681600 1.893500
-2.664200 1.883900
-2.646800 1.872400
-2.629400 1.859000
-2.612000 1.843700
-2.594500 1.826600
-2.577100 1.807500
-2.559700 1.786400
-2.542300 1.763500
-2.524900 1.738700
-2.507400 1.711900
-2.490000 1.683000
-2.472600 1.649700
-2.455200 1.606300
-2.437800 1.553000
-2.420300 1.490500
-2.402900 1.419000
-2.385500 1.338400
-2.368100 1.248700
-2.350600 1.151200
-2.333200 1.048000
-2.315800 0.939200
-2.298400 0.824800
-2.281000 0.704800
-2.263500 0.579200
-2.246100 0.448100
-2.228700 0.315900
-2.211300 0.230100
-2.193900 0.158300
-2.176400 0.099800
-2.159000 0.054800
-2.141600 0.023200
-2.124200 0.005000
-2.106700 0.000000
-2.089300 0.000000
-2.071900 0.000000
-2.054500 0.000000
-2.037100 0.000000
-2.019600 0.000000
-2.002200 0.000000
-1.984800 0.000000
-1.967400 0.000000
-1.950000 0.000000
-1.932500 0.000000
-1.915100 0.000000
-1.897700 0.000000
-1.880300 0.000000
-1.862900 0.000000
-1.845400 0.000000
-1.828000 0.000000
-1.810600 0.000000
-1.793200 0.000000
-1.775700 0.000000
-1.758300 0.000000
-1.740900 0.000000
-1.723500 0.000000
-1.706100 0.000000
-1.688600 0.000000
-1.671200 0.000000
-1.653800 0.000000
-1.636400 0.000000
-1.619000 0.000000
-1.601500 0.000000
-1.584100 0.000000
-1.566700 0.000000
-1.549300 0.000000
-1.531900 0.000000
-1.514400 0.000000
-1.497000 0.000000
-1.479600 0.000000
-1.462200 0.000000
-1.444700 0.000000
-1.427300 0.000000
-1.409900 0.000000
-1.392500 0.000000
-1.375100 0.000000
-1.357600 0.000000
-1.340200 0.000000
-1.322800 0.000000
-1.305400 0.000000
-1.288000 0.000000
-1.270500 0.000000
-1.253100 0.000000
-1.235700 0.000000
-1.218300 0.000000
-1.200900 0.000000
-1.183400 0.000000
-1.166000 0.000000
-1.148600 0.000000
-1.131200 0.000000
-1.113700 0.000000
-1.096300 0.000000
-1.078900 0.000000
-1.061500 0.000000
-1.044100 0.000000
-1.026600 0.000000
-1.009200 0.000000
-0.991800 0.000000
-0.974400 0.000000
-0.957000 0.000000
-0.939500 0.000000
-0.922100 0.000000
-0.904700 0.000000
-0.887300 0.000000
-0.869900 0.000000
-0.852400 0.000000
-0.835000 0.000000
-0.817600 0.000000
-0.800200 0.000000
-0.782700 0.000000
-0.765300 0.000000
-0.747900 0.000000
-0.730500 0.000000
-0.713100 0.000000
-0.695600 0.000000
-0.678200 0.000000
-0.660800 0.000000
-0.643400 0.000000
-0.626000 0.000000
-0.608500 0.000000
-0.591100 0.000000
-0.573700 0.000000
-0.556300 0.000000
-0.538900 0.000000
-0.521400 0.000000
-0.504000 0.000000
-0.486600 0.000000
-0.469200 0.000000
-0.451700 0.000000
-0.434300 0.000000
-0.416900 0.000000
-0.399500 0.000000
-0.382100 0.000000
-0.364600 0.000000
-0.347200 0.000000
-0.329800 0.000000
-0.312400 0.000000
-0.295000 0.000000
-0.277500 0.001700
-0.260100 0.010900
-0.242700 0.027800
-0.225300 0.052600
-0.207900 0.085200
-0.190400 0.125500
-0.173000 0.173800
-0.155600 0.228900
-0.138200 0.289900
-0.120700 0.356600
-0.103300 0.426300
-0.085900 0.493500
-0.068500 0.558200
-0.051100 0.620500
-0.033600 0.680200
-0.016200 0.737500
0.001200 0.792300
0.018600 0.846400
0.036000 0.900900
0.053500 0.955800
0.070900 1.011100
0.088300 1.066700
0.105700 1.122800
0.123100 1.179300
0.140600 1.359600
0.158000 2.559300
0.175400 3.490000
0.192800 4.378900
0.210300 5.463500
0.227700 6.009500
0.245100 6.101900
0.262500 6.178700
0.279900 6.240000
0.297400 6.285700
0.314800 6.071900
0.332200 5.685800
0.349600 5.232200
0.367000 4.901600
0.384500 4.681300
0.401900 4.511700
0.419300 4.839300
0.436700 5.277300
0.454200 5.654400
0.471600 5.873500
0.489000 5.868500
0.506400 5.891300
0.523800 5.897200
0.541300 5.903800
0.558700 5.915000
0.576100 5.920300
0.593500 5.798200
0.610900 5.624200
0.628400 5.416200
0.645800 5.158600
0.663200 4.868000
0.680600 4.544300
0.698000 4.187600
0.715500 3.923300
0.732900 3.933300
0.750300 4.106700
0.767700 4.629200
0.785200 5.168500
0.802600 5.321100
0.820000 5.492700
0.837400 5.651700
0.854800 5.799800
0.872300 6.033900
0.889700 6.428500
0.907100 6.866500
0.924500 7.318600
0.941900 7.726500
0.959400 7.828200
0.976800 7.618100
0.994200 7.387100
1.011600 7.157700
1.029000 6.903200
1.046500 6.730300
1.063900 6.817400
1.081300 7.055000
1.098700 7.166500
1.116200 7.242400
1.133600 7.289500
1.151000 7.154300
1.168400 6.971800
1.185800 6.866300
1.203300 6.771800
1.220700 6.486300
1.238100 5.925000
1.255500 5.341300
1.272900 5.220000
1.290400 5.746600
1.307800 6.219600
1.325200 6.266600
1.342600 6.281800
1.360000 8.141600
1.377500 8.396100
1.394900 8.428300
1.412300 8.576800
1.429700 8.766500
1.447200 8.253100
1.464600 7.109500
1.482000 6.881600
1.499400 6.729500
1.516800 6.705800
1.534300 6.745600
1.551700 6.861000
1.569100 7.013200
1.586500 7.180300
1.603900 7.273300
1.621400 7.345900
1.638800 7.668800
1.656200 7.731800
1.673600 7.747100
1.691000 7.705200
1.708500 7.643100
1.725900 7.583000
1.743300 7.516400
1.760700 7.419000
1.778200 7.292400
1.795600 7.137700
1.813000 6.994100
1.830400 7.365600
1.847800 7.935300
1.865300 7.760100
1.882700 7.525400
1.900100 7.488400
1.917500 7.554000
1.934900 7.618900
1.952400 7.758200
1.969800 7.971300
1.987200 8.168900
2.004600 8.296600
2.022000 8.448500
2.039500 8.723200
2.056900 9.180100
2.074300 9.460900
2.091700 9.556300
2.109200 9.640500
2.126600 10.276900
2.144000 9.422300
2.161400 8.553700
2.178800 8.072300
2.196300 7.685300
2.213700 7.311900
2.231100 7.164000
2.248500 7.126200
2.265900 7.116300
2.283400 7.131000
2.300800 7.167800
2.318200 7.226800
2.335600 7.316300
2.353000 7.518000
2.370500 7.842700
2.387900 8.195300
2.405300 8.644800
2.422700 9.026900
2.440200 9.227300
2.457600 9.394700
2.475000 10.417900
2.492400 10.527700
2.509800 11.454100
2.527300 11.601000
2.544700 11.222800
2.562100 10.618000
2.579500 9.732600
2.596900 8.210200
2.614400 6.830800
2.631800 7.034900
2.649200 7.703200
2.666600 7.979800
2.684000 8.364200
2.701500 8.312000
2.718900 7.538200
2.736300 7.596000
2.753700 7.592100
2.771200 7.592300
2.788600 7.314300
2.806000 6.594700
2.823400 6.207400
2.840800 5.893700
2.858300 5.853200
2.875700 4.919200
2.893100 5.171500
2.910500 6.143700
2.927900 6.750000
2.945400 7.328500
2.962800 7.894300
2.980200 8.444100
2.997600 8.760100
3.015000 8.645800
3.032500 8.412900
3.049900 8.825300
3.067300 7.529500
3.084700 5.989900
3.102200 5.452200
3.119600 5.624000
3.137000 5.975200
3.154400 6.038400
3.171800 6.010200
3.189300 6.003400
3.206700 6.084600
3.224100 6.026700
3.241500 5.810900
3.258900 5.583200
3.276400 5.371100
3.293800 5.180600
3.311200 5.041300
3.328600 4.957300
3.346100 4.928600
3.363500 4.956900
3.380900 5.185700
3.398300 5.504500
3.415700 5.788400
3.433200 5.936100
3.450600 6.013000
3.468000 5.974000
3.485400 5.144200
3.502800 4.144700
3.520300 4.114900
3.537700 4.117000
3.555100 4.122100
3.572500 3.962400
3.589900 4.264100
3.607400 4.375700
3.624800 3.286300
3.642200 2.541300
3.659600 1.784200
3.677100 1.195200
3.694500 0.833100
3.711900 0.646700
3.729300 0.490600
3.746700 0.356100
3.764200 0.243000
3.781600 0.151500
3.799000 0.081500
3.816400 0.033000
3.833800 0.006100
3.851300 0.000000
3.868700 0.000000
3.886100 0.000000
3.903500 0.000000
3.920900 0.000000
3.938400 0.000000
3.955800 0.000000
3.973200 0.000000
3.990600 0.000000
4.008100 0.000000
4.025500 0.000000
4.042900 0.000000
4.060300 0.000000
4.077700 0.000000
4.095200 0.000000
4.112600 0.000000
4.130000 0.000000
4.147400 0.000000
4.164800 0.000000
4.182300 0.000000
4.199700 0.000000
4.217100 0.000000
4.234500 0.000000
4.251900 0.000000
4.269400 0.000000
4.286800 0.000000
4.304200 0.000000
4.321600 0.000000
4.339100 0.000000
4.356500 0.000000
4.373900 0.000000
4.391300 0.000000
4.408700 0.000000
4.426200 0.000000
4.443600 0.000000
4.461000 0.000000
4.478400 0.000000
4.495800 0.000000
4.513300 0.000000
4.530700 0.000000
4.548100 0.000000
4.565500 0.000000
4.582900 0.000000
4.600400 0.000000
4.617800 0.001300
4.635200 0.012100
4.652600 0.028200
4.670100 0.044400
4.687500 0.060500
4.704900 0.076700
4.722300 0.092800
4.739700 0.108900
4.757200 0.125100
4.774600 0.141200
4.792000 0.157400
4.809400 0.173500
4.826800 0.189700
4.844300 0.205800
4.861700 0.222000
4.879100 0.238100
4.896500 0.254300
4.913900 0.270400
4.931400 0.286600
4.948800 0.302800
4.966200 0.318900
4.983600 0.335100
5.001100 0.351200
5.018500 0.367400
5.035900 0.383600
5.053300 0.399700
5.070700 0.415900
5.088200 0.432100
5.105600 0.448200
5.123000 0.464400
5.140400 0.490200
5.157800 0.531100
5.175300 0.571700
5.192700 0.612200
5.210100 0.652500
5.227500 0.784600
5.244900 1.196100
5.262400 1.335000
5.279800 1.459900
5.297200 1.576000
5.314600 1.683300
5.332100 1.785100
5.349500 1.891100
5.366900 2.016400
5.384300 2.157700
5.401700 2.311900
5.419200 2.481200
5.436600 2.707700
5.454000 2.952600
5.471400 3.215800
5.488800 3.495300
5.506300 3.768000
5.523700 4.308100
5.541100 5.077500
5.558500 5.328600
5.575900 5.491400
5.593400 5.607500
5.610800 5.674000
5.628200 5.693000
5.645600 5.666500
5.663100 5.604400
5.680500 5.447400
5.697900 5.254800
5.715300 5.027000
5.732700 4.783200
5.750200 4.532700
5.767600 4.275600
5.785000 4.011900
5.802400 3.741700
5.819800 3.468200
5.837300 3.196100
5.854700 2.967000
5.872100 2.826600
5.889500 2.793800
5.907000 2.881700
5.924400 3.054700
5.941800 3.269300
5.959200 3.514400
5.976600 3.796900
5.994100 4.123100
6.011500 4.497200
6.028900 5.235800
6.046300 5.801700
6.063700 6.007400
6.081200 5.997300
6.098600 5.847800
6.116000 5.528500
6.133400 5.123800
6.150800 4.687400
6.168300 4.215800
6.185700 3.772800
6.203100 3.403100
6.220500 3.080800
6.238000 2.810100
6.255400 2.632100
6.272800 2.524700
6.290200 2.467600
6.307600 2.445000
6.325100 2.456700
6.342500 2.502900
6.359900 2.695100
6.377300 3.873400
6.394700 3.952800
6.412200 4.078000
6.429600 4.229300
6.447000 4.403300
6.464400 4.574500
6.481800 4.729600
6.499300 4.861400
6.516700 5.027300
6.534100 5.312500
6.551500 5.604700
6.569000 5.928100
6.586400 6.195500
6.603800 6.272900
6.621200 6.292900
6.638600 6.328300
6.656100 6.377300
6.673500 6.457300
6.690900 6.554600
6.708300 6.162900
6.725700 6.148300
6.743200 6.112700
6.760600 6.075300
6.778000 5.801900
6.795400 5.495700
6.812800 5.183100
6.830300 4.927500
6.847700 4.879700
6.865100 4.926500
6.882500 5.713100
6.900000 6.121400
6.917400 6.353300
6.934800 6.558900
6.952200 6.727300
6.969600 6.779600
6.987100 6.584500
7.004500 6.336200
7.021900 6.092800
7.039300 5.870200
7.056700 5.470400
7.074200 4.833300
7.091600 3.475500
7.109000 3.418400
7.126400 3.385800
7.143800 3.378300
7.161300 3.400300
7.178700 3.452900
7.196100 3.531600
7.213500 3.623300
7.231000 3.721100
7.248400 3.803600
7.265800 3.909300
7.283200 4.179600
7.300600 4.629700
7.318100 5.150000
7.335500 5.707500
7.352900 6.003600
7.370300 6.134700
7.387700 5.786000
7.405200 5.674700
7.422600 5.737900
7.440000 5.843400
7.457400 5.969000
7.474800 6.114700
7.492300 6.297900
7.509700 6.498200
7.527100 6.673800
7.544500 6.811800
7.562000 6.906000
7.579400 6.960000
7.596800 6.994400
7.614200 7.018300
7.631600 7.037700
7.649100 7.063500
7.666500 7.099400
7.683900 7.177500
7.701300 7.181800
7.718700 6.711000
7.736200 6.308400
7.753600 6.175800
7.771000 6.508400
7.788400 6.985000
7.805800 7.765600
7.823300 9.135400
7.840700 9.669000
7.858100 10.080800
7.875500 10.510100
7.893000 10.789700
7.910400 10.844300
7.927800 10.578700
7.945200 10.061800
7.962600 8.297800
7.980100 7.440200
7.997500 7.142900
8.014900 7.058500
8.032300 7.154300
8.049700 7.412800
8.067200 9.423600
8.084600 9.664800
8.102000 9.109200
8.119400 8.489700
8.136800 7.722400
8.154300 7.313000
8.171700 7.424600
8.189100 7.426500
8.206500 7.504500
8.224000 7.666200
8.241400 7.904300
8.258800 8.248900
8.276200 8.712900
8.293600 8.623200
8.311100 8.617100
8.328500 8.547200
8.345900 8.483800
8.363300 8.449500
8.380700 8.440700
8.398200 8.464300
8.415600 8.413000
8.433000 8.271700
8.450400 7.981100
8.467900 7.634500
8.485300 7.318800
8.502700 7.097400
8.520100 6.971800
8.537500 6.817800
8.555000 6.514300
8.572400 6.277200
8.589800 6.248600
8.607200 6.586200
8.624600 6.913500
8.642100 7.266100
8.659500 7.936200
8.676900 7.989400
8.694300 7.963000
8.711700 8.075600
8.729200 8.301300
8.746600 8.279100
8.764000 7.992900
8.781400 7.619600
8.798900 7.326300
8.816300 7.164200
8.833700 7.080200
8.851100 7.054000
8.868500 7.071400
8.886000 7.011100
8.903400 6.935700
8.920800 6.912600
8.938200 6.908500
8.955600 6.974600
8.973100 7.092500
8.990500 7.239400
9.007900 7.384800
9.025300 7.511300
9.042700 7.634200
9.060200 7.618300
9.077600 7.415100
9.095000 7.185900
9.112400 7.175800
9.129900 6.420900
9.147300 5.460900
9.164700 5.114100
9.182100 4.864000
9.199500 4.710800
9.217000 4.696100
9.234400 4.573900
9.251800 5.151000
9.269200 4.444600
9.286600 3.703700
9.304100 2.913100
9.321500 2.461700
9.338900 2.131700
9.356300 1.895300
9.373700 1.654800
9.391200 1.406000
9.408600 1.181100
9.426000 1.013100
9.443400 0.862000
9.460900 0.536700
9.478300 0.241400
9.495700 0.063300
9.513100 0.000400
9.530500 0.000000
9.548000 0.000000
9.565400 0.000000
9.582800 0.000000
9.600200 0.000000
9.617600 0.000000
9.635100 0.000000
9.652500 0.000000
9.669900 0.000000
9.687300 0.000400
9.704700 0.005100
9.722200 0.014900
9.739600 0.030000
9.757000 0.050200
9.774400 0.075600
9.791900 0.106200
9.809300 0.142000
9.826700 0.183000
9.844100 0.229200
9.861500 0.280600
9.879000 0.337200
9.896400 0.399000
9.913800 0.465900
9.931200 0.538100
9.948600 0.615000
9.966100 0.696400
9.983500 0.782400
10.000900 0.872900
10.018300 0.969600
10.035700 1.073200
10.053200 1.183800
10.070600 1.301500
10.088000 1.426100
10.105400 1.557600
10.122900 1.696200
10.140300 4.817300
10.157700 3.510600
10.175100 3.453000
10.192500 3.407200
10.210000 3.373200
10.227400 3.325700
10.244800 3.276900
10.262200 3.254300
10.279600 3.257700
10.297100 3.287300
10.314500 3.342900
10.331900 3.432500
10.349300 3.580300
10.366700 3.843000
10.384200 4.128600
10.401600 4.346000
10.419000 5.738800
10.436400 6.150300
10.453900 5.692200
10.471300 5.738600
10.488700 5.773200
10.506100 5.769000
10.523500 5.626500
10.541000 5.431200
10.558400 5.268200
10.575800 5.229700
10.593200 5.305400
10.610600 5.418700
10.628100 5.611500
10.645500 5.993800
10.662900 6.794900
10.680300 8.210900
10.697700 7.822400
10.715200 8.339500
10.732600 8.370000
10.750000 7.944400
10.767400 7.210700
10.784900 5.997000
10.802300 5.070300
10.819700 4.673600
10.837100 4.367800
10.854500 4.119500
10.872000 3.929000
10.889400 3.766500
10.906800 3.616600
10.924200 3.554000
10.941600 3.558000
10.959100 3.563000
10.976500 3.568700
10.993900 3.567400
11.011300 3.543700
11.028800 3.497500
11.046200 3.429000
11.063600 3.338300
11.081000 3.225300
11.098400 3.183700
11.115900 3.346800
11.133300 3.593800
11.150700 3.692100
11.168100 3.817900
11.185500 3.949000
11.203000 4.069400
11.220400 4.062500
11.237800 4.095600
11.255200 4.179700
11.272600 4.387700
11.290100 4.607600
11.307500 4.831800
11.324900 5.026300
11.342300 5.198800
11.359800 5.328700
11.377200 5.335600
11.394600 5.293900
11.412000 5.216800
11.429400 5.123400
11.446900 4.700400
11.464300 4.508000
11.481700 4.416600
11.499100 4.367500
11.516500 4.362000
11.534000 4.407300
11.551400 4.487900
11.568800 4.566400
11.586200 4.641300
11.603600 4.701200
11.621100 4.720100
11.638500 4.685400
11.655900 4.621300
11.673300 4.523800
11.690800 4.321200
11.708200 4.106500
11.725600 3.881700
11.743000 3.652800
11.760400 3.423100
11.777900 3.200700
11.795300 2.988200
11.812700 2.779900
11.830100 2.525300
11.847500 2.309900
11.865000 2.138900
11.882400 2.015400
11.899800 1.942200
11.917200 2.023400
11.934600 2.330100
11.952100 2.875100
11.969500 3.443700
11.986900 3.915400
12.004300 4.359800
12.021800 4.400900
12.039200 4.482300
12.056600 4.555800
12.074000 4.587200
12.091400 4.576300
12.108900 4.540900
12.126300 4.501100
12.143700 4.456800
12.161100 4.408100
12.178500 4.355100
12.196000 4.289900
12.213400 4.061000
12.230800 4.018800
12.248200 4.221700
12.265600 4.513800
12.283100 4.894700
12.300500 5.362500
12.317900 5.894400
12.335300 6.547200
12.352800 6.977500
12.370200 6.695900
12.387600 6.565000
12.405000 6.397200
12.422400 6.237700
12.439900 6.122600
12.457300 6.033800
12.474700 5.959200
12.492100 5.875800
12.509500 5.773300
12.527000 5.651200
12.544400 5.594400
12.561800 5.479000
12.579200 5.427300
12.596600 5.438400
12.614100 5.381600
12.631500 5.482300
12.648900 5.831000
12.666300 6.819900
12.683800 7.781300
12.701200 8.717700
12.718600 9.459200
12.736000 9.055300
12.753400 8.527100
12.770900 7.923200
12.788300 7.172700
12.805700 6.412500
12.823100 5.838600
12.840500 5.357500
12.858000 4.916700
12.875400 4.589700
12.892800 4.330100
12.910200 4.115000
12.927600 4.227000
12.945100 4.649700
12.962500 5.163500
12.979900 5.755000
12.997300 6.377400
13.014800 6.926000
13.032200 7.285600
13.049600 7.456000
13.067000 7.562900
13.084400 7.820500
13.101900 8.155400
13.119300 7.165500
13.136700 6.636500
13.154100 6.262400
13.171500 5.985300
13.189000 5.758200
13.206400 5.513000
13.223800 5.232300
13.241200 5.452000
13.258600 4.831200
13.276100 4.343600
13.293500 3.907000
13.310900 3.789700
13.328300 3.747800
13.345800 3.879200
13.363200 4.219900
13.380600 4.560800
13.398000 4.931300
13.415400 5.254400
13.432900 5.512700
13.450300 5.705900
13.467700 5.833800
13.485100 5.869900
13.502500 5.813300
13.520000 5.464600
13.537400 5.265900
13.554800 5.122800
13.572200 5.050100
13.589700 5.062700
13.607100 5.107300
13.624500 5.189900
13.641900 5.289900
13.659300 5.403700
13.676800 5.520400
13.694200 5.640500
13.711600 5.764100
13.729000 5.892300
13.746400 6.040200
13.763900 6.201700
13.781300 6.356200
13.798700 6.505600
13.816100 6.611400
13.833500 6.661800
13.851000 6.693700
13.868400 6.717800
13.885800 6.719200
13.903200 6.690300
13.920700 6.674200
13.938100 6.901100
13.955500 7.107400
13.972900 7.306500
13.990300 7.275000
14.007800 7.304200
14.025200 7.307400
14.042600 7.260700
14.060000 7.286000
14.077400 7.374200
14.094900 7.522500
14.112300 7.757800
14.129700 8.143500
14.147100 8.460200
14.164500 8.907400
14.182000 8.841400
14.199400 8.550800
14.216800 8.435100
14.234200 8.238000
14.251700 7.750600
14.269100 7.343400
14.286500 7.141600
14.303900 7.166300
14.321300 7.295300
14.338800 7.465900
14.356200 7.697700
14.373600 7.939100
14.391000 8.149700
14.408400 8.329600
14.425900 8.478500
14.443300 8.614400
14.460700 8.617800
14.478100 8.471400
14.495500 8.199400
14.513000 7.896100
14.530400 7.599300
14.547800 7.375800
14.565200 7.302600
14.582700 7.354200
14.600100 7.423700
14.617500 7.415900
14.634900 7.354500
14.652300 7.281300
14.669800 7.206400
14.687200 7.094600
14.704600 6.949800
14.722000 6.850100
14.739400 6.792900
14.756900 6.857500
14.774300 7.073000
14.791700 7.480000
14.809100 7.961300
14.826500 7.954900
14.844000 7.954200
14.861400 8.061600
14.878800 8.247300
14.896200 8.476800
14.913700 8.679100
14.931100 8.608700
14.948500 8.224100
14.965900 8.147000
14.983300 8.053200
15.000800 7.953800
15.018200 7.807300
15.035600 7.677200
15.053000 7.565900
15.070400 7.333100
15.087900 7.331500
15.105300 7.257300
15.122700 7.133700
15.140100 7.032900
15.157500 6.871100
15.175000 6.868200
15.192400 7.038000
15.209800 7.296200
15.227200 7.531900
15.244700 7.727200
15.262100 7.850000
15.279500 7.978600
15.296900 8.152500
15.314300 8.052700
15.331800 7.833200
15.349200 7.656700
15.366600 8.058600
15.384000 9.235100
15.401400 10.300900
15.418900 10.650300
15.436300 10.414300
15.453700 9.560600
15.471100 8.816100
15.488500 8.428500
15.506000 8.384100
15.523400 8.464600
15.540800 8.531100
15.558200 8.593800
15.575700 8.673500
15.593100 8.781100
15.610500 8.981000
15.627900 8.924700
15.645300 7.836300
15.662800 7.444100
15.680200 7.336100
15.697600 7.459700
15.715000 7.705200
15.732400 7.981000
15.749900 8.219700
15.767300 8.427900
15.784700 8.631600
15.802100 8.833800
15.819500 9.180200
15.837000 9.739900
15.854400 10.289500
15.871800 10.651300
15.889200 10.857900
15.906700 10.780000
15.924100 10.408200
15.941500 8.871200
15.958900 7.737500
15.976300 7.261100
15.993800 7.015200
16.011200 6.861400
16.028600 6.838600
16.046000 6.868500
16.063400 6.929100
16.080900 7.001100
16.098300 6.965500
16.115700 7.555700
16.133100 9.327200
16.150500 10.559800
16.168000 10.873100
16.185400 10.889200
16.202800 9.022900
16.220200 8.011400
16.237700 7.612000
16.255100 7.537500
16.272500 7.580000
16.289900 7.504500
16.307300 7.376000
16.324800 7.261600
16.342200 7.348000
16.359600 7.689100
16.377000 7.989200
16.394400 7.741200
16.411900 7.536600
16.429300 8.316100
16.446700 8.183600
16.464100 8.173400
16.481600 8.255300
16.499000 8.345400
16.516400 8.439400
16.533800 8.700500
16.551200 9.881500
16.568700 8.936800
16.586100 8.840700
16.603500 8.978300
16.620900 9.025100
16.638300 8.689000
16.655800 8.275900
16.673200 8.030400
16.690600 7.821500
16.708000 7.600500
16.725400 7.372100
16.742900 7.182700
16.760300 7.057700
16.777700 6.948800
16.795100 6.903500
16.812600 7.109200
16.830000 7.327300
16.847400 7.620700
16.864800 7.865400
16.882200 8.729200
16.899700 10.079700
16.917100 7.987900
16.934500 6.966400
16.951900 6.666600
16.969300 6.544600
16.986800 6.900700
17.004200 7.754200
17.021600 8.842800
17.039000 9.457200
17.056400 9.665900
17.073900 9.591800
17.091300 9.239000
17.108700 8.944700
17.126100 8.730400
17.143600 8.480500
17.161000 8.192300
17.178400 7.754400
17.195800 7.195000
17.213200 6.704400
17.230700 6.284100
17.248100 6.423300
17.265500 7.163200
17.282900 7.846400
17.300300 8.039800
17.317800 7.922200
17.335200 7.800100
17.352600 7.638100
17.370000 7.329800
17.387400 7.332900
17.404900 7.454000
17.422300 7.608700
17.439700 7.773600
17.457100 7.875600
17.474600 8.082100
17.492000 8.486700
17.509400 9.362400
17.526800 10.556700
17.544200 11.264100
17.561700 10.734400
17.579100 10.082700
17.596500 9.323600
17.613900 8.698900
17.631300 7.959300
17.648800 7.038100
17.666200 5.935400
17.683600 5.335200
17.701000 4.936400
17.718400 4.551900
17.735900 4.440500
17.753300 4.608500
17.770700 4.854700
17.788100 5.124000
17.805600 5.390600
17.823000 5.692600
17.840400 6.048500
17.857800 6.423000
17.875200 6.793300
17.892700 7.239500
17.910100 7.804200
17.927500 8.373000
17.944900 8.570100
17.962300 8.465400
17.979800 8.333800
17.997200 8.210900
18.014600 8.237400
18.032000 8.356800
18.049400 8.987100
18.066900 9.987500
18.084300 10.113000
18.101700 9.998900
18.119100 9.170200
18.136600 8.507100
18.154000 7.966800
18.171400 7.752200
18.188800 8.459100
18.206200 8.024500
18.223700 7.634800
18.241100 7.339700
18.258500 7.172100
18.275900 6.996400
18.293300 6.835000
18.310800 6.578700
18.328200 6.255300
18.345600 5.810400
18.363000 5.387900
18.380400 5.025700
18.397900 4.727100
18.415300 4.457200
18.432700 4.204100
18.450100 3.965000
18.467600 3.782500
18.485000 3.643400
18.502400 3.561900
18.519800 3.485800
18.537200 3.445000
18.554700 3.303400
18.572100 3.117400
18.589500 2.959200
18.606900 2.829000
18.624300 2.726600
18.641800 2.663000
18.659200 2.632900
18.676600 2.628300
18.694000 2.674600
18.711400 2.863000
18.728900 2.671200
18.746300 2.226700
18.763700 1.614500
18.781100 1.057800
18.798600 0.605900
18.816000 0.258900
18.833400 0.016800
18.850800 0.000000
18.868200 0.000000
18.885700 0.000000
18.903100 0.000000
18.920500 0.000000
18.937900 0.000000
18.955300 0.000000
18.972800 0.000000
18.990200 0.000000
19.007600 0.000000
19.025000 0.000000
19.042500 0.000000
19.059900 0.000000
19.077300 0.000000
19.094700 0.000000
19.112100 0.000000
19.129600 0.000000
19.147000 0.000000
19.164400 0.000000
19.181800 0.000000
19.199200 0.000000
19.216700 0.000000
19.234100 0.000000
19.251500 0.000000
19.268900 0.000000
19.286300 0.000000
19.303800 0.000000
19.321200 0.000000
19.338600 0.000000
19.356000 0.000000
19.373500 0.000000
19.390900 0.000000
19.408300 0.000000
19.425700 0.000000
19.443100 0.000000
19.460600 0.000000
19.478000 0.000000
19.495400 0.000000
19.512800 0.000000
19.530200 0.000000
19.547700 0.000000
19.565100 0.000000
19.582500 0.000000
19.599900 0.000000
19.617300 0.000000
19.634800 0.000000
19.652200 0.000000
19.669600 0.000000
19.687000 0.000000
19.704500 0.000000
19.721900 0.000000
19.739300 0.000000
19.756700 0.000000
19.774100 0.000000
19.791600 0.000000
19.809000 0.000000
19.826400 0.000000
19.843800 0.000000
19.861200 0.000000
19.878700 0.000000
19.896100 0.000000
19.913500 0.000000
19.930900 0.000000
19.948300 0.000000
19.965800 0.000000
19.983200 0.000000
20.000600 0.000000
20.018000 0.000000
20.035500 0.000000
20.052900 0.000000
20.070300 0.000000
20.087700 0.000000
20.105100 0.000000
20.122600 0.000000
20.140000 0.000000
20.157400 0.000000
20.174800 0.000000
20.192200 0.000000
20.209700 0.000000
20.227100 0.000000
20.244500 0.000000
20.261900 0.000000
20.279300 0.000000
20.296800 0.000000
20.314200 0.000000
20.331600 0.000000
20.349000 0.000000
20.366500 0.000000
20.383900 0.000000
20.401300 0.000000
20.418700 0.000000
e
