set title 'mp-1094003 - Density of States'
set xlabel 'Energy (eV)'
set ylabel 'DOS (states/eV)'
set grid
set xrange [-10:10]
set yrange [0:11.021]
set xzeroaxis lt -1
set terminal png size 800,600
set output 'mp-1094003_dos_gnuplot.png'
plot '-' using 1:2 with lines title 'DOS'
-21.288500 0.000000
-21.260900 0.000000
-21.233200 0.000000
-21.205600 0.000000
-21.177900 0.000000
-21.150300 0.000000
-21.122600 0.000000
-21.095000 0.000000
-21.067400 0.000000
-21.039700 0.000000
-21.012100 0.000000
-20.984400 0.000000
-20.956800 0.000000
-20.929100 0.000000
-20.901500 0.000000
-20.873800 0.000000
-20.846200 0.000000
-20.818500 0.000000
-20.790900 0.000000
-20.763200 0.000000
-20.735600 0.000000
-20.707900 0.000000
-20.680300 0.000000
-20.652600 0.000000
-20.625000 0.000000
-20.597400 0.000000
-20.569700 0.000000
-20.542100 0.000000
-20.514400 0.000000
-20.486800 0.000000
-20.459100 0.000000
-20.431500 0.000000
-20.403800 0.000000
-20.376200 0.000000
-20.348500 0.000000
-20.320900 0.000000
-20.293200 0.000000
-20.265600 0.000000
-20.237900 0.000000
-20.210300 0.000000
-20.182600 0.000000
-20.155000 0.000000
-20.127400 0.000000
-20.099700 0.000000
-20.072100 0.000000
-20.044400 0.000000
-20.016800 0.000000
-19.989100 0.000000
-19.961500 0.000000
-19.933800 0.000000
-19.906200 0.000000
-19.878500 0.000000
-19.850900 0.000000
-19.823200 0.000000
-19.795600 0.000000
-19.767900 0.000000
-19.740300 0.000000
-19.712600 0.000000
-19.685000 0.000000
-19.657400 0.000000
-19.629700 0.000000
-19.602100 0.000000
-19.574400 0.000000
-19.546800 0.000000
-19.519100 0.000000
-19.491500 0.000000
-19.463800 0.000000
-19.436200 0.000000
-19.408500 0.000000
-19.380900 0.000000
-19.353200 0.000000
-19.325600 0.000000
-19.297900 0.000000
-19.270300 0.000000
-19.242600 0.000000
-19.215000 0.000000
-19.187300 0.000000
-19.159700 0.000000
-19.132100 0.000000
-19.104400 0.000000
-19.076800 0.000000
-19.049100 0.000000
-19.021500 0.000000
-18.993800 0.000000
-18.966200 0.000000
-18.938500 0.000000
-18.910900 0.000000
-18.883200 0.000000
-18.855600 0.000000
-18.827900 0.000000
-18.800300 0.000000
-18.772600 0.001400
-18.745000 0.075300
-18.717300 0.126200
-18.689700 0.152700
-18.662100 0.183500
-18.634400 0.210600
-18.606800 0.235300
-18.579100 0.261700
-18.551500 0.289000
-18.523800 0.313900
-18.496200 0.341200
-18.468500 0.370800
-18.440900 0.407400
-18.413200 0.444800
-18.385600 0.521600
-18.357900 0.532100
-18.330300 0.537100
-18.302600 0.550400
-18.275000 0.557300
-18.247300 0.568500
-18.219700 0.580600
-18.192100 0.590100
-18.164400 0.603000
-18.136800 0.616900
-18.109100 0.630100
-18.081500 0.644200
-18.053800 0.659700
-18.026200 0.676100
-17.998500 0.694800
-17.970900 0.714400
-17.943200 0.734800
-17.915600 0.756200
-17.887900 0.779200
-17.860300 0.808300
-17.832600 0.838700
-17.805000 0.871400
-17.777300 0.907700
-17.749700 0.947500
-17.722000 1.000400
-17.694400 1.062300
-17.666800 1.141000
-17.639100 1.244400
-17.611500 1.473100
-17.583800 1.604900
-17.556200 1.543000
-17.528500 1.511700
-17.500900 1.461700
-17.473200 1.399200
-17.445600 1.225000
-17.417900 0.846600
-17.390300 0.574600
-17.362600 0.354000
-17.335000 0.086600
-17.307300 0.595900
-17.279700 2.466000
-17.252000 2.965200
-17.224400 3.738100
-17.196800 5.442600
-17.169100 3.096600
-17.141500 2.565200
-17.113800 2.116000
-17.086200 1.863800
-17.058500 1.648200
-17.030900 1.465500
-17.003200 1.314100
-16.975600 1.179200
-16.947900 1.063900
-16.920300 0.950400
-16.892600 0.843400
-16.865000 0.747500
-16.837300 0.655700
-16.809700 0.554800
-16.782000 0.457100
-16.754400 0.346500
-16.726800 0.225700
-16.699100 0.000000
-16.671500 0.000000
-16.643800 0.000000
-16.616200 0.000000
-16.588500 0.000000
-16.560900 0.000000
-16.533200 0.000000
-16.505600 0.000000
-16.477900 0.000000
-16.450300 0.000000
-16.422600 0.000000
-16.395000 0.000000
-16.367300 0.000000
-16.339700 0.000000
-16.312000 0.000000
-16.284400 0.000000
-16.256700 0.000000
-16.229100 0.000000
-16.201500 0.000000
-16.173800 0.000000
-16.146200 0.000000
-16.118500 0.000000
-16.090900 0.000000
-16.063200 0.000000
-16.035600 0.000000
-16.007900 0.000000
-15.980300 0.000000
-15.952600 0.000000
-15.925000 0.000000
-15.897300 0.000000
-15.869700 0.000000
-15.842000 0.000000
-15.814400 0.000000
-15.786700 0.000000
-15.759100 0.000000
-15.731500 0.000000
-15.703800 0.000000
-15.676200 0.000000
-15.648500 0.000000
-15.620900 0.000000
-15.593200 0.000000
-15.565600 0.000000
-15.537900 0.000000
-15.510300 0.000000
-15.482600 0.000000
-15.455000 0.000000
-15.427300 0.000000
-15.399700 0.000000
-15.372000 0.000000
-15.344400 0.000000
-15.316700 0.000000
-15.289100 0.000000
-15.261500 0.000000
-15.233800 0.000000
-15.206200 0.000000
-15.178500 0.000000
-15.150900 0.000000
-15.123200 0.000000
-15.095600 0.000000
-15.067900 0.000000
-15.040300 0.000000
-15.012600 0.000000
-14.985000 0.000000
-14.957300 0.000000
-14.929700 0.000000
-14.902000 0.000000
-14.874400 0.000000
-14.846700 0.000000
-14.819100 0.000000
-14.791400 0.000000
-14.763800 0.000000
-14.736200 0.000000
-14.708500 0.000000
-14.680900 0.000000
-14.653200 0.000000
-14.625600 0.000000
-14.597900 0.000000
-14.570300 0.000000
-14.542600 0.000000
-14.515000 0.000000
-14.487300 0.000000
-14.459700 0.000000
-14.432000 0.000000
-14.404400 0.000000
-14.376700 0.000000
-14.349100 0.000000
-14.321400 0.000000
-14.293800 0.000000
-14.266200 0.000000
-14.238500 0.000000
-14.210900 0.000000
-14.183200 0.000000
-14.155600 0.000000
-14.127900 0.000000
-14.100300 0.000000
-14.072600 0.000000
-14.045000 0.000000
-14.017300 0.000000
-13.989700 0.000000
-13.962000 0.000000
-13.934400 0.000000
-13.906700 0.000000
-13.879100 0.000000
-13.851400 0.000000
-13.823800 0.000000
-13.796200 0.000000
-13.768500 0.000000
-13.740900 0.000000
-13.713200 0.000000
-13.685600 0.000000
-13.657900 0.000000
-13.630300 0.000000
-13.602600 0.000000
-13.575000 0.000000
-13.547300 0.000000
-13.519700 0.000000
-13.492000 0.000000
-13.464400 0.000000
-13.436700 0.000000
-13.409100 0.000000
-13.381400 0.000000
-13.353800 0.000000
-13.326100 0.000000
-13.298500 0.000000
-13.270900 0.000000
-13.243200 0.000000
-13.215600 0.000000
-13.187900 0.000000
-13.160300 0.000000
-13.132600 0.000000
-13.105000 0.000000
-13.077300 0.000000
-13.049700 0.000000
-13.022000 0.000000
-12.994400 0.000000
-12.966700 0.000000
-12.939100 0.000000
-12.911400 0.000000
-12.883800 0.000000
-12.856100 0.000000
-12.828500 0.000000
-12.800900 0.000000
-12.773200 0.000000
-12.745600 0.000000
-12.717900 0.000000
-12.690300 0.000000
-12.662600 0.000000
-12.635000 0.000000
-12.607300 0.000000
-12.579700 0.000000
-12.552000 0.000000
-12.524400 0.000000
-12.496700 0.000000
-12.469100 0.000000
-12.441400 0.000000
-12.413800 0.000000
-12.386100 0.000000
-12.358500 0.000000
-12.330900 0.000000
-12.303200 0.000000
-12.275600 0.000000
-12.247900 0.000000
-12.220300 0.000000
-12.192600 0.000000
-12.165000 0.000000
-12.137300 0.000000
-12.109700 0.000000
-12.082000 0.000000
-12.054400 0.000000
-12.026700 0.000000
-11.999100 0.000000
-11.971400 0.000000
-11.943800 0.000000
-11.916100 0.000000
-11.888500 0.000000
-11.860800 0.000000
-11.833200 0.000000
-11.805600 0.000000
-11.777900 0.000000
-11.750300 0.000000
-11.722600 0.000000
-11.695000 0.000000
-11.667300 0.000000
-11.639700 0.000000
-11.612000 0.000000
-11.584400 0.000000
-11.556700 0.000000
-11.529100 0.000000
-11.501400 0.000000
-11.473800 0.000000
-11.446100 0.000000
-11.418500 0.000000
-11.390800 0.000000
-11.363200 0.000000
-11.335600 0.000000
-11.307900 0.000000
-11.280300 0.000000
-11.252600 0.000000
-11.225000 0.000000
-11.197300 0.000000
-11.169700 0.000000
-11.142000 0.000000
-11.114400 0.000000
-11.086700 0.000000
-11.059100 0.000000
-11.031400 0.000000
-11.003800 0.000000
-10.976100 0.000000
-10.948500 0.000000
-10.920800 0.000000
-10.893200 0.000000
-10.865600 0.000000
-10.837900 0.000000
-10.810300 0.000000
-10.782600 0.000000
-10.755000 0.000000
-10.727300 0.000000
-10.699700 0.000000
-10.672000 0.000000
-10.644400 0.000000
-10.616700 0.000000
-10.589100 0.000000
-10.561400 0.000000
-10.533800 0.000000
-10.506100 0.000000
-10.478500 0.000000
-10.450800 0.000000
-10.423200 0.000000
-10.395600 0.000000
-10.367900 0.000000
-10.340300 0.000000
-10.312600 0.000000
-10.285000 0.000000
-10.257300 0.000000
-10.229700 0.000000
-10.202000 0.000000
-10.174400 0.000000
-10.146700 0.000000
-10.119100 0.000000
-10.091400 0.000000
-10.063800 0.000000
-10.036100 0.000000
-10.008500 0.000000
-9.980800 0.000000
-9.953200 0.000000
-9.925500 0.000000
-9.897900 0.000000
-9.870300 0.000000
-9.842600 0.000000
-9.815000 0.000000
-9.787300 0.000000
-9.759700 0.000000
-9.732000 0.000000
-9.704400 0.000000
-9.676700 0.000000
-9.649100 0.000000
-9.621400 0.000000
-9.593800 0.000000
-9.566100 0.000000
-9.538500 0.000000
-9.510800 0.000000
-9.483200 0.000000
-9.455500 0.000000
-9.427900 0.000000
-9.400300 0.000000
-9.372600 0.000000
-9.345000 0.000000
-9.317300 0.000000
-9.289700 0.000000
-9.262000 0.000000
-9.234400 0.000000
-9.206700 0.000000
-9.179100 0.000000
-9.151400 0.000000
-9.123800 0.000000
-9.096100 0.000000
-9.068500 0.000000
-9.040800 0.000000
-9.013200 0.000000
-8.985500 0.000000
-8.957900 0.000000
-8.930300 0.000000
-8.902600 0.000000
-8.875000 0.000000
-8.847300 0.000000
-8.819700 0.000000
-8.792000 0.000000
-8.764400 0.000000
-8.736700 0.000000
-8.709100 0.000000
-8.681400 0.000000
-8.653800 0.000000
-8.626100 0.000000
-8.598500 0.000000
-8.570800 0.000000
-8.543200 0.000000
-8.515500 0.000000
-8.487900 0.000000
-8.460200 0.000000
-8.432600 0.000000
-8.405000 0.000000
-8.377300 0.000000
-8.349700 0.000000
-8.322000 0.000000
-8.294400 0.000000
-8.266700 0.000000
-8.239100 0.000000
-8.211400 0.000000
-8.183800 0.000000
-8.156100 0.000000
-8.128500 0.000000
-8.100800 0.000000
-8.073200 0.000000
-8.045500 0.000000
-8.017900 0.000000
-7.990200 0.000000
-7.962600 0.000000
-7.935000 0.000000
-7.907300 0.000000
-7.879700 0.000000
-7.852000 0.000000
-7.824400 0.000000
-7.796700 0.000000
-7.769100 0.000000
-7.741400 0.000000
-7.713800 0.000000
-7.686100 0.000000
-7.658500 0.000000
-7.630800 0.000000
-7.603200 0.000000
-7.575500 0.000000
-7.547900 0.000000
-7.520200 0.000000
-7.492600 0.000000
-7.465000 0.000000
-7.437300 0.000000
-7.409700 0.000000
-7.382000 0.000000
-7.354400 0.000000
-7.326700 0.000000
-7.299100 0.000000
-7.271400 0.000000
-7.243800 0.000000
-7.216100 0.000000
-7.188500 0.000000
-7.160800 0.000000
-7.133200 0.000000
-7.105500 0.000000
-7.077900 0.000000
-7.050200 0.000000
-7.022600 0.000000
-6.994900 0.000000
-6.967300 0.000000
-6.939700 0.000000
-6.912000 0.000000
-6.884400 0.000000
-6.856700 0.000000
-6.829100 0.000000
-6.801400 0.000000
-6.773800 0.000000
-6.746100 0.000000
-6.718500 0.000000
-6.690800 0.000000
-6.663200 0.000000
-6.635500 0.000000
-6.607900 0.000000
-6.580200 0.000000
-6.552600 0.000000
-6.524900 0.000000
-6.497300 0.000000
-6.469700 0.116300
-6.442000 0.237900
-6.414400 0.323600
-6.386700 0.406000
-6.359100 0.492300
-6.331400 0.582300
-6.303800 0.684800
-6.276100 3.886600
-6.248500 3.446100
-6.220800 3.824000
-6.193200 3.458500
-6.165500 3.295100
-6.137900 3.287700
-6.110200 3.294700
-6.082600 3.405500
-6.054900 3.544700
-6.027300 3.844000
-5.999700 4.584800
-5.972000 4.831900
-5.944400 5.344700
-5.916700 7.397300
-5.889100 4.901100
-5.861400 4.539400
-5.833800 2.438300
-5.806100 1.558200
-5.778500 1.339700
-5.750800 0.935700
-5.723200 0.677700
-5.695500 0.629100
-5.667900 0.756800
-5.640200 1.424400
-5.612600 2.435400
-5.584900 3.613500
-5.557300 2.026100
-5.529600 1.600700
-5.502000 1.413100
-5.474400 1.379900
-5.446700 1.353500
-5.419100 1.394500
-5.391400 1.676900
-5.363800 2.257000
-5.336100 3.083200
-5.308500 5.273900
-5.280800 6.739900
-5.253200 6.641700
-5.225500 6.570600
-5.197900 5.402100
-5.170200 6.753100
-5.142600 10.018700
-5.114900 7.271300
-5.087300 3.997000
-5.059600 3.811500
-5.032000 4.565700
-5.004400 5.289600
-4.976700 4.101800
-4.949100 2.035200
-4.921400 0.130500
-4.893800 0.143000
-4.866100 0.154700
-4.838500 0.165100
-4.810800 0.176900
-4.783200 0.191000
-4.755500 0.206400
-4.727900 0.222900
-4.700200 0.240100
-4.672600 0.259000
-4.644900 0.280900
-4.617300 0.306300
-4.589600 0.346300
-4.562000 0.371500
-4.534400 0.414100
-4.506700 0.437900
-4.479100 0.463500
-4.451400 0.495400
-4.423800 0.532100
-4.396100 0.576100
-4.368500 0.628800
-4.340800 0.694400
-4.313200 0.817000
-4.285500 0.876700
-4.257900 0.889400
-4.230200 0.911000
-4.202600 0.912600
-4.174900 0.920800
-4.147300 0.973800
-4.119600 1.004800
-4.092000 1.091700
-4.064300 1.203500
-4.036700 1.309900
-4.009100 1.367400
-3.981400 1.489000
-3.953800 1.292300
-3.926100 1.167600
-3.898500 1.106300
-3.870800 1.070400
-3.843200 1.032000
-3.815500 1.006100
-3.787900 0.994400
-3.760200 0.990400
-3.732600 0.994800
-3.704900 1.004900
-3.677300 1.025300
-3.649600 1.056100
-3.622000 1.100500
-3.594300 1.210200
-3.566700 1.237900
-3.539100 1.222500
-3.511400 1.207700
-3.483800 1.180100
-3.456100 1.164300
-3.428500 1.222000
-3.400800 1.298000
-3.373200 1.338700
-3.345500 1.353400
-3.317900 1.387300
-3.290200 1.446200
-3.262600 1.480200
-3.234900 1.543600
-3.207300 1.603500
-3.179600 1.543800
-3.152000 1.507400
-3.124300 1.579900
-3.096700 1.633000
-3.069100 1.812200
-3.041400 1.790200
-3.013800 1.766500
-2.986100 1.755400
-2.958500 1.739600
-2.930800 1.729100
-2.903200 1.712000
-2.875500 1.685100
-2.847900 1.654700
-2.820200 1.641900
-2.792600 1.622800
-2.764900 1.506300
-2.737300 1.181000
-2.709600 1.106000
-2.682000 1.049100
-2.654300 1.007900
-2.626700 0.964900
-2.599000 0.937100
-2.571400 0.916800
-2.543800 0.900100
-2.516100 0.890500
-2.488500 0.887200
-2.460800 0.962800
-2.433200 1.037200
-2.405500 1.123400
-2.377900 1.146700
-2.350200 1.116400
-2.322600 1.115700
-2.294900 1.110900
-2.267300 1.122700
-2.239600 1.143900
-2.212000 1.176500
-2.184300 1.243600
-2.156700 1.297300
-2.129000 1.425300
-2.101400 1.396200
-2.073800 1.300000
-2.046100 1.286500
-2.018500 1.265500
-1.990800 1.236800
-1.963200 1.211800
-1.935500 1.203600
-1.907900 1.220700
-1.880200 1.219900
-1.852600 1.214900
-1.824900 1.222200
-1.797300 1.227000
-1.769600 1.235100
-1.742000 1.257500
-1.714300 1.294500
-1.686700 1.281500
-1.659000 1.287700
-1.631400 1.316100
-1.603800 1.379400
-1.576100 1.370400
-1.548500 1.275700
-1.520800 1.247500
-1.493200 1.322100
-1.465500 1.319800
-1.437900 1.242500
-1.410200 0.732200
-1.382600 0.608900
-1.354900 0.490900
-1.327300 0.402900
-1.299600 0.442800
-1.272000 0.847700
-1.244300 1.014500
-1.216700 1.139900
-1.189000 1.254600
-1.161400 1.349500
-1.133800 1.424000
-1.106100 1.547900
-1.078500 1.710800
-1.050800 1.910100
-1.023200 2.119900
-0.995500 2.057400
-0.967900 1.965300
-0.940200 1.959200
-0.912600 1.976800
-0.884900 2.078100
-0.857300 2.126500
-0.829600 2.172400
-0.802000 2.078000
-0.774300 1.827200
-0.746700 1.757000
-0.719000 1.729800
-0.691400 1.801500
-0.663700 2.212200
-0.636100 1.394000
-0.608500 1.029100
-0.580800 1.366300
-0.553200 2.268900
-0.525500 2.862600
-0.497900 3.069200
-0.470200 3.587700
-0.442600 4.133700
-0.414900 4.385000
-0.387300 3.965900
-0.359600 3.340700
-0.332000 2.076800
-0.304300 0.783900
-0.276700 0.614600
-0.249000 0.480600
-0.221400 0.382900
-0.193700 0.221100
-0.166100 0.029000
-0.138500 0.000000
-0.110800 0.000000
-0.083200 0.000000
-0.055500 0.000000
-0.027900 0.000000
-0.000200 0.000000
0.027400 0.000000
0.055100 0.000000
0.082700 0.000000
0.110400 0.000000
0.138000 0.000000
0.165700 0.000000
0.193300 0.000000
0.221000 0.000000
0.248600 0.000000
0.276300 0.000000
0.303900 0.000000
0.331500 0.000000
0.359200 0.000000
0.386800 0.000000
0.414500 0.000000
0.442100 0.000000
0.469800 0.000000
0.497400 0.000000
0.525100 0.000000
0.552700 0.000000
0.580400 0.000000
0.608000 0.000000
0.635700 0.000000
0.663300 0.000000
0.691000 0.000000
0.718600 0.000000
0.746300 0.000000
0.773900 0.000000
0.801600 0.000000
0.829200 0.000000
0.856800 0.000000
0.884500 0.000000
0.912100 0.000000
0.939800 0.000000
0.967400 0.000000
0.995100 0.000000
1.022700 0.000000
1.050400 0.000000
1.078000 0.000000
1.105700 0.000000
1.133300 0.000000
1.161000 0.000000
1.188600 0.000000
1.216300 0.000000
1.243900 0.000000
1.271600 0.000000
1.299200 0.000000
1.326800 0.000000
1.354500 0.000000
1.382100 0.000000
1.409800 0.000000
1.437400 0.000000
1.465100 0.000000
1.492700 0.000000
1.520400 0.000000
1.548000 0.000000
1.575700 0.000000
1.603300 0.000000
1.631000 0.000000
1.658600 0.000000
1.686300 0.000000
1.713900 0.000000
1.741600 0.000000
1.769200 0.000000
1.796800 0.000000
1.824500 0.000000
1.852100 0.000000
1.879800 0.000000
1.907400 0.000000
1.935100 0.000000
1.962700 0.000000
1.990400 0.000000
2.018000 0.000000
2.045700 0.000000
2.073300 0.000000
2.101000 0.000000
2.128600 0.000000
2.156300 0.000000
2.183900 0.000000
2.211600 0.000000
2.239200 0.000000
2.266900 0.000000
2.294500 0.000000
2.322100 0.000000
2.349800 0.000000
2.377400 0.000000
2.405100 0.000000
2.432700 0.000000
2.460400 0.000000
2.488000 0.000000
2.515700 0.000000
2.543300 0.000000
2.571000 0.000000
2.598600 0.000000
2.626300 0.000000
2.653900 0.000000
2.681600 0.000000
2.709200 0.000000
2.736900 0.000000
2.764500 0.000000
2.792100 0.000000
2.819800 0.000000
2.847400 0.000000
2.875100 0.000000
2.902700 0.000000
2.930400 0.000000
2.958000 0.000000
2.985700 0.000000
3.013300 0.000000
3.041000 0.000000
3.068600 0.000000
3.096300 0.000000
3.123900 0.000000
3.151600 0.000000
3.179200 0.000000
3.206900 0.000000
3.234500 0.000000
3.262100 0.000000
3.289800 0.000000
3.317400 0.000000
3.345100 0.000000
3.372700 0.000000
3.400400 0.000000
3.428000 0.000000
3.455700 0.000000
3.483300 0.000000
3.511000 0.000000
3.538600 0.000000
3.566300 0.000000
3.593900 0.000000
3.621600 0.000000
3.649200 0.000000
3.676900 0.000000
3.704500 0.000000
3.732200 0.000000
3.759800 0.000000
3.787400 0.000000
3.815100 0.000000
3.842700 0.000000
3.870400 0.000000
3.898000 0.000000
3.925700 0.000000
3.953300 0.000000
3.981000 0.000000
4.008600 0.000000
4.036300 0.000000
4.063900 0.000000
4.091600 0.000000
4.119200 0.000000
4.146900 0.000000
4.174500 0.000000
4.202200 0.000000
4.229800 0.000000
4.257400 0.000000
4.285100 0.000000
4.312700 0.000000
4.340400 0.000000
4.368000 0.000000
4.395700 0.000000
4.423300 0.000000
4.451000 0.000000
4.478600 0.000000
4.506300 0.000000
4.533900 0.000000
4.561600 0.000000
4.589200 0.000000
4.616900 0.000000
4.644500 0.000000
4.672200 0.000400
4.699800 0.002500
4.727400 0.006300
4.755100 0.011000
4.782700 0.013500
4.810400 0.013900
4.838000 0.014900
4.865700 0.016800
4.893300 0.018800
4.921000 0.020700
4.948600 0.022300
4.976300 0.023700
5.003900 0.025200
5.031600 0.026600
5.059200 0.027800
5.086900 0.029000
5.114500 0.030300
5.142200 0.031700
5.169800 0.033100
5.197500 0.034400
5.225100 0.035700
5.252700 0.037200
5.280400 0.038700
5.308000 0.040200
5.335700 0.041800
5.363300 0.043200
5.391000 0.044400
5.418600 0.045800
5.446300 0.047200
5.473900 0.048700
5.501600 0.050200
5.529200 0.051700
5.556900 0.053200
5.584500 0.054700
5.612200 0.056200
5.639800 0.057700
5.667500 0.059300
5.695100 0.060800
5.722700 0.062500
5.750400 0.064300
5.778000 0.066100
5.805700 0.067900
5.833300 0.069700
5.861000 0.071400
5.888600 0.073200
5.916300 0.075000
5.943900 0.076800
5.971600 0.078700
5.999200 0.080500
6.026900 0.082600
6.054500 0.084700
6.082200 0.086800
6.109800 0.088900
6.137500 0.091000
6.165100 0.093100
6.192700 0.095500
6.220400 0.098000
6.248000 0.100400
6.275700 0.102800
6.303300 0.105600
6.331000 0.108400
6.358600 0.111300
6.386300 0.114200
6.413900 0.117100
6.441600 0.120000
6.469200 0.124100
6.496900 0.130000
6.524500 0.135000
6.552200 0.140300
6.579800 0.144900
6.607500 0.146500
6.635100 0.148300
6.662700 0.150300
6.690400 0.151800
6.718000 0.153100
6.745700 0.154300
6.773300 0.155900
6.801000 0.158000
6.828600 0.160200
6.856300 0.162300
6.883900 0.164300
6.911600 0.166200
6.939200 0.168100
6.966900 0.170200
6.994500 0.172400
7.022200 0.174600
7.049800 0.176900
7.077500 0.179100
7.105100 0.181300
7.132800 0.183500
7.160400 0.185800
7.188000 0.188000
7.215700 0.190400
7.243300 0.192800
7.271000 0.195300
7.298600 0.198400
7.326300 0.201500
7.353900 0.204800
7.381600 0.208100
7.409200 0.211400
7.436900 0.214800
7.464500 0.218300
7.492200 0.221900
7.519800 0.225500
7.547500 0.229200
7.575100 0.233000
7.602800 0.236800
7.630400 0.240600
7.658000 0.244600
7.685700 0.248600
7.713300 0.252700
7.741000 0.257000
7.768600 0.262900
7.796300 0.269200
7.823900 0.275700
7.851600 0.282400
7.879200 0.289100
7.906900 0.296100
7.934500 0.303300
7.962200 0.313300
7.989800 0.326700
8.017500 0.338900
8.045100 0.351400
8.072800 0.362400
8.100400 0.373100
8.128000 0.384700
8.155700 0.396800
8.183300 0.417300
8.211000 0.436900
8.238600 0.457200
8.266300 0.478100
8.293900 0.500300
8.321600 0.524100
8.349200 0.548900
8.376900 0.575500
8.404500 0.604100
8.432200 0.646300
8.459800 0.721100
8.487500 0.860700
8.515100 0.932300
8.542800 0.971400
8.570400 1.020900
8.598100 0.797000
8.625700 0.758300
8.653300 0.726300
8.681000 0.685000
8.708600 0.651000
8.736300 0.648500
8.763900 0.637300
8.791600 0.622500
8.819200 0.606500
8.846900 0.590400
8.874500 0.593000
8.902200 0.592700
8.929800 0.580700
8.957500 0.600600
8.985100 0.515700
9.012800 0.450000
9.040400 0.410000
9.068100 0.381100
9.095700 0.357900
9.123300 0.342100
9.151000 0.329500
9.178600 0.314600
9.206300 0.285500
9.233900 0.268900
9.261600 0.253900
9.289200 0.226700
9.316900 0.193400
9.344500 0.195900
9.372200 0.200200
9.399800 0.205500
9.427500 0.213900
9.455100 0.222200
9.482800 0.230900
9.510400 0.239800
9.538100 0.251900
9.565700 0.268300
9.593300 0.284000
9.621000 0.302700
9.648600 0.325700
9.676300 0.360900
9.703900 0.381800
9.731600 0.382900
9.759200 0.380700
9.786900 0.380300
9.814500 0.382300
9.842200 0.383500
9.869800 0.383900
9.897500 0.383200
9.925100 0.383200
9.952800 0.383900
9.980400 0.384400
10.008100 0.385100
10.035700 0.386300
10.063400 0.387100
10.091000 0.387800
10.118600 0.387900
10.146300 0.388300
10.173900 0.388600
10.201600 0.389700
10.229200 0.390900
10.256900 0.392000
10.284500 0.393600
10.312200 0.395700
10.339800 0.397900
10.367500 0.400000
10.395100 0.402000
10.422800 0.404300
10.450400 0.406700
10.478100 0.410100
10.505700 0.414900
10.533400 0.420200
10.561000 0.425600
10.588600 0.431400
10.616300 0.441900
10.643900 0.458600
10.671600 0.482500
10.699200 0.496400
10.726900 0.489400
10.754500 0.483600
10.782200 0.481600
10.809800 0.480200
10.837500 0.481000
10.865100 0.473900
10.892800 0.456100
10.920400 0.442800
10.948100 0.437800
10.975700 0.430600
11.003400 0.422000
11.031000 0.415200
11.058600 0.412000
11.086300 0.408700
11.113900 0.389300
11.141600 0.357600
11.169200 0.333400
11.196900 0.317900
11.224500 0.307600
11.252200 0.297400
11.279800 0.287300
11.307500 0.276800
11.335100 0.267200
11.362800 0.261200
11.390400 0.257700
11.418100 0.255100
11.445700 0.254200
11.473400 0.255500
11.501000 0.263300
11.528700 0.278400
11.556300 0.276600
11.583900 0.261700
11.611600 0.227100
11.639200 0.199000
11.666900 0.166900
11.694500 0.141100
11.722200 0.121700
11.749800 0.112400
11.777500 0.105800
11.805100 0.100100
11.832800 0.094900
11.860400 0.090100
11.888100 0.087800
11.915700 0.100300
11.943400 0.134800
11.971000 0.173500
11.998700 0.203500
12.026300 0.221600
12.053900 0.244400
12.081600 0.269200
12.109200 0.300300
12.136900 0.338900
12.164500 0.390400
12.192200 0.475800
12.219800 0.529800
12.247500 0.531800
12.275100 0.551600
12.302800 0.574400
12.330400 0.609600
12.358100 0.637300
12.385700 0.679100
12.413400 0.720800
12.441000 0.756200
12.468700 0.802000
12.496300 0.850100
12.523900 0.935600
12.551600 1.086200
12.579200 1.157100
12.606900 1.228100
12.634500 1.298100
12.662200 1.202700
12.689800 1.219200
12.717500 1.279900
12.745100 1.309900
12.772800 1.323900
12.800400 1.228300
12.828100 1.096500
12.855700 0.805400
12.883400 0.621300
12.911000 0.552200
12.938700 0.508900
12.966300 0.470900
12.994000 0.441400
13.021600 0.420200
13.049200 0.411500
13.076900 0.396700
13.104500 0.382000
13.132200 0.369100
13.159800 0.358400
13.187500 0.353800
13.215100 0.359800
13.242800 0.364800
13.270400 0.366100
13.298100 0.365000
13.325700 0.350200
13.353400 0.343200
13.381000 0.335700
13.408700 0.325100
13.436300 0.313600
13.464000 0.303800
13.491600 0.299200
13.519200 0.297600
13.546900 0.297800
13.574500 0.299500
13.602200 0.303400
13.629800 0.311200
13.657500 0.321500
13.685100 0.333600
13.712800 0.355400
13.740400 0.384600
13.768100 0.418200
13.795700 0.458300
13.823400 0.498100
13.851000 0.535300
13.878700 0.574700
13.906300 0.582400
13.934000 0.608200
13.961600 0.627500
13.989200 0.649300
14.016900 0.666000
14.044500 0.662100
14.072200 0.652100
14.099800 0.660900
14.127500 0.672700
14.155100 0.691500
14.182800 0.714300
14.210400 0.740900
14.238100 0.763100
14.265700 0.781800
14.293400 0.808900
14.321000 0.849700
14.348700 0.904900
14.376300 0.951800
14.404000 1.336900
14.431600 1.297000
14.459300 1.101000
14.486900 0.921000
14.514500 0.811100
14.542200 0.762000
14.569800 0.712600
14.597500 0.657600
14.625100 0.633000
14.652800 0.613400
14.680400 0.596400
14.708100 0.581600
14.735700 0.564800
14.763400 0.549800
14.791000 0.529400
14.818700 0.508100
14.846300 0.487200
14.874000 0.468000
14.901600 0.472500
14.929300 0.537800
14.956900 0.551700
14.984500 0.584700
15.012200 0.627000
15.039800 0.623100
15.067500 0.652200
15.095100 0.708000
15.122800 0.755500
15.150400 0.801400
15.178100 0.844600
15.205700 0.906800
15.233400 1.094400
15.261000 1.017700
15.288700 0.777600
15.316300 0.654600
15.344000 0.671500
15.371600 0.793000
15.399300 0.644100
15.426900 0.612900
15.454500 0.631700
15.482200 0.605000
15.509800 0.605300
15.537500 0.613400
15.565100 0.634500
15.592800 0.620100
15.620400 0.630000
15.648100 0.650800
15.675700 0.684100
15.703400 0.705400
15.731000 0.729500
15.758700 0.756700
15.786300 0.778100
15.814000 0.803000
15.841600 0.850900
15.869300 0.933000
15.896900 1.012600
15.924500 1.095700
15.952200 1.237700
15.979800 1.263200
16.007500 1.258900
16.035100 1.328300
16.062800 1.373200
16.090400 1.211700
16.118100 1.018300
16.145700 0.859600
16.173400 0.759900
16.201000 0.703000
16.228700 0.659800
16.256300 0.602600
16.284000 0.574000
16.311600 0.569500
16.339300 0.580900
16.366900 0.585700
16.394600 0.614500
16.422200 0.763100
16.449800 0.991900
16.477500 1.096100
16.505100 0.638000
16.532800 0.579900
16.560400 0.546000
16.588100 0.532100
16.615700 0.537000
16.643400 0.568200
16.671000 0.575200
16.698700 0.611100
16.726300 0.672500
16.754000 0.666000
16.781600 0.657100
16.809300 0.652000
16.836900 0.639600
16.864600 0.656200
16.892200 0.670200
16.919800 0.562700
16.947500 0.455800
16.975100 0.428500
17.002800 0.413100
17.030400 0.406300
17.058100 0.401100
17.085700 0.394500
17.113400 0.388400
17.141000 0.385600
17.168700 0.389100
17.196300 0.393900
17.224000 0.397800
17.251600 0.406200
17.279300 0.419300
17.306900 0.423100
17.334600 0.450200
17.362200 0.465300
17.389800 0.468300
17.417500 0.474400
17.445100 0.475500
17.472800 0.478100
17.500400 0.489300
17.528100 0.504200
17.555700 0.521900
17.583400 0.539400
17.611000 0.556700
17.638700 0.579800
17.666300 0.582800
17.694000 0.587100
17.721600 0.593700
17.749300 0.603800
17.776900 0.611700
17.804600 0.621300
17.832200 0.624600
17.859900 0.628700
17.887500 0.634800
17.915100 0.645100
17.942800 0.652300
17.970400 0.663400
17.998100 0.677200
18.025700 0.699300
18.053400 0.785800
18.081000 0.843000
18.108700 0.896500
18.136300 0.867400
18.164000 0.832600
18.191600 0.794900
18.219300 0.768400
18.246900 0.759500
18.274600 0.750200
18.302200 0.746000
18.329900 0.748000
18.357500 0.702200
18.385100 0.664600
18.412800 0.560100
18.440400 0.509300
18.468100 0.471800
18.495700 0.447800
18.523400 0.439300
18.551000 0.431800
18.578700 0.425600
18.606300 0.418000
18.634000 0.412300
18.661600 0.413700
18.689300 0.417000
18.716900 0.422600
18.744600 0.434400
18.772200 0.444000
18.799900 0.447700
18.827500 0.445500
18.855100 0.442700
18.882800 0.438200
18.910400 0.432800
18.938100 0.428300
18.965700 0.424400
18.993400 0.420900
19.021000 0.418300
19.048700 0.416300
19.076300 0.413800
19.104000 0.411600
19.131600 0.410100
19.159300 0.409700
19.186900 0.424900
19.214600 0.434700
19.242200 0.443800
19.269900 0.457100
19.297500 0.469100
19.325200 0.501100
19.352800 0.498800
19.380400 0.496900
19.408100 0.494100
19.435700 0.488200
19.463400 0.478400
19.491000 0.474100
19.518700 0.467100
19.546300 0.460900
19.574000 0.455200
19.601600 0.447500
19.629300 0.436600
19.656900 0.424500
19.684600 0.408100
19.712200 0.390300
19.739900 0.371800
19.767500 0.358100
19.795200 0.346800
19.822800 0.335100
19.850400 0.322500
19.878100 0.309300
19.905700 0.290600
19.933400 0.270700
19.961000 0.254400
19.988700 0.237100
20.016300 0.223200
20.044000 0.213300
20.071600 0.207300
20.099300 0.210200
20.126900 0.234800
20.154600 0.262100
20.182200 0.280800
20.209900 0.304500
20.237500 0.328700
20.265200 0.344900
20.292800 0.360100
20.320400 0.384400
20.348100 0.399600
20.375700 0.417500
20.403400 0.440600
20.431000 0.495700
20.458700 0.726700
20.486300 0.797500
20.514000 0.814700
20.541600 0.856800
20.569300 0.869000
20.596900 0.859500
20.624600 0.837500
20.652200 0.827100
20.679900 0.829300
20.707500 0.843600
20.735200 0.849100
20.762800 0.851800
20.790500 0.862900
20.818100 0.879400
20.845700 0.885100
20.873400 0.884900
20.901000 0.890600
20.928700 0.876800
20.956300 0.874900
20.984000 0.883400
21.011600 0.904000
21.039300 0.984800
21.066900 0.942800
21.094600 0.858800
21.122200 0.807700
21.149900 0.778000
21.177500 0.738600
21.205200 0.702900
21.232800 0.690100
21.260500 0.653100
21.288100 0.621000
21.315700 0.592000
21.343400 0.564400
21.371000 0.543600
21.398700 0.529300
21.426300 0.499100
21.454000 0.480300
21.481600 0.462300
21.509300 0.448000
21.536900 0.439300
21.564600 0.431800
21.592200 0.408800
21.619900 0.396200
21.647500 0.382900
21.675200 0.369700
21.702800 0.360200
21.730500 0.353300
21.758100 0.337500
21.785700 0.321400
21.813400 0.303800
21.841000 0.288900
21.868700 0.277600
21.896300 0.263700
21.924000 0.247500
21.951600 0.230000
21.979300 0.212600
22.006900 0.191400
22.034600 0.171400
22.062200 0.157100
22.089900 0.148000
22.117500 0.143600
22.145200 0.128300
22.172800 0.109200
22.200500 0.099100
22.228100 0.097800
22.255800 0.100800
22.283400 0.103500
22.311000 0.105500
22.338700 0.107800
22.366300 0.098600
22.394000 0.099600
22.421600 0.106800
22.449300 0.115400
22.476900 0.125800
22.504600 0.139100
22.532200 0.155400
22.559900 0.178200
22.587500 0.195900
22.615200 0.212900
22.642800 0.223900
22.670500 0.224700
22.698100 0.236900
22.725800 0.249900
22.753400 0.265900
22.781000 0.282600
22.808700 0.301900
22.836300 0.324400
22.864000 0.339500
22.891600 0.354100
22.919300 0.374300
22.946900 0.394700
22.974600 0.417000
23.002200 0.469500
23.029900 0.502400
23.057500 0.493100
23.085200 0.482500
23.112800 0.479400
23.140500 0.479100
23.168100 0.475900
23.195800 0.471300
23.223400 0.468000
23.251000 0.481400
23.278700 0.490600
23.306300 0.497000
23.334000 0.506400
23.361600 0.507900
23.389300 0.507500
23.416900 0.505600
23.444600 0.506900
23.472200 0.509900
23.499900 0.514000
23.527500 0.518600
23.555200 0.523800
23.582800 0.528200
23.610500 0.533900
23.638100 0.537400
23.665800 0.540400
23.693400 0.544800
23.721100 0.551900
23.748700 0.555200
23.776300 0.559100
23.804000 0.564700
23.831600 0.559200
23.859300 0.555600
23.886900 0.560600
23.914600 0.565900
23.942200 0.568900
23.969900 0.563500
23.997500 0.560100
24.025200 0.555400
24.052800 0.553900
24.080500 0.557400
24.108100 0.565100
24.135800 0.569400
24.163400 0.573800
24.191100 0.582500
24.218700 0.589200
24.246300 0.564500
24.274000 0.549300
24.301600 0.529800
24.329300 0.503100
24.356900 0.471000
24.384600 0.459400
24.412200 0.446400
24.439900 0.424000
24.467500 0.402400
24.495200 0.383800
24.522800 0.372100
24.550500 0.361700
24.578100 0.353000
24.605800 0.345500
24.633400 0.339800
24.661100 0.335100
24.688700 0.330000
24.716300 0.330000
24.744000 0.329300
24.771600 0.338100
24.799300 0.346300
24.826900 0.350900
24.854600 0.359700
24.882200 0.373700
24.909900 0.391300
24.937500 0.412400
24.965200 0.437300
24.992800 0.466900
25.020500 0.478100
25.048100 0.474800
25.075800 0.466200
25.103400 0.456800
25.131100 0.455500
25.158700 0.461700
25.186300 0.471900
25.214000 0.483800
25.241600 0.497800
25.269300 0.514700
25.296900 0.536400
25.324600 0.555500
25.352200 0.553300
25.379900 0.551000
25.407500 0.555900
25.435200 0.554400
25.462800 0.551700
25.490500 0.550100
25.518100 0.548000
25.545800 0.541900
25.573400 0.533100
25.601100 0.527100
25.628700 0.521300
25.656400 0.512100
25.684000 0.505200
25.711600 0.502400
25.739300 0.495500
25.766900 0.485700
25.794600 0.480300
25.822200 0.476200
25.849900 0.474500
25.877500 0.474100
25.905200 0.472600
25.932800 0.472600
25.960500 0.474800
25.988100 0.477600
26.015800 0.479800
26.043400 0.477000
26.071100 0.472600
26.098700 0.469900
26.126400 0.467900
26.154000 0.466900
26.181600 0.467300
26.209300 0.470000
26.236900 0.473900
26.264600 0.477700
26.292200 0.481800
26.319900 0.486000
26.347500 0.489200
26.375200 0.493800
26.402800 0.499900
26.430500 0.503800
26.458100 0.512600
26.485800 0.507600
26.513400 0.504400
26.541100 0.508300
26.568700 0.513500
26.596400 0.519000
26.624000 0.525000
26.651600 0.530600
26.679300 0.534700
26.706900 0.541900
26.734600 0.547500
26.762200 0.552200
26.789900 0.553400
26.817500 0.550900
26.845200 0.549100
26.872800 0.546700
26.900500 0.542200
26.928100 0.537400
26.955800 0.535200
26.983400 0.535300
27.011100 0.536800
27.038700 0.539300
27.066400 0.543100
27.094000 0.549900
27.121700 0.575300
27.149300 0.594700
27.176900 0.588800
27.204600 0.592300
27.232200 0.600100
27.259900 0.602300
27.287500 0.591800
27.315200 0.590100
27.342800 0.589200
27.370500 0.583800
27.398100 0.578000
27.425800 0.570900
27.453400 0.552900
27.481100 0.542800
27.508700 0.538000
27.536400 0.514300
27.564000 0.513300
27.591700 0.518100
27.619300 0.528500
27.646900 0.531900
27.674600 0.532800
27.702200 0.536100
27.729900 0.543300
27.757500 0.549300
27.785200 0.557300
27.812800 0.567800
27.840500 0.575700
27.868100 0.560900
27.895800 0.553600
27.923400 0.550700
27.951100 0.546700
27.978700 0.534300
28.006400 0.522000
28.034000 0.510700
28.061700 0.481900
28.089300 0.454000
28.116900 0.423900
28.144600 0.400800
28.172200 0.384700
28.199900 0.374700
28.227500 0.360900
28.255200 0.337400
28.282800 0.305500
28.310500 0.274200
28.338100 0.245100
28.365800 0.219800
28.393400 0.198200
28.421100 0.182700
28.448700 0.171700
28.476400 0.163100
28.504000 0.155500
28.531700 0.148300
28.559300 0.141700
28.587000 0.135800
28.614600 0.130400
28.642200 0.125700
28.669900 0.121300
28.697500 0.117100
28.725200 0.113000
28.752800 0.108700
28.780500 0.104300
28.808100 0.099900
28.835800 0.097000
28.863400 0.093900
28.891100 0.090200
28.918700 0.086500
28.946400 0.082800
28.974000 0.079100
29.001700 0.076600
29.029300 0.074800
29.057000 0.072900
29.084600 0.070600
29.112200 0.068600
29.139900 0.066900
29.167500 0.065400
29.195200 0.063900
29.222800 0.062000
29.250500 0.059500
29.278100 0.055100
29.305800 0.054100
29.333400 0.053200
29.361100 0.052400
29.388700 0.051500
29.416400 0.050300
29.444000 0.049000
29.471700 0.047700
29.499300 0.046600
29.527000 0.045500
29.554600 0.044500
29.582200 0.043600
29.609900 0.042900
29.637500 0.042300
29.665200 0.041800
29.692800 0.041500
29.720500 0.041300
29.748100 0.041000
29.775800 0.040700
29.803400 0.040300
29.831100 0.039900
29.858700 0.039300
29.886400 0.038700
29.914000 0.038000
29.941700 0.037100
29.969300 0.036000
29.997000 0.034700
30.024600 0.033600
30.052300 0.033000
30.079900 0.032400
30.107500 0.031800
30.135200 0.031200
30.162800 0.030600
30.190500 0.029900
30.218100 0.029300
30.245800 0.028400
30.273400 0.027300
30.301100 0.026300
30.328700 0.025300
30.356400 0.024300
30.384000 0.023400
30.411700 0.022400
30.439300 0.021500
30.467000 0.020800
30.494600 0.020200
30.522300 0.019600
30.549900 0.019000
30.577500 0.018400
30.605200 0.017800
30.632800 0.017200
30.660500 0.016600
30.688100 0.016000
30.715800 0.015400
30.743400 0.014700
30.771100 0.013800
30.798700 0.012900
30.826400 0.011900
30.854000 0.010700
30.881700 0.009500
30.909300 0.008100
30.937000 0.006900
30.964600 0.005700
30.992300 0.004600
31.019900 0.003600
31.047500 0.002600
31.075200 0.001800
31.102800 0.000900
31.130500 0.000300
31.158100 0.000000
31.185800 0.000000
31.213400 0.000000
31.241100 0.000000
31.268700 0.000000
31.296400 0.000000
31.324000 0.000000
31.351700 0.000000
31.379300 0.000000
31.407000 0.000000
31.434600 0.000000
31.462300 0.000000
31.489900 0.000000
31.517600 0.000000
31.545200 0.000000
31.572800 0.000000
31.600500 0.000000
31.628100 0.000000
31.655800 0.000000
31.683400 0.000000
31.711100 0.000000
31.738700 0.000000
31.766400 0.000000
31.794000 0.000000
31.821700 0.000000
31.849300 0.000000
31.877000 0.000000
31.904600 0.000000
31.932300 0.000000
31.959900 0.000000
31.987600 0.000000
32.015200 0.000000
32.042800 0.000000
32.070500 0.000000
32.098100 0.000000
32.125800 0.000000
32.153400 0.000000
32.181100 0.000000
32.208700 0.000000
32.236400 0.000000
32.264000 0.000000
32.291700 0.000000
32.319300 0.000000
32.347000 0.000000
32.374600 0.000000
32.402300 0.000000
32.429900 0.000000
32.457600 0.000000
32.485200 0.000000
32.512800 0.000000
32.540500 0.000000
32.568100 0.000000
32.595800 0.000000
32.623400 0.000000
32.651100 0.000000
32.678700 0.000000
32.706400 0.000000
32.734000 0.000000
32.761700 0.000000
32.789300 0.000000
32.817000 0.000000
32.844600 0.000000
32.872300 0.000000
32.899900 0.000000
32.927600 0.000000
32.955200 0.000000
32.982900 0.000000
33.010500 0.000000
33.038100 0.000000
33.065800 0.000000
33.093400 0.000000
33.121100 0.000000
33.148700 0.000000
33.176400 0.000000
33.204000 0.000000
33.231700 0.000000
33.259300 0.000000
33.287000 0.000000
33.314600 0.000000
33.342300 0.000000
33.369900 0.000000
33.397600 0.000000
33.425200 0.000000
33.452900 0.000000
33.480500 0.000000
33.508100 0.000000
33.535800 0.000000
33.563400 0.000000
33.591100 0.000000
33.618700 0.000000
33.646400 0.000000
33.674000 0.000000
33.701700 0.000000
33.729300 0.000000
33.757000 0.000000
33.784600 0.000000
33.812300 0.000000
33.839900 0.000000
33.867600 0.000000
33.895200 0.000000
33.922900 0.000000
33.950500 0.000000
33.978100 0.000000
34.005800 0.000000
e
